06/10/2022	16:32:03	Ver.	4.1	UNKNOWN
Optical Delay	650.009681	Delta X		0.078125	Sweeps	1	Scan Rate	0/0
Coordinates	Axis 1	NaN	Axis 2	NaN	Axis 3	NaN	Axis 4	NaN	Axis 5	NaN	Axis 6	0.000000
TX Power	0.000000	RX Power	0.000000

650.010	0.0166422
650.088	0.0166306
650.166	0.0165909
650.244	0.0166390
650.322	0.0167284
650.400	0.0166745
650.478	0.0166099
650.557	0.0166222
650.635	0.0167180
650.713	0.0166599
650.791	0.0166389
650.869	0.0166930
650.947	0.0166440
651.025	0.0167199
651.103	0.0166927
651.182	0.0167134
651.260	0.0167448
651.338	0.0166829
651.416	0.0166396
651.494	0.0167337
651.572	0.0167543
651.650	0.0167320
651.728	0.0166394
651.807	0.0166320
651.885	0.0166531
651.963	0.0166570
652.041	0.0167390
652.119	0.0166083
652.197	0.0167420
652.275	0.0166968
652.353	0.0165753
652.432	0.0166396
652.510	0.0166886
652.588	0.0167670
652.666	0.0167461
652.744	0.0165795
652.822	0.0167279
652.900	0.0166751
652.978	0.0165653
653.057	0.0167229
653.135	0.0166257
653.213	0.0166211
653.291	0.0166660
653.369	0.0166797
653.447	0.0164991
653.525	0.0165054
653.603	0.0165878
653.682	0.0165018
653.760	0.0165537
653.838	0.0165343
653.916	0.0165857
653.994	0.0165922
654.072	0.0165958
654.150	0.0165427
654.228	0.0165428
654.307	0.0166338
654.385	0.0167011
654.463	0.0166007
654.541	0.0166727
654.619	0.0166901
654.697	0.0165407
654.775	0.0165300
654.853	0.0165240
654.932	0.0167307
655.010	0.0165489
655.088	0.0164368
655.166	0.0166421
655.244	0.0165575
655.322	0.0166354
655.400	0.0167660
655.478	0.0166666
655.557	0.0166103
655.635	0.0165140
655.713	0.0164746
655.791	0.0166248
655.869	0.0166807
655.947	0.0164960
656.025	0.0165981
656.103	0.0167609
656.182	0.0166816
656.260	0.0166458
656.338	0.0165002
656.416	0.0166271
656.494	0.0164979
656.572	0.0164772
656.650	0.0165793
656.728	0.0165099
656.807	0.0166325
656.885	0.0166453
656.963	0.0165343
657.041	0.0164575
657.119	0.0166513
657.197	0.0166756
657.275	0.0166859
657.353	0.0166466
657.432	0.0166266
657.510	0.0165464
657.588	0.0165428
657.666	0.0165942
657.744	0.0166702
657.822	0.0165345
657.900	0.0165768
657.978	0.0165671
658.057	0.0165543
658.135	0.0166448
658.213	0.0166637
658.291	0.0165984
658.369	0.0164651
658.447	0.0166004
658.525	0.0166118
658.603	0.0167479
658.682	0.0166304
658.760	0.0164491
658.838	0.0165289
658.916	0.0166866
658.994	0.0166131
659.072	0.0164898
659.150	0.0165127
659.228	0.0165240
659.307	0.0165543
659.385	0.0166183
659.463	0.0165511
659.541	0.0164872
659.619	0.0166377
659.697	0.0165173
659.775	0.0166047
659.853	0.0166087
659.932	0.0165647
660.010	0.0166579
660.088	0.0166818
660.166	0.0166753
660.244	0.0168157
660.322	0.0166005
660.400	0.0166360
660.478	0.0165990
660.557	0.0165991
660.635	0.0167548
660.713	0.0165736
660.791	0.0166708
660.869	0.0166432
660.947	0.0166278
661.025	0.0166367
661.103	0.0166486
661.182	0.0166607
661.260	0.0167195
661.338	0.0167220
661.416	0.0166940
661.494	0.0165610
661.572	0.0166025
661.650	0.0167262
661.728	0.0165823
661.807	0.0165244
661.885	0.0166363
661.963	0.0166634
662.041	0.0165389
662.119	0.0165524
662.197	0.0166981
662.275	0.0166980
662.353	0.0166037
662.432	0.0166590
662.510	0.0165211
662.588	0.0166681
662.666	0.0165771
662.744	0.0167438
662.822	0.0166055
662.900	0.0166373
662.978	0.0167098
663.057	0.0166544
663.135	0.0166011
663.213	0.0165630
663.291	0.0165410
663.369	0.0166533
663.447	0.0166196
663.525	0.0167028
663.603	0.0166030
663.682	0.0166910
663.760	0.0166691
663.838	0.0166184
663.916	0.0166312
663.994	0.0166872
664.072	0.0167081
664.150	0.0165678
664.228	0.0167265
664.307	0.0166010
664.385	0.0166454
664.463	0.0166559
664.541	0.0166651
664.619	0.0166821
664.697	0.0165600
664.775	0.0166771
664.853	0.0166649
664.932	0.0166599
665.010	0.0166754
665.088	0.0166561
665.166	0.0166560
665.244	0.0167525
665.322	0.0166946
665.400	0.0166019
665.478	0.0166940
665.557	0.0167455
665.635	0.0168100
665.713	0.0167411
665.791	0.0167712
665.869	0.0165866
665.947	0.0166499
666.025	0.0166379
666.103	0.0166314
666.182	0.0166161
666.260	0.0167842
666.338	0.0168803
666.416	0.0166825
666.494	0.0166616
666.572	0.0166798
666.650	0.0166992
666.728	0.0167477
666.807	0.0167065
666.885	0.0166490
666.963	0.0167470
667.041	0.0166740
667.119	0.0166954
667.197	0.0167257
667.275	0.0168269
667.353	0.0167703
667.432	0.0167120
667.510	0.0166366
667.588	0.0166500
667.666	0.0167019
667.744	0.0168169
667.822	0.0165717
667.900	0.0166441
667.978	0.0166795
668.057	0.0166454
668.135	0.0166966
668.213	0.0167169
668.291	0.0166671
668.369	0.0167039
668.447	0.0166016
668.525	0.0165492
668.603	0.0167199
668.682	0.0167593
668.760	0.0165926
668.838	0.0166196
668.916	0.0167327
668.994	0.0167547
669.072	0.0166570
669.150	0.0165761
669.228	0.0165658
669.307	0.0166422
669.385	0.0166730
669.463	0.0165845
669.541	0.0166280
669.619	0.0165813
669.697	0.0165147
669.775	0.0166618
669.853	0.0166916
669.932	0.0166684
670.010	0.0166566
670.088	0.0165929
670.166	0.0166674
670.244	0.0165650
670.322	0.0166456
670.400	0.0166768
670.478	0.0167819
670.557	0.0166386
670.635	0.0167481
670.713	0.0166631
670.791	0.0166755
670.869	0.0165276
670.947	0.0166064
671.025	0.0167587
671.103	0.0166044
671.182	0.0167165
671.260	0.0167654
671.338	0.0167210
671.416	0.0167179
671.494	0.0166665
671.572	0.0167650
671.650	0.0166730
671.728	0.0166364
671.807	0.0167125
671.885	0.0168620
671.963	0.0167325
672.041	0.0168400
672.119	0.0167319
672.197	0.0166147
672.275	0.0167101
672.353	0.0167540
672.432	0.0168417
672.510	0.0167017
672.588	0.0166206
672.666	0.0166018
672.744	0.0166331
672.822	0.0167268
672.900	0.0166529
672.978	0.0167322
673.057	0.0166991
673.135	0.0167689
673.213	0.0165979
673.291	0.0166541
673.369	0.0166736
673.447	0.0166340
673.525	0.0166848
673.603	0.0165923
673.682	0.0164806
673.760	0.0166840
673.838	0.0164986
673.916	0.0166965
673.994	0.0165919
674.072	0.0165543
674.150	0.0166335
674.228	0.0166920
674.307	0.0164729
674.385	0.0166024
674.463	0.0166451
674.541	0.0165686
674.619	0.0165477
674.697	0.0166233
674.775	0.0166213
674.853	0.0165820
674.932	0.0166248
675.010	0.0167071
675.088	0.0167226
675.166	0.0165504
675.244	0.0166260
675.322	0.0165601
675.400	0.0165034
675.478	0.0165404
675.557	0.0165772
675.635	0.0166293
675.713	0.0165712
675.791	0.0165619
675.869	0.0166425
675.947	0.0165528
676.025	0.0166002
676.103	0.0166458
676.182	0.0166399
676.260	0.0165587
676.338	0.0166200
676.416	0.0165007
676.494	0.0166316
676.572	0.0164925
676.650	0.0166786
676.728	0.0167188
676.807	0.0165507
676.885	0.0165601
676.963	0.0166995
677.041	0.0165890
677.119	0.0165542
677.197	0.0166010
677.275	0.0165739
677.353	0.0166396
677.432	0.0166443
677.510	0.0166002
677.588	0.0165810
677.666	0.0165991
677.744	0.0166305
677.822	0.0166159
677.900	0.0164911
677.978	0.0166162
678.057	0.0167603
678.135	0.0166448
678.213	0.0166181
678.291	0.0166235
678.369	0.0165673
678.447	0.0166443
678.525	0.0165128
678.603	0.0165210
678.682	0.0165786
678.760	0.0166248
678.838	0.0165550
678.916	0.0165930
678.994	0.0165871
679.072	0.0165215
679.150	0.0166122
679.228	0.0165804
679.307	0.0166599
679.385	0.0164433
679.463	0.0165936
679.541	0.0166765
679.619	0.0165807
679.697	0.0166689
679.775	0.0165106
679.853	0.0164679
679.932	0.0166818
680.010	0.0166478
680.088	0.0167240
680.166	0.0166586
680.244	0.0165752
680.322	0.0167972
680.400	0.0166184
680.478	0.0165591
680.557	0.0165023
680.635	0.0167023
680.713	0.0166281
680.791	0.0167300
680.869	0.0166963
680.947	0.0165620
681.025	0.0165827
681.103	0.0166313
681.182	0.0166373
681.260	0.0167819
681.338	0.0166946
681.416	0.0166759
681.494	0.0167116
681.572	0.0166818
681.650	0.0165314
681.728	0.0165986
681.807	0.0167313
681.885	0.0166890
681.963	0.0167271
682.041	0.0165120
682.119	0.0165411
682.197	0.0166126
682.275	0.0166793
682.353	0.0166835
682.432	0.0166703
682.510	0.0166415
682.588	0.0166426
682.666	0.0166989
682.744	0.0166127
682.822	0.0165989
682.900	0.0167355
682.978	0.0167539
683.057	0.0166560
683.135	0.0166737
683.213	0.0167332
683.291	0.0166357
683.369	0.0166703
683.447	0.0165897
683.525	0.0166238
683.603	0.0167124
683.682	0.0165257
683.760	0.0166158
683.838	0.0167265
683.916	0.0167661
683.994	0.0166343
684.072	0.0166257
684.150	0.0166020
684.228	0.0166378
684.307	0.0165863
684.385	0.0166437
684.463	0.0166360
684.541	0.0165201
684.619	0.0167171
684.697	0.0165794
684.775	0.0166780
684.853	0.0165361
684.932	0.0166209
685.010	0.0166698
685.088	0.0168007
685.166	0.0166674
685.244	0.0166248
685.322	0.0167101
685.400	0.0168164
685.478	0.0166208
685.557	0.0165718
685.635	0.0165378
685.713	0.0166617
685.791	0.0167660
685.869	0.0168088
685.947	0.0166871
686.025	0.0166081
686.103	0.0166853
686.182	0.0166728
686.260	0.0167746
686.338	0.0167046
686.416	0.0167354
686.494	0.0167791
686.572	0.0166967
686.650	0.0167128
686.728	0.0166743
686.807	0.0165884
686.885	0.0166328
686.963	0.0167465
687.041	0.0168575
687.119	0.0166245
687.197	0.0165778
687.275	0.0165370
687.353	0.0167162
687.432	0.0166544
687.510	0.0167210
687.588	0.0165990
687.666	0.0165616
687.744	0.0166830
687.822	0.0165739
687.900	0.0166791
687.978	0.0166268
688.057	0.0166404
688.135	0.0165977
688.213	0.0167058
688.291	0.0167036
688.369	0.0166119
688.447	0.0166593
688.525	0.0166583
688.603	0.0166590
688.682	0.0166159
688.760	0.0165738
688.838	0.0166792
688.916	0.0165572
688.994	0.0167120
689.072	0.0165835
689.150	0.0167929
689.228	0.0166583
689.307	0.0165914
689.385	0.0166274
689.463	0.0164775
689.541	0.0167908
689.619	0.0165991
689.697	0.0166399
689.775	0.0168111
689.853	0.0165349
689.932	0.0165103
690.010	0.0166869
690.088	0.0166814
690.166	0.0166444
690.244	0.0165960
690.322	0.0167085
690.400	0.0166270
690.478	0.0166167
690.557	0.0165491
690.635	0.0166426
690.713	0.0167881
690.791	0.0165571
690.869	0.0166885
690.947	0.0164911
691.025	0.0165405
691.103	0.0166293
691.182	0.0166479
691.260	0.0166209
691.338	0.0166074
691.416	0.0165905
691.494	0.0165645
691.572	0.0166511
691.650	0.0164369
691.728	0.0165393
691.807	0.0166160
691.885	0.0166362
691.963	0.0166663
692.041	0.0167361
692.119	0.0166245
692.197	0.0166198
692.275	0.0166587
692.353	0.0166978
692.432	0.0167114
692.510	0.0165711
692.588	0.0166753
692.666	0.0165969
692.744	0.0166027
692.822	0.0166748
692.900	0.0166457
692.978	0.0165287
693.057	0.0165552
693.135	0.0166075
693.213	0.0165947
693.291	0.0166792
693.369	0.0166911
693.447	0.0166023
693.525	0.0165408
693.603	0.0166617
693.682	0.0165201
693.760	0.0166177
693.838	0.0166761
693.916	0.0164482
693.994	0.0167091
694.072	0.0167042
694.150	0.0165627
694.228	0.0165814
694.307	0.0165756
694.385	0.0165608
694.463	0.0166296
694.541	0.0166737
694.619	0.0167240
694.697	0.0165472
694.775	0.0166476
694.853	0.0167366
694.932	0.0165494
695.010	0.0167017
695.088	0.0166608
695.166	0.0166438
695.244	0.0166813
695.322	0.0166148
695.400	0.0166036
695.478	0.0166300
695.557	0.0166412
695.635	0.0166228
695.713	0.0165645
695.791	0.0165246
695.869	0.0165276
695.947	0.0166348
696.025	0.0166571
696.103	0.0166470
696.182	0.0166062
696.260	0.0165609
696.338	0.0165537
696.416	0.0165298
696.494	0.0165974
696.572	0.0166032
696.650	0.0166096
696.728	0.0166685
696.807	0.0165060
696.885	0.0165331
696.963	0.0166960
697.041	0.0165536
697.119	0.0165076
697.197	0.0165764
697.275	0.0164929
697.353	0.0166576
697.432	0.0165259
697.510	0.0166810
697.588	0.0165274
697.666	0.0165941
697.744	0.0166235
697.822	0.0165324
697.900	0.0167398
697.978	0.0166727
698.057	0.0166308
698.135	0.0166534
698.213	0.0166406
698.291	0.0166103
698.369	0.0166486
698.447	0.0166534
698.525	0.0166415
698.603	0.0166502
698.682	0.0166309
698.760	0.0165891
698.838	0.0166658
698.916	0.0166318
698.994	0.0166484
699.072	0.0166389
699.150	0.0165111
699.228	0.0166160
699.307	0.0166431
699.385	0.0165824
699.463	0.0166312
699.541	0.0165856
699.619	0.0166659
699.697	0.0165657
699.775	0.0166328
699.853	0.0165443
699.932	0.0165250
700.010	0.0165494
700.088	0.0166122
700.166	0.0166627
700.244	0.0166270
700.322	0.0165448
700.400	0.0165773
700.478	0.0165153
700.557	0.0164687
700.635	0.0165890
700.713	0.0165493
700.791	0.0167296
700.869	0.0166759
700.947	0.0165594
701.025	0.0166167
701.103	0.0165811
701.182	0.0167412
701.260	0.0164665
701.338	0.0165421
701.416	0.0166813
701.494	0.0164777
701.572	0.0165597
701.650	0.0165816
701.728	0.0165956
701.807	0.0164724
701.885	0.0165875
701.963	0.0166929
702.041	0.0166753
702.119	0.0164867
702.197	0.0165293
702.275	0.0167577
702.353	0.0166663
702.432	0.0166718
702.510	0.0166926
702.588	0.0166834
702.666	0.0167191
702.744	0.0167178
702.822	0.0166190
702.900	0.0167467
702.978	0.0167065
703.057	0.0167265
703.135	0.0166993
703.213	0.0166663
703.291	0.0167201
703.369	0.0166595
703.447	0.0166196
703.525	0.0167358
703.603	0.0166431
703.682	0.0167739
703.760	0.0167316
703.838	0.0167110
703.916	0.0167118
703.994	0.0166286
704.072	0.0166544
704.150	0.0166798
704.228	0.0166856
704.307	0.0167308
704.385	0.0167117
704.463	0.0165656
704.541	0.0165663
704.619	0.0166138
704.697	0.0167124
704.775	0.0166349
704.853	0.0165678
704.932	0.0167413
705.010	0.0167215
705.088	0.0166882
705.166	0.0167410
705.244	0.0166942
705.322	0.0167209
705.400	0.0167006
705.478	0.0166550
705.557	0.0168227
705.635	0.0167189
705.713	0.0166176
705.791	0.0166122
705.869	0.0167264
705.947	0.0167608
706.025	0.0167976
706.103	0.0167598
706.182	0.0167531
706.260	0.0167614
706.338	0.0167604
706.416	0.0166407
706.494	0.0167684
706.572	0.0168213
706.650	0.0167319
706.728	0.0167213
706.807	0.0167522
706.885	0.0166783
706.963	0.0166950
707.041	0.0166668
707.119	0.0168936
707.197	0.0166690
707.275	0.0166058
707.353	0.0165817
707.432	0.0165549
707.510	0.0166247
707.588	0.0166234
707.666	0.0165617
707.744	0.0167197
707.822	0.0167664
707.900	0.0165334
707.978	0.0165058
708.057	0.0165851
708.135	0.0165562
708.213	0.0166302
708.291	0.0166618
708.369	0.0166936
708.447	0.0167359
708.525	0.0166827
708.603	0.0165769
708.682	0.0165525
708.760	0.0166502
708.838	0.0166634
708.916	0.0166339
708.994	0.0166267
709.072	0.0166030
709.150	0.0166546
709.228	0.0168151
709.307	0.0167165
709.385	0.0167809
709.463	0.0167538
709.541	0.0165915
709.619	0.0166254
709.697	0.0165569
709.775	0.0166882
709.853	0.0166955
709.932	0.0166715
710.010	0.0166927
710.088	0.0167445
710.166	0.0166828
710.244	0.0166685
710.322	0.0166618
710.400	0.0166730
710.478	0.0166006
710.557	0.0167240
710.635	0.0168233
710.713	0.0166411
710.791	0.0166024
710.869	0.0166605
710.947	0.0165394
711.025	0.0166460
711.103	0.0166978
711.182	0.0165472
711.260	0.0165398
711.338	0.0166042
711.416	0.0166449
711.494	0.0166247
711.572	0.0165784
711.650	0.0165787
711.728	0.0166259
711.807	0.0166103
711.885	0.0165201
711.963	0.0166257
712.041	0.0166599
712.119	0.0164700
712.197	0.0165469
712.275	0.0165102
712.353	0.0165565
712.432	0.0166230
712.510	0.0166238
712.588	0.0166668
712.666	0.0166954
712.744	0.0166048
712.822	0.0166067
712.900	0.0166405
712.978	0.0166576
713.057	0.0166432
713.135	0.0166364
713.213	0.0166278
713.291	0.0166455
713.369	0.0167152
713.447	0.0167031
713.525	0.0167831
713.603	0.0167374
713.682	0.0166215
713.760	0.0166455
713.838	0.0167370
713.916	0.0167326
713.994	0.0166853
714.072	0.0166683
714.150	0.0167181
714.228	0.0166178
714.307	0.0166764
714.385	0.0167425
714.463	0.0165618
714.541	0.0166067
714.619	0.0166514
714.697	0.0166940
714.775	0.0165578
714.853	0.0165311
714.932	0.0165073
715.010	0.0167518
715.088	0.0166499
715.166	0.0167365
715.244	0.0168229
715.322	0.0167840
715.400	0.0168052
715.478	0.0168212
715.557	0.0167540
715.635	0.0167180
715.713	0.0166740
715.791	0.0165128
715.869	0.0165916
715.947	0.0164822
716.025	0.0164220
716.103	0.0164436
716.182	0.0163708
716.260	0.0161848
716.338	0.0163371
716.416	0.0163245
716.494	0.0164749
716.572	0.0165995
716.650	0.0164573
716.728	0.0166350
716.807	0.0166033
716.885	0.0167803
716.963	0.0169225
717.041	0.0167826
717.119	0.0168704
717.197	0.0169029
717.275	0.0167464
717.353	0.0167236
717.432	0.0168879
717.510	0.0166260
717.588	0.0164906
717.666	0.0167126
717.744	0.0166357
717.822	0.0164231
717.900	0.0166067
717.978	0.0164122
718.057	0.0163317
718.135	0.0163514
718.213	0.0165736
718.291	0.0166127
718.369	0.0165322
718.447	0.0166014
718.525	0.0164235
718.603	0.0165243
718.682	0.0163464
718.760	0.0164020
718.838	0.0165060
718.916	0.0164079
718.994	0.0163309
719.072	0.0164506
719.150	0.0164333
719.228	0.0164835
719.307	0.0165058
719.385	0.0164495
719.463	0.0165997
719.541	0.0168318
719.619	0.0168232
719.697	0.0169093
719.775	0.0169540
719.853	0.0168974
719.932	0.0168932
720.010	0.0168875
720.088	0.0167968
720.166	0.0167029
720.244	0.0166376
720.322	0.0165308
720.400	0.0163584
720.478	0.0162711
720.557	0.0163028
720.635	0.0161552
720.713	0.0160657
720.791	0.0161155
720.869	0.0162500
720.947	0.0163517
721.025	0.0163202
721.103	0.0164597
721.182	0.0164249
721.260	0.0164906
721.338	0.0165668
721.416	0.0165972
721.494	0.0168461
721.572	0.0167031
721.650	0.0168340
721.728	0.0168590
721.807	0.0169884
721.885	0.0169802
721.963	0.0169739
722.041	0.0168568
722.119	0.0169512
722.197	0.0170211
722.275	0.0168083
722.353	0.0167793
722.432	0.0166412
722.510	0.0166351
722.588	0.0164816
722.666	0.0164875
722.744	0.0164854
722.822	0.0163116
722.900	0.0164205
722.978	0.0164249
723.057	0.0162183
723.135	0.0162346
723.213	0.0163690
723.291	0.0162315
723.369	0.0162981
723.447	0.0163560
723.525	0.0164513
723.603	0.0165089
723.682	0.0165224
723.760	0.0167560
723.838	0.0166164
723.916	0.0167561
723.994	0.0168580
724.072	0.0168185
724.150	0.0167038
724.228	0.0169047
724.307	0.0169476
724.385	0.0168710
724.463	0.0169230
724.541	0.0169065
724.619	0.0168542
724.697	0.0169923
724.775	0.0168698
724.853	0.0168326
724.932	0.0166760
725.010	0.0167719
725.088	0.0166550
725.166	0.0164767
725.244	0.0165491
725.322	0.0167570
725.400	0.0164127
725.478	0.0165294
725.557	0.0165047
725.635	0.0164409
725.713	0.0163639
725.791	0.0165087
725.869	0.0165754
725.947	0.0164906
726.025	0.0166977
726.103	0.0167509
726.182	0.0166882
726.260	0.0166903
726.338	0.0168935
726.416	0.0168784
726.494	0.0169760
726.572	0.0170406
726.650	0.0169050
726.728	0.0169412
726.807	0.0169234
726.885	0.0168279
726.963	0.0170266
727.041	0.0167564
727.119	0.0167341
727.197	0.0166668
727.275	0.0166409
727.353	0.0166342
727.432	0.0165409
727.510	0.0163350
727.588	0.0165569
727.666	0.0166335
727.744	0.0165562
727.822	0.0164452
727.900	0.0166189
727.978	0.0165431
728.057	0.0164570
728.135	0.0167712
728.213	0.0166476
728.291	0.0167020
728.369	0.0167476
728.447	0.0168399
728.525	0.0167159
728.603	0.0168782
728.682	0.0167096
728.760	0.0167265
728.838	0.0166175
728.916	0.0166982
728.994	0.0165903
729.072	0.0166865
729.150	0.0166359
729.228	0.0168191
729.307	0.0167629
729.385	0.0167128
729.463	0.0167518
729.541	0.0167653
729.619	0.0167013
729.697	0.0168279
729.775	0.0167859
729.853	0.0167003
729.932	0.0169119
730.010	0.0168333
730.088	0.0166620
730.166	0.0168327
730.244	0.0166428
730.322	0.0166153
730.400	0.0166874
730.478	0.0165424
730.557	0.0166618
730.635	0.0166525
730.713	0.0165723
730.791	0.0165240
730.869	0.0165711
730.947	0.0166208
731.025	0.0167868
731.103	0.0167046
731.182	0.0165398
731.260	0.0167443
731.338	0.0166616
731.416	0.0168017
731.494	0.0167589
731.572	0.0166630
731.650	0.0166708
731.728	0.0167175
731.807	0.0165459
731.885	0.0165423
731.963	0.0165775
732.041	0.0165910
732.119	0.0164302
732.197	0.0163676
732.275	0.0164854
732.353	0.0164443
732.432	0.0163347
732.510	0.0165235
732.588	0.0164648
732.666	0.0167202
732.744	0.0167188
732.822	0.0168379
732.900	0.0167581
732.978	0.0167494
733.057	0.0167918
733.135	0.0169778
733.213	0.0169875
733.291	0.0170289
733.369	0.0168842
733.447	0.0167401
733.525	0.0166702
733.603	0.0164842
733.682	0.0164749
733.760	0.0164282
733.838	0.0163013
733.916	0.0162090
733.994	0.0162863
734.072	0.0163293
734.150	0.0161354
734.228	0.0162341
734.307	0.0162659
734.385	0.0164058
734.463	0.0163883
734.541	0.0165995
734.619	0.0164953
734.697	0.0166589
734.775	0.0167309
734.853	0.0170243
734.932	0.0170723
735.010	0.0170699
735.088	0.0171593
735.166	0.0169869
735.244	0.0171424
735.322	0.0170872
735.400	0.0169646
735.478	0.0169650
735.557	0.0168713
735.635	0.0167776
735.713	0.0168066
735.791	0.0167229
735.869	0.0164497
735.947	0.0163739
736.025	0.0163048
736.103	0.0163055
736.182	0.0163580
736.260	0.0162975
736.338	0.0163116
736.416	0.0162782
736.494	0.0162599
736.572	0.0161464
736.650	0.0163423
736.728	0.0164262
736.807	0.0164194
736.885	0.0164032
736.963	0.0165242
737.041	0.0165458
737.119	0.0165700
737.197	0.0168672
737.275	0.0169410
737.353	0.0170291
737.432	0.0171326
737.510	0.0172955
737.588	0.0173460
737.666	0.0173476
737.744	0.0173044
737.822	0.0171791
737.900	0.0170387
737.978	0.0169785
738.057	0.0167887
738.135	0.0165165
738.213	0.0164857
738.291	0.0163099
738.369	0.0160620
738.447	0.0160278
738.525	0.0159449
738.603	0.0158872
738.682	0.0156779
738.760	0.0158598
738.838	0.0159225
738.916	0.0161051
738.994	0.0162852
739.072	0.0163206
739.150	0.0164039
739.228	0.0166982
739.307	0.0168482
739.385	0.0170634
739.463	0.0170637
739.541	0.0172115
739.619	0.0171592
739.697	0.0172416
739.775	0.0173269
739.853	0.0171854
739.932	0.0172479
740.010	0.0171178
740.088	0.0169763
740.166	0.0170312
740.244	0.0168961
740.322	0.0167590
740.400	0.0165662
740.478	0.0164190
740.557	0.0167012
740.635	0.0165115
740.713	0.0162682
740.791	0.0163197
740.869	0.0163483
740.947	0.0163887
741.025	0.0164055
741.103	0.0165143
741.182	0.0163232
741.260	0.0164305
741.338	0.0166041
741.416	0.0166153
741.494	0.0164831
741.572	0.0166246
741.650	0.0164867
741.728	0.0167275
741.807	0.0167157
741.885	0.0166804
741.963	0.0166981
742.041	0.0169347
742.119	0.0168665
742.197	0.0168245
742.275	0.0168488
742.353	0.0168961
742.432	0.0171097
742.510	0.0169382
742.588	0.0168388
742.666	0.0169556
742.744	0.0168689
742.822	0.0167679
742.900	0.0168871
742.978	0.0168551
743.057	0.0167185
743.135	0.0165707
743.213	0.0167081
743.291	0.0165707
743.369	0.0165406
743.447	0.0164781
743.525	0.0164845
743.603	0.0164781
743.682	0.0165291
743.760	0.0162892
743.838	0.0165060
743.916	0.0163890
743.994	0.0166083
744.072	0.0166882
744.150	0.0166267
744.228	0.0166516
744.307	0.0165475
744.385	0.0166326
744.463	0.0166588
744.541	0.0166011
744.619	0.0166000
744.697	0.0167985
744.775	0.0166897
744.853	0.0167054
744.932	0.0167705
745.010	0.0168179
745.088	0.0167342
745.166	0.0167009
745.244	0.0165865
745.322	0.0167135
745.400	0.0167355
745.478	0.0166444
745.557	0.0168064
745.635	0.0166744
745.713	0.0168391
745.791	0.0167402
745.869	0.0166090
745.947	0.0166145
746.025	0.0166131
746.103	0.0164656
746.182	0.0164622
746.260	0.0166438
746.338	0.0166132
746.416	0.0163348
746.494	0.0164410
746.572	0.0164617
746.650	0.0164532
746.728	0.0162977
746.807	0.0163875
746.885	0.0164433
746.963	0.0166311
747.041	0.0165300
747.119	0.0165426
747.197	0.0164940
747.275	0.0166611
747.353	0.0165170
747.432	0.0167606
747.510	0.0166031
747.588	0.0168581
747.666	0.0169710
747.744	0.0168197
747.822	0.0167822
747.900	0.0168615
747.978	0.0169617
748.057	0.0168455
748.135	0.0167865
748.213	0.0168605
748.291	0.0168096
748.369	0.0168429
748.447	0.0167917
748.525	0.0165284
748.603	0.0166348
748.682	0.0164808
748.760	0.0167060
748.838	0.0166280
748.916	0.0164684
748.994	0.0164378
749.072	0.0165027
749.150	0.0166694
749.228	0.0165662
749.307	0.0166829
749.385	0.0165670
749.463	0.0166402
749.541	0.0165796
749.619	0.0167393
749.697	0.0167108
749.775	0.0166953
749.853	0.0166954
749.932	0.0168499
750.010	0.0166686
750.088	0.0165653
750.166	0.0168268
750.244	0.0168326
750.322	0.0167753
750.400	0.0168272
750.478	0.0167821
750.557	0.0168849
750.635	0.0168566
750.713	0.0167985
750.791	0.0166985
750.869	0.0167446
750.947	0.0167051
751.025	0.0166222
751.103	0.0167093
751.182	0.0167318
751.260	0.0165683
751.338	0.0165417
751.416	0.0164902
751.494	0.0166240
751.572	0.0166235
751.650	0.0165961
751.728	0.0165809
751.807	0.0165625
751.885	0.0165790
751.963	0.0165605
752.041	0.0166945
752.119	0.0167570
752.197	0.0166846
752.275	0.0165446
752.353	0.0165691
752.432	0.0165341
752.510	0.0166413
752.588	0.0166360
752.666	0.0167334
752.744	0.0167290
752.822	0.0167697
752.900	0.0168488
752.978	0.0167721
753.057	0.0166612
753.135	0.0166734
753.213	0.0167186
753.291	0.0166957
753.369	0.0166573
753.447	0.0165203
753.525	0.0166451
753.603	0.0165009
753.682	0.0166384
753.760	0.0167412
753.838	0.0167633
753.916	0.0165596
753.994	0.0166813
754.072	0.0165862
754.150	0.0166020
754.228	0.0165958
754.307	0.0164691
754.385	0.0165186
754.463	0.0165935
754.541	0.0164859
754.619	0.0163838
754.697	0.0163676
754.775	0.0164723
754.853	0.0166158
754.932	0.0166781
755.010	0.0165499
755.088	0.0165721
755.166	0.0165030
755.244	0.0165825
755.322	0.0166494
755.400	0.0166079
755.478	0.0166794
755.557	0.0168127
755.635	0.0166207
755.713	0.0166983
755.791	0.0166712
755.869	0.0166322
755.947	0.0167470
756.025	0.0166783
756.103	0.0165672
756.182	0.0166628
756.260	0.0166579
756.338	0.0165589
756.416	0.0165217
756.494	0.0164638
756.572	0.0164299
756.650	0.0165048
756.728	0.0164890
756.807	0.0163799
756.885	0.0165365
756.963	0.0165582
757.041	0.0166618
757.119	0.0165295
757.197	0.0164160
757.275	0.0165564
757.353	0.0165820
757.432	0.0166560
757.510	0.0165317
757.588	0.0165881
757.666	0.0166640
757.744	0.0165104
757.822	0.0165624
757.900	0.0166251
757.978	0.0165791
758.057	0.0165134
758.135	0.0165355
758.213	0.0165681
758.291	0.0165722
758.369	0.0164056
758.447	0.0164730
758.525	0.0165840
758.603	0.0166344
758.682	0.0165322
758.760	0.0164923
758.838	0.0167570
758.916	0.0165766
758.994	0.0165952
759.072	0.0165711
759.150	0.0167237
759.228	0.0166298
759.307	0.0167332
759.385	0.0167507
759.463	0.0166563
759.541	0.0165902
759.619	0.0165978
759.697	0.0167330
759.775	0.0164874
759.853	0.0165309
759.932	0.0166637
760.010	0.0165155
760.088	0.0162912
760.166	0.0164967
760.244	0.0165163
760.322	0.0162824
760.400	0.0164255
760.478	0.0164270
760.557	0.0164869
760.635	0.0165486
760.713	0.0165718
760.791	0.0165403
760.869	0.0165972
760.947	0.0166327
761.025	0.0164841
761.103	0.0165688
761.182	0.0165232
761.260	0.0163882
761.338	0.0164823
761.416	0.0165837
761.494	0.0166184
761.572	0.0165843
761.650	0.0165557
761.728	0.0166490
761.807	0.0166669
761.885	0.0165868
761.963	0.0164349
762.041	0.0166053
762.119	0.0167945
762.197	0.0167764
762.275	0.0166336
762.353	0.0166738
762.432	0.0167759
762.510	0.0167668
762.588	0.0167773
762.666	0.0166731
762.744	0.0166148
762.822	0.0164949
762.900	0.0165152
762.978	0.0163483
763.057	0.0165788
763.135	0.0165117
763.213	0.0163924
763.291	0.0165084
763.369	0.0163462
763.447	0.0163617
763.525	0.0163008
763.603	0.0165001
763.682	0.0164076
763.760	0.0162090
763.838	0.0164214
763.916	0.0164832
763.994	0.0165840
764.072	0.0164091
764.150	0.0165239
764.228	0.0165442
764.307	0.0165672
764.385	0.0164554
764.463	0.0165173
764.541	0.0166375
764.619	0.0166384
764.697	0.0167577
764.775	0.0166564
764.853	0.0167140
764.932	0.0167729
765.010	0.0168444
765.088	0.0168804
765.166	0.0167720
765.244	0.0168753
765.322	0.0168986
765.400	0.0169312
765.478	0.0169203
765.557	0.0168585
765.635	0.0168917
765.713	0.0169030
765.791	0.0169556
765.869	0.0167370
765.947	0.0165331
766.025	0.0165752
766.103	0.0166285
766.182	0.0164616
766.260	0.0163718
766.338	0.0163756
766.416	0.0164081
766.494	0.0163940
766.572	0.0163667
766.650	0.0164480
766.728	0.0164469
766.807	0.0165395
766.885	0.0164974
766.963	0.0165226
767.041	0.0164201
767.119	0.0166013
767.197	0.0166315
767.275	0.0164711
767.353	0.0165869
767.432	0.0166251
767.510	0.0166221
767.588	0.0167874
767.666	0.0165627
767.744	0.0165190
767.822	0.0166881
767.900	0.0165996
767.978	0.0166614
768.057	0.0166469
768.135	0.0168539
768.213	0.0168027
768.291	0.0167421
768.369	0.0167307
768.447	0.0168208
768.525	0.0166389
768.603	0.0168016
768.682	0.0169138
768.760	0.0168382
768.838	0.0167662
768.916	0.0168114
768.994	0.0167334
769.072	0.0166111
769.150	0.0167470
769.228	0.0167461
769.307	0.0165675
769.385	0.0164290
769.463	0.0165571
769.541	0.0165112
769.619	0.0164456
769.697	0.0164955
769.775	0.0165508
769.853	0.0165102
769.932	0.0166186
770.010	0.0166209
770.088	0.0166277
770.166	0.0166879
770.244	0.0168786
770.322	0.0168275
770.400	0.0168333
770.478	0.0167962
770.557	0.0167937
770.635	0.0167581
770.713	0.0168327
770.791	0.0167497
770.869	0.0166162
770.947	0.0166390
771.025	0.0165666
771.103	0.0165142
771.182	0.0164120
771.260	0.0164462
771.338	0.0162184
771.416	0.0162353
771.494	0.0163629
771.572	0.0164584
771.650	0.0164740
771.728	0.0164488
771.807	0.0165189
771.885	0.0167532
771.963	0.0167933
772.041	0.0166280
772.119	0.0168704
772.197	0.0170906
772.275	0.0170872
772.353	0.0170899
772.432	0.0172012
772.510	0.0172929
772.588	0.0173249
772.666	0.0174622
772.744	0.0174843
772.822	0.0174205
772.900	0.0175137
772.978	0.0174393
773.057	0.0173354
773.135	0.0172060
773.213	0.0171940
773.291	0.0171460
773.369	0.0168636
773.447	0.0167053
773.525	0.0167078
773.603	0.0166315
773.682	0.0163132
773.760	0.0163475
773.838	0.0162476
773.916	0.0163692
773.994	0.0160251
774.072	0.0160333
774.150	0.0161325
774.228	0.0158862
774.307	0.0159138
774.385	0.0159272
774.463	0.0160084
774.541	0.0159428
774.619	0.0159789
774.697	0.0161089
774.775	0.0161205
774.853	0.0160619
774.932	0.0160844
775.010	0.0162254
775.088	0.0163065
775.166	0.0163960
775.244	0.0164590
775.322	0.0164620
775.400	0.0165984
775.478	0.0166313
775.557	0.0166503
775.635	0.0167613
775.713	0.0167500
775.791	0.0167749
775.869	0.0171022
775.947	0.0170380
776.025	0.0169755
776.103	0.0170358
776.182	0.0169457
776.260	0.0169115
776.338	0.0170045
776.416	0.0172212
776.494	0.0172480
776.572	0.0171906
776.650	0.0172632
776.728	0.0169740
776.807	0.0171418
776.885	0.0171417
776.963	0.0171297
777.041	0.0172084
777.119	0.0170440
777.197	0.0170389
777.275	0.0168910
777.353	0.0168693
777.432	0.0168140
777.510	0.0166812
777.588	0.0166167
777.666	0.0164291
777.744	0.0164309
777.822	0.0162828
777.900	0.0162173
777.978	0.0160659
778.057	0.0157812
778.135	0.0159251
778.213	0.0158735
778.291	0.0158894
778.369	0.0158763
778.447	0.0157327
778.525	0.0159211
778.603	0.0158875
778.682	0.0158517
778.760	0.0159496
778.838	0.0160352
778.916	0.0160698
778.994	0.0160645
779.072	0.0161659
779.150	0.0162007
779.228	0.0161715
779.307	0.0163607
779.385	0.0163419
779.463	0.0164875
779.541	0.0165250
779.619	0.0166076
779.697	0.0166527
779.775	0.0169033
779.853	0.0168050
779.932	0.0169380
780.010	0.0170106
780.088	0.0170967
780.166	0.0172088
780.244	0.0172496
780.322	0.0173613
780.400	0.0175179
780.478	0.0174210
780.557	0.0175206
780.635	0.0175605
780.713	0.0176678
780.791	0.0175283
780.869	0.0174925
780.947	0.0174409
781.025	0.0172021
781.103	0.0171709
781.182	0.0170138
781.260	0.0170313
781.338	0.0167065
781.416	0.0165319
781.494	0.0165385
781.572	0.0165324
781.650	0.0163856
781.728	0.0162684
781.807	0.0162073
781.885	0.0161189
781.963	0.0161638
782.041	0.0162929
782.119	0.0162866
782.197	0.0160841
782.275	0.0162353
782.353	0.0162954
782.432	0.0160185
782.510	0.0158981
782.588	0.0158566
782.666	0.0158437
782.744	0.0156783
782.822	0.0156908
782.900	0.0157182
782.978	0.0154234
783.057	0.0155976
783.135	0.0159929
783.213	0.0158861
783.291	0.0159010
783.369	0.0159839
783.447	0.0162487
783.525	0.0163412
783.603	0.0165022
783.682	0.0167932
783.760	0.0167440
783.838	0.0167840
783.916	0.0168781
783.994	0.0169308
784.072	0.0170000
784.150	0.0171293
784.228	0.0170598
784.307	0.0169340
784.385	0.0170857
784.463	0.0171511
784.541	0.0171729
784.619	0.0170486
784.697	0.0170383
784.775	0.0171783
784.853	0.0170393
784.932	0.0170948
785.010	0.0171104
785.088	0.0171555
785.166	0.0171763
785.244	0.0172604
785.322	0.0172611
785.400	0.0170929
785.478	0.0171956
785.557	0.0170877
785.635	0.0169232
785.713	0.0168527
785.791	0.0167566
785.869	0.0166103
785.947	0.0166542
786.025	0.0164612
786.103	0.0162498
786.182	0.0160895
786.260	0.0160165
786.338	0.0159392
786.416	0.0161082
786.494	0.0158864
786.572	0.0159052
786.650	0.0158885
786.728	0.0160487
786.807	0.0159927
786.885	0.0160439
786.963	0.0160075
787.041	0.0160662
787.119	0.0160551
787.197	0.0161469
787.275	0.0163466
787.353	0.0163310
787.432	0.0165135
787.510	0.0165246
787.588	0.0164395
787.666	0.0164408
787.744	0.0166367
787.822	0.0167837
787.900	0.0166195
787.978	0.0167043
788.057	0.0166602
788.135	0.0165847
788.213	0.0163976
788.291	0.0165079
788.369	0.0165681
788.447	0.0164576
788.525	0.0166444
788.603	0.0166614
788.682	0.0166205
788.760	0.0167989
788.838	0.0168761
788.916	0.0168089
788.994	0.0167234
789.072	0.0168896
789.150	0.0169576
789.228	0.0168862
789.307	0.0169707
789.385	0.0170727
789.463	0.0167880
789.541	0.0169468
789.619	0.0169113
789.697	0.0169623
789.775	0.0168522
789.853	0.0168321
789.932	0.0169054
790.010	0.0168394
790.088	0.0169143
790.166	0.0168890
790.244	0.0169028
790.322	0.0169199
790.400	0.0167398
790.478	0.0166637
790.557	0.0167117
790.635	0.0165701
790.713	0.0166183
790.791	0.0164028
790.869	0.0164774
790.947	0.0164259
791.025	0.0161559
791.103	0.0161471
791.182	0.0160997
791.260	0.0159885
791.338	0.0161384
791.416	0.0162000
791.494	0.0160139
791.572	0.0161327
791.650	0.0161758
791.728	0.0160844
791.807	0.0162580
791.885	0.0162252
791.963	0.0162460
792.041	0.0163783
792.119	0.0163074
792.197	0.0165427
792.275	0.0165657
792.353	0.0165411
792.432	0.0167592
792.510	0.0169129
792.588	0.0169343
792.666	0.0169780
792.744	0.0171017
792.822	0.0170564
792.900	0.0171725
792.978	0.0171822
793.057	0.0170808
793.135	0.0171810
793.213	0.0172070
793.291	0.0170305
793.369	0.0169423
793.447	0.0168574
793.525	0.0166840
793.603	0.0165467
793.682	0.0165241
793.760	0.0164150
793.838	0.0163500
793.916	0.0162950
793.994	0.0162408
794.072	0.0162210
794.150	0.0160019
794.228	0.0159418
794.307	0.0163084
794.385	0.0163111
794.463	0.0163491
794.541	0.0163052
794.619	0.0165527
794.697	0.0166019
794.775	0.0163875
794.853	0.0165715
794.932	0.0166969
795.010	0.0166125
795.088	0.0165666
795.166	0.0166122
795.244	0.0166439
795.322	0.0166047
795.400	0.0166331
795.478	0.0166776
795.557	0.0166551
795.635	0.0167289
795.713	0.0168075
795.791	0.0167567
795.869	0.0168155
795.947	0.0169237
796.025	0.0168519
796.103	0.0168168
796.182	0.0169586
796.260	0.0169454
796.338	0.0169434
796.416	0.0168264
796.494	0.0166345
796.572	0.0167368
796.650	0.0168592
796.728	0.0166725
796.807	0.0166096
796.885	0.0168044
796.963	0.0165434
797.041	0.0164577
797.119	0.0164023
797.197	0.0164054
797.275	0.0162482
797.353	0.0161652
797.432	0.0162177
797.510	0.0163630
797.588	0.0162653
797.666	0.0161433
797.744	0.0162180
797.822	0.0161839
797.900	0.0162717
797.978	0.0163517
798.057	0.0164789
798.135	0.0164709
798.213	0.0163708
798.291	0.0166899
798.369	0.0166625
798.447	0.0165858
798.525	0.0165704
798.603	0.0165694
798.682	0.0166905
798.760	0.0166718
798.838	0.0166655
798.916	0.0164192
798.994	0.0164288
799.072	0.0165370
799.150	0.0163480
799.228	0.0162379
799.307	0.0163790
799.385	0.0163109
799.463	0.0162756
799.541	0.0162674
799.619	0.0163649
799.697	0.0164933
799.775	0.0165789
799.853	0.0166936
799.932	0.0168622
800.010	0.0168761
800.088	0.0169923
800.166	0.0171473
800.244	0.0174981
800.322	0.0177065
800.400	0.0176379
800.478	0.0176649
800.557	0.0177238
800.635	0.0177009
800.713	0.0177783
800.791	0.0177504
800.869	0.0175915
800.947	0.0175861
801.025	0.0174904
801.103	0.0172781
801.182	0.0170121
801.260	0.0168718
801.338	0.0166840
801.416	0.0165465
801.494	0.0162953
801.572	0.0160435
801.650	0.0158662
801.728	0.0156672
801.807	0.0156110
801.885	0.0152818
801.963	0.0151263
802.041	0.0152348
802.119	0.0152860
802.197	0.0150854
802.275	0.0152742
802.353	0.0154839
802.432	0.0155777
802.510	0.0156970
802.588	0.0159825
802.666	0.0160107
802.744	0.0163581
802.822	0.0163563
802.900	0.0165102
802.978	0.0167847
803.057	0.0169894
803.135	0.0169746
803.213	0.0170527
803.291	0.0172195
803.369	0.0174107
803.447	0.0174165
803.525	0.0176144
803.603	0.0175947
803.682	0.0176550
803.760	0.0176138
803.838	0.0177161
803.916	0.0176351
803.994	0.0175365
804.072	0.0174555
804.150	0.0173999
804.228	0.0172890
804.307	0.0173187
804.385	0.0171685
804.463	0.0168505
804.541	0.0168554
804.619	0.0166910
804.697	0.0165331
804.775	0.0162947
804.853	0.0162522
804.932	0.0160680
805.010	0.0161245
805.088	0.0162105
805.166	0.0160493
805.244	0.0159597
805.322	0.0159456
805.400	0.0159468
805.478	0.0161065
805.557	0.0160744
805.635	0.0161668
805.713	0.0164027
805.791	0.0164171
805.869	0.0165575
805.947	0.0167148
806.025	0.0167708
806.103	0.0167924
806.182	0.0170638
806.260	0.0170901
806.338	0.0172756
806.416	0.0171687
806.494	0.0171359
806.572	0.0172036
806.650	0.0172108
806.728	0.0171936
806.807	0.0171085
806.885	0.0170200
806.963	0.0168823
807.041	0.0168227
807.119	0.0166682
807.197	0.0165260
807.275	0.0164688
807.353	0.0162621
807.432	0.0162807
807.510	0.0162794
807.588	0.0160340
807.666	0.0160808
807.744	0.0162849
807.822	0.0161407
807.900	0.0162627
807.978	0.0163623
808.057	0.0164342
808.135	0.0165066
808.213	0.0166860
808.291	0.0167036
808.369	0.0167778
808.447	0.0169298
808.525	0.0168233
808.603	0.0169012
808.682	0.0168787
808.760	0.0169534
808.838	0.0167356
808.916	0.0167397
808.994	0.0167203
809.072	0.0168021
809.150	0.0167166
809.228	0.0167808
809.307	0.0166850
809.385	0.0165630
809.463	0.0165770
809.541	0.0164597
809.619	0.0164851
809.697	0.0163388
809.775	0.0164460
809.853	0.0165277
809.932	0.0163952
810.010	0.0162410
810.088	0.0162952
810.166	0.0163482
810.244	0.0162529
810.322	0.0161668
810.400	0.0162200
810.478	0.0162589
810.557	0.0161339
810.635	0.0161555
810.713	0.0162479
810.791	0.0162453
810.869	0.0163217
810.947	0.0163379
811.025	0.0165656
811.103	0.0166772
811.182	0.0166641
811.260	0.0167879
811.338	0.0169023
811.416	0.0168024
811.494	0.0168452
811.572	0.0169595
811.650	0.0169687
811.728	0.0169559
811.807	0.0170492
811.885	0.0170501
811.963	0.0170493
812.041	0.0170273
812.119	0.0168983
812.197	0.0169203
812.275	0.0168595
812.353	0.0170298
812.432	0.0168745
812.510	0.0167250
812.588	0.0166918
812.666	0.0165304
812.744	0.0165492
812.822	0.0164381
812.900	0.0162932
812.978	0.0163011
813.057	0.0160507
813.135	0.0161650
813.213	0.0162096
813.291	0.0160870
813.369	0.0160319
813.447	0.0158923
813.525	0.0159467
813.603	0.0158685
813.682	0.0160559
813.760	0.0160066
813.838	0.0160233
813.916	0.0161268
813.994	0.0162711
814.072	0.0161915
814.150	0.0164165
814.228	0.0164148
814.307	0.0165932
814.385	0.0169110
814.463	0.0168422
814.541	0.0170740
814.619	0.0173328
814.697	0.0171943
814.775	0.0173234
814.853	0.0173782
814.932	0.0174193
815.010	0.0173771
815.088	0.0173151
815.166	0.0171131
815.244	0.0172414
815.322	0.0171528
815.400	0.0169203
815.478	0.0166974
815.557	0.0165878
815.635	0.0162648
815.713	0.0162157
815.791	0.0163472
815.869	0.0161245
815.947	0.0160822
816.025	0.0158657
816.103	0.0158549
816.182	0.0160918
816.260	0.0160751
816.338	0.0160757
816.416	0.0163073
816.494	0.0162956
816.572	0.0164751
816.650	0.0165994
816.728	0.0167575
816.807	0.0168111
816.885	0.0169579
816.963	0.0170625
817.041	0.0171996
817.119	0.0172938
817.197	0.0172474
817.275	0.0171801
817.353	0.0171970
817.432	0.0172430
817.510	0.0172217
817.588	0.0170422
817.666	0.0168941
817.744	0.0168420
817.822	0.0166292
817.900	0.0165746
817.978	0.0164667
818.057	0.0162383
818.135	0.0161345
818.213	0.0161002
818.291	0.0159434
818.369	0.0159072
818.447	0.0157442
818.525	0.0157632
818.603	0.0157464
818.682	0.0157652
818.760	0.0157684
818.838	0.0158784
818.916	0.0158884
818.994	0.0159847
819.072	0.0161845
819.150	0.0163652
819.228	0.0164489
819.307	0.0165053
819.385	0.0168178
819.463	0.0168979
819.541	0.0169278
819.619	0.0169591
819.697	0.0170795
819.775	0.0171395
819.853	0.0172729
819.932	0.0171801
820.010	0.0172933
820.088	0.0172343
820.166	0.0170975
820.244	0.0171706
820.322	0.0170817
820.400	0.0169798
820.478	0.0168446
820.557	0.0166934
820.635	0.0168330
820.713	0.0167117
820.791	0.0166477
820.869	0.0165508
820.947	0.0165168
821.025	0.0165052
821.103	0.0165161
821.182	0.0164495
821.260	0.0163911
821.338	0.0163833
821.416	0.0162968
821.494	0.0163897
821.572	0.0164066
821.650	0.0163967
821.728	0.0164045
821.807	0.0165942
821.885	0.0166183
821.963	0.0167712
822.041	0.0168172
822.119	0.0165978
822.197	0.0169008
822.275	0.0169174
822.353	0.0169109
822.432	0.0170005
822.510	0.0168730
822.588	0.0169245
822.666	0.0169600
822.744	0.0168073
822.822	0.0169697
822.900	0.0169310
822.978	0.0167976
823.057	0.0168343
823.135	0.0167821
823.213	0.0166197
823.291	0.0166547
823.369	0.0166233
823.447	0.0164973
823.525	0.0165524
823.603	0.0164464
823.682	0.0164653
823.760	0.0165892
823.838	0.0164574
823.916	0.0166618
823.994	0.0165701
824.072	0.0165141
824.150	0.0165601
824.228	0.0164983
824.307	0.0165365
824.385	0.0163808
824.463	0.0166354
824.541	0.0164883
824.619	0.0165281
824.697	0.0167057
824.775	0.0168077
824.853	0.0166157
824.932	0.0166253
825.010	0.0167564
825.088	0.0168160
825.166	0.0168285
825.244	0.0167682
825.322	0.0166427
825.400	0.0167667
825.478	0.0167731
825.557	0.0166589
825.635	0.0165281
825.713	0.0165349
825.791	0.0166362
825.869	0.0166513
825.947	0.0166678
826.025	0.0165962
826.103	0.0167660
826.182	0.0167017
826.260	0.0167355
826.338	0.0167463
826.416	0.0168671
826.494	0.0167889
826.572	0.0168150
826.650	0.0171349
826.728	0.0170782
826.807	0.0170095
826.885	0.0169431
826.963	0.0170135
827.041	0.0169909
827.119	0.0168763
827.197	0.0168568
827.275	0.0169302
827.353	0.0166142
827.432	0.0166714
827.510	0.0166783
827.588	0.0166083
827.666	0.0165282
827.744	0.0165126
827.822	0.0164422
827.900	0.0162840
827.978	0.0163435
828.057	0.0163892
828.135	0.0162535
828.213	0.0161428
828.291	0.0162122
828.369	0.0162462
828.447	0.0160200
828.525	0.0162638
828.603	0.0163208
828.682	0.0163340
828.760	0.0162659
828.838	0.0164178
828.916	0.0165018
828.994	0.0165275
829.072	0.0164741
829.150	0.0164505
829.228	0.0164887
829.307	0.0167805
829.385	0.0166738
829.463	0.0167316
829.541	0.0168172
829.619	0.0167877
829.697	0.0168121
829.775	0.0166626
829.853	0.0167695
829.932	0.0167231
830.010	0.0167277
830.088	0.0167673
830.166	0.0168658
830.244	0.0166823
830.322	0.0166991
830.400	0.0167457
830.478	0.0167561
830.557	0.0166618
830.635	0.0167015
830.713	0.0166474
830.791	0.0167439
830.869	0.0168343
830.947	0.0168771
831.025	0.0167799
831.103	0.0169356
831.182	0.0167820
831.260	0.0169571
831.338	0.0170181
831.416	0.0169063
831.494	0.0171043
831.572	0.0169357
831.650	0.0169285
831.728	0.0170071
831.807	0.0167986
831.885	0.0167731
831.963	0.0165974
832.041	0.0165679
832.119	0.0165818
832.197	0.0162637
832.275	0.0162060
832.353	0.0162978
832.432	0.0161307
832.510	0.0161007
832.588	0.0162085
832.666	0.0161832
832.744	0.0162751
832.822	0.0162115
832.900	0.0161258
832.978	0.0162659
833.057	0.0163023
833.135	0.0163262
833.213	0.0163823
833.291	0.0164945
833.369	0.0164057
833.447	0.0163770
833.525	0.0163374
833.603	0.0163900
833.682	0.0164361
833.760	0.0163708
833.838	0.0163212
833.916	0.0165337
833.994	0.0163114
834.072	0.0162032
834.150	0.0163261
834.228	0.0163026
834.307	0.0164291
834.385	0.0163924
834.463	0.0164216
834.541	0.0165087
834.619	0.0165521
834.697	0.0164568
834.775	0.0166502
834.853	0.0167981
834.932	0.0168155
835.010	0.0168866
835.088	0.0167593
835.166	0.0168726
835.244	0.0169025
835.322	0.0168199
835.400	0.0169798
835.478	0.0169697
835.557	0.0167262
835.635	0.0168007
835.713	0.0165958
835.791	0.0165837
835.869	0.0164526
835.947	0.0163201
836.025	0.0164048
836.103	0.0164299
836.182	0.0163139
836.260	0.0163815
836.338	0.0163744
836.416	0.0164113
836.494	0.0163476
836.572	0.0163249
836.650	0.0164047
836.728	0.0164896
836.807	0.0166212
836.885	0.0166274
836.963	0.0165990
837.041	0.0166254
837.119	0.0165714
837.197	0.0167263
837.275	0.0168089
837.353	0.0167556
837.432	0.0168818
837.510	0.0166827
837.588	0.0166010
837.666	0.0167344
837.744	0.0167403
837.822	0.0166325
837.900	0.0166258
837.978	0.0166048
838.057	0.0166630
838.135	0.0165958
838.213	0.0165343
838.291	0.0165983
838.369	0.0166257
838.447	0.0168082
838.525	0.0166238
838.603	0.0166888
838.682	0.0167700
838.760	0.0166905
838.838	0.0167438
838.916	0.0167450
838.994	0.0166833
839.072	0.0166108
839.150	0.0165745
839.228	0.0167105
839.307	0.0165732
839.385	0.0164618
839.463	0.0163790
839.541	0.0163063
839.619	0.0162466
839.697	0.0162442
839.775	0.0161724
839.853	0.0161214
839.932	0.0158636
840.010	0.0160474
840.088	0.0161443
840.166	0.0159338
840.244	0.0159275
840.322	0.0160644
840.400	0.0160764
840.478	0.0162669
840.557	0.0163217
840.635	0.0163880
840.713	0.0164578
840.791	0.0165731
840.869	0.0167061
840.947	0.0169705
841.025	0.0169610
841.103	0.0170028
841.182	0.0171700
841.260	0.0173497
841.338	0.0173717
841.416	0.0174158
841.494	0.0174983
841.572	0.0175350
841.650	0.0174751
841.728	0.0175044
841.807	0.0173911
841.885	0.0172932
841.963	0.0171979
842.041	0.0170385
842.119	0.0169777
842.197	0.0170533
842.275	0.0168405
842.353	0.0168764
842.432	0.0169011
842.510	0.0167291
842.588	0.0167530
842.666	0.0167322
842.744	0.0166482
842.822	0.0166183
842.900	0.0166340
842.978	0.0165866
843.057	0.0166943
843.135	0.0166337
843.213	0.0166856
843.291	0.0166869
843.369	0.0166816
843.447	0.0165791
843.525	0.0165529
843.603	0.0164534
843.682	0.0164882
843.760	0.0165723
843.838	0.0164503
843.916	0.0164648
843.994	0.0162449
844.072	0.0162782
844.150	0.0160329
844.228	0.0161083
844.307	0.0162652
844.385	0.0160408
844.463	0.0159834
844.541	0.0161272
844.619	0.0162344
844.697	0.0161063
844.775	0.0162126
844.853	0.0162831
844.932	0.0164401
845.010	0.0164680
845.088	0.0165651
845.166	0.0165853
845.244	0.0167374
845.322	0.0169149
845.400	0.0169563
845.478	0.0169672
845.557	0.0169080
845.635	0.0169637
845.713	0.0171119
845.791	0.0170699
845.869	0.0169919
845.947	0.0169851
846.025	0.0169405
846.103	0.0170722
846.182	0.0169552
846.260	0.0167688
846.338	0.0167490
846.416	0.0168094
846.494	0.0167312
846.572	0.0167940
846.650	0.0168398
846.728	0.0166099
846.807	0.0166982
846.885	0.0166917
846.963	0.0168201
847.041	0.0168053
847.119	0.0169743
847.197	0.0168107
847.275	0.0167799
847.353	0.0169034
847.432	0.0168514
847.510	0.0169461
847.588	0.0168736
847.666	0.0168987
847.744	0.0169453
847.822	0.0168782
847.900	0.0168886
847.978	0.0168668
848.057	0.0168496
848.135	0.0166899
848.213	0.0167061
848.291	0.0166717
848.369	0.0166776
848.447	0.0165726
848.525	0.0166488
848.603	0.0166026
848.682	0.0167371
848.760	0.0165891
848.838	0.0166965
848.916	0.0166119
848.994	0.0166210
849.072	0.0167574
849.150	0.0167754
849.228	0.0167989
849.307	0.0166677
849.385	0.0167727
849.463	0.0167699
849.541	0.0167250
849.619	0.0168687
849.697	0.0166605
849.775	0.0166241
849.853	0.0167406
849.932	0.0166333
850.010	0.0166338
850.088	0.0166061
850.166	0.0164802
850.244	0.0164141
850.322	0.0163557
850.400	0.0163418
850.478	0.0162281
850.557	0.0162611
850.635	0.0162360
850.713	0.0161850
850.791	0.0160975
850.869	0.0162307
850.947	0.0162377
851.025	0.0161893
851.103	0.0162274
851.182	0.0163095
851.260	0.0163128
851.338	0.0163410
851.416	0.0163845
851.494	0.0163861
851.572	0.0164777
851.650	0.0164838
851.728	0.0164765
851.807	0.0165932
851.885	0.0165611
851.963	0.0165533
852.041	0.0165983
852.119	0.0165331
852.197	0.0165391
852.275	0.0165342
852.353	0.0164487
852.432	0.0165208
852.510	0.0165127
852.588	0.0165265
852.666	0.0164821
852.744	0.0164333
852.822	0.0164334
852.900	0.0164842
852.978	0.0166022
853.057	0.0165674
853.135	0.0166776
853.213	0.0167567
853.291	0.0167986
853.369	0.0167871
853.447	0.0168876
853.525	0.0169349
853.603	0.0170240
853.682	0.0170061
853.760	0.0168827
853.838	0.0169691
853.916	0.0169126
853.994	0.0169192
854.072	0.0167796
854.150	0.0167484
854.228	0.0167037
854.307	0.0166358
854.385	0.0165736
854.463	0.0164630
854.541	0.0164464
854.619	0.0164103
854.697	0.0163624
854.775	0.0164815
854.853	0.0163586
854.932	0.0163070
855.010	0.0162994
855.088	0.0162444
855.166	0.0164004
855.244	0.0163865
855.322	0.0163857
855.400	0.0164260
855.478	0.0163650
855.557	0.0165443
855.635	0.0164769
855.713	0.0165025
855.791	0.0165203
855.869	0.0165855
855.947	0.0163877
856.025	0.0165729
856.103	0.0165034
856.182	0.0164141
856.260	0.0164570
856.338	0.0163471
856.416	0.0164745
856.494	0.0163125
856.572	0.0164167
856.650	0.0164927
856.728	0.0163035
856.807	0.0164008
856.885	0.0162560
856.963	0.0162090
857.041	0.0162465
857.119	0.0163944
857.197	0.0163284
857.275	0.0164524
857.353	0.0164968
857.432	0.0166370
857.510	0.0165749
857.588	0.0166666
857.666	0.0166069
857.744	0.0167046
857.822	0.0167705
857.900	0.0167290
857.978	0.0168246
858.057	0.0167204
858.135	0.0167530
858.213	0.0166647
858.291	0.0165405
858.369	0.0166309
858.447	0.0165377
858.525	0.0164624
858.603	0.0166089
858.682	0.0164281
858.760	0.0164909
858.838	0.0163384
858.916	0.0164315
858.994	0.0163565
859.072	0.0163880
859.150	0.0163615
859.228	0.0165875
859.307	0.0164307
859.385	0.0164118
859.463	0.0164762
859.541	0.0165474
859.619	0.0165155
859.697	0.0164046
859.775	0.0166625
859.853	0.0165807
859.932	0.0166853
860.010	0.0165291
860.088	0.0166027
860.166	0.0167068
860.244	0.0166705
860.322	0.0166051
860.400	0.0167680
860.478	0.0165983
860.557	0.0165870
860.635	0.0167245
860.713	0.0166139
860.791	0.0166505
860.869	0.0165028
860.947	0.0164200
861.025	0.0165929
861.103	0.0164281
861.182	0.0163065
861.260	0.0163786
861.338	0.0165605
861.416	0.0164363
861.494	0.0165871
861.572	0.0164433
861.650	0.0164993
861.728	0.0165850
861.807	0.0167223
861.885	0.0168017
861.963	0.0166415
862.041	0.0168930
862.119	0.0169029
862.197	0.0168884
862.275	0.0168881
862.353	0.0167896
862.432	0.0168116
862.510	0.0168674
862.588	0.0168799
862.666	0.0167171
862.744	0.0165463
862.822	0.0166577
862.900	0.0165550
862.978	0.0165774
863.057	0.0165868
863.135	0.0164692
863.213	0.0164350
863.291	0.0165237
863.369	0.0163364
863.447	0.0164044
863.525	0.0164822
863.603	0.0163486
863.682	0.0163872
863.760	0.0165788
863.838	0.0165219
863.916	0.0165079
863.994	0.0166521
864.072	0.0166086
864.150	0.0166084
864.228	0.0166262
864.307	0.0167043
864.385	0.0166383
864.463	0.0167099
864.541	0.0166155
864.619	0.0167097
864.697	0.0167052
864.775	0.0164743
864.853	0.0166120
864.932	0.0165960
865.010	0.0166268
865.088	0.0166165
865.166	0.0164510
865.244	0.0165628
865.322	0.0165403
865.400	0.0163987
865.478	0.0166053
865.557	0.0167200
865.635	0.0166540
865.713	0.0166277
865.791	0.0167514
865.869	0.0168326
865.947	0.0168215
866.025	0.0168105
866.103	0.0168354
866.182	0.0168347
866.260	0.0168092
866.338	0.0168394
866.416	0.0169010
866.494	0.0169769
866.572	0.0169469
866.650	0.0168997
866.728	0.0169765
866.807	0.0167908
866.885	0.0167162
866.963	0.0167758
867.041	0.0167805
867.119	0.0166879
867.197	0.0166631
867.275	0.0166792
867.353	0.0163657
867.432	0.0165512
867.510	0.0164428
867.588	0.0164932
867.666	0.0165389
867.744	0.0162940
867.822	0.0163521
867.900	0.0163412
867.978	0.0162287
868.057	0.0164699
868.135	0.0164400
868.213	0.0164829
868.291	0.0165010
868.369	0.0165472
868.447	0.0166494
868.525	0.0168114
868.603	0.0167432
868.682	0.0168307
868.760	0.0167641
868.838	0.0169167
868.916	0.0167160
868.994	0.0167017
869.072	0.0169738
869.150	0.0170068
869.228	0.0168808
869.307	0.0166557
869.385	0.0167667
869.463	0.0167528
869.541	0.0164661
869.619	0.0165945
869.697	0.0167693
869.775	0.0166073
869.853	0.0166188
869.932	0.0166059
870.010	0.0166197
870.088	0.0166235
870.166	0.0166840
870.244	0.0167183
870.322	0.0166377
870.400	0.0166477
870.478	0.0166138
870.557	0.0166579
870.635	0.0168189
870.713	0.0167500
870.791	0.0166790
870.869	0.0166347
870.947	0.0165985
871.025	0.0166933
871.103	0.0168137
871.182	0.0166326
871.260	0.0166906
871.338	0.0166917
871.416	0.0168794
871.494	0.0168687
871.572	0.0168777
871.650	0.0166679
871.728	0.0168491
871.807	0.0166876
871.885	0.0167558
871.963	0.0167621
872.041	0.0169152
872.119	0.0169000
872.197	0.0166759
872.275	0.0169058
872.353	0.0169727
872.432	0.0167277
872.510	0.0168027
872.588	0.0168791
872.666	0.0169508
872.744	0.0167634
872.822	0.0169296
872.900	0.0169598
872.978	0.0169480
873.057	0.0169573
873.135	0.0168014
873.213	0.0168329
873.291	0.0167661
873.369	0.0167146
873.447	0.0167835
873.525	0.0167438
873.603	0.0165980
873.682	0.0167555
873.760	0.0165406
873.838	0.0164248
873.916	0.0165397
873.994	0.0164553
874.072	0.0164481
874.150	0.0164313
874.228	0.0163380
874.307	0.0163483
874.385	0.0163242
874.463	0.0163679
874.541	0.0161826
874.619	0.0162076
874.697	0.0162457
874.775	0.0162393
874.853	0.0162236
874.932	0.0161761
875.010	0.0161902
875.088	0.0162576
875.166	0.0161672
875.244	0.0163647
875.322	0.0163479
875.400	0.0162719
875.478	0.0163757
875.557	0.0162176
875.635	0.0162447
875.713	0.0162243
875.791	0.0163419
875.869	0.0163341
875.947	0.0163276
876.025	0.0163911
876.103	0.0163447
876.182	0.0165320
876.260	0.0164948
876.338	0.0165102
876.416	0.0165832
876.494	0.0165867
876.572	0.0166739
876.650	0.0166285
876.728	0.0165311
876.807	0.0166246
876.885	0.0167941
876.963	0.0167010
877.041	0.0167139
877.119	0.0168909
877.197	0.0168295
877.275	0.0169346
877.353	0.0168624
877.432	0.0168839
877.510	0.0167944
877.588	0.0167930
877.666	0.0166460
877.744	0.0167322
877.822	0.0167004
877.900	0.0166772
877.978	0.0168114
878.057	0.0165524
878.135	0.0166043
878.213	0.0166621
878.291	0.0166586
878.369	0.0166183
878.447	0.0165898
878.525	0.0164085
878.603	0.0164262
878.682	0.0165158
878.760	0.0164897
878.838	0.0164901
878.916	0.0163868
878.994	0.0164290
879.072	0.0161520
879.150	0.0163206
879.228	0.0163526
879.307	0.0163844
879.385	0.0163919
879.463	0.0164269
879.541	0.0163098
879.619	0.0164265
879.697	0.0163582
879.775	0.0163994
879.853	0.0164879
879.932	0.0163994
880.010	0.0163461
880.088	0.0164636
880.166	0.0164539
880.244	0.0163984
880.322	0.0165144
880.400	0.0164906
880.478	0.0164857
880.557	0.0164510
880.635	0.0162692
880.713	0.0164572
880.791	0.0164905
880.869	0.0166360
880.947	0.0166466
881.025	0.0164603
881.103	0.0164964
881.182	0.0164631
881.260	0.0165596
881.338	0.0166882
881.416	0.0165749
881.494	0.0165612
881.572	0.0166933
881.650	0.0167372
881.728	0.0166900
881.807	0.0166622
881.885	0.0165965
881.963	0.0166842
882.041	0.0167080
882.119	0.0166171
882.197	0.0165746
882.275	0.0165750
882.353	0.0165758
882.432	0.0165337
882.510	0.0164772
882.588	0.0162797
882.666	0.0163988
882.744	0.0163868
882.822	0.0164789
882.900	0.0164468
882.978	0.0163119
883.057	0.0163730
883.135	0.0164539
883.213	0.0163704
883.291	0.0163648
883.369	0.0163956
883.447	0.0164784
883.525	0.0164338
883.603	0.0167434
883.682	0.0165633
883.760	0.0165081
883.838	0.0166467
883.916	0.0164213
883.994	0.0164742
884.072	0.0166343
884.150	0.0165926
884.228	0.0164587
884.307	0.0164925
884.385	0.0166437
884.463	0.0166788
884.541	0.0166479
884.619	0.0166204
884.697	0.0166689
884.775	0.0165900
884.853	0.0165318
884.932	0.0165942
885.010	0.0165578
885.088	0.0164211
885.166	0.0165768
885.244	0.0165265
885.322	0.0167432
885.400	0.0167405
885.478	0.0166348
885.557	0.0166595
885.635	0.0166633
885.713	0.0166741
885.791	0.0166010
885.869	0.0167766
885.947	0.0167207
886.025	0.0168218
886.103	0.0167007
886.182	0.0167634
886.260	0.0168563
886.338	0.0167406
886.416	0.0167934
886.494	0.0166956
886.572	0.0168860
886.650	0.0168085
886.728	0.0168173
886.807	0.0165738
886.885	0.0165536
886.963	0.0164426
887.041	0.0165731
887.119	0.0165442
887.197	0.0166359
887.275	0.0165424
887.353	0.0164545
887.432	0.0163127
887.510	0.0163837
887.588	0.0165145
887.666	0.0165355
887.744	0.0165614
887.822	0.0164044
887.900	0.0165180
887.978	0.0165601
888.057	0.0166404
888.135	0.0166819
888.213	0.0165395
888.291	0.0166719
888.369	0.0166888
888.447	0.0165990
888.525	0.0165353
888.603	0.0166256
888.682	0.0165514
888.760	0.0167168
888.838	0.0166357
888.916	0.0166821
888.994	0.0166418
889.072	0.0167789
889.150	0.0165179
889.228	0.0165870
889.307	0.0166428
889.385	0.0165642
889.463	0.0167124
889.541	0.0164867
889.619	0.0165834
889.697	0.0166085
889.775	0.0166122
889.853	0.0166172
889.932	0.0166831
890.010	0.0167262
890.088	0.0167345
890.166	0.0166321
890.244	0.0167155
890.322	0.0166250
890.400	0.0165837
890.478	0.0168021
890.557	0.0165408
890.635	0.0167219
890.713	0.0166678
890.791	0.0166500
890.869	0.0166579
890.947	0.0167242
891.025	0.0165771
891.103	0.0165716
891.182	0.0166296
891.260	0.0165926
891.338	0.0164993
891.416	0.0164590
891.494	0.0166679
891.572	0.0166526
891.650	0.0163484
891.728	0.0164622
891.807	0.0166270
891.885	0.0166758
891.963	0.0165903
892.041	0.0166019
892.119	0.0165245
892.197	0.0166622
892.275	0.0166226
892.353	0.0167377
892.432	0.0167461
892.510	0.0167559
892.588	0.0166844
892.666	0.0167808
892.744	0.0166157
892.822	0.0167576
892.900	0.0167155
892.978	0.0167140
893.057	0.0167612
893.135	0.0167422
893.213	0.0168462
893.291	0.0169048
893.369	0.0167012
893.447	0.0168353
893.525	0.0166404
893.603	0.0165913
893.682	0.0168259
893.760	0.0167810
893.838	0.0168330
893.916	0.0167928
893.994	0.0167319
894.072	0.0168188
894.150	0.0167242
894.228	0.0167263
894.307	0.0168202
894.385	0.0167967
894.463	0.0167952
894.541	0.0167014
894.619	0.0168174
894.697	0.0167002
894.775	0.0167581
894.853	0.0167899
894.932	0.0167837
895.010	0.0166576
895.088	0.0165869
895.166	0.0167451
895.244	0.0167024
895.322	0.0167706
895.400	0.0165898
895.478	0.0166232
895.557	0.0165732
895.635	0.0165946
895.713	0.0167181
895.791	0.0166361
895.869	0.0166863
895.947	0.0166289
896.025	0.0166932
896.103	0.0166137
896.182	0.0165910
896.260	0.0165726
896.338	0.0165491
896.416	0.0166616
896.494	0.0166257
896.572	0.0167165
896.650	0.0167648
896.728	0.0166337
896.807	0.0166036
896.885	0.0166563
896.963	0.0165652
897.041	0.0165528
897.119	0.0167297
897.197	0.0166705
897.275	0.0165879
897.353	0.0166092
897.432	0.0165488
897.510	0.0165736
897.588	0.0164906
897.666	0.0166983
897.744	0.0164379
897.822	0.0164834
897.900	0.0164526
897.978	0.0163621
898.057	0.0164020
898.135	0.0164805
898.213	0.0165538
898.291	0.0163930
898.369	0.0165520
898.447	0.0165746
898.525	0.0164658
898.603	0.0165122
898.682	0.0164198
898.760	0.0165242
898.838	0.0165262
898.916	0.0165306
898.994	0.0164829
899.072	0.0167339
899.150	0.0166599
899.228	0.0166026
899.307	0.0165004
899.385	0.0166103
899.463	0.0167319
899.541	0.0167414
899.619	0.0167136
899.697	0.0168110
899.775	0.0167992
899.853	0.0167049
899.932	0.0167838
900.010	0.0168407
900.088	0.0169086
900.166	0.0168930
900.244	0.0167940
900.322	0.0168719
900.400	0.0169643
900.478	0.0169216
900.557	0.0168880
900.635	0.0169404
900.713	0.0169288
900.791	0.0168581
900.869	0.0169584
900.947	0.0168703
901.025	0.0168252
901.103	0.0168825
901.182	0.0169414
901.260	0.0167595
901.338	0.0167773
901.416	0.0167183
901.494	0.0166678
901.572	0.0167725
901.650	0.0166449
901.728	0.0165286
901.807	0.0166270
901.885	0.0165746
901.963	0.0166017
902.041	0.0164488
902.119	0.0164674
902.197	0.0165494
902.275	0.0165114
902.353	0.0164413
902.432	0.0163911
902.510	0.0166101
902.588	0.0165337
902.666	0.0164410
902.744	0.0165007
902.822	0.0164502
902.900	0.0163993
902.978	0.0164705
903.057	0.0164745
903.135	0.0163970
903.213	0.0165096
903.291	0.0164896
903.369	0.0163889
903.447	0.0163773
903.525	0.0164524
903.603	0.0163692
903.682	0.0163966
903.760	0.0164028
903.838	0.0164220
903.916	0.0164597
903.994	0.0163973
904.072	0.0165657
904.150	0.0165173
904.228	0.0165441
904.307	0.0165805
904.385	0.0166589
904.463	0.0164211
904.541	0.0163749
904.619	0.0165400
904.697	0.0166193
904.775	0.0166161
904.853	0.0166795
904.932	0.0168098
905.010	0.0169576
905.088	0.0166713
905.166	0.0167307
905.244	0.0168212
905.322	0.0168045
905.400	0.0167135
905.478	0.0167422
905.557	0.0167463
905.635	0.0167682
905.713	0.0167583
905.791	0.0168031
905.869	0.0168471
905.947	0.0168042
906.025	0.0167738
906.103	0.0167274
906.182	0.0167577
906.260	0.0167132
906.338	0.0166997
906.416	0.0167207
906.494	0.0167651
906.572	0.0168177
906.650	0.0166358
906.728	0.0166099
906.807	0.0166645
906.885	0.0167319
906.963	0.0167249
907.041	0.0167152
907.119	0.0167693
907.197	0.0166365
907.275	0.0166785
907.353	0.0165984
907.432	0.0167230
907.510	0.0166328
907.588	0.0165254
907.666	0.0167052
907.744	0.0166087
907.822	0.0165165
907.900	0.0165222
907.978	0.0166804
908.057	0.0165865
908.135	0.0164978
908.213	0.0164776
908.291	0.0165462
908.369	0.0164932
908.447	0.0164161
908.525	0.0166190
908.603	0.0165458
908.682	0.0165382
908.760	0.0165258
908.838	0.0164833
908.916	0.0165508
908.994	0.0164660
909.072	0.0163265
909.150	0.0164343
909.228	0.0163821
909.307	0.0165205
909.385	0.0164755
909.463	0.0164686
909.541	0.0162885
909.619	0.0164568
909.697	0.0164059
909.775	0.0163107
909.853	0.0163295
909.932	0.0163108
910.010	0.0163071
910.088	0.0163212
910.166	0.0164367
910.244	0.0162990
910.322	0.0163116
910.400	0.0164285
910.478	0.0163304
910.557	0.0164436
910.635	0.0164453
910.713	0.0164256
910.791	0.0165816
910.869	0.0167361
910.947	0.0166247
911.025	0.0167571
911.103	0.0166786
911.182	0.0167766
911.260	0.0167714
911.338	0.0168477
911.416	0.0167694
911.494	0.0167120
911.572	0.0169070
911.650	0.0168417
911.728	0.0167979
911.807	0.0168469
911.885	0.0167658
911.963	0.0166474
912.041	0.0166421
912.119	0.0166499
912.197	0.0167458
912.275	0.0168467
912.353	0.0167033
912.432	0.0166295
912.510	0.0164325
912.588	0.0166412
912.666	0.0167326
912.744	0.0166315
912.822	0.0166575
912.900	0.0167059
912.978	0.0166262
913.057	0.0166560
913.135	0.0167405
913.213	0.0166786
913.291	0.0165787
913.369	0.0166781
913.447	0.0168150
913.525	0.0167410
913.603	0.0167584
913.682	0.0168307
913.760	0.0167404
913.838	0.0166576
913.916	0.0166457
913.994	0.0166001
914.072	0.0164980
914.150	0.0165539
914.228	0.0163015
914.307	0.0164106
914.385	0.0163895
914.463	0.0163176
914.541	0.0161897
914.619	0.0164323
914.697	0.0163934
914.775	0.0162975
914.853	0.0162077
914.932	0.0163592
915.010	0.0163214
915.088	0.0164288
915.166	0.0164906
915.244	0.0164906
915.322	0.0164823
915.400	0.0165845
915.478	0.0164467
915.557	0.0166364
915.635	0.0165147
915.713	0.0165131
915.791	0.0163855
915.869	0.0164910
915.947	0.0164520
916.025	0.0165302
916.103	0.0166171
916.182	0.0166253
916.260	0.0168468
916.338	0.0166840
916.416	0.0164888
916.494	0.0166000
916.572	0.0167993
916.650	0.0167322
916.728	0.0166516
916.807	0.0165325
916.885	0.0167265
916.963	0.0167645
917.041	0.0166940
917.119	0.0167484
917.197	0.0167997
917.275	0.0168098
917.353	0.0168252
917.432	0.0168720
917.510	0.0168563
917.588	0.0167287
917.666	0.0168748
917.744	0.0169502
917.822	0.0169640
917.900	0.0171327
917.978	0.0170158
918.057	0.0169012
918.135	0.0169128
918.213	0.0169667
918.291	0.0167921
918.369	0.0168886
918.447	0.0168056
918.525	0.0167960
918.603	0.0167496
918.682	0.0166521
918.760	0.0167110
918.838	0.0166953
918.916	0.0166568
918.994	0.0165923
919.072	0.0166126
919.150	0.0167143
919.228	0.0167869
919.307	0.0167495
919.385	0.0168198
919.463	0.0167120
919.541	0.0168157
919.619	0.0169189
919.697	0.0167302
919.775	0.0168440
919.853	0.0168062
919.932	0.0167001
920.010	0.0168520
920.088	0.0169179
920.166	0.0167544
920.244	0.0167039
920.322	0.0166354
920.400	0.0166088
920.478	0.0166376
920.557	0.0166444
920.635	0.0167856
920.713	0.0166176
920.791	0.0165643
920.869	0.0166964
920.947	0.0165343
921.025	0.0165665
921.103	0.0167676
921.182	0.0166547
921.260	0.0165229
921.338	0.0164886
921.416	0.0165191
921.494	0.0165689
921.572	0.0165286
921.650	0.0167310
921.728	0.0165493
921.807	0.0166336
921.885	0.0166074
921.963	0.0166157
922.041	0.0165886
922.119	0.0165788
922.197	0.0166883
922.275	0.0166104
922.353	0.0166951
922.432	0.0165965
922.510	0.0166178
922.588	0.0167155
922.666	0.0167355
922.744	0.0166586
922.822	0.0166596
922.900	0.0168382
922.978	0.0168847
923.057	0.0169176
923.135	0.0169452
923.213	0.0167667
923.291	0.0166829
923.369	0.0168841
923.447	0.0169385
923.525	0.0169699
923.603	0.0168084
923.682	0.0168405
923.760	0.0169038
923.838	0.0168086
923.916	0.0167966
923.994	0.0168356
924.072	0.0168225
924.150	0.0168589
924.228	0.0167788
924.307	0.0167683
924.385	0.0166728
924.463	0.0167395
924.541	0.0166527
924.619	0.0166294
924.697	0.0165144
924.775	0.0165165
924.853	0.0166178
924.932	0.0165923
925.010	0.0164526
925.088	0.0165207
925.166	0.0167987
925.244	0.0167271
925.322	0.0168604
925.400	0.0168312
925.478	0.0166939
925.557	0.0167703
925.635	0.0168275
925.713	0.0169045
925.791	0.0167532
925.869	0.0167816
925.947	0.0168180
926.025	0.0166991
926.103	0.0165288
926.182	0.0165914
926.260	0.0166197
926.338	0.0165757
926.416	0.0163948
926.494	0.0164606
926.572	0.0163876
926.650	0.0164194
926.728	0.0165939
926.807	0.0164666
926.885	0.0165756
926.963	0.0164493
927.041	0.0165419
927.119	0.0166264
927.197	0.0165920
927.275	0.0165748
927.353	0.0165550
927.432	0.0166328
927.510	0.0166688
927.588	0.0167175
927.666	0.0166409
927.744	0.0168230
927.822	0.0167934
927.900	0.0167521
927.978	0.0167974
928.057	0.0168684
928.135	0.0168341
928.213	0.0168026
928.291	0.0168623
928.369	0.0166755
928.447	0.0167844
928.525	0.0168658
928.603	0.0167892
928.682	0.0167271
928.760	0.0167843
928.838	0.0166263
928.916	0.0166058
928.994	0.0166031
929.072	0.0165191
929.150	0.0166243
929.228	0.0165099
929.307	0.0165476
929.385	0.0165450
929.463	0.0165076
929.541	0.0165583
929.619	0.0165781
929.697	0.0166935
929.775	0.0167009
929.853	0.0166678
929.932	0.0165876
930.010	0.0167960
930.088	0.0170030
930.166	0.0169086
930.244	0.0167053
930.322	0.0168204
930.400	0.0168832
930.478	0.0168172
930.557	0.0166723
930.635	0.0168005
930.713	0.0167500
930.791	0.0166391
930.869	0.0166480
930.947	0.0166251
931.025	0.0165729
931.103	0.0166479
931.182	0.0165017
931.260	0.0166741
931.338	0.0164737
931.416	0.0165776
931.494	0.0166035
931.572	0.0166101
931.650	0.0166443
931.728	0.0164953
931.807	0.0165530
931.885	0.0164236
931.963	0.0164268
932.041	0.0165293
932.119	0.0165248
932.197	0.0165554
932.275	0.0165034
932.353	0.0165474
932.432	0.0166000
932.510	0.0164569
932.588	0.0165837
932.666	0.0165010
932.744	0.0165654
932.822	0.0165623
932.900	0.0165406
932.978	0.0166191
933.057	0.0165654
933.135	0.0165326
933.213	0.0165871
933.291	0.0164760
933.369	0.0166003
933.447	0.0164137
933.525	0.0163750
933.603	0.0165236
933.682	0.0164465
933.760	0.0164006
933.838	0.0165545
933.916	0.0166074
933.994	0.0163787
934.072	0.0163528
934.150	0.0166183
934.228	0.0167036
934.307	0.0165481
934.385	0.0164657
934.463	0.0166219
934.541	0.0167240
934.619	0.0166903
934.697	0.0166409
934.775	0.0167446
934.853	0.0165929
934.932	0.0167115
935.010	0.0166782
935.088	0.0166763
935.166	0.0166070
935.244	0.0164803
935.322	0.0164751
935.400	0.0165189
935.478	0.0164719
935.557	0.0164574
935.635	0.0165758
935.713	0.0163779
935.791	0.0164471
935.869	0.0164801
935.947	0.0163448
936.025	0.0162994
936.103	0.0162873
936.182	0.0164893
936.260	0.0164109
936.338	0.0164661
936.416	0.0164633
936.494	0.0163535
936.572	0.0164403
936.650	0.0164754
936.728	0.0164767
936.807	0.0164487
936.885	0.0165538
936.963	0.0165570
937.041	0.0163845
937.119	0.0165065
937.197	0.0165340
937.275	0.0163918
937.353	0.0164993
937.432	0.0165673
937.510	0.0165341
937.588	0.0165576
937.666	0.0165452
937.744	0.0163496
937.822	0.0165599
937.900	0.0165924
937.978	0.0165852
938.057	0.0164712
938.135	0.0165135
938.213	0.0165965
938.291	0.0165014
938.369	0.0166780
938.447	0.0167185
938.525	0.0166335
938.603	0.0166059
938.682	0.0167108
938.760	0.0165668
938.838	0.0165572
938.916	0.0166310
938.994	0.0165488
939.072	0.0166949
939.150	0.0166515
939.228	0.0167080
939.307	0.0164931
939.385	0.0165385
939.463	0.0165324
939.541	0.0164914
939.619	0.0165089
939.697	0.0165564
939.775	0.0166411
939.853	0.0166006
939.932	0.0162954
940.010	0.0164968
940.088	0.0165082
940.166	0.0165202
940.244	0.0164770
940.322	0.0163976
940.400	0.0165001
940.478	0.0163899
940.557	0.0164618
940.635	0.0165854
940.713	0.0164868
940.791	0.0163559
940.869	0.0164632
940.947	0.0165090
941.025	0.0164471
941.103	0.0164915
941.182	0.0165644
941.260	0.0166527
941.338	0.0166563
941.416	0.0166737
941.494	0.0164986
941.572	0.0167831
941.650	0.0169269
941.728	0.0167427
941.807	0.0167554
941.885	0.0168069
941.963	0.0167412
942.041	0.0166895
942.119	0.0168108
942.197	0.0167102
942.275	0.0166903
942.353	0.0167120
942.432	0.0167067
942.510	0.0165769
942.588	0.0166155
942.666	0.0166187
942.744	0.0167382
942.822	0.0167313
942.900	0.0165269
942.978	0.0165726
943.057	0.0165712
943.135	0.0166576
943.213	0.0168090
943.291	0.0167123
943.369	0.0166489
943.447	0.0166414
943.525	0.0166307
943.603	0.0166444
943.682	0.0166798
943.760	0.0166463
943.838	0.0167004
943.916	0.0167146
943.994	0.0167253
944.072	0.0167092
944.150	0.0165530
944.228	0.0165994
944.307	0.0166911
944.385	0.0166610
944.463	0.0166447
944.541	0.0164986
944.619	0.0165176
944.697	0.0165415
944.775	0.0165262
944.853	0.0164945
944.932	0.0165237
945.010	0.0164602
945.088	0.0166918
945.166	0.0165739
945.244	0.0165636
945.322	0.0165383
945.400	0.0164104
945.478	0.0165869
945.557	0.0165937
945.635	0.0166227
945.713	0.0166910
945.791	0.0166333
945.869	0.0166544
945.947	0.0165356
946.025	0.0165560
946.103	0.0165803
946.182	0.0166142
946.260	0.0168710
946.338	0.0167372
946.416	0.0167524
946.494	0.0167902
946.572	0.0167597
946.650	0.0167190
946.728	0.0168306
946.807	0.0168188
946.885	0.0167934
946.963	0.0167393
947.041	0.0167861
947.119	0.0167865
947.197	0.0167952
947.275	0.0167713
947.353	0.0169311
947.432	0.0167850
947.510	0.0167653
947.588	0.0168443
947.666	0.0169088
947.744	0.0169815
947.822	0.0168965
947.900	0.0167867
947.978	0.0169342
948.057	0.0168661
948.135	0.0167535
948.213	0.0166711
948.291	0.0166607
948.369	0.0169366
948.447	0.0167506
948.525	0.0167174
948.603	0.0167319
948.682	0.0167004
948.760	0.0167489
948.838	0.0167250
948.916	0.0168575
948.994	0.0167159
949.072	0.0166949
949.150	0.0166805
949.228	0.0167228
949.307	0.0166416
949.385	0.0166512
949.463	0.0166570
949.541	0.0167188
949.619	0.0166970
949.697	0.0167357
949.775	0.0167039
949.853	0.0166596
949.932	0.0168679
950.010	0.0166763
950.088	0.0167467
950.166	0.0166003
950.244	0.0165401
950.322	0.0165740
950.400	0.0166729
950.478	0.0166702
950.557	0.0166109
950.635	0.0166424
950.713	0.0164728
950.791	0.0165601
950.869	0.0165556
950.947	0.0164243
951.025	0.0164711
951.103	0.0165206
951.182	0.0165310
951.260	0.0165159
951.338	0.0164467
951.416	0.0165655
951.494	0.0166373
951.572	0.0164909
951.650	0.0164633
951.728	0.0166673
951.807	0.0166531
951.885	0.0165348
951.963	0.0164458
952.041	0.0164130
952.119	0.0165181
952.197	0.0166167
952.275	0.0165559
952.353	0.0165540
952.432	0.0166877
952.510	0.0164761
952.588	0.0165847
952.666	0.0166203
952.744	0.0167329
952.822	0.0165022
952.900	0.0166377
952.978	0.0167613
953.057	0.0166345
953.135	0.0166000
953.213	0.0165334
953.291	0.0164988
953.369	0.0165323
953.447	0.0166162
953.525	0.0166174
953.603	0.0165341
953.682	0.0166804
953.760	0.0166193
953.838	0.0165546
953.916	0.0166071
953.994	0.0166043
954.072	0.0166570
954.150	0.0166914
954.228	0.0166887
954.307	0.0167414
954.385	0.0167300
954.463	0.0167547
954.541	0.0164645
954.619	0.0165208
954.697	0.0166744
954.775	0.0166099
954.853	0.0166064
954.932	0.0166513
955.010	0.0165908
955.088	0.0165672
955.166	0.0164965
955.244	0.0165175
955.322	0.0166377
955.400	0.0167510
955.478	0.0165692
955.557	0.0165002
955.635	0.0166806
955.713	0.0165231
955.791	0.0164819
955.869	0.0165005
955.947	0.0165543
956.025	0.0165536
956.103	0.0164816
956.182	0.0165367
956.260	0.0165190
956.338	0.0164016
956.416	0.0165026
956.494	0.0163776
956.572	0.0163981
956.650	0.0166067
956.728	0.0165410
956.807	0.0166009
956.885	0.0167226
956.963	0.0165665
957.041	0.0165623
957.119	0.0166351
957.197	0.0164569
957.275	0.0167573
957.353	0.0166483
957.432	0.0165676
957.510	0.0166178
957.588	0.0165832
957.666	0.0165076
957.744	0.0165514
957.822	0.0163966
957.900	0.0164882
957.978	0.0164384
958.057	0.0163799
958.135	0.0162600
958.213	0.0164727
958.291	0.0163247
958.369	0.0164063
958.447	0.0165353
958.525	0.0165477
958.603	0.0165298
958.682	0.0163826
958.760	0.0165287
958.838	0.0164459
958.916	0.0165283
958.994	0.0164642
959.072	0.0165786
959.150	0.0164803
959.228	0.0165126
959.307	0.0166180
959.385	0.0166084
959.463	0.0164796
959.541	0.0165417
959.619	0.0167274
959.697	0.0167239
959.775	0.0165524
959.853	0.0167349
959.932	0.0167342
960.010	0.0166903
960.088	0.0167368
960.166	0.0167386
960.244	0.0167459
960.322	0.0167732
960.400	0.0167146
960.478	0.0165661
960.557	0.0165687
960.635	0.0166133
960.713	0.0165825
960.791	0.0165755
960.869	0.0164957
960.947	0.0164733
961.025	0.0164232
961.103	0.0164259
961.182	0.0164014
961.260	0.0164928
961.338	0.0165424
961.416	0.0166720
961.494	0.0165262
961.572	0.0164824
961.650	0.0166425
961.728	0.0166251
961.807	0.0167375
961.885	0.0166600
961.963	0.0166125
962.041	0.0165918
962.119	0.0165015
962.197	0.0165695
962.275	0.0164324
962.353	0.0165746
962.432	0.0163400
962.510	0.0163282
962.588	0.0164372
962.666	0.0164259
962.744	0.0162316
962.822	0.0164288
962.900	0.0164816
962.978	0.0165364
963.057	0.0165478
963.135	0.0164692
963.213	0.0165179
963.291	0.0166398
963.369	0.0166077
963.447	0.0164352
963.525	0.0165223
963.603	0.0166161
963.682	0.0165795
963.760	0.0166779
963.838	0.0167381
963.916	0.0167010
963.994	0.0165871
964.072	0.0166587
964.150	0.0167000
964.228	0.0166629
964.307	0.0166427
964.385	0.0165872
964.463	0.0164204
964.541	0.0165076
964.619	0.0165050
964.697	0.0165278
964.775	0.0165347
964.853	0.0165658
964.932	0.0165009
965.010	0.0164277
965.088	0.0166711
965.166	0.0165141
965.244	0.0166446
965.322	0.0165965
965.400	0.0166930
965.478	0.0165994
965.557	0.0166676
965.635	0.0168327
965.713	0.0167529
965.791	0.0166931
965.869	0.0167054
965.947	0.0167278
966.025	0.0166702
966.103	0.0166469
966.182	0.0166953
966.260	0.0167850
966.338	0.0168004
966.416	0.0166727
966.494	0.0166304
966.572	0.0166769
966.650	0.0166394
966.728	0.0166713
966.807	0.0166205
966.885	0.0165520
966.963	0.0165472
967.041	0.0166615
967.119	0.0165524
967.197	0.0164460
967.275	0.0166550
967.353	0.0165440
967.432	0.0164114
967.510	0.0165863
967.588	0.0165606
967.666	0.0165316
967.744	0.0164887
967.822	0.0165872
967.900	0.0164615
967.978	0.0165391
968.057	0.0166406
968.135	0.0166684
968.213	0.0166481
968.291	0.0165693
968.369	0.0166147
968.447	0.0166611
968.525	0.0166850
968.603	0.0165972
968.682	0.0166592
968.760	0.0165402
968.838	0.0165279
968.916	0.0165071
968.994	0.0166247
969.072	0.0163588
969.150	0.0165337
969.228	0.0166065
969.307	0.0164993
969.385	0.0164182
969.463	0.0164092
969.541	0.0165179
969.619	0.0165882
969.697	0.0165894
969.775	0.0166139
969.853	0.0166750
969.932	0.0165546
