06/10/2022	16:33:08	Ver.	4.1	UNKNOWN
Optical Delay	650.009681	Delta X		0.078125	Sweeps	1	Scan Rate	0/0
Coordinates	Axis 1	NaN	Axis 2	NaN	Axis 3	NaN	Axis 4	NaN	Axis 5	NaN	Axis 6	0.000000
TX Power	0.000000	RX Power	0.000000

650.010	0.0170166
650.088	0.0170943
650.166	0.0170845
650.244	0.0171604
650.322	0.0170068
650.400	0.0170234
650.478	0.0169746
650.557	0.0169801
650.635	0.0170821
650.713	0.0169446
650.791	0.0169987
650.869	0.0170335
650.947	0.0170129
651.025	0.0170550
651.103	0.0170412
651.182	0.0170906
651.260	0.0169617
651.338	0.0169571
651.416	0.0170168
651.494	0.0171210
651.572	0.0170339
651.650	0.0169859
651.728	0.0168459
651.807	0.0169613
651.885	0.0171247
651.963	0.0169662
652.041	0.0170731
652.119	0.0168616
652.197	0.0169181
652.275	0.0170708
652.353	0.0171310
652.432	0.0170711
652.510	0.0169569
652.588	0.0169858
652.666	0.0170605
652.744	0.0169168
652.822	0.0169721
652.900	0.0168546
652.978	0.0168845
653.057	0.0170525
653.135	0.0169118
653.213	0.0169112
653.291	0.0169556
653.369	0.0169763
653.447	0.0169471
653.525	0.0169267
653.603	0.0169054
653.682	0.0169299
653.760	0.0169645
653.838	0.0169353
653.916	0.0169408
653.994	0.0169016
654.072	0.0170814
654.150	0.0169551
654.228	0.0169624
654.307	0.0169601
654.385	0.0169632
654.463	0.0170151
654.541	0.0170150
654.619	0.0169849
654.697	0.0169379
654.775	0.0170871
654.853	0.0170135
654.932	0.0169271
655.010	0.0170591
655.088	0.0168970
655.166	0.0168975
655.244	0.0168501
655.322	0.0169382
655.400	0.0169637
655.478	0.0170517
655.557	0.0168404
655.635	0.0170484
655.713	0.0169242
655.791	0.0169106
655.869	0.0169329
655.947	0.0170036
656.025	0.0169704
656.103	0.0169775
656.182	0.0170366
656.260	0.0169962
656.338	0.0168974
656.416	0.0169721
656.494	0.0169708
656.572	0.0169273
656.650	0.0168420
656.728	0.0168727
656.807	0.0170978
656.885	0.0170092
656.963	0.0169682
657.041	0.0168872
657.119	0.0170124
657.197	0.0170046
657.275	0.0169507
657.353	0.0169703
657.432	0.0169284
657.510	0.0170580
657.588	0.0170050
657.666	0.0169716
657.744	0.0169210
657.822	0.0169518
657.900	0.0168367
657.978	0.0170052
658.057	0.0171028
658.135	0.0170766
658.213	0.0167886
658.291	0.0168279
658.369	0.0169253
658.447	0.0169227
658.525	0.0168732
658.603	0.0169755
658.682	0.0168828
658.760	0.0168531
658.838	0.0169118
658.916	0.0169678
658.994	0.0168842
659.072	0.0169687
659.150	0.0168985
659.228	0.0169197
659.307	0.0168288
659.385	0.0168830
659.463	0.0169601
659.541	0.0170578
659.619	0.0168205
659.697	0.0169027
659.775	0.0168497
659.853	0.0169831
659.932	0.0169439
660.010	0.0170117
660.088	0.0169628
660.166	0.0168602
660.244	0.0168774
660.322	0.0169936
660.400	0.0170540
660.478	0.0168793
660.557	0.0169387
660.635	0.0169175
660.713	0.0169687
660.791	0.0168984
660.869	0.0169852
660.947	0.0168447
661.025	0.0169008
661.103	0.0169564
661.182	0.0168984
661.260	0.0169543
661.338	0.0168909
661.416	0.0169319
661.494	0.0168678
661.572	0.0168408
661.650	0.0170239
661.728	0.0169052
661.807	0.0169623
661.885	0.0168357
661.963	0.0169357
662.041	0.0168519
662.119	0.0169902
662.197	0.0168720
662.275	0.0169078
662.353	0.0168669
662.432	0.0169971
662.510	0.0169318
662.588	0.0167294
662.666	0.0169111
662.744	0.0168301
662.822	0.0168417
662.900	0.0167799
662.978	0.0168534
663.057	0.0169815
663.135	0.0170092
663.213	0.0167150
663.291	0.0169404
663.369	0.0169181
663.447	0.0168900
663.525	0.0169930
663.603	0.0169681
663.682	0.0169154
663.760	0.0167911
663.838	0.0167641
663.916	0.0168995
663.994	0.0169234
664.072	0.0169406
664.150	0.0168802
664.228	0.0167776
664.307	0.0169394
664.385	0.0169087
664.463	0.0169529
664.541	0.0169875
664.619	0.0169099
664.697	0.0170193
664.775	0.0169473
664.853	0.0169177
664.932	0.0168569
665.010	0.0168536
665.088	0.0169588
665.166	0.0168079
665.244	0.0169159
665.322	0.0168520
665.400	0.0168979
665.478	0.0169328
665.557	0.0169830
665.635	0.0168603
665.713	0.0169889
665.791	0.0169582
665.869	0.0169273
665.947	0.0168016
666.025	0.0168923
666.103	0.0168459
666.182	0.0169315
666.260	0.0168300
666.338	0.0169321
666.416	0.0169123
666.494	0.0168902
666.572	0.0169491
666.650	0.0169070
666.728	0.0169813
666.807	0.0169483
666.885	0.0170134
666.963	0.0168884
667.041	0.0168697
667.119	0.0169607
667.197	0.0169559
667.275	0.0169284
667.353	0.0169253
667.432	0.0168581
667.510	0.0170130
667.588	0.0169744
667.666	0.0169063
667.744	0.0168530
667.822	0.0169955
667.900	0.0169099
667.978	0.0168859
668.057	0.0169558
668.135	0.0169057
668.213	0.0170715
668.291	0.0169624
668.369	0.0169432
668.447	0.0169794
668.525	0.0169888
668.603	0.0168665
668.682	0.0171848
668.760	0.0170248
668.838	0.0169156
668.916	0.0169338
668.994	0.0169520
669.072	0.0170235
669.150	0.0170069
669.228	0.0169892
669.307	0.0168810
669.385	0.0168849
669.463	0.0169531
669.541	0.0170254
669.619	0.0169243
669.697	0.0168881
669.775	0.0169939
669.853	0.0170390
669.932	0.0167889
670.010	0.0169333
670.088	0.0169694
670.166	0.0169131
670.244	0.0170125
670.322	0.0169023
670.400	0.0168929
670.478	0.0169909
670.557	0.0168937
670.635	0.0168265
670.713	0.0170369
670.791	0.0168581
670.869	0.0170580
670.947	0.0170299
671.025	0.0169244
671.103	0.0168797
671.182	0.0170304
671.260	0.0169667
671.338	0.0169133
671.416	0.0169440
671.494	0.0169096
671.572	0.0168156
671.650	0.0169072
671.728	0.0170005
671.807	0.0169992
671.885	0.0167717
671.963	0.0168446
672.041	0.0170313
672.119	0.0168684
672.197	0.0169093
672.275	0.0169547
672.353	0.0169073
672.432	0.0169130
672.510	0.0169009
672.588	0.0168676
672.666	0.0169378
672.744	0.0169914
672.822	0.0169481
672.900	0.0169582
672.978	0.0170110
673.057	0.0169781
673.135	0.0169480
673.213	0.0169666
673.291	0.0169925
673.369	0.0168161
673.447	0.0169305
673.525	0.0168391
673.603	0.0168448
673.682	0.0169627
673.760	0.0169537
673.838	0.0169749
673.916	0.0169787
673.994	0.0169459
674.072	0.0169141
674.150	0.0168698
674.228	0.0169400
674.307	0.0169142
674.385	0.0169581
674.463	0.0167626
674.541	0.0170197
674.619	0.0170245
674.697	0.0169907
674.775	0.0168835
674.853	0.0169206
674.932	0.0166940
675.010	0.0169659
675.088	0.0170188
675.166	0.0168742
675.244	0.0168407
675.322	0.0168511
675.400	0.0169212
675.478	0.0168700
675.557	0.0168458
675.635	0.0169462
675.713	0.0169460
675.791	0.0169065
675.869	0.0168309
675.947	0.0168791
676.025	0.0170178
676.103	0.0169523
676.182	0.0169075
676.260	0.0168919
676.338	0.0169553
676.416	0.0169752
676.494	0.0168904
676.572	0.0169098
676.650	0.0169125
676.728	0.0168687
676.807	0.0170504
676.885	0.0169972
676.963	0.0169067
677.041	0.0169751
677.119	0.0168907
677.197	0.0168532
677.275	0.0168866
677.353	0.0169965
677.432	0.0170509
677.510	0.0169624
677.588	0.0169241
677.666	0.0169485
677.744	0.0170329
677.822	0.0169095
677.900	0.0168946
677.978	0.0170400
678.057	0.0168369
678.135	0.0168188
678.213	0.0169296
678.291	0.0169309
678.369	0.0170236
678.447	0.0169156
678.525	0.0169537
678.603	0.0168642
678.682	0.0168218
678.760	0.0168501
678.838	0.0167925
678.916	0.0168683
678.994	0.0169727
679.072	0.0169471
679.150	0.0169117
679.228	0.0169245
679.307	0.0169093
679.385	0.0167065
679.463	0.0167876
679.541	0.0169065
679.619	0.0168286
679.697	0.0168521
679.775	0.0168390
679.853	0.0170705
679.932	0.0170030
680.010	0.0169008
680.088	0.0168557
680.166	0.0168913
680.244	0.0169584
680.322	0.0168075
680.400	0.0168983
680.478	0.0168636
680.557	0.0169292
680.635	0.0166605
680.713	0.0167620
680.791	0.0169659
680.869	0.0169397
680.947	0.0167336
681.025	0.0167929
681.103	0.0169666
681.182	0.0170166
681.260	0.0169669
681.338	0.0167870
681.416	0.0169055
681.494	0.0168658
681.572	0.0169491
681.650	0.0168462
681.728	0.0169683
681.807	0.0167342
681.885	0.0168536
681.963	0.0168764
682.041	0.0169785
682.119	0.0167773
682.197	0.0168453
682.275	0.0170012
682.353	0.0168250
682.432	0.0167640
682.510	0.0168752
682.588	0.0169601
682.666	0.0168771
682.744	0.0169864
682.822	0.0169652
682.900	0.0168819
682.978	0.0169472
683.057	0.0168754
683.135	0.0170137
683.213	0.0169029
683.291	0.0169031
683.369	0.0170287
683.447	0.0168852
683.525	0.0169890
683.603	0.0170460
683.682	0.0168742
683.760	0.0168382
683.838	0.0169288
683.916	0.0170363
683.994	0.0169917
684.072	0.0171012
684.150	0.0169849
684.228	0.0169787
684.307	0.0169730
684.385	0.0170550
684.463	0.0169350
684.541	0.0168736
684.619	0.0168973
684.697	0.0169376
684.775	0.0170177
684.853	0.0169212
684.932	0.0168822
685.010	0.0169632
685.088	0.0168760
685.166	0.0168882
685.244	0.0169090
685.322	0.0171671
685.400	0.0169080
685.478	0.0169605
685.557	0.0169199
685.635	0.0170829
685.713	0.0168090
685.791	0.0170199
685.869	0.0169308
685.947	0.0171524
686.025	0.0169745
686.103	0.0169759
686.182	0.0170037
686.260	0.0169190
686.338	0.0170347
686.416	0.0171100
686.494	0.0169691
686.572	0.0171316
686.650	0.0170174
686.728	0.0170096
686.807	0.0169431
686.885	0.0169466
686.963	0.0171162
687.041	0.0169395
687.119	0.0169995
687.197	0.0169695
687.275	0.0169781
687.353	0.0170429
687.432	0.0169190
687.510	0.0169409
687.588	0.0169717
687.666	0.0169021
687.744	0.0169208
687.822	0.0169414
687.900	0.0169614
687.978	0.0168058
688.057	0.0167749
688.135	0.0167840
688.213	0.0169169
688.291	0.0169093
688.369	0.0169638
688.447	0.0169862
688.525	0.0169147
688.603	0.0170235
688.682	0.0169480
688.760	0.0169242
688.838	0.0169274
688.916	0.0168721
688.994	0.0168855
689.072	0.0168629
689.150	0.0169877
689.228	0.0169991
689.307	0.0169103
689.385	0.0169421
689.463	0.0170376
689.541	0.0169570
689.619	0.0169350
689.697	0.0169276
689.775	0.0169019
689.853	0.0169156
689.932	0.0169228
690.010	0.0170637
690.088	0.0170650
690.166	0.0169097
690.244	0.0169545
690.322	0.0169843
690.400	0.0169955
690.478	0.0169205
690.557	0.0169795
690.635	0.0169641
690.713	0.0168733
690.791	0.0169701
690.869	0.0168600
690.947	0.0168878
691.025	0.0169509
691.103	0.0169640
691.182	0.0170000
691.260	0.0170937
691.338	0.0169636
691.416	0.0168584
691.494	0.0170022
691.572	0.0169471
691.650	0.0168274
691.728	0.0168349
691.807	0.0168702
691.885	0.0168560
691.963	0.0167254
692.041	0.0170473
692.119	0.0169518
692.197	0.0168849
692.275	0.0169131
692.353	0.0169231
692.432	0.0170824
692.510	0.0169202
692.588	0.0170328
692.666	0.0170633
692.744	0.0170731
692.822	0.0169786
692.900	0.0168350
692.978	0.0168265
693.057	0.0170852
693.135	0.0169994
693.213	0.0169939
693.291	0.0169679
693.369	0.0169344
693.447	0.0168841
693.525	0.0168955
693.603	0.0170826
693.682	0.0170132
693.760	0.0170842
693.838	0.0170773
693.916	0.0169820
693.994	0.0168690
694.072	0.0170760
694.150	0.0171391
694.228	0.0169978
694.307	0.0170178
694.385	0.0169612
694.463	0.0170516
694.541	0.0170243
694.619	0.0170393
694.697	0.0170702
694.775	0.0169778
694.853	0.0169417
694.932	0.0170051
695.010	0.0168965
695.088	0.0168730
695.166	0.0168713
695.244	0.0169666
695.322	0.0168545
695.400	0.0168587
695.478	0.0168838
695.557	0.0169008
695.635	0.0169675
695.713	0.0169156
695.791	0.0168853
695.869	0.0167735
695.947	0.0168092
696.025	0.0169315
696.103	0.0168851
696.182	0.0168472
696.260	0.0169305
696.338	0.0169010
696.416	0.0168692
696.494	0.0168498
696.572	0.0168765
696.650	0.0168932
696.728	0.0170250
696.807	0.0168829
696.885	0.0168573
696.963	0.0169331
697.041	0.0169429
697.119	0.0169957
697.197	0.0168620
697.275	0.0167583
697.353	0.0167873
697.432	0.0167504
697.510	0.0169428
697.588	0.0169724
697.666	0.0169213
697.744	0.0169196
697.822	0.0169718
697.900	0.0169980
697.978	0.0168159
698.057	0.0169029
698.135	0.0168565
698.213	0.0169783
698.291	0.0168362
698.369	0.0166965
698.447	0.0169662
698.525	0.0168103
698.603	0.0168439
698.682	0.0167960
698.760	0.0169392
698.838	0.0167520
698.916	0.0168584
698.994	0.0168603
699.072	0.0169712
699.150	0.0168187
699.228	0.0168520
699.307	0.0168853
699.385	0.0169642
699.463	0.0168647
699.541	0.0168806
699.619	0.0168534
699.697	0.0168969
699.775	0.0168831
699.853	0.0167899
699.932	0.0169142
700.010	0.0167616
700.088	0.0168788
700.166	0.0168622
700.244	0.0169699
700.322	0.0168031
700.400	0.0168946
700.478	0.0168996
700.557	0.0168547
700.635	0.0166943
700.713	0.0168398
700.791	0.0170203
700.869	0.0168330
700.947	0.0168900
701.025	0.0169157
701.103	0.0168755
701.182	0.0169550
701.260	0.0169002
701.338	0.0167883
701.416	0.0168864
701.494	0.0170468
701.572	0.0168954
701.650	0.0168620
701.728	0.0168182
701.807	0.0170060
701.885	0.0169598
701.963	0.0168934
702.041	0.0168050
702.119	0.0168191
702.197	0.0168603
702.275	0.0170249
702.353	0.0169489
702.432	0.0169289
702.510	0.0169234
702.588	0.0169168
702.666	0.0167896
702.744	0.0169190
702.822	0.0169862
702.900	0.0168380
702.978	0.0170158
703.057	0.0169724
703.135	0.0169593
703.213	0.0169096
703.291	0.0169076
703.369	0.0169357
703.447	0.0168969
703.525	0.0169478
703.603	0.0170071
703.682	0.0170171
703.760	0.0170296
703.838	0.0168889
703.916	0.0169063
703.994	0.0169801
704.072	0.0170259
704.150	0.0169538
704.228	0.0168257
704.307	0.0170130
704.385	0.0170797
704.463	0.0168825
704.541	0.0169064
704.619	0.0169134
704.697	0.0169445
704.775	0.0170792
704.853	0.0170200
704.932	0.0169428
705.010	0.0169204
705.088	0.0169277
705.166	0.0168977
705.244	0.0169379
705.322	0.0170301
705.400	0.0169276
705.478	0.0170726
705.557	0.0169877
705.635	0.0170297
705.713	0.0169958
705.791	0.0170525
705.869	0.0169386
705.947	0.0168688
706.025	0.0170210
706.103	0.0170747
706.182	0.0169473
706.260	0.0167247
706.338	0.0169524
706.416	0.0169170
706.494	0.0169672
706.572	0.0169285
706.650	0.0170385
706.728	0.0168470
706.807	0.0169087
706.885	0.0169263
706.963	0.0169675
707.041	0.0170792
707.119	0.0168704
707.197	0.0169583
707.275	0.0168987
707.353	0.0168430
707.432	0.0169454
707.510	0.0170446
707.588	0.0170468
707.666	0.0168720
707.744	0.0168986
707.822	0.0170083
707.900	0.0170381
707.978	0.0169291
708.057	0.0168202
708.135	0.0170234
708.213	0.0170471
708.291	0.0169135
708.369	0.0169191
708.447	0.0168509
708.525	0.0169943
708.603	0.0170008
708.682	0.0168696
708.760	0.0168668
708.838	0.0170107
708.916	0.0169312
708.994	0.0169128
709.072	0.0169492
709.150	0.0170787
709.228	0.0169669
709.307	0.0169611
709.385	0.0169585
709.463	0.0167924
709.541	0.0170303
709.619	0.0169710
709.697	0.0168443
709.775	0.0168678
709.853	0.0169935
709.932	0.0169910
710.010	0.0169903
710.088	0.0170928
710.166	0.0168520
710.244	0.0169481
710.322	0.0169090
710.400	0.0168991
710.478	0.0170208
710.557	0.0170414
710.635	0.0168509
710.713	0.0169189
710.791	0.0169363
710.869	0.0169697
710.947	0.0169986
711.025	0.0168935
711.103	0.0168137
711.182	0.0169429
711.260	0.0170084
711.338	0.0171336
711.416	0.0171178
711.494	0.0170033
711.572	0.0170438
711.650	0.0170807
711.728	0.0169684
711.807	0.0169404
711.885	0.0170238
711.963	0.0168666
712.041	0.0169700
712.119	0.0170390
712.197	0.0166792
712.275	0.0167736
712.353	0.0167078
712.432	0.0167220
712.510	0.0167617
712.588	0.0167846
712.666	0.0168065
712.744	0.0168149
712.822	0.0170068
712.900	0.0168852
712.978	0.0170242
713.057	0.0170447
713.135	0.0169926
713.213	0.0169558
713.291	0.0170032
713.369	0.0170618
713.447	0.0169787
713.525	0.0170808
713.603	0.0170287
713.682	0.0171009
713.760	0.0171410
713.838	0.0170875
713.916	0.0168874
713.994	0.0169947
714.072	0.0169898
714.150	0.0169176
714.228	0.0170012
714.307	0.0169377
714.385	0.0169822
714.463	0.0168298
714.541	0.0169407
714.619	0.0169129
714.697	0.0168216
714.775	0.0169534
714.853	0.0168441
714.932	0.0170065
715.010	0.0167679
715.088	0.0169048
715.166	0.0169852
715.244	0.0168053
715.322	0.0168821
715.400	0.0167859
715.478	0.0168915
715.557	0.0169958
715.635	0.0170148
715.713	0.0170739
715.791	0.0170728
715.869	0.0171246
715.947	0.0170654
716.025	0.0170008
716.103	0.0170004
716.182	0.0171284
716.260	0.0171597
716.338	0.0169717
716.416	0.0169422
716.494	0.0169321
716.572	0.0168593
716.650	0.0167705
716.728	0.0168115
716.807	0.0166835
716.885	0.0167062
716.963	0.0167507
717.041	0.0167580
717.119	0.0167838
717.197	0.0166668
717.275	0.0169306
717.353	0.0168017
717.432	0.0169153
717.510	0.0168745
717.588	0.0169289
717.666	0.0170670
717.744	0.0171227
717.822	0.0170107
717.900	0.0169750
717.978	0.0170304
718.057	0.0170859
718.135	0.0170529
718.213	0.0170712
718.291	0.0171311
718.369	0.0170549
718.447	0.0171087
718.525	0.0169833
718.603	0.0171137
718.682	0.0171162
718.760	0.0170542
718.838	0.0168943
718.916	0.0170159
718.994	0.0168654
719.072	0.0167422
719.150	0.0167277
719.228	0.0168523
719.307	0.0168848
719.385	0.0168060
719.463	0.0167942
719.541	0.0167496
719.619	0.0168651
719.697	0.0169361
719.775	0.0169134
719.853	0.0169915
719.932	0.0169497
720.010	0.0169991
720.088	0.0170454
720.166	0.0170834
720.244	0.0171593
720.322	0.0170489
720.400	0.0171702
720.478	0.0171699
720.557	0.0171618
720.635	0.0172150
720.713	0.0170922
720.791	0.0171010
720.869	0.0171735
720.947	0.0171834
721.025	0.0171741
721.103	0.0172310
721.182	0.0171291
721.260	0.0170779
721.338	0.0170638
721.416	0.0168562
721.494	0.0168597
721.572	0.0169926
721.650	0.0168110
721.728	0.0167622
721.807	0.0169434
721.885	0.0168327
721.963	0.0168460
722.041	0.0168216
722.119	0.0167994
722.197	0.0168356
722.275	0.0167383
722.353	0.0170497
722.432	0.0169839
722.510	0.0170791
722.588	0.0169947
722.666	0.0170553
722.744	0.0170723
722.822	0.0171901
722.900	0.0172765
722.978	0.0172057
723.057	0.0171081
723.135	0.0171190
723.213	0.0172068
723.291	0.0168900
723.369	0.0169379
723.447	0.0169430
723.525	0.0168699
723.603	0.0168842
723.682	0.0168310
723.760	0.0168910
723.838	0.0168710
723.916	0.0169102
723.994	0.0168857
724.072	0.0168909
724.150	0.0169369
724.228	0.0169159
724.307	0.0168404
724.385	0.0168288
724.463	0.0169110
724.541	0.0169537
724.619	0.0168910
724.697	0.0168958
724.775	0.0167886
724.853	0.0167982
724.932	0.0169114
725.010	0.0169714
725.088	0.0169003
725.166	0.0168739
725.244	0.0170411
725.322	0.0169581
725.400	0.0167343
725.478	0.0168896
725.557	0.0168628
725.635	0.0169149
725.713	0.0169882
725.791	0.0169321
725.869	0.0169047
725.947	0.0170224
726.025	0.0170017
726.103	0.0168999
726.182	0.0169932
726.260	0.0169762
726.338	0.0169955
726.416	0.0168517
726.494	0.0169773
726.572	0.0168291
726.650	0.0168616
726.728	0.0169382
726.807	0.0167494
726.885	0.0168337
726.963	0.0169762
727.041	0.0169543
727.119	0.0167926
727.197	0.0169904
727.275	0.0169285
727.353	0.0167976
727.432	0.0167162
727.510	0.0168880
727.588	0.0169493
727.666	0.0169865
727.744	0.0168948
727.822	0.0170021
727.900	0.0170158
727.978	0.0169271
728.057	0.0169935
728.135	0.0170638
728.213	0.0170976
728.291	0.0169270
728.369	0.0169878
728.447	0.0170157
728.525	0.0170387
728.603	0.0171007
728.682	0.0170047
728.760	0.0169305
728.838	0.0170188
728.916	0.0168951
728.994	0.0168607
729.072	0.0168374
729.150	0.0169464
729.228	0.0168279
729.307	0.0167867
729.385	0.0169796
729.463	0.0168990
729.541	0.0169552
729.619	0.0169385
729.697	0.0169725
729.775	0.0170417
729.853	0.0168748
729.932	0.0172379
730.010	0.0172372
730.088	0.0172021
730.166	0.0173837
730.244	0.0172055
730.322	0.0170741
730.400	0.0171345
730.478	0.0172325
730.557	0.0170624
730.635	0.0169110
730.713	0.0167300
730.791	0.0169102
730.869	0.0167101
730.947	0.0166824
731.025	0.0165459
731.103	0.0165427
731.182	0.0166025
731.260	0.0166795
731.338	0.0167034
731.416	0.0167828
731.494	0.0168440
731.572	0.0168430
731.650	0.0170915
731.728	0.0171655
731.807	0.0172092
731.885	0.0172727
731.963	0.0173429
732.041	0.0173517
732.119	0.0172462
732.197	0.0173056
732.275	0.0174122
732.353	0.0172498
732.432	0.0170602
732.510	0.0169619
732.588	0.0169135
732.666	0.0169793
732.744	0.0168224
732.822	0.0166746
732.900	0.0167093
732.978	0.0167651
733.057	0.0166533
733.135	0.0166037
733.213	0.0165816
733.291	0.0167432
733.369	0.0166129
733.447	0.0166456
733.525	0.0167071
733.603	0.0166331
733.682	0.0167393
733.760	0.0168676
733.838	0.0168541
733.916	0.0169432
733.994	0.0170061
734.072	0.0171674
734.150	0.0172010
734.228	0.0171047
734.307	0.0173487
734.385	0.0173316
734.463	0.0174980
734.541	0.0173856
734.619	0.0174955
734.697	0.0173479
734.775	0.0173202
734.853	0.0172361
734.932	0.0170856
735.010	0.0169875
735.088	0.0168378
735.166	0.0167942
735.244	0.0166166
735.322	0.0164146
735.400	0.0162665
735.478	0.0164095
735.557	0.0162962
735.635	0.0162547
735.713	0.0162877
735.791	0.0165272
735.869	0.0165325
735.947	0.0164137
736.025	0.0167967
736.103	0.0168720
736.182	0.0169148
736.260	0.0170808
736.338	0.0172511
736.416	0.0174418
736.494	0.0174570
736.572	0.0174554
736.650	0.0175667
736.728	0.0173191
736.807	0.0173039
736.885	0.0172553
736.963	0.0171430
737.041	0.0170866
737.119	0.0169896
737.197	0.0169691
737.275	0.0167287
737.353	0.0166723
737.432	0.0167126
737.510	0.0165742
737.588	0.0164756
737.666	0.0165103
737.744	0.0165721
737.822	0.0165667
737.900	0.0166643
737.978	0.0167389
738.057	0.0166753
738.135	0.0167847
738.213	0.0168594
738.291	0.0168935
738.369	0.0168921
738.447	0.0170244
738.525	0.0169741
738.603	0.0170259
738.682	0.0170733
738.760	0.0171017
738.838	0.0171030
738.916	0.0172083
738.994	0.0172354
739.072	0.0172098
739.150	0.0172048
739.228	0.0172099
739.307	0.0171057
739.385	0.0172249
739.463	0.0171832
739.541	0.0170576
739.619	0.0170072
739.697	0.0170545
739.775	0.0167958
739.853	0.0168948
739.932	0.0169511
740.010	0.0167416
740.088	0.0168673
740.166	0.0167606
740.244	0.0169338
740.322	0.0167512
740.400	0.0167188
740.478	0.0168175
740.557	0.0167044
740.635	0.0166274
740.713	0.0168731
740.791	0.0169280
740.869	0.0168936
740.947	0.0168926
741.025	0.0169861
741.103	0.0169764
741.182	0.0170665
741.260	0.0170753
741.338	0.0171719
741.416	0.0169997
741.494	0.0169477
741.572	0.0170657
741.650	0.0169721
741.728	0.0170770
741.807	0.0171664
741.885	0.0170744
741.963	0.0169286
742.041	0.0170631
742.119	0.0169438
742.197	0.0169791
742.275	0.0170168
742.353	0.0170103
742.432	0.0168325
742.510	0.0168359
742.588	0.0168948
742.666	0.0168266
742.744	0.0168663
742.822	0.0169690
742.900	0.0169504
742.978	0.0170004
743.057	0.0169526
743.135	0.0171236
743.213	0.0169792
743.291	0.0169440
743.369	0.0167635
743.447	0.0168711
743.525	0.0169244
743.603	0.0168418
743.682	0.0168140
743.760	0.0168854
743.838	0.0169312
743.916	0.0170210
743.994	0.0168541
744.072	0.0168561
744.150	0.0170055
744.228	0.0171477
744.307	0.0169078
744.385	0.0167813
744.463	0.0170076
744.541	0.0170673
744.619	0.0170192
744.697	0.0170065
744.775	0.0169519
744.853	0.0170240
744.932	0.0171332
745.010	0.0170531
745.088	0.0170686
745.166	0.0169804
745.244	0.0170252
745.322	0.0170220
745.400	0.0171425
745.478	0.0169052
745.557	0.0168826
745.635	0.0168234
745.713	0.0169930
745.791	0.0169419
745.869	0.0167191
745.947	0.0167815
746.025	0.0168388
746.103	0.0168040
746.182	0.0168387
746.260	0.0167416
746.338	0.0167899
746.416	0.0167937
746.494	0.0169096
746.572	0.0168141
746.650	0.0169009
746.728	0.0168888
746.807	0.0169212
746.885	0.0170065
746.963	0.0170541
747.041	0.0169957
747.119	0.0170339
747.197	0.0170470
747.275	0.0170824
747.353	0.0171461
747.432	0.0169670
747.510	0.0170638
747.588	0.0168781
747.666	0.0168276
747.744	0.0170544
747.822	0.0170528
747.900	0.0169549
747.978	0.0170483
748.057	0.0168964
748.135	0.0168952
748.213	0.0170347
748.291	0.0169334
748.369	0.0168349
748.447	0.0168630
748.525	0.0169017
748.603	0.0167560
748.682	0.0168707
748.760	0.0168345
748.838	0.0169589
748.916	0.0168118
748.994	0.0169794
749.072	0.0168783
749.150	0.0170012
749.228	0.0168900
749.307	0.0168544
749.385	0.0169173
749.463	0.0168581
749.541	0.0169021
749.619	0.0169103
749.697	0.0169566
749.775	0.0171012
749.853	0.0170135
749.932	0.0168607
750.010	0.0170630
750.088	0.0169851
750.166	0.0170462
750.244	0.0169511
750.322	0.0169335
750.400	0.0170716
750.478	0.0170619
750.557	0.0168407
750.635	0.0169429
750.713	0.0168213
750.791	0.0170033
750.869	0.0170217
750.947	0.0168548
751.025	0.0169477
751.103	0.0169565
751.182	0.0170406
751.260	0.0169363
751.338	0.0168301
751.416	0.0170190
751.494	0.0169695
751.572	0.0169743
751.650	0.0170201
751.728	0.0169649
751.807	0.0170594
751.885	0.0169576
751.963	0.0169938
752.041	0.0170700
752.119	0.0171043
752.197	0.0170988
752.275	0.0171880
752.353	0.0171283
752.432	0.0170686
752.510	0.0171031
752.588	0.0169387
752.666	0.0170659
752.744	0.0170714
752.822	0.0170824
752.900	0.0169498
752.978	0.0169264
753.057	0.0170618
753.135	0.0170231
753.213	0.0168562
753.291	0.0169350
753.369	0.0167931
753.447	0.0169524
753.525	0.0169578
753.603	0.0169693
753.682	0.0168991
753.760	0.0169883
753.838	0.0170030
753.916	0.0169559
753.994	0.0169284
754.072	0.0169682
754.150	0.0169608
754.228	0.0169976
754.307	0.0169416
754.385	0.0169395
754.463	0.0169503
754.541	0.0170506
754.619	0.0168271
754.697	0.0168650
754.775	0.0170483
754.853	0.0169887
754.932	0.0169155
755.010	0.0169934
755.088	0.0169066
755.166	0.0168508
755.244	0.0171444
755.322	0.0169411
755.400	0.0170045
755.478	0.0169936
755.557	0.0169524
755.635	0.0170780
755.713	0.0170050
755.791	0.0168507
755.869	0.0170351
755.947	0.0171278
756.025	0.0170210
756.103	0.0170148
756.182	0.0168577
756.260	0.0168901
756.338	0.0170831
756.416	0.0169012
756.494	0.0168581
756.572	0.0169607
756.650	0.0170573
756.728	0.0170318
756.807	0.0169498
756.885	0.0169930
756.963	0.0171225
757.041	0.0169259
757.119	0.0169640
757.197	0.0170424
757.275	0.0169935
757.353	0.0169603
757.432	0.0171507
757.510	0.0168751
757.588	0.0169347
757.666	0.0169024
757.744	0.0168636
757.822	0.0170200
757.900	0.0169547
757.978	0.0168415
758.057	0.0169026
758.135	0.0169589
758.213	0.0169225
758.291	0.0168710
758.369	0.0169550
758.447	0.0170623
758.525	0.0169491
758.603	0.0168293
758.682	0.0170119
758.760	0.0170025
758.838	0.0168814
758.916	0.0169064
758.994	0.0168178
759.072	0.0168738
759.150	0.0169173
759.228	0.0168811
759.307	0.0168538
759.385	0.0168302
759.463	0.0168647
759.541	0.0170340
759.619	0.0168966
759.697	0.0168599
759.775	0.0169859
759.853	0.0168179
759.932	0.0169499
760.010	0.0168536
760.088	0.0168404
760.166	0.0169201
760.244	0.0169292
760.322	0.0169083
760.400	0.0169171
760.478	0.0169935
760.557	0.0168668
760.635	0.0169289
760.713	0.0170289
760.791	0.0169346
760.869	0.0170322
760.947	0.0169767
761.025	0.0168433
761.103	0.0168391
761.182	0.0167264
761.260	0.0167192
761.338	0.0169635
761.416	0.0168818
761.494	0.0168481
761.572	0.0169126
761.650	0.0170573
761.728	0.0169767
761.807	0.0169805
761.885	0.0170596
761.963	0.0170961
762.041	0.0170467
762.119	0.0170389
762.197	0.0171503
762.275	0.0171287
762.353	0.0170428
762.432	0.0170898
762.510	0.0170798
762.588	0.0171880
762.666	0.0170150
762.744	0.0168700
762.822	0.0169598
762.900	0.0167845
762.978	0.0167078
763.057	0.0167628
763.135	0.0168104
763.213	0.0167062
763.291	0.0166327
763.369	0.0167046
763.447	0.0166196
763.525	0.0165621
763.603	0.0166843
763.682	0.0167930
763.760	0.0167836
763.838	0.0166804
763.916	0.0168027
763.994	0.0167179
764.072	0.0168140
764.150	0.0169371
764.228	0.0168445
764.307	0.0168350
764.385	0.0168822
764.463	0.0168449
764.541	0.0168896
764.619	0.0170358
764.697	0.0170657
764.775	0.0170850
764.853	0.0171038
764.932	0.0171275
765.010	0.0170959
765.088	0.0170932
765.166	0.0171747
765.244	0.0171908
765.322	0.0171015
765.400	0.0171228
765.478	0.0170751
765.557	0.0169167
765.635	0.0168187
765.713	0.0168287
765.791	0.0169428
765.869	0.0168587
765.947	0.0167025
766.025	0.0166911
766.103	0.0167558
766.182	0.0166061
766.260	0.0165763
766.338	0.0165546
766.416	0.0165559
766.494	0.0165273
766.572	0.0164542
766.650	0.0166190
766.728	0.0167010
766.807	0.0166304
766.885	0.0167529
766.963	0.0167954
767.041	0.0167743
767.119	0.0168683
767.197	0.0170564
767.275	0.0169646
767.353	0.0170033
767.432	0.0171803
767.510	0.0171445
767.588	0.0170611
767.666	0.0171014
767.744	0.0171658
767.822	0.0171158
767.900	0.0171277
767.978	0.0170728
768.057	0.0170706
768.135	0.0171398
768.213	0.0171407
768.291	0.0170847
768.369	0.0169030
768.447	0.0170315
768.525	0.0170889
768.603	0.0170985
768.682	0.0168806
768.760	0.0168686
768.838	0.0168757
768.916	0.0168462
768.994	0.0169019
769.072	0.0167362
769.150	0.0166211
769.228	0.0167498
769.307	0.0166920
769.385	0.0166592
769.463	0.0166870
769.541	0.0166456
769.619	0.0166933
769.697	0.0166049
769.775	0.0169154
769.853	0.0168861
769.932	0.0169550
770.010	0.0168738
770.088	0.0171111
770.166	0.0173260
770.244	0.0172046
770.322	0.0170226
770.400	0.0172163
770.478	0.0171912
770.557	0.0170327
770.635	0.0171181
770.713	0.0170164
770.791	0.0170106
770.869	0.0168793
770.947	0.0168358
771.025	0.0169063
771.103	0.0168119
771.182	0.0166364
771.260	0.0164568
771.338	0.0165918
771.416	0.0164249
771.494	0.0163822
771.572	0.0164043
771.650	0.0164749
771.728	0.0164133
771.807	0.0164414
771.885	0.0165163
771.963	0.0165913
772.041	0.0166414
772.119	0.0167900
772.197	0.0169638
772.275	0.0168880
772.353	0.0168816
772.432	0.0170701
772.510	0.0171544
772.588	0.0171504
772.666	0.0173383
772.744	0.0175860
772.822	0.0175584
772.900	0.0175442
772.978	0.0175658
773.057	0.0176180
773.135	0.0174675
773.213	0.0175316
773.291	0.0175059
773.369	0.0174677
773.447	0.0174878
773.525	0.0172344
773.603	0.0169620
773.682	0.0171465
773.760	0.0169064
773.838	0.0167371
773.916	0.0166737
773.994	0.0166597
774.072	0.0165775
774.150	0.0164217
774.228	0.0163269
774.307	0.0163474
774.385	0.0160730
774.463	0.0161362
774.541	0.0163385
774.619	0.0161886
774.697	0.0162763
774.775	0.0161163
774.853	0.0163483
774.932	0.0162659
775.010	0.0164014
775.088	0.0164847
775.166	0.0163995
775.244	0.0164478
775.322	0.0164388
775.400	0.0167554
775.478	0.0167886
775.557	0.0166648
775.635	0.0168636
775.713	0.0170043
775.791	0.0170998
775.869	0.0173705
775.947	0.0173566
776.025	0.0175183
776.103	0.0175339
776.182	0.0175856
776.260	0.0175347
776.338	0.0176598
776.416	0.0175796
776.494	0.0176745
776.572	0.0176996
776.650	0.0175143
776.728	0.0175610
776.807	0.0175586
776.885	0.0174184
776.963	0.0174635
777.041	0.0172294
777.119	0.0171494
777.197	0.0171227
777.275	0.0171128
777.353	0.0170674
777.432	0.0169658
777.510	0.0168394
777.588	0.0166689
777.666	0.0166455
777.744	0.0166777
777.822	0.0166901
777.900	0.0167120
777.978	0.0166612
778.057	0.0166063
778.135	0.0168024
778.213	0.0167920
778.291	0.0166484
778.369	0.0168173
778.447	0.0166688
778.525	0.0166553
778.603	0.0168530
778.682	0.0167596
778.760	0.0165475
778.838	0.0166010
778.916	0.0165341
778.994	0.0165313
779.072	0.0163685
779.150	0.0163142
779.228	0.0163406
779.307	0.0162669
779.385	0.0163407
779.463	0.0162257
779.541	0.0163007
779.619	0.0163654
779.697	0.0164512
779.775	0.0163788
779.853	0.0166085
779.932	0.0167162
780.010	0.0168948
780.088	0.0170944
780.166	0.0171396
780.244	0.0172852
780.322	0.0174738
780.400	0.0173738
780.478	0.0176151
780.557	0.0176463
780.635	0.0176879
780.713	0.0178701
780.791	0.0178467
780.869	0.0179205
780.947	0.0180096
781.025	0.0180270
781.103	0.0179366
781.182	0.0179432
781.260	0.0179784
781.338	0.0180967
781.416	0.0178557
781.494	0.0178332
781.572	0.0177018
781.650	0.0176188
781.728	0.0175404
781.807	0.0174234
781.885	0.0174796
781.963	0.0172448
782.041	0.0169695
782.119	0.0168269
782.197	0.0167362
782.275	0.0166076
782.353	0.0165276
782.432	0.0163149
782.510	0.0162232
782.588	0.0161392
782.666	0.0159180
782.744	0.0158228
782.822	0.0159961
782.900	0.0158619
782.978	0.0157534
783.057	0.0156187
783.135	0.0156169
783.213	0.0156887
783.291	0.0157404
783.369	0.0157951
783.447	0.0159982
783.525	0.0161452
783.603	0.0161211
783.682	0.0164002
783.760	0.0165205
783.838	0.0166295
783.916	0.0168306
783.994	0.0169160
784.072	0.0169559
784.150	0.0172317
784.228	0.0176713
784.307	0.0174934
784.385	0.0175865
784.463	0.0177089
784.541	0.0176138
784.619	0.0178552
784.697	0.0179343
784.775	0.0180703
784.853	0.0180437
784.932	0.0181306
785.010	0.0179617
785.088	0.0180215
785.166	0.0181755
785.244	0.0182214
785.322	0.0180960
785.400	0.0178503
785.478	0.0180037
785.557	0.0179478
785.635	0.0177379
785.713	0.0175845
785.791	0.0174681
785.869	0.0172633
785.947	0.0171180
786.025	0.0169601
786.103	0.0170201
786.182	0.0168852
786.260	0.0166254
786.338	0.0166281
786.416	0.0165213
786.494	0.0164095
786.572	0.0163391
786.650	0.0163492
786.728	0.0163966
786.807	0.0162926
786.885	0.0163853
786.963	0.0162621
787.041	0.0162469
787.119	0.0163271
787.197	0.0161276
787.275	0.0161017
787.353	0.0162113
787.432	0.0161425
787.510	0.0161015
787.588	0.0160583
787.666	0.0159769
787.744	0.0159482
787.822	0.0160699
787.900	0.0161524
787.978	0.0162471
788.057	0.0164274
788.135	0.0165908
788.213	0.0165770
788.291	0.0167589
788.369	0.0169420
788.447	0.0170160
788.525	0.0171644
788.603	0.0173122
788.682	0.0174094
788.760	0.0175816
788.838	0.0177225
788.916	0.0176636
788.994	0.0176730
789.072	0.0177705
789.150	0.0178195
789.228	0.0177526
789.307	0.0175790
789.385	0.0177112
789.463	0.0176382
789.541	0.0175808
789.619	0.0174910
789.697	0.0175452
789.775	0.0173853
789.853	0.0174336
789.932	0.0173166
790.010	0.0173489
790.088	0.0172979
790.166	0.0173374
790.244	0.0173395
790.322	0.0173600
790.400	0.0171507
790.478	0.0170166
790.557	0.0171256
790.635	0.0168558
790.713	0.0168360
790.791	0.0167495
790.869	0.0166193
790.947	0.0164652
791.025	0.0163857
791.103	0.0161853
791.182	0.0161404
791.260	0.0160438
791.338	0.0157315
791.416	0.0159406
791.494	0.0158977
791.572	0.0158176
791.650	0.0159475
791.728	0.0159237
791.807	0.0160294
791.885	0.0159741
791.963	0.0161833
792.041	0.0162722
792.119	0.0164406
792.197	0.0166487
792.275	0.0169347
792.353	0.0168679
792.432	0.0170228
792.510	0.0171391
792.588	0.0173159
792.666	0.0173736
792.744	0.0173032
792.822	0.0173691
792.900	0.0174733
792.978	0.0173109
793.057	0.0174371
793.135	0.0175268
793.213	0.0174175
793.291	0.0173872
793.369	0.0174063
793.447	0.0171503
793.525	0.0171547
793.603	0.0171162
793.682	0.0170254
793.760	0.0170216
793.838	0.0170836
793.916	0.0170789
793.994	0.0170051
794.072	0.0171358
794.150	0.0171148
794.228	0.0171330
794.307	0.0171753
794.385	0.0171918
794.463	0.0171781
794.541	0.0171181
794.619	0.0171793
794.697	0.0170605
794.775	0.0171576
794.853	0.0170046
794.932	0.0171255
795.010	0.0169915
795.088	0.0169862
795.166	0.0168595
795.244	0.0168946
795.322	0.0168122
795.400	0.0168647
795.478	0.0167624
795.557	0.0165599
795.635	0.0165762
795.713	0.0165835
795.791	0.0164950
795.869	0.0164857
795.947	0.0165749
796.025	0.0163778
796.103	0.0165202
796.182	0.0164987
796.260	0.0166735
796.338	0.0165722
796.416	0.0167237
796.494	0.0168882
796.572	0.0167371
796.650	0.0170367
796.728	0.0170580
796.807	0.0171661
796.885	0.0172085
796.963	0.0174168
797.041	0.0172832
797.119	0.0173325
797.197	0.0173888
797.275	0.0174146
797.353	0.0174193
797.432	0.0174387
797.510	0.0172712
797.588	0.0174545
797.666	0.0173194
797.744	0.0173025
797.822	0.0172316
797.900	0.0170747
797.978	0.0169027
798.057	0.0168851
798.135	0.0168533
798.213	0.0167785
798.291	0.0168132
798.369	0.0167068
798.447	0.0165846
798.525	0.0164523
798.603	0.0165811
798.682	0.0165251
798.760	0.0163174
798.838	0.0163754
798.916	0.0164028
798.994	0.0163577
799.072	0.0164921
799.150	0.0164902
799.228	0.0164545
799.307	0.0165953
799.385	0.0166105
799.463	0.0166606
799.541	0.0168406
799.619	0.0170519
799.697	0.0173366
799.775	0.0173711
799.853	0.0173259
799.932	0.0173759
800.010	0.0175456
800.088	0.0176264
800.166	0.0176369
800.244	0.0176152
800.322	0.0174923
800.400	0.0175389
800.478	0.0174203
800.557	0.0173573
800.635	0.0172301
800.713	0.0171690
800.791	0.0170712
800.869	0.0169698
800.947	0.0169231
801.025	0.0168818
801.103	0.0165788
801.182	0.0166107
801.260	0.0165784
801.338	0.0164976
801.416	0.0164362
801.494	0.0163995
801.572	0.0164806
801.650	0.0164195
801.728	0.0166116
801.807	0.0165565
801.885	0.0166848
801.963	0.0167643
802.041	0.0168658
802.119	0.0169133
802.197	0.0170172
802.275	0.0171902
802.353	0.0172384
802.432	0.0172247
802.510	0.0173377
802.588	0.0173434
802.666	0.0172295
802.744	0.0173792
802.822	0.0174300
802.900	0.0171902
802.978	0.0172710
803.057	0.0172789
803.135	0.0170396
803.213	0.0169902
803.291	0.0169107
803.369	0.0170047
803.447	0.0167699
803.525	0.0167982
803.603	0.0169118
803.682	0.0167423
803.760	0.0165615
803.838	0.0167426
803.916	0.0166673
803.994	0.0166137
804.072	0.0166585
804.150	0.0166337
804.228	0.0167590
804.307	0.0167221
804.385	0.0166835
804.463	0.0168115
804.541	0.0167678
804.619	0.0167963
804.697	0.0169712
804.775	0.0169057
804.853	0.0169572
804.932	0.0170189
805.010	0.0170512
805.088	0.0169576
805.166	0.0169998
805.244	0.0171693
805.322	0.0172308
805.400	0.0171987
805.478	0.0172619
805.557	0.0173725
805.635	0.0173143
805.713	0.0173998
805.791	0.0173606
805.869	0.0172591
805.947	0.0172803
806.025	0.0172236
806.103	0.0172961
806.182	0.0173239
806.260	0.0172915
806.338	0.0171825
806.416	0.0171317
806.494	0.0170522
806.572	0.0171455
806.650	0.0170337
806.728	0.0170954
806.807	0.0171819
806.885	0.0170368
806.963	0.0169732
807.041	0.0170739
807.119	0.0170190
807.197	0.0170942
807.275	0.0168097
807.353	0.0169441
807.432	0.0169678
807.510	0.0168383
807.588	0.0168378
807.666	0.0168727
807.744	0.0167682
807.822	0.0167572
807.900	0.0166424
807.978	0.0165141
808.057	0.0166128
808.135	0.0165675
808.213	0.0165794
808.291	0.0164756
808.369	0.0165998
808.447	0.0165636
808.525	0.0164303
808.603	0.0167506
808.682	0.0166295
808.760	0.0165833
808.838	0.0167929
808.916	0.0168345
808.994	0.0169958
809.072	0.0170578
809.150	0.0171514
809.228	0.0172183
809.307	0.0173486
809.385	0.0175255
809.463	0.0174847
809.541	0.0175465
809.619	0.0175968
809.697	0.0175167
809.775	0.0176706
809.853	0.0176765
809.932	0.0173956
810.010	0.0174179
810.088	0.0172314
810.166	0.0171897
810.244	0.0169781
810.322	0.0168858
810.400	0.0168810
810.478	0.0168687
810.557	0.0167411
810.635	0.0165906
810.713	0.0166520
810.791	0.0166303
810.869	0.0166785
810.947	0.0166992
811.025	0.0167234
811.103	0.0167136
811.182	0.0169543
811.260	0.0169126
811.338	0.0168617
811.416	0.0168164
811.494	0.0170106
811.572	0.0169431
811.650	0.0169839
811.728	0.0169725
811.807	0.0169132
811.885	0.0170612
811.963	0.0169764
812.041	0.0168569
812.119	0.0168670
812.197	0.0168906
812.275	0.0168420
812.353	0.0168501
812.432	0.0169719
812.510	0.0168639
812.588	0.0168592
812.666	0.0169398
812.744	0.0170003
812.822	0.0169551
812.900	0.0169275
812.978	0.0169344
813.057	0.0168945
813.135	0.0169294
813.213	0.0168309
813.291	0.0167863
813.369	0.0166610
813.447	0.0166371
813.525	0.0166487
813.603	0.0166668
813.682	0.0166718
813.760	0.0166430
813.838	0.0165977
813.916	0.0166876
813.994	0.0165490
814.072	0.0165343
814.150	0.0167914
814.228	0.0166792
814.307	0.0166961
814.385	0.0168278
814.463	0.0169056
814.541	0.0169836
814.619	0.0170475
814.697	0.0170844
814.775	0.0172310
814.853	0.0171488
814.932	0.0173807
815.010	0.0173074
815.088	0.0171539
815.166	0.0172970
815.244	0.0172655
815.322	0.0174021
815.400	0.0173518
815.478	0.0171442
815.557	0.0173056
815.635	0.0172881
815.713	0.0171696
815.791	0.0170686
815.869	0.0171814
815.947	0.0171767
816.025	0.0169460
816.103	0.0170255
816.182	0.0169605
816.260	0.0169836
816.338	0.0168176
816.416	0.0166701
816.494	0.0165141
816.572	0.0165026
816.650	0.0164052
816.728	0.0163683
816.807	0.0162669
816.885	0.0161367
816.963	0.0161868
817.041	0.0162195
817.119	0.0162903
817.197	0.0161629
817.275	0.0161665
817.353	0.0162319
817.432	0.0162383
817.510	0.0166206
817.588	0.0167178
817.666	0.0168084
817.744	0.0167921
817.822	0.0169150
817.900	0.0170463
817.978	0.0172079
818.057	0.0173444
818.135	0.0175018
818.213	0.0174348
818.291	0.0175114
818.369	0.0176660
818.447	0.0176485
818.525	0.0176760
818.603	0.0176635
818.682	0.0175092
818.760	0.0175877
818.838	0.0174895
818.916	0.0173429
818.994	0.0173842
819.072	0.0172781
819.150	0.0171713
819.228	0.0171670
819.307	0.0171742
819.385	0.0170512
819.463	0.0169269
819.541	0.0169189
819.619	0.0168040
819.697	0.0167217
819.775	0.0165408
819.853	0.0167007
819.932	0.0167217
820.010	0.0165166
820.088	0.0165981
820.166	0.0165334
820.244	0.0166418
820.322	0.0163757
820.400	0.0165626
820.478	0.0163836
820.557	0.0165866
820.635	0.0166592
820.713	0.0164951
820.791	0.0166048
820.869	0.0166138
820.947	0.0167470
821.025	0.0168048
821.103	0.0167663
821.182	0.0167274
821.260	0.0168777
821.338	0.0169540
821.416	0.0169453
821.494	0.0169730
821.572	0.0169269
821.650	0.0168805
821.728	0.0167812
821.807	0.0169260
821.885	0.0170115
821.963	0.0169261
822.041	0.0169588
822.119	0.0169441
822.197	0.0170040
822.275	0.0170517
822.353	0.0170164
822.432	0.0170042
822.510	0.0170250
822.588	0.0169851
822.666	0.0171683
822.744	0.0172439
822.822	0.0172704
822.900	0.0172912
822.978	0.0172903
823.057	0.0173194
823.135	0.0173282
823.213	0.0174143
823.291	0.0173223
823.369	0.0173161
823.447	0.0176091
823.525	0.0174886
823.603	0.0172788
823.682	0.0171971
823.760	0.0171577
823.838	0.0171657
823.916	0.0171629
823.994	0.0172498
824.072	0.0171679
824.150	0.0170753
824.228	0.0170990
824.307	0.0171143
824.385	0.0170544
824.463	0.0168928
824.541	0.0170779
824.619	0.0169033
824.697	0.0169430
824.775	0.0169347
824.853	0.0169190
824.932	0.0168390
825.010	0.0168152
825.088	0.0166735
825.166	0.0166368
825.244	0.0165266
825.322	0.0164429
825.400	0.0165091
825.478	0.0163917
825.557	0.0163119
825.635	0.0162922
825.713	0.0161710
825.791	0.0162928
825.869	0.0163425
825.947	0.0163600
826.025	0.0165830
826.103	0.0166973
826.182	0.0167085
826.260	0.0167537
826.338	0.0171527
826.416	0.0171730
826.494	0.0172182
826.572	0.0174356
826.650	0.0173646
826.728	0.0173871
826.807	0.0174966
826.885	0.0175210
826.963	0.0177021
827.041	0.0174883
827.119	0.0173822
827.197	0.0175633
827.275	0.0174329
827.353	0.0174411
827.432	0.0172620
827.510	0.0171654
827.588	0.0170831
827.666	0.0170051
827.744	0.0170058
827.822	0.0169228
827.900	0.0167355
827.978	0.0168201
828.057	0.0168372
828.135	0.0169640
828.213	0.0168156
828.291	0.0169176
828.369	0.0168898
828.447	0.0169898
828.525	0.0170344
828.603	0.0170833
828.682	0.0172200
828.760	0.0171413
828.838	0.0172424
828.916	0.0171320
828.994	0.0172079
829.072	0.0172723
829.150	0.0171307
829.228	0.0171354
829.307	0.0171617
829.385	0.0170015
829.463	0.0171291
829.541	0.0171394
829.619	0.0170890
829.697	0.0170073
829.775	0.0169529
829.853	0.0170512
829.932	0.0169476
830.010	0.0169270
830.088	0.0169298
830.166	0.0168765
830.244	0.0168027
830.322	0.0168279
830.400	0.0168520
830.478	0.0169567
830.557	0.0169398
830.635	0.0168394
830.713	0.0169572
830.791	0.0168378
830.869	0.0168821
830.947	0.0169185
831.025	0.0167667
831.103	0.0167686
831.182	0.0167915
831.260	0.0168458
831.338	0.0168559
831.416	0.0167797
831.494	0.0167507
831.572	0.0167633
831.650	0.0168091
831.728	0.0167497
831.807	0.0166859
831.885	0.0169379
831.963	0.0169376
832.041	0.0168448
832.119	0.0167751
832.197	0.0169286
832.275	0.0170149
832.353	0.0170737
832.432	0.0170981
832.510	0.0169846
832.588	0.0170387
832.666	0.0171734
832.744	0.0172090
832.822	0.0170768
832.900	0.0170433
832.978	0.0170993
833.057	0.0171284
833.135	0.0169009
833.213	0.0168906
833.291	0.0168595
833.369	0.0169105
833.447	0.0167835
833.525	0.0167726
833.603	0.0167638
833.682	0.0167501
833.760	0.0166219
833.838	0.0166048
833.916	0.0165820
833.994	0.0167017
834.072	0.0166039
834.150	0.0164719
834.228	0.0167210
834.307	0.0167153
834.385	0.0168729
834.463	0.0168472
834.541	0.0167880
834.619	0.0168810
834.697	0.0168941
834.775	0.0169436
834.853	0.0172078
834.932	0.0170300
835.010	0.0169875
835.088	0.0170875
835.166	0.0170856
835.244	0.0170182
835.322	0.0171587
835.400	0.0171191
835.478	0.0168729
835.557	0.0171313
835.635	0.0169765
835.713	0.0168456
835.791	0.0168544
835.869	0.0169128
835.947	0.0169222
836.025	0.0170682
836.103	0.0168991
836.182	0.0169051
836.260	0.0169751
836.338	0.0170178
836.416	0.0170853
836.494	0.0170729
836.572	0.0169836
836.650	0.0169678
836.728	0.0168854
836.807	0.0169467
836.885	0.0169149
836.963	0.0167891
837.041	0.0167671
837.119	0.0167509
837.197	0.0167002
837.275	0.0165794
837.353	0.0166846
837.432	0.0166309
837.510	0.0165292
837.588	0.0162942
837.666	0.0163960
837.744	0.0162968
837.822	0.0164915
837.900	0.0164479
837.978	0.0166423
838.057	0.0165289
838.135	0.0165775
838.213	0.0166685
838.291	0.0168785
838.369	0.0167110
838.447	0.0168890
838.525	0.0169461
838.603	0.0169077
838.682	0.0168402
838.760	0.0170435
838.838	0.0171832
838.916	0.0171230
838.994	0.0171385
839.072	0.0170922
839.150	0.0172126
839.228	0.0171543
839.307	0.0171798
839.385	0.0171393
839.463	0.0170522
839.541	0.0172608
839.619	0.0171676
839.697	0.0172600
839.775	0.0170869
839.853	0.0171875
839.932	0.0171788
840.010	0.0171764
840.088	0.0172388
840.166	0.0171935
840.244	0.0172966
840.322	0.0171819
840.400	0.0171332
840.478	0.0171558
840.557	0.0171223
840.635	0.0170451
840.713	0.0168977
840.791	0.0168279
840.869	0.0167800
840.947	0.0168531
841.025	0.0169086
841.103	0.0167047
841.182	0.0168127
841.260	0.0167286
841.338	0.0166918
841.416	0.0168102
841.494	0.0167380
841.572	0.0167522
841.650	0.0167489
841.728	0.0166104
841.807	0.0167042
841.885	0.0168060
841.963	0.0168438
842.041	0.0168141
842.119	0.0167039
842.197	0.0167320
842.275	0.0168094
842.353	0.0167200
842.432	0.0167667
842.510	0.0168525
842.588	0.0169814
842.666	0.0169454
842.744	0.0169489
842.822	0.0168362
842.900	0.0170324
842.978	0.0170280
843.057	0.0169646
843.135	0.0171429
843.213	0.0169432
843.291	0.0170292
843.369	0.0170903
843.447	0.0171536
843.525	0.0172081
843.603	0.0171436
843.682	0.0172122
843.760	0.0172437
843.838	0.0171150
843.916	0.0172684
843.994	0.0172429
844.072	0.0170526
844.150	0.0170447
844.228	0.0171603
844.307	0.0172137
844.385	0.0173116
844.463	0.0171308
844.541	0.0172939
844.619	0.0171375
844.697	0.0170988
844.775	0.0172269
844.853	0.0170840
844.932	0.0170979
845.010	0.0170900
845.088	0.0171608
845.166	0.0173100
845.244	0.0171816
845.322	0.0171277
845.400	0.0169483
845.478	0.0170733
845.557	0.0170277
845.635	0.0171137
845.713	0.0170750
845.791	0.0171530
845.869	0.0169607
845.947	0.0170853
846.025	0.0171270
846.103	0.0169038
846.182	0.0171738
846.260	0.0170435
846.338	0.0169913
846.416	0.0169248
846.494	0.0168841
846.572	0.0167933
846.650	0.0169251
846.728	0.0169408
846.807	0.0167406
846.885	0.0168180
846.963	0.0167795
847.041	0.0167182
847.119	0.0166977
847.197	0.0166993
847.275	0.0167739
847.353	0.0168334
847.432	0.0167719
847.510	0.0168139
847.588	0.0167480
847.666	0.0169163
847.744	0.0168964
847.822	0.0169994
847.900	0.0171019
847.978	0.0169820
848.057	0.0172018
848.135	0.0172834
848.213	0.0172072
848.291	0.0171742
848.369	0.0172583
848.447	0.0173747
848.525	0.0172969
848.603	0.0173804
848.682	0.0174698
848.760	0.0172919
848.838	0.0171680
848.916	0.0173750
848.994	0.0172345
849.072	0.0171629
849.150	0.0172307
849.228	0.0170098
849.307	0.0171088
849.385	0.0171171
849.463	0.0169775
849.541	0.0169123
849.619	0.0169994
849.697	0.0169485
849.775	0.0168488
849.853	0.0170126
849.932	0.0170308
850.010	0.0168959
850.088	0.0170167
850.166	0.0170739
850.244	0.0170043
850.322	0.0172181
850.400	0.0172245
850.478	0.0171682
850.557	0.0169695
850.635	0.0169624
850.713	0.0171333
850.791	0.0171727
850.869	0.0171197
850.947	0.0170838
851.025	0.0172077
851.103	0.0174300
851.182	0.0171471
851.260	0.0171289
851.338	0.0171190
851.416	0.0170914
851.494	0.0172516
851.572	0.0171255
851.650	0.0171096
851.728	0.0169884
851.807	0.0171581
851.885	0.0170635
851.963	0.0171819
852.041	0.0171310
852.119	0.0170192
852.197	0.0168369
852.275	0.0169536
852.353	0.0170533
852.432	0.0169971
852.510	0.0168993
852.588	0.0168252
852.666	0.0167064
852.744	0.0166872
852.822	0.0166429
852.900	0.0166475
852.978	0.0166708
853.057	0.0166565
853.135	0.0164861
853.213	0.0165151
853.291	0.0165584
853.369	0.0166719
853.447	0.0166467
853.525	0.0166456
853.603	0.0167485
853.682	0.0168573
853.760	0.0167639
853.838	0.0168303
853.916	0.0169776
853.994	0.0168945
854.072	0.0169126
854.150	0.0170519
854.228	0.0172712
854.307	0.0170524
854.385	0.0171126
854.463	0.0171674
854.541	0.0170361
854.619	0.0170544
854.697	0.0170908
854.775	0.0169040
854.853	0.0170515
854.932	0.0171436
855.010	0.0172058
855.088	0.0168390
855.166	0.0168618
855.244	0.0170375
855.322	0.0170595
855.400	0.0170348
855.478	0.0167923
855.557	0.0170243
855.635	0.0169885
855.713	0.0169106
855.791	0.0169457
855.869	0.0170610
855.947	0.0169521
856.025	0.0170332
856.103	0.0170160
856.182	0.0169340
856.260	0.0169204
856.338	0.0167816
856.416	0.0168713
856.494	0.0169282
856.572	0.0169759
856.650	0.0170152
856.728	0.0169011
856.807	0.0169183
856.885	0.0168990
856.963	0.0168419
857.041	0.0169199
857.119	0.0167443
857.197	0.0166383
857.275	0.0166820
857.353	0.0168288
857.432	0.0168002
857.510	0.0166194
857.588	0.0166526
857.666	0.0166423
857.744	0.0166703
857.822	0.0166841
857.900	0.0166710
857.978	0.0166412
858.057	0.0165662
858.135	0.0165709
858.213	0.0166540
858.291	0.0167527
858.369	0.0167465
858.447	0.0167735
858.525	0.0168204
858.603	0.0169139
858.682	0.0168916
858.760	0.0168598
858.838	0.0169693
858.916	0.0170230
858.994	0.0170473
859.072	0.0169325
859.150	0.0169088
859.228	0.0168695
859.307	0.0169802
859.385	0.0168215
859.463	0.0168141
859.541	0.0168686
859.619	0.0168990
859.697	0.0169033
859.775	0.0168107
859.853	0.0168956
859.932	0.0168202
860.010	0.0169534
860.088	0.0168807
860.166	0.0168336
860.244	0.0170229
860.322	0.0169199
860.400	0.0168187
860.478	0.0170566
860.557	0.0169408
860.635	0.0168583
860.713	0.0169747
860.791	0.0169538
860.869	0.0168765
860.947	0.0169328
861.025	0.0169046
861.103	0.0168407
861.182	0.0168423
861.260	0.0168977
861.338	0.0168792
861.416	0.0168368
861.494	0.0169292
861.572	0.0168769
861.650	0.0167910
861.728	0.0168816
861.807	0.0168814
861.885	0.0168564
861.963	0.0168284
862.041	0.0167815
862.119	0.0168858
862.197	0.0169788
862.275	0.0168861
862.353	0.0167897
862.432	0.0168918
862.510	0.0168267
862.588	0.0169394
862.666	0.0170678
862.744	0.0170061
862.822	0.0169494
862.900	0.0169996
862.978	0.0168062
863.057	0.0168864
863.135	0.0168858
863.213	0.0168120
863.291	0.0169944
863.369	0.0168943
863.447	0.0168526
863.525	0.0168958
863.603	0.0168169
863.682	0.0168393
863.760	0.0168221
863.838	0.0170763
863.916	0.0167103
863.994	0.0167127
864.072	0.0167161
864.150	0.0168453
864.228	0.0167565
864.307	0.0167028
864.385	0.0168074
864.463	0.0166931
864.541	0.0166261
864.619	0.0166119
864.697	0.0167953
864.775	0.0168073
864.853	0.0168325
864.932	0.0167659
865.010	0.0167330
865.088	0.0167765
865.166	0.0168060
865.244	0.0169141
865.322	0.0168781
865.400	0.0169547
865.478	0.0169441
865.557	0.0170570
865.635	0.0171123
865.713	0.0169720
865.791	0.0170576
865.869	0.0171850
865.947	0.0171773
866.025	0.0170730
866.103	0.0170611
866.182	0.0171338
866.260	0.0171863
866.338	0.0171785
866.416	0.0170186
866.494	0.0171066
866.572	0.0171738
866.650	0.0171835
866.728	0.0169288
866.807	0.0171042
866.885	0.0172381
866.963	0.0171059
867.041	0.0170868
867.119	0.0170340
867.197	0.0168628
867.275	0.0169389
867.353	0.0170599
867.432	0.0171027
867.510	0.0171496
867.588	0.0169511
867.666	0.0171203
867.744	0.0170987
867.822	0.0170463
867.900	0.0170905
867.978	0.0169495
868.057	0.0169300
868.135	0.0169790
868.213	0.0169458
868.291	0.0170007
868.369	0.0170235
868.447	0.0169969
868.525	0.0170749
868.603	0.0171218
868.682	0.0169873
868.760	0.0169534
868.838	0.0169911
868.916	0.0168555
868.994	0.0169206
869.072	0.0169509
869.150	0.0170696
869.228	0.0169793
869.307	0.0171552
869.385	0.0170007
869.463	0.0169632
869.541	0.0170432
869.619	0.0169877
869.697	0.0170448
869.775	0.0168866
869.853	0.0170543
869.932	0.0170471
870.010	0.0169176
870.088	0.0169958
870.166	0.0170290
870.244	0.0169240
870.322	0.0168269
870.400	0.0168607
870.478	0.0167712
870.557	0.0167336
870.635	0.0168134
870.713	0.0167703
870.791	0.0167449
870.869	0.0167362
870.947	0.0166302
871.025	0.0167847
871.103	0.0168417
871.182	0.0168640
871.260	0.0168015
871.338	0.0169227
871.416	0.0168882
871.494	0.0168877
871.572	0.0171111
871.650	0.0172237
871.728	0.0172852
871.807	0.0172030
871.885	0.0171732
871.963	0.0173009
872.041	0.0172654
872.119	0.0172127
872.197	0.0171633
872.275	0.0172726
872.353	0.0171472
872.432	0.0170848
872.510	0.0170841
872.588	0.0170769
872.666	0.0170472
872.744	0.0169116
872.822	0.0170079
872.900	0.0168561
872.978	0.0168572
873.057	0.0169705
873.135	0.0170433
873.213	0.0169296
873.291	0.0169425
873.369	0.0170814
873.447	0.0170631
873.525	0.0172251
873.603	0.0172005
873.682	0.0172183
873.760	0.0171876
873.838	0.0171227
873.916	0.0172460
873.994	0.0172707
874.072	0.0172239
874.150	0.0172363
874.228	0.0172360
874.307	0.0171412
874.385	0.0172179
874.463	0.0171041
874.541	0.0171214
874.619	0.0171605
874.697	0.0169987
874.775	0.0170530
874.853	0.0169567
874.932	0.0167651
875.010	0.0167886
875.088	0.0169355
875.166	0.0168059
875.244	0.0167645
875.322	0.0170367
875.400	0.0168419
875.478	0.0167953
875.557	0.0168419
875.635	0.0168591
875.713	0.0169452
875.791	0.0169029
875.869	0.0169363
875.947	0.0169051
876.025	0.0170049
876.103	0.0168795
876.182	0.0169794
876.260	0.0170260
876.338	0.0170275
876.416	0.0168744
876.494	0.0168925
876.572	0.0168569
876.650	0.0169607
876.728	0.0169175
876.807	0.0168987
876.885	0.0169040
876.963	0.0167392
877.041	0.0167377
877.119	0.0168690
877.197	0.0168185
877.275	0.0170346
877.353	0.0171552
877.432	0.0171955
877.510	0.0171143
877.588	0.0171848
877.666	0.0172969
877.744	0.0172636
877.822	0.0173298
877.900	0.0174582
877.978	0.0173647
878.057	0.0174382
878.135	0.0175121
878.213	0.0174538
878.291	0.0171660
878.369	0.0173656
878.447	0.0173263
878.525	0.0171539
878.603	0.0171243
878.682	0.0169564
878.760	0.0168694
878.838	0.0167856
878.916	0.0168771
878.994	0.0168694
879.072	0.0167113
879.150	0.0167627
879.228	0.0167409
879.307	0.0167177
879.385	0.0166763
879.463	0.0166853
879.541	0.0166290
879.619	0.0166953
879.697	0.0168267
879.775	0.0168964
879.853	0.0168914
879.932	0.0167670
880.010	0.0168835
880.088	0.0167962
880.166	0.0169887
880.244	0.0169750
880.322	0.0168336
880.400	0.0168363
880.478	0.0168919
880.557	0.0168908
880.635	0.0168155
880.713	0.0166904
880.791	0.0166135
880.869	0.0167678
880.947	0.0167724
881.025	0.0168019
881.103	0.0168523
881.182	0.0167817
881.260	0.0168473
881.338	0.0168314
881.416	0.0168336
881.494	0.0170620
881.572	0.0170232
881.650	0.0170303
881.728	0.0171043
881.807	0.0172621
881.885	0.0172263
881.963	0.0172764
882.041	0.0172289
882.119	0.0171510
882.197	0.0172608
882.275	0.0172936
882.353	0.0172397
882.432	0.0171397
882.510	0.0172066
882.588	0.0171635
882.666	0.0172039
882.744	0.0170873
882.822	0.0168867
882.900	0.0168851
882.978	0.0169387
883.057	0.0169595
883.135	0.0168945
883.213	0.0167502
883.291	0.0166673
883.369	0.0167468
883.447	0.0167259
883.525	0.0169312
883.603	0.0167577
883.682	0.0167513
883.760	0.0167447
883.838	0.0169634
883.916	0.0168816
883.994	0.0169617
884.072	0.0170998
884.150	0.0170266
884.228	0.0169666
884.307	0.0169952
884.385	0.0169954
884.463	0.0168949
884.541	0.0169959
884.619	0.0171435
884.697	0.0169105
884.775	0.0169382
884.853	0.0168541
884.932	0.0168330
885.010	0.0170033
885.088	0.0168680
885.166	0.0167226
885.244	0.0168485
885.322	0.0168740
885.400	0.0167363
885.478	0.0169216
885.557	0.0168712
885.635	0.0168032
885.713	0.0169631
885.791	0.0168793
885.869	0.0169089
885.947	0.0168124
886.025	0.0169150
886.103	0.0168487
886.182	0.0168679
886.260	0.0169156
886.338	0.0169546
886.416	0.0169976
886.494	0.0169167
886.572	0.0169507
886.650	0.0170499
886.728	0.0169862
886.807	0.0169373
886.885	0.0166744
886.963	0.0167999
887.041	0.0168085
887.119	0.0168400
887.197	0.0169030
887.275	0.0167830
887.353	0.0166953
887.432	0.0167307
887.510	0.0166142
887.588	0.0166607
887.666	0.0166198
887.744	0.0167226
887.822	0.0166989
887.900	0.0166979
887.978	0.0166451
888.057	0.0167185
888.135	0.0169210
888.213	0.0166660
888.291	0.0166505
888.369	0.0166871
888.447	0.0169231
888.525	0.0167882
888.603	0.0169749
888.682	0.0169518
888.760	0.0167511
888.838	0.0168291
888.916	0.0169011
888.994	0.0167700
889.072	0.0168307
889.150	0.0167945
889.228	0.0169340
889.307	0.0167918
889.385	0.0168232
889.463	0.0168541
889.541	0.0168253
889.619	0.0169505
889.697	0.0167706
889.775	0.0169173
889.853	0.0169698
889.932	0.0169839
890.010	0.0168464
890.088	0.0170215
890.166	0.0170117
890.244	0.0170524
890.322	0.0168626
890.400	0.0169628
890.478	0.0169327
890.557	0.0168613
890.635	0.0171732
890.713	0.0171365
890.791	0.0169512
890.869	0.0170203
890.947	0.0169261
891.025	0.0170223
891.103	0.0169154
891.182	0.0168127
891.260	0.0168163
891.338	0.0168777
891.416	0.0168407
891.494	0.0166907
891.572	0.0167754
891.650	0.0169764
891.728	0.0167519
891.807	0.0166905
891.885	0.0167474
891.963	0.0167992
892.041	0.0167025
892.119	0.0167092
892.197	0.0166138
892.275	0.0166816
892.353	0.0166801
892.432	0.0168343
892.510	0.0168060
892.588	0.0168482
892.666	0.0168563
892.744	0.0167503
892.822	0.0167944
892.900	0.0168068
892.978	0.0168456
893.057	0.0167990
893.135	0.0168885
893.213	0.0170698
893.291	0.0169607
893.369	0.0169053
893.447	0.0169901
893.525	0.0170498
893.603	0.0170999
893.682	0.0170453
893.760	0.0169361
893.838	0.0169080
893.916	0.0169672
893.994	0.0169565
894.072	0.0170043
894.150	0.0170314
894.228	0.0169627
894.307	0.0169633
894.385	0.0170409
894.463	0.0170775
894.541	0.0169324
894.619	0.0170077
894.697	0.0169849
894.775	0.0170213
894.853	0.0169680
894.932	0.0169868
895.010	0.0169581
895.088	0.0169234
895.166	0.0168915
895.244	0.0168525
895.322	0.0169341
895.400	0.0169593
895.478	0.0168554
895.557	0.0169280
895.635	0.0168578
895.713	0.0169945
895.791	0.0168112
895.869	0.0168053
895.947	0.0167896
896.025	0.0167377
896.103	0.0168076
896.182	0.0168753
896.260	0.0167771
896.338	0.0168861
896.416	0.0169903
896.494	0.0170060
896.572	0.0169659
896.650	0.0169473
896.728	0.0170453
896.807	0.0169851
896.885	0.0170216
896.963	0.0170547
897.041	0.0170838
897.119	0.0170893
897.197	0.0171302
897.275	0.0172013
897.353	0.0170892
897.432	0.0170753
897.510	0.0170741
897.588	0.0170958
897.666	0.0170700
897.744	0.0170348
897.822	0.0170197
897.900	0.0170844
897.978	0.0169464
898.057	0.0170123
898.135	0.0168722
898.213	0.0168664
898.291	0.0168811
898.369	0.0168347
898.447	0.0169467
898.525	0.0168299
898.603	0.0167523
898.682	0.0167149
898.760	0.0168868
898.838	0.0168477
898.916	0.0167490
898.994	0.0167414
899.072	0.0168642
899.150	0.0167173
899.228	0.0169319
899.307	0.0168710
899.385	0.0168423
899.463	0.0169260
899.541	0.0169739
899.619	0.0169128
899.697	0.0168488
899.775	0.0169302
899.853	0.0169289
899.932	0.0170005
900.010	0.0168351
900.088	0.0168481
900.166	0.0169268
900.244	0.0169059
900.322	0.0169041
900.400	0.0169598
900.478	0.0167790
900.557	0.0167918
900.635	0.0168547
900.713	0.0167837
900.791	0.0168742
900.869	0.0168961
900.947	0.0167522
901.025	0.0169221
901.103	0.0170143
901.182	0.0171170
901.260	0.0171468
901.338	0.0170761
901.416	0.0172694
901.494	0.0173514
901.572	0.0172134
901.650	0.0174265
901.728	0.0174297
901.807	0.0172001
901.885	0.0172435
901.963	0.0172292
902.041	0.0172226
902.119	0.0172903
902.197	0.0172009
902.275	0.0171481
902.353	0.0172742
902.432	0.0172198
902.510	0.0170781
902.588	0.0171558
902.666	0.0169528
902.744	0.0170659
902.822	0.0170042
902.900	0.0170490
902.978	0.0170135
903.057	0.0171737
903.135	0.0170474
903.213	0.0169556
903.291	0.0171211
903.369	0.0169786
903.447	0.0171135
903.525	0.0171893
903.603	0.0170205
903.682	0.0170461
903.760	0.0170319
903.838	0.0170143
903.916	0.0171136
903.994	0.0169950
904.072	0.0170048
904.150	0.0168674
904.228	0.0169632
904.307	0.0168716
904.385	0.0168822
904.463	0.0167467
904.541	0.0166370
904.619	0.0168847
904.697	0.0167172
904.775	0.0167002
904.853	0.0167513
904.932	0.0166943
905.010	0.0167931
905.088	0.0167984
905.166	0.0167529
905.244	0.0168946
905.322	0.0168081
905.400	0.0168192
905.478	0.0167644
905.557	0.0169595
905.635	0.0168596
905.713	0.0168049
905.791	0.0168732
905.869	0.0169610
905.947	0.0167927
906.025	0.0168476
906.103	0.0169896
906.182	0.0169398
906.260	0.0168587
906.338	0.0168546
906.416	0.0168873
906.494	0.0169714
906.572	0.0169060
906.650	0.0168935
906.728	0.0169111
906.807	0.0168710
906.885	0.0169115
906.963	0.0168806
907.041	0.0169537
907.119	0.0170728
907.197	0.0169971
907.275	0.0171340
907.353	0.0170198
907.432	0.0171078
907.510	0.0170622
907.588	0.0171936
907.666	0.0170570
907.744	0.0169639
907.822	0.0171565
907.900	0.0173239
907.978	0.0172478
908.057	0.0172411
908.135	0.0171209
908.213	0.0173464
908.291	0.0172038
908.369	0.0172600
908.447	0.0172015
908.525	0.0171980
908.603	0.0170992
908.682	0.0171179
908.760	0.0171923
908.838	0.0172861
908.916	0.0173560
908.994	0.0171304
909.072	0.0171165
909.150	0.0171047
909.228	0.0170335
909.307	0.0171595
909.385	0.0171464
909.463	0.0170777
909.541	0.0171751
909.619	0.0170197
909.697	0.0171975
909.775	0.0172263
909.853	0.0170056
909.932	0.0170679
910.010	0.0169740
910.088	0.0170257
910.166	0.0170897
910.244	0.0170181
910.322	0.0169001
910.400	0.0168369
910.478	0.0166164
910.557	0.0166601
910.635	0.0167712
910.713	0.0168736
910.791	0.0166152
910.869	0.0165356
910.947	0.0165694
911.025	0.0166058
911.103	0.0165869
911.182	0.0166009
911.260	0.0166335
911.338	0.0166991
911.416	0.0166312
911.494	0.0166820
911.572	0.0167501
911.650	0.0167007
911.728	0.0166727
911.807	0.0167461
911.885	0.0168253
911.963	0.0166821
912.041	0.0166526
912.119	0.0169741
912.197	0.0169278
912.275	0.0168013
912.353	0.0169125
912.432	0.0169788
912.510	0.0167640
912.588	0.0167995
912.666	0.0168829
912.744	0.0169170
912.822	0.0169511
912.900	0.0169911
912.978	0.0168950
913.057	0.0168039
913.135	0.0168964
913.213	0.0168500
913.291	0.0168798
913.369	0.0168871
913.447	0.0169331
913.525	0.0169470
913.603	0.0168686
913.682	0.0169154
913.760	0.0169852
913.838	0.0170290
913.916	0.0170034
913.994	0.0170900
914.072	0.0169495
914.150	0.0170405
914.228	0.0170708
914.307	0.0170419
914.385	0.0171887
914.463	0.0171825
914.541	0.0171658
914.619	0.0169656
914.697	0.0171966
914.775	0.0171464
914.853	0.0170665
914.932	0.0171319
915.010	0.0169333
915.088	0.0169215
915.166	0.0169616
915.244	0.0168037
915.322	0.0168991
915.400	0.0168528
915.478	0.0168694
915.557	0.0168436
915.635	0.0167236
915.713	0.0167747
915.791	0.0168221
915.869	0.0167391
915.947	0.0166894
916.025	0.0168208
916.103	0.0167399
916.182	0.0168077
916.260	0.0168604
916.338	0.0166831
916.416	0.0166570
916.494	0.0167746
916.572	0.0165969
916.650	0.0167609
916.728	0.0166837
916.807	0.0166210
916.885	0.0168361
916.963	0.0166873
917.041	0.0166600
917.119	0.0167093
917.197	0.0165327
917.275	0.0166022
917.353	0.0166987
917.432	0.0165257
917.510	0.0165502
917.588	0.0165659
917.666	0.0166128
917.744	0.0166181
917.822	0.0167154
917.900	0.0167359
917.978	0.0166536
918.057	0.0166734
918.135	0.0167037
918.213	0.0167261
918.291	0.0167473
918.369	0.0168250
918.447	0.0169072
918.525	0.0168719
918.603	0.0167923
918.682	0.0168040
918.760	0.0168248
918.838	0.0169738
918.916	0.0169671
918.994	0.0169374
919.072	0.0168710
919.150	0.0169904
919.228	0.0169273
919.307	0.0169334
919.385	0.0168975
919.463	0.0168729
919.541	0.0169981
919.619	0.0169111
919.697	0.0170049
919.775	0.0169547
919.853	0.0168903
919.932	0.0170740
920.010	0.0170111
920.088	0.0169773
920.166	0.0168839
920.244	0.0170136
920.322	0.0170088
920.400	0.0170710
920.478	0.0170589
920.557	0.0171378
920.635	0.0170361
920.713	0.0169622
920.791	0.0170633
920.869	0.0170638
920.947	0.0170217
921.025	0.0168958
921.103	0.0169064
921.182	0.0169456
921.260	0.0167280
921.338	0.0169582
921.416	0.0168955
921.494	0.0168715
921.572	0.0169303
921.650	0.0168589
921.728	0.0167507
921.807	0.0166950
921.885	0.0168458
921.963	0.0168129
922.041	0.0169112
922.119	0.0169393
922.197	0.0170039
922.275	0.0170018
922.353	0.0169545
922.432	0.0169826
922.510	0.0169636
922.588	0.0170267
922.666	0.0169960
922.744	0.0169097
922.822	0.0169292
922.900	0.0169668
922.978	0.0169160
923.057	0.0168627
923.135	0.0168059
923.213	0.0168129
923.291	0.0167445
923.369	0.0169224
923.447	0.0169453
923.525	0.0168192
923.603	0.0168963
923.682	0.0167991
923.760	0.0169006
923.838	0.0168807
923.916	0.0168980
923.994	0.0169585
924.072	0.0167927
924.150	0.0168436
924.228	0.0168982
924.307	0.0170544
924.385	0.0168382
924.463	0.0167479
924.541	0.0169547
924.619	0.0169873
924.697	0.0170474
924.775	0.0169751
924.853	0.0171684
924.932	0.0171803
925.010	0.0171185
925.088	0.0172258
925.166	0.0171013
925.244	0.0171361
925.322	0.0171972
925.400	0.0170210
925.478	0.0170739
925.557	0.0169184
925.635	0.0169691
925.713	0.0168289
925.791	0.0168446
925.869	0.0169947
925.947	0.0168987
926.025	0.0167439
926.103	0.0169931
926.182	0.0170083
926.260	0.0169717
926.338	0.0170858
926.416	0.0170185
926.494	0.0170364
926.572	0.0172221
926.650	0.0173460
926.728	0.0172881
926.807	0.0172244
926.885	0.0173496
926.963	0.0171789
927.041	0.0172729
927.119	0.0172176
927.197	0.0171760
927.275	0.0172386
927.353	0.0170359
927.432	0.0171629
927.510	0.0170947
927.588	0.0171411
927.666	0.0170708
927.744	0.0168962
927.822	0.0170950
927.900	0.0171713
927.978	0.0171806
928.057	0.0171919
928.135	0.0171526
928.213	0.0171364
928.291	0.0171490
928.369	0.0171206
928.447	0.0171928
928.525	0.0171106
928.603	0.0170201
928.682	0.0170751
928.760	0.0169260
928.838	0.0170156
928.916	0.0170229
928.994	0.0169695
929.072	0.0169121
929.150	0.0170374
929.228	0.0168477
929.307	0.0171494
929.385	0.0169933
929.463	0.0168887
929.541	0.0169706
929.619	0.0169624
929.697	0.0169548
929.775	0.0168633
929.853	0.0168538
929.932	0.0167897
930.010	0.0168414
930.088	0.0167915
930.166	0.0168746
930.244	0.0169028
930.322	0.0168549
930.400	0.0168044
930.478	0.0168539
930.557	0.0168542
930.635	0.0168349
930.713	0.0169242
930.791	0.0168259
930.869	0.0169176
930.947	0.0169373
931.025	0.0168935
931.103	0.0171358
931.182	0.0169997
931.260	0.0170142
931.338	0.0171642
931.416	0.0170502
931.494	0.0169743
931.572	0.0170042
931.650	0.0171018
931.728	0.0169975
931.807	0.0170250
931.885	0.0170899
931.963	0.0170981
932.041	0.0170650
932.119	0.0170216
932.197	0.0171307
932.275	0.0170542
932.353	0.0169685
932.432	0.0171035
932.510	0.0170290
932.588	0.0168998
932.666	0.0169169
932.744	0.0169688
932.822	0.0169744
932.900	0.0169260
932.978	0.0170136
933.057	0.0169517
933.135	0.0169498
933.213	0.0172225
933.291	0.0170641
933.369	0.0170985
933.447	0.0171585
933.525	0.0171270
933.603	0.0171022
933.682	0.0171514
933.760	0.0170885
933.838	0.0169221
933.916	0.0169969
933.994	0.0170094
934.072	0.0168672
934.150	0.0167405
934.228	0.0167395
934.307	0.0167783
934.385	0.0168674
934.463	0.0169194
934.541	0.0169610
934.619	0.0169730
934.697	0.0169279
934.775	0.0168353
934.853	0.0166561
934.932	0.0168349
935.010	0.0168151
935.088	0.0168571
935.166	0.0168650
935.244	0.0167786
935.322	0.0168359
935.400	0.0168481
935.478	0.0168349
935.557	0.0168787
935.635	0.0168843
935.713	0.0168567
935.791	0.0169608
935.869	0.0168401
935.947	0.0167865
936.025	0.0167300
936.103	0.0168178
936.182	0.0168468
936.260	0.0168994
936.338	0.0169717
936.416	0.0169167
936.494	0.0168652
936.572	0.0168892
936.650	0.0167736
936.728	0.0167278
936.807	0.0167546
936.885	0.0168012
936.963	0.0169633
937.041	0.0168151
937.119	0.0167400
937.197	0.0168311
937.275	0.0167517
937.353	0.0169349
937.432	0.0168680
937.510	0.0168385
937.588	0.0169621
937.666	0.0169961
937.744	0.0169036
937.822	0.0170011
937.900	0.0170113
937.978	0.0168416
938.057	0.0169737
938.135	0.0170124
938.213	0.0170907
938.291	0.0170298
938.369	0.0171466
938.447	0.0169934
938.525	0.0169147
938.603	0.0168986
938.682	0.0169540
938.760	0.0169069
938.838	0.0167451
938.916	0.0168576
938.994	0.0169499
939.072	0.0169259
939.150	0.0169504
939.228	0.0167919
939.307	0.0168550
939.385	0.0170193
939.463	0.0169042
939.541	0.0169167
939.619	0.0170673
939.697	0.0169446
939.775	0.0168764
939.853	0.0168581
939.932	0.0169510
940.010	0.0168940
940.088	0.0169296
940.166	0.0167706
940.244	0.0171233
940.322	0.0170341
940.400	0.0169681
940.478	0.0169183
940.557	0.0169786
940.635	0.0169086
940.713	0.0169334
940.791	0.0169580
940.869	0.0169747
940.947	0.0168980
941.025	0.0170162
941.103	0.0168587
941.182	0.0168679
941.260	0.0169470
941.338	0.0169204
941.416	0.0168077
941.494	0.0168752
941.572	0.0168941
941.650	0.0167264
941.728	0.0168197
941.807	0.0168158
941.885	0.0168645
941.963	0.0169781
942.041	0.0167101
942.119	0.0168236
942.197	0.0168300
942.275	0.0168632
942.353	0.0168993
942.432	0.0167953
942.510	0.0169017
942.588	0.0168216
942.666	0.0169461
942.744	0.0169776
942.822	0.0167638
942.900	0.0168504
942.978	0.0169350
943.057	0.0169754
943.135	0.0168667
943.213	0.0168298
943.291	0.0169082
943.369	0.0169083
943.447	0.0169032
943.525	0.0168890
943.603	0.0168613
943.682	0.0169703
943.760	0.0169488
943.838	0.0170460
943.916	0.0170337
943.994	0.0170729
944.072	0.0169886
944.150	0.0169869
944.228	0.0170541
944.307	0.0171172
944.385	0.0171172
944.463	0.0170506
944.541	0.0170845
944.619	0.0171268
944.697	0.0170033
944.775	0.0170275
944.853	0.0169365
944.932	0.0169371
945.010	0.0169567
945.088	0.0169431
945.166	0.0168266
945.244	0.0169293
945.322	0.0169162
945.400	0.0168762
945.478	0.0169205
945.557	0.0170325
945.635	0.0169237
945.713	0.0168841
945.791	0.0169615
945.869	0.0169501
945.947	0.0170362
946.025	0.0169262
946.103	0.0169611
946.182	0.0169993
946.260	0.0168336
946.338	0.0169057
946.416	0.0171147
946.494	0.0170394
946.572	0.0170365
946.650	0.0170669
946.728	0.0168735
946.807	0.0169014
946.885	0.0169826
946.963	0.0169738
947.041	0.0169572
947.119	0.0169533
947.197	0.0168799
947.275	0.0168811
947.353	0.0168612
947.432	0.0167982
947.510	0.0168340
947.588	0.0168577
947.666	0.0168768
947.744	0.0168961
947.822	0.0167692
947.900	0.0168680
947.978	0.0168258
948.057	0.0168445
948.135	0.0169162
948.213	0.0168888
948.291	0.0168989
948.369	0.0168537
948.447	0.0169048
948.525	0.0168748
948.603	0.0169069
948.682	0.0169675
948.760	0.0169023
948.838	0.0169885
948.916	0.0168844
948.994	0.0168894
949.072	0.0169695
949.150	0.0167136
949.228	0.0166549
949.307	0.0167519
949.385	0.0169800
949.463	0.0167532
949.541	0.0168140
949.619	0.0169511
949.697	0.0168388
949.775	0.0168260
949.853	0.0168027
949.932	0.0167531
950.010	0.0168703
950.088	0.0169334
950.166	0.0169918
950.244	0.0169144
950.322	0.0168546
950.400	0.0169604
950.478	0.0171100
950.557	0.0169674
950.635	0.0170237
950.713	0.0170274
950.791	0.0169502
950.869	0.0170312
950.947	0.0172189
951.025	0.0171478
951.103	0.0170982
951.182	0.0171124
951.260	0.0171540
951.338	0.0170458
951.416	0.0171358
951.494	0.0170299
951.572	0.0170740
951.650	0.0169906
951.728	0.0171658
951.807	0.0169907
951.885	0.0169955
951.963	0.0170734
952.041	0.0170403
952.119	0.0169754
952.197	0.0170092
952.275	0.0170306
952.353	0.0169726
952.432	0.0169910
952.510	0.0169759
952.588	0.0168425
952.666	0.0168731
952.744	0.0167696
952.822	0.0168625
952.900	0.0169160
952.978	0.0166837
953.057	0.0167850
953.135	0.0168520
953.213	0.0167497
953.291	0.0168948
953.369	0.0169607
953.447	0.0166978
953.525	0.0167394
953.603	0.0168248
953.682	0.0167854
953.760	0.0168414
953.838	0.0167644
953.916	0.0168869
953.994	0.0169135
954.072	0.0168067
954.150	0.0169681
954.228	0.0169908
954.307	0.0168604
954.385	0.0168577
954.463	0.0169273
954.541	0.0169489
954.619	0.0169848
954.697	0.0169341
954.775	0.0169034
954.853	0.0169773
954.932	0.0169618
955.010	0.0168346
955.088	0.0169408
955.166	0.0170767
955.244	0.0170164
955.322	0.0169116
955.400	0.0169678
955.478	0.0170243
955.557	0.0168858
955.635	0.0169999
955.713	0.0171174
955.791	0.0170972
955.869	0.0170162
955.947	0.0170269
956.025	0.0170759
956.103	0.0169667
956.182	0.0170094
956.260	0.0170927
956.338	0.0170299
956.416	0.0169810
956.494	0.0169536
956.572	0.0169453
956.650	0.0168976
956.728	0.0170078
956.807	0.0169157
956.885	0.0169244
956.963	0.0170088
957.041	0.0170049
957.119	0.0170937
957.197	0.0170096
957.275	0.0169350
957.353	0.0169704
957.432	0.0170567
957.510	0.0169427
957.588	0.0169320
957.666	0.0169279
957.744	0.0170040
957.822	0.0170052
957.900	0.0168764
957.978	0.0169939
958.057	0.0168956
958.135	0.0169431
958.213	0.0169494
958.291	0.0169712
958.369	0.0171185
958.447	0.0168478
958.525	0.0168787
958.603	0.0170102
958.682	0.0169199
958.760	0.0168215
958.838	0.0168719
958.916	0.0168589
958.994	0.0168368
959.072	0.0167813
959.150	0.0169672
959.228	0.0167406
959.307	0.0167365
959.385	0.0167680
959.463	0.0168350
959.541	0.0168983
959.619	0.0169048
959.697	0.0169677
959.775	0.0169926
959.853	0.0168517
959.932	0.0169037
960.010	0.0168942
960.088	0.0169236
960.166	0.0170618
960.244	0.0169816
960.322	0.0170031
960.400	0.0171172
960.478	0.0169826
960.557	0.0169622
960.635	0.0169872
960.713	0.0169116
960.791	0.0170073
960.869	0.0171532
960.947	0.0168837
961.025	0.0170959
961.103	0.0169360
961.182	0.0168362
961.260	0.0168624
961.338	0.0168210
961.416	0.0169341
961.494	0.0169303
961.572	0.0169683
961.650	0.0169979
961.728	0.0169516
961.807	0.0169548
961.885	0.0168942
961.963	0.0169697
962.041	0.0169322
962.119	0.0170407
962.197	0.0169617
962.275	0.0169614
962.353	0.0170200
962.432	0.0169509
962.510	0.0169588
962.588	0.0169388
962.666	0.0169431
962.744	0.0170650
962.822	0.0169526
962.900	0.0168395
962.978	0.0168520
963.057	0.0168867
963.135	0.0168748
963.213	0.0170244
963.291	0.0169539
963.369	0.0169710
963.447	0.0168475
963.525	0.0168781
963.603	0.0170434
963.682	0.0169678
963.760	0.0169592
963.838	0.0170099
963.916	0.0171313
963.994	0.0170437
964.072	0.0170387
964.150	0.0170482
964.228	0.0170697
964.307	0.0170675
964.385	0.0171586
964.463	0.0169987
964.541	0.0169762
964.619	0.0170632
964.697	0.0170026
964.775	0.0170045
964.853	0.0170095
964.932	0.0169139
965.010	0.0169731
965.088	0.0170470
965.166	0.0169540
965.244	0.0168260
965.322	0.0168459
965.400	0.0169427
965.478	0.0169050
965.557	0.0168951
965.635	0.0168732
965.713	0.0169198
965.791	0.0170275
965.869	0.0168168
965.947	0.0168211
966.025	0.0169260
966.103	0.0169017
966.182	0.0168458
966.260	0.0168456
966.338	0.0169044
966.416	0.0169512
966.494	0.0168435
966.572	0.0169048
966.650	0.0168671
966.728	0.0168871
966.807	0.0169740
966.885	0.0169341
966.963	0.0169108
967.041	0.0169797
967.119	0.0169437
967.197	0.0168736
967.275	0.0169487
967.353	0.0169904
967.432	0.0167889
967.510	0.0168964
967.588	0.0169402
967.666	0.0169146
967.744	0.0168758
967.822	0.0170685
967.900	0.0170560
967.978	0.0170058
968.057	0.0169956
968.135	0.0171142
968.213	0.0170390
968.291	0.0170609
968.369	0.0170448
968.447	0.0169632
968.525	0.0169630
968.603	0.0170685
968.682	0.0170599
968.760	0.0170052
968.838	0.0169325
968.916	0.0169559
968.994	0.0170141
969.072	0.0168648
969.150	0.0169099
969.228	0.0170305
969.307	0.0168948
969.385	0.0169513
969.463	0.0168587
969.541	0.0169061
969.619	0.0169408
969.697	0.0168241
969.775	0.0168214
969.853	0.0167441
969.932	0.0168677
