06/10/2022	16:36:23	Ver.	4.1	UNKNOWN
Optical Delay	650.009681	Delta X		0.078125	Sweeps	1	Scan Rate	0/0
Coordinates	Axis 1	NaN	Axis 2	NaN	Axis 3	NaN	Axis 4	NaN	Axis 5	NaN	Axis 6	0.000000
TX Power	0.000000	RX Power	0.000000

650.010	0.0161301
650.088	0.0162681
650.166	0.0160372
650.244	0.0162122
650.322	0.0161508
650.400	0.0161301
650.478	0.0162633
650.557	0.0162146
650.635	0.0161861
650.713	0.0162645
650.791	0.0161655
650.869	0.0160226
650.947	0.0162923
651.025	0.0162315
651.103	0.0162526
651.182	0.0161755
651.260	0.0162297
651.338	0.0162801
651.416	0.0160854
651.494	0.0161847
651.572	0.0163291
651.650	0.0161744
651.728	0.0162330
651.807	0.0161830
651.885	0.0162595
651.963	0.0162476
652.041	0.0161382
652.119	0.0160626
652.197	0.0162437
652.275	0.0163145
652.353	0.0162917
652.432	0.0162341
652.510	0.0161426
652.588	0.0161561
652.666	0.0160885
652.744	0.0160996
652.822	0.0161145
652.900	0.0160440
652.978	0.0161634
653.057	0.0161660
653.135	0.0161402
653.213	0.0163707
653.291	0.0162412
653.369	0.0161863
653.447	0.0162161
653.525	0.0162203
653.603	0.0162012
653.682	0.0162096
653.760	0.0162448
653.838	0.0162302
653.916	0.0162595
653.994	0.0162271
654.072	0.0160988
654.150	0.0161550
654.228	0.0163150
654.307	0.0162764
654.385	0.0162550
654.463	0.0161990
654.541	0.0160262
654.619	0.0161724
654.697	0.0162954
654.775	0.0163241
654.853	0.0163052
654.932	0.0163970
655.010	0.0161454
655.088	0.0160258
655.166	0.0163291
655.244	0.0162624
655.322	0.0161970
655.400	0.0162541
655.478	0.0161572
655.557	0.0162525
655.635	0.0163186
655.713	0.0161519
655.791	0.0163291
655.869	0.0162047
655.947	0.0162231
656.025	0.0162449
656.103	0.0163532
656.182	0.0161439
656.260	0.0162012
656.338	0.0160907
656.416	0.0160590
656.494	0.0160950
656.572	0.0163103
656.650	0.0161353
656.728	0.0161695
656.807	0.0161357
656.885	0.0161079
656.963	0.0161607
657.041	0.0160764
657.119	0.0163116
657.197	0.0161269
657.275	0.0162357
657.353	0.0161996
657.432	0.0161787
657.510	0.0161427
657.588	0.0163020
657.666	0.0163261
657.744	0.0161552
657.822	0.0162293
657.900	0.0162430
657.978	0.0160950
658.057	0.0162814
658.135	0.0161120
658.213	0.0161527
658.291	0.0163433
658.369	0.0161861
658.447	0.0162901
658.525	0.0161877
658.603	0.0162343
658.682	0.0161905
658.760	0.0160517
658.838	0.0160583
658.916	0.0161665
658.994	0.0162678
659.072	0.0162865
659.150	0.0161522
659.228	0.0162041
659.307	0.0162154
659.385	0.0162311
659.463	0.0160851
659.541	0.0162466
659.619	0.0162399
659.697	0.0162241
659.775	0.0163386
659.853	0.0162241
659.932	0.0161899
660.010	0.0162528
660.088	0.0162273
660.166	0.0162402
660.244	0.0162436
660.322	0.0161002
660.400	0.0161359
660.478	0.0164056
660.557	0.0162769
660.635	0.0162585
660.713	0.0162302
660.791	0.0162340
660.869	0.0162112
660.947	0.0164530
661.025	0.0163404
661.103	0.0161805
661.182	0.0162322
661.260	0.0163096
661.338	0.0162543
661.416	0.0163585
661.494	0.0162410
661.572	0.0162177
661.650	0.0163315
661.728	0.0163651
661.807	0.0162113
661.885	0.0162658
661.963	0.0162523
662.041	0.0163943
662.119	0.0163136
662.197	0.0162557
662.275	0.0162599
662.353	0.0162347
662.432	0.0162356
662.510	0.0163534
662.588	0.0163906
662.666	0.0161473
662.744	0.0162415
662.822	0.0163083
662.900	0.0162788
662.978	0.0161253
663.057	0.0161829
663.135	0.0161874
663.213	0.0161620
663.291	0.0161626
663.369	0.0162666
663.447	0.0162782
663.525	0.0163035
663.603	0.0161956
663.682	0.0162096
663.760	0.0162559
663.838	0.0162562
663.916	0.0162058
663.994	0.0162912
664.072	0.0162840
664.150	0.0162704
664.228	0.0161726
664.307	0.0162081
664.385	0.0162242
664.463	0.0162357
664.541	0.0162290
664.619	0.0161552
664.697	0.0162063
664.775	0.0162599
664.853	0.0161218
664.932	0.0162583
665.010	0.0162030
665.088	0.0162607
665.166	0.0161889
665.244	0.0162069
665.322	0.0162535
665.400	0.0162019
665.478	0.0161321
665.557	0.0161740
665.635	0.0160717
665.713	0.0162936
665.791	0.0161588
665.869	0.0162149
665.947	0.0162012
666.025	0.0162514
666.103	0.0161646
666.182	0.0162871
666.260	0.0162665
666.338	0.0160965
666.416	0.0160969
666.494	0.0161001
666.572	0.0161771
666.650	0.0163214
666.728	0.0162500
666.807	0.0161366
666.885	0.0160616
666.963	0.0163353
667.041	0.0162645
667.119	0.0161385
667.197	0.0160837
667.275	0.0162052
667.353	0.0161045
667.432	0.0161401
667.510	0.0162607
667.588	0.0162804
667.666	0.0161625
667.744	0.0162032
667.822	0.0161568
667.900	0.0160178
667.978	0.0161287
668.057	0.0161357
668.135	0.0161749
668.213	0.0162763
668.291	0.0164046
668.369	0.0162141
668.447	0.0161082
668.525	0.0161773
668.603	0.0162766
668.682	0.0162569
668.760	0.0161936
668.838	0.0160870
668.916	0.0161774
668.994	0.0161667
669.072	0.0162634
669.150	0.0162009
669.228	0.0162469
669.307	0.0161050
669.385	0.0161816
669.463	0.0161929
669.541	0.0161172
669.619	0.0160709
669.697	0.0161288
669.775	0.0160357
669.853	0.0160249
669.932	0.0162131
670.010	0.0160475
670.088	0.0158687
670.166	0.0162823
670.244	0.0161754
670.322	0.0160499
670.400	0.0162119
670.478	0.0162388
670.557	0.0160956
670.635	0.0163509
670.713	0.0162678
670.791	0.0160538
670.869	0.0162338
670.947	0.0161604
671.025	0.0161780
671.103	0.0161897
671.182	0.0162915
671.260	0.0161295
671.338	0.0160752
671.416	0.0161371
671.494	0.0161837
671.572	0.0161105
671.650	0.0160590
671.728	0.0161050
671.807	0.0162138
671.885	0.0160963
671.963	0.0160052
672.041	0.0160764
672.119	0.0162080
672.197	0.0159019
672.275	0.0161790
672.353	0.0160883
672.432	0.0160574
672.510	0.0161771
672.588	0.0160222
672.666	0.0160646
672.744	0.0161350
672.822	0.0160266
672.900	0.0161427
672.978	0.0159219
673.057	0.0160168
673.135	0.0159552
673.213	0.0160432
673.291	0.0160757
673.369	0.0160449
673.447	0.0161115
673.525	0.0161389
673.603	0.0160191
673.682	0.0159484
673.760	0.0160066
673.838	0.0160121
673.916	0.0160289
673.994	0.0160435
674.072	0.0161346
674.150	0.0160967
674.228	0.0160731
674.307	0.0161019
674.385	0.0161588
674.463	0.0159601
674.541	0.0160592
674.619	0.0159563
674.697	0.0160739
674.775	0.0160010
674.853	0.0159648
674.932	0.0159737
675.010	0.0161264
675.088	0.0161785
675.166	0.0160651
675.244	0.0160375
675.322	0.0161274
675.400	0.0161623
675.478	0.0161491
675.557	0.0160680
675.635	0.0159729
675.713	0.0161493
675.791	0.0160686
675.869	0.0161734
675.947	0.0161140
676.025	0.0161021
676.103	0.0161318
676.182	0.0160835
676.260	0.0160330
676.338	0.0161450
676.416	0.0161830
676.494	0.0161328
676.572	0.0161272
676.650	0.0162165
676.728	0.0161800
676.807	0.0161750
676.885	0.0161379
676.963	0.0161805
677.041	0.0161638
677.119	0.0161597
677.197	0.0161033
677.275	0.0160923
677.353	0.0161378
677.432	0.0163139
677.510	0.0161409
677.588	0.0160502
677.666	0.0161564
677.744	0.0162411
677.822	0.0160744
677.900	0.0161669
677.978	0.0161501
678.057	0.0160165
678.135	0.0159378
678.213	0.0159642
678.291	0.0160149
678.369	0.0161743
678.447	0.0161710
678.525	0.0161922
678.603	0.0159903
678.682	0.0161549
678.760	0.0160361
678.838	0.0161026
678.916	0.0161954
678.994	0.0162562
679.072	0.0160745
679.150	0.0160158
679.228	0.0160605
679.307	0.0162500
679.385	0.0160290
679.463	0.0160800
679.541	0.0160529
679.619	0.0161479
679.697	0.0161702
679.775	0.0161109
679.853	0.0160535
679.932	0.0161295
680.010	0.0162189
680.088	0.0161139
680.166	0.0162425
680.244	0.0162235
680.322	0.0160676
680.400	0.0161783
680.478	0.0162521
680.557	0.0162844
680.635	0.0162077
680.713	0.0163173
680.791	0.0161222
680.869	0.0162631
680.947	0.0163268
681.025	0.0162347
681.103	0.0162161
681.182	0.0163599
681.260	0.0162983
681.338	0.0163636
681.416	0.0162608
681.494	0.0161232
681.572	0.0161874
681.650	0.0163161
681.728	0.0163199
681.807	0.0163619
681.885	0.0162484
681.963	0.0163255
682.041	0.0162508
682.119	0.0162949
682.197	0.0161372
682.275	0.0162729
682.353	0.0162806
682.432	0.0161095
682.510	0.0162198
682.588	0.0162685
682.666	0.0162682
682.744	0.0161275
682.822	0.0162132
682.900	0.0161568
682.978	0.0161852
683.057	0.0161900
683.135	0.0162653
683.213	0.0162772
683.291	0.0161781
683.369	0.0161061
683.447	0.0162312
683.525	0.0161502
683.603	0.0163029
683.682	0.0161036
683.760	0.0162979
683.838	0.0162852
683.916	0.0162694
683.994	0.0162072
684.072	0.0159837
684.150	0.0161647
684.228	0.0162216
684.307	0.0161089
684.385	0.0160469
684.463	0.0161665
684.541	0.0160464
684.619	0.0161642
684.697	0.0161697
684.775	0.0161455
684.853	0.0162222
684.932	0.0162556
685.010	0.0160374
685.088	0.0163343
685.166	0.0162519
685.244	0.0161931
685.322	0.0162616
685.400	0.0161282
685.478	0.0161574
685.557	0.0161493
685.635	0.0162446
685.713	0.0161809
685.791	0.0163192
685.869	0.0162830
685.947	0.0161069
686.025	0.0162460
686.103	0.0163167
686.182	0.0162300
686.260	0.0161793
686.338	0.0162521
686.416	0.0162943
686.494	0.0162470
686.572	0.0162046
686.650	0.0161491
686.728	0.0162924
686.807	0.0162611
686.885	0.0162053
686.963	0.0162476
687.041	0.0162053
687.119	0.0161388
687.197	0.0162366
687.275	0.0163409
687.353	0.0163008
687.432	0.0161886
687.510	0.0160857
687.588	0.0162649
687.666	0.0161810
687.744	0.0161599
687.822	0.0163332
687.900	0.0162018
687.978	0.0160490
688.057	0.0160582
688.135	0.0161430
688.213	0.0160839
688.291	0.0160503
688.369	0.0162134
688.447	0.0161507
688.525	0.0161330
688.603	0.0160826
688.682	0.0161034
688.760	0.0161489
688.838	0.0160737
688.916	0.0161969
688.994	0.0161879
689.072	0.0161615
689.150	0.0160330
689.228	0.0161149
689.307	0.0160426
689.385	0.0161179
689.463	0.0163141
689.541	0.0162787
689.619	0.0161812
689.697	0.0160421
689.775	0.0161346
689.853	0.0162035
689.932	0.0159617
690.010	0.0158749
690.088	0.0160017
690.166	0.0161741
690.244	0.0160109
690.322	0.0159980
690.400	0.0161338
690.478	0.0160941
690.557	0.0160649
690.635	0.0160323
690.713	0.0159866
690.791	0.0161038
690.869	0.0158981
690.947	0.0159391
691.025	0.0162074
691.103	0.0161212
691.182	0.0160937
691.260	0.0160664
691.338	0.0160091
691.416	0.0160137
691.494	0.0160941
691.572	0.0161630
691.650	0.0161617
691.728	0.0162102
691.807	0.0160343
691.885	0.0161606
691.963	0.0161547
692.041	0.0161380
692.119	0.0160553
692.197	0.0161644
692.275	0.0163039
692.353	0.0162486
692.432	0.0160632
692.510	0.0161147
692.588	0.0161310
692.666	0.0160247
692.744	0.0160696
692.822	0.0161349
692.900	0.0160446
692.978	0.0161027
693.057	0.0160725
693.135	0.0160881
693.213	0.0160699
693.291	0.0160139
693.369	0.0160902
693.447	0.0160389
693.525	0.0160913
693.603	0.0160426
693.682	0.0159451
693.760	0.0161568
693.838	0.0159916
693.916	0.0160123
693.994	0.0161327
694.072	0.0160396
694.150	0.0161105
694.228	0.0161896
694.307	0.0160081
694.385	0.0160023
694.463	0.0161866
694.541	0.0159773
694.619	0.0160941
694.697	0.0160074
694.775	0.0161807
694.853	0.0160294
694.932	0.0160045
695.010	0.0160448
695.088	0.0159863
695.166	0.0160979
695.244	0.0160186
695.322	0.0161547
695.400	0.0160780
695.478	0.0160857
695.557	0.0160899
695.635	0.0160712
695.713	0.0162434
695.791	0.0160197
695.869	0.0160721
695.947	0.0161459
696.025	0.0160590
696.103	0.0161594
696.182	0.0161281
696.260	0.0161356
696.338	0.0160083
696.416	0.0161489
696.494	0.0160900
696.572	0.0161062
696.650	0.0161655
696.728	0.0160232
696.807	0.0160789
696.885	0.0160370
696.963	0.0161259
697.041	0.0161359
697.119	0.0161774
697.197	0.0160282
697.275	0.0160238
697.353	0.0161801
697.432	0.0161565
697.510	0.0161020
697.588	0.0162474
697.666	0.0160963
697.744	0.0162129
697.822	0.0162078
697.900	0.0160944
697.978	0.0161890
698.057	0.0161082
698.135	0.0159832
698.213	0.0162781
698.291	0.0160240
698.369	0.0160973
698.447	0.0162259
698.525	0.0162122
698.603	0.0160581
698.682	0.0160686
698.760	0.0161797
698.838	0.0162522
698.916	0.0161156
698.994	0.0161758
699.072	0.0160065
699.150	0.0161710
699.228	0.0163322
699.307	0.0162760
699.385	0.0161086
699.463	0.0161384
699.541	0.0162072
699.619	0.0160610
699.697	0.0162344
699.775	0.0162727
699.853	0.0161990
699.932	0.0162337
700.010	0.0161184
700.088	0.0162078
700.166	0.0160835
700.244	0.0162524
700.322	0.0162100
700.400	0.0161305
700.478	0.0161294
700.557	0.0161569
700.635	0.0161812
700.713	0.0161829
700.791	0.0161023
700.869	0.0162139
700.947	0.0161703
701.025	0.0162437
701.103	0.0161955
701.182	0.0162306
701.260	0.0160607
701.338	0.0161483
701.416	0.0160744
701.494	0.0162175
701.572	0.0163110
701.650	0.0162896
701.728	0.0159942
701.807	0.0160067
701.885	0.0159493
701.963	0.0161335
702.041	0.0161126
702.119	0.0160562
702.197	0.0162292
702.275	0.0159921
702.353	0.0161436
702.432	0.0160985
702.510	0.0162832
702.588	0.0162265
702.666	0.0162029
702.744	0.0160814
702.822	0.0162321
702.900	0.0163041
702.978	0.0162761
703.057	0.0161853
703.135	0.0162695
703.213	0.0162020
703.291	0.0162519
703.369	0.0161315
703.447	0.0160278
703.525	0.0162138
703.603	0.0161801
703.682	0.0161260
703.760	0.0160449
703.838	0.0162197
703.916	0.0162098
703.994	0.0162040
704.072	0.0162218
704.150	0.0160619
704.228	0.0162640
704.307	0.0160818
704.385	0.0160629
704.463	0.0162650
704.541	0.0161756
704.619	0.0163010
704.697	0.0161623
704.775	0.0162392
704.853	0.0161620
704.932	0.0162090
705.010	0.0161819
705.088	0.0162965
705.166	0.0162303
705.244	0.0162580
705.322	0.0163226
705.400	0.0162637
705.478	0.0162907
705.557	0.0163441
705.635	0.0162687
705.713	0.0162794
705.791	0.0163766
705.869	0.0163281
705.947	0.0162724
706.025	0.0161835
706.103	0.0161700
706.182	0.0163114
706.260	0.0161706
706.338	0.0160308
706.416	0.0161710
706.494	0.0162997
706.572	0.0160705
706.650	0.0161998
706.728	0.0162209
706.807	0.0161597
706.885	0.0161454
706.963	0.0161215
707.041	0.0161427
707.119	0.0161967
707.197	0.0162150
707.275	0.0162326
707.353	0.0162660
707.432	0.0163366
707.510	0.0163312
707.588	0.0161684
707.666	0.0162527
707.744	0.0162644
707.822	0.0162752
707.900	0.0161578
707.978	0.0163514
708.057	0.0164175
708.135	0.0161957
708.213	0.0160856
708.291	0.0162094
708.369	0.0162310
708.447	0.0160718
708.525	0.0162408
708.603	0.0162471
708.682	0.0160596
708.760	0.0160739
708.838	0.0163223
708.916	0.0161495
708.994	0.0161380
709.072	0.0161184
709.150	0.0160256
709.228	0.0162972
709.307	0.0162669
709.385	0.0161375
709.463	0.0162243
709.541	0.0162498
709.619	0.0162585
709.697	0.0163335
709.775	0.0161949
709.853	0.0162501
709.932	0.0162554
710.010	0.0162686
710.088	0.0163851
710.166	0.0161667
710.244	0.0161347
710.322	0.0162021
710.400	0.0163001
710.478	0.0162431
710.557	0.0162796
710.635	0.0161720
710.713	0.0161698
710.791	0.0161584
710.869	0.0161826
710.947	0.0162193
711.025	0.0161769
711.103	0.0162083
711.182	0.0160475
711.260	0.0161645
711.338	0.0161806
711.416	0.0163371
711.494	0.0161662
711.572	0.0161731
711.650	0.0162241
711.728	0.0161513
711.807	0.0160685
711.885	0.0161796
711.963	0.0161552
712.041	0.0163091
712.119	0.0163023
712.197	0.0162289
712.275	0.0162122
712.353	0.0163899
712.432	0.0161662
712.510	0.0161413
712.588	0.0162894
712.666	0.0162682
712.744	0.0162112
712.822	0.0162389
712.900	0.0161572
712.978	0.0162575
713.057	0.0161931
713.135	0.0161668
713.213	0.0162002
713.291	0.0161589
713.369	0.0160635
713.447	0.0160888
713.525	0.0161564
713.603	0.0160312
713.682	0.0161481
713.760	0.0161695
713.838	0.0161314
713.916	0.0161880
713.994	0.0161933
714.072	0.0161699
714.150	0.0162590
714.228	0.0161851
714.307	0.0161707
714.385	0.0161265
714.463	0.0161664
714.541	0.0161803
714.619	0.0161377
714.697	0.0162875
714.775	0.0161301
714.853	0.0162566
714.932	0.0162648
715.010	0.0162412
715.088	0.0161534
715.166	0.0161905
715.244	0.0162462
715.322	0.0161477
715.400	0.0162390
715.478	0.0161495
715.557	0.0161584
715.635	0.0162332
715.713	0.0160319
715.791	0.0160690
715.869	0.0160976
715.947	0.0160047
716.025	0.0160914
716.103	0.0160275
716.182	0.0161724
716.260	0.0160369
716.338	0.0161032
716.416	0.0161095
716.494	0.0161567
716.572	0.0161706
716.650	0.0161459
716.728	0.0160611
716.807	0.0160596
716.885	0.0161344
716.963	0.0162463
717.041	0.0161054
717.119	0.0161330
717.197	0.0160820
717.275	0.0161626
717.353	0.0162548
717.432	0.0161423
717.510	0.0162479
717.588	0.0162214
717.666	0.0161436
717.744	0.0161269
717.822	0.0160575
717.900	0.0160311
717.978	0.0161979
718.057	0.0160851
718.135	0.0161111
718.213	0.0160971
718.291	0.0161156
718.369	0.0161714
718.447	0.0161102
718.525	0.0161285
718.603	0.0161240
718.682	0.0160088
718.760	0.0160981
718.838	0.0161554
718.916	0.0160021
718.994	0.0160382
719.072	0.0160522
719.150	0.0160168
719.228	0.0160570
719.307	0.0160968
719.385	0.0160709
719.463	0.0160824
719.541	0.0159628
719.619	0.0161060
719.697	0.0161266
719.775	0.0160962
719.853	0.0161806
719.932	0.0161486
720.010	0.0159365
720.088	0.0159982
720.166	0.0161509
720.244	0.0159236
720.322	0.0160061
720.400	0.0161621
720.478	0.0160752
720.557	0.0159502
720.635	0.0160212
720.713	0.0160106
720.791	0.0161073
720.869	0.0160938
720.947	0.0161072
721.025	0.0162677
721.103	0.0161824
721.182	0.0162419
721.260	0.0163615
721.338	0.0163137
721.416	0.0163600
721.494	0.0164832
721.572	0.0161344
721.650	0.0161230
721.728	0.0163400
721.807	0.0161152
721.885	0.0161557
721.963	0.0157707
722.041	0.0159358
722.119	0.0159003
722.197	0.0159161
722.275	0.0159532
722.353	0.0158192
722.432	0.0158970
722.510	0.0159026
722.588	0.0160051
722.666	0.0160877
722.744	0.0162778
722.822	0.0163952
722.900	0.0164324
722.978	0.0163258
723.057	0.0163619
723.135	0.0163615
723.213	0.0163954
723.291	0.0164707
723.369	0.0163978
723.447	0.0163346
723.525	0.0161177
723.603	0.0161455
723.682	0.0159380
723.760	0.0159224
723.838	0.0161840
723.916	0.0159656
723.994	0.0159193
724.072	0.0158951
724.150	0.0160149
724.228	0.0161042
724.307	0.0159749
724.385	0.0161230
724.463	0.0162688
724.541	0.0162074
724.619	0.0163338
724.697	0.0162338
724.775	0.0161594
724.853	0.0162874
724.932	0.0164379
725.010	0.0163316
725.088	0.0161336
725.166	0.0163766
725.244	0.0162373
725.322	0.0162930
725.400	0.0162954
725.478	0.0162827
725.557	0.0163916
725.635	0.0164149
725.713	0.0165729
725.791	0.0164460
725.869	0.0163451
725.947	0.0163153
726.025	0.0162413
726.103	0.0163028
726.182	0.0161382
726.260	0.0161137
726.338	0.0159931
726.416	0.0159383
726.494	0.0158862
726.572	0.0158038
726.650	0.0159000
726.728	0.0158118
726.807	0.0157273
726.885	0.0159310
726.963	0.0161506
727.041	0.0161387
727.119	0.0162407
727.197	0.0163174
727.275	0.0163530
727.353	0.0163673
727.432	0.0164774
727.510	0.0164875
727.588	0.0165148
727.666	0.0166902
727.744	0.0165797
727.822	0.0166016
727.900	0.0164001
727.978	0.0161732
728.057	0.0162310
728.135	0.0161109
728.213	0.0161246
728.291	0.0161091
728.369	0.0160892
728.447	0.0159657
728.525	0.0159157
728.603	0.0159650
728.682	0.0159693
728.760	0.0159801
728.838	0.0159020
728.916	0.0159805
728.994	0.0161082
729.072	0.0161593
729.150	0.0162234
729.228	0.0163078
729.307	0.0162144
729.385	0.0163577
729.463	0.0164000
729.541	0.0164233
729.619	0.0164251
729.697	0.0165224
729.775	0.0164159
729.853	0.0162602
729.932	0.0163379
730.010	0.0163480
730.088	0.0164466
730.166	0.0162663
730.244	0.0161792
730.322	0.0162045
730.400	0.0160860
730.478	0.0163338
730.557	0.0163120
730.635	0.0162071
730.713	0.0162638
730.791	0.0163108
730.869	0.0162659
730.947	0.0161213
731.025	0.0162146
731.103	0.0162366
731.182	0.0161213
731.260	0.0161321
731.338	0.0161416
731.416	0.0161844
731.494	0.0161651
731.572	0.0161682
731.650	0.0162546
731.728	0.0163147
731.807	0.0163125
731.885	0.0163374
731.963	0.0164442
732.041	0.0163257
732.119	0.0162864
732.197	0.0164264
732.275	0.0164021
732.353	0.0164409
732.432	0.0163551
732.510	0.0165070
732.588	0.0164625
732.666	0.0162565
732.744	0.0162907
732.822	0.0162160
732.900	0.0162714
732.978	0.0161962
733.057	0.0162243
733.135	0.0162553
733.213	0.0161539
733.291	0.0161651
733.369	0.0163094
733.447	0.0161890
733.525	0.0161365
733.603	0.0161486
733.682	0.0161607
733.760	0.0161829
733.838	0.0161607
733.916	0.0162386
733.994	0.0162376
734.072	0.0162872
734.150	0.0161951
734.228	0.0161877
734.307	0.0162359
734.385	0.0161887
734.463	0.0162389
734.541	0.0163084
734.619	0.0162575
734.697	0.0161900
734.775	0.0162214
734.853	0.0161901
734.932	0.0161483
735.010	0.0161176
735.088	0.0162745
735.166	0.0162371
735.244	0.0162186
735.322	0.0162293
735.400	0.0162771
735.478	0.0161782
735.557	0.0162736
735.635	0.0162724
735.713	0.0162189
735.791	0.0161922
735.869	0.0161617
735.947	0.0160658
736.025	0.0162103
736.103	0.0161829
736.182	0.0160395
736.260	0.0161212
736.338	0.0161862
736.416	0.0161356
736.494	0.0161734
736.572	0.0161141
736.650	0.0160594
736.728	0.0160416
736.807	0.0161467
736.885	0.0161332
736.963	0.0161449
737.041	0.0161938
737.119	0.0160724
737.197	0.0161632
737.275	0.0161450
737.353	0.0162356
737.432	0.0160680
737.510	0.0160088
737.588	0.0161049
737.666	0.0161961
737.744	0.0160855
737.822	0.0162865
737.900	0.0162146
737.978	0.0162550
738.057	0.0161773
738.135	0.0162363
738.213	0.0162347
738.291	0.0162617
738.369	0.0161384
738.447	0.0161922
738.525	0.0162435
738.603	0.0161418
738.682	0.0161607
738.760	0.0162124
738.838	0.0160907
738.916	0.0161241
738.994	0.0160658
739.072	0.0161336
739.150	0.0160701
739.228	0.0161046
739.307	0.0159882
739.385	0.0160925
739.463	0.0160442
739.541	0.0160327
739.619	0.0160999
739.697	0.0161284
739.775	0.0161163
739.853	0.0163379
739.932	0.0161330
740.010	0.0161983
740.088	0.0160879
740.166	0.0161986
740.244	0.0161791
740.322	0.0160671
740.400	0.0162448
740.478	0.0159945
740.557	0.0161016
740.635	0.0161849
740.713	0.0161292
740.791	0.0160713
740.869	0.0162022
740.947	0.0162259
741.025	0.0161534
741.103	0.0160868
741.182	0.0162208
741.260	0.0161677
741.338	0.0161404
741.416	0.0161412
741.494	0.0160342
741.572	0.0161191
741.650	0.0160402
741.728	0.0161924
741.807	0.0160693
741.885	0.0162033
741.963	0.0163293
742.041	0.0160741
742.119	0.0160257
742.197	0.0161035
742.275	0.0161150
742.353	0.0161064
742.432	0.0161799
742.510	0.0161881
742.588	0.0160958
742.666	0.0161732
742.744	0.0161134
742.822	0.0161820
742.900	0.0162383
742.978	0.0161458
743.057	0.0161102
743.135	0.0160395
743.213	0.0162498
743.291	0.0161573
743.369	0.0162363
743.447	0.0161790
743.525	0.0160538
743.603	0.0161396
743.682	0.0162320
743.760	0.0161817
743.838	0.0159702
743.916	0.0162112
743.994	0.0161140
744.072	0.0160993
744.150	0.0161204
744.228	0.0160866
744.307	0.0160908
744.385	0.0161195
744.463	0.0161465
744.541	0.0160976
744.619	0.0161677
744.697	0.0161680
744.775	0.0162800
744.853	0.0160730
744.932	0.0160906
745.010	0.0161678
745.088	0.0160634
745.166	0.0161691
745.244	0.0161874
745.322	0.0162044
745.400	0.0161437
745.478	0.0161579
745.557	0.0161937
745.635	0.0163007
745.713	0.0162048
745.791	0.0162415
745.869	0.0162421
745.947	0.0162248
746.025	0.0160645
746.103	0.0162397
746.182	0.0162209
746.260	0.0161046
746.338	0.0160934
746.416	0.0161826
746.494	0.0161234
746.572	0.0163144
746.650	0.0162823
746.728	0.0161233
746.807	0.0160718
746.885	0.0161626
746.963	0.0162652
747.041	0.0161087
747.119	0.0160211
747.197	0.0161163
747.275	0.0160998
747.353	0.0161523
747.432	0.0163168
747.510	0.0161070
747.588	0.0161021
747.666	0.0161604
747.744	0.0160486
747.822	0.0162147
747.900	0.0160922
747.978	0.0160781
748.057	0.0160844
748.135	0.0160938
748.213	0.0162629
748.291	0.0160560
748.369	0.0160716
748.447	0.0160574
748.525	0.0161617
748.603	0.0160745
748.682	0.0160166
748.760	0.0159402
748.838	0.0159849
748.916	0.0159567
748.994	0.0160417
749.072	0.0161344
749.150	0.0160104
749.228	0.0161719
749.307	0.0161753
749.385	0.0160293
749.463	0.0160852
749.541	0.0161289
749.619	0.0159149
749.697	0.0161525
749.775	0.0160424
749.853	0.0161557
749.932	0.0161179
750.010	0.0162144
750.088	0.0161436
750.166	0.0160909
750.244	0.0160706
750.322	0.0162271
750.400	0.0161205
750.478	0.0160739
750.557	0.0161732
750.635	0.0161572
750.713	0.0162608
750.791	0.0162125
750.869	0.0161831
750.947	0.0160473
751.025	0.0160780
751.103	0.0161956
751.182	0.0162280
751.260	0.0160916
751.338	0.0160296
751.416	0.0161472
751.494	0.0160970
751.572	0.0162020
751.650	0.0160745
751.728	0.0160828
751.807	0.0160786
751.885	0.0161963
751.963	0.0161243
752.041	0.0160938
752.119	0.0160464
752.197	0.0160596
752.275	0.0160537
752.353	0.0161250
752.432	0.0162209
752.510	0.0161296
752.588	0.0161267
752.666	0.0161755
752.744	0.0161817
752.822	0.0162495
752.900	0.0161256
752.978	0.0162844
753.057	0.0163202
753.135	0.0162245
753.213	0.0161931
753.291	0.0161417
753.369	0.0162408
753.447	0.0163275
753.525	0.0162186
753.603	0.0162395
753.682	0.0161655
753.760	0.0161290
753.838	0.0161517
753.916	0.0161427
753.994	0.0162164
754.072	0.0161329
754.150	0.0162672
754.228	0.0163039
754.307	0.0163000
754.385	0.0163300
754.463	0.0161366
754.541	0.0162427
754.619	0.0163780
754.697	0.0160675
754.775	0.0161646
754.853	0.0162047
754.932	0.0162548
755.010	0.0162724
755.088	0.0162786
755.166	0.0162485
755.244	0.0162377
755.322	0.0161568
755.400	0.0161481
755.478	0.0161969
755.557	0.0162244
755.635	0.0162319
755.713	0.0161320
755.791	0.0162350
755.869	0.0161973
755.947	0.0160892
756.025	0.0161574
756.103	0.0162486
756.182	0.0161594
756.260	0.0162300
756.338	0.0161799
756.416	0.0160524
756.494	0.0162116
756.572	0.0162193
756.650	0.0161639
756.728	0.0161869
756.807	0.0162170
756.885	0.0161217
756.963	0.0162875
757.041	0.0162959
757.119	0.0161363
757.197	0.0160689
757.275	0.0161844
757.353	0.0161701
757.432	0.0160873
757.510	0.0160531
757.588	0.0161699
757.666	0.0161655
757.744	0.0161988
757.822	0.0161496
757.900	0.0160893
757.978	0.0161996
758.057	0.0162412
758.135	0.0162022
758.213	0.0161041
758.291	0.0161674
758.369	0.0162337
758.447	0.0162338
758.525	0.0161597
758.603	0.0161713
758.682	0.0161766
758.760	0.0160738
758.838	0.0160601
758.916	0.0161071
758.994	0.0162653
759.072	0.0161404
759.150	0.0160656
759.228	0.0160572
759.307	0.0160239
759.385	0.0160638
759.463	0.0161084
759.541	0.0160246
759.619	0.0160477
759.697	0.0160608
759.775	0.0161436
759.853	0.0160670
759.932	0.0160762
760.010	0.0160989
760.088	0.0160706
760.166	0.0161079
760.244	0.0161817
760.322	0.0160773
760.400	0.0163406
760.478	0.0161807
760.557	0.0162813
760.635	0.0162007
760.713	0.0164500
760.791	0.0163437
760.869	0.0163012
760.947	0.0162371
761.025	0.0162590
761.103	0.0161471
761.182	0.0162483
761.260	0.0161183
761.338	0.0161140
761.416	0.0160677
761.494	0.0159467
761.572	0.0157875
761.650	0.0159766
761.728	0.0160419
761.807	0.0160536
761.885	0.0158294
761.963	0.0160405
762.041	0.0160231
762.119	0.0159489
762.197	0.0159805
762.275	0.0159267
762.353	0.0160844
762.432	0.0160562
762.510	0.0159794
762.588	0.0159795
762.666	0.0161211
762.744	0.0161758
762.822	0.0161189
762.900	0.0160835
762.978	0.0161914
763.057	0.0160737
763.135	0.0163891
763.213	0.0162767
763.291	0.0162861
763.369	0.0163915
763.447	0.0162212
763.525	0.0164265
763.603	0.0162932
763.682	0.0162173
763.760	0.0163763
763.838	0.0161784
763.916	0.0162715
763.994	0.0160787
764.072	0.0162180
764.150	0.0161768
764.228	0.0160132
764.307	0.0159934
764.385	0.0161858
764.463	0.0161394
764.541	0.0160513
764.619	0.0160574
764.697	0.0161957
764.775	0.0160735
764.853	0.0160757
764.932	0.0160972
765.010	0.0159737
765.088	0.0160244
765.166	0.0161998
765.244	0.0158839
765.322	0.0159610
765.400	0.0159364
765.478	0.0160041
765.557	0.0159103
765.635	0.0160599
765.713	0.0159628
765.791	0.0158986
765.869	0.0160691
765.947	0.0161277
766.025	0.0161871
766.103	0.0160934
766.182	0.0159859
766.260	0.0161661
766.338	0.0162994
766.416	0.0163416
766.494	0.0163068
766.572	0.0165211
766.650	0.0164251
766.728	0.0162357
766.807	0.0162871
766.885	0.0164338
766.963	0.0163445
767.041	0.0163698
767.119	0.0163526
767.197	0.0161329
767.275	0.0162436
767.353	0.0161862
767.432	0.0161100
767.510	0.0160225
767.588	0.0160183
767.666	0.0159812
767.744	0.0158803
767.822	0.0158266
767.900	0.0158565
767.978	0.0157911
768.057	0.0157533
768.135	0.0157997
768.213	0.0157825
768.291	0.0158487
768.369	0.0159259
768.447	0.0158235
768.525	0.0157512
768.603	0.0158807
768.682	0.0159711
768.760	0.0160457
768.838	0.0158563
768.916	0.0158475
768.994	0.0157390
769.072	0.0159602
769.150	0.0159762
769.228	0.0159792
769.307	0.0162254
769.385	0.0160548
769.463	0.0160899
769.541	0.0161839
769.619	0.0161538
769.697	0.0160754
769.775	0.0161406
769.853	0.0161121
769.932	0.0161518
770.010	0.0161912
770.088	0.0159283
770.166	0.0160405
770.244	0.0159978
770.322	0.0161466
770.400	0.0160868
770.478	0.0161800
770.557	0.0160770
770.635	0.0160334
770.713	0.0162037
770.791	0.0161719
770.869	0.0161690
770.947	0.0161319
771.025	0.0161071
771.103	0.0160698
771.182	0.0161529
771.260	0.0160995
771.338	0.0160513
771.416	0.0160800
771.494	0.0160119
771.572	0.0159459
771.650	0.0159193
771.728	0.0159007
771.807	0.0158884
771.885	0.0158179
771.963	0.0159126
772.041	0.0159128
772.119	0.0160476
772.197	0.0161474
772.275	0.0160593
772.353	0.0160743
772.432	0.0161321
772.510	0.0162772
772.588	0.0161580
772.666	0.0162215
772.744	0.0163837
772.822	0.0162753
772.900	0.0161669
772.978	0.0164549
773.057	0.0162626
773.135	0.0161501
773.213	0.0162763
773.291	0.0162718
773.369	0.0161147
773.447	0.0160533
773.525	0.0159425
773.603	0.0160498
773.682	0.0159959
773.760	0.0158618
773.838	0.0157906
773.916	0.0158929
773.994	0.0157732
774.072	0.0159801
774.150	0.0159461
774.228	0.0159144
774.307	0.0157466
774.385	0.0158018
774.463	0.0157166
774.541	0.0158274
774.619	0.0160008
774.697	0.0158852
774.775	0.0159677
774.853	0.0159592
774.932	0.0160727
775.010	0.0161971
775.088	0.0161514
775.166	0.0160716
775.244	0.0164497
775.322	0.0164701
775.400	0.0163775
775.478	0.0163266
775.557	0.0165817
775.635	0.0166723
775.713	0.0166003
775.791	0.0165982
775.869	0.0165276
775.947	0.0165456
776.025	0.0165830
776.103	0.0166190
776.182	0.0165922
776.260	0.0166714
776.338	0.0165287
776.416	0.0164219
776.494	0.0163803
776.572	0.0165386
776.650	0.0164175
776.728	0.0162532
776.807	0.0163428
776.885	0.0163326
776.963	0.0161485
777.041	0.0161309
777.119	0.0162375
777.197	0.0160670
777.275	0.0158858
777.353	0.0160680
777.432	0.0158643
777.510	0.0158421
777.588	0.0158246
777.666	0.0158508
777.744	0.0156763
777.822	0.0155479
777.900	0.0155721
777.978	0.0154305
778.057	0.0156845
778.135	0.0157116
778.213	0.0156032
778.291	0.0155495
778.369	0.0157362
778.447	0.0157912
778.525	0.0157473
778.603	0.0156609
778.682	0.0156958
778.760	0.0160010
778.838	0.0159061
778.916	0.0159626
778.994	0.0161869
779.072	0.0161206
779.150	0.0160968
779.228	0.0163093
779.307	0.0164156
779.385	0.0165638
779.463	0.0165583
779.541	0.0166645
779.619	0.0167445
779.697	0.0168832
779.775	0.0170134
779.853	0.0169331
779.932	0.0168961
780.010	0.0169164
780.088	0.0169895
780.166	0.0169261
780.244	0.0168358
780.322	0.0167670
780.400	0.0167083
780.478	0.0166692
780.557	0.0167786
780.635	0.0164130
780.713	0.0164415
780.791	0.0163594
780.869	0.0161085
780.947	0.0159187
781.025	0.0159135
781.103	0.0158414
781.182	0.0157199
781.260	0.0156631
781.338	0.0157092
781.416	0.0155032
781.494	0.0156707
781.572	0.0156301
781.650	0.0157092
781.728	0.0157955
781.807	0.0157174
781.885	0.0159391
781.963	0.0159882
782.041	0.0161041
782.119	0.0162981
782.197	0.0161864
782.275	0.0161900
782.353	0.0162971
782.432	0.0162765
782.510	0.0162865
782.588	0.0163522
782.666	0.0163145
782.744	0.0161427
782.822	0.0160993
782.900	0.0161407
782.978	0.0161549
783.057	0.0161170
783.135	0.0161431
783.213	0.0160249
783.291	0.0159178
783.369	0.0158715
783.447	0.0159393
783.525	0.0159058
783.603	0.0157661
783.682	0.0158822
783.760	0.0157745
783.838	0.0157645
783.916	0.0158134
783.994	0.0157684
784.072	0.0157961
784.150	0.0157568
784.228	0.0156799
784.307	0.0159839
784.385	0.0159570
784.463	0.0160912
784.541	0.0162595
784.619	0.0162725
784.697	0.0163366
784.775	0.0164475
784.853	0.0166682
784.932	0.0167364
785.010	0.0166709
785.088	0.0170074
785.166	0.0171478
785.244	0.0171234
785.322	0.0171688
785.400	0.0170814
785.478	0.0174480
785.557	0.0174145
785.635	0.0173176
785.713	0.0173260
785.791	0.0172961
785.869	0.0173073
785.947	0.0171177
786.025	0.0167974
786.103	0.0167590
786.182	0.0165658
786.260	0.0163903
786.338	0.0160923
786.416	0.0159380
786.494	0.0157626
786.572	0.0156254
786.650	0.0152764
786.728	0.0149910
786.807	0.0149074
786.885	0.0149201
786.963	0.0148479
787.041	0.0148080
787.119	0.0146991
787.197	0.0147962
787.275	0.0148162
787.353	0.0148660
787.432	0.0148232
787.510	0.0149947
787.588	0.0150916
787.666	0.0152360
787.744	0.0153262
787.822	0.0154591
787.900	0.0155347
787.978	0.0158052
788.057	0.0158655
788.135	0.0158408
788.213	0.0160970
788.291	0.0162270
788.369	0.0163274
788.447	0.0164693
788.525	0.0165538
788.603	0.0167912
788.682	0.0169495
788.760	0.0170591
788.838	0.0170570
788.916	0.0171240
788.994	0.0172797
789.072	0.0173201
789.150	0.0173250
789.228	0.0172795
789.307	0.0172136
789.385	0.0172627
789.463	0.0170834
789.541	0.0170625
789.619	0.0170338
789.697	0.0168815
789.775	0.0168751
789.853	0.0166695
789.932	0.0166593
790.010	0.0164556
790.088	0.0162570
790.166	0.0162450
790.244	0.0162612
790.322	0.0159653
790.400	0.0161184
790.478	0.0159246
790.557	0.0158611
790.635	0.0157603
790.713	0.0159425
790.791	0.0159393
790.869	0.0156840
790.947	0.0157909
791.025	0.0158012
791.103	0.0157355
791.182	0.0156878
791.260	0.0158178
791.338	0.0158899
791.416	0.0158093
791.494	0.0157832
791.572	0.0158746
791.650	0.0158649
791.728	0.0158425
791.807	0.0159215
791.885	0.0157136
791.963	0.0158083
792.041	0.0157746
792.119	0.0157581
792.197	0.0156463
792.275	0.0155918
792.353	0.0156145
792.432	0.0155975
792.510	0.0155546
792.588	0.0156077
792.666	0.0154919
792.744	0.0153844
792.822	0.0154580
792.900	0.0155032
792.978	0.0154180
793.057	0.0155455
793.135	0.0156396
793.213	0.0156398
793.291	0.0158208
793.369	0.0158865
793.447	0.0160997
793.525	0.0163744
793.603	0.0164056
793.682	0.0165202
793.760	0.0167652
793.838	0.0170461
793.916	0.0170745
793.994	0.0171957
794.072	0.0173289
794.150	0.0175282
794.228	0.0177573
794.307	0.0177125
794.385	0.0176553
794.463	0.0179111
794.541	0.0178660
794.619	0.0177432
794.697	0.0177024
794.775	0.0176572
794.853	0.0175117
794.932	0.0174919
795.010	0.0172974
795.088	0.0170340
795.166	0.0169143
795.244	0.0167853
795.322	0.0164870
795.400	0.0164030
795.478	0.0162420
795.557	0.0159081
795.635	0.0157407
795.713	0.0156545
795.791	0.0154333
795.869	0.0154446
795.947	0.0151203
796.025	0.0151065
796.103	0.0150491
796.182	0.0149834
796.260	0.0148098
796.338	0.0147592
796.416	0.0147484
796.494	0.0149506
796.572	0.0149059
796.650	0.0150494
796.728	0.0151907
796.807	0.0151376
796.885	0.0153425
796.963	0.0153930
797.041	0.0155451
797.119	0.0156079
797.197	0.0156519
797.275	0.0156860
797.353	0.0158725
797.432	0.0159096
797.510	0.0160374
797.588	0.0161293
797.666	0.0161598
797.744	0.0162061
797.822	0.0163338
797.900	0.0165411
797.978	0.0167941
798.057	0.0168081
798.135	0.0169254
798.213	0.0169592
798.291	0.0170898
798.369	0.0172085
798.447	0.0172710
798.525	0.0172501
798.603	0.0171044
798.682	0.0171159
798.760	0.0170984
798.838	0.0171023
798.916	0.0171826
798.994	0.0170792
799.072	0.0170309
799.150	0.0167794
799.228	0.0169080
799.307	0.0168392
799.385	0.0167556
799.463	0.0166274
799.541	0.0164841
799.619	0.0164986
799.697	0.0164129
799.775	0.0164931
799.853	0.0164088
799.932	0.0162476
800.010	0.0159866
800.088	0.0162149
800.166	0.0161081
800.244	0.0159863
800.322	0.0158279
800.400	0.0158144
800.478	0.0158058
800.557	0.0156378
800.635	0.0155830
800.713	0.0155576
800.791	0.0156036
800.869	0.0154129
800.947	0.0152986
801.025	0.0153970
801.103	0.0152881
801.182	0.0154057
801.260	0.0154787
801.338	0.0153270
801.416	0.0153986
801.494	0.0154070
801.572	0.0155042
801.650	0.0155750
801.728	0.0156242
801.807	0.0156234
801.885	0.0156482
801.963	0.0156319
802.041	0.0156937
802.119	0.0158931
802.197	0.0160006
802.275	0.0159900
802.353	0.0162578
802.432	0.0161504
802.510	0.0163089
802.588	0.0164172
802.666	0.0162584
802.744	0.0162649
802.822	0.0165229
802.900	0.0164967
802.978	0.0165240
803.057	0.0166117
803.135	0.0167496
803.213	0.0167419
803.291	0.0168036
803.369	0.0168694
803.447	0.0169421
803.525	0.0168835
803.603	0.0169144
803.682	0.0170676
803.760	0.0171804
803.838	0.0172272
803.916	0.0171269
803.994	0.0168980
804.072	0.0169618
804.150	0.0169986
804.228	0.0169421
804.307	0.0167838
804.385	0.0166224
804.463	0.0165317
804.541	0.0164836
804.619	0.0163772
804.697	0.0161282
804.775	0.0162072
804.853	0.0159613
804.932	0.0159976
805.010	0.0158575
805.088	0.0159826
805.166	0.0157271
805.244	0.0157143
805.322	0.0157088
805.400	0.0156538
805.478	0.0156102
805.557	0.0157149
805.635	0.0157033
805.713	0.0156756
805.791	0.0156560
805.869	0.0157423
805.947	0.0156796
806.025	0.0159657
806.103	0.0157875
806.182	0.0157890
806.260	0.0159153
806.338	0.0159503
806.416	0.0159359
806.494	0.0159768
806.572	0.0158873
806.650	0.0159836
806.728	0.0161258
806.807	0.0160545
806.885	0.0161143
806.963	0.0160341
807.041	0.0159261
807.119	0.0159431
807.197	0.0160252
807.275	0.0161211
807.353	0.0160638
807.432	0.0160355
807.510	0.0161193
807.588	0.0160313
807.666	0.0161600
807.744	0.0163995
807.822	0.0163271
807.900	0.0164735
807.978	0.0165508
808.057	0.0166228
808.135	0.0166985
808.213	0.0168217
808.291	0.0168618
808.369	0.0168841
808.447	0.0169954
808.525	0.0169386
808.603	0.0170310
808.682	0.0169888
808.760	0.0171920
808.838	0.0170906
808.916	0.0169942
808.994	0.0168985
809.072	0.0169007
809.150	0.0167474
809.228	0.0166297
809.307	0.0164784
809.385	0.0163242
809.463	0.0162228
809.541	0.0160029
809.619	0.0158787
809.697	0.0155603
809.775	0.0153301
809.853	0.0152738
809.932	0.0151434
810.010	0.0149486
810.088	0.0149930
810.166	0.0148487
810.244	0.0147340
810.322	0.0148815
810.400	0.0148780
810.478	0.0148856
810.557	0.0150854
810.635	0.0151269
810.713	0.0153079
810.791	0.0154720
810.869	0.0155967
810.947	0.0157259
811.025	0.0160273
811.103	0.0161430
811.182	0.0163388
811.260	0.0164163
811.338	0.0166563
811.416	0.0169548
811.494	0.0169278
811.572	0.0170116
811.650	0.0170982
811.728	0.0172039
811.807	0.0173112
811.885	0.0174175
811.963	0.0173286
812.041	0.0172562
812.119	0.0172011
812.197	0.0171543
812.275	0.0168766
812.353	0.0170100
812.432	0.0167845
812.510	0.0166267
812.588	0.0164078
812.666	0.0161915
812.744	0.0160998
812.822	0.0160931
812.900	0.0158536
812.978	0.0157378
813.057	0.0156342
813.135	0.0155162
813.213	0.0154979
813.291	0.0154209
813.369	0.0154681
813.447	0.0155424
813.525	0.0155969
813.603	0.0155492
813.682	0.0158846
813.760	0.0158234
813.838	0.0157510
813.916	0.0159241
813.994	0.0159727
814.072	0.0162636
814.150	0.0163313
814.228	0.0163165
814.307	0.0164272
814.385	0.0165481
814.463	0.0166096
814.541	0.0165236
814.619	0.0166844
814.697	0.0166660
814.775	0.0166126
814.853	0.0166389
814.932	0.0166246
815.010	0.0164994
815.088	0.0165506
815.166	0.0163268
815.244	0.0164078
815.322	0.0162898
815.400	0.0162103
815.478	0.0161507
815.557	0.0161224
815.635	0.0159053
815.713	0.0160356
815.791	0.0158699
815.869	0.0158866
815.947	0.0157546
816.025	0.0158243
816.103	0.0158499
816.182	0.0158508
816.260	0.0157859
816.338	0.0158116
816.416	0.0160563
816.494	0.0160056
816.572	0.0158471
816.650	0.0160268
816.728	0.0160766
816.807	0.0161761
816.885	0.0162144
816.963	0.0163240
817.041	0.0163160
817.119	0.0163691
817.197	0.0166294
817.275	0.0166240
817.353	0.0167348
817.432	0.0167695
817.510	0.0166556
817.588	0.0167561
817.666	0.0168854
817.744	0.0169186
817.822	0.0169378
817.900	0.0168644
817.978	0.0167573
818.057	0.0168571
818.135	0.0167393
818.213	0.0166741
818.291	0.0166179
818.369	0.0164846
818.447	0.0163825
818.525	0.0162626
818.603	0.0161945
818.682	0.0161722
818.760	0.0161596
818.838	0.0159835
818.916	0.0158614
818.994	0.0158745
819.072	0.0157748
819.150	0.0156230
819.228	0.0156457
819.307	0.0156232
819.385	0.0155299
819.463	0.0153790
819.541	0.0154584
819.619	0.0155676
819.697	0.0154945
819.775	0.0156624
819.853	0.0155147
819.932	0.0156610
820.010	0.0158515
820.088	0.0157098
820.166	0.0159649
820.244	0.0161581
820.322	0.0160371
820.400	0.0161830
820.478	0.0163831
820.557	0.0164021
820.635	0.0166758
820.713	0.0166806
820.791	0.0167241
820.869	0.0167298
820.947	0.0167377
821.025	0.0169332
821.103	0.0168546
821.182	0.0168093
821.260	0.0168023
821.338	0.0167985
821.416	0.0166811
821.494	0.0165947
821.572	0.0164592
821.650	0.0164589
821.728	0.0162138
821.807	0.0160284
821.885	0.0159687
821.963	0.0159615
822.041	0.0159125
822.119	0.0157689
822.197	0.0156932
822.275	0.0157166
822.353	0.0156731
822.432	0.0156040
822.510	0.0155219
822.588	0.0156964
822.666	0.0156650
822.744	0.0156974
822.822	0.0156631
822.900	0.0156747
822.978	0.0156991
823.057	0.0157039
823.135	0.0157993
823.213	0.0158279
823.291	0.0159099
823.369	0.0158807
823.447	0.0160347
823.525	0.0160796
823.603	0.0161301
823.682	0.0162774
823.760	0.0163251
823.838	0.0164970
823.916	0.0164172
823.994	0.0165364
824.072	0.0167647
824.150	0.0167804
824.228	0.0168491
824.307	0.0167232
824.385	0.0168122
824.463	0.0166822
824.541	0.0168355
824.619	0.0167152
824.697	0.0166312
824.775	0.0165672
824.853	0.0165524
824.932	0.0165497
825.010	0.0164314
825.088	0.0162079
825.166	0.0162897
825.244	0.0162107
825.322	0.0161418
825.400	0.0160902
825.478	0.0159762
825.557	0.0159244
825.635	0.0158730
825.713	0.0157360
825.791	0.0157412
825.869	0.0158997
825.947	0.0158570
826.025	0.0157139
826.103	0.0157101
826.182	0.0158967
826.260	0.0157522
826.338	0.0158187
826.416	0.0159425
826.494	0.0159545
826.572	0.0159057
826.650	0.0159521
826.728	0.0160333
826.807	0.0160469
826.885	0.0161189
826.963	0.0161942
827.041	0.0161810
827.119	0.0164397
827.197	0.0163767
827.275	0.0164645
827.353	0.0164002
827.432	0.0163497
827.510	0.0163721
827.588	0.0164597
827.666	0.0162683
827.744	0.0163463
827.822	0.0164980
827.900	0.0163969
827.978	0.0161664
828.057	0.0161520
828.135	0.0161803
828.213	0.0160471
828.291	0.0159321
828.369	0.0159843
828.447	0.0159338
828.525	0.0159129
828.603	0.0159111
828.682	0.0157288
828.760	0.0158363
828.838	0.0159886
828.916	0.0158809
828.994	0.0158507
829.072	0.0160346
829.150	0.0161233
829.228	0.0163411
829.307	0.0162874
829.385	0.0163599
829.463	0.0164716
829.541	0.0166734
829.619	0.0166788
829.697	0.0167212
829.775	0.0167522
829.853	0.0166099
829.932	0.0167027
830.010	0.0165806
830.088	0.0166393
830.166	0.0166552
830.244	0.0164061
830.322	0.0164993
830.400	0.0165382
830.478	0.0164319
830.557	0.0164211
830.635	0.0164178
830.713	0.0163895
830.791	0.0163000
830.869	0.0163273
830.947	0.0162159
831.025	0.0162496
831.103	0.0161059
831.182	0.0161116
831.260	0.0161308
831.338	0.0161084
831.416	0.0160324
831.494	0.0159173
831.572	0.0158694
831.650	0.0157932
831.728	0.0157602
831.807	0.0155340
831.885	0.0156534
831.963	0.0156178
832.041	0.0154809
832.119	0.0154448
832.197	0.0153444
832.275	0.0153876
832.353	0.0154115
832.432	0.0153926
832.510	0.0154854
832.588	0.0156158
832.666	0.0156820
832.744	0.0157833
832.822	0.0157751
832.900	0.0159181
832.978	0.0160685
833.057	0.0162223
833.135	0.0161332
833.213	0.0163591
833.291	0.0164636
833.369	0.0165996
833.447	0.0165029
833.525	0.0167400
833.603	0.0166667
833.682	0.0166615
833.760	0.0166035
833.838	0.0167024
833.916	0.0167081
833.994	0.0166216
834.072	0.0166417
834.150	0.0165539
834.228	0.0163788
834.307	0.0164641
834.385	0.0164304
834.463	0.0164399
834.541	0.0163647
834.619	0.0164323
834.697	0.0163239
834.775	0.0163966
834.853	0.0163313
834.932	0.0160941
835.010	0.0160963
835.088	0.0161890
835.166	0.0162457
835.244	0.0161742
835.322	0.0160093
835.400	0.0160838
835.478	0.0159924
835.557	0.0159431
835.635	0.0158990
835.713	0.0159337
835.791	0.0157459
835.869	0.0157175
835.947	0.0156886
836.025	0.0156673
836.103	0.0156680
836.182	0.0156160
836.260	0.0154697
836.338	0.0155412
836.416	0.0154883
836.494	0.0156038
836.572	0.0156846
836.650	0.0154552
836.728	0.0155466
836.807	0.0156146
836.885	0.0156156
836.963	0.0158178
837.041	0.0159575
837.119	0.0158428
837.197	0.0159383
837.275	0.0160724
837.353	0.0161057
837.432	0.0161206
837.510	0.0162933
837.588	0.0163133
837.666	0.0163018
837.744	0.0164083
837.822	0.0165030
837.900	0.0164780
837.978	0.0164720
838.057	0.0164314
838.135	0.0164635
838.213	0.0164529
838.291	0.0165615
838.369	0.0164566
838.447	0.0163414
838.525	0.0162415
838.603	0.0163377
838.682	0.0160877
838.760	0.0160232
838.838	0.0161836
838.916	0.0160414
838.994	0.0159703
839.072	0.0159197
839.150	0.0159653
839.228	0.0158920
839.307	0.0159171
839.385	0.0159665
839.463	0.0158088
839.541	0.0158146
839.619	0.0160020
839.697	0.0160386
839.775	0.0158370
839.853	0.0159915
839.932	0.0160786
840.010	0.0160566
840.088	0.0162412
840.166	0.0162181
840.244	0.0161368
840.322	0.0161255
840.400	0.0162154
840.478	0.0160445
840.557	0.0161565
840.635	0.0163215
840.713	0.0163163
840.791	0.0162217
840.869	0.0162083
840.947	0.0163058
841.025	0.0162675
841.103	0.0163086
841.182	0.0163297
841.260	0.0165152
841.338	0.0164647
841.416	0.0163131
841.494	0.0163136
841.572	0.0162449
841.650	0.0161706
841.728	0.0162673
841.807	0.0160529
841.885	0.0161404
841.963	0.0160408
842.041	0.0160271
842.119	0.0160521
842.197	0.0159802
842.275	0.0160117
842.353	0.0160517
842.432	0.0159442
842.510	0.0159163
842.588	0.0159937
842.666	0.0159992
842.744	0.0159718
842.822	0.0160300
842.900	0.0160708
842.978	0.0161249
843.057	0.0163083
843.135	0.0162534
843.213	0.0163084
843.291	0.0163815
843.369	0.0162937
843.447	0.0164341
843.525	0.0163223
843.603	0.0164730
843.682	0.0163689
843.760	0.0163279
843.838	0.0162753
843.916	0.0161140
843.994	0.0161350
844.072	0.0159174
844.150	0.0158893
844.228	0.0158356
844.307	0.0157401
844.385	0.0157774
844.463	0.0155869
844.541	0.0157330
844.619	0.0157468
844.697	0.0157520
844.775	0.0157198
844.853	0.0157781
844.932	0.0158224
845.010	0.0159821
845.088	0.0160030
845.166	0.0160805
845.244	0.0161340
845.322	0.0161435
845.400	0.0163523
845.478	0.0162464
845.557	0.0163779
845.635	0.0165767
845.713	0.0166413
845.791	0.0164317
845.869	0.0164446
845.947	0.0165936
846.025	0.0165585
846.103	0.0164175
846.182	0.0162778
846.260	0.0163109
846.338	0.0162453
846.416	0.0160790
846.494	0.0160877
846.572	0.0160452
846.650	0.0160172
846.728	0.0158104
846.807	0.0157867
846.885	0.0158730
846.963	0.0159557
847.041	0.0159375
847.119	0.0158954
847.197	0.0159309
847.275	0.0161110
847.353	0.0162238
847.432	0.0162287
847.510	0.0160873
847.588	0.0163067
847.666	0.0163544
847.744	0.0163047
847.822	0.0162908
847.900	0.0163126
847.978	0.0164355
848.057	0.0163512
848.135	0.0163085
848.213	0.0164743
848.291	0.0163132
848.369	0.0162999
848.447	0.0163986
848.525	0.0162256
848.603	0.0162453
848.682	0.0162159
848.760	0.0160995
848.838	0.0161608
848.916	0.0160688
848.994	0.0160347
849.072	0.0159728
849.150	0.0158935
849.228	0.0159924
849.307	0.0160109
849.385	0.0159326
849.463	0.0160465
849.541	0.0160145
849.619	0.0160336
849.697	0.0159727
849.775	0.0159875
849.853	0.0160157
849.932	0.0159597
850.010	0.0161293
850.088	0.0161218
850.166	0.0161394
850.244	0.0160546
850.322	0.0160326
850.400	0.0161281
850.478	0.0160683
850.557	0.0160510
850.635	0.0162086
850.713	0.0161652
850.791	0.0162572
850.869	0.0163420
850.947	0.0162174
851.025	0.0162206
851.103	0.0161462
851.182	0.0162451
851.260	0.0163300
851.338	0.0161198
851.416	0.0161680
851.494	0.0161831
851.572	0.0161572
851.650	0.0160243
851.728	0.0161428
851.807	0.0160921
851.885	0.0159450
851.963	0.0160718
852.041	0.0161314
852.119	0.0159816
852.197	0.0160597
852.275	0.0160849
852.353	0.0163161
852.432	0.0162605
852.510	0.0161700
852.588	0.0162881
852.666	0.0163319
852.744	0.0163508
852.822	0.0163990
852.900	0.0163444
852.978	0.0164433
853.057	0.0166073
853.135	0.0164767
853.213	0.0163998
853.291	0.0164613
853.369	0.0163786
853.447	0.0162442
853.525	0.0163496
853.603	0.0162440
853.682	0.0161407
853.760	0.0160709
853.838	0.0159657
853.916	0.0160104
853.994	0.0158730
854.072	0.0159066
854.150	0.0158250
854.228	0.0157796
854.307	0.0157528
854.385	0.0157346
854.463	0.0157628
854.541	0.0156365
854.619	0.0156085
854.697	0.0157982
854.775	0.0157485
854.853	0.0157145
854.932	0.0156730
855.010	0.0159547
855.088	0.0160155
855.166	0.0159690
855.244	0.0160163
855.322	0.0161074
855.400	0.0161907
855.478	0.0162334
855.557	0.0162815
855.635	0.0162933
855.713	0.0161856
855.791	0.0162957
855.869	0.0164083
855.947	0.0163975
856.025	0.0163875
856.103	0.0164286
856.182	0.0164946
856.260	0.0164778
856.338	0.0164426
856.416	0.0165569
856.494	0.0165005
856.572	0.0164194
856.650	0.0164294
856.728	0.0163555
856.807	0.0163345
856.885	0.0162659
856.963	0.0162851
857.041	0.0161328
857.119	0.0161834
857.197	0.0161581
857.275	0.0160164
857.353	0.0159896
857.432	0.0159245
857.510	0.0159953
857.588	0.0159573
857.666	0.0159705
857.744	0.0159653
857.822	0.0160640
857.900	0.0159728
857.978	0.0158784
858.057	0.0158721
858.135	0.0159571
858.213	0.0159105
858.291	0.0160840
858.369	0.0160869
858.447	0.0160896
858.525	0.0161221
858.603	0.0160629
858.682	0.0161218
858.760	0.0160025
858.838	0.0161768
858.916	0.0162492
858.994	0.0161744
859.072	0.0161869
859.150	0.0162380
859.228	0.0161845
859.307	0.0162278
859.385	0.0161431
859.463	0.0161360
859.541	0.0161720
859.619	0.0161808
859.697	0.0162386
859.775	0.0161446
859.853	0.0160230
859.932	0.0161094
860.010	0.0161799
860.088	0.0160800
860.166	0.0161338
860.244	0.0162184
860.322	0.0163062
860.400	0.0161713
860.478	0.0163353
860.557	0.0161466
860.635	0.0161678
860.713	0.0162250
860.791	0.0162779
860.869	0.0160900
860.947	0.0161539
861.025	0.0162828
861.103	0.0162877
861.182	0.0160892
861.260	0.0161101
861.338	0.0160684
861.416	0.0160500
861.494	0.0160411
861.572	0.0161300
861.650	0.0159631
861.728	0.0159426
861.807	0.0160913
861.885	0.0160965
861.963	0.0161623
862.041	0.0160575
862.119	0.0161669
862.197	0.0161433
862.275	0.0161739
862.353	0.0162562
862.432	0.0163586
862.510	0.0162492
862.588	0.0162453
862.666	0.0161891
862.744	0.0163019
862.822	0.0161932
862.900	0.0162106
862.978	0.0161156
863.057	0.0161631
863.135	0.0161133
863.213	0.0161010
863.291	0.0161712
863.369	0.0158318
863.447	0.0160044
863.525	0.0160160
863.603	0.0161235
863.682	0.0158433
863.760	0.0159554
863.838	0.0159441
863.916	0.0160246
863.994	0.0160432
864.072	0.0159692
864.150	0.0160482
864.228	0.0158825
864.307	0.0160432
864.385	0.0159065
864.463	0.0160149
864.541	0.0160633
864.619	0.0160825
864.697	0.0160356
864.775	0.0160541
864.853	0.0161427
864.932	0.0160896
865.010	0.0161055
865.088	0.0161204
865.166	0.0160876
865.244	0.0161781
865.322	0.0162650
865.400	0.0161836
865.478	0.0161902
865.557	0.0162294
865.635	0.0160507
865.713	0.0161568
865.791	0.0163894
865.869	0.0162207
865.947	0.0163261
866.025	0.0164368
866.103	0.0162518
866.182	0.0162124
866.260	0.0164675
866.338	0.0162542
866.416	0.0163754
866.494	0.0162626
866.572	0.0163518
866.650	0.0163229
866.728	0.0162650
866.807	0.0161602
866.885	0.0162437
866.963	0.0161449
867.041	0.0161060
867.119	0.0162036
867.197	0.0162016
867.275	0.0161485
867.353	0.0160210
867.432	0.0161908
867.510	0.0162508
867.588	0.0161320
867.666	0.0162438
867.744	0.0163383
867.822	0.0162747
867.900	0.0163034
867.978	0.0163983
868.057	0.0163893
868.135	0.0163145
868.213	0.0163269
868.291	0.0163715
868.369	0.0163291
868.447	0.0162708
868.525	0.0162023
868.603	0.0162894
868.682	0.0161588
868.760	0.0160604
868.838	0.0161113
868.916	0.0160094
868.994	0.0159478
869.072	0.0159753
869.150	0.0159723
869.228	0.0159325
869.307	0.0158678
869.385	0.0159052
869.463	0.0159626
869.541	0.0160438
869.619	0.0158237
869.697	0.0159521
869.775	0.0160379
869.853	0.0159624
869.932	0.0160110
870.010	0.0160943
870.088	0.0161486
870.166	0.0161385
870.244	0.0161368
870.322	0.0160934
870.400	0.0160115
870.478	0.0162446
870.557	0.0161724
870.635	0.0160562
870.713	0.0161043
870.791	0.0163331
870.869	0.0161768
870.947	0.0161855
871.025	0.0162096
871.103	0.0162055
871.182	0.0162408
871.260	0.0161678
871.338	0.0161994
871.416	0.0162395
871.494	0.0162087
871.572	0.0162940
871.650	0.0162556
871.728	0.0162788
871.807	0.0162846
871.885	0.0164304
871.963	0.0162116
872.041	0.0164902
872.119	0.0164486
872.197	0.0163042
872.275	0.0163339
872.353	0.0164198
872.432	0.0163168
872.510	0.0165541
872.588	0.0164267
872.666	0.0164381
872.744	0.0163422
872.822	0.0163705
872.900	0.0162410
872.978	0.0162513
873.057	0.0162061
873.135	0.0162746
873.213	0.0163447
873.291	0.0162319
873.369	0.0162460
873.447	0.0161468
873.525	0.0163040
873.603	0.0160971
873.682	0.0161324
873.760	0.0160978
873.838	0.0160022
873.916	0.0160595
873.994	0.0161132
874.072	0.0160613
874.150	0.0160171
874.228	0.0160004
874.307	0.0160960
874.385	0.0159850
874.463	0.0157874
874.541	0.0159446
874.619	0.0160406
874.697	0.0159278
874.775	0.0159783
874.853	0.0158797
874.932	0.0159172
875.010	0.0157987
875.088	0.0159114
875.166	0.0160166
875.244	0.0159077
875.322	0.0158799
875.400	0.0160201
875.478	0.0159896
875.557	0.0159192
875.635	0.0159666
875.713	0.0161338
875.791	0.0160778
875.869	0.0161157
875.947	0.0162250
876.025	0.0160777
876.103	0.0161069
876.182	0.0162903
876.260	0.0163752
876.338	0.0162022
876.416	0.0162716
876.494	0.0163385
876.572	0.0163107
876.650	0.0162242
876.728	0.0162579
876.807	0.0163143
876.885	0.0161915
876.963	0.0162018
877.041	0.0161200
877.119	0.0162367
877.197	0.0163107
877.275	0.0162374
877.353	0.0162421
877.432	0.0162512
877.510	0.0160854
877.588	0.0162071
877.666	0.0161824
877.744	0.0162255
877.822	0.0162331
877.900	0.0162954
877.978	0.0162868
878.057	0.0162864
878.135	0.0162571
878.213	0.0162710
878.291	0.0163338
878.369	0.0162646
878.447	0.0162996
878.525	0.0163156
878.603	0.0163544
878.682	0.0163514
878.760	0.0163414
878.838	0.0163213
878.916	0.0163771
878.994	0.0163382
879.072	0.0162805
879.150	0.0163354
879.228	0.0162500
879.307	0.0164203
879.385	0.0162075
879.463	0.0162222
879.541	0.0161441
879.619	0.0160461
879.697	0.0162244
879.775	0.0163117
879.853	0.0159608
879.932	0.0162434
880.010	0.0161546
880.088	0.0161422
880.166	0.0161131
880.244	0.0159922
880.322	0.0159824
880.400	0.0159061
880.478	0.0161420
880.557	0.0160177
880.635	0.0159898
880.713	0.0159523
880.791	0.0159971
880.869	0.0159747
880.947	0.0161495
881.025	0.0159930
881.103	0.0159882
881.182	0.0158595
881.260	0.0159689
881.338	0.0161429
881.416	0.0159655
881.494	0.0161742
881.572	0.0161509
881.650	0.0162063
881.728	0.0160947
881.807	0.0162349
881.885	0.0162916
881.963	0.0161906
882.041	0.0161922
882.119	0.0162191
882.197	0.0165635
882.275	0.0165623
882.353	0.0164422
882.432	0.0163478
882.510	0.0164851
882.588	0.0164641
882.666	0.0165512
882.744	0.0165529
882.822	0.0164340
882.900	0.0163864
882.978	0.0163647
883.057	0.0164555
883.135	0.0164603
883.213	0.0164352
883.291	0.0163761
883.369	0.0164481
883.447	0.0163163
883.525	0.0161329
883.603	0.0162634
883.682	0.0161825
883.760	0.0161833
883.838	0.0161726
883.916	0.0162661
883.994	0.0161431
884.072	0.0161807
884.150	0.0160002
884.228	0.0161378
884.307	0.0161686
884.385	0.0160968
884.463	0.0160659
884.541	0.0160126
884.619	0.0161227
884.697	0.0160899
884.775	0.0161008
884.853	0.0161243
884.932	0.0161723
885.010	0.0160994
885.088	0.0161655
885.166	0.0162757
885.244	0.0161719
885.322	0.0161677
885.400	0.0161843
885.478	0.0161526
885.557	0.0163103
885.635	0.0162535
885.713	0.0162388
885.791	0.0163000
885.869	0.0162152
885.947	0.0162254
886.025	0.0163107
886.103	0.0163358
886.182	0.0162063
886.260	0.0161018
886.338	0.0163286
886.416	0.0162334
886.494	0.0161854
886.572	0.0161373
886.650	0.0161284
886.728	0.0160233
886.807	0.0161120
886.885	0.0160749
886.963	0.0160300
887.041	0.0159814
887.119	0.0160323
887.197	0.0160777
887.275	0.0159229
887.353	0.0159375
887.432	0.0159981
887.510	0.0160365
887.588	0.0159333
887.666	0.0160925
887.744	0.0161505
887.822	0.0160828
887.900	0.0161123
887.978	0.0159595
888.057	0.0161551
888.135	0.0162893
888.213	0.0162727
888.291	0.0161449
888.369	0.0162870
888.447	0.0164235
888.525	0.0163081
888.603	0.0163576
888.682	0.0161708
888.760	0.0162337
888.838	0.0162761
888.916	0.0162817
888.994	0.0162702
889.072	0.0161116
889.150	0.0162917
889.228	0.0161533
889.307	0.0161461
889.385	0.0162925
889.463	0.0161874
889.541	0.0160046
889.619	0.0161450
889.697	0.0161192
889.775	0.0161797
889.853	0.0161312
889.932	0.0160559
890.010	0.0160725
890.088	0.0162467
890.166	0.0161024
890.244	0.0160579
890.322	0.0160968
890.400	0.0161639
890.478	0.0160032
890.557	0.0160973
890.635	0.0161122
890.713	0.0162634
890.791	0.0163058
890.869	0.0162578
890.947	0.0161691
891.025	0.0162409
891.103	0.0162445
891.182	0.0162773
891.260	0.0160867
891.338	0.0162636
891.416	0.0162494
891.494	0.0161674
891.572	0.0162144
891.650	0.0161046
891.728	0.0160965
891.807	0.0162430
891.885	0.0162217
891.963	0.0159761
892.041	0.0158735
892.119	0.0161021
892.197	0.0159966
892.275	0.0158055
892.353	0.0159225
892.432	0.0159932
892.510	0.0159158
892.588	0.0158612
892.666	0.0157933
892.744	0.0157255
892.822	0.0157778
892.900	0.0158251
892.978	0.0158378
893.057	0.0159030
893.135	0.0159225
893.213	0.0158082
893.291	0.0159003
893.369	0.0158356
893.447	0.0160055
893.525	0.0161278
893.603	0.0160677
893.682	0.0162443
893.760	0.0162884
893.838	0.0163936
893.916	0.0163358
893.994	0.0162303
894.072	0.0164342
894.150	0.0163987
894.228	0.0164751
894.307	0.0164064
894.385	0.0165051
894.463	0.0164534
894.541	0.0166465
894.619	0.0165442
894.697	0.0166032
894.775	0.0166302
894.853	0.0165705
894.932	0.0167104
895.010	0.0165439
895.088	0.0165513
895.166	0.0166115
895.244	0.0165697
895.322	0.0165792
895.400	0.0165458
895.478	0.0164381
895.557	0.0163400
895.635	0.0165380
895.713	0.0163117
895.791	0.0163296
895.869	0.0162845
895.947	0.0162505
896.025	0.0163182
896.103	0.0162397
896.182	0.0163456
896.260	0.0162928
896.338	0.0162817
896.416	0.0162412
896.494	0.0163883
896.572	0.0162529
896.650	0.0162584
896.728	0.0161616
896.807	0.0160923
896.885	0.0163084
896.963	0.0161932
897.041	0.0161523
897.119	0.0161785
897.197	0.0162216
897.275	0.0161433
897.353	0.0161622
897.432	0.0160844
897.510	0.0160748
897.588	0.0160828
897.666	0.0160301
897.744	0.0160545
897.822	0.0160849
897.900	0.0161812
897.978	0.0160645
898.057	0.0161035
898.135	0.0159703
898.213	0.0161543
898.291	0.0162969
898.369	0.0161375
898.447	0.0162309
898.525	0.0163375
898.603	0.0163876
898.682	0.0163393
898.760	0.0164023
898.838	0.0163450
898.916	0.0164869
898.994	0.0164437
899.072	0.0162015
899.150	0.0161320
899.228	0.0163567
899.307	0.0163798
899.385	0.0161475
899.463	0.0163939
899.541	0.0162582
899.619	0.0162732
899.697	0.0162315
899.775	0.0163389
899.853	0.0163688
899.932	0.0163497
900.010	0.0162101
900.088	0.0163334
900.166	0.0163140
900.244	0.0163367
900.322	0.0163676
900.400	0.0164772
900.478	0.0163376
900.557	0.0162891
900.635	0.0161614
900.713	0.0161182
900.791	0.0161600
900.869	0.0161469
900.947	0.0163744
901.025	0.0162498
901.103	0.0161803
901.182	0.0160442
901.260	0.0160442
901.338	0.0161720
901.416	0.0159435
901.494	0.0160892
901.572	0.0160078
901.650	0.0160941
901.728	0.0161040
901.807	0.0160091
901.885	0.0159045
901.963	0.0160178
902.041	0.0160244
902.119	0.0160311
902.197	0.0160715
902.275	0.0160789
902.353	0.0160522
902.432	0.0160777
902.510	0.0161600
902.588	0.0158727
902.666	0.0159984
902.744	0.0161425
902.822	0.0160624
902.900	0.0158586
902.978	0.0160175
903.057	0.0161090
903.135	0.0160830
903.213	0.0160464
903.291	0.0160191
903.369	0.0160423
903.447	0.0161253
903.525	0.0159948
903.603	0.0159889
903.682	0.0161795
903.760	0.0161509
903.838	0.0162308
903.916	0.0162534
903.994	0.0162199
904.072	0.0161703
904.150	0.0163689
904.228	0.0163148
904.307	0.0164705
904.385	0.0163943
904.463	0.0162829
904.541	0.0164395
904.619	0.0164837
904.697	0.0162967
904.775	0.0164606
904.853	0.0164536
904.932	0.0163470
905.010	0.0163176
905.088	0.0162347
905.166	0.0163043
905.244	0.0163535
905.322	0.0162069
905.400	0.0160722
905.478	0.0162036
905.557	0.0162389
905.635	0.0160458
905.713	0.0161050
905.791	0.0161758
905.869	0.0160956
905.947	0.0161092
906.025	0.0161024
906.103	0.0160671
906.182	0.0160168
906.260	0.0160093
906.338	0.0160725
906.416	0.0160485
906.494	0.0160298
906.572	0.0162628
906.650	0.0160789
906.728	0.0160474
906.807	0.0158778
906.885	0.0159076
906.963	0.0160587
907.041	0.0161280
907.119	0.0158984
907.197	0.0160192
907.275	0.0159292
907.353	0.0159756
907.432	0.0159364
907.510	0.0159106
907.588	0.0159768
907.666	0.0160470
907.744	0.0161494
907.822	0.0161892
907.900	0.0162730
907.978	0.0161764
908.057	0.0161156
908.135	0.0163058
908.213	0.0163543
908.291	0.0163422
908.369	0.0164052
908.447	0.0163599
908.525	0.0163023
908.603	0.0163686
908.682	0.0163533
908.760	0.0163387
908.838	0.0163571
908.916	0.0164163
908.994	0.0161977
909.072	0.0163479
909.150	0.0163982
909.228	0.0162659
909.307	0.0162155
909.385	0.0161619
909.463	0.0163232
909.541	0.0162497
909.619	0.0160863
909.697	0.0162504
909.775	0.0160332
909.853	0.0161035
909.932	0.0161294
910.010	0.0161338
910.088	0.0160764
910.166	0.0161458
910.244	0.0161994
910.322	0.0160798
910.400	0.0161720
910.478	0.0161854
910.557	0.0162592
910.635	0.0163074
910.713	0.0161504
910.791	0.0159702
910.869	0.0162309
910.947	0.0163029
911.025	0.0162082
911.103	0.0161716
911.182	0.0160438
911.260	0.0160556
911.338	0.0161156
911.416	0.0160759
911.494	0.0158996
911.572	0.0160095
911.650	0.0161126
911.728	0.0159211
911.807	0.0159011
911.885	0.0158432
911.963	0.0158754
912.041	0.0159147
912.119	0.0159793
912.197	0.0158360
912.275	0.0161045
912.353	0.0159186
912.432	0.0159766
912.510	0.0160849
912.588	0.0161720
912.666	0.0162026
912.744	0.0161847
912.822	0.0162182
912.900	0.0162772
912.978	0.0162655
913.057	0.0162845
913.135	0.0164233
913.213	0.0161983
913.291	0.0162426
913.369	0.0160795
913.447	0.0161015
913.525	0.0159860
913.603	0.0159792
913.682	0.0159988
913.760	0.0159757
913.838	0.0160538
913.916	0.0160405
913.994	0.0160050
914.072	0.0160137
914.150	0.0161362
914.228	0.0162286
914.307	0.0163073
914.385	0.0163863
914.463	0.0164272
914.541	0.0162769
914.619	0.0164442
914.697	0.0163915
914.775	0.0165375
914.853	0.0163454
914.932	0.0162929
915.010	0.0162475
915.088	0.0162183
915.166	0.0161888
915.244	0.0161354
915.322	0.0160596
915.400	0.0161619
915.478	0.0161889
915.557	0.0162045
915.635	0.0161107
915.713	0.0160537
915.791	0.0160599
915.869	0.0162242
915.947	0.0161134
916.025	0.0160682
916.103	0.0159541
916.182	0.0158847
916.260	0.0160384
916.338	0.0159419
916.416	0.0161129
916.494	0.0158891
916.572	0.0159013
916.650	0.0161002
916.728	0.0161059
916.807	0.0159021
916.885	0.0160017
916.963	0.0162038
917.041	0.0162443
917.119	0.0162428
917.197	0.0163161
917.275	0.0162721
917.353	0.0161938
917.432	0.0163177
917.510	0.0161531
917.588	0.0161863
917.666	0.0161835
917.744	0.0160690
917.822	0.0159588
917.900	0.0158815
917.978	0.0159140
918.057	0.0159464
918.135	0.0158541
918.213	0.0159949
918.291	0.0159213
918.369	0.0160018
918.447	0.0159913
918.525	0.0159677
918.603	0.0160087
918.682	0.0161169
918.760	0.0162254
918.838	0.0161465
918.916	0.0162276
918.994	0.0162613
919.072	0.0161536
919.150	0.0163313
919.228	0.0162796
919.307	0.0162512
919.385	0.0162250
919.463	0.0162751
919.541	0.0161245
919.619	0.0160156
919.697	0.0161259
919.775	0.0161952
919.853	0.0159357
919.932	0.0159053
920.010	0.0159409
920.088	0.0158923
920.166	0.0159449
920.244	0.0159386
920.322	0.0160498
920.400	0.0161350
920.478	0.0160180
920.557	0.0160707
920.635	0.0162739
920.713	0.0162660
920.791	0.0163326
920.869	0.0163874
920.947	0.0163733
921.025	0.0163074
921.103	0.0163953
921.182	0.0164336
921.260	0.0165251
921.338	0.0164660
921.416	0.0165852
921.494	0.0163913
921.572	0.0161935
921.650	0.0164188
921.728	0.0163921
921.807	0.0163081
921.885	0.0162897
921.963	0.0162334
922.041	0.0163248
922.119	0.0160724
922.197	0.0161164
922.275	0.0161798
922.353	0.0160563
922.432	0.0160079
922.510	0.0160141
922.588	0.0160187
922.666	0.0158157
922.744	0.0158864
922.822	0.0160331
922.900	0.0158873
922.978	0.0160625
923.057	0.0160692
923.135	0.0160381
923.213	0.0161758
923.291	0.0162272
923.369	0.0161346
923.447	0.0161752
923.525	0.0161596
923.603	0.0162816
923.682	0.0162177
923.760	0.0164083
923.838	0.0162738
923.916	0.0163420
923.994	0.0164046
924.072	0.0162525
924.150	0.0161254
924.228	0.0162367
924.307	0.0162122
924.385	0.0160709
924.463	0.0160584
924.541	0.0161622
924.619	0.0160942
924.697	0.0159225
924.775	0.0160706
924.853	0.0160228
924.932	0.0158885
925.010	0.0159743
925.088	0.0160414
925.166	0.0160550
925.244	0.0160703
925.322	0.0160773
925.400	0.0162272
925.478	0.0161493
925.557	0.0162612
925.635	0.0163107
925.713	0.0162120
925.791	0.0162282
925.869	0.0163101
925.947	0.0162053
926.025	0.0162100
926.103	0.0162573
926.182	0.0162135
926.260	0.0161282
926.338	0.0162157
926.416	0.0161179
926.494	0.0162910
926.572	0.0161356
926.650	0.0161749
926.728	0.0162481
926.807	0.0160999
926.885	0.0162283
926.963	0.0162734
927.041	0.0162228
927.119	0.0162312
927.197	0.0162318
927.275	0.0163900
927.353	0.0162900
927.432	0.0162608
927.510	0.0163759
927.588	0.0163283
927.666	0.0164021
927.744	0.0162865
927.822	0.0163333
927.900	0.0163708
927.978	0.0163443
928.057	0.0161687
928.135	0.0163529
928.213	0.0163869
928.291	0.0163088
928.369	0.0163313
928.447	0.0162096
928.525	0.0160162
928.603	0.0161799
928.682	0.0161578
928.760	0.0159383
928.838	0.0160503
928.916	0.0161954
928.994	0.0159996
929.072	0.0159333
929.150	0.0160406
929.228	0.0159392
929.307	0.0160356
929.385	0.0159082
929.463	0.0160571
929.541	0.0161874
929.619	0.0160782
929.697	0.0160516
929.775	0.0161215
929.853	0.0162021
929.932	0.0161862
930.010	0.0162445
930.088	0.0162047
930.166	0.0162639
930.244	0.0161841
930.322	0.0161989
930.400	0.0162786
930.478	0.0163174
930.557	0.0162589
930.635	0.0161687
930.713	0.0161974
930.791	0.0159692
930.869	0.0160084
930.947	0.0161481
931.025	0.0160011
931.103	0.0161062
931.182	0.0160717
931.260	0.0158858
931.338	0.0160996
931.416	0.0161991
931.494	0.0159956
931.572	0.0161695
931.650	0.0162650
931.728	0.0160138
931.807	0.0160989
931.885	0.0161547
931.963	0.0161832
932.041	0.0162998
932.119	0.0161579
932.197	0.0162107
932.275	0.0161776
932.353	0.0162139
932.432	0.0162120
932.510	0.0161987
932.588	0.0161031
932.666	0.0159068
932.744	0.0161108
932.822	0.0160975
932.900	0.0158940
932.978	0.0158810
933.057	0.0158499
933.135	0.0159670
933.213	0.0159995
933.291	0.0160574
933.369	0.0160096
933.447	0.0159372
933.525	0.0160048
933.603	0.0160786
933.682	0.0160707
933.760	0.0160802
933.838	0.0161581
933.916	0.0162064
933.994	0.0162122
934.072	0.0161742
934.150	0.0163005
934.228	0.0162344
934.307	0.0162787
934.385	0.0164024
934.463	0.0164459
934.541	0.0163674
934.619	0.0163315
934.697	0.0163802
934.775	0.0164112
934.853	0.0163852
934.932	0.0164803
935.010	0.0162505
935.088	0.0163055
935.166	0.0162299
935.244	0.0161662
935.322	0.0161070
935.400	0.0161446
935.478	0.0161005
935.557	0.0160732
935.635	0.0160195
935.713	0.0161486
935.791	0.0160584
935.869	0.0159763
935.947	0.0161433
936.025	0.0161606
936.103	0.0159923
936.182	0.0161169
936.260	0.0162524
936.338	0.0161664
936.416	0.0162117
936.494	0.0161167
936.572	0.0161026
936.650	0.0161906
936.728	0.0160229
936.807	0.0159461
936.885	0.0160439
936.963	0.0161241
937.041	0.0159723
937.119	0.0159560
937.197	0.0158526
937.275	0.0159107
937.353	0.0161722
937.432	0.0160483
937.510	0.0159119
937.588	0.0159441
937.666	0.0159232
937.744	0.0159538
937.822	0.0159306
937.900	0.0159255
937.978	0.0161333
938.057	0.0161105
938.135	0.0160678
938.213	0.0160083
938.291	0.0161461
938.369	0.0160596
938.447	0.0160484
938.525	0.0162207
938.603	0.0161382
938.682	0.0162080
938.760	0.0162284
938.838	0.0161272
938.916	0.0161798
938.994	0.0162638
939.072	0.0160686
939.150	0.0162006
939.228	0.0161556
939.307	0.0163395
939.385	0.0162726
939.463	0.0161840
939.541	0.0162561
939.619	0.0162332
939.697	0.0162688
939.775	0.0162032
939.853	0.0161502
939.932	0.0161996
940.010	0.0160480
940.088	0.0160938
940.166	0.0161793
940.244	0.0161993
940.322	0.0162093
940.400	0.0161958
940.478	0.0162283
940.557	0.0163858
940.635	0.0161668
940.713	0.0162333
940.791	0.0162392
940.869	0.0163387
940.947	0.0162985
941.025	0.0162568
941.103	0.0162595
941.182	0.0162593
941.260	0.0162150
941.338	0.0161768
941.416	0.0162720
941.494	0.0162613
941.572	0.0161464
941.650	0.0163725
941.728	0.0162643
941.807	0.0162547
941.885	0.0162210
941.963	0.0163380
942.041	0.0162229
942.119	0.0162960
942.197	0.0162856
942.275	0.0160650
942.353	0.0161521
942.432	0.0162157
942.510	0.0162583
942.588	0.0160960
942.666	0.0161899
942.744	0.0161629
942.822	0.0161057
942.900	0.0161150
942.978	0.0161092
943.057	0.0161130
943.135	0.0160633
943.213	0.0161825
943.291	0.0160110
943.369	0.0160703
943.447	0.0161279
943.525	0.0160840
943.603	0.0159980
943.682	0.0160442
943.760	0.0160635
943.838	0.0159440
943.916	0.0159141
943.994	0.0160528
944.072	0.0159750
944.150	0.0160049
944.228	0.0160004
944.307	0.0160640
944.385	0.0160564
944.463	0.0161063
944.541	0.0162029
944.619	0.0161583
944.697	0.0162893
944.775	0.0163554
944.853	0.0162725
944.932	0.0162836
945.010	0.0162594
945.088	0.0164085
945.166	0.0162921
945.244	0.0163760
945.322	0.0163745
945.400	0.0164755
945.478	0.0163709
945.557	0.0162894
945.635	0.0161854
945.713	0.0163023
945.791	0.0164243
945.869	0.0163127
945.947	0.0161839
946.025	0.0161844
946.103	0.0162392
946.182	0.0162252
946.260	0.0161713
946.338	0.0161457
946.416	0.0162330
946.494	0.0162824
946.572	0.0163290
946.650	0.0161255
946.728	0.0163148
946.807	0.0163276
946.885	0.0163129
946.963	0.0163659
947.041	0.0163589
947.119	0.0163997
947.197	0.0163625
947.275	0.0162601
947.353	0.0163202
947.432	0.0164278
947.510	0.0163454
947.588	0.0162352
947.666	0.0163474
947.744	0.0163271
947.822	0.0163007
947.900	0.0163419
947.978	0.0162958
948.057	0.0162434
948.135	0.0162462
948.213	0.0162944
948.291	0.0162137
948.369	0.0162067
948.447	0.0160686
948.525	0.0160997
948.603	0.0161523
948.682	0.0161672
948.760	0.0160718
948.838	0.0160258
948.916	0.0159620
948.994	0.0159269
949.072	0.0161747
949.150	0.0160673
949.228	0.0160069
949.307	0.0160533
949.385	0.0160618
949.463	0.0159926
949.541	0.0161111
949.619	0.0161379
949.697	0.0161331
949.775	0.0158839
949.853	0.0160965
949.932	0.0159464
950.010	0.0160519
950.088	0.0160014
950.166	0.0160686
950.244	0.0160712
950.322	0.0160213
950.400	0.0158862
950.478	0.0157702
950.557	0.0158691
950.635	0.0159877
950.713	0.0158145
950.791	0.0159731
950.869	0.0159605
950.947	0.0160021
951.025	0.0159679
951.103	0.0159893
951.182	0.0159589
951.260	0.0160812
951.338	0.0160069
951.416	0.0159491
951.494	0.0162372
951.572	0.0161791
951.650	0.0161242
951.728	0.0161541
951.807	0.0161938
951.885	0.0161783
951.963	0.0161886
952.041	0.0160535
952.119	0.0160007
952.197	0.0161574
952.275	0.0162275
952.353	0.0162458
952.432	0.0161230
952.510	0.0161469
952.588	0.0161625
952.666	0.0160219
952.744	0.0161320
952.822	0.0161494
952.900	0.0161591
952.978	0.0162547
953.057	0.0161852
953.135	0.0160735
953.213	0.0162135
953.291	0.0160669
953.369	0.0161635
953.447	0.0162417
953.525	0.0161481
953.603	0.0162257
953.682	0.0160838
953.760	0.0161329
953.838	0.0162521
953.916	0.0160471
953.994	0.0162964
954.072	0.0163413
954.150	0.0163859
954.228	0.0160471
954.307	0.0161327
954.385	0.0162568
954.463	0.0160702
954.541	0.0160394
954.619	0.0160947
954.697	0.0161602
954.775	0.0161575
954.853	0.0160825
954.932	0.0159840
955.010	0.0160476
955.088	0.0159464
955.166	0.0161168
955.244	0.0160541
955.322	0.0160255
955.400	0.0159716
955.478	0.0160658
955.557	0.0160799
955.635	0.0159141
955.713	0.0160189
955.791	0.0160661
955.869	0.0159325
955.947	0.0159564
956.025	0.0160797
956.103	0.0161710
956.182	0.0160860
956.260	0.0159380
956.338	0.0160436
956.416	0.0160461
956.494	0.0158944
956.572	0.0159162
956.650	0.0160609
956.728	0.0160166
956.807	0.0159850
956.885	0.0160442
956.963	0.0159912
957.041	0.0160040
957.119	0.0159374
957.197	0.0159902
957.275	0.0160614
957.353	0.0161023
957.432	0.0160713
957.510	0.0161018
957.588	0.0161495
957.666	0.0160479
957.744	0.0161399
957.822	0.0160979
957.900	0.0161887
957.978	0.0160870
958.057	0.0163139
958.135	0.0160955
958.213	0.0160691
958.291	0.0162113
958.369	0.0160380
958.447	0.0160365
958.525	0.0161487
958.603	0.0163738
958.682	0.0161825
958.760	0.0161815
958.838	0.0160906
958.916	0.0162448
958.994	0.0162822
959.072	0.0161061
959.150	0.0163316
959.228	0.0162745
959.307	0.0160909
959.385	0.0160839
959.463	0.0161223
959.541	0.0161034
959.619	0.0160528
959.697	0.0161649
959.775	0.0161478
959.853	0.0161748
959.932	0.0160587
960.010	0.0161687
960.088	0.0161742
960.166	0.0161566
960.244	0.0161842
960.322	0.0161071
960.400	0.0161753
960.478	0.0161485
960.557	0.0160707
960.635	0.0162108
960.713	0.0160894
960.791	0.0161823
960.869	0.0161140
960.947	0.0161781
961.025	0.0160037
961.103	0.0162476
961.182	0.0162975
961.260	0.0162034
961.338	0.0161700
961.416	0.0162297
961.494	0.0161449
961.572	0.0162274
961.650	0.0163767
961.728	0.0163716
961.807	0.0162738
961.885	0.0162038
961.963	0.0162964
962.041	0.0163145
962.119	0.0162496
962.197	0.0161694
962.275	0.0162727
962.353	0.0162575
962.432	0.0161859
962.510	0.0164571
962.588	0.0163210
962.666	0.0162356
962.744	0.0163401
962.822	0.0160942
962.900	0.0162106
962.978	0.0160777
963.057	0.0161640
963.135	0.0159995
963.213	0.0159853
963.291	0.0160280
963.369	0.0160148
963.447	0.0160310
963.525	0.0157447
963.603	0.0159786
963.682	0.0159105
963.760	0.0159618
963.838	0.0159968
963.916	0.0160348
963.994	0.0160442
964.072	0.0159068
964.150	0.0160001
964.228	0.0162841
964.307	0.0161327
964.385	0.0161337
964.463	0.0161784
964.541	0.0162322
964.619	0.0161753
964.697	0.0162389
964.775	0.0162589
964.853	0.0162963
964.932	0.0160455
965.010	0.0161629
965.088	0.0161897
965.166	0.0160263
965.244	0.0161916
965.322	0.0163177
965.400	0.0162154
965.478	0.0161436
965.557	0.0162096
965.635	0.0162375
965.713	0.0163059
965.791	0.0161169
965.869	0.0162069
965.947	0.0162141
966.025	0.0162211
966.103	0.0162294
966.182	0.0160419
966.260	0.0162325
966.338	0.0161599
966.416	0.0162149
966.494	0.0161556
966.572	0.0162386
966.650	0.0161359
966.728	0.0160777
966.807	0.0162907
966.885	0.0160954
966.963	0.0161376
967.041	0.0162266
967.119	0.0161220
967.197	0.0162408
967.275	0.0161065
967.353	0.0161988
967.432	0.0163397
967.510	0.0162644
967.588	0.0162143
967.666	0.0162206
967.744	0.0162206
967.822	0.0164211
967.900	0.0162532
967.978	0.0163487
968.057	0.0162212
968.135	0.0162926
968.213	0.0162730
968.291	0.0161817
968.369	0.0162376
968.447	0.0162387
968.525	0.0164210
968.603	0.0162563
968.682	0.0162883
968.760	0.0161819
968.838	0.0161935
968.916	0.0160017
968.994	0.0162080
969.072	0.0159505
969.150	0.0159288
969.228	0.0159457
969.307	0.0158992
969.385	0.0159536
969.463	0.0160261
969.541	0.0159337
969.619	0.0159257
969.697	0.0159599
969.775	0.0160289
969.853	0.0160467
969.932	0.0161538
