05/20/2022	21:17:34	Ver.	4.1	UNKNOWN
Optical Delay	599.975067	Delta X		0.078125	Sweeps	1	Scan Rate	0/0
Coordinates	Axis 1	NaN	Axis 2	NaN	Axis 3	NaN	Axis 4	NaN	Axis 5	NaN	Axis 6	0.000000
TX Power	0.000000	RX Power	0.000000

599.975	0.0154542
600.053	0.0155032
600.131	0.0155022
600.209	0.0156416
600.288	0.0156818
600.366	0.0154954
600.444	0.0156996
600.522	0.0156484
600.600	0.0154628
600.678	0.0155493
600.756	0.0156794
600.834	0.0156276
600.913	0.0156028
600.991	0.0155833
601.069	0.0155611
601.147	0.0156021
601.225	0.0156152
601.303	0.0155065
601.381	0.0156226
601.459	0.0155566
601.538	0.0154824
601.616	0.0154301
601.694	0.0154563
601.772	0.0156880
601.850	0.0155547
601.928	0.0155194
602.006	0.0154125
602.084	0.0154422
602.163	0.0155531
602.241	0.0154858
602.319	0.0155341
602.397	0.0154850
602.475	0.0156110
602.553	0.0155547
602.631	0.0156194
602.709	0.0155142
602.788	0.0155700
602.866	0.0155286
602.944	0.0155557
603.022	0.0156065
603.100	0.0154978
603.178	0.0155632
603.256	0.0155565
603.334	0.0156805
603.413	0.0154543
603.491	0.0154761
603.569	0.0156628
603.647	0.0156548
603.725	0.0155354
603.803	0.0156881
603.881	0.0157521
603.959	0.0157122
604.038	0.0156339
604.116	0.0157411
604.194	0.0156882
604.272	0.0156720
604.350	0.0155993
604.428	0.0156412
604.506	0.0156190
604.584	0.0156769
604.663	0.0157105
604.741	0.0156423
604.819	0.0156219
604.897	0.0155937
604.975	0.0156042
605.053	0.0156742
605.131	0.0155946
605.209	0.0157286
605.288	0.0157008
605.366	0.0157615
605.444	0.0156069
605.522	0.0156730
605.600	0.0156517
605.678	0.0156521
605.756	0.0155772
605.834	0.0155927
605.913	0.0155527
605.991	0.0155737
606.069	0.0154134
606.147	0.0156250
606.225	0.0156504
606.303	0.0154970
606.381	0.0155527
606.459	0.0156699
606.538	0.0156252
606.616	0.0156913
606.694	0.0154655
606.772	0.0155184
606.850	0.0155790
606.928	0.0156228
607.006	0.0154897
607.084	0.0155439
607.163	0.0156219
607.241	0.0154642
607.319	0.0155195
607.397	0.0154414
607.475	0.0154503
607.553	0.0153885
607.631	0.0155057
607.709	0.0155691
607.788	0.0155639
607.866	0.0155019
607.944	0.0154915
608.022	0.0154486
608.100	0.0154573
608.178	0.0154996
608.256	0.0155118
608.334	0.0155209
608.413	0.0155437
608.491	0.0152700
608.569	0.0154533
608.647	0.0155006
608.725	0.0154463
608.803	0.0154344
608.881	0.0154103
608.959	0.0153636
609.038	0.0154564
609.116	0.0153629
609.194	0.0154493
609.272	0.0155069
609.350	0.0153494
609.428	0.0154135
609.506	0.0152390
609.584	0.0152498
609.663	0.0153918
609.741	0.0155341
609.819	0.0154874
609.897	0.0154855
609.975	0.0153635
610.053	0.0155734
610.131	0.0155558
610.209	0.0154158
610.288	0.0153624
610.366	0.0154725
610.444	0.0154556
610.522	0.0154015
610.600	0.0154322
610.678	0.0154597
610.756	0.0154766
610.834	0.0154559
610.913	0.0153867
610.991	0.0154088
611.069	0.0155622
611.147	0.0154627
611.225	0.0155563
611.303	0.0154338
611.381	0.0153838
611.459	0.0154360
611.538	0.0154306
611.616	0.0154759
611.694	0.0154823
611.772	0.0154378
611.850	0.0154729
611.928	0.0154559
612.006	0.0154861
612.084	0.0154473
612.163	0.0154794
612.241	0.0155322
612.319	0.0155350
612.397	0.0154933
612.475	0.0154743
612.553	0.0154953
612.631	0.0155559
612.709	0.0154333
612.788	0.0154285
612.866	0.0154226
612.944	0.0154391
613.022	0.0154897
613.100	0.0154338
613.178	0.0153308
613.256	0.0153149
613.334	0.0155125
613.413	0.0155225
613.491	0.0154362
613.569	0.0153685
613.647	0.0154092
613.725	0.0154932
613.803	0.0153330
613.881	0.0154047
613.959	0.0155098
614.038	0.0155431
614.116	0.0154986
614.194	0.0154360
614.272	0.0154436
614.350	0.0155215
614.428	0.0154256
614.506	0.0154696
614.584	0.0154363
614.663	0.0154018
614.741	0.0154454
614.819	0.0155421
614.897	0.0155611
614.975	0.0153460
615.053	0.0153142
615.131	0.0153439
615.209	0.0153928
615.288	0.0154533
615.366	0.0155720
615.444	0.0152479
615.522	0.0152365
615.600	0.0154323
615.678	0.0153104
615.756	0.0153708
615.834	0.0153132
615.913	0.0153134
615.991	0.0152341
616.069	0.0153038
616.147	0.0153247
616.225	0.0153421
616.303	0.0153539
616.381	0.0153119
616.459	0.0151318
616.538	0.0151633
616.616	0.0152197
616.694	0.0153594
616.772	0.0152267
616.850	0.0151988
616.928	0.0152953
617.006	0.0151448
617.084	0.0152185
617.163	0.0152565
617.241	0.0151710
617.319	0.0151248
617.397	0.0152681
617.475	0.0151485
617.553	0.0152469
617.631	0.0152271
617.709	0.0151877
617.788	0.0152242
617.866	0.0151331
617.944	0.0152570
618.022	0.0152974
618.100	0.0153779
618.178	0.0152106
618.256	0.0151619
618.334	0.0152291
618.413	0.0151978
618.491	0.0152180
618.569	0.0151963
618.647	0.0152149
618.725	0.0153458
618.803	0.0154024
618.881	0.0152444
618.959	0.0153361
619.038	0.0151727
619.116	0.0154587
619.194	0.0153089
619.272	0.0153012
619.350	0.0153469
619.428	0.0152966
619.506	0.0152466
619.584	0.0153374
619.663	0.0154534
619.741	0.0154063
619.819	0.0153764
619.897	0.0153104
619.975	0.0153065
620.053	0.0153756
620.131	0.0153175
620.209	0.0153785
620.288	0.0152402
620.366	0.0153061
620.444	0.0153616
620.522	0.0152808
620.600	0.0153414
620.678	0.0152833
620.756	0.0153303
620.834	0.0152172
620.913	0.0150943
620.991	0.0153786
621.069	0.0153823
621.147	0.0152988
621.225	0.0153944
621.303	0.0152590
621.381	0.0153628
621.459	0.0153799
621.538	0.0154053
621.616	0.0153296
621.694	0.0153796
621.772	0.0153582
621.850	0.0154659
621.928	0.0154317
622.006	0.0154687
622.084	0.0155595
622.163	0.0155461
622.241	0.0153128
622.319	0.0154917
622.397	0.0155576
622.475	0.0155092
622.553	0.0155032
622.631	0.0155930
622.709	0.0155698
622.788	0.0154668
622.866	0.0154483
622.944	0.0155265
623.022	0.0155074
623.100	0.0154377
623.178	0.0154989
623.256	0.0155962
623.334	0.0155648
623.413	0.0155590
623.491	0.0154527
623.569	0.0154608
623.647	0.0154653
623.725	0.0157305
623.803	0.0156937
623.881	0.0155556
623.959	0.0155399
624.038	0.0155707
624.116	0.0156612
624.194	0.0155846
624.272	0.0156379
624.350	0.0156396
624.428	0.0156517
624.506	0.0156467
624.584	0.0155779
624.663	0.0155719
624.741	0.0156365
624.819	0.0156540
624.897	0.0156854
624.975	0.0156440
625.053	0.0154991
625.131	0.0157907
625.209	0.0157449
625.288	0.0155777
625.366	0.0157005
625.444	0.0156751
625.522	0.0155622
625.600	0.0155730
625.678	0.0156764
625.756	0.0155721
625.834	0.0155892
625.913	0.0157351
625.991	0.0154723
626.069	0.0155430
626.147	0.0156899
626.225	0.0157070
626.303	0.0156729
626.381	0.0155521
626.459	0.0156010
626.538	0.0155206
626.616	0.0155273
626.694	0.0156353
626.772	0.0154558
626.850	0.0154587
626.928	0.0155074
627.006	0.0155978
627.084	0.0155574
627.163	0.0154728
627.241	0.0155489
627.319	0.0155714
627.397	0.0153977
627.475	0.0157336
627.553	0.0156062
627.631	0.0154153
627.709	0.0154725
627.788	0.0155515
627.866	0.0155439
627.944	0.0154919
628.022	0.0154648
628.100	0.0154301
628.178	0.0153838
628.256	0.0155161
628.334	0.0154585
628.413	0.0153735
628.491	0.0155051
628.569	0.0155505
628.647	0.0154704
628.725	0.0155188
628.803	0.0153773
628.881	0.0153844
628.959	0.0154643
629.038	0.0154288
629.116	0.0153775
629.194	0.0154570
629.272	0.0155920
629.350	0.0154660
629.428	0.0154332
629.506	0.0153925
629.584	0.0153162
629.663	0.0154903
629.741	0.0155503
629.819	0.0155800
629.897	0.0154930
629.975	0.0155733
630.053	0.0156803
630.131	0.0155660
630.209	0.0154562
630.288	0.0154276
630.366	0.0154093
630.444	0.0153914
630.522	0.0154816
630.600	0.0154237
630.678	0.0153629
630.756	0.0153835
630.834	0.0155027
630.913	0.0154182
630.991	0.0152327
631.069	0.0152860
631.147	0.0154776
631.225	0.0153983
631.303	0.0152979
631.381	0.0152637
631.459	0.0153434
631.538	0.0152165
631.616	0.0153799
631.694	0.0155358
631.772	0.0153915
631.850	0.0154401
631.928	0.0153230
632.006	0.0154556
632.084	0.0154189
632.163	0.0153987
632.241	0.0154769
632.319	0.0154683
632.397	0.0155013
632.475	0.0154559
632.553	0.0154919
632.631	0.0155859
632.709	0.0155027
632.788	0.0155434
632.866	0.0154667
632.944	0.0153046
633.022	0.0154214
633.100	0.0154050
633.178	0.0153500
633.256	0.0153963
633.334	0.0154051
633.413	0.0155157
633.491	0.0152962
633.569	0.0154364
633.647	0.0154980
633.725	0.0153519
633.803	0.0155161
633.881	0.0154323
633.959	0.0154184
634.038	0.0154857
634.116	0.0155802
634.194	0.0155056
634.272	0.0155991
634.350	0.0155283
634.428	0.0155478
634.506	0.0154710
634.584	0.0155978
634.663	0.0155560
634.741	0.0155466
634.819	0.0154525
634.897	0.0154100
634.975	0.0154894
635.053	0.0154273
635.131	0.0154794
635.209	0.0155147
635.288	0.0154567
635.366	0.0155508
635.444	0.0155020
635.522	0.0154513
635.600	0.0155052
635.678	0.0155399
635.756	0.0155015
635.834	0.0153381
635.913	0.0155044
635.991	0.0154541
636.069	0.0153898
636.147	0.0155198
636.225	0.0155871
636.303	0.0154507
636.381	0.0154628
636.459	0.0155800
636.538	0.0154298
636.616	0.0154382
636.694	0.0154903
636.772	0.0154372
636.850	0.0155698
636.928	0.0154408
637.006	0.0154745
637.084	0.0154553
637.163	0.0153927
637.241	0.0153243
637.319	0.0154453
637.397	0.0153993
637.475	0.0154181
637.553	0.0153751
637.631	0.0153029
637.709	0.0153340
637.788	0.0153194
637.866	0.0153840
637.944	0.0153719
638.022	0.0152589
638.100	0.0153449
638.178	0.0152730
638.256	0.0152317
638.334	0.0152962
638.413	0.0153157
638.491	0.0154080
638.569	0.0151885
638.647	0.0152994
638.725	0.0152658
638.803	0.0153864
638.881	0.0154243
638.959	0.0152778
639.038	0.0152488
639.116	0.0153037
639.194	0.0153721
639.272	0.0153494
639.350	0.0152468
639.428	0.0153181
639.506	0.0151624
639.584	0.0152866
639.663	0.0152482
639.741	0.0150800
639.819	0.0152902
639.897	0.0152477
639.975	0.0151828
640.053	0.0153359
640.131	0.0153998
640.209	0.0152171
640.288	0.0154296
640.366	0.0154173
640.444	0.0153596
640.522	0.0153005
640.600	0.0153265
640.678	0.0154433
640.756	0.0153431
640.834	0.0153792
640.913	0.0153008
640.991	0.0155311
641.069	0.0154745
641.147	0.0154594
641.225	0.0154210
641.303	0.0154437
641.381	0.0154122
641.459	0.0154533
641.538	0.0153268
641.616	0.0154178
641.694	0.0155071
641.772	0.0155434
641.850	0.0153745
641.928	0.0153973
642.006	0.0155704
642.084	0.0155347
642.163	0.0155214
642.241	0.0155995
642.319	0.0154765
642.397	0.0155244
642.475	0.0155791
642.553	0.0154975
642.631	0.0154744
642.709	0.0155316
642.788	0.0156113
642.866	0.0155280
642.944	0.0153388
643.022	0.0154303
643.100	0.0154242
643.178	0.0153273
643.256	0.0154892
643.334	0.0155399
643.413	0.0155032
643.491	0.0153452
643.569	0.0152339
643.647	0.0153250
643.725	0.0154285
643.803	0.0154484
643.881	0.0153524
643.959	0.0154049
644.038	0.0155549
644.116	0.0154009
644.194	0.0153529
644.272	0.0154826
644.350	0.0154205
644.428	0.0154436
644.506	0.0154259
644.584	0.0154427
644.663	0.0154073
644.741	0.0154622
644.819	0.0154735
644.897	0.0154517
644.975	0.0155094
645.053	0.0154235
645.131	0.0154833
645.209	0.0155301
645.288	0.0154729
645.366	0.0156225
645.444	0.0156194
645.522	0.0155792
645.600	0.0156087
645.678	0.0156781
645.756	0.0157223
645.834	0.0156319
645.913	0.0156989
645.991	0.0157604
646.069	0.0158597
646.147	0.0157911
646.225	0.0156812
646.303	0.0157296
646.381	0.0158227
646.459	0.0158264
646.538	0.0158548
646.616	0.0159337
646.694	0.0158743
646.772	0.0159798
646.850	0.0157643
646.928	0.0159007
647.006	0.0158604
647.084	0.0158647
647.163	0.0157880
647.241	0.0158225
647.319	0.0158350
647.397	0.0158902
647.475	0.0158869
647.553	0.0158551
647.631	0.0157262
647.709	0.0158321
647.788	0.0158527
647.866	0.0159373
647.944	0.0158763
648.022	0.0158681
648.100	0.0157066
648.178	0.0157902
648.256	0.0158697
648.334	0.0158139
648.413	0.0158158
648.491	0.0158286
648.569	0.0155379
648.647	0.0157489
648.725	0.0156783
648.803	0.0157189
648.881	0.0157585
648.959	0.0156005
649.038	0.0154837
649.116	0.0154940
649.194	0.0154839
649.272	0.0155459
649.350	0.0154697
649.428	0.0154442
649.506	0.0155704
649.584	0.0154874
649.663	0.0153559
649.741	0.0153198
649.819	0.0152422
649.897	0.0153099
649.975	0.0153786
650.053	0.0152793
650.131	0.0152441
650.209	0.0152782
650.288	0.0151575
650.366	0.0153096
650.444	0.0153244
650.522	0.0152228
650.600	0.0151186
650.678	0.0150546
650.756	0.0150404
650.834	0.0151043
650.913	0.0151441
650.991	0.0151211
651.069	0.0152340
651.147	0.0151792
651.225	0.0151136
651.303	0.0151330
651.381	0.0151361
651.459	0.0152299
651.538	0.0151273
651.616	0.0152879
651.694	0.0152906
651.772	0.0152420
651.850	0.0151371
651.928	0.0151629
652.006	0.0152771
652.084	0.0153489
652.163	0.0152702
652.241	0.0152328
652.319	0.0152777
652.397	0.0153664
652.475	0.0152372
652.553	0.0152545
652.631	0.0153854
652.709	0.0153395
652.788	0.0153970
652.866	0.0154335
652.944	0.0153677
653.022	0.0155042
653.100	0.0154160
653.178	0.0154185
653.256	0.0154343
653.334	0.0153709
653.413	0.0154763
653.491	0.0155397
653.569	0.0154994
653.647	0.0154159
653.725	0.0153545
653.803	0.0155582
653.881	0.0155555
653.959	0.0154334
654.038	0.0154636
654.116	0.0154605
654.194	0.0154179
654.272	0.0154468
654.350	0.0153122
654.428	0.0155215
654.506	0.0154372
654.584	0.0154772
654.663	0.0155791
654.741	0.0154877
654.819	0.0153584
654.897	0.0153326
654.975	0.0152811
655.053	0.0153236
655.131	0.0153310
655.209	0.0152877
655.288	0.0151566
655.366	0.0153475
655.444	0.0152457
655.522	0.0153013
655.600	0.0152565
655.678	0.0153944
655.756	0.0152893
655.834	0.0152906
655.913	0.0153547
655.991	0.0152351
656.069	0.0152607
656.147	0.0152718
656.225	0.0153231
656.303	0.0153104
656.381	0.0154573
656.459	0.0152199
656.538	0.0153487
656.616	0.0153210
656.694	0.0153699
656.772	0.0153569
656.850	0.0152296
656.928	0.0153348
657.006	0.0155210
657.084	0.0154805
657.163	0.0154567
657.241	0.0153130
657.319	0.0153898
657.397	0.0153766
657.475	0.0153795
657.553	0.0153101
657.631	0.0153522
657.709	0.0153723
657.788	0.0153294
657.866	0.0154810
657.944	0.0154580
658.022	0.0155939
658.100	0.0154770
658.178	0.0154432
658.256	0.0154633
658.334	0.0155164
658.413	0.0156483
658.491	0.0155631
658.569	0.0154302
658.647	0.0154079
658.725	0.0155758
658.803	0.0155313
658.881	0.0154537
658.959	0.0154916
659.038	0.0155299
659.116	0.0156583
659.194	0.0156015
659.272	0.0155191
659.350	0.0154505
659.428	0.0156011
659.506	0.0154796
659.584	0.0155103
659.663	0.0154176
659.741	0.0153657
659.819	0.0154047
659.897	0.0154893
659.975	0.0154019
660.053	0.0154746
660.131	0.0153181
660.209	0.0152832
660.288	0.0153469
660.366	0.0154474
660.444	0.0153931
660.522	0.0154328
660.600	0.0154016
660.678	0.0154420
660.756	0.0154593
660.834	0.0154033
660.913	0.0154189
660.991	0.0153725
661.069	0.0153994
661.147	0.0154927
661.225	0.0154209
661.303	0.0154082
661.381	0.0153561
661.459	0.0153199
661.538	0.0154838
661.616	0.0153878
661.694	0.0154086
661.772	0.0154589
661.850	0.0155480
661.928	0.0156529
662.006	0.0155019
662.084	0.0155198
662.163	0.0155792
662.241	0.0154414
662.319	0.0155157
662.397	0.0156407
662.475	0.0154436
662.553	0.0153345
662.631	0.0153429
662.709	0.0154562
662.788	0.0155500
662.866	0.0154138
662.944	0.0155190
663.022	0.0154375
663.100	0.0155725
663.178	0.0154757
663.256	0.0154890
663.334	0.0154211
663.413	0.0155601
663.491	0.0155485
663.569	0.0155826
663.647	0.0155122
663.725	0.0155282
663.803	0.0155290
663.881	0.0155372
663.959	0.0155660
664.038	0.0154626
664.116	0.0155823
664.194	0.0156242
664.272	0.0153135
664.350	0.0154190
664.428	0.0154739
664.506	0.0154456
664.584	0.0154585
664.663	0.0153819
664.741	0.0155093
664.819	0.0156248
664.897	0.0155022
664.975	0.0156685
665.053	0.0156753
665.131	0.0155482
665.209	0.0155949
665.288	0.0154708
665.366	0.0154775
665.444	0.0155904
665.522	0.0156329
665.600	0.0153809
665.678	0.0156107
665.756	0.0155833
665.834	0.0155892
665.913	0.0156007
665.991	0.0156281
666.069	0.0155806
666.147	0.0156192
666.225	0.0155965
666.303	0.0156122
666.381	0.0156577
666.459	0.0155875
666.538	0.0156824
666.616	0.0157162
666.694	0.0157589
666.772	0.0157392
666.850	0.0157162
666.928	0.0156647
667.006	0.0157390
667.084	0.0156404
667.163	0.0157417
667.241	0.0155959
667.319	0.0155960
667.397	0.0156748
667.475	0.0155227
667.553	0.0155188
667.631	0.0155222
667.709	0.0154530
667.788	0.0153629
667.866	0.0153213
667.944	0.0154065
668.022	0.0153105
668.100	0.0153587
668.178	0.0153832
668.256	0.0154734
668.334	0.0155353
668.413	0.0155954
668.491	0.0155816
668.569	0.0155939
668.647	0.0157016
668.725	0.0156115
668.803	0.0157137
668.881	0.0158047
668.959	0.0158850
669.038	0.0158566
669.116	0.0158055
669.194	0.0160562
669.272	0.0159892
669.350	0.0159135
669.428	0.0159845
669.506	0.0160129
669.584	0.0160600
669.663	0.0160456
669.741	0.0159568
669.819	0.0159043
669.897	0.0159362
669.975	0.0159650
670.053	0.0160472
670.131	0.0158908
670.209	0.0159966
670.288	0.0159538
670.366	0.0158598
670.444	0.0159205
670.522	0.0158019
670.600	0.0156482
670.678	0.0155505
670.756	0.0154156
670.834	0.0153087
670.913	0.0153001
670.991	0.0150993
671.069	0.0151030
671.147	0.0148976
671.225	0.0148260
671.303	0.0147393
671.381	0.0147107
671.459	0.0146792
671.538	0.0145911
671.616	0.0146275
671.694	0.0146307
671.772	0.0147078
671.850	0.0146326
671.928	0.0146765
672.006	0.0147501
672.084	0.0148902
672.163	0.0149696
672.241	0.0149828
672.319	0.0150741
672.397	0.0152423
672.475	0.0153719
672.553	0.0154588
672.631	0.0156901
672.709	0.0158556
672.788	0.0159675
672.866	0.0161235
672.944	0.0163589
673.022	0.0162430
673.100	0.0165549
673.178	0.0165565
673.256	0.0166212
673.334	0.0167992
673.413	0.0168765
673.491	0.0166806
673.569	0.0166931
673.647	0.0166410
673.725	0.0164896
673.803	0.0164051
673.881	0.0162431
673.959	0.0162685
674.038	0.0160940
674.116	0.0158759
674.194	0.0156436
674.272	0.0154784
674.350	0.0151407
674.428	0.0150783
674.506	0.0147291
674.584	0.0146793
674.663	0.0143621
674.741	0.0141233
674.819	0.0139963
674.897	0.0139209
674.975	0.0138728
675.053	0.0136759
675.131	0.0136895
675.209	0.0137653
675.288	0.0138042
675.366	0.0137907
675.444	0.0138453
675.522	0.0141013
675.600	0.0141812
675.678	0.0142908
675.756	0.0143839
675.834	0.0146552
675.913	0.0146291
675.991	0.0149844
676.069	0.0152126
676.147	0.0154149
676.225	0.0156078
676.303	0.0159424
676.381	0.0163143
676.459	0.0165423
676.538	0.0168207
676.616	0.0169921
676.694	0.0172352
676.772	0.0173170
676.850	0.0176524
676.928	0.0177320
677.006	0.0177830
677.084	0.0178481
677.163	0.0179111
677.241	0.0178406
677.319	0.0176964
677.397	0.0176364
677.475	0.0175511
677.553	0.0172961
677.631	0.0169730
677.709	0.0169460
677.788	0.0165318
677.866	0.0162920
677.944	0.0160336
678.022	0.0158849
678.100	0.0155083
678.178	0.0152287
678.256	0.0149049
678.334	0.0147662
678.413	0.0142878
678.491	0.0141491
678.569	0.0140939
678.647	0.0137666
678.725	0.0136839
678.803	0.0134348
678.881	0.0134142
678.959	0.0132622
679.038	0.0132285
679.116	0.0132973
679.194	0.0133498
679.272	0.0133572
679.350	0.0134902
679.428	0.0137682
679.506	0.0140662
679.584	0.0140518
679.663	0.0142930
679.741	0.0145792
679.819	0.0147977
679.897	0.0150175
679.975	0.0152998
680.053	0.0154689
680.131	0.0157743
680.209	0.0160428
680.288	0.0162664
680.366	0.0164804
680.444	0.0167982
680.522	0.0166936
680.600	0.0167609
680.678	0.0169675
680.756	0.0170165
680.834	0.0171227
680.913	0.0170560
680.991	0.0169789
681.069	0.0170285
681.147	0.0169927
681.225	0.0167789
681.303	0.0167366
681.381	0.0165916
681.459	0.0164486
681.538	0.0162549
681.616	0.0162422
681.694	0.0159560
681.772	0.0157903
681.850	0.0157694
681.928	0.0155631
682.006	0.0153389
682.084	0.0153819
682.163	0.0153856
682.241	0.0152061
682.319	0.0151530
682.397	0.0152583
682.475	0.0152173
682.553	0.0152464
682.631	0.0152377
682.709	0.0151414
682.788	0.0151625
682.866	0.0152918
682.944	0.0154487
683.022	0.0153349
683.100	0.0150555
683.178	0.0154568
683.256	0.0153274
683.334	0.0152809
683.413	0.0152951
683.491	0.0152043
683.569	0.0153191
683.647	0.0151615
683.725	0.0153152
683.803	0.0151871
683.881	0.0152050
683.959	0.0151646
684.038	0.0150777
684.116	0.0150947
684.194	0.0149306
684.272	0.0148827
684.350	0.0148784
684.428	0.0147054
684.506	0.0147586
684.584	0.0147334
684.663	0.0145885
684.741	0.0146114
684.819	0.0146674
684.897	0.0147581
684.975	0.0146359
685.053	0.0146449
685.131	0.0148536
685.209	0.0148214
685.288	0.0150053
685.366	0.0152228
685.444	0.0151705
685.522	0.0154827
685.600	0.0156098
685.678	0.0156550
685.756	0.0156067
685.834	0.0157596
685.913	0.0157581
685.991	0.0158628
686.069	0.0159491
686.147	0.0161230
686.225	0.0161144
686.303	0.0160344
686.381	0.0161346
686.459	0.0162868
686.538	0.0161728
686.616	0.0162330
686.694	0.0161909
686.772	0.0162382
686.850	0.0162651
686.928	0.0162653
687.006	0.0161697
687.084	0.0161266
687.163	0.0159599
687.241	0.0162067
687.319	0.0161223
687.397	0.0159515
687.475	0.0159371
687.553	0.0158263
687.631	0.0157561
687.709	0.0157594
687.788	0.0157519
687.866	0.0155431
687.944	0.0155833
688.022	0.0155906
688.100	0.0156314
688.178	0.0156213
688.256	0.0155561
688.334	0.0155203
688.413	0.0154449
688.491	0.0153288
688.569	0.0154309
688.647	0.0152785
688.725	0.0152557
688.803	0.0152732
688.881	0.0150013
688.959	0.0149432
689.038	0.0150237
689.116	0.0151104
689.194	0.0149216
689.272	0.0148556
689.350	0.0147129
689.428	0.0148035
689.506	0.0146764
689.584	0.0145501
689.663	0.0146250
689.741	0.0144860
689.819	0.0144897
689.897	0.0144884
689.975	0.0145688
690.053	0.0146159
690.131	0.0145063
690.209	0.0145411
690.288	0.0147586
690.366	0.0148499
690.444	0.0148922
690.522	0.0150444
690.600	0.0152373
690.678	0.0155082
690.756	0.0157394
690.834	0.0157791
690.913	0.0160934
690.991	0.0161485
691.069	0.0162753
691.147	0.0164532
691.225	0.0164951
691.303	0.0166371
691.381	0.0166941
691.459	0.0168031
691.538	0.0168608
691.616	0.0169158
691.694	0.0170835
691.772	0.0171619
691.850	0.0170573
691.928	0.0169848
692.006	0.0167712
692.084	0.0167841
692.163	0.0167004
692.241	0.0165076
692.319	0.0162652
692.397	0.0158887
692.475	0.0156355
692.553	0.0153539
692.631	0.0151182
692.709	0.0147350
692.788	0.0146453
692.866	0.0142329
692.944	0.0139035
693.022	0.0138985
693.100	0.0137283
693.178	0.0135498
693.256	0.0133661
693.334	0.0132240
693.413	0.0132030
693.491	0.0132868
693.569	0.0133624
693.647	0.0135332
693.725	0.0136462
693.803	0.0137994
693.881	0.0139994
693.959	0.0143843
694.038	0.0146394
694.116	0.0149315
694.194	0.0152534
694.272	0.0154282
694.350	0.0157604
694.428	0.0158515
694.506	0.0162683
694.584	0.0165746
694.663	0.0166799
694.741	0.0170242
694.819	0.0171375
694.897	0.0173055
694.975	0.0175156
695.053	0.0175815
695.131	0.0176585
695.209	0.0177757
695.288	0.0175397
695.366	0.0176431
695.444	0.0176415
695.522	0.0173473
695.600	0.0171616
695.678	0.0170349
695.756	0.0167188
695.834	0.0163800
695.913	0.0160630
695.991	0.0157994
696.069	0.0154756
696.147	0.0151522
696.225	0.0147636
696.303	0.0145156
696.381	0.0142477
696.459	0.0139378
696.538	0.0137551
696.616	0.0135979
696.694	0.0133461
696.772	0.0133186
696.850	0.0132404
696.928	0.0131617
697.006	0.0132870
697.084	0.0134328
697.163	0.0133566
697.241	0.0135658
697.319	0.0135821
697.397	0.0137296
697.475	0.0140504
697.553	0.0143633
697.631	0.0147626
697.709	0.0151305
697.788	0.0153732
697.866	0.0156251
697.944	0.0161231
698.022	0.0164040
698.100	0.0167722
698.178	0.0170185
698.256	0.0173922
698.334	0.0174947
698.413	0.0176466
698.491	0.0177555
698.569	0.0177805
698.647	0.0177268
698.725	0.0176801
698.803	0.0175246
698.881	0.0173241
698.959	0.0170412
699.038	0.0169275
699.116	0.0168204
699.194	0.0164851
699.272	0.0164175
699.350	0.0163335
699.428	0.0161586
699.506	0.0160359
699.584	0.0159039
699.663	0.0158518
699.741	0.0155432
699.819	0.0153948
699.897	0.0152305
699.975	0.0149260
700.053	0.0145821
700.131	0.0145509
700.209	0.0143476
700.288	0.0141476
700.366	0.0140713
700.444	0.0139637
700.522	0.0140823
700.600	0.0141557
700.678	0.0141067
700.756	0.0142650
700.834	0.0142117
700.913	0.0143049
700.991	0.0145236
701.069	0.0146312
701.147	0.0145967
701.225	0.0147309
701.303	0.0149476
701.381	0.0149503
701.459	0.0149554
701.538	0.0152443
701.616	0.0152815
701.694	0.0153558
701.772	0.0156187
701.850	0.0157045
701.928	0.0158588
702.006	0.0159689
702.084	0.0160645
702.163	0.0162537
702.241	0.0164285
702.319	0.0165338
702.397	0.0165786
702.475	0.0165887
702.553	0.0166676
702.631	0.0167927
702.709	0.0166827
702.788	0.0166816
702.866	0.0167143
702.944	0.0166944
703.022	0.0166920
703.100	0.0166351
703.178	0.0165622
703.256	0.0166680
703.334	0.0167478
703.413	0.0167497
703.491	0.0168089
703.569	0.0166355
703.647	0.0165025
703.725	0.0166289
703.803	0.0163823
703.881	0.0161823
703.959	0.0160866
704.038	0.0160445
704.116	0.0159906
704.194	0.0159736
704.272	0.0157281
704.350	0.0156732
704.428	0.0157378
704.506	0.0155238
704.584	0.0154434
704.663	0.0153540
704.741	0.0153024
704.819	0.0152616
704.897	0.0149134
704.975	0.0147686
705.053	0.0146647
705.131	0.0144880
705.209	0.0144382
705.288	0.0140642
705.366	0.0140728
705.444	0.0139803
705.522	0.0136887
705.600	0.0135332
705.678	0.0134655
705.756	0.0133127
705.834	0.0133897
705.913	0.0132122
705.991	0.0133212
706.069	0.0133563
706.147	0.0134508
706.225	0.0133922
706.303	0.0135753
706.381	0.0137107
706.459	0.0137492
706.538	0.0139283
706.616	0.0142255
706.694	0.0144802
706.772	0.0145690
706.850	0.0146933
706.928	0.0150065
707.006	0.0153519
707.084	0.0155804
707.163	0.0157114
707.241	0.0159113
707.319	0.0161554
707.397	0.0163654
707.475	0.0164941
707.553	0.0166731
707.631	0.0171211
707.709	0.0173147
707.788	0.0174475
707.866	0.0177419
707.944	0.0180011
708.022	0.0183766
708.100	0.0187141
708.178	0.0188867
708.256	0.0190119
708.334	0.0191283
708.413	0.0191342
708.491	0.0191499
708.569	0.0190368
708.647	0.0189989
708.725	0.0187632
708.803	0.0184690
708.881	0.0179778
708.959	0.0175432
709.038	0.0172469
709.116	0.0167759
709.194	0.0163506
709.272	0.0158911
709.350	0.0153366
709.428	0.0151412
709.506	0.0146669
709.584	0.0143185
709.663	0.0137539
709.741	0.0133788
709.819	0.0131048
709.897	0.0127843
709.975	0.0124556
710.053	0.0122275
710.131	0.0120583
710.209	0.0120441
710.288	0.0118265
710.366	0.0119296
710.444	0.0119472
710.522	0.0120923
710.600	0.0121649
710.678	0.0125551
710.756	0.0130077
710.834	0.0131580
710.913	0.0135229
710.991	0.0138795
711.069	0.0142204
711.147	0.0146695
711.225	0.0150677
711.303	0.0154429
711.381	0.0157056
711.459	0.0159807
711.538	0.0163424
711.616	0.0166653
711.694	0.0168900
711.772	0.0171339
711.850	0.0174496
711.928	0.0173711
712.006	0.0174155
712.084	0.0176035
712.163	0.0175499
712.241	0.0175241
712.319	0.0175835
712.397	0.0174780
712.475	0.0171417
712.553	0.0171206
712.631	0.0169884
712.709	0.0167422
712.788	0.0164888
712.866	0.0162160
712.944	0.0158685
713.022	0.0157133
713.100	0.0154652
713.178	0.0151105
713.256	0.0148460
713.334	0.0147852
713.413	0.0145050
713.491	0.0144044
713.569	0.0141492
713.647	0.0141440
713.725	0.0142135
713.803	0.0141074
713.881	0.0138790
713.959	0.0140080
714.038	0.0141521
714.116	0.0140312
714.194	0.0140517
714.272	0.0141481
714.350	0.0141758
714.428	0.0142075
714.506	0.0143771
714.584	0.0144942
714.663	0.0146318
714.741	0.0148587
714.819	0.0148260
714.897	0.0152737
714.975	0.0153049
715.053	0.0154847
715.131	0.0157556
715.209	0.0160633
715.288	0.0161383
715.366	0.0163473
715.444	0.0163863
715.522	0.0166020
715.600	0.0166762
715.678	0.0167690
715.756	0.0169278
715.834	0.0170667
715.913	0.0170341
715.991	0.0170535
716.069	0.0170540
716.147	0.0170161
716.225	0.0168304
716.303	0.0169031
716.381	0.0166817
716.459	0.0165606
716.538	0.0164259
716.616	0.0162085
716.694	0.0158758
716.772	0.0157389
716.850	0.0156342
716.928	0.0152874
717.006	0.0150336
717.084	0.0146825
717.163	0.0145378
717.241	0.0142709
717.319	0.0141589
717.397	0.0139758
717.475	0.0137605
717.553	0.0135372
717.631	0.0135590
717.709	0.0134634
717.788	0.0134338
717.866	0.0135450
717.944	0.0137469
718.022	0.0137373
718.100	0.0138419
718.178	0.0141694
718.256	0.0143562
718.334	0.0144937
718.413	0.0147108
718.491	0.0150119
718.569	0.0149883
718.647	0.0150706
718.725	0.0153190
718.803	0.0152386
718.881	0.0152818
718.959	0.0153038
719.038	0.0152835
719.116	0.0151976
719.194	0.0151738
719.272	0.0153449
719.350	0.0153347
719.428	0.0153879
719.506	0.0155718
719.584	0.0156173
719.663	0.0156140
719.741	0.0158173
719.819	0.0158222
719.897	0.0157794
719.975	0.0159750
720.053	0.0159231
720.131	0.0158742
720.209	0.0158171
720.288	0.0158129
720.366	0.0157054
720.444	0.0156653
720.522	0.0156212
720.600	0.0155190
720.678	0.0153513
720.756	0.0152408
720.834	0.0152962
720.913	0.0154118
720.991	0.0153488
721.069	0.0152825
721.147	0.0151543
721.225	0.0152576
721.303	0.0150687
721.381	0.0152692
721.459	0.0153207
721.538	0.0151448
721.616	0.0151311
721.694	0.0154511
721.772	0.0153617
721.850	0.0154635
721.928	0.0154963
722.006	0.0155547
722.084	0.0157106
722.163	0.0156955
722.241	0.0159525
722.319	0.0161397
722.397	0.0162760
722.475	0.0165171
722.553	0.0166221
722.631	0.0167082
722.709	0.0171724
722.788	0.0171363
722.866	0.0172530
722.944	0.0174855
723.022	0.0174807
723.100	0.0174513
723.178	0.0175288
723.256	0.0176027
723.334	0.0176339
723.413	0.0177100
723.491	0.0175612
723.569	0.0173965
723.647	0.0171680
723.725	0.0171611
723.803	0.0167527
723.881	0.0167825
723.959	0.0165315
724.038	0.0162424
724.116	0.0160905
724.194	0.0158202
724.272	0.0154922
724.350	0.0152814
724.428	0.0150790
724.506	0.0147916
724.584	0.0146024
724.663	0.0144138
724.741	0.0141713
724.819	0.0140319
724.897	0.0139700
724.975	0.0138394
725.053	0.0138216
725.131	0.0136699
725.209	0.0135590
725.288	0.0135813
725.366	0.0136269
725.444	0.0135138
725.522	0.0136984
725.600	0.0134917
725.678	0.0135806
725.756	0.0135243
725.834	0.0135548
725.913	0.0137128
725.991	0.0137094
726.069	0.0137899
726.147	0.0139102
726.225	0.0141569
726.303	0.0143296
726.381	0.0145124
726.459	0.0146639
726.538	0.0148948
726.616	0.0151664
726.694	0.0155979
726.772	0.0157054
726.850	0.0158930
726.928	0.0160093
727.006	0.0164175
727.084	0.0165481
727.163	0.0166462
727.241	0.0170817
727.319	0.0172066
727.397	0.0173392
727.475	0.0175085
727.553	0.0175610
727.631	0.0174278
727.709	0.0175584
727.788	0.0176311
727.866	0.0176460
727.944	0.0175231
728.022	0.0174409
728.100	0.0174125
728.178	0.0172202
728.256	0.0170674
728.334	0.0169369
728.413	0.0166844
728.491	0.0165239
728.569	0.0163387
728.647	0.0160281
728.725	0.0158447
728.803	0.0157833
728.881	0.0156329
728.959	0.0152660
729.038	0.0150173
729.116	0.0149880
729.194	0.0148931
729.272	0.0147858
729.350	0.0147372
729.428	0.0145656
729.506	0.0146504
729.584	0.0146973
729.663	0.0147290
729.741	0.0146732
729.819	0.0146875
729.897	0.0147018
729.975	0.0149050
730.053	0.0150299
730.131	0.0152184
730.209	0.0151346
730.288	0.0153690
730.366	0.0153606
730.444	0.0154362
730.522	0.0154225
730.600	0.0156547
730.678	0.0156866
730.756	0.0157330
730.834	0.0155010
730.913	0.0156747
730.991	0.0155688
731.069	0.0154467
731.147	0.0154874
731.225	0.0153221
731.303	0.0152050
731.381	0.0152335
731.459	0.0150559
731.538	0.0150024
731.616	0.0150301
731.694	0.0149123
731.772	0.0149169
731.850	0.0150117
731.928	0.0148952
732.006	0.0149854
732.084	0.0151162
732.163	0.0150506
732.241	0.0152802
732.319	0.0152226
732.397	0.0152791
732.475	0.0154373
732.553	0.0153669
732.631	0.0154420
732.709	0.0155048
732.788	0.0155443
732.866	0.0155423
732.944	0.0154627
733.022	0.0155367
733.100	0.0153745
733.178	0.0154111
733.256	0.0154780
733.334	0.0154147
733.413	0.0152486
733.491	0.0152957
733.569	0.0153317
733.647	0.0152048
733.725	0.0152384
733.803	0.0151560
733.881	0.0151566
733.959	0.0150536
734.038	0.0150983
734.116	0.0152381
734.194	0.0150097
734.272	0.0150637
734.350	0.0152312
734.428	0.0153442
734.506	0.0154251
734.584	0.0153718
734.663	0.0154218
734.741	0.0156783
734.819	0.0157519
734.897	0.0157580
734.975	0.0159198
735.053	0.0159801
735.131	0.0159685
735.209	0.0159850
735.288	0.0157953
735.366	0.0158083
735.444	0.0155556
735.522	0.0156161
735.600	0.0155048
735.678	0.0155289
735.756	0.0154031
735.834	0.0153262
735.913	0.0152885
735.991	0.0152065
736.069	0.0152386
736.147	0.0152782
736.225	0.0150517
736.303	0.0153011
736.381	0.0151598
736.459	0.0152113
736.538	0.0152480
736.616	0.0152930
736.694	0.0151820
736.772	0.0151295
736.850	0.0150435
736.928	0.0152084
737.006	0.0152225
737.084	0.0151310
737.163	0.0151725
737.241	0.0150915
737.319	0.0151021
737.397	0.0152511
737.475	0.0153233
737.553	0.0154489
737.631	0.0155219
737.709	0.0155321
737.788	0.0156084
737.866	0.0159018
737.944	0.0157888
738.022	0.0159365
738.100	0.0161184
738.178	0.0160871
738.256	0.0162566
738.334	0.0161724
738.413	0.0162579
738.491	0.0160514
738.569	0.0161331
738.647	0.0161213
738.725	0.0160671
738.803	0.0158758
738.881	0.0159061
738.959	0.0158073
739.038	0.0157674
739.116	0.0156385
739.194	0.0154234
739.272	0.0153973
739.350	0.0152158
739.428	0.0153231
739.506	0.0151827
739.584	0.0150316
739.663	0.0149480
739.741	0.0148725
739.819	0.0147923
739.897	0.0146725
739.975	0.0147240
740.053	0.0146904
740.131	0.0145218
740.209	0.0144052
740.288	0.0144694
740.366	0.0142466
740.444	0.0142884
740.522	0.0143262
740.600	0.0143799
740.678	0.0142481
740.756	0.0140916
740.834	0.0141628
740.913	0.0142268
740.991	0.0142610
741.069	0.0143158
741.147	0.0143310
741.225	0.0145618
741.303	0.0146621
741.381	0.0145954
741.459	0.0146260
741.538	0.0148405
741.616	0.0149969
741.694	0.0149513
741.772	0.0151120
741.850	0.0153185
741.928	0.0152717
742.006	0.0153813
742.084	0.0156545
742.163	0.0157252
742.241	0.0158787
742.319	0.0160114
742.397	0.0162787
742.475	0.0163089
742.553	0.0164720
742.631	0.0167301
742.709	0.0167930
742.788	0.0169806
742.866	0.0171036
742.944	0.0170862
743.022	0.0170422
743.100	0.0173042
743.178	0.0172836
743.256	0.0172903
743.334	0.0173198
743.413	0.0173026
743.491	0.0170954
743.569	0.0171494
743.647	0.0171136
743.725	0.0168433
743.803	0.0168291
743.881	0.0167586
743.959	0.0166209
744.038	0.0163332
744.116	0.0161613
744.194	0.0159075
744.272	0.0158189
744.350	0.0155065
744.428	0.0154353
744.506	0.0153931
744.584	0.0151411
744.663	0.0148605
744.741	0.0148380
744.819	0.0146927
744.897	0.0146596
744.975	0.0144716
745.053	0.0145830
745.131	0.0143890
745.209	0.0142725
745.288	0.0143686
745.366	0.0143951
745.444	0.0143565
745.522	0.0145383
745.600	0.0145463
745.678	0.0146606
745.756	0.0145905
745.834	0.0146301
745.913	0.0148104
745.991	0.0148705
746.069	0.0149235
746.147	0.0150594
746.225	0.0149446
746.303	0.0149718
746.381	0.0150661
746.459	0.0149650
746.538	0.0152592
746.616	0.0151727
746.694	0.0150764
746.772	0.0149946
746.850	0.0152086
746.928	0.0152517
747.006	0.0150998
747.084	0.0153717
747.163	0.0154997
747.241	0.0155593
747.319	0.0155946
747.397	0.0155898
747.475	0.0155883
747.553	0.0157642
747.631	0.0158038
747.709	0.0159003
747.788	0.0159127
747.866	0.0160702
747.944	0.0159132
748.022	0.0159745
748.100	0.0162113
748.178	0.0162833
748.256	0.0163784
748.334	0.0162099
748.413	0.0162849
748.491	0.0162679
748.569	0.0162862
748.647	0.0163252
748.725	0.0160692
748.803	0.0160548
748.881	0.0160801
748.959	0.0159419
749.038	0.0156621
749.116	0.0156611
749.194	0.0154716
749.272	0.0153957
749.350	0.0154121
749.428	0.0150648
749.506	0.0151880
749.584	0.0150861
749.663	0.0149468
749.741	0.0147561
749.819	0.0148202
749.897	0.0147547
749.975	0.0146903
750.053	0.0146538
750.131	0.0145940
750.209	0.0146523
750.288	0.0146497
750.366	0.0147071
750.444	0.0147022
750.522	0.0147118
750.600	0.0147966
750.678	0.0149394
750.756	0.0149760
750.834	0.0152728
750.913	0.0153518
750.991	0.0155612
751.069	0.0156666
751.147	0.0157021
751.225	0.0157541
751.303	0.0159249
751.381	0.0158961
751.459	0.0160994
751.538	0.0161104
751.616	0.0160631
751.694	0.0160959
751.772	0.0159361
751.850	0.0162179
751.928	0.0161646
752.006	0.0161726
752.084	0.0161356
752.163	0.0161183
752.241	0.0161616
752.319	0.0161399
752.397	0.0162233
752.475	0.0163564
752.553	0.0160923
752.631	0.0160848
752.709	0.0160439
752.788	0.0160239
752.866	0.0159122
752.944	0.0156107
753.022	0.0156605
753.100	0.0155438
753.178	0.0153307
753.256	0.0153450
753.334	0.0152404
753.413	0.0152209
753.491	0.0149934
753.569	0.0149406
753.647	0.0147558
753.725	0.0148718
753.803	0.0147327
753.881	0.0146317
753.959	0.0147007
754.038	0.0146856
754.116	0.0145992
754.194	0.0146340
754.272	0.0145934
754.350	0.0146388
754.428	0.0145457
754.506	0.0145219
754.584	0.0145457
754.663	0.0145007
754.741	0.0146288
754.819	0.0144072
754.897	0.0146587
754.975	0.0145162
755.053	0.0145437
755.131	0.0146170
755.209	0.0147955
755.288	0.0148119
755.366	0.0149281
755.444	0.0151349
755.522	0.0151821
755.600	0.0153414
755.678	0.0153429
755.756	0.0154434
755.834	0.0156907
755.913	0.0156736
755.991	0.0156694
756.069	0.0157835
756.147	0.0158568
756.225	0.0156952
756.303	0.0157955
756.381	0.0159151
756.459	0.0158733
756.538	0.0158265
756.616	0.0157915
756.694	0.0158671
756.772	0.0158433
756.850	0.0158423
756.928	0.0157575
757.006	0.0157372
757.084	0.0157716
757.163	0.0154920
757.241	0.0154985
757.319	0.0155572
757.397	0.0154503
757.475	0.0152536
757.553	0.0154765
757.631	0.0151630
757.709	0.0151302
757.788	0.0151488
757.866	0.0151299
757.944	0.0152615
758.022	0.0151658
758.100	0.0152383
758.178	0.0153862
758.256	0.0153976
758.334	0.0155533
758.413	0.0156612
758.491	0.0157644
758.569	0.0158584
758.647	0.0160078
758.725	0.0163218
758.803	0.0162233
758.881	0.0162415
758.959	0.0162546
759.038	0.0162782
759.116	0.0163770
759.194	0.0163333
759.272	0.0164024
759.350	0.0163189
759.428	0.0163997
759.506	0.0163471
759.584	0.0162690
759.663	0.0161721
759.741	0.0159158
759.819	0.0159394
759.897	0.0158497
759.975	0.0157436
760.053	0.0156376
760.131	0.0154084
760.209	0.0152499
760.288	0.0151876
760.366	0.0151011
760.444	0.0148917
760.522	0.0148241
760.600	0.0146491
760.678	0.0147038
760.756	0.0147254
760.834	0.0146114
760.913	0.0144279
760.991	0.0145627
761.069	0.0145972
761.147	0.0146089
761.225	0.0145493
761.303	0.0146825
761.381	0.0145458
761.459	0.0149191
761.538	0.0149686
761.616	0.0151337
761.694	0.0151461
761.772	0.0151985
761.850	0.0153172
761.928	0.0154430
762.006	0.0155676
762.084	0.0156583
762.163	0.0157794
762.241	0.0158238
762.319	0.0159209
762.397	0.0161019
762.475	0.0161575
762.553	0.0161634
762.631	0.0160727
762.709	0.0160349
762.788	0.0161227
762.866	0.0160049
762.944	0.0159231
763.022	0.0158583
763.100	0.0156403
763.178	0.0154509
763.256	0.0154912
763.334	0.0155059
763.413	0.0154545
763.491	0.0152650
763.569	0.0153163
763.647	0.0151952
763.725	0.0152314
763.803	0.0150471
763.881	0.0150655
763.959	0.0151003
764.038	0.0152644
764.116	0.0152302
764.194	0.0150639
764.272	0.0152213
764.350	0.0151460
764.428	0.0150435
764.506	0.0152242
764.584	0.0152065
764.663	0.0153084
764.741	0.0153278
764.819	0.0153892
764.897	0.0153703
764.975	0.0153845
765.053	0.0153730
765.131	0.0154298
765.209	0.0154507
765.288	0.0152840
765.366	0.0153439
765.444	0.0154382
765.522	0.0152129
765.600	0.0151105
765.678	0.0152586
765.756	0.0151634
765.834	0.0150565
765.913	0.0150691
765.991	0.0152084
766.069	0.0151753
766.147	0.0151073
766.225	0.0151881
766.303	0.0152104
766.381	0.0153632
766.459	0.0154985
766.538	0.0154804
766.616	0.0156500
766.694	0.0156059
766.772	0.0156808
766.850	0.0157481
766.928	0.0158598
767.006	0.0159621
767.084	0.0158570
767.163	0.0159618
767.241	0.0159257
767.319	0.0161323
767.397	0.0159721
767.475	0.0160132
767.553	0.0160975
767.631	0.0159149
767.709	0.0160441
767.788	0.0159194
767.866	0.0158951
767.944	0.0158116
768.022	0.0156904
768.100	0.0156487
768.178	0.0157600
768.256	0.0155592
768.334	0.0155016
768.413	0.0153580
768.491	0.0152956
768.569	0.0152676
768.647	0.0153510
768.725	0.0152531
768.803	0.0153905
768.881	0.0153923
768.959	0.0152390
769.038	0.0154167
769.116	0.0152343
769.194	0.0153828
769.272	0.0154159
769.350	0.0154365
769.428	0.0154255
769.506	0.0153684
769.584	0.0155191
769.663	0.0154492
769.741	0.0155131
769.819	0.0156013
769.897	0.0155481
769.975	0.0155209
770.053	0.0155923
770.131	0.0155130
770.209	0.0153526
770.288	0.0153886
770.366	0.0152532
770.444	0.0150884
770.522	0.0150840
770.600	0.0151559
770.678	0.0148975
770.756	0.0148949
770.834	0.0148553
770.913	0.0148440
770.991	0.0149489
771.069	0.0149467
771.147	0.0148102
771.225	0.0148893
771.303	0.0150446
771.381	0.0150691
771.459	0.0150008
771.538	0.0152390
771.616	0.0153576
771.694	0.0154909
771.772	0.0154586
771.850	0.0154348
771.928	0.0156261
772.006	0.0157429
772.084	0.0157263
772.163	0.0159075
772.241	0.0158932
772.319	0.0158394
772.397	0.0159071
772.475	0.0159168
772.553	0.0156999
772.631	0.0156570
772.709	0.0156529
772.788	0.0156829
772.866	0.0155627
772.944	0.0155148
773.022	0.0154595
773.100	0.0156070
773.178	0.0153776
773.256	0.0154662
773.334	0.0154988
773.413	0.0155322
773.491	0.0155244
773.569	0.0155399
773.647	0.0155642
773.725	0.0157426
773.803	0.0157287
773.881	0.0158473
773.959	0.0158192
774.038	0.0157778
774.116	0.0159172
774.194	0.0157674
774.272	0.0158015
774.350	0.0159116
774.428	0.0159731
774.506	0.0159299
774.584	0.0159483
774.663	0.0160123
774.741	0.0157920
774.819	0.0158473
774.897	0.0157462
774.975	0.0158388
775.053	0.0156335
775.131	0.0157324
775.209	0.0155363
775.288	0.0155328
775.366	0.0152801
775.444	0.0152663
775.522	0.0151583
775.600	0.0150237
775.678	0.0150099
775.756	0.0149492
775.834	0.0149948
775.913	0.0147678
775.991	0.0149300
776.069	0.0148266
776.147	0.0147784
776.225	0.0148232
776.303	0.0151109
776.381	0.0150550
776.459	0.0152931
776.538	0.0151596
776.616	0.0152184
776.694	0.0153561
776.772	0.0153838
776.850	0.0153963
776.928	0.0154736
777.006	0.0156795
777.084	0.0156491
777.163	0.0156324
777.241	0.0156864
777.319	0.0158321
777.397	0.0159112
777.475	0.0158130
777.553	0.0157906
777.631	0.0158938
777.709	0.0157606
777.788	0.0158520
777.866	0.0157490
777.944	0.0155462
778.022	0.0154222
778.100	0.0155759
778.178	0.0155390
778.256	0.0153940
778.334	0.0152478
778.413	0.0151151
778.491	0.0150977
778.569	0.0150900
778.647	0.0151369
778.725	0.0151727
778.803	0.0149844
778.881	0.0150456
778.959	0.0150541
779.038	0.0150018
779.116	0.0149992
779.194	0.0151470
779.272	0.0151129
779.350	0.0153056
779.428	0.0152903
779.506	0.0151415
779.584	0.0154078
779.663	0.0154113
779.741	0.0154211
779.819	0.0155667
779.897	0.0156394
779.975	0.0155648
780.053	0.0154961
780.131	0.0154651
780.209	0.0154955
780.288	0.0155051
780.366	0.0155437
780.444	0.0154587
780.522	0.0154895
780.600	0.0155166
780.678	0.0155711
780.756	0.0154066
780.834	0.0154889
780.913	0.0155535
780.991	0.0154539
781.069	0.0153510
781.147	0.0154880
781.225	0.0154576
781.303	0.0154876
781.381	0.0154620
781.459	0.0155505
781.538	0.0156091
781.616	0.0155425
781.694	0.0154768
781.772	0.0155173
781.850	0.0155419
781.928	0.0156014
782.006	0.0155904
782.084	0.0155576
782.163	0.0155766
782.241	0.0156777
782.319	0.0156110
782.397	0.0156532
782.475	0.0158108
782.553	0.0156905
782.631	0.0158678
782.709	0.0157656
782.788	0.0157973
782.866	0.0157283
782.944	0.0158303
783.022	0.0157807
783.100	0.0157438
783.178	0.0159430
783.256	0.0158019
783.334	0.0157742
783.413	0.0156820
783.491	0.0156165
783.569	0.0155383
783.647	0.0155130
783.725	0.0155371
783.803	0.0154681
783.881	0.0154861
783.959	0.0152740
784.038	0.0153519
784.116	0.0153494
784.194	0.0152983
784.272	0.0153990
784.350	0.0153418
784.428	0.0153319
784.506	0.0155247
784.584	0.0153413
784.663	0.0155218
784.741	0.0155514
784.819	0.0155505
784.897	0.0155861
784.975	0.0155978
785.053	0.0155100
785.131	0.0156454
785.209	0.0156092
785.288	0.0156806
785.366	0.0156471
785.444	0.0155033
785.522	0.0155378
785.600	0.0154900
785.678	0.0154733
785.756	0.0155170
785.834	0.0152832
785.913	0.0154566
785.991	0.0153391
786.069	0.0151738
786.147	0.0151189
786.225	0.0151274
786.303	0.0148347
786.381	0.0148305
786.459	0.0148009
786.538	0.0147211
786.616	0.0146838
786.694	0.0147191
786.772	0.0146337
786.850	0.0146316
786.928	0.0145493
787.006	0.0146061
787.084	0.0147295
787.163	0.0147948
787.241	0.0148825
787.319	0.0150118
787.397	0.0150270
787.475	0.0151991
787.553	0.0152699
787.631	0.0154523
787.709	0.0155051
787.788	0.0154168
787.866	0.0157011
787.944	0.0157061
788.022	0.0158056
788.100	0.0159272
788.178	0.0158986
788.256	0.0158155
788.334	0.0159501
788.413	0.0160507
788.491	0.0161237
788.569	0.0160848
788.647	0.0161012
788.725	0.0162157
788.803	0.0162146
788.881	0.0161700
788.959	0.0160018
789.038	0.0160360
789.116	0.0161378
789.194	0.0159191
789.272	0.0159994
789.350	0.0160299
789.428	0.0157793
789.506	0.0157491
789.584	0.0157803
789.663	0.0156837
789.741	0.0155931
789.819	0.0154702
789.897	0.0155866
789.975	0.0154996
790.053	0.0155128
790.131	0.0154851
790.209	0.0154979
790.288	0.0154362
790.366	0.0154066
790.444	0.0153849
790.522	0.0154206
790.600	0.0152933
790.678	0.0153312
790.756	0.0154259
790.834	0.0153762
790.913	0.0153703
790.991	0.0155748
791.069	0.0154514
791.147	0.0154432
791.225	0.0154623
791.303	0.0156316
791.381	0.0156997
791.459	0.0156422
791.538	0.0156980
791.616	0.0156965
791.694	0.0156652
791.772	0.0156572
791.850	0.0156831
791.928	0.0158150
792.006	0.0158300
792.084	0.0157013
792.163	0.0157508
792.241	0.0156762
792.319	0.0158212
792.397	0.0156844
792.475	0.0156341
792.553	0.0156053
792.631	0.0154930
792.709	0.0152988
792.788	0.0153697
792.866	0.0153313
792.944	0.0152461
793.022	0.0151689
793.100	0.0150307
793.178	0.0150809
793.256	0.0150745
793.334	0.0151330
793.413	0.0150458
793.491	0.0151491
793.569	0.0152786
793.647	0.0150266
793.725	0.0151268
793.803	0.0151382
793.881	0.0152856
793.959	0.0153874
794.038	0.0154404
794.116	0.0154893
794.194	0.0155833
794.272	0.0154694
794.350	0.0155975
794.428	0.0156091
794.506	0.0158202
794.584	0.0157534
794.663	0.0156129
794.741	0.0157496
794.819	0.0155697
794.897	0.0157789
794.975	0.0156271
795.053	0.0156476
795.131	0.0155518
795.209	0.0154706
795.288	0.0154813
795.366	0.0154230
795.444	0.0155270
795.522	0.0154575
795.600	0.0152579
795.678	0.0153794
795.756	0.0154012
795.834	0.0153609
795.913	0.0154395
795.991	0.0154779
796.069	0.0154841
796.147	0.0153676
796.225	0.0152506
796.303	0.0152024
796.381	0.0153304
796.459	0.0153342
796.538	0.0152582
796.616	0.0151682
796.694	0.0152430
796.772	0.0152257
796.850	0.0151126
796.928	0.0151604
797.006	0.0152353
797.084	0.0150498
797.163	0.0151495
797.241	0.0152174
797.319	0.0150887
797.397	0.0150212
797.475	0.0149545
797.553	0.0151402
797.631	0.0153076
797.709	0.0153175
797.788	0.0151904
797.866	0.0153829
797.944	0.0154561
798.022	0.0154784
798.100	0.0153989
798.178	0.0156305
798.256	0.0156173
798.334	0.0155972
798.413	0.0157127
798.491	0.0159422
798.569	0.0158892
798.647	0.0157889
798.725	0.0158911
798.803	0.0158472
798.881	0.0157542
798.959	0.0158965
799.038	0.0157492
799.116	0.0158891
799.194	0.0157413
799.272	0.0155351
799.350	0.0156011
799.428	0.0156959
799.506	0.0155653
799.584	0.0155002
799.663	0.0155473
799.741	0.0154342
799.819	0.0155384
799.897	0.0156202
799.975	0.0156351
800.053	0.0156586
800.131	0.0156870
800.209	0.0156583
800.288	0.0156776
800.366	0.0157005
800.444	0.0158979
800.522	0.0158294
800.600	0.0157682
800.678	0.0157555
800.756	0.0157525
800.834	0.0156511
800.913	0.0157391
800.991	0.0157341
801.069	0.0156104
801.147	0.0155386
801.225	0.0154613
801.303	0.0152255
801.381	0.0153850
801.459	0.0153127
801.538	0.0152657
801.616	0.0153274
801.694	0.0151978
801.772	0.0152265
801.850	0.0151708
801.928	0.0151429
802.006	0.0151169
802.084	0.0150652
802.163	0.0151628
802.241	0.0152697
802.319	0.0150888
802.397	0.0151572
802.475	0.0152860
802.553	0.0153636
802.631	0.0153440
802.709	0.0153902
802.788	0.0154113
802.866	0.0154827
802.944	0.0154897
803.022	0.0155176
803.100	0.0155051
803.178	0.0155724
803.256	0.0156727
803.334	0.0156963
803.413	0.0158010
803.491	0.0157029
803.569	0.0158130
803.647	0.0159432
803.725	0.0159403
803.803	0.0159576
803.881	0.0159017
803.959	0.0159679
804.038	0.0160260
804.116	0.0160048
804.194	0.0161351
804.272	0.0160106
804.350	0.0159299
804.428	0.0159949
804.506	0.0160603
804.584	0.0160052
804.663	0.0159183
804.741	0.0158056
804.819	0.0158734
804.897	0.0159142
804.975	0.0159154
805.053	0.0158011
805.131	0.0158855
805.209	0.0157504
805.288	0.0158145
805.366	0.0158393
805.444	0.0157598
805.522	0.0155762
805.600	0.0156735
805.678	0.0156007
805.756	0.0155006
805.834	0.0154704
805.913	0.0155514
805.991	0.0154725
806.069	0.0154347
806.147	0.0152833
806.225	0.0152840
806.303	0.0152014
806.381	0.0153708
806.459	0.0152206
806.538	0.0151057
806.616	0.0150618
806.694	0.0150562
806.772	0.0150751
806.850	0.0150623
806.928	0.0149431
807.006	0.0150803
807.084	0.0150446
807.163	0.0149101
807.241	0.0150301
807.319	0.0151746
807.397	0.0150920
807.475	0.0151902
807.553	0.0152575
807.631	0.0152525
807.709	0.0152446
807.788	0.0152885
807.866	0.0153497
807.944	0.0154675
808.022	0.0154209
808.100	0.0154980
808.178	0.0156071
808.256	0.0155789
808.334	0.0156613
808.413	0.0156245
808.491	0.0154552
808.569	0.0155840
808.647	0.0154845
808.725	0.0155450
808.803	0.0156654
808.881	0.0156433
808.959	0.0156995
809.038	0.0156107
809.116	0.0155803
809.194	0.0155679
809.272	0.0156252
809.350	0.0156347
809.428	0.0156036
809.506	0.0155603
809.584	0.0153858
809.663	0.0155132
809.741	0.0155146
809.819	0.0155173
809.897	0.0154572
809.975	0.0154154
810.053	0.0153429
810.131	0.0152946
810.209	0.0152335
810.288	0.0153078
810.366	0.0153817
810.444	0.0153761
810.522	0.0153796
810.600	0.0155176
810.678	0.0154768
810.756	0.0153233
810.834	0.0154615
810.913	0.0154765
810.991	0.0155214
811.069	0.0156115
811.147	0.0156284
811.225	0.0155531
811.303	0.0157018
811.381	0.0156687
811.459	0.0156319
811.538	0.0158956
811.616	0.0158244
811.694	0.0157498
811.772	0.0158933
811.850	0.0158678
811.928	0.0160352
812.006	0.0158989
812.084	0.0158781
812.163	0.0157834
812.241	0.0157194
812.319	0.0158360
812.397	0.0157952
812.475	0.0157574
812.553	0.0159289
812.631	0.0157960
812.709	0.0156271
812.788	0.0157156
812.866	0.0155777
812.944	0.0155676
813.022	0.0155515
813.100	0.0155145
813.178	0.0154828
813.256	0.0153815
813.334	0.0154359
813.413	0.0153754
813.491	0.0154063
813.569	0.0151879
813.647	0.0152523
813.725	0.0152962
813.803	0.0153430
813.881	0.0150817
813.959	0.0152321
814.038	0.0153038
814.116	0.0153582
814.194	0.0153143
814.272	0.0152532
814.350	0.0153178
814.428	0.0154115
814.506	0.0154128
814.584	0.0152897
814.663	0.0154893
814.741	0.0154153
814.819	0.0154790
814.897	0.0155473
814.975	0.0155824
815.053	0.0155520
815.131	0.0155927
815.209	0.0156564
815.288	0.0156770
815.366	0.0156252
815.444	0.0155228
815.522	0.0156908
815.600	0.0155907
815.678	0.0157979
815.756	0.0158881
815.834	0.0157331
815.913	0.0158421
815.991	0.0156103
816.069	0.0156741
816.147	0.0157304
816.225	0.0155152
816.303	0.0156669
816.381	0.0157362
816.459	0.0155982
816.538	0.0156757
816.616	0.0154529
816.694	0.0155061
816.772	0.0155083
816.850	0.0153697
816.928	0.0153400
817.006	0.0154154
817.084	0.0154353
817.163	0.0154336
817.241	0.0154572
817.319	0.0153088
817.397	0.0154191
817.475	0.0153015
817.553	0.0153468
817.631	0.0152909
817.709	0.0153032
817.788	0.0153606
817.866	0.0153197
817.944	0.0152996
818.022	0.0154366
818.100	0.0153293
818.178	0.0153682
818.256	0.0154196
818.334	0.0154495
818.413	0.0154066
818.491	0.0153931
818.569	0.0153711
818.647	0.0155121
818.725	0.0154472
818.803	0.0155112
818.881	0.0154276
818.959	0.0155667
819.038	0.0157188
819.116	0.0156264
819.194	0.0156779
819.272	0.0157364
819.350	0.0157427
819.428	0.0158063
819.506	0.0158691
819.584	0.0157402
819.663	0.0156941
819.741	0.0156525
819.819	0.0156306
819.897	0.0155891
819.975	0.0156022
820.053	0.0156153
820.131	0.0156203
820.209	0.0155593
820.288	0.0154180
820.366	0.0154369
820.444	0.0154691
820.522	0.0153620
820.600	0.0153052
820.678	0.0153038
820.756	0.0152258
820.834	0.0151962
820.913	0.0152504
820.991	0.0151736
821.069	0.0151101
821.147	0.0149583
821.225	0.0151750
821.303	0.0151825
821.381	0.0150461
821.459	0.0151416
821.538	0.0150172
821.616	0.0150031
821.694	0.0150098
821.772	0.0151290
821.850	0.0150969
821.928	0.0150211
822.006	0.0151559
822.084	0.0151308
822.163	0.0150443
822.241	0.0150943
822.319	0.0152184
822.397	0.0150844
822.475	0.0151451
822.553	0.0153309
822.631	0.0152398
822.709	0.0150609
822.788	0.0152384
822.866	0.0152168
822.944	0.0152766
823.022	0.0154095
823.100	0.0153757
823.178	0.0153804
823.256	0.0154877
823.334	0.0156003
823.413	0.0155624
823.491	0.0156053
823.569	0.0157140
823.647	0.0159449
823.725	0.0158327
823.803	0.0157928
823.881	0.0159394
823.959	0.0159875
824.038	0.0158445
824.116	0.0159620
824.194	0.0159797
824.272	0.0158787
824.350	0.0158806
824.428	0.0158671
824.506	0.0158331
824.584	0.0157890
824.663	0.0157722
824.741	0.0157822
824.819	0.0156474
824.897	0.0157637
824.975	0.0157374
825.053	0.0156498
825.131	0.0156723
825.209	0.0156325
825.288	0.0154848
825.366	0.0156841
825.444	0.0154915
825.522	0.0154521
825.600	0.0155091
825.678	0.0153996
825.756	0.0154604
825.834	0.0154379
825.913	0.0154083
825.991	0.0154546
826.069	0.0153216
826.147	0.0152481
826.225	0.0152320
826.303	0.0153270
826.381	0.0153532
826.459	0.0153114
826.538	0.0154038
826.616	0.0153577
826.694	0.0153560
826.772	0.0154237
826.850	0.0153915
826.928	0.0153664
827.006	0.0153480
827.084	0.0155167
827.163	0.0153766
827.241	0.0154170
827.319	0.0156248
827.397	0.0153822
827.475	0.0154971
827.553	0.0154755
827.631	0.0155483
827.709	0.0154344
827.788	0.0155590
827.866	0.0154896
827.944	0.0155288
828.022	0.0155349
828.100	0.0155107
828.178	0.0155099
828.256	0.0154171
828.334	0.0156005
828.413	0.0154366
828.491	0.0154936
828.569	0.0157019
828.647	0.0156055
828.725	0.0155016
828.803	0.0155762
828.881	0.0156678
828.959	0.0155902
829.038	0.0154667
829.116	0.0155822
829.194	0.0155663
829.272	0.0155086
829.350	0.0154974
829.428	0.0154697
829.506	0.0155480
829.584	0.0156230
829.663	0.0155795
829.741	0.0154937
829.819	0.0154388
829.897	0.0155466
829.975	0.0155521
830.053	0.0155150
830.131	0.0156331
830.209	0.0156897
830.288	0.0154921
830.366	0.0156451
830.444	0.0156026
830.522	0.0155571
830.600	0.0156413
830.678	0.0156535
830.756	0.0156506
830.834	0.0156390
830.913	0.0155670
830.991	0.0156338
831.069	0.0158421
831.147	0.0155203
831.225	0.0156258
831.303	0.0155648
831.381	0.0155575
831.459	0.0156519
831.538	0.0155114
831.616	0.0153812
831.694	0.0155720
831.772	0.0156165
831.850	0.0153970
831.928	0.0154644
832.006	0.0154220
832.084	0.0154878
832.163	0.0153989
832.241	0.0154738
832.319	0.0153928
832.397	0.0152348
832.475	0.0153612
832.553	0.0154027
832.631	0.0153350
832.709	0.0152399
832.788	0.0153755
832.866	0.0153332
832.944	0.0151193
833.022	0.0152110
833.100	0.0154277
833.178	0.0152513
833.256	0.0153161
833.334	0.0153293
833.413	0.0152167
833.491	0.0152881
833.569	0.0152916
833.647	0.0153528
833.725	0.0153417
833.803	0.0154191
833.881	0.0154652
833.959	0.0154247
834.038	0.0154098
834.116	0.0154988
834.194	0.0154137
834.272	0.0155631
834.350	0.0156215
834.428	0.0154597
834.506	0.0155369
834.584	0.0156444
834.663	0.0157717
834.741	0.0155981
834.819	0.0155055
834.897	0.0158584
834.975	0.0158352
835.053	0.0157553
835.131	0.0156904
835.209	0.0156462
835.288	0.0157159
835.366	0.0157770
835.444	0.0156909
835.522	0.0156934
835.600	0.0156168
835.678	0.0156422
835.756	0.0156475
835.834	0.0156525
835.913	0.0155047
835.991	0.0154583
836.069	0.0156113
836.147	0.0155099
836.225	0.0153754
836.303	0.0154843
836.381	0.0155960
836.459	0.0153555
836.538	0.0154609
836.616	0.0154844
836.694	0.0153411
836.772	0.0154308
836.850	0.0154839
836.928	0.0153300
837.006	0.0154303
837.084	0.0153500
837.163	0.0155257
837.241	0.0154774
837.319	0.0154485
837.397	0.0154541
837.475	0.0154646
837.553	0.0152883
837.631	0.0152952
837.709	0.0153832
837.788	0.0154354
837.866	0.0153510
837.944	0.0153371
838.022	0.0153571
838.100	0.0151976
838.178	0.0153529
838.256	0.0152848
838.334	0.0153530
838.413	0.0153539
838.491	0.0153599
838.569	0.0153616
838.647	0.0153837
838.725	0.0153886
838.803	0.0154344
838.881	0.0153873
838.959	0.0154638
839.038	0.0154456
839.116	0.0154712
839.194	0.0154397
839.272	0.0154871
839.350	0.0154606
839.428	0.0155244
839.506	0.0154697
839.584	0.0154767
839.663	0.0153967
839.741	0.0154092
839.819	0.0155183
839.897	0.0153841
839.975	0.0153385
840.053	0.0154916
840.131	0.0154581
840.209	0.0153937
840.288	0.0153492
840.366	0.0153342
840.444	0.0153699
840.522	0.0154157
840.600	0.0153426
840.678	0.0153745
840.756	0.0154821
840.834	0.0153065
840.913	0.0153339
840.991	0.0153321
841.069	0.0153689
841.147	0.0153461
841.225	0.0152885
841.303	0.0153797
841.381	0.0154331
841.459	0.0152937
841.538	0.0152426
841.616	0.0153209
841.694	0.0153670
841.772	0.0151698
841.850	0.0152818
841.928	0.0153271
842.006	0.0153668
842.084	0.0152921
842.163	0.0152776
842.241	0.0153873
842.319	0.0152682
842.397	0.0151835
842.475	0.0151942
842.553	0.0152893
842.631	0.0153494
842.709	0.0152100
842.788	0.0152042
842.866	0.0152985
842.944	0.0152130
843.022	0.0153532
843.100	0.0153582
843.178	0.0153825
843.256	0.0151709
843.334	0.0153638
843.413	0.0153365
843.491	0.0153657
843.569	0.0154781
843.647	0.0154441
843.725	0.0154559
843.803	0.0155836
843.881	0.0154988
843.959	0.0154742
844.038	0.0155529
844.116	0.0156596
844.194	0.0156763
844.272	0.0157130
844.350	0.0156976
844.428	0.0155430
844.506	0.0156060
844.584	0.0157062
844.663	0.0156248
844.741	0.0155478
844.819	0.0155527
844.897	0.0156971
844.975	0.0155917
845.053	0.0156369
845.131	0.0155933
845.209	0.0156353
845.288	0.0155224
845.366	0.0153883
845.444	0.0155168
845.522	0.0155846
845.600	0.0155236
845.678	0.0155219
845.756	0.0154617
845.834	0.0154510
845.913	0.0155865
845.991	0.0154726
846.069	0.0153654
846.147	0.0154600
846.225	0.0153999
846.303	0.0155466
846.381	0.0154993
846.459	0.0154408
846.538	0.0154227
846.616	0.0155257
846.694	0.0153282
846.772	0.0154040
846.850	0.0154414
846.928	0.0154768
847.006	0.0155981
847.084	0.0154547
847.163	0.0154710
847.241	0.0155586
847.319	0.0153928
847.397	0.0154120
847.475	0.0155344
847.553	0.0155409
847.631	0.0155636
847.709	0.0155486
847.788	0.0154968
847.866	0.0153851
847.944	0.0154558
848.022	0.0154414
848.100	0.0154836
848.178	0.0154160
848.256	0.0154885
848.334	0.0154781
848.413	0.0155154
848.491	0.0154587
848.569	0.0155022
848.647	0.0156103
848.725	0.0154423
848.803	0.0155120
848.881	0.0156158
848.959	0.0154401
849.038	0.0155456
849.116	0.0156133
849.194	0.0155526
849.272	0.0154534
849.350	0.0155915
849.428	0.0155434
849.506	0.0154337
849.584	0.0154992
849.663	0.0155611
849.741	0.0155002
849.819	0.0154406
849.897	0.0154041
849.975	0.0154641
850.053	0.0154422
850.131	0.0153112
850.209	0.0153248
850.288	0.0153745
850.366	0.0153255
850.444	0.0154232
850.522	0.0154100
850.600	0.0154482
850.678	0.0152795
850.756	0.0150926
850.834	0.0153218
850.913	0.0151157
850.991	0.0151896
851.069	0.0151812
851.147	0.0152312
851.225	0.0152992
851.303	0.0152957
851.381	0.0151749
851.459	0.0151310
851.538	0.0153740
851.616	0.0153424
851.694	0.0152374
851.772	0.0153974
851.850	0.0153654
851.928	0.0152998
852.006	0.0153005
852.084	0.0154121
852.163	0.0154004
852.241	0.0154392
852.319	0.0152984
852.397	0.0153397
852.475	0.0155339
852.553	0.0153904
852.631	0.0154137
852.709	0.0153184
852.788	0.0153146
852.866	0.0152798
852.944	0.0153706
853.022	0.0155443
853.100	0.0155220
853.178	0.0155291
853.256	0.0154645
853.334	0.0154616
853.413	0.0153529
853.491	0.0154094
853.569	0.0155242
853.647	0.0154842
853.725	0.0154603
853.803	0.0154521
853.881	0.0154435
853.959	0.0153823
854.038	0.0154309
854.116	0.0154305
854.194	0.0155054
854.272	0.0152854
854.350	0.0152983
854.428	0.0153819
854.506	0.0153529
854.584	0.0153596
854.663	0.0152552
854.741	0.0154111
854.819	0.0154137
854.897	0.0153743
854.975	0.0154385
855.053	0.0154074
855.131	0.0154065
855.209	0.0154969
855.288	0.0155869
855.366	0.0155064
855.444	0.0156386
855.522	0.0155463
855.600	0.0155527
855.678	0.0154343
855.756	0.0155295
855.834	0.0156394
855.913	0.0155676
855.991	0.0153555
856.069	0.0154343
856.147	0.0155299
856.225	0.0154395
856.303	0.0156023
856.381	0.0155514
856.459	0.0155555
856.538	0.0155005
856.616	0.0155990
856.694	0.0155376
856.772	0.0155176
856.850	0.0154522
856.928	0.0154305
857.006	0.0154888
857.084	0.0154622
857.163	0.0155405
857.241	0.0154553
857.319	0.0153424
857.397	0.0154601
857.475	0.0154426
857.553	0.0153963
857.631	0.0154059
857.709	0.0154076
857.788	0.0154744
857.866	0.0154510
857.944	0.0155443
858.022	0.0154446
858.100	0.0155604
858.178	0.0157121
858.256	0.0156037
858.334	0.0154815
858.413	0.0155690
858.491	0.0156570
858.569	0.0156015
858.647	0.0156805
858.725	0.0158147
858.803	0.0157069
858.881	0.0157455
858.959	0.0157108
859.038	0.0158002
859.116	0.0156594
859.194	0.0157259
859.272	0.0157255
859.350	0.0156683
859.428	0.0156347
859.506	0.0157146
859.584	0.0155958
859.663	0.0155584
859.741	0.0156522
859.819	0.0156499
859.897	0.0154446
859.975	0.0155814
860.053	0.0155459
860.131	0.0154139
860.209	0.0154276
860.288	0.0154104
860.366	0.0155038
860.444	0.0153840
860.522	0.0153151
860.600	0.0153257
860.678	0.0154850
860.756	0.0154922
860.834	0.0154792
860.913	0.0154018
860.991	0.0153478
861.069	0.0153567
861.147	0.0153469
861.225	0.0153667
861.303	0.0154081
861.381	0.0154470
861.459	0.0153753
861.538	0.0153242
861.616	0.0154314
861.694	0.0153592
861.772	0.0154140
861.850	0.0154369
861.928	0.0154292
862.006	0.0154137
862.084	0.0153755
862.163	0.0154787
862.241	0.0154761
862.319	0.0154724
862.397	0.0153952
862.475	0.0154404
862.553	0.0154373
862.631	0.0153285
862.709	0.0153506
862.788	0.0153050
862.866	0.0153880
862.944	0.0154250
863.022	0.0152785
863.100	0.0154120
863.178	0.0154433
863.256	0.0152704
863.334	0.0153816
863.413	0.0153773
863.491	0.0153339
863.569	0.0152101
863.647	0.0153299
863.725	0.0153789
863.803	0.0154610
863.881	0.0152775
863.959	0.0153020
864.038	0.0154433
864.116	0.0154905
864.194	0.0154667
864.272	0.0155051
864.350	0.0153696
864.428	0.0154447
864.506	0.0156567
864.584	0.0155065
864.663	0.0154304
864.741	0.0155388
864.819	0.0156290
864.897	0.0156305
864.975	0.0155314
865.053	0.0157545
865.131	0.0156148
865.209	0.0156773
865.288	0.0156976
865.366	0.0156422
865.444	0.0157017
865.522	0.0157819
865.600	0.0157468
865.678	0.0155171
865.756	0.0156702
865.834	0.0156039
865.913	0.0157452
865.991	0.0158062
866.069	0.0156091
866.147	0.0155395
866.225	0.0157568
866.303	0.0156296
866.381	0.0156546
866.459	0.0154336
866.538	0.0155803
866.616	0.0156807
866.694	0.0154601
866.772	0.0153838
866.850	0.0155623
866.928	0.0155623
867.006	0.0154609
867.084	0.0154194
867.163	0.0154829
867.241	0.0153117
867.319	0.0153871
867.397	0.0153812
867.475	0.0153599
867.553	0.0153573
867.631	0.0153127
867.709	0.0151838
867.788	0.0153951
867.866	0.0153345
867.944	0.0153619
868.022	0.0153302
868.100	0.0153330
868.178	0.0153517
868.256	0.0153876
868.334	0.0154073
868.413	0.0154552
868.491	0.0154807
868.569	0.0156210
868.647	0.0154249
868.725	0.0155324
868.803	0.0155126
868.881	0.0152718
868.959	0.0153661
869.038	0.0154198
869.116	0.0152856
869.194	0.0153280
869.272	0.0154203
869.350	0.0154241
869.428	0.0153901
869.506	0.0155579
869.584	0.0153823
869.663	0.0154934
869.741	0.0155712
869.819	0.0155169
869.897	0.0154799
869.975	0.0154828
870.053	0.0153574
870.131	0.0156110
870.209	0.0153493
870.288	0.0154754
870.366	0.0154264
870.444	0.0153776
870.522	0.0155379
870.600	0.0155553
870.678	0.0155328
870.756	0.0154663
870.834	0.0155603
870.913	0.0156889
870.991	0.0155208
871.069	0.0154456
871.147	0.0156506
871.225	0.0155778
871.303	0.0155213
871.381	0.0154471
871.459	0.0154766
871.538	0.0154850
871.616	0.0154765
871.694	0.0154745
871.772	0.0154351
871.850	0.0153613
871.928	0.0153609
872.006	0.0154499
872.084	0.0154153
872.163	0.0153033
872.241	0.0152245
872.319	0.0153055
872.397	0.0152776
872.475	0.0151038
872.553	0.0152328
872.631	0.0151685
872.709	0.0151124
872.788	0.0151619
872.866	0.0152493
872.944	0.0152206
873.022	0.0151869
873.100	0.0151411
873.178	0.0153197
873.256	0.0154934
873.334	0.0154206
873.413	0.0154041
873.491	0.0154884
873.569	0.0153750
873.647	0.0154328
873.725	0.0156065
873.803	0.0155772
873.881	0.0155964
873.959	0.0155629
874.038	0.0155762
874.116	0.0155183
874.194	0.0154617
874.272	0.0155647
874.350	0.0156687
874.428	0.0155961
874.506	0.0154982
874.584	0.0155010
874.663	0.0155328
874.741	0.0154321
874.819	0.0153783
874.897	0.0154831
874.975	0.0154492
875.053	0.0153297
875.131	0.0154063
875.209	0.0154257
875.288	0.0153872
875.366	0.0153481
875.444	0.0153439
875.522	0.0152529
875.600	0.0153997
875.678	0.0152795
875.756	0.0152973
875.834	0.0153310
875.913	0.0152480
875.991	0.0153359
876.069	0.0151770
876.147	0.0151971
876.225	0.0152876
876.303	0.0153941
876.381	0.0153877
876.459	0.0154084
876.538	0.0152835
876.616	0.0153918
876.694	0.0154514
876.772	0.0154400
876.850	0.0155312
876.928	0.0154619
877.006	0.0154940
877.084	0.0154919
877.163	0.0155230
877.241	0.0155179
877.319	0.0154503
877.397	0.0156903
877.475	0.0156016
877.553	0.0153771
877.631	0.0155818
877.709	0.0155104
877.788	0.0155616
877.866	0.0154194
877.944	0.0153323
878.022	0.0155077
878.100	0.0155504
878.178	0.0154966
878.256	0.0153490
878.334	0.0154632
878.413	0.0152969
878.491	0.0154058
878.569	0.0154111
878.647	0.0154524
878.725	0.0154393
878.803	0.0153252
878.881	0.0154454
878.959	0.0153966
879.038	0.0153728
879.116	0.0153445
879.194	0.0154623
879.272	0.0154749
879.350	0.0155183
879.428	0.0155106
879.506	0.0155078
879.584	0.0154785
879.663	0.0154899
879.741	0.0154913
879.819	0.0155664
879.897	0.0155804
879.975	0.0154332
880.053	0.0156203
880.131	0.0155943
880.209	0.0156389
880.288	0.0155486
880.366	0.0156448
880.444	0.0155103
880.522	0.0156741
880.600	0.0155795
880.678	0.0155822
880.756	0.0156747
880.834	0.0155430
880.913	0.0155581
880.991	0.0155238
881.069	0.0155129
881.147	0.0154546
881.225	0.0155949
881.303	0.0155473
881.381	0.0153916
881.459	0.0154543
881.538	0.0154662
881.616	0.0152792
881.694	0.0154113
881.772	0.0154498
881.850	0.0152993
881.928	0.0154015
882.006	0.0154858
882.084	0.0154884
882.163	0.0153802
882.241	0.0154629
882.319	0.0153767
882.397	0.0154190
882.475	0.0155035
882.553	0.0154691
882.631	0.0154748
882.709	0.0152498
882.788	0.0154864
882.866	0.0154998
882.944	0.0153506
883.022	0.0153141
883.100	0.0154132
883.178	0.0153398
883.256	0.0154379
883.334	0.0152846
883.413	0.0153865
883.491	0.0153471
883.569	0.0153441
883.647	0.0153148
883.725	0.0153129
883.803	0.0152692
883.881	0.0154214
883.959	0.0153264
884.038	0.0153127
884.116	0.0153165
884.194	0.0153294
884.272	0.0154262
884.350	0.0152373
884.428	0.0152634
884.506	0.0153111
884.584	0.0154305
884.663	0.0153033
884.741	0.0152732
884.819	0.0153761
884.897	0.0153509
884.975	0.0153511
885.053	0.0153968
885.131	0.0153176
885.209	0.0154506
885.288	0.0155975
885.366	0.0155302
885.444	0.0155492
885.522	0.0155827
885.600	0.0155547
885.678	0.0155968
885.756	0.0156960
885.834	0.0157054
885.913	0.0157190
885.991	0.0156615
886.069	0.0157583
886.147	0.0155293
886.225	0.0157439
886.303	0.0158065
886.381	0.0157439
886.459	0.0156717
886.538	0.0156343
886.616	0.0157056
886.694	0.0156827
886.772	0.0156213
886.850	0.0155171
886.928	0.0155261
887.006	0.0154960
887.084	0.0155489
887.163	0.0153568
887.241	0.0153548
887.319	0.0153075
887.397	0.0153117
887.475	0.0152509
887.553	0.0153382
887.631	0.0152596
887.709	0.0151514
887.788	0.0150849
887.866	0.0150610
887.944	0.0153078
888.022	0.0150877
888.100	0.0150459
888.178	0.0151400
888.256	0.0150835
888.334	0.0151762
888.413	0.0151070
888.491	0.0151695
888.569	0.0152119
888.647	0.0152744
888.725	0.0152696
888.803	0.0153273
888.881	0.0154479
888.959	0.0155095
889.038	0.0154392
889.116	0.0154258
889.194	0.0154466
889.272	0.0155177
889.350	0.0156429
889.428	0.0156561
889.506	0.0156833
889.584	0.0156704
889.663	0.0158297
889.741	0.0156581
889.819	0.0159089
889.897	0.0159074
889.975	0.0158015
890.053	0.0157438
890.131	0.0157764
890.209	0.0157156
890.288	0.0158829
890.366	0.0158142
890.444	0.0156541
890.522	0.0156676
890.600	0.0156715
890.678	0.0155789
890.756	0.0156128
890.834	0.0154063
890.913	0.0154978
890.991	0.0156948
891.069	0.0156033
891.147	0.0154418
891.225	0.0156128
891.303	0.0155483
891.381	0.0156115
891.459	0.0154310
891.538	0.0155648
891.616	0.0154929
891.694	0.0155180
891.772	0.0153986
891.850	0.0154217
891.928	0.0153667
892.006	0.0155402
892.084	0.0154524
892.163	0.0153391
892.241	0.0154720
892.319	0.0153579
892.397	0.0154890
892.475	0.0154368
892.553	0.0153384
892.631	0.0153750
892.709	0.0154305
892.788	0.0155939
892.866	0.0155436
892.944	0.0154988
893.022	0.0154485
893.100	0.0154112
893.178	0.0154237
893.256	0.0153788
893.334	0.0152803
893.413	0.0154727
893.491	0.0153407
893.569	0.0154331
893.647	0.0154056
893.725	0.0152523
893.803	0.0154536
893.881	0.0153967
893.959	0.0154156
894.038	0.0156743
894.116	0.0156119
894.194	0.0154877
894.272	0.0154668
894.350	0.0155026
894.428	0.0155864
894.506	0.0155135
894.584	0.0155548
894.663	0.0154507
894.741	0.0154803
894.819	0.0156271
894.897	0.0155531
894.975	0.0156130
895.053	0.0156838
895.131	0.0155827
895.209	0.0156373
895.288	0.0156374
895.366	0.0155949
895.444	0.0155856
895.522	0.0156195
895.600	0.0155305
895.678	0.0155303
895.756	0.0155727
895.834	0.0155824
895.913	0.0155446
895.991	0.0154390
896.069	0.0153653
896.147	0.0154163
896.225	0.0155006
896.303	0.0152410
896.381	0.0152813
896.459	0.0153693
896.538	0.0154368
896.616	0.0152353
896.694	0.0152373
896.772	0.0151400
896.850	0.0152479
896.928	0.0152360
897.006	0.0151844
897.084	0.0151257
897.163	0.0151734
897.241	0.0152132
897.319	0.0152304
897.397	0.0152605
897.475	0.0151695
897.553	0.0153259
897.631	0.0152632
897.709	0.0150821
897.788	0.0152126
897.866	0.0153860
897.944	0.0154391
898.022	0.0154194
898.100	0.0153636
898.178	0.0154974
898.256	0.0152702
898.334	0.0154083
898.413	0.0155310
898.491	0.0153724
898.569	0.0154900
898.647	0.0155446
898.725	0.0154501
898.803	0.0154825
898.881	0.0155568
898.959	0.0154967
899.038	0.0156731
899.116	0.0155722
899.194	0.0156166
899.272	0.0155196
899.350	0.0156057
899.428	0.0156377
899.506	0.0155749
899.584	0.0155444
899.663	0.0155392
899.741	0.0155502
899.819	0.0155832
899.897	0.0155856
899.975	0.0153249
900.053	0.0154712
900.131	0.0154825
900.209	0.0154066
900.288	0.0152912
900.366	0.0153381
900.444	0.0153059
900.522	0.0153465
900.600	0.0152628
900.678	0.0151283
900.756	0.0151648
900.834	0.0151137
900.913	0.0150426
900.991	0.0150777
901.069	0.0152824
901.147	0.0151370
901.225	0.0151301
901.303	0.0152133
901.381	0.0151892
901.459	0.0151247
901.538	0.0151776
901.616	0.0152348
901.694	0.0152937
901.772	0.0153439
901.850	0.0152734
901.928	0.0152051
902.006	0.0153461
902.084	0.0153429
902.163	0.0154361
902.241	0.0154539
902.319	0.0155113
902.397	0.0154958
902.475	0.0155401
902.553	0.0155714
902.631	0.0155489
902.709	0.0156263
902.788	0.0156847
902.866	0.0156180
902.944	0.0157345
903.022	0.0157664
903.100	0.0155319
903.178	0.0156166
903.256	0.0155894
903.334	0.0156670
903.413	0.0155901
903.491	0.0156030
903.569	0.0156390
903.647	0.0154749
903.725	0.0155470
903.803	0.0154984
903.881	0.0155257
903.959	0.0154603
904.038	0.0153657
904.116	0.0153941
904.194	0.0154035
904.272	0.0153224
904.350	0.0154140
904.428	0.0151597
904.506	0.0152969
904.584	0.0152332
904.663	0.0152618
904.741	0.0151344
904.819	0.0152679
904.897	0.0152293
904.975	0.0152801
905.053	0.0152166
905.131	0.0152354
905.209	0.0151926
905.288	0.0152621
905.366	0.0152485
905.444	0.0153936
905.522	0.0154491
905.600	0.0154111
905.678	0.0153807
905.756	0.0154685
905.834	0.0153894
905.913	0.0155028
905.991	0.0153430
906.069	0.0154651
906.147	0.0154150
906.225	0.0155926
906.303	0.0154406
906.381	0.0154602
906.459	0.0154996
906.538	0.0155310
906.616	0.0155817
906.694	0.0157047
906.772	0.0156853
906.850	0.0156430
906.928	0.0156909
907.006	0.0157166
907.084	0.0156908
907.163	0.0155298
907.241	0.0156591
907.319	0.0157917
907.397	0.0156783
907.475	0.0156358
907.553	0.0157092
907.631	0.0157842
907.709	0.0156906
907.788	0.0156100
907.866	0.0155061
907.944	0.0156166
908.022	0.0154552
908.100	0.0154723
908.178	0.0155473
908.256	0.0154071
908.334	0.0155042
908.413	0.0154359
908.491	0.0155108
908.569	0.0154083
908.647	0.0153988
908.725	0.0155462
908.803	0.0153908
908.881	0.0152769
908.959	0.0153616
909.038	0.0153511
909.116	0.0151672
909.194	0.0152018
909.272	0.0153606
909.350	0.0153327
909.428	0.0153214
909.506	0.0153130
909.584	0.0154956
909.663	0.0154034
909.741	0.0153938
909.819	0.0154662
909.897	0.0156567
909.975	0.0156196
910.053	0.0157678
910.131	0.0157073
910.209	0.0156642
910.288	0.0159014
910.366	0.0156926
910.444	0.0157516
910.522	0.0158645
910.600	0.0159349
910.678	0.0158639
910.756	0.0158555
910.834	0.0157638
910.913	0.0156947
910.991	0.0157854
911.069	0.0157316
911.147	0.0156929
911.225	0.0157326
911.303	0.0155921
911.381	0.0156363
911.459	0.0158067
911.538	0.0157037
911.616	0.0156593
911.694	0.0157261
911.772	0.0157303
911.850	0.0156783
911.928	0.0155389
912.006	0.0154771
912.084	0.0157136
912.163	0.0157308
912.241	0.0155949
912.319	0.0155520
912.397	0.0156178
912.475	0.0155460
912.553	0.0155392
912.631	0.0156685
912.709	0.0156473
912.788	0.0157382
912.866	0.0154875
912.944	0.0156001
913.022	0.0156856
913.100	0.0154775
913.178	0.0156325
913.256	0.0156474
913.334	0.0157221
913.413	0.0156869
913.491	0.0156613
913.569	0.0155722
913.647	0.0154950
913.725	0.0154305
913.803	0.0155433
913.881	0.0155485
913.959	0.0155061
914.038	0.0154610
914.116	0.0154416
914.194	0.0155717
914.272	0.0155831
914.350	0.0154956
914.428	0.0156784
914.506	0.0155711
914.584	0.0156067
914.663	0.0157274
914.741	0.0155657
914.819	0.0156396
914.897	0.0157164
914.975	0.0157101
915.053	0.0157696
915.131	0.0157056
915.209	0.0156376
915.288	0.0158045
915.366	0.0157111
915.444	0.0156785
915.522	0.0157504
915.600	0.0158454
915.678	0.0158556
915.756	0.0158408
915.834	0.0156876
915.913	0.0156554
915.991	0.0157277
916.069	0.0156830
916.147	0.0157643
916.225	0.0157145
916.303	0.0155547
916.381	0.0156523
916.459	0.0155968
916.538	0.0155637
916.616	0.0155555
916.694	0.0156326
916.772	0.0155820
916.850	0.0155241
916.928	0.0154684
917.006	0.0153874
917.084	0.0155594
917.163	0.0153892
917.241	0.0153094
917.319	0.0153340
917.397	0.0154570
917.475	0.0151927
917.553	0.0152504
917.631	0.0152448
917.709	0.0153291
917.788	0.0152113
917.866	0.0152495
917.944	0.0152705
918.022	0.0152486
918.100	0.0151224
918.178	0.0153732
918.256	0.0153025
918.334	0.0151682
918.413	0.0152218
918.491	0.0154411
918.569	0.0152791
918.647	0.0154357
918.725	0.0154613
918.803	0.0153953
918.881	0.0155071
918.959	0.0152405
919.038	0.0154185
919.116	0.0154966
919.194	0.0154998
919.272	0.0154583
919.350	0.0154281
919.428	0.0153926
919.506	0.0154779
919.584	0.0154986
919.663	0.0155300
919.741	0.0155322
919.819	0.0154550
919.897	0.0154474
