05/20/2022	21:18:29	Ver.	4.1	UNKNOWN
Optical Delay	599.975067	Delta X		0.078125	Sweeps	1	Scan Rate	0/0
Coordinates	Axis 1	NaN	Axis 2	NaN	Axis 3	NaN	Axis 4	NaN	Axis 5	NaN	Axis 6	0.000000
TX Power	0.000000	RX Power	0.000000

599.975	0.0155047
600.053	0.0155499
600.131	0.0155522
600.209	0.0155148
600.288	0.0155180
600.366	0.0155348
600.444	0.0155531
600.522	0.0154995
600.600	0.0155274
600.678	0.0155080
600.756	0.0153210
600.834	0.0155206
600.913	0.0156425
600.991	0.0154172
601.069	0.0155050
601.147	0.0155691
601.225	0.0155334
601.303	0.0155069
601.381	0.0154821
601.459	0.0155685
601.538	0.0155386
601.616	0.0155125
601.694	0.0155927
601.772	0.0155316
601.850	0.0154094
601.928	0.0155175
602.006	0.0155866
602.084	0.0155616
602.163	0.0155540
602.241	0.0154940
602.319	0.0156290
602.397	0.0156095
602.475	0.0155070
602.553	0.0155457
602.631	0.0156274
602.709	0.0155704
602.788	0.0154646
602.866	0.0155754
602.944	0.0156720
603.022	0.0155825
603.100	0.0155231
603.178	0.0156235
603.256	0.0155811
603.334	0.0154362
603.413	0.0155496
603.491	0.0155741
603.569	0.0155859
603.647	0.0155010
603.725	0.0156344
603.803	0.0155012
603.881	0.0155186
603.959	0.0155834
604.038	0.0156223
604.116	0.0154658
604.194	0.0154272
604.272	0.0154960
604.350	0.0155647
604.428	0.0154874
604.506	0.0155374
604.584	0.0155431
604.663	0.0156090
604.741	0.0154929
604.819	0.0153955
604.897	0.0154652
604.975	0.0156023
605.053	0.0155080
605.131	0.0154364
605.209	0.0155076
605.288	0.0153912
605.366	0.0155978
605.444	0.0154068
605.522	0.0154500
605.600	0.0155205
605.678	0.0155861
605.756	0.0155444
605.834	0.0156297
605.913	0.0155968
605.991	0.0155604
606.069	0.0154810
606.147	0.0155396
606.225	0.0156292
606.303	0.0156548
606.381	0.0155400
606.459	0.0155624
606.538	0.0156018
606.616	0.0155213
606.694	0.0154628
606.772	0.0156307
606.850	0.0154585
606.928	0.0154762
607.006	0.0155109
607.084	0.0154355
607.163	0.0154645
607.241	0.0155769
607.319	0.0155011
607.397	0.0154200
607.475	0.0155609
607.553	0.0156458
607.631	0.0154246
607.709	0.0154963
607.788	0.0153355
607.866	0.0152892
607.944	0.0153712
608.022	0.0155600
608.100	0.0154733
608.178	0.0154351
608.256	0.0154044
608.334	0.0153979
608.413	0.0155846
608.491	0.0154906
608.569	0.0154347
608.647	0.0154324
608.725	0.0154690
608.803	0.0155494
608.881	0.0154814
608.959	0.0153365
609.038	0.0153455
609.116	0.0153729
609.194	0.0155462
609.272	0.0155836
609.350	0.0154765
609.428	0.0154130
609.506	0.0153197
609.584	0.0153109
609.663	0.0153883
609.741	0.0155743
609.819	0.0155838
609.897	0.0154751
609.975	0.0154294
610.053	0.0155328
610.131	0.0154884
610.209	0.0155354
610.288	0.0156595
610.366	0.0155713
610.444	0.0156585
610.522	0.0156293
610.600	0.0155863
610.678	0.0156349
610.756	0.0155872
610.834	0.0156474
610.913	0.0156412
610.991	0.0157257
611.069	0.0155881
611.147	0.0156961
611.225	0.0157245
611.303	0.0158099
611.381	0.0157637
611.459	0.0156984
611.538	0.0156657
611.616	0.0156907
611.694	0.0155853
611.772	0.0157041
611.850	0.0157796
611.928	0.0155687
612.006	0.0157259
612.084	0.0155538
612.163	0.0157861
612.241	0.0156850
612.319	0.0156739
612.397	0.0159014
612.475	0.0155729
612.553	0.0156127
612.631	0.0157269
612.709	0.0157335
612.788	0.0156799
612.866	0.0157487
612.944	0.0158077
613.022	0.0156496
613.100	0.0157340
613.178	0.0157299
613.256	0.0156994
613.334	0.0158078
613.413	0.0157278
613.491	0.0157375
613.569	0.0157304
613.647	0.0155534
613.725	0.0156905
613.803	0.0157381
613.881	0.0157706
613.959	0.0156319
614.038	0.0156270
614.116	0.0158968
614.194	0.0156874
614.272	0.0157401
614.350	0.0157104
614.428	0.0156967
614.506	0.0157299
614.584	0.0157346
614.663	0.0157578
614.741	0.0157723
614.819	0.0156985
614.897	0.0157708
614.975	0.0157120
615.053	0.0157790
615.131	0.0157642
615.209	0.0157313
615.288	0.0157442
615.366	0.0157410
615.444	0.0157893
615.522	0.0157537
615.600	0.0157893
615.678	0.0157835
615.756	0.0157502
615.834	0.0157079
615.913	0.0157869
615.991	0.0156973
616.069	0.0156669
616.147	0.0157142
616.225	0.0157231
616.303	0.0157127
616.381	0.0157230
616.459	0.0157874
616.538	0.0158714
616.616	0.0157360
616.694	0.0156713
616.772	0.0156595
616.850	0.0154816
616.928	0.0155899
617.006	0.0156930
617.084	0.0156685
617.163	0.0157225
617.241	0.0157752
617.319	0.0156384
617.397	0.0156474
617.475	0.0158474
617.553	0.0156935
617.631	0.0156403
617.709	0.0156977
617.788	0.0156425
617.866	0.0155775
617.944	0.0155924
618.022	0.0155963
618.100	0.0156087
618.178	0.0157772
618.256	0.0156107
618.334	0.0155368
618.413	0.0155511
618.491	0.0155075
618.569	0.0155035
618.647	0.0155574
618.725	0.0154874
618.803	0.0155064
618.881	0.0154671
618.959	0.0155306
619.038	0.0155781
619.116	0.0154049
619.194	0.0156181
619.272	0.0155990
619.350	0.0155236
619.428	0.0154931
619.506	0.0154517
619.584	0.0154300
619.663	0.0155339
619.741	0.0155869
619.819	0.0155970
619.897	0.0156792
619.975	0.0155537
620.053	0.0156328
620.131	0.0155536
620.209	0.0156000
620.288	0.0155292
620.366	0.0154760
620.444	0.0155875
620.522	0.0156158
620.600	0.0155875
620.678	0.0156255
620.756	0.0153490
620.834	0.0155646
620.913	0.0154984
620.991	0.0156038
621.069	0.0156123
621.147	0.0157209
621.225	0.0155888
621.303	0.0156368
621.381	0.0157027
621.459	0.0155319
621.538	0.0154904
621.616	0.0155460
621.694	0.0154715
621.772	0.0154928
621.850	0.0155214
621.928	0.0154293
622.006	0.0153906
622.084	0.0155260
622.163	0.0154811
622.241	0.0155948
622.319	0.0155882
622.397	0.0156865
622.475	0.0156175
622.553	0.0154274
622.631	0.0155154
622.709	0.0155519
622.788	0.0156228
622.866	0.0156127
622.944	0.0155626
623.022	0.0155768
623.100	0.0156713
623.178	0.0154936
623.256	0.0154596
623.334	0.0156454
623.413	0.0155721
623.491	0.0155802
623.569	0.0156425
623.647	0.0154436
623.725	0.0156557
623.803	0.0154997
623.881	0.0155188
623.959	0.0155861
624.038	0.0155862
624.116	0.0155254
624.194	0.0154520
624.272	0.0154733
624.350	0.0154359
624.428	0.0155678
624.506	0.0154533
624.584	0.0155335
624.663	0.0154843
624.741	0.0155595
624.819	0.0155312
624.897	0.0156905
624.975	0.0156419
625.053	0.0155109
625.131	0.0155411
625.209	0.0155740
625.288	0.0153549
625.366	0.0155626
625.444	0.0155460
625.522	0.0156679
625.600	0.0155824
625.678	0.0155748
625.756	0.0155152
625.834	0.0154964
625.913	0.0155445
625.991	0.0154681
626.069	0.0155856
626.147	0.0154739
626.225	0.0154663
626.303	0.0155736
626.381	0.0153490
626.459	0.0154501
626.538	0.0155212
626.616	0.0154673
626.694	0.0156047
626.772	0.0154692
626.850	0.0155038
626.928	0.0154857
627.006	0.0154959
627.084	0.0154755
627.163	0.0155582
627.241	0.0154300
627.319	0.0153468
627.397	0.0154945
627.475	0.0154258
627.553	0.0154144
627.631	0.0154850
627.709	0.0154115
627.788	0.0155672
627.866	0.0154392
627.944	0.0154589
628.022	0.0155582
628.100	0.0156184
628.178	0.0155703
628.256	0.0154688
628.334	0.0155901
628.413	0.0156332
628.491	0.0156165
628.569	0.0154741
628.647	0.0154810
628.725	0.0155151
628.803	0.0155020
628.881	0.0154534
628.959	0.0154359
629.038	0.0154009
629.116	0.0155685
629.194	0.0155566
629.272	0.0155164
629.350	0.0155494
629.428	0.0153951
629.506	0.0157025
629.584	0.0157044
629.663	0.0156057
629.741	0.0154739
629.819	0.0155640
629.897	0.0156230
629.975	0.0154787
630.053	0.0155975
630.131	0.0154857
630.209	0.0155142
630.288	0.0157514
630.366	0.0154523
630.444	0.0155374
630.522	0.0153660
630.600	0.0154285
630.678	0.0154829
630.756	0.0154665
630.834	0.0153822
630.913	0.0153590
630.991	0.0155397
631.069	0.0154613
631.147	0.0153593
631.225	0.0154916
631.303	0.0154546
631.381	0.0155097
631.459	0.0154902
631.538	0.0155087
631.616	0.0155054
631.694	0.0155598
631.772	0.0154148
631.850	0.0155390
631.928	0.0154362
632.006	0.0154802
632.084	0.0154233
632.163	0.0155061
632.241	0.0155015
632.319	0.0154988
632.397	0.0154205
632.475	0.0155971
632.553	0.0155555
632.631	0.0155262
632.709	0.0156118
632.788	0.0155672
632.866	0.0153802
632.944	0.0155054
633.022	0.0155396
633.100	0.0155251
633.178	0.0155662
633.256	0.0154127
633.334	0.0155808
633.413	0.0154759
633.491	0.0155933
633.569	0.0155955
633.647	0.0156133
633.725	0.0156364
633.803	0.0157596
633.881	0.0157526
633.959	0.0157775
634.038	0.0157932
634.116	0.0158848
634.194	0.0158423
634.272	0.0159075
634.350	0.0158331
634.428	0.0159003
634.506	0.0158598
634.584	0.0159171
634.663	0.0158961
634.741	0.0158769
634.819	0.0159257
634.897	0.0158507
634.975	0.0159097
635.053	0.0157911
635.131	0.0158346
635.209	0.0159003
635.288	0.0157454
635.366	0.0158814
635.444	0.0158107
635.522	0.0157634
635.600	0.0158173
635.678	0.0158794
635.756	0.0159036
635.834	0.0157628
635.913	0.0159889
635.991	0.0159682
636.069	0.0159123
636.147	0.0158282
636.225	0.0159377
636.303	0.0159742
636.381	0.0160568
636.459	0.0160663
636.538	0.0160393
636.616	0.0159894
636.694	0.0159329
636.772	0.0159221
636.850	0.0159353
636.928	0.0159050
637.006	0.0159090
637.084	0.0159267
637.163	0.0159418
637.241	0.0159119
637.319	0.0158039
637.397	0.0157338
637.475	0.0158107
637.553	0.0156485
637.631	0.0156422
637.709	0.0156332
637.788	0.0156280
637.866	0.0155596
637.944	0.0154710
638.022	0.0154111
638.100	0.0156657
638.178	0.0155972
638.256	0.0154189
638.334	0.0154539
638.413	0.0154531
638.491	0.0154626
638.569	0.0154511
638.647	0.0154518
638.725	0.0155492
638.803	0.0154214
638.881	0.0155571
638.959	0.0154472
639.038	0.0154697
639.116	0.0154646
639.194	0.0154635
639.272	0.0155193
639.350	0.0155408
639.428	0.0154681
639.506	0.0155161
639.584	0.0155331
639.663	0.0155603
639.741	0.0155187
639.819	0.0154859
639.897	0.0155367
639.975	0.0154346
640.053	0.0154061
640.131	0.0156000
640.209	0.0156082
640.288	0.0154342
640.366	0.0154164
640.444	0.0153841
640.522	0.0153905
640.600	0.0154628
640.678	0.0154123
640.756	0.0153491
640.834	0.0155068
640.913	0.0154868
640.991	0.0154752
641.069	0.0154694
641.147	0.0155647
641.225	0.0155124
641.303	0.0154874
641.381	0.0154903
641.459	0.0156149
641.538	0.0155059
641.616	0.0155342
641.694	0.0155833
641.772	0.0156838
641.850	0.0155975
641.928	0.0156063
642.006	0.0154050
642.084	0.0155717
642.163	0.0157323
642.241	0.0154192
642.319	0.0155647
642.397	0.0156406
642.475	0.0154255
642.553	0.0155137
642.631	0.0154807
642.709	0.0154162
642.788	0.0154353
642.866	0.0154807
642.944	0.0154107
643.022	0.0153088
643.100	0.0154211
643.178	0.0153204
643.256	0.0153692
643.334	0.0154353
643.413	0.0154507
643.491	0.0154156
643.569	0.0153719
643.647	0.0152525
643.725	0.0154329
643.803	0.0153716
643.881	0.0155007
643.959	0.0153615
644.038	0.0153980
644.116	0.0154566
644.194	0.0154557
644.272	0.0153951
644.350	0.0155591
644.428	0.0152767
644.506	0.0154292
644.584	0.0155714
644.663	0.0153790
644.741	0.0154816
644.819	0.0155551
644.897	0.0155073
644.975	0.0155360
645.053	0.0155033
645.131	0.0155132
645.209	0.0155681
645.288	0.0154658
645.366	0.0154993
645.444	0.0154209
645.522	0.0154958
645.600	0.0156319
645.678	0.0154173
645.756	0.0155201
645.834	0.0155811
645.913	0.0154337
645.991	0.0155021
646.069	0.0154259
646.147	0.0155667
646.225	0.0156284
646.303	0.0155299
646.381	0.0154668
646.459	0.0155563
646.538	0.0154867
646.616	0.0156817
646.694	0.0156123
646.772	0.0156289
646.850	0.0154974
646.928	0.0154568
647.006	0.0155829
647.084	0.0156626
647.163	0.0156181
647.241	0.0157354
647.319	0.0156786
647.397	0.0156126
647.475	0.0156081
647.553	0.0155743
647.631	0.0156860
647.709	0.0155659
647.788	0.0154961
647.866	0.0155148
647.944	0.0156340
648.022	0.0155659
648.100	0.0156673
648.178	0.0154114
648.256	0.0154369
648.334	0.0156422
648.413	0.0154987
648.491	0.0153872
648.569	0.0154089
648.647	0.0155857
648.725	0.0154317
648.803	0.0155122
648.881	0.0154262
648.959	0.0154887
649.038	0.0155117
649.116	0.0155629
649.194	0.0153192
649.272	0.0155153
649.350	0.0155890
649.428	0.0154998
649.506	0.0155312
649.584	0.0154436
649.663	0.0155639
649.741	0.0154131
649.819	0.0155688
649.897	0.0156152
649.975	0.0154482
650.053	0.0155222
650.131	0.0154290
650.209	0.0155150
650.288	0.0154770
650.366	0.0155141
650.444	0.0153848
650.522	0.0154940
650.600	0.0154060
650.678	0.0153882
650.756	0.0154879
650.834	0.0154360
650.913	0.0154778
650.991	0.0154204
651.069	0.0153972
651.147	0.0154446
651.225	0.0153291
651.303	0.0153999
651.381	0.0153282
651.459	0.0153681
651.538	0.0154946
651.616	0.0154171
651.694	0.0153261
651.772	0.0154039
651.850	0.0154264
651.928	0.0155254
652.006	0.0153925
652.084	0.0155464
652.163	0.0155444
652.241	0.0155502
652.319	0.0155614
652.397	0.0155632
652.475	0.0154679
652.553	0.0156196
652.631	0.0155232
652.709	0.0155399
652.788	0.0156194
652.866	0.0155291
652.944	0.0155637
653.022	0.0155577
653.100	0.0157161
653.178	0.0155965
653.256	0.0156089
653.334	0.0156941
653.413	0.0157542
653.491	0.0157367
653.569	0.0155737
653.647	0.0154867
653.725	0.0155322
653.803	0.0156166
653.881	0.0155859
653.959	0.0155341
654.038	0.0156579
654.116	0.0157037
654.194	0.0156417
654.272	0.0155877
654.350	0.0155037
654.428	0.0155913
654.506	0.0156009
654.584	0.0154859
654.663	0.0156313
654.741	0.0156451
654.819	0.0157127
654.897	0.0155964
654.975	0.0157152
655.053	0.0155795
655.131	0.0156262
655.209	0.0155957
655.288	0.0157522
655.366	0.0155862
655.444	0.0155952
655.522	0.0156143
655.600	0.0156081
655.678	0.0156835
655.756	0.0156876
655.834	0.0157473
655.913	0.0157127
655.991	0.0158003
656.069	0.0156751
656.147	0.0155614
656.225	0.0156652
656.303	0.0157475
656.381	0.0156316
656.459	0.0156712
656.538	0.0157433
656.616	0.0157601
656.694	0.0158815
656.772	0.0157227
656.850	0.0156302
656.928	0.0157339
657.006	0.0157346
657.084	0.0158300
657.163	0.0159095
657.241	0.0157590
657.319	0.0157870
657.397	0.0157986
657.475	0.0157761
657.553	0.0158909
657.631	0.0157591
657.709	0.0157098
657.788	0.0158395
657.866	0.0157967
657.944	0.0158446
658.022	0.0158656
658.100	0.0155424
658.178	0.0157623
658.256	0.0158815
658.334	0.0157203
658.413	0.0156605
658.491	0.0157473
658.569	0.0156255
658.647	0.0156955
658.725	0.0156821
658.803	0.0155849
658.881	0.0157576
658.959	0.0156643
659.038	0.0157160
659.116	0.0156146
659.194	0.0155766
659.272	0.0155579
659.350	0.0155420
659.428	0.0155280
659.506	0.0154618
659.584	0.0154056
659.663	0.0154257
659.741	0.0155372
659.819	0.0155853
659.897	0.0155323
659.975	0.0155849
660.053	0.0155640
660.131	0.0155259
660.209	0.0154633
660.288	0.0155752
660.366	0.0154467
660.444	0.0156074
660.522	0.0155952
660.600	0.0155559
660.678	0.0155526
660.756	0.0156184
660.834	0.0156917
660.913	0.0156036
660.991	0.0157038
661.069	0.0155946
661.147	0.0156060
661.225	0.0157777
661.303	0.0156655
661.381	0.0156102
661.459	0.0156177
661.538	0.0156173
661.616	0.0156433
661.694	0.0157677
661.772	0.0156821
661.850	0.0156872
661.928	0.0157844
662.006	0.0155791
662.084	0.0156513
662.163	0.0158189
662.241	0.0157449
662.319	0.0156301
662.397	0.0156188
662.475	0.0155524
662.553	0.0154666
662.631	0.0154424
662.709	0.0154778
662.788	0.0153481
662.866	0.0155338
662.944	0.0154897
663.022	0.0154717
663.100	0.0155666
663.178	0.0156100
663.256	0.0156617
663.334	0.0157047
663.413	0.0157519
663.491	0.0158696
663.569	0.0159624
663.647	0.0158498
663.725	0.0157693
663.803	0.0158114
663.881	0.0157054
663.959	0.0158482
664.038	0.0157384
664.116	0.0157946
664.194	0.0156520
664.272	0.0155751
664.350	0.0155529
664.428	0.0155583
664.506	0.0156389
664.584	0.0156288
664.663	0.0155750
664.741	0.0157233
664.819	0.0155674
664.897	0.0155042
664.975	0.0156204
665.053	0.0156699
665.131	0.0157747
665.209	0.0157468
665.288	0.0157217
665.366	0.0158159
665.444	0.0156654
665.522	0.0156948
665.600	0.0156709
665.678	0.0155704
665.756	0.0155096
665.834	0.0155305
665.913	0.0155103
665.991	0.0155014
666.069	0.0153205
666.147	0.0152332
666.225	0.0152422
666.303	0.0152160
666.381	0.0152131
666.459	0.0152071
666.538	0.0150578
666.616	0.0151694
666.694	0.0153586
666.772	0.0154308
666.850	0.0153958
666.928	0.0151720
667.006	0.0153478
667.084	0.0156049
667.163	0.0155862
667.241	0.0157017
667.319	0.0156967
667.397	0.0157275
667.475	0.0157905
667.553	0.0158891
667.631	0.0159689
667.709	0.0158914
667.788	0.0159363
667.866	0.0161224
667.944	0.0161938
668.022	0.0160465
668.100	0.0160738
668.178	0.0160899
668.256	0.0160587
668.334	0.0160737
668.413	0.0160247
668.491	0.0160616
668.569	0.0158279
668.647	0.0160060
668.725	0.0159740
668.803	0.0158797
668.881	0.0158186
668.959	0.0158669
669.038	0.0158257
669.116	0.0156039
669.194	0.0155785
669.272	0.0155921
669.350	0.0154476
669.428	0.0154650
669.506	0.0152216
669.584	0.0153262
669.663	0.0152020
669.741	0.0151187
669.819	0.0150140
669.897	0.0148985
669.975	0.0150518
670.053	0.0149718
670.131	0.0149579
670.209	0.0148363
670.288	0.0148888
670.366	0.0149616
670.444	0.0150528
670.522	0.0150108
670.600	0.0151763
670.678	0.0152286
670.756	0.0153231
670.834	0.0153528
670.913	0.0153815
670.991	0.0155074
671.069	0.0154682
671.147	0.0157195
671.225	0.0160585
671.303	0.0160670
671.381	0.0161832
671.459	0.0162071
671.538	0.0161905
671.616	0.0165282
671.694	0.0166283
671.772	0.0165690
671.850	0.0165797
671.928	0.0166664
672.006	0.0166914
672.084	0.0166260
672.163	0.0166280
672.241	0.0165237
672.319	0.0165111
672.397	0.0162083
672.475	0.0162611
672.553	0.0160706
672.631	0.0160705
672.709	0.0158843
672.788	0.0156660
672.866	0.0154342
672.944	0.0151809
673.022	0.0150842
673.100	0.0147939
673.178	0.0146545
673.256	0.0144978
673.334	0.0144020
673.413	0.0142128
673.491	0.0138821
673.569	0.0139124
673.647	0.0137497
673.725	0.0140026
673.803	0.0138768
673.881	0.0137221
673.959	0.0139281
674.038	0.0140458
674.116	0.0139877
674.194	0.0141278
674.272	0.0142986
674.350	0.0144020
674.428	0.0147097
674.506	0.0147888
674.584	0.0150387
674.663	0.0151953
674.741	0.0153577
674.819	0.0156799
674.897	0.0158842
674.975	0.0162658
675.053	0.0163912
675.131	0.0165934
675.209	0.0167925
675.288	0.0170556
675.366	0.0172379
675.444	0.0174096
675.522	0.0176096
675.600	0.0177255
675.678	0.0178078
675.756	0.0178938
675.834	0.0178451
675.913	0.0176468
675.991	0.0177046
676.069	0.0176727
676.147	0.0173700
676.225	0.0173069
676.303	0.0170000
676.381	0.0167283
676.459	0.0164314
676.538	0.0161102
676.616	0.0158926
676.694	0.0156664
676.772	0.0155142
676.850	0.0152174
676.928	0.0149137
677.006	0.0146340
677.084	0.0143906
677.163	0.0142027
677.241	0.0141217
677.319	0.0137943
677.397	0.0137599
677.475	0.0137875
677.553	0.0135054
677.631	0.0134391
677.709	0.0133960
677.788	0.0133213
677.866	0.0133532
677.944	0.0134406
678.022	0.0134566
678.100	0.0136927
678.178	0.0138062
678.256	0.0140737
678.334	0.0142799
678.413	0.0144336
678.491	0.0147200
678.569	0.0148850
678.647	0.0154121
678.725	0.0155821
678.803	0.0159174
678.881	0.0162658
678.959	0.0165266
679.038	0.0167835
679.116	0.0169809
679.194	0.0171139
679.272	0.0172491
679.350	0.0173376
679.428	0.0174857
679.506	0.0174680
679.584	0.0176087
679.663	0.0175474
679.741	0.0174341
679.819	0.0173114
679.897	0.0172537
679.975	0.0172166
680.053	0.0168948
680.131	0.0168140
680.209	0.0166090
680.288	0.0163461
680.366	0.0162534
680.444	0.0160026
680.522	0.0158735
680.600	0.0154604
680.678	0.0152657
680.756	0.0151718
680.834	0.0150767
680.913	0.0148009
680.991	0.0146032
681.069	0.0146147
681.147	0.0145390
681.225	0.0144637
681.303	0.0146922
681.381	0.0146927
681.459	0.0144921
681.538	0.0145583
681.616	0.0146244
681.694	0.0147790
681.772	0.0148537
681.850	0.0148901
681.928	0.0150900
682.006	0.0153074
682.084	0.0152618
682.163	0.0153065
682.241	0.0154668
682.319	0.0155029
682.397	0.0155962
682.475	0.0156364
682.553	0.0155920
682.631	0.0157806
682.709	0.0157166
682.788	0.0157657
682.866	0.0158158
682.944	0.0157098
683.022	0.0158344
683.100	0.0157565
683.178	0.0156104
683.256	0.0154459
683.334	0.0153601
683.413	0.0153098
683.491	0.0152182
683.569	0.0150517
683.647	0.0150262
683.725	0.0149754
683.803	0.0149551
683.881	0.0147534
683.959	0.0147501
684.038	0.0147240
684.116	0.0148786
684.194	0.0149549
684.272	0.0148862
684.350	0.0151461
684.428	0.0152669
684.506	0.0152598
684.584	0.0153637
684.663	0.0155014
684.741	0.0156290
684.819	0.0156292
684.897	0.0156705
684.975	0.0157350
685.053	0.0159191
685.131	0.0159946
685.209	0.0158908
685.288	0.0160129
685.366	0.0162019
685.444	0.0163054
685.522	0.0162771
685.600	0.0163262
685.678	0.0164659
685.756	0.0164783
685.834	0.0165681
685.913	0.0165641
685.991	0.0165493
686.069	0.0164981
686.147	0.0163164
686.225	0.0164619
686.303	0.0163972
686.381	0.0162780
686.459	0.0161604
686.538	0.0161710
686.616	0.0160849
686.694	0.0159142
686.772	0.0159698
686.850	0.0160165
686.928	0.0159464
687.006	0.0157500
687.084	0.0157670
687.163	0.0158167
687.241	0.0159009
687.319	0.0157557
687.397	0.0156558
687.475	0.0155764
687.553	0.0154557
687.631	0.0154475
687.709	0.0154103
687.788	0.0152609
687.866	0.0151750
687.944	0.0150798
688.022	0.0151085
688.100	0.0149770
688.178	0.0150825
688.256	0.0147720
688.334	0.0148521
688.413	0.0149924
688.491	0.0150127
688.569	0.0149048
688.647	0.0148985
688.725	0.0150639
688.803	0.0150293
688.881	0.0150642
688.959	0.0151397
689.038	0.0151449
689.116	0.0151504
689.194	0.0150892
689.272	0.0150390
689.350	0.0150272
689.428	0.0149839
689.506	0.0150458
689.584	0.0150378
689.663	0.0150567
689.741	0.0153362
689.819	0.0153913
689.897	0.0156406
689.975	0.0156718
690.053	0.0159624
690.131	0.0162456
690.209	0.0163547
690.288	0.0164804
690.366	0.0167797
690.444	0.0168443
690.522	0.0172183
690.600	0.0171921
690.678	0.0172945
690.756	0.0174989
690.834	0.0175592
690.913	0.0175793
690.991	0.0177789
691.069	0.0175795
691.147	0.0176100
691.225	0.0174387
691.303	0.0174699
691.381	0.0173429
691.459	0.0172260
691.538	0.0170261
691.616	0.0168052
691.694	0.0165797
691.772	0.0161882
691.850	0.0159219
691.928	0.0156120
692.006	0.0151383
692.084	0.0150111
692.163	0.0146500
692.241	0.0144490
692.319	0.0141092
692.397	0.0139238
692.475	0.0138003
692.553	0.0135623
692.631	0.0134265
692.709	0.0133690
692.788	0.0133620
692.866	0.0134062
692.944	0.0133330
693.022	0.0132626
693.100	0.0134837
693.178	0.0135684
693.256	0.0137408
693.334	0.0140499
693.413	0.0144581
693.491	0.0147393
693.569	0.0148667
693.647	0.0152633
693.725	0.0155359
693.803	0.0158735
693.881	0.0163105
693.959	0.0166442
694.038	0.0169930
694.116	0.0172832
694.194	0.0174111
694.272	0.0175883
694.350	0.0177712
694.428	0.0181505
694.506	0.0179374
694.584	0.0179735
694.663	0.0178627
694.741	0.0178398
694.819	0.0176564
694.897	0.0173431
694.975	0.0172276
695.053	0.0170597
695.131	0.0166854
695.209	0.0166153
695.288	0.0163831
695.366	0.0159600
695.444	0.0156030
695.522	0.0152325
695.600	0.0151517
695.678	0.0147133
695.756	0.0143562
695.834	0.0141873
695.913	0.0140809
695.991	0.0135829
696.069	0.0135374
696.147	0.0134205
696.225	0.0133072
696.303	0.0134042
696.381	0.0134255
696.459	0.0134698
696.538	0.0135293
696.616	0.0138940
696.694	0.0141451
696.772	0.0143537
696.850	0.0145879
696.928	0.0147305
697.006	0.0152011
697.084	0.0153270
697.163	0.0155652
697.241	0.0160474
697.319	0.0162266
697.397	0.0165720
697.475	0.0168521
697.553	0.0168572
697.631	0.0169383
697.709	0.0171074
697.788	0.0172485
697.866	0.0175181
697.944	0.0172519
698.022	0.0174195
698.100	0.0172764
698.178	0.0171694
698.256	0.0170869
698.334	0.0170297
698.413	0.0169179
698.491	0.0166251
698.569	0.0164806
698.647	0.0164345
698.725	0.0160823
698.803	0.0160490
698.881	0.0159518
698.959	0.0156312
699.038	0.0151939
699.116	0.0149775
699.194	0.0147852
699.272	0.0147514
699.350	0.0145729
699.428	0.0143497
699.506	0.0142037
699.584	0.0141531
699.663	0.0140103
699.741	0.0140570
699.819	0.0141417
699.897	0.0140948
699.975	0.0141502
700.053	0.0142561
700.131	0.0142611
700.209	0.0143900
700.288	0.0143976
700.366	0.0145772
700.444	0.0147371
700.522	0.0146139
700.600	0.0146841
700.678	0.0147633
700.756	0.0148206
700.834	0.0149799
700.913	0.0151836
700.991	0.0152673
701.069	0.0153783
701.147	0.0155216
701.225	0.0157852
701.303	0.0158822
701.381	0.0160786
701.459	0.0161216
701.538	0.0164190
701.616	0.0165361
701.694	0.0166080
701.772	0.0166272
701.850	0.0167992
701.928	0.0170200
702.006	0.0168481
702.084	0.0169176
702.163	0.0170859
702.241	0.0169405
702.319	0.0170414
702.397	0.0169277
702.475	0.0169993
702.553	0.0169538
702.631	0.0169079
702.709	0.0168401
702.788	0.0167250
702.866	0.0165896
702.944	0.0165331
703.022	0.0162450
703.100	0.0160767
703.178	0.0158754
703.256	0.0153861
703.334	0.0152628
703.413	0.0150806
703.491	0.0147050
703.569	0.0145943
703.647	0.0143873
703.725	0.0143538
703.803	0.0141505
703.881	0.0143562
703.959	0.0141951
704.038	0.0141861
704.116	0.0141544
704.194	0.0140263
704.272	0.0142984
704.350	0.0142801
704.428	0.0143150
704.506	0.0144306
704.584	0.0145194
704.663	0.0145585
704.741	0.0147148
704.819	0.0147503
704.897	0.0147594
704.975	0.0149599
705.053	0.0151771
705.131	0.0152066
705.209	0.0151578
705.288	0.0154507
705.366	0.0154602
705.444	0.0154473
705.522	0.0153128
705.600	0.0153742
705.678	0.0152766
705.756	0.0149699
705.834	0.0149606
705.913	0.0147720
705.991	0.0146536
706.069	0.0145471
706.147	0.0144286
706.225	0.0143166
706.303	0.0144334
706.381	0.0144400
706.459	0.0144846
706.538	0.0146700
706.616	0.0148579
706.694	0.0149809
706.772	0.0152528
706.850	0.0154765
706.928	0.0156178
707.006	0.0160251
707.084	0.0161633
707.163	0.0163802
707.241	0.0167625
707.319	0.0169872
707.397	0.0171304
707.475	0.0172718
707.553	0.0174512
707.631	0.0177712
707.709	0.0176780
707.788	0.0178572
707.866	0.0179794
707.944	0.0180528
708.022	0.0180338
708.100	0.0178269
708.178	0.0179153
708.256	0.0179661
708.334	0.0176499
708.413	0.0174132
708.491	0.0172416
708.569	0.0171148
708.647	0.0166088
708.725	0.0162482
708.803	0.0159415
708.881	0.0157708
708.959	0.0152105
709.038	0.0148238
709.116	0.0144951
709.194	0.0141502
709.272	0.0137738
709.350	0.0135268
709.428	0.0132161
709.506	0.0128665
709.584	0.0128355
709.663	0.0126777
709.741	0.0124733
709.819	0.0123966
709.897	0.0124509
709.975	0.0124144
710.053	0.0126760
710.131	0.0127650
710.209	0.0127947
710.288	0.0131824
710.366	0.0133958
710.444	0.0135406
710.522	0.0139565
710.600	0.0141254
710.678	0.0144440
710.756	0.0147863
710.834	0.0152222
710.913	0.0155066
710.991	0.0159751
711.069	0.0163846
711.147	0.0168367
711.225	0.0170560
711.303	0.0173906
711.381	0.0174868
711.459	0.0176984
711.538	0.0177308
711.616	0.0178024
711.694	0.0178317
711.772	0.0178738
711.850	0.0178201
711.928	0.0179059
712.006	0.0177431
712.084	0.0175677
712.163	0.0173772
712.241	0.0173466
712.319	0.0172812
712.397	0.0171268
712.475	0.0169081
712.553	0.0168148
712.631	0.0166445
712.709	0.0162889
712.788	0.0163326
712.866	0.0161369
712.944	0.0159329
713.022	0.0156638
713.100	0.0154888
713.178	0.0154996
713.256	0.0152202
713.334	0.0150548
713.413	0.0149798
713.491	0.0149717
713.569	0.0149732
713.647	0.0148011
713.725	0.0151220
713.803	0.0150340
713.881	0.0150977
713.959	0.0151594
714.038	0.0151478
714.116	0.0153326
714.194	0.0154030
714.272	0.0155145
714.350	0.0156416
714.428	0.0156621
714.506	0.0157805
714.584	0.0157539
714.663	0.0156611
714.741	0.0157742
714.819	0.0158916
714.897	0.0159288
714.975	0.0160249
715.053	0.0162066
715.131	0.0162087
715.209	0.0164141
715.288	0.0165401
715.366	0.0164082
715.444	0.0164778
715.522	0.0163921
715.600	0.0165010
715.678	0.0163447
715.756	0.0162405
715.834	0.0162040
715.913	0.0161160
715.991	0.0157875
716.069	0.0156960
716.147	0.0154997
716.225	0.0153972
716.303	0.0152817
716.381	0.0149924
716.459	0.0149903
716.538	0.0148450
716.616	0.0147449
716.694	0.0145831
716.772	0.0145827
716.850	0.0144033
716.928	0.0144650
717.006	0.0144595
717.084	0.0144863
717.163	0.0143845
717.241	0.0143511
717.319	0.0145106
717.397	0.0145097
717.475	0.0145048
717.553	0.0146076
717.631	0.0146774
717.709	0.0146535
717.788	0.0148890
717.866	0.0149284
717.944	0.0152071
718.022	0.0152483
718.100	0.0156024
718.178	0.0157137
718.256	0.0158086
718.334	0.0159196
718.413	0.0160696
718.491	0.0163968
718.569	0.0163385
718.647	0.0166071
718.725	0.0166154
718.803	0.0166908
718.881	0.0166914
718.959	0.0166422
719.038	0.0167802
719.116	0.0167220
719.194	0.0166399
719.272	0.0165768
719.350	0.0164407
719.428	0.0163842
719.506	0.0161145
719.584	0.0160822
719.663	0.0157774
719.741	0.0158251
719.819	0.0158116
719.897	0.0156255
719.975	0.0156021
720.053	0.0154652
720.131	0.0153543
720.209	0.0152633
720.288	0.0152868
720.366	0.0151854
720.444	0.0151817
720.522	0.0150864
720.600	0.0150742
720.678	0.0150009
720.756	0.0151659
720.834	0.0152066
720.913	0.0152034
720.991	0.0152457
721.069	0.0153760
721.147	0.0155022
721.225	0.0155121
721.303	0.0155887
721.381	0.0156059
721.459	0.0157203
721.538	0.0158135
721.616	0.0156983
721.694	0.0156565
721.772	0.0157616
721.850	0.0157680
721.928	0.0160017
722.006	0.0159346
722.084	0.0161259
722.163	0.0162493
722.241	0.0162183
722.319	0.0162817
722.397	0.0163056
722.475	0.0163624
722.553	0.0164243
722.631	0.0163799
722.709	0.0163033
722.788	0.0162107
722.866	0.0161794
722.944	0.0161293
723.022	0.0161478
723.100	0.0161127
723.178	0.0159354
723.256	0.0159040
723.334	0.0157386
723.413	0.0157739
723.491	0.0158229
723.569	0.0159064
723.647	0.0156506
723.725	0.0155594
723.803	0.0156088
723.881	0.0156084
723.959	0.0153298
724.038	0.0152497
724.116	0.0151322
724.194	0.0148717
724.272	0.0148820
724.350	0.0148077
724.428	0.0145547
724.506	0.0143970
724.584	0.0144711
724.663	0.0144294
724.741	0.0144154
724.819	0.0144176
724.897	0.0143598
724.975	0.0141568
725.053	0.0142445
725.131	0.0141129
725.209	0.0141457
725.288	0.0139564
725.366	0.0138836
725.444	0.0137435
725.522	0.0138577
725.600	0.0139178
725.678	0.0136603
725.756	0.0136512
725.834	0.0136752
725.913	0.0137277
725.991	0.0139369
726.069	0.0139445
726.147	0.0142431
726.225	0.0142494
726.303	0.0145041
726.381	0.0146014
726.459	0.0146449
726.538	0.0150277
726.616	0.0151806
726.694	0.0154965
726.772	0.0155449
726.850	0.0156430
726.928	0.0159982
727.006	0.0160346
727.084	0.0163002
727.163	0.0165125
727.241	0.0166186
727.319	0.0167058
727.397	0.0169836
727.475	0.0171368
727.553	0.0171207
727.631	0.0172083
727.709	0.0172673
727.788	0.0175593
727.866	0.0174726
727.944	0.0175932
728.022	0.0177506
728.100	0.0177077
728.178	0.0176838
728.256	0.0178163
728.334	0.0176908
728.413	0.0176642
728.491	0.0175625
728.569	0.0173896
728.647	0.0173743
728.725	0.0172083
728.803	0.0170301
728.881	0.0169079
728.959	0.0166872
729.038	0.0164874
729.116	0.0164136
729.194	0.0161149
729.272	0.0158923
729.350	0.0156291
729.428	0.0154434
729.506	0.0150894
729.584	0.0148621
729.663	0.0145800
729.741	0.0145547
729.819	0.0141878
729.897	0.0140236
729.975	0.0138249
730.053	0.0135884
730.131	0.0133380
730.209	0.0134705
730.288	0.0132500
730.366	0.0131353
730.444	0.0130954
730.522	0.0131330
730.600	0.0130947
730.678	0.0132019
730.756	0.0132280
730.834	0.0132864
730.913	0.0134888
730.991	0.0136672
731.069	0.0138133
731.147	0.0140849
731.225	0.0140337
731.303	0.0142882
731.381	0.0145469
731.459	0.0147230
731.538	0.0150329
731.616	0.0152269
731.694	0.0154798
731.772	0.0157919
731.850	0.0159532
731.928	0.0161986
732.006	0.0163361
732.084	0.0166003
732.163	0.0167501
732.241	0.0169456
732.319	0.0170906
732.397	0.0170446
732.475	0.0172505
732.553	0.0173483
732.631	0.0172610
732.709	0.0173528
732.788	0.0173296
732.866	0.0172395
732.944	0.0172075
733.022	0.0170518
733.100	0.0169264
733.178	0.0168592
733.256	0.0167361
733.334	0.0167245
733.413	0.0166348
733.491	0.0164842
733.569	0.0163794
733.647	0.0163799
733.725	0.0161523
733.803	0.0161972
733.881	0.0160237
733.959	0.0158589
734.038	0.0156564
734.116	0.0156422
734.194	0.0155176
734.272	0.0155456
734.350	0.0156068
734.428	0.0154826
734.506	0.0154820
734.584	0.0154360
734.663	0.0155584
734.741	0.0153586
734.819	0.0154666
734.897	0.0154145
734.975	0.0152437
735.053	0.0152133
735.131	0.0150742
735.209	0.0149635
735.288	0.0148081
735.366	0.0149165
735.444	0.0147192
735.522	0.0146112
735.600	0.0146976
735.678	0.0146299
735.756	0.0146017
735.834	0.0146847
735.913	0.0148232
735.991	0.0149016
736.069	0.0149704
736.147	0.0152530
736.225	0.0152404
736.303	0.0154929
736.381	0.0154199
736.459	0.0156232
736.538	0.0157786
736.616	0.0157949
736.694	0.0158317
736.772	0.0161326
736.850	0.0161434
736.928	0.0161544
737.006	0.0160570
737.084	0.0164250
737.163	0.0163538
737.241	0.0164906
737.319	0.0165153
737.397	0.0165672
737.475	0.0166098
737.553	0.0167295
737.631	0.0166850
737.709	0.0167010
737.788	0.0168320
737.866	0.0166998
737.944	0.0164970
738.022	0.0164310
738.100	0.0162615
738.178	0.0160004
738.256	0.0157536
738.334	0.0155740
738.413	0.0153740
738.491	0.0150679
738.569	0.0148573
738.647	0.0147433
738.725	0.0146336
738.803	0.0145130
738.881	0.0144566
738.959	0.0145885
739.038	0.0145879
739.116	0.0144713
739.194	0.0145690
739.272	0.0147511
739.350	0.0148113
739.428	0.0149959
739.506	0.0150594
739.584	0.0151801
739.663	0.0150659
739.741	0.0152631
739.819	0.0153118
739.897	0.0152066
739.975	0.0153160
740.053	0.0152082
740.131	0.0153632
740.209	0.0153587
740.288	0.0153639
740.366	0.0155230
740.444	0.0154086
740.522	0.0155168
740.600	0.0154856
740.678	0.0156149
740.756	0.0154763
740.834	0.0155888
740.913	0.0156165
740.991	0.0155092
741.069	0.0151759
741.147	0.0153247
741.225	0.0152889
741.303	0.0151796
741.381	0.0152575
741.459	0.0151595
741.538	0.0150320
741.616	0.0152017
741.694	0.0152496
741.772	0.0152663
741.850	0.0151640
741.928	0.0151628
742.006	0.0153146
742.084	0.0154994
742.163	0.0155619
742.241	0.0156998
742.319	0.0157706
742.397	0.0158956
742.475	0.0160731
742.553	0.0159834
742.631	0.0162813
742.709	0.0163920
742.788	0.0164045
742.866	0.0164696
742.944	0.0166061
743.022	0.0168267
743.100	0.0169832
743.178	0.0169254
743.256	0.0170293
743.334	0.0171493
743.413	0.0173080
743.491	0.0171712
743.569	0.0170535
743.647	0.0169646
743.725	0.0170904
743.803	0.0169867
743.881	0.0166717
743.959	0.0165865
744.038	0.0165685
744.116	0.0163877
744.194	0.0162822
744.272	0.0160062
744.350	0.0158589
744.428	0.0155235
744.506	0.0151682
744.584	0.0152014
744.663	0.0151065
744.741	0.0147814
744.819	0.0146511
744.897	0.0144629
744.975	0.0143534
745.053	0.0141141
745.131	0.0139178
745.209	0.0138977
745.288	0.0136913
745.366	0.0135567
745.444	0.0135109
745.522	0.0136472
745.600	0.0135278
745.678	0.0134450
745.756	0.0135428
745.834	0.0135246
745.913	0.0135789
745.991	0.0137571
746.069	0.0138087
746.147	0.0139871
746.225	0.0142431
746.303	0.0144422
746.381	0.0145874
746.459	0.0147746
746.538	0.0150350
746.616	0.0155065
746.694	0.0154620
746.772	0.0158825
746.850	0.0159356
746.928	0.0160966
747.006	0.0162915
747.084	0.0164256
747.163	0.0165897
747.241	0.0168392
747.319	0.0169012
747.397	0.0168861
747.475	0.0169848
747.553	0.0169673
747.631	0.0168578
747.709	0.0167543
747.788	0.0166992
747.866	0.0166080
747.944	0.0165630
748.022	0.0162637
748.100	0.0161172
748.178	0.0160490
748.256	0.0158291
748.334	0.0157230
748.413	0.0156409
748.491	0.0156068
748.569	0.0155331
748.647	0.0153526
748.725	0.0154391
748.803	0.0152841
748.881	0.0154152
748.959	0.0152931
749.038	0.0153360
749.116	0.0152880
749.194	0.0153691
749.272	0.0153506
749.350	0.0152210
749.428	0.0152480
749.506	0.0152020
749.584	0.0153268
749.663	0.0154592
749.741	0.0153287
749.819	0.0154837
749.897	0.0156297
749.975	0.0155186
750.053	0.0155153
750.131	0.0154679
750.209	0.0155885
750.288	0.0155546
750.366	0.0157922
750.444	0.0156818
750.522	0.0155987
750.600	0.0157658
750.678	0.0157510
750.756	0.0158181
750.834	0.0156731
750.913	0.0156596
750.991	0.0156818
751.069	0.0157558
751.147	0.0157024
751.225	0.0156935
751.303	0.0156032
751.381	0.0157520
751.459	0.0156905
751.538	0.0156148
751.616	0.0156287
751.694	0.0155828
751.772	0.0155884
751.850	0.0154516
751.928	0.0155057
752.006	0.0155594
752.084	0.0155377
752.163	0.0156273
752.241	0.0155904
752.319	0.0154454
752.397	0.0155013
752.475	0.0154224
752.553	0.0154133
752.631	0.0155115
752.709	0.0154668
752.788	0.0154099
752.866	0.0153030
752.944	0.0152705
753.022	0.0150513
753.100	0.0150044
753.178	0.0150018
753.256	0.0148453
753.334	0.0148832
753.413	0.0147938
753.491	0.0146858
753.569	0.0147520
753.647	0.0147792
753.725	0.0147355
753.803	0.0148397
753.881	0.0149931
753.959	0.0152531
754.038	0.0149761
754.116	0.0153533
754.194	0.0153965
754.272	0.0155332
754.350	0.0158080
754.428	0.0157201
754.506	0.0159017
754.584	0.0159432
754.663	0.0159797
754.741	0.0160329
754.819	0.0159905
754.897	0.0161433
754.975	0.0160954
755.053	0.0161533
755.131	0.0160817
755.209	0.0161694
755.288	0.0160831
755.366	0.0161720
755.444	0.0161319
755.522	0.0161730
755.600	0.0158721
755.678	0.0159630
755.756	0.0159911
755.834	0.0159680
755.913	0.0157690
755.991	0.0156796
756.069	0.0157826
756.147	0.0156541
756.225	0.0155041
756.303	0.0153689
756.381	0.0153532
756.459	0.0152837
756.538	0.0152243
756.616	0.0151170
756.694	0.0150360
756.772	0.0151247
756.850	0.0150931
756.928	0.0148989
757.006	0.0150309
757.084	0.0151315
757.163	0.0151260
757.241	0.0151208
757.319	0.0151990
757.397	0.0153865
757.475	0.0153813
757.553	0.0153305
757.631	0.0153798
757.709	0.0155246
757.788	0.0156954
757.866	0.0154401
757.944	0.0156007
758.022	0.0157596
758.100	0.0156150
758.178	0.0158012
758.256	0.0157558
758.334	0.0158079
758.413	0.0159263
758.491	0.0159164
758.569	0.0160595
758.647	0.0160254
758.725	0.0160318
758.803	0.0161813
758.881	0.0161363
758.959	0.0160516
759.038	0.0161024
759.116	0.0161438
759.194	0.0160627
759.272	0.0159651
759.350	0.0160008
759.428	0.0160091
759.506	0.0160631
759.584	0.0161046
759.663	0.0159209
759.741	0.0159912
759.819	0.0159298
759.897	0.0159925
759.975	0.0159547
760.053	0.0159709
760.131	0.0159050
760.209	0.0158028
760.288	0.0158655
760.366	0.0156489
760.444	0.0157028
760.522	0.0155947
760.600	0.0154397
760.678	0.0155020
760.756	0.0153501
760.834	0.0155553
760.913	0.0153443
760.991	0.0151669
761.069	0.0152441
761.147	0.0152336
761.225	0.0151974
761.303	0.0150787
761.381	0.0151391
761.459	0.0150497
761.538	0.0150436
761.616	0.0151036
761.694	0.0150449
761.772	0.0150600
761.850	0.0150034
761.928	0.0150839
762.006	0.0150525
762.084	0.0149442
762.163	0.0151488
762.241	0.0150645
762.319	0.0151076
762.397	0.0152635
762.475	0.0152179
762.553	0.0153132
762.631	0.0153363
762.709	0.0153137
762.788	0.0154394
762.866	0.0155292
762.944	0.0155525
763.022	0.0156139
763.100	0.0157600
763.178	0.0157084
763.256	0.0157315
763.334	0.0157342
763.413	0.0158218
763.491	0.0159109
763.569	0.0158517
763.647	0.0159637
763.725	0.0160415
763.803	0.0163056
763.881	0.0161217
763.959	0.0163769
764.038	0.0163817
764.116	0.0164883
764.194	0.0163579
764.272	0.0162747
764.350	0.0162693
764.428	0.0162354
764.506	0.0163290
764.584	0.0161378
764.663	0.0161505
764.741	0.0159940
764.819	0.0159855
764.897	0.0158206
764.975	0.0158448
765.053	0.0159034
765.131	0.0157270
765.209	0.0155918
765.288	0.0155891
765.366	0.0155675
765.444	0.0155367
765.522	0.0155879
765.600	0.0155430
765.678	0.0154357
765.756	0.0154674
765.834	0.0155182
765.913	0.0154565
765.991	0.0152034
766.069	0.0154079
766.147	0.0154207
766.225	0.0152996
766.303	0.0152151
766.381	0.0152982
766.459	0.0153725
766.538	0.0152022
766.616	0.0152473
766.694	0.0153265
766.772	0.0151799
766.850	0.0152327
766.928	0.0151660
767.006	0.0153068
767.084	0.0152744
767.163	0.0150937
767.241	0.0152433
767.319	0.0151031
767.397	0.0150816
767.475	0.0150387
767.553	0.0150669
767.631	0.0150990
767.709	0.0152222
767.788	0.0151046
767.866	0.0151160
767.944	0.0151905
768.022	0.0150649
768.100	0.0151705
768.178	0.0152399
768.256	0.0154753
768.334	0.0154575
768.413	0.0155210
768.491	0.0156361
768.569	0.0157104
768.647	0.0156950
768.725	0.0157530
768.803	0.0157903
768.881	0.0157404
768.959	0.0157308
769.038	0.0158479
769.116	0.0157866
769.194	0.0156547
769.272	0.0157967
769.350	0.0157388
769.428	0.0156660
769.506	0.0156080
769.584	0.0155873
769.663	0.0155852
769.741	0.0155975
769.819	0.0156127
769.897	0.0154832
769.975	0.0156288
770.053	0.0155659
770.131	0.0155993
770.209	0.0155354
770.288	0.0155934
770.366	0.0156193
770.444	0.0154513
770.522	0.0154690
770.600	0.0154874
770.678	0.0154799
770.756	0.0153355
770.834	0.0151528
770.913	0.0152340
770.991	0.0152795
771.069	0.0152627
771.147	0.0152041
771.225	0.0152945
771.303	0.0152834
771.381	0.0151746
771.459	0.0151561
771.538	0.0152027
771.616	0.0153868
771.694	0.0153780
771.772	0.0154277
771.850	0.0156079
771.928	0.0155139
772.006	0.0156219
772.084	0.0156191
772.163	0.0156989
772.241	0.0156790
772.319	0.0157903
772.397	0.0158945
772.475	0.0157928
772.553	0.0158794
772.631	0.0158086
772.709	0.0158170
772.788	0.0158579
772.866	0.0158134
772.944	0.0158045
773.022	0.0157536
773.100	0.0157967
773.178	0.0158869
773.256	0.0158961
773.334	0.0157976
773.413	0.0158065
773.491	0.0158144
773.569	0.0157212
773.647	0.0158514
773.725	0.0157258
773.803	0.0157671
773.881	0.0157082
773.959	0.0157677
774.038	0.0155892
774.116	0.0156271
774.194	0.0156277
774.272	0.0156657
774.350	0.0157674
774.428	0.0158045
774.506	0.0158182
774.584	0.0156815
774.663	0.0157626
774.741	0.0156892
774.819	0.0156366
774.897	0.0157259
774.975	0.0153963
775.053	0.0155318
775.131	0.0155164
775.209	0.0155047
775.288	0.0152724
775.366	0.0154839
775.444	0.0153793
775.522	0.0154433
775.600	0.0155654
775.678	0.0153559
775.756	0.0152519
775.834	0.0153064
775.913	0.0152287
775.991	0.0153922
776.069	0.0154617
776.147	0.0154173
776.225	0.0154178
776.303	0.0154915
776.381	0.0154027
776.459	0.0155217
776.538	0.0154858
776.616	0.0154046
776.694	0.0154646
776.772	0.0156755
776.850	0.0156792
776.928	0.0156932
777.006	0.0157355
777.084	0.0157204
777.163	0.0157097
777.241	0.0157129
777.319	0.0156134
777.397	0.0157707
777.475	0.0155682
777.553	0.0156033
777.631	0.0156260
777.709	0.0153958
777.788	0.0155248
777.866	0.0153666
777.944	0.0154593
778.022	0.0154991
778.100	0.0154253
778.178	0.0153847
778.256	0.0153803
778.334	0.0153629
778.413	0.0155453
778.491	0.0155825
778.569	0.0154764
778.647	0.0156361
778.725	0.0156531
778.803	0.0155724
778.881	0.0157742
778.959	0.0158479
779.038	0.0158707
779.116	0.0158434
779.194	0.0158409
779.272	0.0160139
779.350	0.0160201
779.428	0.0161267
779.506	0.0159071
779.584	0.0160035
779.663	0.0161504
779.741	0.0158878
779.819	0.0160288
779.897	0.0159370
779.975	0.0158916
780.053	0.0159183
780.131	0.0157105
780.209	0.0156085
780.288	0.0157819
780.366	0.0157851
780.444	0.0155058
780.522	0.0155837
780.600	0.0154845
780.678	0.0153908
780.756	0.0155106
780.834	0.0155302
780.913	0.0155729
780.991	0.0155038
781.069	0.0155680
781.147	0.0156480
781.225	0.0156294
781.303	0.0156768
781.381	0.0158260
781.459	0.0158741
781.538	0.0158399
781.616	0.0159473
781.694	0.0158115
781.772	0.0159417
781.850	0.0159750
781.928	0.0161368
782.006	0.0159931
782.084	0.0159879
782.163	0.0159113
782.241	0.0158595
782.319	0.0159300
782.397	0.0159472
782.475	0.0158868
782.553	0.0156995
782.631	0.0156867
782.709	0.0154890
782.788	0.0154179
782.866	0.0154191
782.944	0.0153627
783.022	0.0151859
783.100	0.0151555
783.178	0.0150992
783.256	0.0150354
783.334	0.0152482
783.413	0.0149541
783.491	0.0151017
783.569	0.0151938
783.647	0.0150042
783.725	0.0150950
783.803	0.0153368
783.881	0.0152789
783.959	0.0153564
784.038	0.0152802
784.116	0.0153574
784.194	0.0155115
784.272	0.0155769
784.350	0.0157074
784.428	0.0156675
784.506	0.0158376
784.584	0.0160471
784.663	0.0159486
784.741	0.0161340
784.819	0.0159187
784.897	0.0159682
784.975	0.0158936
785.053	0.0159942
785.131	0.0158441
785.209	0.0157877
785.288	0.0157869
785.366	0.0158026
785.444	0.0155115
785.522	0.0156410
785.600	0.0153683
785.678	0.0152928
785.756	0.0152686
785.834	0.0151601
785.913	0.0153214
785.991	0.0150700
786.069	0.0151035
786.147	0.0151608
786.225	0.0150618
786.303	0.0149949
786.381	0.0150362
786.459	0.0151866
786.538	0.0151688
786.616	0.0150901
786.694	0.0153470
786.772	0.0151538
786.850	0.0152529
786.928	0.0154178
787.006	0.0154946
787.084	0.0155449
787.163	0.0157833
787.241	0.0158021
787.319	0.0158884
787.397	0.0159243
787.475	0.0159295
787.553	0.0160867
787.631	0.0160169
787.709	0.0160025
787.788	0.0160400
787.866	0.0158907
787.944	0.0158973
788.022	0.0159932
788.100	0.0159076
788.178	0.0159486
788.256	0.0158584
788.334	0.0156665
788.413	0.0156597
788.491	0.0155454
788.569	0.0155975
788.647	0.0155418
788.725	0.0154605
788.803	0.0155549
788.881	0.0155055
788.959	0.0153991
789.038	0.0153835
789.116	0.0154444
789.194	0.0153767
789.272	0.0153684
789.350	0.0153215
789.428	0.0154768
789.506	0.0154787
789.584	0.0155637
789.663	0.0154196
789.741	0.0155327
789.819	0.0155727
789.897	0.0155048
789.975	0.0156895
790.053	0.0157422
790.131	0.0159207
790.209	0.0158768
790.288	0.0158369
790.366	0.0160118
790.444	0.0161035
790.522	0.0160319
790.600	0.0160492
790.678	0.0160257
790.756	0.0160055
790.834	0.0159888
790.913	0.0160840
790.991	0.0159022
791.069	0.0159126
791.147	0.0158398
791.225	0.0157261
791.303	0.0157294
791.381	0.0156388
791.459	0.0157302
791.538	0.0155559
791.616	0.0155978
791.694	0.0153934
791.772	0.0155016
791.850	0.0154398
791.928	0.0153197
792.006	0.0154088
792.084	0.0153171
792.163	0.0154069
792.241	0.0153732
792.319	0.0153530
792.397	0.0153737
792.475	0.0153017
792.553	0.0154471
792.631	0.0154271
792.709	0.0154533
792.788	0.0153941
792.866	0.0154574
792.944	0.0155112
793.022	0.0154551
793.100	0.0155016
793.178	0.0155805
793.256	0.0155045
793.334	0.0155793
793.413	0.0155868
793.491	0.0156071
793.569	0.0156100
793.647	0.0156259
793.725	0.0156447
793.803	0.0156572
793.881	0.0156306
793.959	0.0157245
794.038	0.0155983
794.116	0.0156555
794.194	0.0155343
794.272	0.0156297
794.350	0.0156105
794.428	0.0156818
794.506	0.0155320
794.584	0.0155087
794.663	0.0155476
794.741	0.0156753
794.819	0.0157581
794.897	0.0155618
794.975	0.0156177
795.053	0.0156318
795.131	0.0156113
795.209	0.0157107
795.288	0.0156773
795.366	0.0157066
795.444	0.0157907
795.522	0.0156443
795.600	0.0155386
795.678	0.0157059
795.756	0.0156744
795.834	0.0156944
795.913	0.0156892
795.991	0.0156473
796.069	0.0155384
796.147	0.0154610
796.225	0.0154063
796.303	0.0155255
796.381	0.0155365
796.459	0.0154132
796.538	0.0155216
796.616	0.0156629
796.694	0.0157491
796.772	0.0156861
796.850	0.0154538
796.928	0.0155676
797.006	0.0154813
797.084	0.0156241
797.163	0.0156685
797.241	0.0155754
797.319	0.0155502
797.397	0.0156677
797.475	0.0156347
797.553	0.0158105
797.631	0.0156858
797.709	0.0157847
797.788	0.0158592
797.866	0.0157884
797.944	0.0158489
798.022	0.0158264
798.100	0.0159396
798.178	0.0158193
798.256	0.0157288
798.334	0.0158360
798.413	0.0160246
798.491	0.0158292
798.569	0.0158399
798.647	0.0158899
798.725	0.0158089
798.803	0.0158389
798.881	0.0157855
798.959	0.0157691
799.038	0.0157331
799.116	0.0157782
799.194	0.0157561
799.272	0.0156081
799.350	0.0155999
799.428	0.0157756
799.506	0.0158128
799.584	0.0157426
799.663	0.0157440
799.741	0.0157481
799.819	0.0156449
799.897	0.0157842
799.975	0.0156480
800.053	0.0155811
800.131	0.0155643
800.209	0.0158511
800.288	0.0156243
800.366	0.0153947
800.444	0.0155704
800.522	0.0154054
800.600	0.0153752
800.678	0.0153275
800.756	0.0153317
800.834	0.0154268
800.913	0.0151739
800.991	0.0154594
801.069	0.0155148
801.147	0.0154395
801.225	0.0152956
801.303	0.0153647
801.381	0.0153876
801.459	0.0154813
801.538	0.0154368
801.616	0.0155742
801.694	0.0155628
801.772	0.0154529
801.850	0.0155888
801.928	0.0155339
802.006	0.0155264
802.084	0.0154417
802.163	0.0155768
802.241	0.0156081
802.319	0.0156171
802.397	0.0156646
802.475	0.0156158
802.553	0.0155695
802.631	0.0154112
802.709	0.0156699
802.788	0.0156400
802.866	0.0156017
802.944	0.0155529
803.022	0.0156181
803.100	0.0156106
803.178	0.0156164
803.256	0.0157146
803.334	0.0155891
803.413	0.0156873
803.491	0.0156594
803.569	0.0156278
803.647	0.0158100
803.725	0.0157142
803.803	0.0158239
803.881	0.0158945
803.959	0.0158876
804.038	0.0159098
804.116	0.0159451
804.194	0.0161126
804.272	0.0160326
804.350	0.0160410
804.428	0.0162243
804.506	0.0160889
804.584	0.0160685
804.663	0.0160827
804.741	0.0159637
804.819	0.0159641
804.897	0.0159653
804.975	0.0160391
805.053	0.0158749
805.131	0.0158712
805.209	0.0159411
805.288	0.0157542
805.366	0.0157625
805.444	0.0157024
805.522	0.0157835
805.600	0.0158056
805.678	0.0156799
805.756	0.0156378
805.834	0.0154467
805.913	0.0154032
805.991	0.0155408
806.069	0.0153073
806.147	0.0153587
806.225	0.0153183
806.303	0.0153807
806.381	0.0152664
806.459	0.0152603
806.538	0.0152589
806.616	0.0153451
806.694	0.0152369
806.772	0.0152186
806.850	0.0152331
806.928	0.0151704
807.006	0.0151857
807.084	0.0152597
807.163	0.0153438
807.241	0.0152581
807.319	0.0153532
807.397	0.0154265
807.475	0.0154137
807.553	0.0153335
807.631	0.0154066
807.709	0.0154585
807.788	0.0154384
807.866	0.0157039
807.944	0.0156049
808.022	0.0156860
808.100	0.0155685
808.178	0.0158561
808.256	0.0158324
808.334	0.0157230
808.413	0.0159547
808.491	0.0158329
808.569	0.0158626
808.647	0.0158272
808.725	0.0158348
808.803	0.0158571
808.881	0.0158447
808.959	0.0157524
809.038	0.0158598
809.116	0.0156622
809.194	0.0155250
809.272	0.0155251
809.350	0.0153603
809.428	0.0153235
809.506	0.0151865
809.584	0.0150227
809.663	0.0150407
809.741	0.0151707
809.819	0.0149693
809.897	0.0149268
809.975	0.0148323
810.053	0.0148164
810.131	0.0148074
810.209	0.0149045
810.288	0.0149094
810.366	0.0150562
810.444	0.0150627
810.522	0.0150477
810.600	0.0151102
810.678	0.0153062
810.756	0.0152929
810.834	0.0152854
810.913	0.0154942
810.991	0.0155804
811.069	0.0155254
811.147	0.0156527
811.225	0.0156617
811.303	0.0156714
811.381	0.0157602
811.459	0.0157639
811.538	0.0157892
811.616	0.0158556
811.694	0.0158943
811.772	0.0158268
811.850	0.0159651
811.928	0.0158314
812.006	0.0156696
812.084	0.0156229
812.163	0.0156424
812.241	0.0155676
812.319	0.0156236
812.397	0.0155372
812.475	0.0154279
812.553	0.0155781
812.631	0.0154147
812.709	0.0153269
812.788	0.0154200
812.866	0.0155086
812.944	0.0153114
813.022	0.0153669
813.100	0.0154982
813.178	0.0154308
813.256	0.0153368
813.334	0.0151221
813.413	0.0153406
813.491	0.0152979
813.569	0.0153212
813.647	0.0151836
813.725	0.0154117
813.803	0.0153769
813.881	0.0152816
813.959	0.0153237
814.038	0.0154454
814.116	0.0153409
814.194	0.0154392
814.272	0.0154694
814.350	0.0156403
814.428	0.0156551
814.506	0.0155972
814.584	0.0155433
814.663	0.0155618
814.741	0.0156779
814.819	0.0155906
814.897	0.0157190
814.975	0.0157755
815.053	0.0157677
815.131	0.0157584
815.209	0.0158601
815.288	0.0156208
815.366	0.0158482
815.444	0.0158022
815.522	0.0159129
815.600	0.0157076
815.678	0.0158801
815.756	0.0158376
815.834	0.0158701
815.913	0.0158398
815.991	0.0157030
816.069	0.0157009
816.147	0.0156978
816.225	0.0158830
816.303	0.0156654
816.381	0.0155896
816.459	0.0157124
816.538	0.0157947
816.616	0.0156721
816.694	0.0156824
816.772	0.0157343
816.850	0.0157130
816.928	0.0157610
817.006	0.0156625
817.084	0.0157355
817.163	0.0157413
817.241	0.0154907
817.319	0.0158031
817.397	0.0157747
817.475	0.0157404
817.553	0.0156725
817.631	0.0154906
817.709	0.0155741
817.788	0.0157117
817.866	0.0156445
817.944	0.0156567
818.022	0.0156519
818.100	0.0156801
818.178	0.0155124
818.256	0.0155167
818.334	0.0156784
818.413	0.0156213
818.491	0.0156113
818.569	0.0156139
818.647	0.0155721
818.725	0.0155457
818.803	0.0156157
818.881	0.0157758
818.959	0.0157243
819.038	0.0156228
819.116	0.0157695
819.194	0.0158191
819.272	0.0157298
819.350	0.0157845
819.428	0.0158108
819.506	0.0156807
819.584	0.0158596
819.663	0.0158110
819.741	0.0159259
819.819	0.0159715
819.897	0.0157610
819.975	0.0159901
820.053	0.0160375
820.131	0.0158432
820.209	0.0159264
820.288	0.0159555
820.366	0.0157699
820.444	0.0158118
820.522	0.0157455
820.600	0.0157158
820.678	0.0158232
820.756	0.0157179
820.834	0.0156471
820.913	0.0155534
820.991	0.0155532
821.069	0.0154802
821.147	0.0153690
821.225	0.0153638
821.303	0.0152853
821.381	0.0153811
821.459	0.0152873
821.538	0.0153220
821.616	0.0153625
821.694	0.0153192
821.772	0.0151554
821.850	0.0152010
821.928	0.0152587
822.006	0.0154292
822.084	0.0152297
822.163	0.0152508
822.241	0.0153618
822.319	0.0153070
822.397	0.0153536
822.475	0.0153205
822.553	0.0152793
822.631	0.0154559
822.709	0.0153956
822.788	0.0153522
822.866	0.0154404
822.944	0.0154393
823.022	0.0155521
823.100	0.0155283
823.178	0.0155246
823.256	0.0155935
823.334	0.0155769
823.413	0.0157246
823.491	0.0157333
823.569	0.0157471
823.647	0.0157665
823.725	0.0159666
823.803	0.0159482
823.881	0.0160208
823.959	0.0158072
824.038	0.0158768
824.116	0.0160370
824.194	0.0160934
824.272	0.0161966
824.350	0.0160403
824.428	0.0159722
824.506	0.0159629
824.584	0.0161148
824.663	0.0160517
824.741	0.0159764
824.819	0.0160506
824.897	0.0158495
824.975	0.0156584
825.053	0.0156686
825.131	0.0157547
825.209	0.0156089
825.288	0.0155535
825.366	0.0155030
825.444	0.0154267
825.522	0.0154302
825.600	0.0153696
825.678	0.0152458
825.756	0.0153329
825.834	0.0152966
825.913	0.0152859
825.991	0.0151047
826.069	0.0150445
826.147	0.0151709
826.225	0.0149699
826.303	0.0151251
826.381	0.0151939
826.459	0.0151367
826.538	0.0150385
826.616	0.0150285
826.694	0.0151027
826.772	0.0150678
826.850	0.0150365
826.928	0.0152444
827.006	0.0151450
827.084	0.0152427
827.163	0.0150279
827.241	0.0152904
827.319	0.0152566
827.397	0.0152625
827.475	0.0152045
827.553	0.0152441
827.631	0.0150951
827.709	0.0152520
827.788	0.0151317
827.866	0.0153662
827.944	0.0153961
828.022	0.0152971
828.100	0.0154858
828.178	0.0154965
828.256	0.0154148
828.334	0.0155608
828.413	0.0155990
828.491	0.0154894
828.569	0.0156326
828.647	0.0156349
828.725	0.0156193
828.803	0.0156130
828.881	0.0157043
828.959	0.0156207
829.038	0.0156438
829.116	0.0156926
829.194	0.0157760
829.272	0.0157029
829.350	0.0157788
829.428	0.0158279
829.506	0.0158916
829.584	0.0157670
829.663	0.0157768
829.741	0.0157172
829.819	0.0157407
829.897	0.0157213
829.975	0.0156200
830.053	0.0158709
830.131	0.0156970
830.209	0.0155286
830.288	0.0155205
830.366	0.0155716
830.444	0.0155156
830.522	0.0155051
830.600	0.0155258
830.678	0.0154007
830.756	0.0153911
830.834	0.0154562
830.913	0.0154631
830.991	0.0153736
831.069	0.0154089
831.147	0.0153946
831.225	0.0153275
831.303	0.0152728
831.381	0.0153558
831.459	0.0153880
831.538	0.0153958
831.616	0.0153660
831.694	0.0153580
831.772	0.0154276
831.850	0.0153161
831.928	0.0152779
832.006	0.0153935
832.084	0.0153244
832.163	0.0154346
832.241	0.0153307
832.319	0.0153639
832.397	0.0153358
832.475	0.0154160
832.553	0.0153703
832.631	0.0153476
832.709	0.0156679
832.788	0.0154153
832.866	0.0156735
832.944	0.0155546
833.022	0.0155915
833.100	0.0154649
833.178	0.0155122
833.256	0.0155594
833.334	0.0155609
833.413	0.0155621
833.491	0.0156128
833.569	0.0155968
833.647	0.0154610
833.725	0.0155942
833.803	0.0154866
833.881	0.0154601
833.959	0.0155822
834.038	0.0155138
834.116	0.0154143
834.194	0.0153363
834.272	0.0154848
834.350	0.0155843
834.428	0.0154523
834.506	0.0156460
834.584	0.0155332
834.663	0.0154319
834.741	0.0153683
834.819	0.0154166
834.897	0.0156420
834.975	0.0155476
835.053	0.0155622
835.131	0.0156062
835.209	0.0155801
835.288	0.0156954
835.366	0.0155792
835.444	0.0157774
835.522	0.0156775
835.600	0.0156689
835.678	0.0157430
835.756	0.0158408
835.834	0.0160174
835.913	0.0157979
835.991	0.0157319
836.069	0.0157492
836.147	0.0156834
836.225	0.0156542
836.303	0.0156008
836.381	0.0155638
836.459	0.0155835
836.538	0.0155505
836.616	0.0154642
836.694	0.0154725
836.772	0.0154187
836.850	0.0154182
836.928	0.0153786
837.006	0.0152779
837.084	0.0152552
837.163	0.0153278
837.241	0.0153914
837.319	0.0153719
837.397	0.0154701
837.475	0.0155334
837.553	0.0154469
837.631	0.0154953
837.709	0.0153104
837.788	0.0154415
837.866	0.0154729
837.944	0.0155212
838.022	0.0155223
838.100	0.0154945
838.178	0.0155386
838.256	0.0155363
838.334	0.0156004
838.413	0.0155545
838.491	0.0155878
838.569	0.0154196
838.647	0.0155520
838.725	0.0154867
838.803	0.0155560
838.881	0.0154777
838.959	0.0154082
839.038	0.0155717
839.116	0.0156419
839.194	0.0156367
839.272	0.0156225
839.350	0.0155973
839.428	0.0156197
839.506	0.0156235
839.584	0.0156379
839.663	0.0157594
839.741	0.0156670
839.819	0.0156091
839.897	0.0156819
839.975	0.0156521
840.053	0.0156659
840.131	0.0156126
840.209	0.0156844
840.288	0.0157552
840.366	0.0157103
840.444	0.0156760
840.522	0.0156979
840.600	0.0157455
840.678	0.0157058
840.756	0.0156126
840.834	0.0155724
840.913	0.0155942
840.991	0.0156575
841.069	0.0155460
841.147	0.0154974
841.225	0.0154277
841.303	0.0154560
841.381	0.0155790
841.459	0.0154380
841.538	0.0152988
841.616	0.0154651
841.694	0.0153830
841.772	0.0152211
841.850	0.0152676
841.928	0.0152371
842.006	0.0152252
842.084	0.0152540
842.163	0.0153603
842.241	0.0151532
842.319	0.0152136
842.397	0.0154943
842.475	0.0152926
842.553	0.0154379
842.631	0.0154376
842.709	0.0153243
842.788	0.0153844
842.866	0.0153480
842.944	0.0155034
843.022	0.0154070
843.100	0.0153561
843.178	0.0154903
843.256	0.0154591
843.334	0.0154620
843.413	0.0154888
843.491	0.0154948
843.569	0.0156552
843.647	0.0156332
843.725	0.0156676
843.803	0.0156341
843.881	0.0155711
843.959	0.0155570
844.038	0.0156898
844.116	0.0157314
844.194	0.0155975
844.272	0.0156899
844.350	0.0157608
844.428	0.0158573
844.506	0.0158120
844.584	0.0156831
844.663	0.0156937
844.741	0.0156586
844.819	0.0156989
844.897	0.0158138
844.975	0.0156868
845.053	0.0156875
845.131	0.0158328
845.209	0.0156937
845.288	0.0156457
845.366	0.0156176
845.444	0.0156867
845.522	0.0156883
845.600	0.0156525
845.678	0.0157596
845.756	0.0156905
845.834	0.0156515
845.913	0.0157169
845.991	0.0156564
846.069	0.0157057
846.147	0.0156952
846.225	0.0157436
846.303	0.0157763
846.381	0.0157621
846.459	0.0156493
846.538	0.0156294
846.616	0.0156168
846.694	0.0157411
846.772	0.0155997
846.850	0.0156497
846.928	0.0156139
847.006	0.0155198
847.084	0.0155778
847.163	0.0155678
847.241	0.0154909
847.319	0.0156161
847.397	0.0154125
847.475	0.0155473
847.553	0.0155234
847.631	0.0155630
847.709	0.0156479
847.788	0.0154955
847.866	0.0155358
847.944	0.0154115
848.022	0.0155314
848.100	0.0154722
848.178	0.0154897
848.256	0.0154180
848.334	0.0155944
848.413	0.0155924
848.491	0.0156226
848.569	0.0155142
848.647	0.0155967
848.725	0.0153555
848.803	0.0154477
848.881	0.0153458
848.959	0.0154679
849.038	0.0155279
849.116	0.0155093
849.194	0.0154400
849.272	0.0155578
849.350	0.0154438
849.428	0.0154996
849.506	0.0154320
849.584	0.0154928
849.663	0.0155849
849.741	0.0155732
849.819	0.0154813
849.897	0.0154684
849.975	0.0154004
850.053	0.0155788
850.131	0.0155582
850.209	0.0154602
850.288	0.0156299
850.366	0.0154556
850.444	0.0155412
850.522	0.0154557
850.600	0.0155036
850.678	0.0154733
850.756	0.0154603
850.834	0.0155247
850.913	0.0154923
850.991	0.0154039
851.069	0.0154565
851.147	0.0154620
851.225	0.0156420
851.303	0.0155781
851.381	0.0155670
851.459	0.0155018
851.538	0.0154845
851.616	0.0156763
851.694	0.0155852
851.772	0.0154882
851.850	0.0155232
851.928	0.0155189
852.006	0.0156747
852.084	0.0155932
852.163	0.0155299
852.241	0.0155155
852.319	0.0155988
852.397	0.0155833
852.475	0.0156541
852.553	0.0155581
852.631	0.0155645
852.709	0.0155186
852.788	0.0155475
852.866	0.0155917
852.944	0.0154899
853.022	0.0155620
853.100	0.0155122
853.178	0.0154028
853.256	0.0154305
853.334	0.0154591
853.413	0.0154319
853.491	0.0154507
853.569	0.0155627
853.647	0.0154760
853.725	0.0154532
853.803	0.0156774
853.881	0.0157347
853.959	0.0155348
854.038	0.0156597
854.116	0.0156466
854.194	0.0156822
854.272	0.0156168
854.350	0.0157766
854.428	0.0157510
854.506	0.0156469
854.584	0.0158221
854.663	0.0157496
854.741	0.0157094
854.819	0.0155991
854.897	0.0156543
854.975	0.0158159
855.053	0.0157389
855.131	0.0158135
855.209	0.0157835
855.288	0.0157423
855.366	0.0158240
855.444	0.0157871
855.522	0.0156696
855.600	0.0157802
855.678	0.0156589
855.756	0.0157358
855.834	0.0157334
855.913	0.0157858
855.991	0.0157159
856.069	0.0156510
856.147	0.0156585
856.225	0.0155721
856.303	0.0157819
856.381	0.0156948
856.459	0.0156782
856.538	0.0156184
856.616	0.0156661
856.694	0.0156849
856.772	0.0156673
856.850	0.0157877
856.928	0.0156524
857.006	0.0156139
857.084	0.0155985
857.163	0.0156949
857.241	0.0156547
857.319	0.0156287
857.397	0.0155531
857.475	0.0155462
857.553	0.0156074
857.631	0.0156470
857.709	0.0155059
857.788	0.0155739
857.866	0.0157132
857.944	0.0156347
858.022	0.0155764
858.100	0.0155912
858.178	0.0155215
858.256	0.0155563
858.334	0.0155942
858.413	0.0156274
858.491	0.0155891
858.569	0.0156802
858.647	0.0157069
858.725	0.0155718
858.803	0.0157323
858.881	0.0157201
858.959	0.0155943
859.038	0.0155669
859.116	0.0155663
859.194	0.0156010
859.272	0.0156669
859.350	0.0156310
859.428	0.0155586
859.506	0.0156582
859.584	0.0155711
859.663	0.0156390
859.741	0.0156573
859.819	0.0155596
859.897	0.0156276
859.975	0.0155534
860.053	0.0156498
860.131	0.0156853
860.209	0.0155708
860.288	0.0155851
860.366	0.0157241
860.444	0.0157397
860.522	0.0155899
860.600	0.0157208
860.678	0.0156191
860.756	0.0156609
860.834	0.0155912
860.913	0.0155669
860.991	0.0156645
861.069	0.0158304
861.147	0.0156966
861.225	0.0156791
861.303	0.0157471
861.381	0.0156083
861.459	0.0155164
861.538	0.0156763
861.616	0.0156178
861.694	0.0156191
861.772	0.0157471
861.850	0.0155517
861.928	0.0156332
862.006	0.0156540
862.084	0.0157227
862.163	0.0156629
862.241	0.0157090
862.319	0.0156260
862.397	0.0154817
862.475	0.0155256
862.553	0.0156269
862.631	0.0155978
862.709	0.0155191
862.788	0.0154025
862.866	0.0153345
862.944	0.0152940
863.022	0.0154237
863.100	0.0154385
863.178	0.0152418
863.256	0.0153755
863.334	0.0152647
863.413	0.0153693
863.491	0.0154599
863.569	0.0153622
863.647	0.0153402
863.725	0.0154337
863.803	0.0154040
863.881	0.0152073
863.959	0.0152656
864.038	0.0154826
864.116	0.0154531
864.194	0.0153626
864.272	0.0154347
864.350	0.0154807
864.428	0.0154672
864.506	0.0155492
864.584	0.0156313
864.663	0.0154713
864.741	0.0156414
864.819	0.0156712
864.897	0.0155831
864.975	0.0156449
865.053	0.0155243
865.131	0.0154530
865.209	0.0155882
865.288	0.0155479
865.366	0.0155102
865.444	0.0155994
865.522	0.0156769
865.600	0.0155460
865.678	0.0156350
865.756	0.0156467
865.834	0.0154694
865.913	0.0156215
865.991	0.0156134
866.069	0.0154678
866.147	0.0155618
866.225	0.0155453
866.303	0.0155531
866.381	0.0155525
866.459	0.0155453
866.538	0.0155024
866.616	0.0156367
866.694	0.0156219
866.772	0.0155922
866.850	0.0155849
866.928	0.0155968
867.006	0.0156174
867.084	0.0155844
867.163	0.0155097
867.241	0.0155907
867.319	0.0157067
867.397	0.0154722
867.475	0.0155579
867.553	0.0155888
867.631	0.0155410
867.709	0.0156387
867.788	0.0155014
867.866	0.0154781
867.944	0.0154388
868.022	0.0154215
868.100	0.0154012
868.178	0.0154946
868.256	0.0154346
868.334	0.0154459
868.413	0.0154089
868.491	0.0153603
868.569	0.0154662
868.647	0.0154981
868.725	0.0155188
868.803	0.0155000
868.881	0.0155589
868.959	0.0155285
869.038	0.0154594
869.116	0.0153959
869.194	0.0155595
869.272	0.0153979
869.350	0.0155309
869.428	0.0156190
869.506	0.0155572
869.584	0.0154636
869.663	0.0154086
869.741	0.0156917
869.819	0.0156268
869.897	0.0154749
869.975	0.0156975
870.053	0.0157633
870.131	0.0156820
870.209	0.0156803
870.288	0.0157411
870.366	0.0156438
870.444	0.0157744
870.522	0.0158414
870.600	0.0158080
870.678	0.0157336
870.756	0.0157234
870.834	0.0158782
870.913	0.0156538
870.991	0.0155381
871.069	0.0156772
871.147	0.0154807
871.225	0.0155253
871.303	0.0156145
871.381	0.0154469
871.459	0.0155418
871.538	0.0154073
871.616	0.0152549
871.694	0.0153698
871.772	0.0153855
871.850	0.0152927
871.928	0.0153232
872.006	0.0153405
872.084	0.0154034
872.163	0.0154375
872.241	0.0155071
872.319	0.0154475
872.397	0.0155190
872.475	0.0152485
872.553	0.0154314
872.631	0.0154905
872.709	0.0155824
872.788	0.0153813
872.866	0.0154853
872.944	0.0154633
873.022	0.0154968
873.100	0.0156757
873.178	0.0156857
873.256	0.0155236
873.334	0.0154972
873.413	0.0156787
873.491	0.0157253
873.569	0.0156297
873.647	0.0156133
873.725	0.0154727
873.803	0.0155801
873.881	0.0155821
873.959	0.0156383
874.038	0.0156342
874.116	0.0155878
874.194	0.0155777
874.272	0.0156690
874.350	0.0155701
874.428	0.0155763
874.506	0.0155324
874.584	0.0154193
874.663	0.0155475
874.741	0.0154459
874.819	0.0154047
874.897	0.0153838
874.975	0.0153724
875.053	0.0154955
875.131	0.0154093
875.209	0.0154665
875.288	0.0155962
875.366	0.0154879
875.444	0.0156131
875.522	0.0156249
875.600	0.0155334
875.678	0.0156133
875.756	0.0157946
875.834	0.0155112
875.913	0.0156596
875.991	0.0156229
876.069	0.0157724
876.147	0.0158115
876.225	0.0157220
876.303	0.0157115
876.381	0.0156757
876.459	0.0157560
876.538	0.0157992
876.616	0.0157421
876.694	0.0157450
876.772	0.0157245
876.850	0.0157425
876.928	0.0157890
877.006	0.0156618
877.084	0.0156632
877.163	0.0155599
877.241	0.0157552
877.319	0.0157865
877.397	0.0157758
877.475	0.0157501
877.553	0.0156627
877.631	0.0156992
877.709	0.0157341
877.788	0.0156116
877.866	0.0157952
877.944	0.0156451
878.022	0.0157179
878.100	0.0157831
878.178	0.0156892
878.256	0.0157515
878.334	0.0157628
878.413	0.0158437
878.491	0.0157948
878.569	0.0157386
878.647	0.0158155
878.725	0.0157899
878.803	0.0158685
878.881	0.0157563
878.959	0.0158072
879.038	0.0159122
879.116	0.0159947
879.194	0.0157532
879.272	0.0158489
879.350	0.0158176
879.428	0.0157543
879.506	0.0156453
879.584	0.0156436
879.663	0.0158856
879.741	0.0157478
879.819	0.0157579
879.897	0.0157708
879.975	0.0156537
880.053	0.0156559
880.131	0.0156021
880.209	0.0156320
880.288	0.0156294
880.366	0.0156515
880.444	0.0156174
880.522	0.0156736
880.600	0.0155721
880.678	0.0155894
880.756	0.0154891
880.834	0.0156314
880.913	0.0157618
880.991	0.0156341
881.069	0.0155064
881.147	0.0155315
881.225	0.0156743
881.303	0.0158389
881.381	0.0156683
881.459	0.0156290
881.538	0.0156809
881.616	0.0157381
881.694	0.0157764
881.772	0.0156871
881.850	0.0156669
881.928	0.0157220
882.006	0.0156941
882.084	0.0157193
882.163	0.0156831
882.241	0.0158424
882.319	0.0157402
882.397	0.0156310
882.475	0.0156497
882.553	0.0156291
882.631	0.0156329
882.709	0.0156889
882.788	0.0154906
882.866	0.0155688
882.944	0.0156753
883.022	0.0155868
883.100	0.0155216
883.178	0.0154649
883.256	0.0155511
883.334	0.0154378
883.413	0.0155425
883.491	0.0155384
883.569	0.0154823
883.647	0.0154005
883.725	0.0154345
883.803	0.0155148
883.881	0.0155047
883.959	0.0154112
884.038	0.0154449
884.116	0.0154438
884.194	0.0154211
884.272	0.0154569
884.350	0.0154698
884.428	0.0155470
884.506	0.0155218
884.584	0.0156468
884.663	0.0156151
884.741	0.0155820
884.819	0.0156225
884.897	0.0156396
884.975	0.0156913
885.053	0.0156623
885.131	0.0156727
885.209	0.0156422
885.288	0.0157359
885.366	0.0156509
885.444	0.0156353
885.522	0.0157601
885.600	0.0158968
885.678	0.0157396
885.756	0.0158045
885.834	0.0156157
885.913	0.0155870
885.991	0.0157806
886.069	0.0156113
886.147	0.0156606
886.225	0.0156335
886.303	0.0156040
886.381	0.0155932
886.459	0.0157227
886.538	0.0156134
886.616	0.0155099
886.694	0.0157429
886.772	0.0154924
886.850	0.0153905
886.928	0.0155326
887.006	0.0154648
887.084	0.0153793
887.163	0.0152679
887.241	0.0153516
887.319	0.0153871
887.397	0.0152938
887.475	0.0153021
887.553	0.0153944
887.631	0.0154983
887.709	0.0153918
887.788	0.0153172
887.866	0.0154775
887.944	0.0155604
888.022	0.0155144
888.100	0.0155280
888.178	0.0153530
888.256	0.0152988
888.334	0.0155886
888.413	0.0156271
888.491	0.0155770
888.569	0.0157487
888.647	0.0156474
888.725	0.0155723
888.803	0.0156910
888.881	0.0157759
888.959	0.0156411
889.038	0.0156768
889.116	0.0157906
889.194	0.0158753
889.272	0.0157334
889.350	0.0156794
889.428	0.0156465
889.506	0.0157112
889.584	0.0156898
889.663	0.0156770
889.741	0.0156913
889.819	0.0155713
889.897	0.0156066
889.975	0.0155285
890.053	0.0154282
890.131	0.0153526
890.209	0.0154691
890.288	0.0154593
890.366	0.0153220
890.444	0.0153431
890.522	0.0153127
890.600	0.0152741
890.678	0.0153525
890.756	0.0154802
890.834	0.0153409
890.913	0.0152695
890.991	0.0153361
891.069	0.0152576
891.147	0.0152967
891.225	0.0153128
891.303	0.0154505
891.381	0.0153583
891.459	0.0153167
891.538	0.0153822
891.616	0.0155104
891.694	0.0154063
891.772	0.0153575
891.850	0.0153438
891.928	0.0155924
892.006	0.0155040
892.084	0.0154684
892.163	0.0155033
892.241	0.0154185
892.319	0.0154958
892.397	0.0154376
892.475	0.0154803
892.553	0.0153292
892.631	0.0154162
892.709	0.0153889
892.788	0.0153307
892.866	0.0154698
892.944	0.0153429
893.022	0.0154156
893.100	0.0154825
893.178	0.0154987
893.256	0.0155165
893.334	0.0155152
893.413	0.0155258
893.491	0.0155252
893.569	0.0154607
893.647	0.0156077
893.725	0.0154723
893.803	0.0154955
893.881	0.0154746
893.959	0.0154272
894.038	0.0155844
894.116	0.0154527
894.194	0.0155574
894.272	0.0155519
894.350	0.0156133
894.428	0.0155856
894.506	0.0156245
894.584	0.0156602
894.663	0.0156054
894.741	0.0156947
894.819	0.0157112
894.897	0.0155311
894.975	0.0155997
895.053	0.0154960
895.131	0.0154974
895.209	0.0156294
895.288	0.0154584
895.366	0.0153838
895.444	0.0155484
895.522	0.0153973
895.600	0.0154330
895.678	0.0154549
895.756	0.0154884
895.834	0.0155289
895.913	0.0153877
895.991	0.0155133
896.069	0.0155151
896.147	0.0154444
896.225	0.0155106
896.303	0.0155610
896.381	0.0153652
896.459	0.0153978
896.538	0.0154899
896.616	0.0154453
896.694	0.0155038
896.772	0.0154593
896.850	0.0156068
896.928	0.0155065
897.006	0.0154036
897.084	0.0154366
897.163	0.0155000
897.241	0.0154395
897.319	0.0154626
897.397	0.0155333
897.475	0.0155807
897.553	0.0154216
897.631	0.0154041
897.709	0.0154378
897.788	0.0155690
897.866	0.0155022
897.944	0.0155767
898.022	0.0155860
898.100	0.0156795
898.178	0.0155562
898.256	0.0155367
898.334	0.0157963
898.413	0.0157346
898.491	0.0156278
898.569	0.0157484
898.647	0.0156990
898.725	0.0157484
898.803	0.0157573
898.881	0.0158960
898.959	0.0156134
899.038	0.0157281
899.116	0.0156628
899.194	0.0157738
899.272	0.0154638
899.350	0.0156882
899.428	0.0157079
899.506	0.0155412
899.584	0.0156277
899.663	0.0156277
899.741	0.0155015
899.819	0.0156057
899.897	0.0155351
899.975	0.0153663
900.053	0.0156677
900.131	0.0156681
900.209	0.0155166
900.288	0.0155209
900.366	0.0154768
900.444	0.0155518
900.522	0.0154543
900.600	0.0153749
900.678	0.0156148
900.756	0.0156336
900.834	0.0156059
900.913	0.0155832
900.991	0.0157184
901.069	0.0156497
901.147	0.0155264
901.225	0.0157046
901.303	0.0156591
901.381	0.0157417
901.459	0.0157909
901.538	0.0157143
901.616	0.0157339
901.694	0.0157562
901.772	0.0157548
901.850	0.0157278
901.928	0.0158424
902.006	0.0159124
902.084	0.0157455
902.163	0.0158533
902.241	0.0159480
902.319	0.0160268
902.397	0.0158377
902.475	0.0158063
902.553	0.0160229
902.631	0.0160009
902.709	0.0158810
902.788	0.0159984
902.866	0.0159404
902.944	0.0158889
903.022	0.0158074
903.100	0.0157902
903.178	0.0158942
903.256	0.0157378
903.334	0.0156926
903.413	0.0157991
903.491	0.0156470
903.569	0.0157752
903.647	0.0157717
903.725	0.0154848
903.803	0.0155888
903.881	0.0154872
903.959	0.0155563
904.038	0.0153914
904.116	0.0154299
904.194	0.0153626
904.272	0.0155090
904.350	0.0154907
904.428	0.0154564
904.506	0.0153749
904.584	0.0154855
904.663	0.0156553
904.741	0.0154723
904.819	0.0155653
904.897	0.0156878
904.975	0.0155841
905.053	0.0153726
905.131	0.0153988
905.209	0.0155431
905.288	0.0154994
905.366	0.0155429
905.444	0.0155834
905.522	0.0154547
905.600	0.0154995
905.678	0.0155953
905.756	0.0155489
905.834	0.0156542
905.913	0.0155566
905.991	0.0155949
906.069	0.0158013
906.147	0.0155955
906.225	0.0156003
906.303	0.0155219
906.381	0.0156454
906.459	0.0156600
906.538	0.0156265
906.616	0.0154806
906.694	0.0156183
906.772	0.0155933
906.850	0.0155032
906.928	0.0156660
907.006	0.0156625
907.084	0.0155364
907.163	0.0155175
907.241	0.0155173
907.319	0.0155016
907.397	0.0155738
907.475	0.0155812
907.553	0.0155268
907.631	0.0155196
907.709	0.0155726
907.788	0.0155541
907.866	0.0155644
907.944	0.0154890
908.022	0.0154311
908.100	0.0153871
908.178	0.0155444
908.256	0.0154749
908.334	0.0155740
908.413	0.0154377
908.491	0.0155791
908.569	0.0155724
908.647	0.0156681
908.725	0.0155042
908.803	0.0154510
908.881	0.0156418
908.959	0.0156506
909.038	0.0155380
909.116	0.0156282
909.194	0.0155764
909.272	0.0156841
909.350	0.0155820
909.428	0.0155389
909.506	0.0156907
909.584	0.0157184
909.663	0.0157251
909.741	0.0157168
909.819	0.0158096
909.897	0.0157113
909.975	0.0157477
910.053	0.0156914
910.131	0.0157657
910.209	0.0157310
910.288	0.0157087
910.366	0.0157246
910.444	0.0156818
910.522	0.0156339
910.600	0.0157391
910.678	0.0156548
910.756	0.0155505
910.834	0.0156663
910.913	0.0155444
910.991	0.0155850
911.069	0.0155705
911.147	0.0154708
911.225	0.0154251
911.303	0.0154533
911.381	0.0153844
911.459	0.0154325
911.538	0.0154451
911.616	0.0155188
911.694	0.0154422
911.772	0.0154266
911.850	0.0154362
911.928	0.0155614
912.006	0.0155928
912.084	0.0155516
912.163	0.0154518
912.241	0.0154392
912.319	0.0156146
912.397	0.0155419
912.475	0.0156213
912.553	0.0154598
912.631	0.0153531
912.709	0.0155236
912.788	0.0155299
912.866	0.0155692
912.944	0.0156059
913.022	0.0155737
913.100	0.0154520
913.178	0.0155314
913.256	0.0155846
913.334	0.0154951
913.413	0.0157740
913.491	0.0156556
913.569	0.0155089
913.647	0.0156250
913.725	0.0155356
913.803	0.0155943
913.881	0.0156483
913.959	0.0156696
914.038	0.0155263
914.116	0.0158041
914.194	0.0156136
914.272	0.0156526
914.350	0.0156380
914.428	0.0157065
914.506	0.0159196
914.584	0.0157906
914.663	0.0156754
914.741	0.0157215
914.819	0.0155944
914.897	0.0156934
914.975	0.0156943
915.053	0.0155888
915.131	0.0156467
915.209	0.0156538
915.288	0.0157587
915.366	0.0156473
915.444	0.0158067
915.522	0.0154625
915.600	0.0155120
915.678	0.0156439
915.756	0.0155811
915.834	0.0156342
915.913	0.0156716
915.991	0.0155923
916.069	0.0155109
916.147	0.0155347
916.225	0.0156569
916.303	0.0156275
916.381	0.0155412
916.459	0.0155157
916.538	0.0156445
916.616	0.0155195
916.694	0.0155695
916.772	0.0154973
916.850	0.0155466
916.928	0.0155672
917.006	0.0155310
917.084	0.0153339
917.163	0.0154840
917.241	0.0155356
917.319	0.0154675
917.397	0.0152821
917.475	0.0155035
917.553	0.0154725
917.631	0.0152676
917.709	0.0153002
917.788	0.0153915
917.866	0.0155647
917.944	0.0154659
918.022	0.0155101
918.100	0.0156524
918.178	0.0155141
918.256	0.0155313
918.334	0.0154790
918.413	0.0155755
918.491	0.0156693
918.569	0.0156331
918.647	0.0156625
918.725	0.0157068
918.803	0.0155810
918.881	0.0155519
918.959	0.0156354
919.038	0.0157397
919.116	0.0157288
919.194	0.0155482
919.272	0.0155933
919.350	0.0156303
919.428	0.0155308
919.506	0.0156147
919.584	0.0156441
919.663	0.0156237
919.741	0.0155878
919.819	0.0157358
919.897	0.0155357
