05/20/2022	21:18:44	Ver.	4.1	UNKNOWN
Optical Delay	599.975067	Delta X		0.078125	Sweeps	1	Scan Rate	0/0
Coordinates	Axis 1	NaN	Axis 2	NaN	Axis 3	NaN	Axis 4	NaN	Axis 5	NaN	Axis 6	0.000000
TX Power	0.000000	RX Power	0.000000

599.975	0.0154753
600.053	0.0153932
600.131	0.0153851
600.209	0.0155917
600.288	0.0156334
600.366	0.0154845
600.444	0.0155496
600.522	0.0153853
600.600	0.0153169
600.678	0.0155040
600.756	0.0154537
600.834	0.0154723
600.913	0.0154839
600.991	0.0155418
601.069	0.0154243
601.147	0.0153502
601.225	0.0153522
601.303	0.0154675
601.381	0.0154034
601.459	0.0155267
601.538	0.0154030
601.616	0.0154217
601.694	0.0154515
601.772	0.0154031
601.850	0.0155881
601.928	0.0154102
602.006	0.0155284
602.084	0.0155318
602.163	0.0154132
602.241	0.0154628
602.319	0.0156149
602.397	0.0154652
602.475	0.0154871
602.553	0.0154592
602.631	0.0155425
602.709	0.0154449
602.788	0.0155115
602.866	0.0154716
602.944	0.0154552
603.022	0.0154703
603.100	0.0155938
603.178	0.0153490
603.256	0.0155044
603.334	0.0154931
603.413	0.0154904
603.491	0.0155040
603.569	0.0153794
603.647	0.0154701
603.725	0.0154025
603.803	0.0154507
603.881	0.0153028
603.959	0.0153329
604.038	0.0154556
604.116	0.0153989
604.194	0.0153786
604.272	0.0154687
604.350	0.0153870
604.428	0.0155129
604.506	0.0153930
604.584	0.0152802
604.663	0.0154253
604.741	0.0153777
604.819	0.0153946
604.897	0.0155373
604.975	0.0154665
605.053	0.0153840
605.131	0.0153625
605.209	0.0154634
605.288	0.0154567
605.366	0.0154201
605.444	0.0154592
605.522	0.0155346
605.600	0.0154631
605.678	0.0153476
605.756	0.0154601
605.834	0.0154736
605.913	0.0155083
605.991	0.0155990
606.069	0.0153819
606.147	0.0155207
606.225	0.0154677
606.303	0.0154191
606.381	0.0155085
606.459	0.0154394
606.538	0.0154774
606.616	0.0154485
606.694	0.0156063
606.772	0.0155215
606.850	0.0153952
606.928	0.0154543
607.006	0.0155090
607.084	0.0154102
607.163	0.0155318
607.241	0.0156058
607.319	0.0155952
607.397	0.0156137
607.475	0.0154570
607.553	0.0153937
607.631	0.0156971
607.709	0.0155276
607.788	0.0156590
607.866	0.0155882
607.944	0.0156058
608.022	0.0157697
608.100	0.0155814
608.178	0.0155069
608.256	0.0156341
608.334	0.0156367
608.413	0.0155817
608.491	0.0155846
608.569	0.0156113
608.647	0.0155056
608.725	0.0157397
608.803	0.0155816
608.881	0.0155699
608.959	0.0158089
609.038	0.0156917
609.116	0.0157165
609.194	0.0156416
609.272	0.0158812
609.350	0.0157810
609.428	0.0156540
609.506	0.0157487
609.584	0.0157478
609.663	0.0156762
609.741	0.0156686
609.819	0.0157772
609.897	0.0157246
609.975	0.0157846
610.053	0.0156775
610.131	0.0157741
610.209	0.0156529
610.288	0.0156117
610.366	0.0156091
610.444	0.0154961
610.522	0.0156893
610.600	0.0156316
610.678	0.0157555
610.756	0.0157504
610.834	0.0156841
610.913	0.0156304
610.991	0.0156414
611.069	0.0157618
611.147	0.0156973
611.225	0.0157234
611.303	0.0157578
611.381	0.0156448
611.459	0.0158031
611.538	0.0157058
611.616	0.0157001
611.694	0.0156744
611.772	0.0157367
611.850	0.0158070
611.928	0.0156696
612.006	0.0156692
612.084	0.0157737
612.163	0.0156757
612.241	0.0156982
612.319	0.0158688
612.397	0.0156403
612.475	0.0156498
612.553	0.0156767
612.631	0.0155892
612.709	0.0155972
612.788	0.0156406
612.866	0.0155946
612.944	0.0156660
613.022	0.0156322
613.100	0.0157079
613.178	0.0156438
613.256	0.0155224
613.334	0.0156731
613.413	0.0155499
613.491	0.0155395
613.569	0.0156526
613.647	0.0156116
613.725	0.0154966
613.803	0.0155987
613.881	0.0157894
613.959	0.0156390
614.038	0.0155620
614.116	0.0156118
614.194	0.0154919
614.272	0.0155262
614.350	0.0153835
614.428	0.0154830
614.506	0.0155003
614.584	0.0156024
614.663	0.0155862
614.741	0.0155586
614.819	0.0154060
614.897	0.0156168
614.975	0.0155874
615.053	0.0155106
615.131	0.0154536
615.209	0.0155663
615.288	0.0156573
615.366	0.0156203
615.444	0.0156377
615.522	0.0155939
615.600	0.0154755
615.678	0.0155350
615.756	0.0157122
615.834	0.0156499
615.913	0.0154408
615.991	0.0155658
616.069	0.0155573
616.147	0.0155832
616.225	0.0154920
616.303	0.0155143
616.381	0.0155605
616.459	0.0155631
616.538	0.0155360
616.616	0.0154377
616.694	0.0154050
616.772	0.0155184
616.850	0.0155827
616.928	0.0155950
617.006	0.0153438
617.084	0.0154023
617.163	0.0154885
617.241	0.0154548
617.319	0.0154549
617.397	0.0154817
617.475	0.0154760
617.553	0.0154486
617.631	0.0154166
617.709	0.0155547
617.788	0.0155492
617.866	0.0156298
617.944	0.0156817
618.022	0.0155679
618.100	0.0154273
618.178	0.0155027
618.256	0.0154053
618.334	0.0155163
618.413	0.0155007
618.491	0.0155296
618.569	0.0153657
618.647	0.0154931
618.725	0.0155926
618.803	0.0154985
618.881	0.0153839
618.959	0.0155088
619.038	0.0155882
619.116	0.0155185
619.194	0.0154851
619.272	0.0155680
619.350	0.0153982
619.428	0.0155613
619.506	0.0155243
619.584	0.0154697
619.663	0.0154802
619.741	0.0154528
619.819	0.0154948
619.897	0.0154747
619.975	0.0155208
620.053	0.0154861
620.131	0.0154011
620.209	0.0154537
620.288	0.0154712
620.366	0.0153958
620.444	0.0153680
620.522	0.0154550
620.600	0.0155099
620.678	0.0153675
620.756	0.0153345
620.834	0.0153277
620.913	0.0153120
620.991	0.0154913
621.069	0.0154630
621.147	0.0154755
621.225	0.0152673
621.303	0.0152957
621.381	0.0154115
621.459	0.0153653
621.538	0.0154106
621.616	0.0154533
621.694	0.0154677
621.772	0.0153529
621.850	0.0154103
621.928	0.0154536
622.006	0.0153079
622.084	0.0155051
622.163	0.0154508
622.241	0.0153728
622.319	0.0154279
622.397	0.0155752
622.475	0.0154037
622.553	0.0154640
622.631	0.0154619
622.709	0.0153413
622.788	0.0155652
622.866	0.0154657
622.944	0.0153500
623.022	0.0155060
623.100	0.0154883
623.178	0.0155163
623.256	0.0152670
623.334	0.0154504
623.413	0.0154031
623.491	0.0152898
623.569	0.0154307
623.647	0.0156006
623.725	0.0153958
623.803	0.0154706
623.881	0.0155149
623.959	0.0156050
624.038	0.0154380
624.116	0.0155367
624.194	0.0154720
624.272	0.0155331
624.350	0.0155970
624.428	0.0154759
624.506	0.0155534
624.584	0.0153964
624.663	0.0155415
624.741	0.0154615
624.819	0.0155650
624.897	0.0155015
624.975	0.0154176
625.053	0.0153693
625.131	0.0154254
625.209	0.0155084
625.288	0.0153851
625.366	0.0154419
625.444	0.0153967
625.522	0.0155489
625.600	0.0154903
625.678	0.0153975
625.756	0.0154775
625.834	0.0154239
625.913	0.0155341
625.991	0.0155288
626.069	0.0155305
626.147	0.0153133
626.225	0.0154587
626.303	0.0155179
626.381	0.0154879
626.459	0.0155196
626.538	0.0154990
626.616	0.0154802
626.694	0.0154707
626.772	0.0154310
626.850	0.0155238
626.928	0.0153536
627.006	0.0153840
627.084	0.0154459
627.163	0.0152976
627.241	0.0152781
627.319	0.0154295
627.397	0.0153650
627.475	0.0152850
627.553	0.0153558
627.631	0.0154179
627.709	0.0153054
627.788	0.0153407
627.866	0.0153862
627.944	0.0154597
628.022	0.0155100
628.100	0.0154069
628.178	0.0154305
628.256	0.0154011
628.334	0.0153522
628.413	0.0155042
628.491	0.0154040
628.569	0.0154925
628.647	0.0156056
628.725	0.0154015
628.803	0.0154507
628.881	0.0155830
628.959	0.0154697
629.038	0.0154772
629.116	0.0154632
629.194	0.0155831
629.272	0.0155333
629.350	0.0153746
629.428	0.0155731
629.506	0.0156022
629.584	0.0155309
629.663	0.0153713
629.741	0.0153563
629.819	0.0155932
629.897	0.0155671
629.975	0.0156605
630.053	0.0156133
630.131	0.0155331
630.209	0.0155811
630.288	0.0157404
630.366	0.0157407
630.444	0.0156608
630.522	0.0157259
630.600	0.0157345
630.678	0.0158575
630.756	0.0156608
630.834	0.0156963
630.913	0.0157275
630.991	0.0156564
631.069	0.0157386
631.147	0.0158672
631.225	0.0157143
631.303	0.0157344
631.381	0.0157561
631.459	0.0157645
631.538	0.0158763
631.616	0.0157185
631.694	0.0156660
631.772	0.0158154
631.850	0.0158488
631.928	0.0157375
632.006	0.0157108
632.084	0.0157912
632.163	0.0157567
632.241	0.0156596
632.319	0.0157021
632.397	0.0157141
632.475	0.0157401
632.553	0.0157967
632.631	0.0157693
632.709	0.0158141
632.788	0.0159174
632.866	0.0159009
632.944	0.0157538
633.022	0.0157259
633.100	0.0157841
633.178	0.0158413
633.256	0.0157079
633.334	0.0159231
633.413	0.0158697
633.491	0.0156979
633.569	0.0157850
633.647	0.0157513
633.725	0.0157881
633.803	0.0156395
633.881	0.0157141
633.959	0.0155171
634.038	0.0155072
634.116	0.0154795
634.194	0.0155180
634.272	0.0154871
634.350	0.0154368
634.428	0.0154791
634.506	0.0155469
634.584	0.0155949
634.663	0.0154593
634.741	0.0155679
634.819	0.0154797
634.897	0.0155386
634.975	0.0156271
635.053	0.0155980
635.131	0.0155866
635.209	0.0156015
635.288	0.0156327
635.366	0.0155298
635.444	0.0156232
635.522	0.0156100
635.600	0.0156262
635.678	0.0155169
635.756	0.0154004
635.834	0.0155961
635.913	0.0154284
635.991	0.0155008
636.069	0.0154082
636.147	0.0154559
636.225	0.0155635
636.303	0.0155006
636.381	0.0153408
636.459	0.0156593
636.538	0.0155734
636.616	0.0154997
636.694	0.0154016
636.772	0.0154217
636.850	0.0154741
636.928	0.0154824
637.006	0.0154768
637.084	0.0154441
637.163	0.0154576
637.241	0.0155192
637.319	0.0155059
637.397	0.0155335
637.475	0.0154176
637.553	0.0155054
637.631	0.0154488
637.709	0.0154700
637.788	0.0154319
637.866	0.0154633
637.944	0.0155373
638.022	0.0155162
638.100	0.0155300
638.178	0.0155627
638.256	0.0154860
638.334	0.0155508
638.413	0.0155338
638.491	0.0155133
638.569	0.0155402
638.647	0.0154604
638.725	0.0154111
638.803	0.0155036
638.881	0.0154752
638.959	0.0153540
639.038	0.0154052
639.116	0.0153985
639.194	0.0154361
639.272	0.0152101
639.350	0.0150893
639.428	0.0152502
639.506	0.0154568
639.584	0.0153754
639.663	0.0152130
639.741	0.0151575
639.819	0.0151337
639.897	0.0152814
639.975	0.0153687
640.053	0.0152251
640.131	0.0152838
640.209	0.0151814
640.288	0.0154523
640.366	0.0153555
640.444	0.0152493
640.522	0.0154906
640.600	0.0154148
640.678	0.0154205
640.756	0.0154507
640.834	0.0153444
640.913	0.0152603
640.991	0.0154323
641.069	0.0154369
641.147	0.0152853
641.225	0.0155031
641.303	0.0155078
641.381	0.0154221
641.459	0.0153765
641.538	0.0154036
641.616	0.0154903
641.694	0.0155035
641.772	0.0153113
641.850	0.0153457
641.928	0.0154845
642.006	0.0154856
642.084	0.0154075
642.163	0.0154587
642.241	0.0154316
642.319	0.0155312
642.397	0.0155377
642.475	0.0154815
642.553	0.0154312
642.631	0.0154976
642.709	0.0154914
642.788	0.0154406
642.866	0.0154678
642.944	0.0154270
643.022	0.0154877
643.100	0.0154488
643.178	0.0155061
643.256	0.0154789
643.334	0.0155867
643.413	0.0156287
643.491	0.0156834
643.569	0.0155600
643.647	0.0154876
643.725	0.0155824
643.803	0.0156104
643.881	0.0155850
643.959	0.0155210
644.038	0.0155556
644.116	0.0155821
644.194	0.0156903
644.272	0.0155190
644.350	0.0154650
644.428	0.0155180
644.506	0.0154208
644.584	0.0154782
644.663	0.0154723
644.741	0.0153796
644.819	0.0154035
644.897	0.0155011
644.975	0.0154380
645.053	0.0155499
645.131	0.0153665
645.209	0.0155099
645.288	0.0156476
645.366	0.0154618
645.444	0.0155286
645.522	0.0154729
645.600	0.0153773
645.678	0.0154609
645.756	0.0154457
645.834	0.0154900
645.913	0.0154627
645.991	0.0155227
646.069	0.0154851
646.147	0.0156011
646.225	0.0154374
646.303	0.0154008
646.381	0.0155356
646.459	0.0154419
646.538	0.0154597
646.616	0.0155487
646.694	0.0155333
646.772	0.0153352
646.850	0.0154424
646.928	0.0153775
647.006	0.0153151
647.084	0.0154211
647.163	0.0153828
647.241	0.0153617
647.319	0.0154414
647.397	0.0153660
647.475	0.0153251
647.553	0.0154320
647.631	0.0154327
647.709	0.0154019
647.788	0.0153661
647.866	0.0154823
647.944	0.0153360
648.022	0.0153331
648.100	0.0154047
648.178	0.0154120
648.256	0.0154973
648.334	0.0154710
648.413	0.0153592
648.491	0.0155024
648.569	0.0154272
648.647	0.0153663
648.725	0.0154498
648.803	0.0155273
648.881	0.0155580
648.959	0.0155053
649.038	0.0154208
649.116	0.0155250
649.194	0.0155854
649.272	0.0156414
649.350	0.0154858
649.428	0.0154452
649.506	0.0155333
649.584	0.0155159
649.663	0.0155687
649.741	0.0155602
649.819	0.0154983
649.897	0.0155128
649.975	0.0154928
650.053	0.0155433
650.131	0.0154789
650.209	0.0155563
650.288	0.0156258
650.366	0.0156994
650.444	0.0155030
650.522	0.0155944
650.600	0.0155663
650.678	0.0154657
650.756	0.0155074
650.834	0.0157231
650.913	0.0155065
650.991	0.0155901
651.069	0.0156156
651.147	0.0155590
651.225	0.0157931
651.303	0.0155721
651.381	0.0157318
651.459	0.0156659
651.538	0.0155527
651.616	0.0156197
651.694	0.0156424
651.772	0.0157383
651.850	0.0156259
651.928	0.0154996
652.006	0.0157705
652.084	0.0157142
652.163	0.0156039
652.241	0.0156856
652.319	0.0156338
652.397	0.0155135
652.475	0.0155119
652.553	0.0155327
652.631	0.0156178
652.709	0.0155880
652.788	0.0155532
652.866	0.0159679
652.944	0.0157306
653.022	0.0156778
653.100	0.0156818
653.178	0.0157085
653.256	0.0156509
653.334	0.0156745
653.413	0.0157992
653.491	0.0157466
653.569	0.0156277
653.647	0.0157588
653.725	0.0157594
653.803	0.0157063
653.881	0.0157940
653.959	0.0158378
654.038	0.0158261
654.116	0.0156961
654.194	0.0156689
654.272	0.0157050
654.350	0.0157377
654.428	0.0157327
654.506	0.0157484
654.584	0.0158115
654.663	0.0157626
654.741	0.0157329
654.819	0.0157211
654.897	0.0156330
654.975	0.0157892
655.053	0.0156933
655.131	0.0154929
655.209	0.0156512
655.288	0.0156046
655.366	0.0155488
655.444	0.0156697
655.522	0.0155110
655.600	0.0156105
655.678	0.0156860
655.756	0.0154490
655.834	0.0154826
655.913	0.0153799
655.991	0.0156585
656.069	0.0154530
656.147	0.0156078
656.225	0.0155948
656.303	0.0154115
656.381	0.0155111
656.459	0.0155505
656.538	0.0154247
656.616	0.0155842
656.694	0.0155338
656.772	0.0156046
656.850	0.0154347
656.928	0.0155210
657.006	0.0155682
657.084	0.0154573
657.163	0.0154613
657.241	0.0155563
657.319	0.0155728
657.397	0.0156113
657.475	0.0155705
657.553	0.0156794
657.631	0.0157359
657.709	0.0155843
657.788	0.0155499
657.866	0.0155185
657.944	0.0154797
658.022	0.0154868
658.100	0.0155513
658.178	0.0156365
658.256	0.0155447
658.334	0.0154876
658.413	0.0155177
658.491	0.0154897
658.569	0.0154595
658.647	0.0154965
658.725	0.0154791
658.803	0.0155388
658.881	0.0155363
658.959	0.0155225
659.038	0.0154961
659.116	0.0155267
659.194	0.0156189
659.272	0.0155127
659.350	0.0154859
659.428	0.0156469
659.506	0.0156806
659.584	0.0155917
659.663	0.0156391
659.741	0.0157703
659.819	0.0157924
659.897	0.0158288
659.975	0.0157980
660.053	0.0156594
660.131	0.0156916
660.209	0.0157454
660.288	0.0156815
660.366	0.0157009
660.444	0.0157068
660.522	0.0154219
660.600	0.0155346
660.678	0.0156059
660.756	0.0155592
660.834	0.0156613
660.913	0.0156451
660.991	0.0156077
661.069	0.0154628
661.147	0.0156157
661.225	0.0155358
661.303	0.0155133
661.381	0.0155234
661.459	0.0155312
661.538	0.0154469
661.616	0.0154221
661.694	0.0154014
661.772	0.0155253
661.850	0.0154451
661.928	0.0153493
662.006	0.0153959
662.084	0.0153052
662.163	0.0153042
662.241	0.0153349
662.319	0.0152436
662.397	0.0153478
662.475	0.0152074
662.553	0.0153486
662.631	0.0153148
662.709	0.0153404
662.788	0.0153271
662.866	0.0154923
662.944	0.0155006
663.022	0.0155866
663.100	0.0155332
663.178	0.0155691
663.256	0.0155720
663.334	0.0155882
663.413	0.0157123
663.491	0.0154911
663.569	0.0155717
663.647	0.0156945
663.725	0.0155949
663.803	0.0157195
663.881	0.0156960
663.959	0.0154777
664.038	0.0156196
664.116	0.0156470
664.194	0.0157581
664.272	0.0157716
664.350	0.0157896
664.428	0.0158120
664.506	0.0158722
664.584	0.0158758
664.663	0.0158491
664.741	0.0158170
664.819	0.0159676
664.897	0.0157935
664.975	0.0158096
665.053	0.0158441
665.131	0.0158495
665.209	0.0158259
665.288	0.0157568
665.366	0.0157463
665.444	0.0155862
665.522	0.0155786
665.600	0.0154701
665.678	0.0155519
665.756	0.0154437
665.834	0.0155594
665.913	0.0154617
665.991	0.0153662
666.069	0.0154075
666.147	0.0153766
666.225	0.0153231
666.303	0.0152856
666.381	0.0154536
666.459	0.0154187
666.538	0.0154022
666.616	0.0154530
666.694	0.0153903
666.772	0.0153716
666.850	0.0155830
666.928	0.0154315
667.006	0.0154790
667.084	0.0157578
667.163	0.0157568
667.241	0.0158334
667.319	0.0158347
667.397	0.0157161
667.475	0.0155898
667.553	0.0158212
667.631	0.0157173
667.709	0.0157485
667.788	0.0158172
667.866	0.0157723
667.944	0.0157565
668.022	0.0157727
668.100	0.0156773
668.178	0.0157249
668.256	0.0156339
668.334	0.0156625
668.413	0.0155956
668.491	0.0155509
668.569	0.0153722
668.647	0.0153693
668.725	0.0154185
668.803	0.0152502
668.881	0.0152489
668.959	0.0151821
669.038	0.0149325
669.116	0.0150711
669.194	0.0150561
669.272	0.0149274
669.350	0.0149255
669.428	0.0148187
669.506	0.0147319
669.584	0.0148540
669.663	0.0148801
669.741	0.0147711
669.819	0.0149751
669.897	0.0148599
669.975	0.0148895
670.053	0.0150237
670.131	0.0151004
670.209	0.0152306
670.288	0.0152473
670.366	0.0153716
670.444	0.0154406
670.522	0.0154869
670.600	0.0157108
670.678	0.0158661
670.756	0.0159374
670.834	0.0159035
670.913	0.0161201
670.991	0.0162285
671.069	0.0163019
671.147	0.0164187
671.225	0.0162587
671.303	0.0165688
671.381	0.0165631
671.459	0.0165874
671.538	0.0165495
671.616	0.0165910
671.694	0.0165069
671.772	0.0164759
671.850	0.0164153
671.928	0.0162688
672.006	0.0162620
672.084	0.0161361
672.163	0.0159350
672.241	0.0158745
672.319	0.0158192
672.397	0.0155084
672.475	0.0152757
672.553	0.0151544
672.631	0.0149580
672.709	0.0146416
672.788	0.0146148
672.866	0.0144598
672.944	0.0142934
673.022	0.0141516
673.100	0.0140596
673.178	0.0137796
673.256	0.0136620
673.334	0.0138803
673.413	0.0139239
673.491	0.0138206
673.569	0.0139788
673.647	0.0140015
673.725	0.0140629
673.803	0.0141669
673.881	0.0145369
673.959	0.0145940
674.038	0.0146388
674.116	0.0149505
674.194	0.0152563
674.272	0.0154247
674.350	0.0157489
674.428	0.0158923
674.506	0.0161282
674.584	0.0163202
674.663	0.0164928
674.741	0.0168304
674.819	0.0170695
674.897	0.0172433
674.975	0.0174023
675.053	0.0175006
675.131	0.0177202
675.209	0.0175581
675.288	0.0176777
675.366	0.0177477
675.444	0.0178101
675.522	0.0176080
675.600	0.0175436
675.678	0.0173454
675.756	0.0170016
675.834	0.0168829
675.913	0.0166989
675.991	0.0164377
676.069	0.0160593
676.147	0.0158793
676.225	0.0156204
676.303	0.0154603
676.381	0.0152393
676.459	0.0150040
676.538	0.0147051
676.616	0.0144719
676.694	0.0141669
676.772	0.0139757
676.850	0.0138481
676.928	0.0137263
677.006	0.0137538
677.084	0.0135250
677.163	0.0133754
677.241	0.0133257
677.319	0.0134119
677.397	0.0131131
677.475	0.0132518
677.553	0.0134075
677.631	0.0134406
677.709	0.0135185
677.788	0.0136572
677.866	0.0137097
677.944	0.0140572
678.022	0.0144409
678.100	0.0147123
678.178	0.0149106
678.256	0.0152470
678.334	0.0154707
678.413	0.0158884
678.491	0.0160900
678.569	0.0164390
678.647	0.0168171
678.725	0.0168418
678.803	0.0171709
678.881	0.0172161
678.959	0.0174281
679.038	0.0174764
679.116	0.0174626
679.194	0.0174718
679.272	0.0174780
679.350	0.0174502
679.428	0.0173467
679.506	0.0171686
679.584	0.0170202
679.663	0.0168680
679.741	0.0166744
679.819	0.0165998
679.897	0.0162343
679.975	0.0159193
680.053	0.0158844
680.131	0.0155996
680.209	0.0153348
680.288	0.0150669
680.366	0.0149651
680.444	0.0147904
680.522	0.0144938
680.600	0.0145995
680.678	0.0144848
680.756	0.0144453
680.834	0.0142554
680.913	0.0144528
680.991	0.0142251
681.069	0.0143762
681.147	0.0143581
681.225	0.0145715
681.303	0.0145965
681.381	0.0147558
681.459	0.0147730
681.538	0.0149574
681.616	0.0151567
681.694	0.0152151
681.772	0.0153904
681.850	0.0154342
681.928	0.0154139
682.006	0.0157137
682.084	0.0157634
682.163	0.0158086
682.241	0.0159446
682.319	0.0159970
682.397	0.0160927
682.475	0.0160169
682.553	0.0160337
682.631	0.0159576
682.709	0.0160515
682.788	0.0159589
682.866	0.0157369
682.944	0.0158041
683.022	0.0156942
683.100	0.0155489
683.178	0.0153558
683.256	0.0151295
683.334	0.0150603
683.413	0.0151117
683.491	0.0150178
683.569	0.0149438
683.647	0.0150022
683.725	0.0149465
683.803	0.0150657
683.881	0.0149371
683.959	0.0149686
684.038	0.0152385
684.116	0.0153152
684.194	0.0153790
684.272	0.0154561
684.350	0.0154556
684.428	0.0158186
684.506	0.0157589
684.584	0.0158611
684.663	0.0160520
684.741	0.0160801
684.819	0.0161702
684.897	0.0163278
684.975	0.0164140
685.053	0.0163173
685.131	0.0164188
685.209	0.0164891
685.288	0.0165475
685.366	0.0167837
685.444	0.0166906
685.522	0.0168727
685.600	0.0167688
685.678	0.0167831
685.756	0.0165729
685.834	0.0166875
685.913	0.0165514
685.991	0.0165412
686.069	0.0165302
686.147	0.0164078
686.225	0.0162929
686.303	0.0162251
686.381	0.0160560
686.459	0.0160461
686.538	0.0159196
686.616	0.0159071
686.694	0.0157615
686.772	0.0156345
686.850	0.0157344
686.928	0.0156468
687.006	0.0156013
687.084	0.0154792
687.163	0.0153354
687.241	0.0152710
687.319	0.0152003
687.397	0.0151795
687.475	0.0150810
687.553	0.0149834
687.631	0.0149637
687.709	0.0147362
687.788	0.0149612
687.866	0.0147326
687.944	0.0146044
688.022	0.0148788
688.100	0.0148642
688.178	0.0149687
688.256	0.0150079
688.334	0.0149770
688.413	0.0151192
688.491	0.0150766
688.569	0.0150307
688.647	0.0150167
688.725	0.0150626
688.803	0.0150591
688.881	0.0149342
688.959	0.0148621
689.038	0.0149003
689.116	0.0147813
689.194	0.0148485
689.272	0.0147775
689.350	0.0149067
689.428	0.0150570
689.506	0.0151312
689.584	0.0153231
689.663	0.0155445
689.741	0.0156949
689.819	0.0158755
689.897	0.0160973
689.975	0.0162440
690.053	0.0164319
690.131	0.0166125
690.209	0.0168639
690.288	0.0170551
690.366	0.0171094
690.444	0.0171384
690.522	0.0174172
690.600	0.0174636
690.678	0.0174504
690.756	0.0174434
690.834	0.0174218
690.913	0.0175668
690.991	0.0173138
691.069	0.0173021
691.147	0.0172812
691.225	0.0170939
691.303	0.0166750
691.381	0.0164857
691.459	0.0164034
691.538	0.0160654
691.616	0.0157628
691.694	0.0154332
691.772	0.0151066
691.850	0.0148913
691.928	0.0144635
692.006	0.0141839
692.084	0.0138490
692.163	0.0137527
692.241	0.0135256
692.319	0.0133668
692.397	0.0133491
692.475	0.0132133
692.553	0.0132696
692.631	0.0131821
692.709	0.0131785
692.788	0.0132451
692.866	0.0132581
692.944	0.0134686
693.022	0.0136966
693.100	0.0138631
693.178	0.0140379
693.256	0.0143584
693.334	0.0147881
693.413	0.0150331
693.491	0.0153419
693.569	0.0157289
693.647	0.0161736
693.725	0.0165527
693.803	0.0169594
693.881	0.0171983
693.959	0.0174432
694.038	0.0177229
694.116	0.0177867
694.194	0.0178426
694.272	0.0180292
694.350	0.0179288
694.428	0.0178526
694.506	0.0177584
694.584	0.0173830
694.663	0.0174303
694.741	0.0173460
694.819	0.0170316
694.897	0.0165990
694.975	0.0164528
695.053	0.0161607
695.131	0.0158294
695.209	0.0155168
695.288	0.0152775
695.366	0.0149135
695.444	0.0146431
695.522	0.0143382
695.600	0.0141203
695.678	0.0139926
695.756	0.0137020
695.834	0.0134506
695.913	0.0134287
695.991	0.0133894
696.069	0.0135207
696.147	0.0134659
696.225	0.0134309
696.303	0.0136823
696.381	0.0138115
696.459	0.0140204
696.538	0.0142222
696.616	0.0143604
696.694	0.0148137
696.772	0.0149374
696.850	0.0152357
696.928	0.0154942
697.006	0.0155166
697.084	0.0160701
697.163	0.0162595
697.241	0.0164581
697.319	0.0165871
697.397	0.0166527
697.475	0.0169219
697.553	0.0169762
697.631	0.0172990
697.709	0.0170485
697.788	0.0172804
697.866	0.0172597
697.944	0.0172852
698.022	0.0171078
698.100	0.0171030
698.178	0.0171011
698.256	0.0171224
698.334	0.0168764
698.413	0.0165455
698.491	0.0164921
698.569	0.0162774
698.647	0.0160399
698.725	0.0156323
698.803	0.0154063
698.881	0.0151239
698.959	0.0149302
699.038	0.0147253
699.116	0.0145692
699.194	0.0144713
699.272	0.0143102
699.350	0.0139480
699.428	0.0139180
699.506	0.0140816
699.584	0.0140199
699.663	0.0140142
699.741	0.0140595
699.819	0.0141436
699.897	0.0141434
699.975	0.0142186
700.053	0.0143534
700.131	0.0143396
700.209	0.0143860
700.288	0.0144063
700.366	0.0144063
700.444	0.0145613
700.522	0.0146577
700.600	0.0148213
700.678	0.0149831
700.756	0.0149998
700.834	0.0153497
700.913	0.0155057
700.991	0.0155177
701.069	0.0157985
701.147	0.0159395
701.225	0.0162308
701.303	0.0164101
701.381	0.0165818
701.459	0.0165586
701.538	0.0165938
701.616	0.0166882
701.694	0.0169241
701.772	0.0171574
701.850	0.0168387
701.928	0.0169303
702.006	0.0168344
702.084	0.0169038
702.163	0.0168517
702.241	0.0168065
702.319	0.0166135
702.397	0.0165722
702.475	0.0165678
702.553	0.0163221
702.631	0.0162413
702.709	0.0160185
702.788	0.0157830
702.866	0.0154771
702.944	0.0152419
703.022	0.0149537
703.100	0.0145518
703.178	0.0143839
703.256	0.0142488
703.334	0.0140160
703.413	0.0138657
703.491	0.0136087
703.569	0.0135553
703.647	0.0135672
703.725	0.0136113
703.803	0.0135004
703.881	0.0134229
703.959	0.0136369
704.038	0.0138134
704.116	0.0138287
704.194	0.0139990
704.272	0.0142628
704.350	0.0143636
704.428	0.0146865
704.506	0.0150137
704.584	0.0149663
704.663	0.0150731
704.741	0.0153635
704.819	0.0155754
704.897	0.0157332
704.975	0.0158062
705.053	0.0158022
705.131	0.0159499
705.209	0.0160052
705.288	0.0160115
705.366	0.0159550
705.444	0.0157604
705.522	0.0156105
705.600	0.0155783
705.678	0.0154169
705.756	0.0151922
705.834	0.0151778
705.913	0.0151230
705.991	0.0150079
706.069	0.0147961
706.147	0.0146042
706.225	0.0146735
706.303	0.0147381
706.381	0.0149633
706.459	0.0149701
706.538	0.0150578
706.616	0.0153918
706.694	0.0153956
706.772	0.0154113
706.850	0.0157468
706.928	0.0159803
707.006	0.0161966
707.084	0.0163856
707.163	0.0165237
707.241	0.0166399
707.319	0.0169100
707.397	0.0171938
707.475	0.0174059
707.553	0.0175965
707.631	0.0177520
707.709	0.0178754
707.788	0.0178534
707.866	0.0178829
707.944	0.0179665
708.022	0.0179531
708.100	0.0178204
708.178	0.0177179
708.256	0.0176228
708.334	0.0174780
708.413	0.0171247
708.491	0.0169380
708.569	0.0166949
708.647	0.0163449
708.725	0.0160332
708.803	0.0157761
708.881	0.0152928
708.959	0.0150720
709.038	0.0146427
709.116	0.0144263
709.194	0.0142155
709.272	0.0138185
709.350	0.0136706
709.428	0.0133964
709.506	0.0132084
709.584	0.0130418
709.663	0.0130753
709.741	0.0130022
709.819	0.0129881
709.897	0.0129844
709.975	0.0129628
710.053	0.0131092
710.131	0.0130947
710.209	0.0132986
710.288	0.0135145
710.366	0.0137044
710.444	0.0140461
710.522	0.0142840
710.600	0.0145744
710.678	0.0150770
710.756	0.0154327
710.834	0.0156277
710.913	0.0158582
710.991	0.0162286
711.069	0.0164272
711.147	0.0167857
711.225	0.0170000
711.303	0.0171700
711.381	0.0172778
711.459	0.0174815
711.538	0.0175579
711.616	0.0176120
711.694	0.0174026
711.772	0.0174112
711.850	0.0174830
711.928	0.0172493
712.006	0.0170988
712.084	0.0169930
712.163	0.0169568
712.241	0.0167750
712.319	0.0165633
712.397	0.0164130
712.475	0.0162736
712.553	0.0161369
712.631	0.0160062
712.709	0.0157370
712.788	0.0157330
712.866	0.0155754
712.944	0.0153286
713.022	0.0152958
713.100	0.0151638
713.178	0.0151169
713.256	0.0150419
713.334	0.0148437
713.413	0.0149944
713.491	0.0150641
713.569	0.0151230
713.647	0.0151048
713.725	0.0151277
713.803	0.0152657
713.881	0.0153384
713.959	0.0154387
714.038	0.0155516
714.116	0.0157019
714.194	0.0157391
714.272	0.0157299
714.350	0.0157111
714.428	0.0156303
714.506	0.0156548
714.584	0.0157065
714.663	0.0156602
714.741	0.0156818
714.819	0.0157494
714.897	0.0156866
714.975	0.0156293
715.053	0.0158544
715.131	0.0157411
715.209	0.0157037
715.288	0.0157433
715.366	0.0156690
715.444	0.0157172
715.522	0.0156464
715.600	0.0154915
715.678	0.0153316
715.756	0.0153711
715.834	0.0152109
715.913	0.0150723
715.991	0.0150242
716.069	0.0151103
716.147	0.0149242
716.225	0.0149049
716.303	0.0149785
716.381	0.0148144
716.459	0.0147485
716.538	0.0149157
716.616	0.0147916
716.694	0.0148335
716.772	0.0149146
716.850	0.0148779
716.928	0.0148963
717.006	0.0150286
717.084	0.0149762
717.163	0.0150404
717.241	0.0150697
717.319	0.0152105
717.397	0.0151382
717.475	0.0153301
717.553	0.0154275
717.631	0.0155094
717.709	0.0155437
717.788	0.0156723
717.866	0.0156747
717.944	0.0158025
718.022	0.0160195
718.100	0.0158994
718.178	0.0160294
718.256	0.0159791
718.334	0.0159596
718.413	0.0161621
718.491	0.0162041
718.569	0.0161573
718.647	0.0160946
718.725	0.0162724
718.803	0.0162582
718.881	0.0163660
718.959	0.0163307
719.038	0.0161327
719.116	0.0161409
719.194	0.0160873
719.272	0.0161904
719.350	0.0160002
719.428	0.0160670
719.506	0.0158472
719.584	0.0157635
719.663	0.0155699
719.741	0.0154816
719.819	0.0153038
719.897	0.0151283
719.975	0.0153262
720.053	0.0151672
720.131	0.0150693
720.209	0.0149606
720.288	0.0149941
720.366	0.0148927
720.444	0.0150645
720.522	0.0149176
720.600	0.0149277
720.678	0.0148346
720.756	0.0150686
720.834	0.0151686
720.913	0.0150117
720.991	0.0150730
721.069	0.0150893
721.147	0.0152528
721.225	0.0151846
721.303	0.0152380
721.381	0.0152508
721.459	0.0151868
721.538	0.0152435
721.616	0.0152740
721.694	0.0152958
721.772	0.0153471
721.850	0.0154978
721.928	0.0155836
722.006	0.0156615
722.084	0.0155225
722.163	0.0156458
722.241	0.0157624
722.319	0.0157372
722.397	0.0156805
722.475	0.0157889
722.553	0.0156812
722.631	0.0157755
722.709	0.0156725
722.788	0.0155795
722.866	0.0157452
722.944	0.0156433
723.022	0.0156631
723.100	0.0156859
723.178	0.0156681
723.256	0.0156680
723.334	0.0156767
723.413	0.0156362
723.491	0.0156325
723.569	0.0157206
723.647	0.0156609
723.725	0.0155247
723.803	0.0155580
723.881	0.0154044
723.959	0.0152173
724.038	0.0150933
724.116	0.0150974
724.194	0.0149918
724.272	0.0150620
724.350	0.0148212
724.428	0.0148224
724.506	0.0147926
724.584	0.0146622
724.663	0.0147871
724.741	0.0146867
724.819	0.0145082
724.897	0.0145940
724.975	0.0145036
725.053	0.0144659
725.131	0.0143246
725.209	0.0143512
725.288	0.0141553
725.366	0.0142518
725.444	0.0141719
725.522	0.0140621
725.600	0.0141133
725.678	0.0139986
725.756	0.0139946
725.834	0.0141588
725.913	0.0142030
725.991	0.0143510
726.069	0.0143716
726.147	0.0145052
726.225	0.0145193
726.303	0.0147102
726.381	0.0149374
726.459	0.0150263
726.538	0.0153170
726.616	0.0154855
726.694	0.0155292
726.772	0.0157984
726.850	0.0159421
726.928	0.0161744
727.006	0.0162966
727.084	0.0164577
727.163	0.0165294
727.241	0.0167553
727.319	0.0169300
727.397	0.0169030
727.475	0.0170781
727.553	0.0169603
727.631	0.0172272
727.709	0.0173382
727.788	0.0174296
727.866	0.0175284
727.944	0.0176234
728.022	0.0177446
728.100	0.0178522
728.178	0.0177231
728.256	0.0177168
728.334	0.0178703
728.413	0.0178029
728.491	0.0178270
728.569	0.0177173
728.647	0.0175552
728.725	0.0175567
728.803	0.0174719
728.881	0.0171075
728.959	0.0169958
729.038	0.0167432
729.116	0.0164535
729.194	0.0161032
729.272	0.0158762
729.350	0.0156026
729.428	0.0152463
729.506	0.0147664
729.584	0.0144270
729.663	0.0142678
729.741	0.0139022
729.819	0.0136401
729.897	0.0134481
729.975	0.0131440
730.053	0.0127755
730.131	0.0128031
730.209	0.0127773
730.288	0.0126051
730.366	0.0127526
730.444	0.0126485
730.522	0.0127064
730.600	0.0129214
730.678	0.0132130
730.756	0.0131264
730.834	0.0134099
730.913	0.0137256
730.991	0.0137019
731.069	0.0138036
731.147	0.0139594
731.225	0.0142522
731.303	0.0143944
731.381	0.0147118
731.459	0.0147856
731.538	0.0151326
731.616	0.0154044
731.694	0.0154924
731.772	0.0158553
731.850	0.0161671
731.928	0.0164175
732.006	0.0167317
732.084	0.0168846
732.163	0.0170248
732.241	0.0172968
732.319	0.0173192
732.397	0.0173892
732.475	0.0174596
732.553	0.0173740
732.631	0.0174012
732.709	0.0174283
732.788	0.0174727
732.866	0.0172710
732.944	0.0172157
733.022	0.0170721
733.100	0.0169794
733.178	0.0167661
733.256	0.0167529
733.334	0.0166508
733.413	0.0165482
733.491	0.0164763
733.569	0.0162766
733.647	0.0161341
733.725	0.0160432
733.803	0.0156409
733.881	0.0156720
733.959	0.0156350
734.038	0.0154346
734.116	0.0154263
734.194	0.0152049
734.272	0.0152380
734.350	0.0151279
734.428	0.0151234
734.506	0.0149116
734.584	0.0149709
734.663	0.0148711
734.741	0.0148103
734.819	0.0147955
734.897	0.0147459
734.975	0.0146581
735.053	0.0145467
735.131	0.0145240
735.209	0.0145136
735.288	0.0145064
735.366	0.0143801
735.444	0.0143777
735.522	0.0146343
735.600	0.0145315
735.678	0.0146111
735.756	0.0145379
735.834	0.0147703
735.913	0.0148051
735.991	0.0148125
736.069	0.0149118
736.147	0.0150078
736.225	0.0152194
736.303	0.0153289
736.381	0.0154072
736.459	0.0156866
736.538	0.0157790
736.616	0.0159348
736.694	0.0159366
736.772	0.0161066
736.850	0.0161497
736.928	0.0162999
737.006	0.0163643
737.084	0.0161935
737.163	0.0162609
737.241	0.0164027
737.319	0.0162132
737.397	0.0163467
737.475	0.0161389
737.553	0.0162032
737.631	0.0160636
737.709	0.0159917
737.788	0.0159869
737.866	0.0159225
737.944	0.0158690
738.022	0.0158325
738.100	0.0155838
738.178	0.0153983
738.256	0.0155065
738.334	0.0152972
738.413	0.0150863
738.491	0.0151548
738.569	0.0150795
738.647	0.0150103
738.725	0.0150504
738.803	0.0149979
738.881	0.0150739
738.959	0.0150333
739.038	0.0149901
739.116	0.0150215
739.194	0.0150494
739.272	0.0151834
739.350	0.0148708
739.428	0.0148558
739.506	0.0148534
739.584	0.0148607
739.663	0.0149513
739.741	0.0148077
739.819	0.0148188
739.897	0.0148085
739.975	0.0149577
740.053	0.0147863
740.131	0.0147769
740.209	0.0148033
740.288	0.0149257
740.366	0.0149451
740.444	0.0151286
740.522	0.0151416
740.600	0.0150838
740.678	0.0151422
740.756	0.0153925
740.834	0.0153658
740.913	0.0153058
740.991	0.0155077
741.069	0.0155373
741.147	0.0155309
741.225	0.0157014
741.303	0.0156631
741.381	0.0156969
741.459	0.0156518
741.538	0.0156538
741.616	0.0156754
741.694	0.0157925
741.772	0.0157684
741.850	0.0156162
741.928	0.0157256
742.006	0.0157887
742.084	0.0157698
742.163	0.0157738
742.241	0.0158024
742.319	0.0160398
742.397	0.0159248
742.475	0.0159998
742.553	0.0159347
742.631	0.0159664
742.709	0.0160844
742.788	0.0161164
742.866	0.0161107
742.944	0.0161825
743.022	0.0163264
743.100	0.0163303
743.178	0.0163302
743.256	0.0164454
743.334	0.0164217
743.413	0.0165171
743.491	0.0165073
743.569	0.0165780
743.647	0.0165638
743.725	0.0165380
743.803	0.0166701
743.881	0.0165919
743.959	0.0164140
744.038	0.0163273
744.116	0.0163083
744.194	0.0161537
744.272	0.0160700
744.350	0.0157597
744.428	0.0157324
744.506	0.0154502
744.584	0.0152085
744.663	0.0150499
744.741	0.0148736
744.819	0.0146287
744.897	0.0143744
744.975	0.0142263
745.053	0.0140212
745.131	0.0139503
745.209	0.0136490
745.288	0.0135515
745.366	0.0134975
745.444	0.0135069
745.522	0.0134646
745.600	0.0134823
745.678	0.0135156
745.756	0.0135424
745.834	0.0135164
745.913	0.0137675
745.991	0.0139476
746.069	0.0138725
746.147	0.0141962
746.225	0.0144071
746.303	0.0145271
746.381	0.0147495
746.459	0.0148974
746.538	0.0149970
746.616	0.0153576
746.694	0.0155437
746.772	0.0158171
746.850	0.0160345
746.928	0.0161743
747.006	0.0164754
747.084	0.0163349
747.163	0.0165986
747.241	0.0167715
747.319	0.0167793
747.397	0.0169261
747.475	0.0168291
747.553	0.0169845
747.631	0.0167493
747.709	0.0168169
747.788	0.0165860
747.866	0.0164349
747.944	0.0163530
748.022	0.0162086
748.100	0.0161854
748.178	0.0162630
748.256	0.0159823
748.334	0.0157265
748.413	0.0157590
748.491	0.0158042
748.569	0.0156937
748.647	0.0155456
748.725	0.0155531
748.803	0.0155058
748.881	0.0155683
748.959	0.0154854
749.038	0.0154443
749.116	0.0153660
749.194	0.0152895
749.272	0.0153160
749.350	0.0152742
749.428	0.0152715
749.506	0.0153611
749.584	0.0151225
749.663	0.0151080
749.741	0.0151416
749.819	0.0149928
749.897	0.0152322
749.975	0.0152991
750.053	0.0152648
750.131	0.0152611
750.209	0.0152188
750.288	0.0155517
750.366	0.0155435
750.444	0.0155936
750.522	0.0154095
750.600	0.0156777
750.678	0.0157549
750.756	0.0158585
750.834	0.0160304
750.913	0.0160521
750.991	0.0159531
751.069	0.0161075
751.147	0.0161274
751.225	0.0161776
751.303	0.0162016
751.381	0.0162654
751.459	0.0161792
751.538	0.0160658
751.616	0.0161019
751.694	0.0161769
751.772	0.0161720
751.850	0.0159597
751.928	0.0158887
752.006	0.0159549
752.084	0.0157995
752.163	0.0157126
752.241	0.0157614
752.319	0.0155545
752.397	0.0155325
752.475	0.0154585
752.553	0.0154037
752.631	0.0151981
752.709	0.0150869
752.788	0.0149477
752.866	0.0147823
752.944	0.0146904
753.022	0.0145441
753.100	0.0145224
753.178	0.0146203
753.256	0.0143254
753.334	0.0143235
753.413	0.0144371
753.491	0.0144265
753.569	0.0143589
753.647	0.0142436
753.725	0.0145185
753.803	0.0145629
753.881	0.0146562
753.959	0.0148820
754.038	0.0149652
754.116	0.0152264
754.194	0.0153007
754.272	0.0155378
754.350	0.0157493
754.428	0.0158266
754.506	0.0160087
754.584	0.0161966
754.663	0.0164417
754.741	0.0164240
754.819	0.0165887
754.897	0.0166736
754.975	0.0168638
755.053	0.0167759
755.131	0.0166002
755.209	0.0165160
755.288	0.0165295
755.366	0.0165353
755.444	0.0164301
755.522	0.0162201
755.600	0.0161818
755.678	0.0160384
755.756	0.0160249
755.834	0.0159325
755.913	0.0157133
755.991	0.0156454
756.069	0.0153788
756.147	0.0155325
756.225	0.0155099
756.303	0.0153272
756.381	0.0152325
756.459	0.0151849
756.538	0.0151149
756.616	0.0151575
756.694	0.0150130
756.772	0.0149770
756.850	0.0150340
756.928	0.0150406
757.006	0.0150397
757.084	0.0150893
757.163	0.0151562
757.241	0.0150768
757.319	0.0150918
757.397	0.0151677
757.475	0.0154155
757.553	0.0153788
757.631	0.0154660
757.709	0.0154051
757.788	0.0155102
757.866	0.0156872
757.944	0.0156360
758.022	0.0158516
758.100	0.0157618
758.178	0.0157783
758.256	0.0158013
758.334	0.0158376
758.413	0.0158969
758.491	0.0159069
758.569	0.0158467
758.647	0.0158807
758.725	0.0158394
758.803	0.0157216
758.881	0.0158646
758.959	0.0158146
759.038	0.0159384
759.116	0.0159075
759.194	0.0159792
759.272	0.0158979
759.350	0.0159866
759.428	0.0160509
759.506	0.0161000
759.584	0.0159718
759.663	0.0160069
759.741	0.0160727
759.819	0.0162108
759.897	0.0159693
759.975	0.0160603
760.053	0.0161409
760.131	0.0159196
760.209	0.0159879
760.288	0.0159061
760.366	0.0158779
760.444	0.0157047
760.522	0.0158249
760.600	0.0156390
760.678	0.0156205
760.756	0.0155287
760.834	0.0154478
760.913	0.0153431
760.991	0.0151099
761.069	0.0151967
761.147	0.0150353
761.225	0.0150056
761.303	0.0150285
761.381	0.0149213
761.459	0.0149167
761.538	0.0148833
761.616	0.0148795
761.694	0.0149543
761.772	0.0148567
761.850	0.0149395
761.928	0.0150343
762.006	0.0151456
762.084	0.0150155
762.163	0.0149658
762.241	0.0150691
762.319	0.0149702
762.397	0.0149465
762.475	0.0147654
762.553	0.0148024
762.631	0.0148932
762.709	0.0150445
762.788	0.0148568
762.866	0.0148807
762.944	0.0149162
763.022	0.0151013
763.100	0.0151451
763.178	0.0152966
763.256	0.0153214
763.334	0.0155598
763.413	0.0157066
763.491	0.0158474
763.569	0.0157295
763.647	0.0158488
763.725	0.0157996
763.803	0.0159684
763.881	0.0159362
763.959	0.0160178
764.038	0.0159945
764.116	0.0160403
764.194	0.0160201
764.272	0.0159500
764.350	0.0159865
764.428	0.0159494
764.506	0.0158340
764.584	0.0159267
764.663	0.0159624
764.741	0.0159371
764.819	0.0159338
764.897	0.0158562
764.975	0.0158416
765.053	0.0158511
765.131	0.0158125
765.209	0.0158913
765.288	0.0157127
765.366	0.0157056
765.444	0.0156824
765.522	0.0157014
765.600	0.0156876
765.678	0.0155275
765.756	0.0156940
765.834	0.0155563
765.913	0.0155478
765.991	0.0154951
766.069	0.0154913
766.147	0.0154039
766.225	0.0152565
766.303	0.0152365
766.381	0.0154232
766.459	0.0151883
766.538	0.0152631
766.616	0.0152630
766.694	0.0152388
766.772	0.0152491
766.850	0.0151402
766.928	0.0152380
767.006	0.0152005
767.084	0.0153532
767.163	0.0152293
767.241	0.0151395
767.319	0.0151948
767.397	0.0151335
767.475	0.0153087
767.553	0.0151593
767.631	0.0150154
767.709	0.0152678
767.788	0.0153484
767.866	0.0152924
767.944	0.0154256
768.022	0.0152818
768.100	0.0154625
768.178	0.0154452
768.256	0.0154298
768.334	0.0155495
768.413	0.0155190
768.491	0.0153652
768.569	0.0155642
768.647	0.0156165
768.725	0.0154906
768.803	0.0156573
768.881	0.0156245
768.959	0.0156467
769.038	0.0157069
769.116	0.0157949
769.194	0.0156973
769.272	0.0156913
769.350	0.0158008
769.428	0.0157312
769.506	0.0157537
769.584	0.0156628
769.663	0.0158926
769.741	0.0158275
769.819	0.0158025
769.897	0.0158379
769.975	0.0157860
770.053	0.0158221
770.131	0.0157450
770.209	0.0158547
770.288	0.0157660
770.366	0.0156533
770.444	0.0157415
770.522	0.0156194
770.600	0.0156647
770.678	0.0155054
770.756	0.0156374
770.834	0.0156087
770.913	0.0155153
770.991	0.0153492
771.069	0.0153438
771.147	0.0152094
771.225	0.0154427
771.303	0.0153377
771.381	0.0152772
771.459	0.0151543
771.538	0.0153012
771.616	0.0153469
771.694	0.0151732
771.772	0.0152611
771.850	0.0153909
771.928	0.0153909
772.006	0.0154214
772.084	0.0154681
772.163	0.0154840
772.241	0.0154391
772.319	0.0155238
772.397	0.0154446
772.475	0.0154996
772.553	0.0154755
772.631	0.0154569
772.709	0.0154933
772.788	0.0155804
772.866	0.0155385
772.944	0.0155376
773.022	0.0155058
773.100	0.0155085
773.178	0.0154040
773.256	0.0156361
773.334	0.0156094
773.413	0.0155786
773.491	0.0157104
773.569	0.0156956
773.647	0.0157697
773.725	0.0157198
773.803	0.0157345
773.881	0.0157041
773.959	0.0156702
774.038	0.0157774
774.116	0.0157928
774.194	0.0159351
774.272	0.0158224
774.350	0.0159259
774.428	0.0158966
774.506	0.0159434
774.584	0.0159187
774.663	0.0159069
774.741	0.0158887
774.819	0.0159483
774.897	0.0160658
774.975	0.0159641
775.053	0.0159657
775.131	0.0158443
775.209	0.0159351
775.288	0.0160749
775.366	0.0159151
775.444	0.0157368
775.522	0.0159199
775.600	0.0157647
775.678	0.0157249
775.756	0.0155430
775.834	0.0156864
775.913	0.0156389
775.991	0.0155039
776.069	0.0155816
776.147	0.0156372
776.225	0.0155833
776.303	0.0156424
776.381	0.0154468
776.459	0.0155432
776.538	0.0156208
776.616	0.0156067
776.694	0.0156224
776.772	0.0156136
776.850	0.0155575
776.928	0.0155279
777.006	0.0154771
777.084	0.0154795
777.163	0.0153422
777.241	0.0152132
777.319	0.0151421
777.397	0.0152264
777.475	0.0151936
777.553	0.0152353
777.631	0.0151406
777.709	0.0151460
777.788	0.0150047
777.866	0.0151350
777.944	0.0151241
778.022	0.0151727
778.100	0.0152402
778.178	0.0153812
778.256	0.0152346
778.334	0.0154187
778.413	0.0154146
778.491	0.0153722
778.569	0.0154945
778.647	0.0154603
778.725	0.0156160
778.803	0.0155367
778.881	0.0154534
778.959	0.0157297
779.038	0.0157187
779.116	0.0157147
779.194	0.0158849
779.272	0.0157954
779.350	0.0157623
779.428	0.0158907
779.506	0.0158397
779.584	0.0156419
779.663	0.0157310
779.741	0.0157941
779.819	0.0156974
779.897	0.0157808
779.975	0.0157774
780.053	0.0157622
780.131	0.0154603
780.209	0.0155141
780.288	0.0155759
780.366	0.0155213
780.444	0.0155548
780.522	0.0154453
780.600	0.0155721
780.678	0.0156264
780.756	0.0155134
780.834	0.0155785
780.913	0.0157304
780.991	0.0157539
781.069	0.0158062
781.147	0.0157742
781.225	0.0155946
781.303	0.0158160
781.381	0.0159114
781.459	0.0158206
781.538	0.0157548
781.616	0.0157573
781.694	0.0160448
781.772	0.0159389
781.850	0.0158943
781.928	0.0158188
782.006	0.0159511
782.084	0.0159828
782.163	0.0158841
782.241	0.0159512
782.319	0.0158532
782.397	0.0159039
782.475	0.0156664
782.553	0.0156906
782.631	0.0156379
782.709	0.0156084
782.788	0.0156686
782.866	0.0153741
782.944	0.0151662
783.022	0.0152657
783.100	0.0152174
783.178	0.0151784
783.256	0.0150011
783.334	0.0149299
783.413	0.0149759
783.491	0.0150539
783.569	0.0150842
783.647	0.0150522
783.725	0.0152068
783.803	0.0151866
783.881	0.0151027
783.959	0.0152489
784.038	0.0152242
784.116	0.0154887
784.194	0.0154839
784.272	0.0156009
784.350	0.0155861
784.428	0.0156614
784.506	0.0155260
784.584	0.0157504
784.663	0.0156454
784.741	0.0158398
784.819	0.0158674
784.897	0.0157338
784.975	0.0158214
785.053	0.0157346
785.131	0.0156244
785.209	0.0155844
785.288	0.0156766
785.366	0.0156891
785.444	0.0154095
785.522	0.0154219
785.600	0.0153838
785.678	0.0154978
785.756	0.0153610
785.834	0.0153557
785.913	0.0152721
785.991	0.0153625
786.069	0.0154866
786.147	0.0152332
786.225	0.0154760
786.303	0.0154124
786.381	0.0154792
786.459	0.0154552
786.538	0.0154061
786.616	0.0154769
786.694	0.0155875
786.772	0.0158024
786.850	0.0158050
786.928	0.0158517
787.006	0.0160601
787.084	0.0160109
787.163	0.0160711
787.241	0.0162443
787.319	0.0161220
787.397	0.0160381
787.475	0.0160887
787.553	0.0159830
787.631	0.0161263
787.709	0.0159760
787.788	0.0159105
787.866	0.0157201
787.944	0.0157957
788.022	0.0156209
788.100	0.0156889
788.178	0.0156097
788.256	0.0155888
788.334	0.0154440
788.413	0.0154989
788.491	0.0156132
788.569	0.0153758
788.647	0.0153102
788.725	0.0153806
788.803	0.0153922
788.881	0.0152515
788.959	0.0151966
789.038	0.0153085
789.116	0.0152216
789.194	0.0153578
789.272	0.0152740
789.350	0.0153501
789.428	0.0154501
789.506	0.0153689
789.584	0.0155770
789.663	0.0156928
789.741	0.0157661
789.819	0.0157207
789.897	0.0158292
789.975	0.0156293
790.053	0.0157586
790.131	0.0159425
790.209	0.0158701
790.288	0.0158551
790.366	0.0159389
790.444	0.0158025
790.522	0.0160460
790.600	0.0158576
790.678	0.0157484
790.756	0.0157495
790.834	0.0158458
790.913	0.0157082
790.991	0.0156834
791.069	0.0157541
791.147	0.0156991
791.225	0.0156944
791.303	0.0155260
791.381	0.0154829
791.459	0.0154643
791.538	0.0154684
791.616	0.0155239
791.694	0.0155539
791.772	0.0152794
791.850	0.0153036
791.928	0.0153895
792.006	0.0152388
792.084	0.0153235
792.163	0.0153841
792.241	0.0152994
792.319	0.0153055
792.397	0.0153864
792.475	0.0154413
792.553	0.0152411
792.631	0.0152781
792.709	0.0153899
792.788	0.0152602
792.866	0.0152552
792.944	0.0154283
793.022	0.0154208
793.100	0.0153802
793.178	0.0154696
793.256	0.0156617
793.334	0.0155422
793.413	0.0155998
793.491	0.0156731
793.569	0.0155690
793.647	0.0156018
793.725	0.0156166
793.803	0.0154764
793.881	0.0155387
793.959	0.0156462
794.038	0.0155962
794.116	0.0154109
794.194	0.0155862
794.272	0.0155194
794.350	0.0154865
794.428	0.0155734
794.506	0.0154816
794.584	0.0156126
794.663	0.0155744
794.741	0.0154391
794.819	0.0154894
794.897	0.0155530
794.975	0.0153674
795.053	0.0153656
795.131	0.0154508
795.209	0.0154965
795.288	0.0155569
795.366	0.0153848
795.444	0.0154791
795.522	0.0155688
795.600	0.0156545
795.678	0.0155986
795.756	0.0156077
795.834	0.0155764
795.913	0.0155658
795.991	0.0155317
796.069	0.0155487
796.147	0.0155825
796.225	0.0156780
796.303	0.0155317
796.381	0.0153859
796.459	0.0154204
796.538	0.0155770
796.616	0.0155803
796.694	0.0155555
796.772	0.0155934
796.850	0.0156480
796.928	0.0156262
797.006	0.0156053
797.084	0.0156584
797.163	0.0156688
797.241	0.0157471
797.319	0.0157179
797.397	0.0156770
797.475	0.0158967
797.553	0.0159180
797.631	0.0157340
797.709	0.0156951
797.788	0.0158047
797.866	0.0159219
797.944	0.0159021
798.022	0.0158758
798.100	0.0158434
798.178	0.0158164
798.256	0.0160097
798.334	0.0158438
798.413	0.0158144
798.491	0.0158863
798.569	0.0158399
798.647	0.0159988
798.725	0.0160516
798.803	0.0158592
798.881	0.0158372
798.959	0.0158641
799.038	0.0157029
799.116	0.0157640
799.194	0.0156106
799.272	0.0156949
799.350	0.0154889
799.428	0.0156036
799.506	0.0156022
799.584	0.0156144
799.663	0.0155614
799.741	0.0153737
799.819	0.0154381
799.897	0.0154895
799.975	0.0153091
800.053	0.0152919
800.131	0.0152365
800.209	0.0152816
800.288	0.0152091
800.366	0.0151705
800.444	0.0152970
800.522	0.0153058
800.600	0.0152179
800.678	0.0151989
800.756	0.0152026
800.834	0.0151866
800.913	0.0152242
800.991	0.0152523
801.069	0.0152616
801.147	0.0153867
801.225	0.0152402
801.303	0.0154341
801.381	0.0153962
801.459	0.0156153
801.538	0.0155264
801.616	0.0154477
801.694	0.0155861
801.772	0.0156704
801.850	0.0155636
801.928	0.0156435
802.006	0.0155942
802.084	0.0156104
802.163	0.0155792
802.241	0.0155968
802.319	0.0156312
802.397	0.0156682
802.475	0.0155507
802.553	0.0155929
802.631	0.0156168
802.709	0.0157211
802.788	0.0155159
802.866	0.0155518
802.944	0.0154983
803.022	0.0155235
803.100	0.0155553
803.178	0.0155903
803.256	0.0155914
803.334	0.0155794
803.413	0.0156895
803.491	0.0156791
803.569	0.0156933
803.647	0.0157746
803.725	0.0156635
803.803	0.0157649
803.881	0.0158056
803.959	0.0158388
804.038	0.0157883
804.116	0.0157184
804.194	0.0157396
804.272	0.0158527
804.350	0.0158692
804.428	0.0157372
804.506	0.0157626
804.584	0.0158029
804.663	0.0159988
804.741	0.0159466
804.819	0.0158217
804.897	0.0157731
804.975	0.0155943
805.053	0.0157626
805.131	0.0156676
805.209	0.0157026
805.288	0.0155827
805.366	0.0153870
805.444	0.0154472
805.522	0.0153945
805.600	0.0152436
805.678	0.0152266
805.756	0.0151979
805.834	0.0151950
805.913	0.0151339
805.991	0.0150579
806.069	0.0149168
806.147	0.0149597
806.225	0.0148501
806.303	0.0148309
806.381	0.0148838
806.459	0.0148693
806.538	0.0149833
806.616	0.0148583
806.694	0.0148789
806.772	0.0149075
806.850	0.0150880
806.928	0.0150906
807.006	0.0148206
807.084	0.0149503
807.163	0.0151895
807.241	0.0153026
807.319	0.0153683
807.397	0.0153297
807.475	0.0153767
807.553	0.0155090
807.631	0.0155768
807.709	0.0155558
807.788	0.0157047
807.866	0.0157995
807.944	0.0158674
808.022	0.0157429
808.100	0.0158256
808.178	0.0157645
808.256	0.0158470
808.334	0.0159269
808.413	0.0159390
808.491	0.0157088
808.569	0.0158392
808.647	0.0158212
808.725	0.0158104
808.803	0.0158349
808.881	0.0156156
808.959	0.0155635
809.038	0.0154929
809.116	0.0155368
809.194	0.0153423
809.272	0.0152304
809.350	0.0151546
809.428	0.0151160
809.506	0.0152010
809.584	0.0150378
809.663	0.0150387
809.741	0.0149812
809.819	0.0150127
809.897	0.0148793
809.975	0.0149285
810.053	0.0150479
810.131	0.0151862
810.209	0.0150475
810.288	0.0150124
810.366	0.0152747
810.444	0.0152389
810.522	0.0154128
810.600	0.0153816
810.678	0.0156067
810.756	0.0155646
810.834	0.0155837
810.913	0.0156355
810.991	0.0156790
811.069	0.0157604
811.147	0.0157035
811.225	0.0157884
811.303	0.0158299
811.381	0.0158154
811.459	0.0157885
811.538	0.0158463
811.616	0.0156571
811.694	0.0156831
811.772	0.0157563
811.850	0.0156430
811.928	0.0155984
812.006	0.0155747
812.084	0.0156603
812.163	0.0156712
812.241	0.0156217
812.319	0.0156332
812.397	0.0155127
812.475	0.0156628
812.553	0.0154976
812.631	0.0154007
812.709	0.0156208
812.788	0.0155478
812.866	0.0154426
812.944	0.0155942
813.022	0.0154610
813.100	0.0156276
813.178	0.0154704
813.256	0.0155673
813.334	0.0155637
813.413	0.0155356
813.491	0.0156927
813.569	0.0155399
813.647	0.0156525
813.725	0.0156170
813.803	0.0156586
813.881	0.0156988
813.959	0.0155388
814.038	0.0156673
814.116	0.0155948
814.194	0.0157110
814.272	0.0157608
814.350	0.0157073
814.428	0.0156702
814.506	0.0158102
814.584	0.0157641
814.663	0.0159039
814.741	0.0157978
814.819	0.0159087
814.897	0.0158151
814.975	0.0157446
815.053	0.0158836
815.131	0.0158514
815.209	0.0158579
815.288	0.0158117
815.366	0.0157471
815.444	0.0157967
815.522	0.0158103
815.600	0.0156895
815.678	0.0159399
815.756	0.0157467
815.834	0.0156137
815.913	0.0156418
815.991	0.0156907
816.069	0.0156821
816.147	0.0157204
816.225	0.0155901
816.303	0.0156108
816.381	0.0155807
816.459	0.0157060
816.538	0.0157409
816.616	0.0156448
816.694	0.0156811
816.772	0.0157139
816.850	0.0156229
816.928	0.0154884
817.006	0.0156649
817.084	0.0156711
817.163	0.0156539
817.241	0.0155669
817.319	0.0156778
817.397	0.0156459
817.475	0.0154704
817.553	0.0155775
817.631	0.0155367
817.709	0.0155362
817.788	0.0155306
817.866	0.0153606
817.944	0.0153347
818.022	0.0153412
818.100	0.0152637
818.178	0.0152578
818.256	0.0152784
818.334	0.0152872
818.413	0.0151948
818.491	0.0153121
818.569	0.0151881
818.647	0.0152576
818.725	0.0152876
818.803	0.0153644
818.881	0.0154046
818.959	0.0153681
819.038	0.0155021
819.116	0.0155938
819.194	0.0155984
819.272	0.0155238
819.350	0.0155144
819.428	0.0156116
819.506	0.0156281
819.584	0.0157427
819.663	0.0156866
819.741	0.0157717
819.819	0.0158661
819.897	0.0158341
819.975	0.0159232
820.053	0.0157884
820.131	0.0159233
820.209	0.0158360
820.288	0.0158046
820.366	0.0159150
820.444	0.0158169
820.522	0.0157983
820.600	0.0158107
820.678	0.0157455
820.756	0.0157588
820.834	0.0155793
820.913	0.0156683
820.991	0.0156686
821.069	0.0155653
821.147	0.0154655
821.225	0.0155142
821.303	0.0154283
821.381	0.0153336
821.459	0.0152382
821.538	0.0151807
821.616	0.0151318
821.694	0.0153149
821.772	0.0151661
821.850	0.0151312
821.928	0.0152241
822.006	0.0151844
822.084	0.0151698
822.163	0.0151122
822.241	0.0150584
822.319	0.0150059
822.397	0.0150314
822.475	0.0152029
822.553	0.0150270
822.631	0.0150248
822.709	0.0149731
822.788	0.0151811
822.866	0.0150819
822.944	0.0151626
823.022	0.0151698
823.100	0.0152927
823.178	0.0152301
823.256	0.0152989
823.334	0.0153755
823.413	0.0153583
823.491	0.0154423
823.569	0.0153890
823.647	0.0154510
823.725	0.0156333
823.803	0.0156934
823.881	0.0156117
823.959	0.0156578
824.038	0.0157506
824.116	0.0156723
824.194	0.0156772
824.272	0.0157489
824.350	0.0158504
824.428	0.0158125
824.506	0.0156974
824.584	0.0157378
824.663	0.0158084
824.741	0.0158493
824.819	0.0157072
824.897	0.0156307
824.975	0.0156865
825.053	0.0155673
825.131	0.0156354
825.209	0.0155161
825.288	0.0155268
825.366	0.0154489
825.444	0.0154704
825.522	0.0153294
825.600	0.0153852
825.678	0.0154200
825.756	0.0152401
825.834	0.0151653
825.913	0.0152472
825.991	0.0152883
826.069	0.0152842
826.147	0.0153011
826.225	0.0151265
826.303	0.0151811
826.381	0.0151312
826.459	0.0152267
826.538	0.0152141
826.616	0.0151819
826.694	0.0153104
826.772	0.0153243
826.850	0.0151282
826.928	0.0152810
827.006	0.0151458
827.084	0.0150143
827.163	0.0152336
827.241	0.0151656
827.319	0.0150123
827.397	0.0150659
827.475	0.0151499
827.553	0.0151499
827.631	0.0151366
827.709	0.0151596
827.788	0.0153442
827.866	0.0152660
827.944	0.0153111
828.022	0.0153068
828.100	0.0154239
828.178	0.0155386
828.256	0.0156098
828.334	0.0155627
828.413	0.0156112
828.491	0.0156992
828.569	0.0156439
828.647	0.0156503
828.725	0.0159328
828.803	0.0157018
828.881	0.0157738
828.959	0.0159099
829.038	0.0158452
829.116	0.0159261
829.194	0.0159698
829.272	0.0159402
829.350	0.0158369
829.428	0.0158073
829.506	0.0158540
829.584	0.0159277
829.663	0.0157552
829.741	0.0158904
829.819	0.0157552
829.897	0.0157462
829.975	0.0157263
830.053	0.0156160
830.131	0.0155708
830.209	0.0155405
830.288	0.0154718
830.366	0.0154898
830.444	0.0154181
830.522	0.0154356
830.600	0.0154217
830.678	0.0152820
830.756	0.0152463
830.834	0.0152300
830.913	0.0153346
830.991	0.0152265
831.069	0.0151593
831.147	0.0152251
831.225	0.0153049
831.303	0.0151443
831.381	0.0151291
831.459	0.0152303
831.538	0.0151678
831.616	0.0151530
831.694	0.0152900
831.772	0.0153133
831.850	0.0153226
831.928	0.0151900
832.006	0.0151672
832.084	0.0153725
832.163	0.0152717
832.241	0.0153515
832.319	0.0153725
832.397	0.0155875
832.475	0.0154273
832.553	0.0155169
832.631	0.0154234
832.709	0.0155965
832.788	0.0154832
832.866	0.0155112
832.944	0.0155461
833.022	0.0156036
833.100	0.0156393
833.178	0.0156173
833.256	0.0156669
833.334	0.0155045
833.413	0.0153487
833.491	0.0155201
833.569	0.0155769
833.647	0.0155457
833.725	0.0155479
833.803	0.0156329
833.881	0.0154821
833.959	0.0153893
834.038	0.0154276
834.116	0.0155637
834.194	0.0154591
834.272	0.0154575
834.350	0.0154687
834.428	0.0155833
834.506	0.0156426
834.584	0.0155009
834.663	0.0154308
834.741	0.0156030
834.819	0.0155986
834.897	0.0156718
834.975	0.0154699
835.053	0.0156754
835.131	0.0156230
835.209	0.0155132
835.288	0.0156415
835.366	0.0156172
835.444	0.0155527
835.522	0.0155945
835.600	0.0156559
835.678	0.0155901
835.756	0.0157134
835.834	0.0157201
835.913	0.0155262
835.991	0.0155691
836.069	0.0155580
836.147	0.0155296
836.225	0.0153954
836.303	0.0154015
836.381	0.0153883
836.459	0.0154401
836.538	0.0154333
836.616	0.0152824
836.694	0.0153426
836.772	0.0153056
836.850	0.0152122
836.928	0.0152010
837.006	0.0153548
837.084	0.0154103
837.163	0.0155025
837.241	0.0154318
837.319	0.0153651
837.397	0.0152316
837.475	0.0153740
837.553	0.0154865
837.631	0.0153720
837.709	0.0153790
837.788	0.0154790
837.866	0.0154252
837.944	0.0156459
838.022	0.0155633
838.100	0.0155309
838.178	0.0154662
838.256	0.0155266
838.334	0.0154154
838.413	0.0154600
838.491	0.0153783
838.569	0.0153866
838.647	0.0153792
838.725	0.0154553
838.803	0.0153542
838.881	0.0153901
838.959	0.0154770
839.038	0.0154472
839.116	0.0154229
839.194	0.0154826
839.272	0.0154797
839.350	0.0155242
839.428	0.0154948
839.506	0.0154622
839.584	0.0155250
839.663	0.0154057
839.741	0.0155502
839.819	0.0157735
839.897	0.0158379
839.975	0.0156528
840.053	0.0155949
840.131	0.0156001
840.209	0.0157809
840.288	0.0157030
840.366	0.0157204
840.444	0.0157571
840.522	0.0158160
840.600	0.0156556
840.678	0.0155162
840.756	0.0157148
840.834	0.0156894
840.913	0.0156560
840.991	0.0155577
841.069	0.0155923
841.147	0.0155181
841.225	0.0154724
841.303	0.0154379
841.381	0.0155192
841.459	0.0155621
841.538	0.0155082
841.616	0.0152937
841.694	0.0154165
841.772	0.0152866
841.850	0.0152409
841.928	0.0152248
842.006	0.0153469
842.084	0.0154057
842.163	0.0153970
842.241	0.0152502
842.319	0.0153474
842.397	0.0152273
842.475	0.0152422
842.553	0.0154616
842.631	0.0154543
842.709	0.0152716
842.788	0.0150305
842.866	0.0153130
842.944	0.0154150
843.022	0.0154108
843.100	0.0155224
843.178	0.0155179
843.256	0.0154398
843.334	0.0154877
843.413	0.0155405
843.491	0.0155615
843.569	0.0155150
843.647	0.0156546
843.725	0.0156552
843.803	0.0157028
843.881	0.0156450
843.959	0.0155601
844.038	0.0156211
844.116	0.0157867
844.194	0.0157737
844.272	0.0157102
844.350	0.0156233
844.428	0.0157671
844.506	0.0159653
844.584	0.0157251
844.663	0.0158323
844.741	0.0157571
844.819	0.0157311
844.897	0.0156660
844.975	0.0155994
845.053	0.0156423
845.131	0.0155697
845.209	0.0156622
845.288	0.0154382
845.366	0.0155213
845.444	0.0155668
845.522	0.0155189
845.600	0.0154041
845.678	0.0154339
845.756	0.0155260
845.834	0.0154960
845.913	0.0154263
845.991	0.0154896
846.069	0.0155038
846.147	0.0154508
846.225	0.0154588
846.303	0.0153955
846.381	0.0155174
846.459	0.0154880
846.538	0.0156038
846.616	0.0156336
846.694	0.0155215
846.772	0.0154826
846.850	0.0154784
846.928	0.0154385
847.006	0.0154913
847.084	0.0154272
847.163	0.0155614
847.241	0.0155131
847.319	0.0153017
847.397	0.0154643
847.475	0.0153901
847.553	0.0153276
847.631	0.0151822
847.709	0.0153439
847.788	0.0153445
847.866	0.0153265
847.944	0.0153686
848.022	0.0154720
848.100	0.0153756
848.178	0.0153667
848.256	0.0154616
848.334	0.0154562
848.413	0.0154192
848.491	0.0153404
848.569	0.0154819
848.647	0.0154784
848.725	0.0155167
848.803	0.0155778
848.881	0.0154507
848.959	0.0155058
849.038	0.0153867
849.116	0.0155280
849.194	0.0155036
849.272	0.0154396
849.350	0.0154659
849.428	0.0156466
849.506	0.0155640
849.584	0.0155019
849.663	0.0155209
849.741	0.0156155
849.819	0.0155641
849.897	0.0155556
849.975	0.0154954
850.053	0.0155587
850.131	0.0155777
850.209	0.0156326
850.288	0.0156799
850.366	0.0155466
850.444	0.0155967
850.522	0.0154859
850.600	0.0157526
850.678	0.0156107
850.756	0.0156982
850.834	0.0157023
850.913	0.0157135
850.991	0.0156943
851.069	0.0156577
851.147	0.0157104
851.225	0.0156432
851.303	0.0155379
851.381	0.0157251
851.459	0.0157785
851.538	0.0157028
851.616	0.0156362
851.694	0.0155941
851.772	0.0154388
851.850	0.0156125
851.928	0.0156963
852.006	0.0155782
852.084	0.0155019
852.163	0.0155589
852.241	0.0155468
852.319	0.0154519
852.397	0.0156498
852.475	0.0154985
852.553	0.0156155
852.631	0.0154587
852.709	0.0155648
852.788	0.0156451
852.866	0.0154784
852.944	0.0155457
853.022	0.0155438
853.100	0.0155311
853.178	0.0154846
853.256	0.0155103
853.334	0.0155928
853.413	0.0154765
853.491	0.0154397
853.569	0.0154071
853.647	0.0155301
853.725	0.0155681
853.803	0.0153975
853.881	0.0155443
853.959	0.0154971
854.038	0.0155617
854.116	0.0155653
854.194	0.0156456
854.272	0.0155593
854.350	0.0155528
854.428	0.0154415
854.506	0.0156648
854.584	0.0157655
854.663	0.0155640
854.741	0.0156609
854.819	0.0155537
854.897	0.0157375
854.975	0.0157060
855.053	0.0155450
855.131	0.0156818
855.209	0.0156118
855.288	0.0156977
855.366	0.0156555
855.444	0.0157291
855.522	0.0157034
855.600	0.0156180
855.678	0.0155167
855.756	0.0156886
855.834	0.0156842
855.913	0.0157018
855.991	0.0157197
856.069	0.0157585
856.147	0.0157711
856.225	0.0156233
856.303	0.0157176
856.381	0.0157440
856.459	0.0156462
856.538	0.0155066
856.616	0.0156089
856.694	0.0157476
856.772	0.0157204
856.850	0.0157383
856.928	0.0155196
857.006	0.0155660
857.084	0.0157510
857.163	0.0154639
857.241	0.0154906
857.319	0.0154738
857.397	0.0157253
857.475	0.0153981
857.553	0.0154168
857.631	0.0154256
857.709	0.0154698
857.788	0.0155717
857.866	0.0155698
857.944	0.0155064
858.022	0.0155065
858.100	0.0155872
858.178	0.0155044
858.256	0.0155380
858.334	0.0155479
858.413	0.0155887
858.491	0.0154900
858.569	0.0154742
858.647	0.0154156
858.725	0.0154758
858.803	0.0153174
858.881	0.0155187
858.959	0.0155404
859.038	0.0155277
859.116	0.0155051
859.194	0.0151794
859.272	0.0153662
859.350	0.0154190
859.428	0.0155166
859.506	0.0154013
859.584	0.0152958
859.663	0.0153775
859.741	0.0153909
859.819	0.0153135
859.897	0.0154572
859.975	0.0154094
860.053	0.0153547
860.131	0.0154949
860.209	0.0154396
860.288	0.0151941
860.366	0.0154101
860.444	0.0153536
860.522	0.0154637
860.600	0.0153201
860.678	0.0154222
860.756	0.0154633
860.834	0.0154782
860.913	0.0154780
860.991	0.0154533
861.069	0.0153535
861.147	0.0154108
861.225	0.0153577
861.303	0.0155436
861.381	0.0155290
861.459	0.0156076
861.538	0.0156277
861.616	0.0155537
861.694	0.0155053
861.772	0.0154864
861.850	0.0156369
861.928	0.0155101
862.006	0.0156223
862.084	0.0155856
862.163	0.0155914
862.241	0.0153905
862.319	0.0154819
862.397	0.0156025
862.475	0.0153693
862.553	0.0155676
862.631	0.0154541
862.709	0.0153398
862.788	0.0155154
862.866	0.0155103
862.944	0.0153208
863.022	0.0153455
863.100	0.0155569
863.178	0.0153884
863.256	0.0153106
863.334	0.0153718
863.413	0.0154824
863.491	0.0154830
863.569	0.0152610
863.647	0.0154028
863.725	0.0154560
863.803	0.0153437
863.881	0.0154110
863.959	0.0154787
864.038	0.0154273
864.116	0.0154974
864.194	0.0156812
864.272	0.0154813
864.350	0.0155164
864.428	0.0154916
864.506	0.0154772
864.584	0.0154467
864.663	0.0156095
864.741	0.0156003
864.819	0.0156439
864.897	0.0155004
864.975	0.0154943
865.053	0.0155146
865.131	0.0156046
865.209	0.0154309
865.288	0.0155045
865.366	0.0156078
865.444	0.0154861
865.522	0.0156329
865.600	0.0157256
865.678	0.0154945
865.756	0.0155566
865.834	0.0155707
865.913	0.0155332
865.991	0.0154711
866.069	0.0154919
866.147	0.0155294
866.225	0.0156738
866.303	0.0156172
866.381	0.0155763
866.459	0.0155428
866.538	0.0155099
866.616	0.0154433
866.694	0.0155795
866.772	0.0153635
866.850	0.0154916
866.928	0.0154475
867.006	0.0154446
867.084	0.0154958
867.163	0.0153466
867.241	0.0153460
867.319	0.0154762
867.397	0.0154598
867.475	0.0153976
867.553	0.0153574
867.631	0.0154379
867.709	0.0152992
867.788	0.0154644
867.866	0.0153952
867.944	0.0152863
868.022	0.0153118
868.100	0.0152068
868.178	0.0153448
868.256	0.0154362
868.334	0.0153926
868.413	0.0154332
868.491	0.0154300
868.569	0.0153506
868.647	0.0152698
868.725	0.0153330
868.803	0.0153114
868.881	0.0153518
868.959	0.0154890
869.038	0.0153855
869.116	0.0153100
869.194	0.0155468
869.272	0.0154840
869.350	0.0152515
869.428	0.0154168
869.506	0.0153530
869.584	0.0155260
869.663	0.0155265
869.741	0.0155374
869.819	0.0154312
869.897	0.0154974
869.975	0.0155106
870.053	0.0156932
870.131	0.0156783
870.209	0.0157321
870.288	0.0157175
870.366	0.0156957
870.444	0.0157224
870.522	0.0155789
870.600	0.0157513
870.678	0.0157358
870.756	0.0156435
870.834	0.0156231
870.913	0.0156724
870.991	0.0157795
871.069	0.0156573
871.147	0.0154752
871.225	0.0155938
871.303	0.0156858
871.381	0.0156758
871.459	0.0154760
871.538	0.0156062
871.616	0.0154868
871.694	0.0155141
871.772	0.0155372
871.850	0.0154846
871.928	0.0155397
872.006	0.0154956
872.084	0.0153991
872.163	0.0154514
872.241	0.0156216
872.319	0.0154867
872.397	0.0153319
872.475	0.0155910
872.553	0.0154201
872.631	0.0154980
872.709	0.0154530
872.788	0.0155903
872.866	0.0155468
872.944	0.0155625
873.022	0.0156384
873.100	0.0156288
873.178	0.0155997
873.256	0.0155386
873.334	0.0155713
873.413	0.0156654
873.491	0.0155340
873.569	0.0156184
873.647	0.0156219
873.725	0.0155773
873.803	0.0154813
873.881	0.0155972
873.959	0.0153966
874.038	0.0155721
874.116	0.0155225
874.194	0.0155671
874.272	0.0155260
874.350	0.0155924
874.428	0.0154283
874.506	0.0154603
874.584	0.0154809
874.663	0.0154055
874.741	0.0154211
874.819	0.0154742
874.897	0.0154642
874.975	0.0155082
875.053	0.0155251
875.131	0.0156322
875.209	0.0154645
875.288	0.0156364
875.366	0.0157038
875.444	0.0157125
875.522	0.0155940
875.600	0.0156849
875.678	0.0156113
875.756	0.0157343
875.834	0.0157731
875.913	0.0156728
875.991	0.0157060
876.069	0.0158432
876.147	0.0157990
876.225	0.0157333
876.303	0.0157643
876.381	0.0156393
876.459	0.0157578
876.538	0.0157136
876.616	0.0156746
876.694	0.0155616
876.772	0.0156704
876.850	0.0156176
876.928	0.0157206
877.006	0.0156900
877.084	0.0156552
877.163	0.0155361
877.241	0.0156194
877.319	0.0156394
877.397	0.0155769
877.475	0.0155557
877.553	0.0156337
877.631	0.0156634
877.709	0.0156739
877.788	0.0155681
877.866	0.0156290
877.944	0.0156135
878.022	0.0156535
878.100	0.0154971
878.178	0.0154063
878.256	0.0155082
878.334	0.0156315
878.413	0.0156773
878.491	0.0154646
878.569	0.0156417
878.647	0.0156001
878.725	0.0156712
878.803	0.0155731
878.881	0.0155923
878.959	0.0156514
879.038	0.0156368
879.116	0.0156181
879.194	0.0156050
879.272	0.0156467
879.350	0.0155807
879.428	0.0157726
879.506	0.0156900
879.584	0.0156387
879.663	0.0156065
879.741	0.0155374
879.819	0.0154749
879.897	0.0155056
879.975	0.0155163
880.053	0.0155063
880.131	0.0155647
880.209	0.0153802
880.288	0.0154258
880.366	0.0155206
880.444	0.0153284
880.522	0.0154195
880.600	0.0153136
880.678	0.0153465
880.756	0.0153028
880.834	0.0153708
880.913	0.0153412
880.991	0.0152176
881.069	0.0153880
881.147	0.0153851
881.225	0.0154118
881.303	0.0153308
881.381	0.0154734
881.459	0.0155856
881.538	0.0154347
881.616	0.0154272
881.694	0.0155447
881.772	0.0156359
881.850	0.0156326
881.928	0.0155952
882.006	0.0154652
882.084	0.0155333
882.163	0.0153750
882.241	0.0153384
882.319	0.0155110
882.397	0.0154797
882.475	0.0154035
882.553	0.0153152
882.631	0.0153947
882.709	0.0154674
882.788	0.0154703
882.866	0.0153194
882.944	0.0154213
883.022	0.0153638
883.100	0.0154505
883.178	0.0153172
883.256	0.0153943
883.334	0.0155444
883.413	0.0155699
883.491	0.0153985
883.569	0.0152811
883.647	0.0154102
883.725	0.0154572
883.803	0.0154247
883.881	0.0155717
883.959	0.0154806
884.038	0.0154562
884.116	0.0155142
884.194	0.0155158
884.272	0.0156321
884.350	0.0154726
884.428	0.0156049
884.506	0.0157559
884.584	0.0157701
884.663	0.0156335
884.741	0.0157859
884.819	0.0157076
884.897	0.0157539
884.975	0.0156780
885.053	0.0156412
885.131	0.0156234
885.209	0.0156091
885.288	0.0156422
885.366	0.0156912
885.444	0.0155858
885.522	0.0155485
885.600	0.0155940
885.678	0.0155663
885.756	0.0155852
885.834	0.0154502
885.913	0.0154985
885.991	0.0155695
886.069	0.0154271
886.147	0.0153629
886.225	0.0153715
886.303	0.0153634
886.381	0.0152991
886.459	0.0154126
886.538	0.0152606
886.616	0.0152144
886.694	0.0153027
886.772	0.0150919
886.850	0.0152811
886.928	0.0154450
887.006	0.0153872
887.084	0.0152996
887.163	0.0151135
887.241	0.0151830
887.319	0.0153146
887.397	0.0152439
887.475	0.0152145
887.553	0.0151755
887.631	0.0151541
887.709	0.0151398
887.788	0.0152724
887.866	0.0152502
887.944	0.0153605
888.022	0.0153224
888.100	0.0154113
888.178	0.0154418
888.256	0.0155437
888.334	0.0153509
888.413	0.0155044
888.491	0.0154839
888.569	0.0154245
888.647	0.0156677
888.725	0.0155765
888.803	0.0154093
888.881	0.0155692
888.959	0.0155530
889.038	0.0154675
889.116	0.0155817
889.194	0.0155727
889.272	0.0155566
889.350	0.0155416
889.428	0.0155682
889.506	0.0155290
889.584	0.0154665
889.663	0.0155471
889.741	0.0154111
889.819	0.0154133
889.897	0.0153165
889.975	0.0153542
890.053	0.0153635
890.131	0.0153923
890.209	0.0153144
890.288	0.0151828
890.366	0.0152888
890.444	0.0153133
890.522	0.0154456
890.600	0.0154323
890.678	0.0152508
890.756	0.0153491
890.834	0.0153481
890.913	0.0154467
890.991	0.0153003
891.069	0.0152191
891.147	0.0153160
891.225	0.0154778
891.303	0.0154387
891.381	0.0154116
891.459	0.0153598
891.538	0.0153634
891.616	0.0154587
891.694	0.0155096
891.772	0.0155057
891.850	0.0155133
891.928	0.0154945
892.006	0.0153839
892.084	0.0154167
892.163	0.0154131
892.241	0.0154612
892.319	0.0154234
892.397	0.0154828
892.475	0.0153407
892.553	0.0153227
892.631	0.0153917
892.709	0.0154165
892.788	0.0153850
892.866	0.0153514
892.944	0.0154643
893.022	0.0154212
893.100	0.0153881
893.178	0.0154602
893.256	0.0154337
893.334	0.0154575
893.413	0.0153998
893.491	0.0154471
893.569	0.0155035
893.647	0.0153727
893.725	0.0154733
893.803	0.0153806
893.881	0.0153861
893.959	0.0153508
894.038	0.0154590
894.116	0.0155408
894.194	0.0154419
894.272	0.0154604
894.350	0.0155289
894.428	0.0155396
894.506	0.0154794
894.584	0.0154676
894.663	0.0155077
894.741	0.0155147
894.819	0.0153685
894.897	0.0155186
894.975	0.0155822
895.053	0.0154599
895.131	0.0154714
895.209	0.0155074
895.288	0.0155801
895.366	0.0154379
895.444	0.0154942
895.522	0.0154691
895.600	0.0155650
895.678	0.0155704
895.756	0.0155357
895.834	0.0155164
895.913	0.0156210
895.991	0.0155550
896.069	0.0156455
896.147	0.0156024
896.225	0.0154980
896.303	0.0155467
896.381	0.0153967
896.459	0.0155759
896.538	0.0155458
896.616	0.0155779
896.694	0.0154678
896.772	0.0154963
896.850	0.0155670
896.928	0.0154887
897.006	0.0156014
897.084	0.0156688
897.163	0.0157040
897.241	0.0156588
897.319	0.0156325
897.397	0.0155959
897.475	0.0156126
897.553	0.0156059
897.631	0.0156462
897.709	0.0156924
897.788	0.0156687
897.866	0.0157250
897.944	0.0155786
898.022	0.0158026
898.100	0.0155885
898.178	0.0155566
898.256	0.0155666
898.334	0.0156561
898.413	0.0157861
898.491	0.0156343
898.569	0.0156770
898.647	0.0157885
898.725	0.0159015
898.803	0.0157522
898.881	0.0156541
898.959	0.0158712
899.038	0.0156942
899.116	0.0157483
899.194	0.0158647
899.272	0.0156950
899.350	0.0157462
899.428	0.0156258
899.506	0.0157281
899.584	0.0156253
899.663	0.0155399
899.741	0.0156960
899.819	0.0157654
899.897	0.0155861
899.975	0.0156366
900.053	0.0155418
900.131	0.0155534
900.209	0.0154680
900.288	0.0155461
900.366	0.0156905
900.444	0.0154431
900.522	0.0154987
900.600	0.0155046
900.678	0.0156211
900.756	0.0155576
900.834	0.0155281
900.913	0.0153899
900.991	0.0155006
901.069	0.0154786
901.147	0.0154733
901.225	0.0154687
901.303	0.0155559
901.381	0.0153265
901.459	0.0153619
901.538	0.0154767
901.616	0.0156342
901.694	0.0155482
901.772	0.0155516
901.850	0.0154441
901.928	0.0155156
902.006	0.0155807
902.084	0.0156357
902.163	0.0157069
902.241	0.0154574
902.319	0.0155585
902.397	0.0156334
902.475	0.0155270
902.553	0.0156187
902.631	0.0155396
902.709	0.0156071
902.788	0.0155276
902.866	0.0155401
902.944	0.0156800
903.022	0.0155813
903.100	0.0155375
903.178	0.0154494
903.256	0.0154124
903.334	0.0153881
903.413	0.0154987
903.491	0.0154755
903.569	0.0154487
903.647	0.0152946
903.725	0.0153694
903.803	0.0154411
903.881	0.0153169
903.959	0.0151168
904.038	0.0153830
904.116	0.0152666
904.194	0.0153767
904.272	0.0153260
904.350	0.0153992
904.428	0.0153901
904.506	0.0153162
904.584	0.0152478
904.663	0.0153693
904.741	0.0154913
904.819	0.0154683
904.897	0.0154668
904.975	0.0154634
905.053	0.0154551
905.131	0.0154885
905.209	0.0154766
905.288	0.0154757
905.366	0.0155260
905.444	0.0155986
905.522	0.0156453
905.600	0.0154920
905.678	0.0156218
905.756	0.0157793
905.834	0.0157536
905.913	0.0157002
905.991	0.0156030
906.069	0.0155937
906.147	0.0155899
906.225	0.0155792
906.303	0.0156134
906.381	0.0155653
906.459	0.0155038
906.538	0.0155202
906.616	0.0155283
906.694	0.0155871
906.772	0.0155396
906.850	0.0155930
906.928	0.0154894
907.006	0.0154048
907.084	0.0154808
907.163	0.0154754
907.241	0.0154661
907.319	0.0155463
907.397	0.0155251
907.475	0.0155308
907.553	0.0154889
907.631	0.0155993
907.709	0.0155308
907.788	0.0153159
907.866	0.0153447
907.944	0.0154674
908.022	0.0154511
908.100	0.0154280
908.178	0.0155811
908.256	0.0155224
908.334	0.0154428
908.413	0.0155102
908.491	0.0155669
908.569	0.0156213
908.647	0.0155901
908.725	0.0157075
908.803	0.0157515
908.881	0.0154189
908.959	0.0156105
909.038	0.0156127
909.116	0.0155251
909.194	0.0155845
909.272	0.0155850
909.350	0.0155378
909.428	0.0155037
909.506	0.0155717
909.584	0.0154691
909.663	0.0155756
909.741	0.0156506
909.819	0.0155607
909.897	0.0154864
909.975	0.0154079
910.053	0.0155354
910.131	0.0155549
910.209	0.0155153
910.288	0.0155103
910.366	0.0154184
910.444	0.0153999
910.522	0.0152739
910.600	0.0155260
910.678	0.0154344
910.756	0.0153738
910.834	0.0153923
910.913	0.0153545
910.991	0.0153455
911.069	0.0153903
911.147	0.0152935
911.225	0.0152636
911.303	0.0152547
911.381	0.0152394
911.459	0.0152473
911.538	0.0153619
911.616	0.0153188
911.694	0.0152850
911.772	0.0153329
911.850	0.0154184
911.928	0.0152489
912.006	0.0152341
912.084	0.0151337
912.163	0.0153703
912.241	0.0154662
912.319	0.0152276
912.397	0.0153719
912.475	0.0152561
912.553	0.0153307
912.631	0.0153467
912.709	0.0153632
912.788	0.0154292
912.866	0.0153586
912.944	0.0156210
913.022	0.0155136
913.100	0.0154643
913.178	0.0153963
913.256	0.0154065
913.334	0.0155788
913.413	0.0154501
913.491	0.0155199
913.569	0.0155071
913.647	0.0154319
913.725	0.0155035
913.803	0.0155439
913.881	0.0157502
913.959	0.0156561
914.038	0.0156063
914.116	0.0157054
914.194	0.0156668
914.272	0.0156288
914.350	0.0157590
914.428	0.0156612
914.506	0.0155381
914.584	0.0156690
914.663	0.0155576
914.741	0.0155098
914.819	0.0154321
914.897	0.0155456
914.975	0.0155539
915.053	0.0156039
915.131	0.0155832
915.209	0.0155312
915.288	0.0154126
915.366	0.0154991
915.444	0.0154294
915.522	0.0154668
915.600	0.0154945
915.678	0.0154548
915.756	0.0154408
915.834	0.0154427
915.913	0.0153694
915.991	0.0155404
916.069	0.0156013
916.147	0.0155331
916.225	0.0155560
916.303	0.0155640
916.381	0.0155562
916.459	0.0155537
916.538	0.0153290
916.616	0.0155183
916.694	0.0155461
916.772	0.0155175
916.850	0.0153846
916.928	0.0155121
917.006	0.0154885
917.084	0.0155319
917.163	0.0155840
917.241	0.0154686
917.319	0.0155175
917.397	0.0154340
917.475	0.0154166
917.553	0.0156143
917.631	0.0154935
917.709	0.0154879
917.788	0.0155424
917.866	0.0157288
917.944	0.0156618
918.022	0.0155202
918.100	0.0154889
918.178	0.0156216
918.256	0.0155415
918.334	0.0156427
918.413	0.0158186
918.491	0.0156707
918.569	0.0155898
918.647	0.0156805
918.725	0.0156409
918.803	0.0155067
918.881	0.0156986
918.959	0.0155730
919.038	0.0156602
919.116	0.0156548
919.194	0.0155820
919.272	0.0154665
919.350	0.0155346
919.428	0.0155875
919.506	0.0155933
919.584	0.0154099
919.663	0.0155993
919.741	0.0155410
919.819	0.0155830
919.897	0.0156108
