05/20/2022	21:19:04	Ver.	4.1	UNKNOWN
Optical Delay	599.975067	Delta X		0.078125	Sweeps	1	Scan Rate	0/0
Coordinates	Axis 1	NaN	Axis 2	NaN	Axis 3	NaN	Axis 4	NaN	Axis 5	NaN	Axis 6	0.000000
TX Power	0.000000	RX Power	0.000000

599.975	0.0151265
600.053	0.0151614
600.131	0.0151361
600.209	0.0150894
600.288	0.0150867
600.366	0.0150986
600.444	0.0151878
600.522	0.0151601
600.600	0.0150894
600.678	0.0150829
600.756	0.0152459
600.834	0.0151842
600.913	0.0150258
600.991	0.0150629
601.069	0.0151997
601.147	0.0152842
601.225	0.0151604
601.303	0.0150644
601.381	0.0151157
601.459	0.0151199
601.538	0.0150860
601.616	0.0149760
601.694	0.0151722
601.772	0.0151465
601.850	0.0150602
601.928	0.0151059
602.006	0.0150539
602.084	0.0151474
602.163	0.0148657
602.241	0.0150883
602.319	0.0150491
602.397	0.0150262
602.475	0.0149841
602.553	0.0149998
602.631	0.0151485
602.709	0.0152098
602.788	0.0150456
602.866	0.0149995
602.944	0.0149963
603.022	0.0151353
603.100	0.0151391
603.178	0.0151392
603.256	0.0151414
603.334	0.0151382
603.413	0.0151344
603.491	0.0152188
603.569	0.0150768
603.647	0.0152057
603.725	0.0152084
603.803	0.0151588
603.881	0.0151172
603.959	0.0151934
604.038	0.0152051
604.116	0.0152107
604.194	0.0151972
604.272	0.0152299
604.350	0.0151593
604.428	0.0152206
604.506	0.0151506
604.584	0.0151875
604.663	0.0152536
604.741	0.0152494
604.819	0.0152230
604.897	0.0152574
604.975	0.0152975
605.053	0.0153373
605.131	0.0151524
605.209	0.0152141
605.288	0.0153483
605.366	0.0153478
605.444	0.0153168
605.522	0.0152674
605.600	0.0151357
605.678	0.0151180
605.756	0.0153643
605.834	0.0153909
605.913	0.0153607
605.991	0.0154165
606.069	0.0152973
606.147	0.0152327
606.225	0.0153557
606.303	0.0153497
606.381	0.0152605
606.459	0.0154294
606.538	0.0153155
606.616	0.0152746
606.694	0.0152389
606.772	0.0152811
606.850	0.0152594
606.928	0.0152821
607.006	0.0153148
607.084	0.0151818
607.163	0.0153144
607.241	0.0153233
607.319	0.0151630
607.397	0.0152197
607.475	0.0151303
607.553	0.0151592
607.631	0.0152912
607.709	0.0153105
607.788	0.0152890
607.866	0.0153833
607.944	0.0153649
608.022	0.0153827
608.100	0.0153093
608.178	0.0153805
608.256	0.0154022
608.334	0.0152599
608.413	0.0153543
608.491	0.0154631
608.569	0.0153046
608.647	0.0153838
608.725	0.0153014
608.803	0.0152408
608.881	0.0152824
608.959	0.0154482
609.038	0.0153932
609.116	0.0152326
609.194	0.0152998
609.272	0.0153050
609.350	0.0153144
609.428	0.0153608
609.506	0.0153181
609.584	0.0152562
609.663	0.0154120
609.741	0.0153915
609.819	0.0152328
609.897	0.0151978
609.975	0.0154022
610.053	0.0153597
610.131	0.0152539
610.209	0.0152824
610.288	0.0153087
610.366	0.0152267
610.444	0.0152010
610.522	0.0153962
610.600	0.0154170
610.678	0.0150826
610.756	0.0152402
610.834	0.0151813
610.913	0.0153030
610.991	0.0154070
611.069	0.0151690
611.147	0.0153127
611.225	0.0152738
611.303	0.0152157
611.381	0.0150778
611.459	0.0152087
611.538	0.0152573
611.616	0.0152462
611.694	0.0151109
611.772	0.0151032
611.850	0.0151100
611.928	0.0152265
612.006	0.0150630
612.084	0.0151020
612.163	0.0152190
612.241	0.0152026
612.319	0.0151743
612.397	0.0151917
612.475	0.0151484
612.553	0.0152653
612.631	0.0152579
612.709	0.0150558
612.788	0.0151635
612.866	0.0152277
612.944	0.0152806
613.022	0.0151842
613.100	0.0151975
613.178	0.0151042
613.256	0.0150769
613.334	0.0150011
613.413	0.0150837
613.491	0.0151839
613.569	0.0152240
613.647	0.0150111
613.725	0.0150156
613.803	0.0149922
613.881	0.0151447
613.959	0.0150774
614.038	0.0150919
614.116	0.0150325
614.194	0.0150446
614.272	0.0149397
614.350	0.0151541
614.428	0.0151712
614.506	0.0150829
614.584	0.0150125
614.663	0.0150759
614.741	0.0151040
614.819	0.0152111
614.897	0.0152730
614.975	0.0152001
615.053	0.0151680
615.131	0.0152027
615.209	0.0150642
615.288	0.0152031
615.366	0.0152712
615.444	0.0151331
615.522	0.0151979
615.600	0.0151370
615.678	0.0151286
615.756	0.0149995
615.834	0.0150052
615.913	0.0151817
615.991	0.0149784
616.069	0.0150657
616.147	0.0150671
616.225	0.0151563
616.303	0.0149280
616.381	0.0149213
616.459	0.0150977
616.538	0.0149078
616.616	0.0149363
616.694	0.0151467
616.772	0.0151421
616.850	0.0149757
616.928	0.0149464
617.006	0.0150379
617.084	0.0150877
617.163	0.0150079
617.241	0.0150258
617.319	0.0151530
617.397	0.0151475
617.475	0.0149459
617.553	0.0150946
617.631	0.0150904
617.709	0.0152004
617.788	0.0149333
617.866	0.0150542
617.944	0.0149606
618.022	0.0148894
618.100	0.0149281
618.178	0.0151347
618.256	0.0150975
618.334	0.0150732
618.413	0.0150149
618.491	0.0150173
618.569	0.0150945
618.647	0.0150771
618.725	0.0150079
618.803	0.0149364
618.881	0.0150632
618.959	0.0151024
619.038	0.0150661
619.116	0.0150395
619.194	0.0151328
619.272	0.0150653
619.350	0.0150392
619.428	0.0150340
619.506	0.0151086
619.584	0.0149760
619.663	0.0150430
619.741	0.0150721
619.819	0.0150079
619.897	0.0150739
619.975	0.0150184
620.053	0.0149586
620.131	0.0150698
620.209	0.0150999
620.288	0.0151669
620.366	0.0150558
620.444	0.0151477
620.522	0.0150618
620.600	0.0151053
620.678	0.0151724
620.756	0.0150845
620.834	0.0151771
620.913	0.0150316
620.991	0.0151690
621.069	0.0152127
621.147	0.0152412
621.225	0.0150700
621.303	0.0151987
621.381	0.0152693
621.459	0.0152501
621.538	0.0153049
621.616	0.0152258
621.694	0.0151801
621.772	0.0152598
621.850	0.0151760
621.928	0.0152849
622.006	0.0151112
622.084	0.0151164
622.163	0.0152095
622.241	0.0151243
622.319	0.0151858
622.397	0.0151748
622.475	0.0151070
622.553	0.0152779
622.631	0.0152993
622.709	0.0151688
622.788	0.0151440
622.866	0.0152013
622.944	0.0152013
623.022	0.0151714
623.100	0.0151730
623.178	0.0152242
623.256	0.0152650
623.334	0.0152598
623.413	0.0152547
623.491	0.0150655
623.569	0.0150214
623.647	0.0149722
623.725	0.0151228
623.803	0.0149870
623.881	0.0151394
623.959	0.0151288
624.038	0.0151367
624.116	0.0150597
624.194	0.0150394
624.272	0.0149775
624.350	0.0151179
624.428	0.0150553
624.506	0.0150725
624.584	0.0149854
624.663	0.0150982
624.741	0.0152425
624.819	0.0150816
624.897	0.0150732
624.975	0.0151486
625.053	0.0151278
625.131	0.0150330
625.209	0.0150747
625.288	0.0150734
625.366	0.0151616
625.444	0.0152071
625.522	0.0151168
625.600	0.0151746
625.678	0.0151601
625.756	0.0151747
625.834	0.0151889
625.913	0.0150843
625.991	0.0152242
626.069	0.0152200
626.147	0.0151404
626.225	0.0151066
626.303	0.0151924
626.381	0.0151729
626.459	0.0152142
626.538	0.0153114
626.616	0.0152077
626.694	0.0153057
626.772	0.0152625
626.850	0.0153814
626.928	0.0153877
627.006	0.0153409
627.084	0.0153180
627.163	0.0153104
627.241	0.0153657
627.319	0.0153405
627.397	0.0153242
627.475	0.0154196
627.553	0.0153122
627.631	0.0152575
627.709	0.0153056
627.788	0.0153455
627.866	0.0152657
627.944	0.0152690
628.022	0.0152499
628.100	0.0152915
628.178	0.0152990
628.256	0.0153493
628.334	0.0152685
628.413	0.0153594
628.491	0.0153426
628.569	0.0153786
628.647	0.0153839
628.725	0.0153781
628.803	0.0153587
628.881	0.0153399
628.959	0.0152707
629.038	0.0155314
629.116	0.0155451
629.194	0.0154154
629.272	0.0153165
629.350	0.0154974
629.428	0.0155709
629.506	0.0154607
629.584	0.0154981
629.663	0.0155160
629.741	0.0153383
629.819	0.0155806
629.897	0.0153642
629.975	0.0155129
630.053	0.0155793
630.131	0.0154585
630.209	0.0152715
630.288	0.0153222
630.366	0.0153032
630.444	0.0151832
630.522	0.0152228
630.600	0.0151212
630.678	0.0151863
630.756	0.0151283
630.834	0.0152717
630.913	0.0151941
630.991	0.0149150
631.069	0.0150475
631.147	0.0152791
631.225	0.0152026
631.303	0.0151514
631.381	0.0150559
631.459	0.0151899
631.538	0.0152990
631.616	0.0152374
631.694	0.0152560
631.772	0.0153100
631.850	0.0153127
631.928	0.0153729
632.006	0.0152924
632.084	0.0153233
632.163	0.0152341
632.241	0.0153168
632.319	0.0153275
632.397	0.0152254
632.475	0.0153426
632.553	0.0152384
632.631	0.0152106
632.709	0.0151517
632.788	0.0152363
632.866	0.0151295
632.944	0.0151842
633.022	0.0151908
633.100	0.0151997
633.178	0.0151128
633.256	0.0150151
633.334	0.0151191
633.413	0.0151745
633.491	0.0150618
633.569	0.0151601
633.647	0.0151578
633.725	0.0150331
633.803	0.0152009
633.881	0.0152187
633.959	0.0151662
634.038	0.0151247
634.116	0.0151447
634.194	0.0151680
634.272	0.0151566
634.350	0.0152470
634.428	0.0151960
634.506	0.0152100
634.584	0.0150879
634.663	0.0152780
634.741	0.0152644
634.819	0.0150666
634.897	0.0151659
634.975	0.0150972
635.053	0.0152087
635.131	0.0152717
635.209	0.0150127
635.288	0.0151752
635.366	0.0150118
635.444	0.0150313
635.522	0.0150193
635.600	0.0149763
635.678	0.0150957
635.756	0.0149037
635.834	0.0149184
635.913	0.0147900
635.991	0.0149088
636.069	0.0149757
636.147	0.0148315
636.225	0.0149307
636.303	0.0149085
636.381	0.0148671
636.459	0.0148893
636.538	0.0148846
636.616	0.0148055
636.694	0.0148322
636.772	0.0149000
636.850	0.0149898
636.928	0.0149369
637.006	0.0148580
637.084	0.0149574
637.163	0.0149146
637.241	0.0149504
637.319	0.0151211
637.397	0.0149572
637.475	0.0149653
637.553	0.0149861
637.631	0.0149341
637.709	0.0149994
637.788	0.0150774
637.866	0.0149728
637.944	0.0148527
638.022	0.0150492
638.100	0.0148878
638.178	0.0151528
638.256	0.0150439
638.334	0.0150745
638.413	0.0150239
638.491	0.0150365
638.569	0.0149809
638.647	0.0150484
638.725	0.0149886
638.803	0.0150553
638.881	0.0151606
638.959	0.0151237
639.038	0.0150356
639.116	0.0151816
639.194	0.0151997
639.272	0.0152402
639.350	0.0150531
639.428	0.0152364
639.506	0.0152606
639.584	0.0152128
639.663	0.0153335
639.741	0.0152600
639.819	0.0152129
639.897	0.0152921
639.975	0.0150198
640.053	0.0152873
640.131	0.0152501
640.209	0.0153281
640.288	0.0152796
640.366	0.0152463
640.444	0.0151971
640.522	0.0153459
640.600	0.0150874
640.678	0.0150610
640.756	0.0150853
640.834	0.0150925
640.913	0.0150748
640.991	0.0150362
641.069	0.0150641
641.147	0.0151782
641.225	0.0152010
641.303	0.0149442
641.381	0.0149647
641.459	0.0149560
641.538	0.0151850
641.616	0.0152020
641.694	0.0152328
641.772	0.0150944
641.850	0.0150896
641.928	0.0151342
642.006	0.0150919
642.084	0.0151086
642.163	0.0149596
642.241	0.0150186
642.319	0.0151383
642.397	0.0151259
642.475	0.0149975
642.553	0.0151698
642.631	0.0151300
642.709	0.0150970
642.788	0.0150357
642.866	0.0151202
642.944	0.0150571
643.022	0.0151424
643.100	0.0151021
643.178	0.0151115
643.256	0.0151534
643.334	0.0152409
643.413	0.0152274
643.491	0.0149841
643.569	0.0149647
643.647	0.0149940
643.725	0.0150623
643.803	0.0151211
643.881	0.0150086
643.959	0.0150054
644.038	0.0150562
644.116	0.0150146
644.194	0.0150066
644.272	0.0150143
644.350	0.0150514
644.428	0.0149946
644.506	0.0151752
644.584	0.0150882
644.663	0.0149886
644.741	0.0150329
644.819	0.0151254
644.897	0.0151559
644.975	0.0151148
645.053	0.0151023
645.131	0.0151073
645.209	0.0150388
645.288	0.0151419
645.366	0.0151488
645.444	0.0150417
645.522	0.0150372
645.600	0.0150117
645.678	0.0151132
645.756	0.0149759
645.834	0.0151844
645.913	0.0152135
645.991	0.0150642
646.069	0.0149790
646.147	0.0150782
646.225	0.0150280
646.303	0.0151405
646.381	0.0151428
646.459	0.0150848
646.538	0.0151309
646.616	0.0152129
646.694	0.0151481
646.772	0.0151450
646.850	0.0151776
646.928	0.0151524
647.006	0.0152451
647.084	0.0151615
647.163	0.0152178
647.241	0.0151340
647.319	0.0151871
647.397	0.0152026
647.475	0.0150858
647.553	0.0151917
647.631	0.0151178
647.709	0.0152615
647.788	0.0151347
647.866	0.0152247
647.944	0.0151491
648.022	0.0150796
648.100	0.0152971
648.178	0.0151088
648.256	0.0152964
648.334	0.0152367
648.413	0.0151395
648.491	0.0153150
648.569	0.0151012
648.647	0.0151409
648.725	0.0152151
648.803	0.0153054
648.881	0.0152422
648.959	0.0153445
649.038	0.0152507
649.116	0.0153327
649.194	0.0152602
649.272	0.0153024
649.350	0.0154046
649.428	0.0151927
649.506	0.0153790
649.584	0.0152834
649.663	0.0152990
649.741	0.0152911
649.819	0.0154333
649.897	0.0153120
649.975	0.0152602
650.053	0.0152988
650.131	0.0155330
650.209	0.0155228
650.288	0.0153304
650.366	0.0153020
650.444	0.0152684
650.522	0.0154618
650.600	0.0154431
650.678	0.0152709
650.756	0.0152465
650.834	0.0153117
650.913	0.0154064
650.991	0.0153711
651.069	0.0152715
651.147	0.0152157
651.225	0.0151302
651.303	0.0153747
651.381	0.0151192
651.459	0.0152386
651.538	0.0152660
651.616	0.0152768
651.694	0.0151566
651.772	0.0151646
651.850	0.0151675
651.928	0.0151098
652.006	0.0152181
652.084	0.0151180
652.163	0.0150996
652.241	0.0152135
652.319	0.0152507
652.397	0.0151843
652.475	0.0150301
652.553	0.0152556
652.631	0.0150652
652.709	0.0151704
652.788	0.0152071
652.866	0.0151886
652.944	0.0150702
653.022	0.0151356
653.100	0.0151523
653.178	0.0153206
653.256	0.0152218
653.334	0.0151424
653.413	0.0151556
653.491	0.0153596
653.569	0.0151662
653.647	0.0152888
653.725	0.0152803
653.803	0.0153788
653.881	0.0152948
653.959	0.0153093
654.038	0.0151736
654.116	0.0151419
654.194	0.0152721
654.272	0.0152437
654.350	0.0152849
654.428	0.0152374
654.506	0.0153087
654.584	0.0151867
654.663	0.0153027
654.741	0.0151238
654.819	0.0151971
654.897	0.0151158
654.975	0.0152666
655.053	0.0151562
655.131	0.0152315
655.209	0.0152741
655.288	0.0152361
655.366	0.0151408
655.444	0.0152234
655.522	0.0152918
655.600	0.0152079
655.678	0.0152016
655.756	0.0151428
655.834	0.0152472
655.913	0.0151142
655.991	0.0152994
656.069	0.0153270
656.147	0.0152448
656.225	0.0154402
656.303	0.0153802
656.381	0.0154543
656.459	0.0154732
656.538	0.0154018
656.616	0.0153929
656.694	0.0152530
656.772	0.0153653
656.850	0.0154374
656.928	0.0153126
657.006	0.0153770
657.084	0.0151764
657.163	0.0152777
657.241	0.0151953
657.319	0.0152247
657.397	0.0153193
657.475	0.0152023
657.553	0.0151016
657.631	0.0152280
657.709	0.0151018
657.788	0.0151682
657.866	0.0152605
657.944	0.0152109
658.022	0.0151282
658.100	0.0152431
658.178	0.0151391
658.256	0.0150977
658.334	0.0151592
658.413	0.0151971
658.491	0.0151122
658.569	0.0152164
658.647	0.0151435
658.725	0.0150986
658.803	0.0151237
658.881	0.0150536
658.959	0.0150555
659.038	0.0149951
659.116	0.0151928
659.194	0.0151743
659.272	0.0151611
659.350	0.0151884
659.428	0.0151059
659.506	0.0151788
659.584	0.0151919
659.663	0.0151844
659.741	0.0150813
659.819	0.0151633
659.897	0.0151265
659.975	0.0150914
660.053	0.0150971
660.131	0.0151077
660.209	0.0150703
660.288	0.0151299
660.366	0.0151138
660.444	0.0151109
660.522	0.0151268
660.600	0.0151405
660.678	0.0150504
660.756	0.0152377
660.834	0.0152820
660.913	0.0153529
660.991	0.0151680
661.069	0.0153838
661.147	0.0153300
661.225	0.0153600
661.303	0.0153850
661.381	0.0153826
661.459	0.0153392
661.538	0.0152510
661.616	0.0152699
661.694	0.0152637
661.772	0.0154018
661.850	0.0152036
661.928	0.0150961
662.006	0.0152695
662.084	0.0152526
662.163	0.0150684
662.241	0.0151869
662.319	0.0151386
662.397	0.0151721
662.475	0.0152797
662.553	0.0152175
662.631	0.0153514
662.709	0.0153574
662.788	0.0153338
662.866	0.0153859
662.944	0.0153278
663.022	0.0153478
663.100	0.0154105
663.178	0.0152963
663.256	0.0152661
663.334	0.0153689
663.413	0.0152846
663.491	0.0151250
663.569	0.0151856
663.647	0.0151579
663.725	0.0151080
663.803	0.0151308
663.881	0.0152544
663.959	0.0151352
664.038	0.0151754
664.116	0.0151336
664.194	0.0152063
664.272	0.0152155
664.350	0.0152689
664.428	0.0152666
664.506	0.0152877
664.584	0.0151906
664.663	0.0154067
664.741	0.0152868
664.819	0.0153104
664.897	0.0152918
664.975	0.0151775
665.053	0.0151050
665.131	0.0151598
665.209	0.0151096
665.288	0.0149590
665.366	0.0149641
665.444	0.0150360
665.522	0.0149539
665.600	0.0149872
665.678	0.0148461
665.756	0.0149517
665.834	0.0149016
665.913	0.0150525
665.991	0.0149195
666.069	0.0149898
666.147	0.0150964
666.225	0.0150494
666.303	0.0150176
666.381	0.0149792
666.459	0.0150042
666.538	0.0151281
666.616	0.0151716
666.694	0.0151989
666.772	0.0152430
666.850	0.0152209
666.928	0.0153508
667.006	0.0153035
667.084	0.0153895
667.163	0.0154117
667.241	0.0154984
667.319	0.0155001
667.397	0.0154733
667.475	0.0155292
667.553	0.0153585
667.631	0.0152964
667.709	0.0156115
667.788	0.0154958
667.866	0.0153382
667.944	0.0153250
668.022	0.0153474
668.100	0.0154250
668.178	0.0152016
668.256	0.0153652
668.334	0.0151356
668.413	0.0151463
668.491	0.0148649
668.569	0.0149651
668.647	0.0148989
668.725	0.0148843
668.803	0.0147382
668.881	0.0146957
668.959	0.0147631
669.038	0.0146283
669.116	0.0146292
669.194	0.0145853
669.272	0.0145692
669.350	0.0146101
669.428	0.0143878
669.506	0.0145606
669.584	0.0144878
669.663	0.0145496
669.741	0.0145998
669.819	0.0148042
669.897	0.0147535
669.975	0.0148735
670.053	0.0150170
670.131	0.0150432
670.209	0.0151270
670.288	0.0151824
670.366	0.0153020
670.444	0.0153944
670.522	0.0156054
670.600	0.0156104
670.678	0.0157166
670.756	0.0158054
670.834	0.0159362
670.913	0.0159495
670.991	0.0160199
671.069	0.0161935
671.147	0.0161723
671.225	0.0163142
671.303	0.0161743
671.381	0.0162102
671.459	0.0161964
671.538	0.0159356
671.616	0.0159014
671.694	0.0160178
671.772	0.0158134
671.850	0.0157984
671.928	0.0157302
672.006	0.0155544
672.084	0.0152485
672.163	0.0151762
672.241	0.0150156
672.319	0.0148791
672.397	0.0145536
672.475	0.0145103
672.553	0.0141540
672.631	0.0139890
672.709	0.0139825
672.788	0.0138728
672.866	0.0138508
672.944	0.0136760
673.022	0.0136331
673.100	0.0136384
673.178	0.0135693
673.256	0.0135694
673.334	0.0136398
673.413	0.0136758
673.491	0.0137135
673.569	0.0139967
673.647	0.0141142
673.725	0.0142742
673.803	0.0144258
673.881	0.0145391
673.959	0.0147071
674.038	0.0149133
674.116	0.0151895
674.194	0.0155788
674.272	0.0157510
674.350	0.0158498
674.428	0.0160615
674.506	0.0162605
674.584	0.0165063
674.663	0.0167288
674.741	0.0167488
674.819	0.0169428
674.897	0.0170220
674.975	0.0171906
675.053	0.0172343
675.131	0.0172711
675.209	0.0171753
675.288	0.0170620
675.366	0.0168043
675.444	0.0168845
675.522	0.0166033
675.600	0.0164300
675.678	0.0162203
675.756	0.0159608
675.834	0.0157677
675.913	0.0154423
675.991	0.0153373
676.069	0.0149066
676.147	0.0147226
676.225	0.0144428
676.303	0.0144160
676.381	0.0141650
676.459	0.0137970
676.538	0.0137669
676.616	0.0135027
676.694	0.0134039
676.772	0.0131732
676.850	0.0133243
676.928	0.0131815
677.006	0.0130635
677.084	0.0129308
677.163	0.0129812
677.241	0.0128324
677.319	0.0128203
677.397	0.0130234
677.475	0.0129961
677.553	0.0132450
677.631	0.0133228
677.709	0.0134638
677.788	0.0137558
677.866	0.0140409
677.944	0.0143474
678.022	0.0146490
678.100	0.0149388
678.178	0.0153340
678.256	0.0156675
678.334	0.0159138
678.413	0.0162599
678.491	0.0165252
678.569	0.0167152
678.647	0.0168710
678.725	0.0171021
678.803	0.0172061
678.881	0.0173796
678.959	0.0174128
679.038	0.0173494
679.116	0.0172481
679.194	0.0172064
679.272	0.0171909
679.350	0.0169576
679.428	0.0169353
679.506	0.0166794
679.584	0.0165417
679.663	0.0163344
679.741	0.0159348
679.819	0.0158092
679.897	0.0155599
679.975	0.0154401
680.053	0.0151698
680.131	0.0148946
680.209	0.0146236
680.288	0.0144680
680.366	0.0144080
680.444	0.0143732
680.522	0.0140598
680.600	0.0140591
680.678	0.0139071
680.756	0.0139796
680.834	0.0139902
680.913	0.0138560
680.991	0.0139706
681.069	0.0140456
681.147	0.0142083
681.225	0.0144367
681.303	0.0142970
681.381	0.0145826
681.459	0.0148137
681.538	0.0147000
681.616	0.0149120
681.694	0.0152256
681.772	0.0154400
681.850	0.0154593
681.928	0.0156974
682.006	0.0157924
682.084	0.0158150
682.163	0.0158426
682.241	0.0158920
682.319	0.0159321
682.397	0.0159415
682.475	0.0158485
682.553	0.0159010
682.631	0.0158936
682.709	0.0157316
682.788	0.0156020
682.866	0.0156303
682.944	0.0154359
683.022	0.0153598
683.100	0.0152732
683.178	0.0151598
683.256	0.0150371
683.334	0.0149592
683.413	0.0149431
683.491	0.0148751
683.569	0.0146324
683.647	0.0148240
683.725	0.0147170
683.803	0.0147050
683.881	0.0146536
683.959	0.0147768
684.038	0.0149593
684.116	0.0150414
684.194	0.0151063
684.272	0.0153851
684.350	0.0153604
684.428	0.0154916
684.506	0.0156773
684.584	0.0157218
684.663	0.0158602
684.741	0.0158392
684.819	0.0159964
684.897	0.0160780
684.975	0.0161192
685.053	0.0162138
685.131	0.0163880
685.209	0.0162630
685.288	0.0162587
685.366	0.0161829
685.444	0.0163519
685.522	0.0163956
685.600	0.0162624
685.678	0.0163407
685.756	0.0161343
685.834	0.0160182
685.913	0.0160770
685.991	0.0160305
686.069	0.0157811
686.147	0.0156649
686.225	0.0155165
686.303	0.0154782
686.381	0.0152924
686.459	0.0153352
686.538	0.0151206
686.616	0.0150755
686.694	0.0150450
686.772	0.0148958
686.850	0.0148306
686.928	0.0148141
687.006	0.0147549
687.084	0.0145760
687.163	0.0146080
687.241	0.0144860
687.319	0.0145081
687.397	0.0145052
687.475	0.0143150
687.553	0.0144028
687.631	0.0142659
687.709	0.0142548
687.788	0.0144222
687.866	0.0142463
687.944	0.0142552
688.022	0.0143181
688.100	0.0144192
688.178	0.0143942
688.256	0.0144797
688.334	0.0145570
688.413	0.0144746
688.491	0.0146783
688.569	0.0146847
688.647	0.0144963
688.725	0.0144302
688.803	0.0145909
688.881	0.0145798
688.959	0.0145865
689.038	0.0143636
689.116	0.0144715
689.194	0.0144711
689.272	0.0144889
689.350	0.0147159
689.428	0.0147968
689.506	0.0147308
689.584	0.0149474
689.663	0.0151825
689.741	0.0155104
689.819	0.0157371
689.897	0.0159534
689.975	0.0161882
690.053	0.0163442
690.131	0.0164339
690.209	0.0166767
690.288	0.0167168
690.366	0.0167857
690.444	0.0170598
690.522	0.0171376
690.600	0.0170907
690.678	0.0171246
690.756	0.0170922
690.834	0.0171070
690.913	0.0169266
690.991	0.0168176
691.069	0.0169279
691.147	0.0167005
691.225	0.0164254
691.303	0.0162574
691.381	0.0161955
691.459	0.0157943
691.538	0.0155183
691.616	0.0152140
691.694	0.0150002
691.772	0.0146187
691.850	0.0141225
691.928	0.0137368
692.006	0.0135520
692.084	0.0134202
692.163	0.0132043
692.241	0.0128739
692.319	0.0127930
692.397	0.0126779
692.475	0.0126369
692.553	0.0125724
692.631	0.0124744
692.709	0.0126672
692.788	0.0127951
692.866	0.0127856
692.944	0.0129540
693.022	0.0131939
693.100	0.0132638
693.178	0.0134692
693.256	0.0137704
693.334	0.0141222
693.413	0.0144470
693.491	0.0147640
693.569	0.0151923
693.647	0.0157884
693.725	0.0161930
693.803	0.0165071
693.881	0.0167396
693.959	0.0170322
694.038	0.0173128
694.116	0.0176501
694.194	0.0175058
694.272	0.0175874
694.350	0.0176618
694.428	0.0177170
694.506	0.0176179
694.584	0.0174493
694.663	0.0172290
694.741	0.0168872
694.819	0.0166040
694.897	0.0164738
694.975	0.0162206
695.053	0.0158561
695.131	0.0155791
695.209	0.0153400
695.288	0.0149660
695.366	0.0146834
695.444	0.0145737
695.522	0.0142289
695.600	0.0140082
695.678	0.0138365
695.756	0.0137970
695.834	0.0134503
695.913	0.0134012
695.991	0.0133085
696.069	0.0132615
696.147	0.0133291
696.225	0.0132894
696.303	0.0134243
696.381	0.0134680
696.459	0.0135403
696.538	0.0136765
696.616	0.0140680
696.694	0.0142605
696.772	0.0145188
696.850	0.0147131
696.928	0.0149978
697.006	0.0152414
697.084	0.0154757
697.163	0.0156020
697.241	0.0158737
697.319	0.0160164
697.397	0.0161837
697.475	0.0164090
697.553	0.0164033
697.631	0.0163859
697.709	0.0165272
697.788	0.0166750
697.866	0.0167600
697.944	0.0166525
698.022	0.0167222
698.100	0.0167230
698.178	0.0165942
698.256	0.0165651
698.334	0.0162801
698.413	0.0161607
698.491	0.0161221
698.569	0.0158339
698.647	0.0155058
698.725	0.0152255
698.803	0.0150445
698.881	0.0146098
698.959	0.0144211
699.038	0.0140203
699.116	0.0138754
699.194	0.0137734
699.272	0.0136035
699.350	0.0134216
699.428	0.0133082
699.506	0.0133587
699.584	0.0134333
699.663	0.0132651
699.741	0.0131755
699.819	0.0134474
699.897	0.0134621
699.975	0.0136208
700.053	0.0135851
700.131	0.0135849
700.209	0.0137369
700.288	0.0138316
700.366	0.0139446
700.444	0.0141307
700.522	0.0141551
700.600	0.0142796
700.678	0.0144243
700.756	0.0146184
700.834	0.0147679
700.913	0.0149992
700.991	0.0150992
701.069	0.0153824
701.147	0.0157332
701.225	0.0158206
701.303	0.0161557
701.381	0.0163240
701.459	0.0164480
701.538	0.0165565
701.616	0.0168833
701.694	0.0167965
701.772	0.0168827
701.850	0.0168310
701.928	0.0168093
702.006	0.0167213
702.084	0.0166781
702.163	0.0166284
702.241	0.0165696
702.319	0.0164863
702.397	0.0162495
702.475	0.0161561
702.553	0.0161691
702.631	0.0157720
702.709	0.0156799
702.788	0.0154333
702.866	0.0151618
702.944	0.0148311
703.022	0.0144738
703.100	0.0144027
703.178	0.0140839
703.256	0.0138062
703.334	0.0137413
703.413	0.0135321
703.491	0.0134781
703.569	0.0132488
703.647	0.0132403
703.725	0.0133833
703.803	0.0132467
703.881	0.0135107
703.959	0.0135653
704.038	0.0136507
704.116	0.0136868
704.194	0.0140505
704.272	0.0142832
704.350	0.0147450
704.428	0.0148456
704.506	0.0150633
704.584	0.0151392
704.663	0.0155379
704.741	0.0158131
704.819	0.0159853
704.897	0.0160101
704.975	0.0161306
705.053	0.0162021
705.131	0.0163966
705.209	0.0163861
705.288	0.0163588
705.366	0.0164120
705.444	0.0163448
705.522	0.0160902
705.600	0.0160832
705.678	0.0158527
705.756	0.0158652
705.834	0.0156408
705.913	0.0153766
705.991	0.0154424
706.069	0.0150013
706.147	0.0150122
706.225	0.0149425
706.303	0.0146072
706.381	0.0146461
706.459	0.0145876
706.538	0.0146494
706.616	0.0145262
706.694	0.0146716
706.772	0.0147876
706.850	0.0148674
706.928	0.0149675
707.006	0.0150941
707.084	0.0153642
707.163	0.0155345
707.241	0.0158330
707.319	0.0160699
707.397	0.0162483
707.475	0.0164233
707.553	0.0166462
707.631	0.0169856
707.709	0.0168789
707.788	0.0168361
707.866	0.0171894
707.944	0.0171239
708.022	0.0170979
708.100	0.0171707
708.178	0.0172060
708.256	0.0171015
708.334	0.0169923
708.413	0.0169525
708.491	0.0166244
708.569	0.0165466
708.647	0.0162384
708.725	0.0160867
708.803	0.0156908
708.881	0.0154120
708.959	0.0150826
709.038	0.0149030
709.116	0.0146052
709.194	0.0142083
709.272	0.0138906
709.350	0.0137431
709.428	0.0133884
709.506	0.0132591
709.584	0.0129443
709.663	0.0129745
709.741	0.0127464
709.819	0.0127513
709.897	0.0125614
709.975	0.0125833
710.053	0.0125188
710.131	0.0125095
710.209	0.0126884
710.288	0.0127904
710.366	0.0128197
710.444	0.0130106
710.522	0.0132878
710.600	0.0136531
710.678	0.0139640
710.756	0.0140742
710.834	0.0145500
710.913	0.0146738
710.991	0.0150423
711.069	0.0154926
711.147	0.0157716
711.225	0.0160788
711.303	0.0165235
711.381	0.0166351
711.459	0.0168930
711.538	0.0169384
711.616	0.0170333
711.694	0.0171758
711.772	0.0171871
711.850	0.0171259
711.928	0.0169614
712.006	0.0169893
712.084	0.0167538
712.163	0.0165863
712.241	0.0165806
712.319	0.0163575
712.397	0.0162688
712.475	0.0161863
712.553	0.0159447
712.631	0.0158636
712.709	0.0157317
712.788	0.0155406
712.866	0.0153361
712.944	0.0152649
713.022	0.0151591
713.100	0.0152749
713.178	0.0150088
713.256	0.0150552
713.334	0.0151094
713.413	0.0148727
713.491	0.0150594
713.569	0.0151100
713.647	0.0150800
713.725	0.0150862
713.803	0.0152331
713.881	0.0153437
713.959	0.0153128
714.038	0.0155503
714.116	0.0155674
714.194	0.0155151
714.272	0.0154687
714.350	0.0155657
714.428	0.0154514
714.506	0.0153361
714.584	0.0153160
714.663	0.0153175
714.741	0.0152195
714.819	0.0151662
714.897	0.0150510
714.975	0.0150407
715.053	0.0148846
715.131	0.0148071
715.209	0.0149352
715.288	0.0148641
715.366	0.0148205
715.444	0.0147032
715.522	0.0146422
715.600	0.0146378
715.678	0.0144044
715.756	0.0144012
715.834	0.0143760
715.913	0.0143166
715.991	0.0144344
716.069	0.0143788
716.147	0.0142452
716.225	0.0143751
716.303	0.0142244
716.381	0.0142965
716.459	0.0143797
716.538	0.0144118
716.616	0.0144559
716.694	0.0145596
716.772	0.0145458
716.850	0.0146989
716.928	0.0146947
717.006	0.0147535
717.084	0.0147974
717.163	0.0146575
717.241	0.0150114
717.319	0.0149832
717.397	0.0150550
717.475	0.0152373
717.553	0.0151797
717.631	0.0154097
717.709	0.0152721
717.788	0.0153325
717.866	0.0154055
717.944	0.0154977
718.022	0.0151997
718.100	0.0152736
718.178	0.0153136
718.256	0.0151048
718.334	0.0152431
718.413	0.0152744
718.491	0.0152454
718.569	0.0152094
718.647	0.0152785
718.725	0.0152661
718.803	0.0152784
718.881	0.0153515
718.959	0.0154849
719.038	0.0153455
719.116	0.0154456
719.194	0.0155995
719.272	0.0155973
719.350	0.0155497
719.428	0.0155070
719.506	0.0154207
719.584	0.0154736
719.663	0.0154048
719.741	0.0152987
719.819	0.0152916
719.897	0.0151113
719.975	0.0149931
720.053	0.0148751
720.131	0.0148353
720.209	0.0147306
720.288	0.0146994
720.366	0.0147432
720.444	0.0146814
720.522	0.0148194
720.600	0.0147414
720.678	0.0147353
720.756	0.0148863
720.834	0.0148240
720.913	0.0148708
720.991	0.0147098
721.069	0.0148325
721.147	0.0146988
721.225	0.0147336
721.303	0.0148391
721.381	0.0146536
721.459	0.0146648
721.538	0.0147340
721.616	0.0148340
721.694	0.0147900
721.772	0.0148886
721.850	0.0148460
721.928	0.0148612
722.006	0.0150232
722.084	0.0150695
722.163	0.0149580
722.241	0.0150983
722.319	0.0152918
722.397	0.0152332
722.475	0.0151713
722.553	0.0152607
722.631	0.0153853
722.709	0.0154756
722.788	0.0155958
722.866	0.0154823
722.944	0.0155725
723.022	0.0155570
723.100	0.0155318
723.178	0.0156511
723.256	0.0156757
723.334	0.0157731
723.413	0.0157853
723.491	0.0158540
723.569	0.0157415
723.647	0.0157904
723.725	0.0157603
723.803	0.0157167
723.881	0.0155831
723.959	0.0155033
724.038	0.0154479
724.116	0.0154833
724.194	0.0153339
724.272	0.0151149
724.350	0.0151589
724.428	0.0150002
724.506	0.0148451
724.584	0.0147726
724.663	0.0147279
724.741	0.0146860
724.819	0.0144829
724.897	0.0144097
724.975	0.0143887
725.053	0.0142216
725.131	0.0142877
725.209	0.0141927
725.288	0.0140861
725.366	0.0141565
725.444	0.0141320
725.522	0.0142572
725.600	0.0140899
725.678	0.0141423
725.756	0.0140270
725.834	0.0140805
725.913	0.0140848
725.991	0.0140555
726.069	0.0142784
726.147	0.0142352
726.225	0.0142725
726.303	0.0143411
726.381	0.0144168
726.459	0.0146218
726.538	0.0146537
726.616	0.0149326
726.694	0.0149557
726.772	0.0150817
726.850	0.0153501
726.928	0.0154659
727.006	0.0155842
727.084	0.0158013
727.163	0.0158316
727.241	0.0159082
727.319	0.0160449
727.397	0.0164247
727.475	0.0165199
727.553	0.0166171
727.631	0.0167985
727.709	0.0169609
727.788	0.0170071
727.866	0.0170050
727.944	0.0171792
728.022	0.0173012
728.100	0.0172162
728.178	0.0174031
728.256	0.0174435
728.334	0.0174361
728.413	0.0175157
728.491	0.0174370
728.569	0.0173453
728.647	0.0173509
728.725	0.0172163
728.803	0.0172871
728.881	0.0169888
728.959	0.0168899
729.038	0.0167358
729.116	0.0164413
729.194	0.0161967
729.272	0.0159672
729.350	0.0156454
729.428	0.0152790
729.506	0.0150237
729.584	0.0147218
729.663	0.0144242
729.741	0.0139973
729.819	0.0135191
729.897	0.0132799
729.975	0.0129715
730.053	0.0126738
730.131	0.0123705
730.209	0.0122872
730.288	0.0119940
730.366	0.0118683
730.444	0.0118587
730.522	0.0118121
730.600	0.0120271
730.678	0.0120628
730.756	0.0122253
730.834	0.0123497
730.913	0.0123957
730.991	0.0126962
731.069	0.0130155
731.147	0.0130009
731.225	0.0133554
731.303	0.0134250
731.381	0.0137436
731.459	0.0138318
731.538	0.0141946
731.616	0.0144279
731.694	0.0146143
731.772	0.0147762
731.850	0.0150856
731.928	0.0153937
732.006	0.0155619
732.084	0.0158705
732.163	0.0160867
732.241	0.0163731
732.319	0.0165304
732.397	0.0169248
732.475	0.0170746
732.553	0.0171899
732.631	0.0172057
732.709	0.0173579
732.788	0.0174474
732.866	0.0174400
732.944	0.0173572
733.022	0.0174007
733.100	0.0172936
733.178	0.0170518
733.256	0.0171344
733.334	0.0168925
733.413	0.0168861
733.491	0.0166801
733.569	0.0164782
733.647	0.0163256
733.725	0.0162375
733.803	0.0160137
733.881	0.0158076
733.959	0.0155145
734.038	0.0154533
734.116	0.0151378
734.194	0.0150589
734.272	0.0148013
734.350	0.0147984
734.428	0.0145309
734.506	0.0144579
734.584	0.0144067
734.663	0.0141628
734.741	0.0142262
734.819	0.0142013
734.897	0.0138901
734.975	0.0139671
735.053	0.0138567
735.131	0.0139029
735.209	0.0138197
735.288	0.0138454
735.366	0.0139062
735.444	0.0138594
735.522	0.0139195
735.600	0.0140157
735.678	0.0141993
735.756	0.0141809
735.834	0.0142741
735.913	0.0144631
735.991	0.0147776
736.069	0.0148846
736.147	0.0149463
736.225	0.0149326
736.303	0.0152680
736.381	0.0153146
736.459	0.0151662
736.538	0.0151734
736.616	0.0152982
736.694	0.0154034
736.772	0.0151766
736.850	0.0153952
736.928	0.0154369
737.006	0.0155575
737.084	0.0155370
737.163	0.0155122
737.241	0.0155789
737.319	0.0156454
737.397	0.0155760
737.475	0.0156906
737.553	0.0158334
737.631	0.0156966
737.709	0.0154923
737.788	0.0155779
737.866	0.0155542
737.944	0.0154111
738.022	0.0154134
738.100	0.0153263
738.178	0.0152713
738.256	0.0151798
738.334	0.0151839
738.413	0.0150665
738.491	0.0152580
738.569	0.0152917
738.647	0.0152075
738.725	0.0152631
738.803	0.0153947
738.881	0.0154608
738.959	0.0154258
739.038	0.0153394
739.116	0.0154578
739.194	0.0155520
739.272	0.0152924
739.350	0.0150364
739.428	0.0152003
739.506	0.0150241
739.584	0.0147820
739.663	0.0146893
739.741	0.0144612
739.819	0.0143410
739.897	0.0142342
739.975	0.0141010
740.053	0.0140317
740.131	0.0140462
740.209	0.0139643
740.288	0.0141335
740.366	0.0140875
740.444	0.0141351
740.522	0.0142720
740.600	0.0143690
740.678	0.0143011
740.756	0.0142876
740.834	0.0143666
740.913	0.0144720
740.991	0.0146396
741.069	0.0145267
741.147	0.0148164
741.225	0.0149966
741.303	0.0151301
741.381	0.0152277
741.459	0.0152246
741.538	0.0152859
741.616	0.0154884
741.694	0.0155444
741.772	0.0157238
741.850	0.0157580
741.928	0.0158177
742.006	0.0157722
742.084	0.0158016
742.163	0.0159109
742.241	0.0158517
742.319	0.0157166
742.397	0.0156576
742.475	0.0156203
742.553	0.0156120
742.631	0.0157701
742.709	0.0156669
742.788	0.0156406
742.866	0.0155515
742.944	0.0155194
743.022	0.0154263
743.100	0.0155076
743.178	0.0154884
743.256	0.0154638
743.334	0.0155093
743.413	0.0155449
743.491	0.0156677
743.569	0.0157197
743.647	0.0155918
743.725	0.0157160
743.803	0.0158418
743.881	0.0157205
743.959	0.0157555
744.038	0.0157925
744.116	0.0156387
744.194	0.0155216
744.272	0.0155285
744.350	0.0156053
744.428	0.0153658
744.506	0.0154250
744.584	0.0153641
744.663	0.0150929
744.741	0.0150230
744.819	0.0149700
744.897	0.0148066
744.975	0.0146822
745.053	0.0143999
745.131	0.0144002
745.209	0.0141415
745.288	0.0139902
745.366	0.0137529
745.444	0.0137669
745.522	0.0136127
745.600	0.0135416
745.678	0.0134889
745.756	0.0135845
745.834	0.0135621
745.913	0.0134597
745.991	0.0135275
746.069	0.0138292
746.147	0.0138151
746.225	0.0140578
746.303	0.0141141
746.381	0.0143159
746.459	0.0143657
746.538	0.0146577
746.616	0.0147079
746.694	0.0147514
746.772	0.0149762
746.850	0.0151827
746.928	0.0152669
747.006	0.0153297
747.084	0.0155849
747.163	0.0155856
747.241	0.0158184
747.319	0.0159224
747.397	0.0160831
747.475	0.0162166
747.553	0.0164125
747.631	0.0164575
747.709	0.0163619
747.788	0.0163831
747.866	0.0164878
747.944	0.0165545
748.022	0.0163771
748.100	0.0163316
748.178	0.0163194
748.256	0.0162559
748.334	0.0161143
748.413	0.0159990
748.491	0.0161362
748.569	0.0160027
748.647	0.0160297
748.725	0.0158683
748.803	0.0159280
748.881	0.0156615
748.959	0.0155672
749.038	0.0155848
749.116	0.0155347
749.194	0.0154509
749.272	0.0153408
749.350	0.0151896
749.428	0.0150967
749.506	0.0149549
749.584	0.0147479
749.663	0.0147533
749.741	0.0146330
749.819	0.0145919
749.897	0.0144952
749.975	0.0145684
750.053	0.0145355
750.131	0.0144514
750.209	0.0144725
750.288	0.0145240
750.366	0.0146389
750.444	0.0147810
750.522	0.0148815
750.600	0.0148521
750.678	0.0149953
750.756	0.0150380
750.834	0.0152151
750.913	0.0154491
750.991	0.0154642
751.069	0.0155862
751.147	0.0158389
751.225	0.0158456
751.303	0.0159368
751.381	0.0160721
751.459	0.0159271
751.538	0.0160447
751.616	0.0161836
751.694	0.0161826
751.772	0.0161003
751.850	0.0160120
751.928	0.0158925
752.006	0.0159191
752.084	0.0157927
752.163	0.0156445
752.241	0.0154267
752.319	0.0153440
752.397	0.0152099
752.475	0.0150977
752.553	0.0147654
752.631	0.0147375
752.709	0.0147767
752.788	0.0145219
752.866	0.0144432
752.944	0.0143977
753.022	0.0141911
753.100	0.0141034
753.178	0.0142514
753.256	0.0137650
753.334	0.0139654
753.413	0.0138232
753.491	0.0136547
753.569	0.0137743
753.647	0.0138411
753.725	0.0136636
753.803	0.0138387
753.881	0.0138277
753.959	0.0139503
754.038	0.0140638
754.116	0.0142027
754.194	0.0142525
754.272	0.0144038
754.350	0.0148636
754.428	0.0148777
754.506	0.0150140
754.584	0.0152718
754.663	0.0156110
754.741	0.0157805
754.819	0.0158617
754.897	0.0160914
754.975	0.0162160
755.053	0.0161540
755.131	0.0163140
755.209	0.0164862
755.288	0.0164551
755.366	0.0164555
755.444	0.0165125
755.522	0.0164635
755.600	0.0163548
755.678	0.0161913
755.756	0.0161582
755.834	0.0160899
755.913	0.0160099
755.991	0.0160390
756.069	0.0159150
756.147	0.0157468
756.225	0.0157781
756.303	0.0156004
756.381	0.0154296
756.459	0.0155579
756.538	0.0153183
756.616	0.0152836
756.694	0.0151329
756.772	0.0151321
756.850	0.0150299
756.928	0.0148130
757.006	0.0148846
757.084	0.0147803
757.163	0.0148057
757.241	0.0147527
757.319	0.0146102
757.397	0.0145337
757.475	0.0147012
757.553	0.0146005
757.631	0.0146933
757.709	0.0147713
757.788	0.0146361
757.866	0.0147150
757.944	0.0147343
758.022	0.0148335
758.100	0.0149113
758.178	0.0147722
758.256	0.0148418
758.334	0.0148717
758.413	0.0150002
758.491	0.0150573
758.569	0.0152029
758.647	0.0150648
758.725	0.0148744
758.803	0.0150827
758.881	0.0151895
758.959	0.0151806
759.038	0.0151923
759.116	0.0152402
759.194	0.0153365
759.272	0.0152887
759.350	0.0152185
759.428	0.0155246
759.506	0.0153191
759.584	0.0154918
759.663	0.0154372
759.741	0.0154382
759.819	0.0155680
759.897	0.0155631
759.975	0.0154239
760.053	0.0156657
760.131	0.0154687
760.209	0.0152740
760.288	0.0153520
760.366	0.0153687
760.444	0.0152613
760.522	0.0152002
760.600	0.0152563
760.678	0.0152599
760.756	0.0150350
760.834	0.0152555
760.913	0.0151023
760.991	0.0150105
761.069	0.0149148
761.147	0.0148284
761.225	0.0148460
761.303	0.0147185
761.381	0.0147962
761.459	0.0147767
761.538	0.0148621
761.616	0.0148734
761.694	0.0148110
761.772	0.0147946
761.850	0.0148577
761.928	0.0150439
762.006	0.0148862
762.084	0.0149794
762.163	0.0149998
762.241	0.0148332
762.319	0.0148665
762.397	0.0148849
762.475	0.0147810
762.553	0.0148446
762.631	0.0146548
762.709	0.0144492
762.788	0.0145152
762.866	0.0144690
762.944	0.0143847
763.022	0.0143056
763.100	0.0143697
763.178	0.0144531
763.256	0.0144331
763.334	0.0145950
763.413	0.0146911
763.491	0.0147620
763.569	0.0147829
763.647	0.0151099
763.725	0.0151536
763.803	0.0151571
763.881	0.0152620
763.959	0.0153437
764.038	0.0152158
764.116	0.0155100
764.194	0.0155948
764.272	0.0156280
764.350	0.0156175
764.428	0.0156843
764.506	0.0155669
764.584	0.0158305
764.663	0.0156933
764.741	0.0155595
764.819	0.0159162
764.897	0.0157388
764.975	0.0159116
765.053	0.0159040
765.131	0.0157655
765.209	0.0158801
765.288	0.0157584
765.366	0.0158810
765.444	0.0158858
765.522	0.0157305
765.600	0.0156281
765.678	0.0157088
765.756	0.0154950
765.834	0.0153479
765.913	0.0155513
765.991	0.0156096
766.069	0.0153584
766.147	0.0153532
766.225	0.0152917
766.303	0.0152390
766.381	0.0153873
766.459	0.0153355
766.538	0.0153008
766.616	0.0151968
766.694	0.0149911
766.772	0.0149025
766.850	0.0150267
766.928	0.0149078
767.006	0.0148915
767.084	0.0148747
767.163	0.0148819
767.241	0.0148345
767.319	0.0147357
767.397	0.0146198
767.475	0.0146884
767.553	0.0146822
767.631	0.0147836
767.709	0.0148611
767.788	0.0149050
767.866	0.0147253
767.944	0.0147124
768.022	0.0146760
768.100	0.0147005
768.178	0.0145222
768.256	0.0146973
768.334	0.0146141
768.413	0.0145963
768.491	0.0145433
768.569	0.0147154
768.647	0.0146465
768.725	0.0146182
768.803	0.0147252
768.881	0.0148030
768.959	0.0148549
769.038	0.0147696
769.116	0.0150079
769.194	0.0149799
769.272	0.0150514
769.350	0.0150836
769.428	0.0150579
769.506	0.0152253
769.584	0.0152164
769.663	0.0152084
769.741	0.0154041
769.819	0.0154165
769.897	0.0154627
769.975	0.0155386
770.053	0.0158049
770.131	0.0156939
770.209	0.0159010
770.288	0.0159167
770.366	0.0158565
770.444	0.0160696
770.522	0.0157580
770.600	0.0158541
770.678	0.0158644
770.756	0.0158256
770.834	0.0156979
770.913	0.0155221
770.991	0.0156260
771.069	0.0156036
771.147	0.0155606
771.225	0.0154959
771.303	0.0154088
771.381	0.0155217
771.459	0.0154412
771.538	0.0153481
771.616	0.0155552
771.694	0.0154526
771.772	0.0152718
771.850	0.0153272
771.928	0.0151509
772.006	0.0152054
772.084	0.0150974
772.163	0.0149065
772.241	0.0150021
772.319	0.0149665
772.397	0.0150265
772.475	0.0148746
772.553	0.0148459
772.631	0.0147845
772.709	0.0148364
772.788	0.0147142
772.866	0.0148197
772.944	0.0148560
773.022	0.0148948
773.100	0.0147754
773.178	0.0149967
773.256	0.0147552
773.334	0.0148496
773.413	0.0149459
773.491	0.0148311
773.569	0.0150425
773.647	0.0151160
773.725	0.0151431
773.803	0.0150715
773.881	0.0152514
773.959	0.0153421
774.038	0.0153449
774.116	0.0153651
774.194	0.0155008
774.272	0.0153876
774.350	0.0154517
774.428	0.0155445
774.506	0.0156324
774.584	0.0156916
774.663	0.0155360
774.741	0.0155814
774.819	0.0155798
774.897	0.0155316
774.975	0.0153990
775.053	0.0156013
775.131	0.0155764
775.209	0.0153989
775.288	0.0154451
775.366	0.0154267
775.444	0.0154871
775.522	0.0153129
775.600	0.0153799
775.678	0.0152824
775.756	0.0150608
775.834	0.0151326
775.913	0.0152457
775.991	0.0152339
776.069	0.0150780
776.147	0.0149266
776.225	0.0151162
776.303	0.0151826
776.381	0.0151432
776.459	0.0150484
776.538	0.0150111
776.616	0.0150216
776.694	0.0150982
776.772	0.0148146
776.850	0.0149444
776.928	0.0149868
777.006	0.0149217
777.084	0.0148600
777.163	0.0148132
777.241	0.0148457
777.319	0.0148086
777.397	0.0148174
777.475	0.0148258
777.553	0.0147849
777.631	0.0148580
777.709	0.0148585
777.788	0.0148246
777.866	0.0147420
777.944	0.0149029
778.022	0.0146815
778.100	0.0148278
778.178	0.0148753
778.256	0.0148821
778.334	0.0148008
778.413	0.0149400
778.491	0.0150439
778.569	0.0150793
778.647	0.0151896
778.725	0.0151212
778.803	0.0152426
778.881	0.0151487
778.959	0.0152052
779.038	0.0152759
779.116	0.0153749
779.194	0.0153570
779.272	0.0154024
779.350	0.0153490
779.428	0.0154077
779.506	0.0154221
779.584	0.0155059
779.663	0.0155318
779.741	0.0154726
779.819	0.0153714
779.897	0.0154266
779.975	0.0155580
780.053	0.0154196
780.131	0.0155034
780.209	0.0155569
780.288	0.0154597
780.366	0.0153685
780.444	0.0153692
780.522	0.0153741
780.600	0.0154169
780.678	0.0152567
780.756	0.0152864
780.834	0.0154671
780.913	0.0153714
780.991	0.0153242
781.069	0.0153318
781.147	0.0153252
781.225	0.0153043
781.303	0.0153210
781.381	0.0152295
781.459	0.0152386
781.538	0.0152683
781.616	0.0152874
781.694	0.0154237
781.772	0.0154520
781.850	0.0154390
781.928	0.0153771
782.006	0.0152575
782.084	0.0154042
782.163	0.0154068
782.241	0.0152014
782.319	0.0153409
782.397	0.0154458
782.475	0.0153745
782.553	0.0152904
782.631	0.0153575
782.709	0.0152270
782.788	0.0150993
782.866	0.0151497
782.944	0.0152219
783.022	0.0152426
783.100	0.0150782
783.178	0.0151084
783.256	0.0150195
783.334	0.0149519
783.413	0.0148963
783.491	0.0147900
783.569	0.0149015
783.647	0.0148287
783.725	0.0146737
783.803	0.0147739
783.881	0.0147818
783.959	0.0148907
784.038	0.0147870
784.116	0.0149184
784.194	0.0148480
784.272	0.0149312
784.350	0.0149911
784.428	0.0149391
784.506	0.0150484
784.584	0.0151101
784.663	0.0151463
784.741	0.0151750
784.819	0.0152097
784.897	0.0152014
784.975	0.0152547
785.053	0.0152001
785.131	0.0152303
785.209	0.0153012
785.288	0.0154118
785.366	0.0151957
785.444	0.0152277
785.522	0.0150793
785.600	0.0151785
785.678	0.0152177
785.756	0.0151793
785.834	0.0151081
785.913	0.0151158
785.991	0.0150835
786.069	0.0150062
786.147	0.0149060
786.225	0.0150719
786.303	0.0151290
786.381	0.0150714
786.459	0.0151787
786.538	0.0151092
786.616	0.0150467
786.694	0.0150867
786.772	0.0152713
786.850	0.0152428
786.928	0.0154007
787.006	0.0152987
787.084	0.0152145
787.163	0.0152956
787.241	0.0152585
787.319	0.0153730
787.397	0.0155403
787.475	0.0155383
787.553	0.0153835
787.631	0.0153937
787.709	0.0154881
787.788	0.0154353
787.866	0.0152937
787.944	0.0153236
788.022	0.0153126
788.100	0.0152975
788.178	0.0150143
788.256	0.0150060
788.334	0.0151317
788.413	0.0149578
788.491	0.0149985
788.569	0.0148914
788.647	0.0147490
788.725	0.0146314
788.803	0.0147433
788.881	0.0146377
788.959	0.0146634
789.038	0.0147454
789.116	0.0148214
789.194	0.0148128
789.272	0.0147982
789.350	0.0149381
789.428	0.0150040
789.506	0.0149889
789.584	0.0149667
789.663	0.0149749
789.741	0.0150577
789.819	0.0151788
789.897	0.0151786
789.975	0.0152849
790.053	0.0154221
790.131	0.0154711
790.209	0.0156891
790.288	0.0155267
790.366	0.0155772
790.444	0.0157299
790.522	0.0155828
790.600	0.0155336
790.678	0.0155349
790.756	0.0156506
790.834	0.0154182
790.913	0.0153824
790.991	0.0154128
791.069	0.0154192
791.147	0.0154268
791.225	0.0151850
791.303	0.0152081
791.381	0.0150983
791.459	0.0152145
791.538	0.0151610
791.616	0.0150890
791.694	0.0151273
791.772	0.0151249
791.850	0.0152099
791.928	0.0149837
792.006	0.0149471
792.084	0.0150270
792.163	0.0149632
792.241	0.0150467
792.319	0.0149470
792.397	0.0148362
792.475	0.0149515
792.553	0.0147754
792.631	0.0148127
792.709	0.0148273
792.788	0.0149498
792.866	0.0148910
792.944	0.0149394
793.022	0.0150202
793.100	0.0149239
793.178	0.0150596
793.256	0.0149541
793.334	0.0150146
793.413	0.0151248
793.491	0.0151796
793.569	0.0151621
793.647	0.0149928
793.725	0.0152184
793.803	0.0153172
793.881	0.0152778
793.959	0.0153577
794.038	0.0152996
794.116	0.0153982
794.194	0.0153477
794.272	0.0153027
794.350	0.0153443
794.428	0.0152906
794.506	0.0153768
794.584	0.0153302
794.663	0.0152687
794.741	0.0152950
794.819	0.0153403
794.897	0.0152831
794.975	0.0152885
795.053	0.0152988
795.131	0.0152663
795.209	0.0152522
795.288	0.0152561
795.366	0.0151310
795.444	0.0152827
795.522	0.0151585
795.600	0.0151635
795.678	0.0152959
795.756	0.0151801
795.834	0.0151614
795.913	0.0152705
795.991	0.0152272
796.069	0.0152563
796.147	0.0152609
796.225	0.0153288
796.303	0.0152641
796.381	0.0151498
796.459	0.0151872
796.538	0.0152658
796.616	0.0151988
796.694	0.0152466
796.772	0.0154049
796.850	0.0152897
796.928	0.0153635
797.006	0.0152294
797.084	0.0153193
797.163	0.0153220
797.241	0.0153010
797.319	0.0152065
797.397	0.0152879
797.475	0.0154259
797.553	0.0153806
797.631	0.0152730
797.709	0.0154118
797.788	0.0152723
797.866	0.0153159
797.944	0.0153223
798.022	0.0152275
798.100	0.0153371
798.178	0.0152926
798.256	0.0153557
798.334	0.0153487
798.413	0.0154308
798.491	0.0153890
798.569	0.0153946
798.647	0.0155169
798.725	0.0153613
798.803	0.0153310
798.881	0.0152457
798.959	0.0154922
799.038	0.0154509
799.116	0.0152352
799.194	0.0152722
799.272	0.0152995
799.350	0.0154478
799.428	0.0150899
799.506	0.0150864
799.584	0.0151538
799.663	0.0152335
799.741	0.0150161
799.819	0.0150886
799.897	0.0150328
799.975	0.0150530
800.053	0.0149934
800.131	0.0149216
800.209	0.0149359
800.288	0.0149496
800.366	0.0148197
800.444	0.0149265
800.522	0.0149067
800.600	0.0149861
800.678	0.0149176
800.756	0.0149723
800.834	0.0148750
800.913	0.0147743
800.991	0.0149904
801.069	0.0150196
801.147	0.0148204
801.225	0.0150150
801.303	0.0149809
801.381	0.0150401
801.459	0.0151078
801.538	0.0151700
801.616	0.0152488
801.694	0.0152535
801.772	0.0152849
801.850	0.0151703
801.928	0.0151500
802.006	0.0151266
802.084	0.0151879
802.163	0.0149854
802.241	0.0151583
802.319	0.0150780
802.397	0.0150934
802.475	0.0149398
802.553	0.0149606
802.631	0.0149667
802.709	0.0149252
802.788	0.0149162
802.866	0.0148664
802.944	0.0149100
803.022	0.0148701
803.100	0.0148628
803.178	0.0149052
803.256	0.0149014
803.334	0.0150079
803.413	0.0150253
803.491	0.0149476
803.569	0.0150968
803.647	0.0150392
803.725	0.0149701
803.803	0.0151437
803.881	0.0151794
803.959	0.0151679
804.038	0.0152995
804.116	0.0151633
804.194	0.0151975
804.272	0.0153778
804.350	0.0155049
804.428	0.0153832
804.506	0.0153717
804.584	0.0153502
804.663	0.0152602
804.741	0.0152417
804.819	0.0153904
804.897	0.0154140
804.975	0.0153960
805.053	0.0153088
805.131	0.0153556
805.209	0.0152796
805.288	0.0153564
805.366	0.0150330
805.444	0.0150942
805.522	0.0151410
805.600	0.0150332
805.678	0.0149406
805.756	0.0149555
805.834	0.0148434
805.913	0.0148846
805.991	0.0147934
806.069	0.0148196
806.147	0.0146015
806.225	0.0147026
806.303	0.0146766
806.381	0.0147121
806.459	0.0146544
806.538	0.0144847
806.616	0.0146067
806.694	0.0144578
806.772	0.0145099
806.850	0.0145832
806.928	0.0147710
807.006	0.0145965
807.084	0.0147357
807.163	0.0148946
807.241	0.0148849
807.319	0.0148920
807.397	0.0150163
807.475	0.0152086
807.553	0.0152599
807.631	0.0152818
807.709	0.0152910
807.788	0.0153472
807.866	0.0154565
807.944	0.0154704
808.022	0.0154790
808.100	0.0155118
808.178	0.0156052
808.256	0.0155823
808.334	0.0155444
808.413	0.0156290
808.491	0.0156313
808.569	0.0156529
808.647	0.0154807
808.725	0.0155573
808.803	0.0153696
808.881	0.0155054
808.959	0.0153087
809.038	0.0152303
809.116	0.0151416
809.194	0.0150827
809.272	0.0151776
809.350	0.0150318
809.428	0.0149892
809.506	0.0148943
809.584	0.0149481
809.663	0.0149161
809.741	0.0149059
809.819	0.0148395
809.897	0.0148795
809.975	0.0148205
810.053	0.0149446
810.131	0.0148620
810.209	0.0149841
810.288	0.0150716
810.366	0.0151990
810.444	0.0151347
810.522	0.0150883
810.600	0.0153198
810.678	0.0152972
810.756	0.0153792
810.834	0.0155653
810.913	0.0155324
810.991	0.0155824
811.069	0.0155750
811.147	0.0156572
811.225	0.0155099
811.303	0.0155544
811.381	0.0155692
811.459	0.0156391
811.538	0.0156383
811.616	0.0156273
811.694	0.0153962
811.772	0.0154533
811.850	0.0154152
811.928	0.0153157
812.006	0.0153600
812.084	0.0153020
812.163	0.0153775
812.241	0.0153678
812.319	0.0151891
812.397	0.0150502
812.475	0.0151101
812.553	0.0151434
812.631	0.0151585
812.709	0.0151932
812.788	0.0151570
812.866	0.0151376
812.944	0.0152449
813.022	0.0152599
813.100	0.0151397
813.178	0.0152470
813.256	0.0151958
813.334	0.0152914
813.413	0.0151776
813.491	0.0151793
813.569	0.0152620
813.647	0.0152599
813.725	0.0153046
813.803	0.0152947
813.881	0.0152082
813.959	0.0151816
814.038	0.0152493
814.116	0.0152748
814.194	0.0152921
814.272	0.0150814
814.350	0.0151696
814.428	0.0151711
814.506	0.0151676
814.584	0.0152001
814.663	0.0152225
814.741	0.0152882
814.819	0.0151514
814.897	0.0151368
814.975	0.0151636
815.053	0.0152358
815.131	0.0151303
815.209	0.0151881
815.288	0.0151406
815.366	0.0152092
815.444	0.0150739
815.522	0.0151183
815.600	0.0151366
815.678	0.0152271
815.756	0.0151089
815.834	0.0151491
815.913	0.0152412
815.991	0.0152104
816.069	0.0150392
816.147	0.0152113
816.225	0.0152372
816.303	0.0149902
816.381	0.0151647
816.459	0.0152120
816.538	0.0152205
816.616	0.0151199
816.694	0.0152576
816.772	0.0151427
816.850	0.0152206
816.928	0.0152311
817.006	0.0150234
817.084	0.0152198
817.163	0.0152108
817.241	0.0151498
817.319	0.0149374
817.397	0.0150724
817.475	0.0151844
817.553	0.0151321
817.631	0.0150970
817.709	0.0148862
817.788	0.0149672
817.866	0.0149429
817.944	0.0149352
818.022	0.0149352
818.100	0.0148367
818.178	0.0147749
818.256	0.0150558
818.334	0.0147766
818.413	0.0148621
818.491	0.0150097
818.569	0.0148546
818.647	0.0148576
818.725	0.0147764
818.803	0.0149805
818.881	0.0150185
818.959	0.0148983
819.038	0.0148371
819.116	0.0149339
819.194	0.0149519
819.272	0.0149274
819.350	0.0150263
819.428	0.0151209
819.506	0.0150932
819.584	0.0151396
819.663	0.0151173
819.741	0.0153175
819.819	0.0151627
819.897	0.0152383
819.975	0.0152560
820.053	0.0152618
820.131	0.0153189
820.209	0.0153077
820.288	0.0154109
820.366	0.0152982
820.444	0.0153811
820.522	0.0153153
820.600	0.0151761
820.678	0.0153657
820.756	0.0154012
820.834	0.0152389
820.913	0.0151785
820.991	0.0151464
821.069	0.0151479
821.147	0.0150172
821.225	0.0150172
821.303	0.0149565
821.381	0.0148803
821.459	0.0147509
821.538	0.0148172
821.616	0.0148261
821.694	0.0146928
821.772	0.0148942
821.850	0.0148325
821.928	0.0148261
822.006	0.0147745
822.084	0.0148580
822.163	0.0147064
822.241	0.0146496
822.319	0.0146924
822.397	0.0148003
822.475	0.0147054
822.553	0.0148280
822.631	0.0149069
822.709	0.0149206
822.788	0.0147987
822.866	0.0148030
822.944	0.0149112
823.022	0.0149299
823.100	0.0149894
823.178	0.0150007
823.256	0.0151134
823.334	0.0150129
823.413	0.0151012
823.491	0.0151596
823.569	0.0151743
823.647	0.0152406
823.725	0.0154313
823.803	0.0151459
823.881	0.0151672
823.959	0.0151987
824.038	0.0153004
824.116	0.0152903
824.194	0.0152959
824.272	0.0154896
824.350	0.0154437
824.428	0.0154094
824.506	0.0152879
824.584	0.0154792
824.663	0.0155069
824.741	0.0154939
824.819	0.0152789
824.897	0.0153770
824.975	0.0154014
825.053	0.0154317
825.131	0.0153735
825.209	0.0153821
825.288	0.0155244
825.366	0.0154362
825.444	0.0153613
825.522	0.0151546
825.600	0.0153772
825.678	0.0153407
825.756	0.0152782
825.834	0.0153732
825.913	0.0151340
825.991	0.0151106
826.069	0.0151066
826.147	0.0149890
826.225	0.0150242
826.303	0.0149131
826.381	0.0148649
826.459	0.0148940
826.538	0.0148546
826.616	0.0148405
826.694	0.0147599
826.772	0.0148374
826.850	0.0148344
826.928	0.0148027
827.006	0.0147321
827.084	0.0148219
827.163	0.0148457
827.241	0.0147455
827.319	0.0147503
827.397	0.0145879
827.475	0.0148248
827.553	0.0146938
827.631	0.0147922
827.709	0.0147359
827.788	0.0147707
827.866	0.0148517
827.944	0.0148952
828.022	0.0149350
828.100	0.0148713
828.178	0.0151032
828.256	0.0151691
828.334	0.0151437
828.413	0.0151031
828.491	0.0152863
828.569	0.0152140
828.647	0.0152209
828.725	0.0154553
828.803	0.0153877
828.881	0.0154652
828.959	0.0154940
829.038	0.0154371
829.116	0.0155688
829.194	0.0155199
829.272	0.0156428
829.350	0.0154758
829.428	0.0156028
829.506	0.0155690
829.584	0.0154173
829.663	0.0154687
829.741	0.0155441
829.819	0.0153840
829.897	0.0154240
829.975	0.0154140
830.053	0.0152950
830.131	0.0154460
830.209	0.0154521
830.288	0.0153336
830.366	0.0151796
830.444	0.0151626
830.522	0.0151980
830.600	0.0150399
830.678	0.0150353
830.756	0.0150729
830.834	0.0149312
830.913	0.0149065
830.991	0.0149149
831.069	0.0148490
831.147	0.0150113
831.225	0.0147772
831.303	0.0147177
831.381	0.0147518
831.459	0.0146586
831.538	0.0148383
831.616	0.0147240
831.694	0.0146657
831.772	0.0148042
831.850	0.0147244
831.928	0.0147517
832.006	0.0147785
832.084	0.0147645
832.163	0.0148215
832.241	0.0147611
832.319	0.0147746
832.397	0.0149714
832.475	0.0148993
832.553	0.0150243
832.631	0.0150562
832.709	0.0151010
832.788	0.0149879
832.866	0.0150427
832.944	0.0150682
833.022	0.0151208
833.100	0.0149613
833.178	0.0150693
833.256	0.0150537
833.334	0.0150864
833.413	0.0151400
833.491	0.0151134
833.569	0.0151961
833.647	0.0151511
833.725	0.0149712
833.803	0.0151764
833.881	0.0151192
833.959	0.0151193
834.038	0.0150475
834.116	0.0152069
834.194	0.0151788
834.272	0.0150429
834.350	0.0149850
834.428	0.0150685
834.506	0.0151255
834.584	0.0150713
834.663	0.0150919
834.741	0.0151012
834.819	0.0152542
834.897	0.0152421
834.975	0.0152520
835.053	0.0152422
835.131	0.0151772
835.209	0.0152940
835.288	0.0152842
835.366	0.0153643
835.444	0.0153239
835.522	0.0153764
835.600	0.0151730
835.678	0.0151279
835.756	0.0153265
835.834	0.0152563
835.913	0.0152265
835.991	0.0152712
836.069	0.0151331
836.147	0.0151352
836.225	0.0151127
836.303	0.0151154
836.381	0.0150822
836.459	0.0150358
836.538	0.0149533
836.616	0.0149493
836.694	0.0150038
836.772	0.0148389
836.850	0.0148813
836.928	0.0148389
837.006	0.0149094
837.084	0.0148586
837.163	0.0150185
837.241	0.0149324
837.319	0.0149519
837.397	0.0149132
837.475	0.0149839
837.553	0.0150829
837.631	0.0150797
837.709	0.0151403
837.788	0.0149139
837.866	0.0151146
837.944	0.0151441
838.022	0.0151881
838.100	0.0151237
838.178	0.0151895
838.256	0.0151237
838.334	0.0150503
838.413	0.0152023
838.491	0.0150992
838.569	0.0153137
838.647	0.0153391
838.725	0.0152743
838.803	0.0152681
838.881	0.0151441
838.959	0.0151906
839.038	0.0151714
839.116	0.0152837
839.194	0.0153506
839.272	0.0152429
839.350	0.0152071
839.428	0.0150813
839.506	0.0151434
839.584	0.0153650
839.663	0.0152695
839.741	0.0152546
839.819	0.0152455
839.897	0.0152657
839.975	0.0151400
840.053	0.0151455
840.131	0.0153753
840.209	0.0153144
840.288	0.0152735
840.366	0.0152448
840.444	0.0152235
840.522	0.0154379
840.600	0.0153217
840.678	0.0152101
840.756	0.0152630
840.834	0.0153254
840.913	0.0153101
840.991	0.0153674
841.069	0.0154556
841.147	0.0153700
841.225	0.0151444
841.303	0.0151917
841.381	0.0152036
841.459	0.0151857
841.538	0.0151435
841.616	0.0151067
841.694	0.0150986
841.772	0.0150301
841.850	0.0149797
841.928	0.0149891
842.006	0.0148258
842.084	0.0149232
842.163	0.0148997
842.241	0.0149933
842.319	0.0149426
842.397	0.0149970
842.475	0.0147946
842.553	0.0147466
842.631	0.0149030
842.709	0.0149914
842.788	0.0148506
842.866	0.0150376
842.944	0.0149566
843.022	0.0150526
843.100	0.0151472
843.178	0.0150140
843.256	0.0150284
843.334	0.0150811
843.413	0.0150600
843.491	0.0149567
843.569	0.0150195
843.647	0.0151729
843.725	0.0153250
843.803	0.0150884
843.881	0.0152016
843.959	0.0153157
844.038	0.0152623
844.116	0.0154543
844.194	0.0154156
844.272	0.0153512
844.350	0.0154551
844.428	0.0154790
844.506	0.0154537
844.584	0.0154388
844.663	0.0154667
844.741	0.0154572
844.819	0.0154630
844.897	0.0152407
844.975	0.0154279
845.053	0.0152576
845.131	0.0151768
845.209	0.0152650
845.288	0.0152518
845.366	0.0152016
845.444	0.0152489
845.522	0.0152350
845.600	0.0152135
845.678	0.0151786
845.756	0.0151296
845.834	0.0150828
845.913	0.0151549
845.991	0.0151593
846.069	0.0150368
846.147	0.0151778
846.225	0.0150915
846.303	0.0150512
846.381	0.0151665
846.459	0.0151662
846.538	0.0151806
846.616	0.0150037
846.694	0.0151081
846.772	0.0151543
846.850	0.0151405
846.928	0.0151797
847.006	0.0152312
847.084	0.0151379
847.163	0.0150019
847.241	0.0151498
847.319	0.0152029
847.397	0.0151046
847.475	0.0150800
847.553	0.0151364
847.631	0.0152420
847.709	0.0152173
847.788	0.0150916
847.866	0.0150981
847.944	0.0150974
848.022	0.0150095
848.100	0.0150202
848.178	0.0150548
848.256	0.0150954
848.334	0.0151555
848.413	0.0150558
848.491	0.0150124
848.569	0.0152374
848.647	0.0153383
848.725	0.0151996
848.803	0.0151664
848.881	0.0150761
848.959	0.0151079
849.038	0.0151402
849.116	0.0151268
849.194	0.0151615
849.272	0.0151477
849.350	0.0152277
849.428	0.0151148
849.506	0.0151547
849.584	0.0150831
849.663	0.0150749
849.741	0.0150611
849.819	0.0151096
849.897	0.0151231
849.975	0.0151266
850.053	0.0151894
850.131	0.0151729
850.209	0.0151025
850.288	0.0151018
850.366	0.0152032
850.444	0.0151781
850.522	0.0151685
850.600	0.0151269
850.678	0.0152018
850.756	0.0152047
850.834	0.0152423
850.913	0.0151342
850.991	0.0153166
851.069	0.0153014
851.147	0.0154289
851.225	0.0154530
851.303	0.0153202
851.381	0.0152638
851.459	0.0154360
851.538	0.0151891
851.616	0.0153316
851.694	0.0155111
851.772	0.0153873
851.850	0.0154108
851.928	0.0153125
852.006	0.0153143
852.084	0.0154755
852.163	0.0153934
852.241	0.0153379
852.319	0.0153623
852.397	0.0154079
852.475	0.0151589
852.553	0.0152399
852.631	0.0153148
852.709	0.0154140
852.788	0.0152811
852.866	0.0152528
852.944	0.0151308
853.022	0.0152174
853.100	0.0152544
853.178	0.0153338
853.256	0.0153413
853.334	0.0152274
853.413	0.0152751
853.491	0.0152247
853.569	0.0151932
853.647	0.0152151
853.725	0.0151610
853.803	0.0153247
853.881	0.0152598
853.959	0.0152162
854.038	0.0152299
854.116	0.0152406
854.194	0.0151952
854.272	0.0151903
854.350	0.0152062
854.428	0.0151347
854.506	0.0151582
854.584	0.0151377
854.663	0.0152818
854.741	0.0151493
854.819	0.0150568
854.897	0.0150582
854.975	0.0151480
855.053	0.0152034
855.131	0.0149760
855.209	0.0151337
855.288	0.0150961
855.366	0.0150941
855.444	0.0150462
855.522	0.0151116
855.600	0.0151694
855.678	0.0151820
855.756	0.0150464
855.834	0.0150686
855.913	0.0151454
855.991	0.0151427
856.069	0.0149831
856.147	0.0151629
856.225	0.0150026
856.303	0.0150723
856.381	0.0150790
856.459	0.0149960
856.538	0.0150533
856.616	0.0150860
856.694	0.0151090
856.772	0.0150092
856.850	0.0149060
856.928	0.0148007
857.006	0.0149478
857.084	0.0149576
857.163	0.0148264
857.241	0.0148481
857.319	0.0148342
857.397	0.0149004
857.475	0.0148850
857.553	0.0148053
857.631	0.0148729
857.709	0.0148963
857.788	0.0148901
857.866	0.0148055
857.944	0.0148849
858.022	0.0148180
858.100	0.0149275
858.178	0.0149256
858.256	0.0149426
858.334	0.0148734
858.413	0.0149114
858.491	0.0149602
858.569	0.0148324
858.647	0.0148719
858.725	0.0149802
858.803	0.0150623
858.881	0.0149984
858.959	0.0150856
859.038	0.0150065
859.116	0.0149998
859.194	0.0148172
859.272	0.0148822
859.350	0.0149610
859.428	0.0150217
859.506	0.0149520
859.584	0.0151068
859.663	0.0150482
859.741	0.0149745
859.819	0.0150304
859.897	0.0150837
859.975	0.0150232
860.053	0.0150713
860.131	0.0150793
860.209	0.0149172
860.288	0.0152291
860.366	0.0152115
860.444	0.0151393
860.522	0.0152106
860.600	0.0151683
860.678	0.0150894
860.756	0.0150713
860.834	0.0152996
860.913	0.0151449
860.991	0.0151994
861.069	0.0152525
861.147	0.0152371
861.225	0.0150979
861.303	0.0151207
861.381	0.0153442
861.459	0.0151447
861.538	0.0152366
861.616	0.0153850
861.694	0.0153798
861.772	0.0152552
861.850	0.0152212
861.928	0.0153327
862.006	0.0153667
862.084	0.0152450
862.163	0.0154213
862.241	0.0154073
862.319	0.0153442
862.397	0.0153378
862.475	0.0152258
862.553	0.0153343
862.631	0.0152928
862.709	0.0151979
862.788	0.0151172
862.866	0.0152861
862.944	0.0152782
863.022	0.0152423
863.100	0.0151148
863.178	0.0149893
863.256	0.0150414
863.334	0.0150298
863.413	0.0148679
863.491	0.0149525
863.569	0.0149828
863.647	0.0150114
863.725	0.0148253
863.803	0.0150442
863.881	0.0149492
863.959	0.0148042
864.038	0.0148431
864.116	0.0148685
864.194	0.0148485
864.272	0.0149323
864.350	0.0149809
864.428	0.0147845
864.506	0.0148746
864.584	0.0149534
864.663	0.0149308
864.741	0.0149819
864.819	0.0150570
864.897	0.0149776
864.975	0.0150758
865.053	0.0149192
865.131	0.0149889
865.209	0.0149275
865.288	0.0151162
865.366	0.0151070
865.444	0.0150832
865.522	0.0151296
865.600	0.0150662
865.678	0.0150147
865.756	0.0151646
865.834	0.0151252
865.913	0.0151482
865.991	0.0152592
866.069	0.0150833
866.147	0.0151040
866.225	0.0151423
866.303	0.0150491
866.381	0.0152052
866.459	0.0152171
866.538	0.0151524
866.616	0.0151366
866.694	0.0152099
866.772	0.0151414
866.850	0.0152583
866.928	0.0153048
867.006	0.0152271
867.084	0.0152136
867.163	0.0151281
867.241	0.0150233
867.319	0.0150806
867.397	0.0152023
867.475	0.0151555
867.553	0.0151286
867.631	0.0150706
867.709	0.0151001
867.788	0.0152077
867.866	0.0151208
867.944	0.0150558
868.022	0.0150714
868.100	0.0150976
868.178	0.0150800
868.256	0.0151850
868.334	0.0151270
868.413	0.0149719
868.491	0.0151022
868.569	0.0152550
868.647	0.0150455
868.725	0.0150841
868.803	0.0151099
868.881	0.0151691
868.959	0.0150462
869.038	0.0151245
869.116	0.0151554
869.194	0.0151279
869.272	0.0151621
869.350	0.0150719
869.428	0.0151160
869.506	0.0153712
869.584	0.0152512
869.663	0.0152337
869.741	0.0152240
869.819	0.0153300
869.897	0.0153888
869.975	0.0154355
870.053	0.0153149
870.131	0.0153344
870.209	0.0152985
870.288	0.0154319
870.366	0.0152828
870.444	0.0152999
870.522	0.0154268
870.600	0.0153216
870.678	0.0152570
870.756	0.0153197
870.834	0.0152700
870.913	0.0152886
870.991	0.0153539
871.069	0.0153641
871.147	0.0152311
871.225	0.0152985
871.303	0.0152888
871.381	0.0153535
871.459	0.0152727
871.538	0.0152636
871.616	0.0153664
871.694	0.0153365
871.772	0.0152293
871.850	0.0151939
871.928	0.0153436
872.006	0.0153149
872.084	0.0153488
872.163	0.0154254
872.241	0.0152517
872.319	0.0152029
872.397	0.0152644
872.475	0.0151901
872.553	0.0150778
872.631	0.0152919
872.709	0.0153059
872.788	0.0151827
872.866	0.0152451
872.944	0.0152006
873.022	0.0151660
873.100	0.0153029
873.178	0.0151582
873.256	0.0152802
873.334	0.0150630
873.413	0.0151135
873.491	0.0152637
873.569	0.0151178
873.647	0.0150819
873.725	0.0150819
873.803	0.0152373
873.881	0.0152953
873.959	0.0151493
874.038	0.0149722
874.116	0.0153132
874.194	0.0153053
874.272	0.0151408
874.350	0.0151752
874.428	0.0152521
874.506	0.0151334
874.584	0.0152146
874.663	0.0151921
874.741	0.0151983
874.819	0.0151812
874.897	0.0152308
874.975	0.0151416
875.053	0.0151835
875.131	0.0151550
875.209	0.0151745
875.288	0.0151811
875.366	0.0153204
875.444	0.0152238
875.522	0.0153172
875.600	0.0152016
875.678	0.0153101
875.756	0.0153939
875.834	0.0153059
875.913	0.0154134
875.991	0.0151851
876.069	0.0153619
876.147	0.0153127
876.225	0.0153841
876.303	0.0152873
876.381	0.0152503
876.459	0.0152853
876.538	0.0153891
876.616	0.0152466
876.694	0.0153435
876.772	0.0153532
876.850	0.0152296
876.928	0.0153071
877.006	0.0150905
877.084	0.0150908
877.163	0.0152645
877.241	0.0152190
877.319	0.0151905
877.397	0.0152482
877.475	0.0150957
877.553	0.0151987
877.631	0.0151172
877.709	0.0150332
877.788	0.0151859
877.866	0.0150485
877.944	0.0150858
878.022	0.0150814
878.100	0.0150031
878.178	0.0150325
878.256	0.0150294
878.334	0.0149812
878.413	0.0149854
878.491	0.0151041
878.569	0.0149750
878.647	0.0151457
878.725	0.0152630
878.803	0.0151280
878.881	0.0151541
878.959	0.0151059
879.038	0.0151760
879.116	0.0152117
879.194	0.0151971
879.272	0.0150541
879.350	0.0150410
879.428	0.0150314
879.506	0.0150719
879.584	0.0151109
879.663	0.0150706
879.741	0.0151974
879.819	0.0151362
879.897	0.0152067
879.975	0.0150605
880.053	0.0150517
880.131	0.0151279
880.209	0.0150302
880.288	0.0150117
880.366	0.0150723
880.444	0.0149870
880.522	0.0151748
880.600	0.0151008
880.678	0.0150054
880.756	0.0150777
880.834	0.0150447
880.913	0.0150825
880.991	0.0151379
881.069	0.0151071
881.147	0.0150744
881.225	0.0150714
881.303	0.0152544
881.381	0.0151617
881.459	0.0151767
881.538	0.0152506
881.616	0.0153066
881.694	0.0152127
881.772	0.0151761
881.850	0.0152244
881.928	0.0152797
882.006	0.0152033
882.084	0.0151505
882.163	0.0150449
882.241	0.0151334
882.319	0.0151987
882.397	0.0152180
882.475	0.0150732
882.553	0.0152276
882.631	0.0151429
882.709	0.0150902
882.788	0.0151260
882.866	0.0151341
882.944	0.0151423
883.022	0.0151910
883.100	0.0150793
883.178	0.0151028
883.256	0.0151593
883.334	0.0151379
883.413	0.0149584
883.491	0.0150457
883.569	0.0151075
883.647	0.0149432
883.725	0.0150362
883.803	0.0149464
883.881	0.0150751
883.959	0.0149590
884.038	0.0149756
884.116	0.0149800
884.194	0.0152466
884.272	0.0151480
884.350	0.0150845
884.428	0.0152045
884.506	0.0151797
884.584	0.0151578
884.663	0.0150519
884.741	0.0151630
884.819	0.0150614
884.897	0.0151810
884.975	0.0151986
885.053	0.0151742
885.131	0.0150686
885.209	0.0150568
885.288	0.0150558
885.366	0.0151364
885.444	0.0150800
885.522	0.0151571
885.600	0.0151036
885.678	0.0150681
885.756	0.0149545
885.834	0.0150952
885.913	0.0150016
885.991	0.0149026
886.069	0.0148322
886.147	0.0148876
886.225	0.0148873
886.303	0.0149049
886.381	0.0149705
886.459	0.0149892
886.538	0.0148708
886.616	0.0148753
886.694	0.0151891
886.772	0.0150058
886.850	0.0149953
886.928	0.0149812
887.006	0.0151954
887.084	0.0150169
887.163	0.0149123
887.241	0.0150534
887.319	0.0150321
887.397	0.0149212
887.475	0.0149435
887.553	0.0149879
887.631	0.0150005
887.709	0.0150654
887.788	0.0149762
887.866	0.0150537
887.944	0.0150144
888.022	0.0150732
888.100	0.0151161
888.178	0.0150919
888.256	0.0151499
888.334	0.0152281
888.413	0.0151324
888.491	0.0150328
888.569	0.0151325
888.647	0.0152246
888.725	0.0152035
888.803	0.0151246
888.881	0.0152005
888.959	0.0153463
889.038	0.0150503
889.116	0.0151341
889.194	0.0151936
889.272	0.0149847
889.350	0.0151557
889.428	0.0151895
889.506	0.0151432
889.584	0.0149477
889.663	0.0150113
889.741	0.0150813
889.819	0.0150191
889.897	0.0150002
889.975	0.0148720
890.053	0.0148604
890.131	0.0149276
890.209	0.0151072
890.288	0.0149816
890.366	0.0148522
890.444	0.0149422
890.522	0.0149726
890.600	0.0148748
890.678	0.0149579
890.756	0.0148711
890.834	0.0149982
890.913	0.0148898
890.991	0.0149927
891.069	0.0150184
891.147	0.0150961
891.225	0.0150787
891.303	0.0150413
891.381	0.0151025
891.459	0.0150673
891.538	0.0152130
891.616	0.0151578
891.694	0.0150625
891.772	0.0150954
891.850	0.0151565
891.928	0.0150953
892.006	0.0152290
892.084	0.0153040
892.163	0.0152683
892.241	0.0153521
892.319	0.0150979
892.397	0.0153304
892.475	0.0152179
892.553	0.0153133
892.631	0.0152450
892.709	0.0153259
892.788	0.0152492
892.866	0.0151764
892.944	0.0152417
893.022	0.0155103
893.100	0.0154086
893.178	0.0151531
893.256	0.0153367
893.334	0.0153823
893.413	0.0154516
893.491	0.0153429
893.569	0.0154075
893.647	0.0153754
893.725	0.0152094
893.803	0.0152671
893.881	0.0153565
893.959	0.0152264
894.038	0.0155025
894.116	0.0153873
894.194	0.0153963
894.272	0.0152702
894.350	0.0154399
894.428	0.0152829
894.506	0.0151958
894.584	0.0153557
894.663	0.0152641
894.741	0.0153327
894.819	0.0155285
894.897	0.0153163
894.975	0.0152934
895.053	0.0152412
895.131	0.0154094
895.209	0.0153660
895.288	0.0154015
895.366	0.0153406
895.444	0.0153204
895.522	0.0154704
895.600	0.0154902
895.678	0.0152657
895.756	0.0153633
895.834	0.0153700
895.913	0.0152570
895.991	0.0152935
896.069	0.0153053
896.147	0.0153062
896.225	0.0153377
896.303	0.0152872
896.381	0.0152959
896.459	0.0154812
896.538	0.0152113
896.616	0.0151824
896.694	0.0152708
896.772	0.0153016
896.850	0.0151572
896.928	0.0152748
897.006	0.0152161
897.084	0.0152472
897.163	0.0152251
897.241	0.0151745
897.319	0.0152353
897.397	0.0152235
897.475	0.0154147
897.553	0.0150874
897.631	0.0152254
897.709	0.0151141
897.788	0.0153004
897.866	0.0153539
897.944	0.0151509
898.022	0.0150967
898.100	0.0150949
898.178	0.0151852
898.256	0.0149783
898.334	0.0151483
898.413	0.0152080
898.491	0.0150873
898.569	0.0150925
898.647	0.0151183
898.725	0.0152215
898.803	0.0150316
898.881	0.0151117
898.959	0.0151622
899.038	0.0151312
899.116	0.0151309
899.194	0.0152049
899.272	0.0151468
899.350	0.0151471
899.428	0.0152671
899.506	0.0151845
899.584	0.0151916
899.663	0.0151283
899.741	0.0152763
899.819	0.0153133
899.897	0.0150809
899.975	0.0151160
900.053	0.0151558
900.131	0.0150837
900.209	0.0151287
900.288	0.0150649
900.366	0.0151929
900.444	0.0151533
900.522	0.0150610
900.600	0.0150755
900.678	0.0151778
900.756	0.0150239
900.834	0.0149567
900.913	0.0151181
900.991	0.0152363
901.069	0.0150513
901.147	0.0151469
901.225	0.0150694
901.303	0.0151247
901.381	0.0151747
901.459	0.0151649
901.538	0.0151569
901.616	0.0152947
901.694	0.0151273
901.772	0.0152164
901.850	0.0152479
901.928	0.0152592
902.006	0.0152110
902.084	0.0152399
902.163	0.0152647
902.241	0.0152592
902.319	0.0153741
902.397	0.0154565
902.475	0.0152478
902.553	0.0152758
902.631	0.0153229
902.709	0.0152268
902.788	0.0152834
902.866	0.0153283
902.944	0.0152163
903.022	0.0151300
903.100	0.0151602
903.178	0.0151495
903.256	0.0152921
903.334	0.0152664
903.413	0.0151563
903.491	0.0152206
903.569	0.0151816
903.647	0.0151920
903.725	0.0150272
903.803	0.0150979
903.881	0.0150271
903.959	0.0150284
904.038	0.0150069
904.116	0.0150179
904.194	0.0152048
904.272	0.0151809
904.350	0.0150371
904.428	0.0151548
904.506	0.0150388
904.584	0.0150159
904.663	0.0151354
904.741	0.0152539
904.819	0.0152434
904.897	0.0151153
904.975	0.0152650
905.053	0.0152774
905.131	0.0152207
905.209	0.0152208
905.288	0.0151463
905.366	0.0151962
905.444	0.0150270
905.522	0.0151717
905.600	0.0152232
905.678	0.0151637
905.756	0.0151751
905.834	0.0152443
905.913	0.0153119
905.991	0.0151754
906.069	0.0153331
906.147	0.0150962
906.225	0.0150450
906.303	0.0152248
906.381	0.0151537
906.459	0.0150536
906.538	0.0150763
906.616	0.0150282
906.694	0.0151077
906.772	0.0150956
906.850	0.0150287
906.928	0.0150108
907.006	0.0150143
907.084	0.0149654
907.163	0.0150972
907.241	0.0151125
907.319	0.0150544
907.397	0.0151395
907.475	0.0150332
907.553	0.0150313
907.631	0.0149870
907.709	0.0151078
907.788	0.0150013
907.866	0.0149932
907.944	0.0149712
908.022	0.0151289
908.100	0.0150432
908.178	0.0150488
908.256	0.0151174
908.334	0.0152333
908.413	0.0152108
908.491	0.0150330
908.569	0.0151857
908.647	0.0152415
908.725	0.0152029
908.803	0.0152732
908.881	0.0151971
908.959	0.0150716
909.038	0.0151455
909.116	0.0152125
909.194	0.0151654
909.272	0.0152968
909.350	0.0152567
909.428	0.0152096
909.506	0.0150706
909.584	0.0151290
909.663	0.0151584
909.741	0.0151152
909.819	0.0150564
909.897	0.0150932
909.975	0.0151359
910.053	0.0151276
910.131	0.0150754
910.209	0.0151768
910.288	0.0151624
910.366	0.0150336
910.444	0.0150405
910.522	0.0150565
910.600	0.0149638
910.678	0.0150375
910.756	0.0151005
910.834	0.0149095
910.913	0.0150308
910.991	0.0151034
911.069	0.0150443
911.147	0.0150014
911.225	0.0150798
911.303	0.0149966
911.381	0.0150150
911.459	0.0150186
911.538	0.0151410
911.616	0.0151356
911.694	0.0151040
911.772	0.0150092
911.850	0.0149612
911.928	0.0150333
912.006	0.0150811
912.084	0.0151133
912.163	0.0150949
912.241	0.0151765
912.319	0.0151352
912.397	0.0152560
912.475	0.0152242
912.553	0.0151470
912.631	0.0151666
912.709	0.0152113
912.788	0.0151152
912.866	0.0151688
912.944	0.0151729
913.022	0.0150039
913.100	0.0152275
913.178	0.0151127
913.256	0.0151426
913.334	0.0151563
913.413	0.0151618
913.491	0.0150635
913.569	0.0152306
913.647	0.0152284
913.725	0.0151617
913.803	0.0151620
913.881	0.0152161
913.959	0.0153505
914.038	0.0152783
914.116	0.0152995
914.194	0.0152999
914.272	0.0153134
914.350	0.0152254
914.428	0.0152957
914.506	0.0153539
914.584	0.0153634
914.663	0.0153138
914.741	0.0153343
914.819	0.0153522
914.897	0.0152148
914.975	0.0153061
915.053	0.0152827
915.131	0.0154633
915.209	0.0153672
915.288	0.0152422
915.366	0.0151749
915.444	0.0152980
915.522	0.0152647
915.600	0.0151546
915.678	0.0151572
915.756	0.0150343
915.834	0.0151624
915.913	0.0151324
915.991	0.0152085
916.069	0.0151052
916.147	0.0151627
916.225	0.0150455
916.303	0.0150541
916.381	0.0151736
916.459	0.0150682
916.538	0.0151342
916.616	0.0151110
916.694	0.0150278
916.772	0.0149950
916.850	0.0149117
916.928	0.0150474
917.006	0.0150827
917.084	0.0151226
917.163	0.0150556
917.241	0.0150252
917.319	0.0148642
917.397	0.0149229
917.475	0.0150645
917.553	0.0150045
917.631	0.0151199
917.709	0.0150249
917.788	0.0150761
917.866	0.0151331
917.944	0.0150497
918.022	0.0149678
918.100	0.0150719
918.178	0.0151917
918.256	0.0151776
918.334	0.0150702
918.413	0.0150812
918.491	0.0150914
918.569	0.0150301
918.647	0.0151749
918.725	0.0151718
918.803	0.0150448
918.881	0.0150995
918.959	0.0150004
919.038	0.0150599
919.116	0.0150657
919.194	0.0150844
919.272	0.0150053
919.350	0.0150158
919.428	0.0150746
919.506	0.0149827
919.584	0.0150138
919.663	0.0151265
919.741	0.0150623
919.819	0.0150552
919.897	0.0151463
