05/20/2022	21:19:24	Ver.	4.1	UNKNOWN
Optical Delay	599.975067	Delta X		0.078125	Sweeps	1	Scan Rate	0/0
Coordinates	Axis 1	NaN	Axis 2	NaN	Axis 3	NaN	Axis 4	NaN	Axis 5	NaN	Axis 6	0.000000
TX Power	0.000000	RX Power	0.000000

599.975	0.0152792
600.053	0.0153449
600.131	0.0153178
600.209	0.0152627
600.288	0.0152656
600.366	0.0153273
600.444	0.0153395
600.522	0.0151797
600.600	0.0153831
600.678	0.0152977
600.756	0.0153203
600.834	0.0152508
600.913	0.0152980
600.991	0.0153699
601.069	0.0152577
601.147	0.0151790
601.225	0.0154008
601.303	0.0153134
601.381	0.0152209
601.459	0.0153953
601.538	0.0153559
601.616	0.0152354
601.694	0.0153749
601.772	0.0152653
601.850	0.0153606
601.928	0.0153809
602.006	0.0153906
602.084	0.0152995
602.163	0.0153555
602.241	0.0154015
602.319	0.0154466
602.397	0.0153855
602.475	0.0153656
602.553	0.0153813
602.631	0.0154548
602.709	0.0155357
602.788	0.0154881
602.866	0.0153979
602.944	0.0154127
603.022	0.0154520
603.100	0.0153909
603.178	0.0155103
603.256	0.0154169
603.334	0.0154255
603.413	0.0154252
603.491	0.0154254
603.569	0.0154049
603.647	0.0153490
603.725	0.0154960
603.803	0.0155448
603.881	0.0154975
603.959	0.0154450
604.038	0.0154389
604.116	0.0152930
604.194	0.0152443
604.272	0.0153859
604.350	0.0153746
604.428	0.0153303
604.506	0.0153632
604.584	0.0154721
604.663	0.0155008
604.741	0.0154216
604.819	0.0153656
604.897	0.0153542
604.975	0.0153884
605.053	0.0154569
605.131	0.0154411
605.209	0.0154335
605.288	0.0154444
605.366	0.0153965
605.444	0.0153784
605.522	0.0154222
605.600	0.0153954
605.678	0.0154329
605.756	0.0153547
605.834	0.0154870
605.913	0.0153947
605.991	0.0154840
606.069	0.0154199
606.147	0.0153776
606.225	0.0153494
606.303	0.0155403
606.381	0.0153191
606.459	0.0153087
606.538	0.0153555
606.616	0.0156623
606.694	0.0154381
606.772	0.0153908
606.850	0.0154930
606.928	0.0154360
607.006	0.0153999
607.084	0.0152995
607.163	0.0152618
607.241	0.0154706
607.319	0.0154777
607.397	0.0153204
607.475	0.0153468
607.553	0.0152666
607.631	0.0152811
607.709	0.0154341
607.788	0.0154021
607.866	0.0154282
607.944	0.0154223
608.022	0.0153806
608.100	0.0152348
608.178	0.0154893
608.256	0.0153094
608.334	0.0153931
608.413	0.0151959
608.491	0.0151967
608.569	0.0153777
608.647	0.0152862
608.725	0.0152053
608.803	0.0151337
608.881	0.0153681
608.959	0.0153422
609.038	0.0153136
609.116	0.0152594
609.194	0.0153059
609.272	0.0151532
609.350	0.0151418
609.428	0.0152258
609.506	0.0152620
609.584	0.0151730
609.663	0.0152715
609.741	0.0152936
609.819	0.0152332
609.897	0.0152793
609.975	0.0151053
610.053	0.0153394
610.131	0.0153699
610.209	0.0153378
610.288	0.0151591
610.366	0.0152990
610.444	0.0153936
610.522	0.0153720
610.600	0.0152607
610.678	0.0153556
610.756	0.0152856
610.834	0.0151102
610.913	0.0153111
610.991	0.0153798
611.069	0.0152645
611.147	0.0152606
611.225	0.0154676
611.303	0.0152544
611.381	0.0153530
611.459	0.0152408
611.538	0.0151344
611.616	0.0153107
611.694	0.0154340
611.772	0.0152568
611.850	0.0152239
611.928	0.0153416
612.006	0.0153123
612.084	0.0152457
612.163	0.0152875
612.241	0.0153622
612.319	0.0153799
612.397	0.0152216
612.475	0.0150755
612.553	0.0151471
612.631	0.0152242
612.709	0.0151222
612.788	0.0152610
612.866	0.0152843
612.944	0.0151740
613.022	0.0151060
613.100	0.0151609
613.178	0.0151771
613.256	0.0151827
613.334	0.0152116
613.413	0.0152229
613.491	0.0151218
613.569	0.0151569
613.647	0.0152376
613.725	0.0152933
613.803	0.0153287
613.881	0.0152493
613.959	0.0151514
614.038	0.0150925
614.116	0.0151736
614.194	0.0152339
614.272	0.0151585
614.350	0.0151332
614.428	0.0152213
614.506	0.0152664
614.584	0.0151852
614.663	0.0151730
614.741	0.0150946
614.819	0.0151537
614.897	0.0152115
614.975	0.0151712
615.053	0.0151298
615.131	0.0150283
615.209	0.0152621
615.288	0.0152129
615.366	0.0150753
615.444	0.0151837
615.522	0.0151179
615.600	0.0151165
615.678	0.0151064
615.756	0.0151548
615.834	0.0152409
615.913	0.0152285
615.991	0.0151528
616.069	0.0151793
616.147	0.0153352
616.225	0.0153358
616.303	0.0151926
616.381	0.0153313
616.459	0.0152283
616.538	0.0151711
616.616	0.0154207
616.694	0.0151832
616.772	0.0153028
616.850	0.0153854
616.928	0.0153869
617.006	0.0151565
617.084	0.0154373
617.163	0.0154884
617.241	0.0154236
617.319	0.0152896
617.397	0.0153867
617.475	0.0153565
617.553	0.0154320
617.631	0.0152362
617.709	0.0154668
617.788	0.0153648
617.866	0.0153551
617.944	0.0154932
618.022	0.0153798
618.100	0.0153512
618.178	0.0152976
618.256	0.0154179
618.334	0.0153469
618.413	0.0153190
618.491	0.0153136
618.569	0.0153395
618.647	0.0153016
618.725	0.0152288
618.803	0.0152197
618.881	0.0152510
618.959	0.0152911
619.038	0.0151794
619.116	0.0152225
619.194	0.0153195
619.272	0.0152740
619.350	0.0151025
619.428	0.0152227
619.506	0.0152009
619.584	0.0152417
619.663	0.0153764
619.741	0.0151989
619.819	0.0150801
619.897	0.0151686
619.975	0.0151049
620.053	0.0151076
620.131	0.0152351
620.209	0.0152515
620.288	0.0151967
620.366	0.0152131
620.444	0.0152289
620.522	0.0152174
620.600	0.0152338
620.678	0.0152487
620.756	0.0152422
620.834	0.0152655
620.913	0.0153048
620.991	0.0152133
621.069	0.0152437
621.147	0.0152681
621.225	0.0152760
621.303	0.0151335
621.381	0.0152919
621.459	0.0153445
621.538	0.0152980
621.616	0.0154398
621.694	0.0152011
621.772	0.0152162
621.850	0.0153528
621.928	0.0154029
622.006	0.0153913
622.084	0.0153088
622.163	0.0154050
622.241	0.0154481
622.319	0.0154404
622.397	0.0154043
622.475	0.0154298
622.553	0.0154736
622.631	0.0154887
622.709	0.0153557
622.788	0.0154178
622.866	0.0153883
622.944	0.0154885
623.022	0.0154514
623.100	0.0155441
623.178	0.0154867
623.256	0.0155485
623.334	0.0153569
623.413	0.0155722
623.491	0.0155203
623.569	0.0156871
623.647	0.0155714
623.725	0.0153571
623.803	0.0156640
623.881	0.0155157
623.959	0.0155404
624.038	0.0156689
624.116	0.0154558
624.194	0.0154233
624.272	0.0154878
624.350	0.0154646
624.428	0.0154630
624.506	0.0153881
624.584	0.0154600
624.663	0.0155229
624.741	0.0155925
624.819	0.0153816
624.897	0.0154838
624.975	0.0156651
625.053	0.0154288
625.131	0.0155862
625.209	0.0155097
625.288	0.0155988
625.366	0.0156921
625.444	0.0156739
625.522	0.0155828
625.600	0.0155456
625.678	0.0155151
625.756	0.0155068
625.834	0.0156733
625.913	0.0156627
625.991	0.0155836
626.069	0.0153926
626.147	0.0155949
626.225	0.0154939
626.303	0.0153639
626.381	0.0153716
626.459	0.0154224
626.538	0.0152932
626.616	0.0152576
626.694	0.0151789
626.772	0.0151504
626.850	0.0152042
626.928	0.0150735
627.006	0.0152838
627.084	0.0152107
627.163	0.0151309
627.241	0.0152238
627.319	0.0151820
627.397	0.0152682
627.475	0.0152896
627.553	0.0153706
627.631	0.0154142
627.709	0.0153252
627.788	0.0152925
627.866	0.0154112
627.944	0.0152895
628.022	0.0153892
628.100	0.0154980
628.178	0.0154828
628.256	0.0154571
628.334	0.0155297
628.413	0.0155190
628.491	0.0153680
628.569	0.0154715
628.647	0.0152869
628.725	0.0153877
628.803	0.0154073
628.881	0.0153945
628.959	0.0152396
629.038	0.0153037
629.116	0.0153401
629.194	0.0153459
629.272	0.0153608
629.350	0.0155281
629.428	0.0153728
629.506	0.0154446
629.584	0.0152306
629.663	0.0152609
629.741	0.0154320
629.819	0.0153899
629.897	0.0152796
629.975	0.0153899
630.053	0.0152820
630.131	0.0154240
630.209	0.0152379
630.288	0.0152883
630.366	0.0153683
630.444	0.0154251
630.522	0.0153352
630.600	0.0153834
630.678	0.0154556
630.756	0.0154732
630.834	0.0154120
630.913	0.0153024
630.991	0.0153230
631.069	0.0153610
631.147	0.0153253
631.225	0.0151515
631.303	0.0153372
631.381	0.0153815
631.459	0.0152459
631.538	0.0152499
631.616	0.0151791
631.694	0.0151366
631.772	0.0151823
631.850	0.0151321
631.928	0.0151169
632.006	0.0151075
632.084	0.0150905
632.163	0.0150998
632.241	0.0149910
632.319	0.0150800
632.397	0.0150038
632.475	0.0150418
632.553	0.0151295
632.631	0.0151280
632.709	0.0149373
632.788	0.0151376
632.866	0.0150962
632.944	0.0150858
633.022	0.0152917
633.100	0.0151501
633.178	0.0150095
633.256	0.0151163
633.334	0.0150610
633.413	0.0151328
633.491	0.0150543
633.569	0.0149799
633.647	0.0151323
633.725	0.0151122
633.803	0.0151243
633.881	0.0152093
633.959	0.0152718
634.038	0.0152290
634.116	0.0150936
634.194	0.0150103
634.272	0.0151582
634.350	0.0151865
634.428	0.0152390
634.506	0.0151517
634.584	0.0151628
634.663	0.0152869
634.741	0.0150671
634.819	0.0150903
634.897	0.0153057
634.975	0.0153282
635.053	0.0152276
635.131	0.0151433
635.209	0.0152646
635.288	0.0154598
635.366	0.0152567
635.444	0.0152725
635.522	0.0153526
635.600	0.0153127
635.678	0.0154316
635.756	0.0153304
635.834	0.0153069
635.913	0.0153305
635.991	0.0154263
636.069	0.0153531
636.147	0.0154250
636.225	0.0153528
636.303	0.0153398
636.381	0.0153799
636.459	0.0153545
636.538	0.0153799
636.616	0.0154162
636.694	0.0153874
636.772	0.0153252
636.850	0.0152699
636.928	0.0151913
637.006	0.0152972
637.084	0.0153163
637.163	0.0153601
637.241	0.0152518
637.319	0.0152478
637.397	0.0153334
637.475	0.0151701
637.553	0.0154172
637.631	0.0154012
637.709	0.0152288
637.788	0.0153407
637.866	0.0153667
637.944	0.0152842
638.022	0.0153862
638.100	0.0153855
638.178	0.0153854
638.256	0.0152629
638.334	0.0152098
638.413	0.0153385
638.491	0.0152892
638.569	0.0153267
638.647	0.0153426
638.725	0.0154384
638.803	0.0153551
638.881	0.0152535
638.959	0.0154254
639.038	0.0152045
639.116	0.0152876
639.194	0.0152186
639.272	0.0152477
639.350	0.0153413
639.428	0.0154408
639.506	0.0152180
639.584	0.0152614
639.663	0.0152720
639.741	0.0152860
639.819	0.0151619
639.897	0.0153472
639.975	0.0152840
640.053	0.0150890
640.131	0.0153573
640.209	0.0153550
640.288	0.0152688
640.366	0.0151713
640.444	0.0152187
640.522	0.0152734
640.600	0.0151861
640.678	0.0153235
640.756	0.0152264
640.834	0.0152293
640.913	0.0152228
640.991	0.0151950
641.069	0.0152165
641.147	0.0153692
641.225	0.0151353
641.303	0.0151808
641.381	0.0152415
641.459	0.0152412
641.538	0.0153462
641.616	0.0153144
641.694	0.0152886
641.772	0.0152454
641.850	0.0152699
641.928	0.0152900
642.006	0.0153481
642.084	0.0152860
642.163	0.0153435
642.241	0.0154614
642.319	0.0152502
642.397	0.0153101
642.475	0.0154241
642.553	0.0154786
642.631	0.0152682
642.709	0.0153804
642.788	0.0153261
642.866	0.0152499
642.944	0.0154459
643.022	0.0152704
643.100	0.0152800
643.178	0.0153194
643.256	0.0153469
643.334	0.0153558
643.413	0.0154755
643.491	0.0154216
643.569	0.0155054
643.647	0.0153313
643.725	0.0153627
643.803	0.0153443
643.881	0.0154073
643.959	0.0153128
644.038	0.0154441
644.116	0.0152216
644.194	0.0153123
644.272	0.0153956
644.350	0.0153531
644.428	0.0153604
644.506	0.0153643
644.584	0.0152348
644.663	0.0153024
644.741	0.0153776
644.819	0.0153714
644.897	0.0154163
644.975	0.0152409
645.053	0.0152743
645.131	0.0153360
645.209	0.0153992
645.288	0.0152831
645.366	0.0152463
645.444	0.0153821
645.522	0.0154120
645.600	0.0153545
645.678	0.0153425
645.756	0.0153582
645.834	0.0153750
645.913	0.0153947
645.991	0.0154344
646.069	0.0153624
646.147	0.0154236
646.225	0.0153699
646.303	0.0154409
646.381	0.0153226
646.459	0.0154861
646.538	0.0153226
646.616	0.0154008
646.694	0.0155650
646.772	0.0154800
646.850	0.0155325
646.928	0.0153602
647.006	0.0154306
647.084	0.0153038
647.163	0.0153696
647.241	0.0153641
647.319	0.0153626
647.397	0.0154353
647.475	0.0154178
647.553	0.0153297
647.631	0.0152740
647.709	0.0154108
647.788	0.0153572
647.866	0.0153231
647.944	0.0153141
648.022	0.0152122
648.100	0.0152861
648.178	0.0152100
648.256	0.0152875
648.334	0.0152380
648.413	0.0154518
648.491	0.0152316
648.569	0.0153970
648.647	0.0153266
648.725	0.0151791
648.803	0.0152556
648.881	0.0153090
648.959	0.0151765
649.038	0.0152565
649.116	0.0152215
649.194	0.0152080
649.272	0.0152785
649.350	0.0153482
649.428	0.0154098
649.506	0.0153018
649.584	0.0153757
649.663	0.0154085
649.741	0.0153000
649.819	0.0153007
649.897	0.0154426
649.975	0.0154275
650.053	0.0153884
650.131	0.0154827
650.209	0.0153626
650.288	0.0153677
650.366	0.0154146
650.444	0.0154015
650.522	0.0154676
650.600	0.0153595
650.678	0.0154313
650.756	0.0154758
650.834	0.0153981
650.913	0.0153740
650.991	0.0153521
651.069	0.0153539
651.147	0.0153381
651.225	0.0154980
651.303	0.0153847
651.381	0.0155064
651.459	0.0153555
651.538	0.0153531
651.616	0.0153843
651.694	0.0154018
651.772	0.0153956
651.850	0.0154197
651.928	0.0154375
652.006	0.0155208
652.084	0.0153878
652.163	0.0155618
652.241	0.0156145
652.319	0.0156684
652.397	0.0155292
652.475	0.0155395
652.553	0.0156738
652.631	0.0154986
652.709	0.0155907
652.788	0.0156082
652.866	0.0155267
652.944	0.0154660
653.022	0.0155034
653.100	0.0154964
653.178	0.0154977
653.256	0.0154021
653.334	0.0154387
653.413	0.0154614
653.491	0.0153750
653.569	0.0153204
653.647	0.0154053
653.725	0.0154186
653.803	0.0152757
653.881	0.0154565
653.959	0.0154497
654.038	0.0153003
654.116	0.0153761
654.194	0.0153836
654.272	0.0152834
654.350	0.0153556
654.428	0.0154667
654.506	0.0152088
654.584	0.0152692
654.663	0.0152885
654.741	0.0152538
654.819	0.0153559
654.897	0.0153111
654.975	0.0152886
655.053	0.0153077
655.131	0.0152737
655.209	0.0152344
655.288	0.0152805
655.366	0.0152394
655.444	0.0152834
655.522	0.0152676
655.600	0.0153699
655.678	0.0152618
655.756	0.0152709
655.834	0.0153064
655.913	0.0153392
655.991	0.0154059
656.069	0.0153111
656.147	0.0153339
656.225	0.0153349
656.303	0.0152309
656.381	0.0153481
656.459	0.0153999
656.538	0.0154117
656.616	0.0154227
656.694	0.0153615
656.772	0.0152916
656.850	0.0155183
656.928	0.0153514
657.006	0.0152554
657.084	0.0153945
657.163	0.0154248
657.241	0.0153210
657.319	0.0153674
657.397	0.0153926
657.475	0.0154101
657.553	0.0154185
657.631	0.0153755
657.709	0.0153884
657.788	0.0153245
657.866	0.0154791
657.944	0.0155683
658.022	0.0153685
658.100	0.0155305
658.178	0.0154137
658.256	0.0155484
658.334	0.0153613
658.413	0.0156246
658.491	0.0156019
658.569	0.0155664
658.647	0.0154096
658.725	0.0154214
658.803	0.0154592
658.881	0.0155919
658.959	0.0155365
659.038	0.0153745
659.116	0.0153619
659.194	0.0154745
659.272	0.0153645
659.350	0.0152741
659.428	0.0154586
659.506	0.0155122
659.584	0.0153342
659.663	0.0152538
659.741	0.0152524
659.819	0.0154499
659.897	0.0154573
659.975	0.0154078
660.053	0.0154031
660.131	0.0153757
660.209	0.0153185
660.288	0.0153348
660.366	0.0153810
660.444	0.0154072
660.522	0.0154769
660.600	0.0153292
660.678	0.0153145
660.756	0.0151772
660.834	0.0153963
660.913	0.0152745
660.991	0.0152702
661.069	0.0151825
661.147	0.0152748
661.225	0.0152309
661.303	0.0152962
661.381	0.0152654
661.459	0.0149959
661.538	0.0149365
661.616	0.0152225
661.694	0.0152557
661.772	0.0152831
661.850	0.0151988
661.928	0.0152953
662.006	0.0152515
662.084	0.0153656
662.163	0.0154130
662.241	0.0152740
662.319	0.0153896
662.397	0.0154655
662.475	0.0153218
662.553	0.0153849
662.631	0.0153403
662.709	0.0152309
662.788	0.0153149
662.866	0.0153688
662.944	0.0153860
663.022	0.0153468
663.100	0.0151852
663.178	0.0151600
663.256	0.0153566
663.334	0.0153043
663.413	0.0151715
663.491	0.0152566
663.569	0.0153242
663.647	0.0153927
663.725	0.0153855
663.803	0.0153518
663.881	0.0153561
663.959	0.0153832
664.038	0.0154678
664.116	0.0154787
664.194	0.0154513
664.272	0.0153038
664.350	0.0155128
664.428	0.0153635
664.506	0.0152194
664.584	0.0153716
664.663	0.0151746
664.741	0.0152577
664.819	0.0151311
664.897	0.0150957
664.975	0.0151812
665.053	0.0151004
665.131	0.0150105
665.209	0.0149969
665.288	0.0152647
665.366	0.0151356
665.444	0.0150639
665.522	0.0149944
665.600	0.0151197
665.678	0.0150156
665.756	0.0152802
665.834	0.0151508
665.913	0.0151969
665.991	0.0153491
666.069	0.0152787
666.147	0.0154081
666.225	0.0154785
666.303	0.0153923
666.381	0.0155240
666.459	0.0155206
666.538	0.0155730
666.616	0.0156205
666.694	0.0156224
666.772	0.0155246
666.850	0.0156170
666.928	0.0156956
667.006	0.0157127
667.084	0.0156129
667.163	0.0156551
667.241	0.0156313
667.319	0.0154700
667.397	0.0155119
667.475	0.0154872
667.553	0.0154257
667.631	0.0153246
667.709	0.0153497
667.788	0.0152985
667.866	0.0151866
667.944	0.0151153
668.022	0.0149393
668.100	0.0149222
668.178	0.0149336
668.256	0.0148412
668.334	0.0149274
668.413	0.0148061
668.491	0.0148199
668.569	0.0148268
668.647	0.0147812
668.725	0.0148562
668.803	0.0146435
668.881	0.0148439
668.959	0.0147484
669.038	0.0148329
669.116	0.0148665
669.194	0.0148186
669.272	0.0149580
669.350	0.0149721
669.428	0.0149873
669.506	0.0151998
669.584	0.0150973
669.663	0.0152613
669.741	0.0155161
669.819	0.0154677
669.897	0.0156908
669.975	0.0156101
670.053	0.0156675
670.131	0.0160188
670.209	0.0160062
670.288	0.0160755
670.366	0.0160637
670.444	0.0160117
670.522	0.0161851
670.600	0.0162595
670.678	0.0161427
670.756	0.0162711
670.834	0.0161706
670.913	0.0160518
670.991	0.0160448
671.069	0.0160725
671.147	0.0159204
671.225	0.0159184
671.303	0.0156914
671.381	0.0155106
671.459	0.0155550
671.538	0.0153451
671.616	0.0153101
671.694	0.0152010
671.772	0.0149947
671.850	0.0147408
671.928	0.0144704
672.006	0.0143628
672.084	0.0140685
672.163	0.0140372
672.241	0.0139285
672.319	0.0137922
672.397	0.0137533
672.475	0.0136758
672.553	0.0135954
672.631	0.0136964
672.709	0.0136370
672.788	0.0135525
672.866	0.0137273
672.944	0.0139072
673.022	0.0139964
673.100	0.0139954
673.178	0.0142644
673.256	0.0144512
673.334	0.0147619
673.413	0.0149922
673.491	0.0151896
673.569	0.0153448
673.647	0.0154469
673.725	0.0158204
673.803	0.0160836
673.881	0.0161811
673.959	0.0163261
674.038	0.0166142
674.116	0.0167805
674.194	0.0168086
674.272	0.0171375
674.350	0.0171565
674.428	0.0171542
674.506	0.0173327
674.584	0.0172901
674.663	0.0172678
674.741	0.0170212
674.819	0.0171475
674.897	0.0169749
674.975	0.0167569
675.053	0.0165813
675.131	0.0164957
675.209	0.0161998
675.288	0.0158692
675.366	0.0158375
675.444	0.0156841
675.522	0.0152264
675.600	0.0149986
675.678	0.0148809
675.756	0.0147324
675.834	0.0145009
675.913	0.0143288
675.991	0.0141348
676.069	0.0141418
676.147	0.0140221
676.225	0.0138161
676.303	0.0136604
676.381	0.0136414
676.459	0.0133763
676.538	0.0134470
676.616	0.0134247
676.694	0.0133855
676.772	0.0132931
676.850	0.0134389
676.928	0.0134649
677.006	0.0136011
677.084	0.0137520
677.163	0.0139134
677.241	0.0141505
677.319	0.0144147
677.397	0.0147871
677.475	0.0150141
677.553	0.0153333
677.631	0.0157366
677.709	0.0159872
677.788	0.0163155
677.866	0.0166171
677.944	0.0168244
678.022	0.0171587
678.100	0.0173483
678.178	0.0174725
678.256	0.0176966
678.334	0.0177023
678.413	0.0176460
678.491	0.0177436
678.569	0.0178931
678.647	0.0178175
678.725	0.0176446
678.803	0.0175689
678.881	0.0173754
678.959	0.0172562
679.038	0.0170503
679.116	0.0169790
679.194	0.0166996
679.272	0.0162923
679.350	0.0159310
679.428	0.0155840
679.506	0.0155072
679.584	0.0151714
679.663	0.0150426
679.741	0.0149170
679.819	0.0146929
679.897	0.0143798
679.975	0.0144160
680.053	0.0142646
680.131	0.0142286
680.209	0.0141309
680.288	0.0141010
680.366	0.0142548
680.444	0.0140849
680.522	0.0143092
680.600	0.0141459
680.678	0.0141232
680.756	0.0144777
680.834	0.0146780
680.913	0.0147125
680.991	0.0148312
681.069	0.0150884
681.147	0.0153336
681.225	0.0153857
681.303	0.0155217
681.381	0.0156663
681.459	0.0157143
681.538	0.0157870
681.616	0.0159872
681.694	0.0159583
681.772	0.0160157
681.850	0.0159741
681.928	0.0160897
682.006	0.0160078
682.084	0.0159873
682.163	0.0159100
682.241	0.0158705
682.319	0.0157413
682.397	0.0154774
682.475	0.0154550
682.553	0.0154863
682.631	0.0153962
682.709	0.0151129
682.788	0.0150904
682.866	0.0149388
682.944	0.0148965
683.022	0.0145917
683.100	0.0147639
683.178	0.0145757
683.256	0.0145156
683.334	0.0146834
683.413	0.0146996
683.491	0.0147049
683.569	0.0147744
683.647	0.0149350
683.725	0.0150013
683.803	0.0150684
683.881	0.0152280
683.959	0.0153587
684.038	0.0154901
684.116	0.0155583
684.194	0.0156639
684.272	0.0158015
684.350	0.0158342
684.428	0.0160976
684.506	0.0160619
684.584	0.0162116
684.663	0.0162227
684.741	0.0162320
684.819	0.0163708
684.897	0.0162908
684.975	0.0164170
685.053	0.0163380
685.131	0.0163531
685.209	0.0163062
685.288	0.0163239
685.366	0.0162978
685.444	0.0162712
685.522	0.0159493
685.600	0.0159761
685.678	0.0158335
685.756	0.0157587
685.834	0.0155042
685.913	0.0156142
685.991	0.0154050
686.069	0.0151629
686.147	0.0152094
686.225	0.0149612
686.303	0.0149781
686.381	0.0148804
686.459	0.0147962
686.538	0.0148645
686.616	0.0148182
686.694	0.0148405
686.772	0.0147272
686.850	0.0145911
686.928	0.0145433
687.006	0.0146493
687.084	0.0146719
687.163	0.0146094
687.241	0.0144498
687.319	0.0142403
687.397	0.0145031
687.475	0.0143570
687.553	0.0143584
687.631	0.0143688
687.709	0.0144246
687.788	0.0144541
687.866	0.0145391
687.944	0.0146717
688.022	0.0146809
688.100	0.0148341
688.178	0.0146552
688.256	0.0147719
688.334	0.0148257
688.413	0.0149574
688.491	0.0148837
688.569	0.0147253
688.647	0.0146834
688.725	0.0147743
688.803	0.0148224
688.881	0.0147756
688.959	0.0150776
689.038	0.0150011
689.116	0.0151543
689.194	0.0152757
689.272	0.0153178
689.350	0.0155864
689.428	0.0156754
689.506	0.0157537
689.584	0.0162272
689.663	0.0161539
689.741	0.0163937
689.819	0.0166348
689.897	0.0167715
689.975	0.0168268
690.053	0.0170155
690.131	0.0169698
690.209	0.0170259
690.288	0.0170845
690.366	0.0170234
690.444	0.0169577
690.522	0.0168993
690.600	0.0169880
690.678	0.0170172
690.756	0.0167876
690.834	0.0165914
690.913	0.0164439
690.991	0.0163646
691.069	0.0160329
691.147	0.0157962
691.225	0.0155359
691.303	0.0152750
691.381	0.0149442
691.459	0.0146443
691.538	0.0144168
691.616	0.0140783
691.694	0.0137625
691.772	0.0134077
691.850	0.0132623
691.928	0.0130990
692.006	0.0129415
692.084	0.0128947
692.163	0.0128384
692.241	0.0127516
692.319	0.0126885
692.397	0.0127171
692.475	0.0127486
692.553	0.0128498
692.631	0.0129397
692.709	0.0131996
692.788	0.0133352
692.866	0.0137173
692.944	0.0140311
693.022	0.0143786
693.100	0.0145999
693.178	0.0150872
693.256	0.0155377
693.334	0.0159294
693.413	0.0163968
693.491	0.0168276
693.569	0.0169009
693.647	0.0173370
693.725	0.0175862
693.803	0.0178503
693.881	0.0179600
693.959	0.0179462
694.038	0.0180812
694.116	0.0177863
694.194	0.0179234
694.272	0.0176901
694.350	0.0172504
694.428	0.0171205
694.506	0.0168530
694.584	0.0166335
694.663	0.0161948
694.741	0.0158421
694.819	0.0155953
694.897	0.0153943
694.975	0.0152003
695.053	0.0148406
695.131	0.0146253
695.209	0.0144598
695.288	0.0143749
695.366	0.0140876
695.444	0.0138500
695.522	0.0136861
695.600	0.0135299
695.678	0.0133264
695.756	0.0133550
695.834	0.0133804
695.913	0.0132201
695.991	0.0131587
696.069	0.0133250
696.147	0.0133008
696.225	0.0135233
696.303	0.0138664
696.381	0.0140581
696.459	0.0140678
696.538	0.0145360
696.616	0.0148073
696.694	0.0150967
696.772	0.0152097
696.850	0.0155053
696.928	0.0156793
697.006	0.0157870
697.084	0.0159966
697.163	0.0162801
697.241	0.0163834
697.319	0.0163673
697.397	0.0164965
697.475	0.0166231
697.553	0.0166827
697.631	0.0169404
697.709	0.0168963
697.788	0.0168010
697.866	0.0169238
697.944	0.0165675
698.022	0.0166345
698.100	0.0165477
698.178	0.0162303
698.256	0.0161268
698.334	0.0159898
698.413	0.0156126
698.491	0.0154052
698.569	0.0151421
698.647	0.0148530
698.725	0.0146391
698.803	0.0143587
698.881	0.0141307
698.959	0.0140900
699.038	0.0138021
699.116	0.0136812
699.194	0.0135908
699.272	0.0135310
699.350	0.0134818
699.428	0.0136648
699.506	0.0137176
699.584	0.0136209
699.663	0.0137788
699.741	0.0139725
699.819	0.0140725
699.897	0.0141815
699.975	0.0143388
700.053	0.0145695
700.131	0.0145270
700.209	0.0146777
700.288	0.0149157
700.366	0.0149870
700.444	0.0151483
700.522	0.0154269
700.600	0.0155228
700.678	0.0158832
700.756	0.0161920
700.834	0.0164638
700.913	0.0166144
700.991	0.0168871
701.069	0.0172257
701.147	0.0173141
701.225	0.0174243
701.303	0.0175281
701.381	0.0176820
701.459	0.0176437
701.538	0.0175244
701.616	0.0174797
701.694	0.0171972
701.772	0.0170328
701.850	0.0169445
701.928	0.0167816
702.006	0.0165977
702.084	0.0165429
702.163	0.0163557
702.241	0.0159782
702.319	0.0157900
702.397	0.0155700
702.475	0.0154423
702.553	0.0149379
702.631	0.0145723
702.709	0.0146039
702.788	0.0142562
702.866	0.0139858
702.944	0.0138691
703.022	0.0137360
703.100	0.0135597
703.178	0.0134154
703.256	0.0132653
703.334	0.0133507
703.413	0.0132919
703.491	0.0133739
703.569	0.0134853
703.647	0.0135281
703.725	0.0139149
703.803	0.0140124
703.881	0.0142083
703.959	0.0144077
704.038	0.0146798
704.116	0.0149971
704.194	0.0152364
704.272	0.0153697
704.350	0.0156916
704.428	0.0159551
704.506	0.0162084
704.584	0.0163024
704.663	0.0163172
704.741	0.0166515
704.819	0.0165260
704.897	0.0167098
704.975	0.0167670
705.053	0.0167827
705.131	0.0167535
705.209	0.0166114
705.288	0.0165617
705.366	0.0163748
705.444	0.0163617
705.522	0.0161848
705.600	0.0159185
705.678	0.0159504
705.756	0.0155812
705.834	0.0153052
705.913	0.0150034
705.991	0.0149079
706.069	0.0147155
706.147	0.0143734
706.225	0.0143670
706.303	0.0142882
706.381	0.0142403
706.459	0.0139504
706.538	0.0140037
706.616	0.0142258
706.694	0.0143229
706.772	0.0146205
706.850	0.0146642
706.928	0.0149373
707.006	0.0152784
707.084	0.0153194
707.163	0.0157813
707.241	0.0159785
707.319	0.0161024
707.397	0.0162697
707.475	0.0164485
707.553	0.0166777
707.631	0.0167657
707.709	0.0169786
707.788	0.0170303
707.866	0.0170327
707.944	0.0171194
708.022	0.0172070
708.100	0.0170744
708.178	0.0170508
708.256	0.0170634
708.334	0.0168512
708.413	0.0167033
708.491	0.0166074
708.569	0.0164395
708.647	0.0160583
708.725	0.0157761
708.803	0.0154487
708.881	0.0152348
708.959	0.0148883
709.038	0.0146358
709.116	0.0143185
709.194	0.0140947
709.272	0.0137621
709.350	0.0136581
709.428	0.0134853
709.506	0.0132213
709.584	0.0131523
709.663	0.0131105
709.741	0.0131394
709.819	0.0131412
709.897	0.0130154
709.975	0.0130864
710.053	0.0131223
710.131	0.0130735
710.209	0.0131294
710.288	0.0133058
710.366	0.0134928
710.444	0.0136720
710.522	0.0139401
710.600	0.0141831
710.678	0.0146210
710.756	0.0147691
710.834	0.0152510
710.913	0.0155789
710.991	0.0159273
711.069	0.0163232
711.147	0.0166048
711.225	0.0167896
711.303	0.0169707
711.381	0.0171066
711.459	0.0170700
711.538	0.0172143
711.616	0.0170068
711.694	0.0170376
711.772	0.0169309
711.850	0.0167918
711.928	0.0166413
712.006	0.0165086
712.084	0.0164170
712.163	0.0162321
712.241	0.0159970
712.319	0.0160703
712.397	0.0158399
712.475	0.0158546
712.553	0.0157764
712.631	0.0156480
712.709	0.0156056
712.788	0.0156519
712.866	0.0154856
712.944	0.0153058
713.022	0.0153043
713.100	0.0152812
713.178	0.0153082
713.256	0.0153344
713.334	0.0151800
713.413	0.0152209
713.491	0.0153242
713.569	0.0153101
713.647	0.0155042
713.725	0.0154960
713.803	0.0154105
713.881	0.0155940
713.959	0.0155033
714.038	0.0155074
714.116	0.0153576
714.194	0.0153523
714.272	0.0152206
714.350	0.0151221
714.428	0.0150260
714.506	0.0148673
714.584	0.0147570
714.663	0.0146127
714.741	0.0145391
714.819	0.0146033
714.897	0.0144360
714.975	0.0144173
715.053	0.0142807
715.131	0.0142572
715.209	0.0141574
715.288	0.0142326
715.366	0.0141468
715.444	0.0142249
715.522	0.0141248
715.600	0.0140285
715.678	0.0141269
715.756	0.0140376
715.834	0.0140976
715.913	0.0141013
715.991	0.0141490
716.069	0.0142963
716.147	0.0143972
716.225	0.0143324
716.303	0.0146858
716.381	0.0148949
716.459	0.0149980
716.538	0.0150132
716.616	0.0152023
716.694	0.0153741
716.772	0.0155017
716.850	0.0154897
716.928	0.0155231
717.006	0.0155452
717.084	0.0156767
717.163	0.0157740
717.241	0.0158495
717.319	0.0158157
717.397	0.0159811
717.475	0.0159504
717.553	0.0160116
717.631	0.0159195
717.709	0.0157028
717.788	0.0157999
717.866	0.0156998
717.944	0.0157484
718.022	0.0156522
718.100	0.0157175
718.178	0.0154182
718.256	0.0154870
718.334	0.0154128
718.413	0.0154720
718.491	0.0153693
718.569	0.0153844
718.647	0.0154209
718.725	0.0155295
718.803	0.0155116
718.881	0.0156660
718.959	0.0156413
719.038	0.0157481
719.116	0.0157085
719.194	0.0158163
719.272	0.0157681
719.350	0.0157740
719.428	0.0158456
719.506	0.0157677
719.584	0.0155965
719.663	0.0155202
719.741	0.0155378
719.819	0.0152847
719.897	0.0154157
719.975	0.0155639
720.053	0.0153770
720.131	0.0152628
720.209	0.0153354
720.288	0.0152378
720.366	0.0152409
720.444	0.0152290
720.522	0.0151478
720.600	0.0153312
720.678	0.0152971
720.756	0.0152346
720.834	0.0150892
720.913	0.0152004
720.991	0.0150009
721.069	0.0148586
721.147	0.0149889
721.225	0.0149722
721.303	0.0149280
721.381	0.0149232
721.459	0.0149551
721.538	0.0148954
721.616	0.0150089
721.694	0.0149654
721.772	0.0150613
721.850	0.0150309
721.928	0.0151620
722.006	0.0149391
722.084	0.0151430
722.163	0.0152309
722.241	0.0150875
722.319	0.0152214
722.397	0.0152148
722.475	0.0152842
722.553	0.0155019
722.631	0.0156255
722.709	0.0157481
722.788	0.0159004
722.866	0.0158076
722.944	0.0159573
723.022	0.0160838
723.100	0.0160949
723.178	0.0161953
723.256	0.0161962
723.334	0.0163006
723.413	0.0163039
723.491	0.0163680
723.569	0.0163396
723.647	0.0162762
723.725	0.0160574
723.803	0.0159866
723.881	0.0159055
723.959	0.0158266
724.038	0.0156611
724.116	0.0154881
724.194	0.0154464
724.272	0.0152006
724.350	0.0150868
724.428	0.0149043
724.506	0.0146149
724.584	0.0144619
724.663	0.0144815
724.741	0.0144160
724.819	0.0141695
724.897	0.0141888
724.975	0.0142197
725.053	0.0142373
725.131	0.0142701
725.209	0.0140828
725.288	0.0140453
725.366	0.0141980
725.444	0.0142611
725.522	0.0142800
725.600	0.0142943
725.678	0.0141986
725.756	0.0142020
725.834	0.0142219
725.913	0.0143379
725.991	0.0143750
726.069	0.0144859
726.147	0.0145707
726.225	0.0145275
726.303	0.0147092
726.381	0.0149210
726.459	0.0149427
726.538	0.0149754
726.616	0.0152158
726.694	0.0153143
726.772	0.0153075
726.850	0.0155782
726.928	0.0156052
727.006	0.0158153
727.084	0.0160352
727.163	0.0161758
727.241	0.0163763
727.319	0.0163338
727.397	0.0165573
727.475	0.0165694
727.553	0.0166508
727.631	0.0166991
727.709	0.0168687
727.788	0.0169202
727.866	0.0170350
727.944	0.0171764
728.022	0.0170988
728.100	0.0172565
728.178	0.0173116
728.256	0.0172269
728.334	0.0172073
728.413	0.0172570
728.491	0.0171284
728.569	0.0169617
728.647	0.0168638
728.725	0.0167271
728.803	0.0166504
728.881	0.0165456
728.959	0.0162417
729.038	0.0161459
729.116	0.0159754
729.194	0.0156765
729.272	0.0154074
729.350	0.0152404
729.428	0.0148944
729.506	0.0146555
729.584	0.0144096
729.663	0.0141029
729.741	0.0137936
729.819	0.0136237
729.897	0.0132991
729.975	0.0129773
730.053	0.0129230
730.131	0.0128217
730.209	0.0126089
730.288	0.0125284
730.366	0.0125662
730.444	0.0124892
730.522	0.0125296
730.600	0.0125325
730.678	0.0125185
730.756	0.0126082
730.834	0.0127172
730.913	0.0128273
730.991	0.0130811
731.069	0.0132879
731.147	0.0134959
731.225	0.0137363
731.303	0.0138043
731.381	0.0141618
731.459	0.0144085
731.538	0.0145120
731.616	0.0148358
731.694	0.0151860
731.772	0.0155154
731.850	0.0155501
731.928	0.0158523
732.006	0.0161271
732.084	0.0163873
732.163	0.0166627
732.241	0.0168489
732.319	0.0170499
732.397	0.0173882
732.475	0.0175456
732.553	0.0175629
732.631	0.0178240
732.709	0.0177241
732.788	0.0178686
732.866	0.0179530
732.944	0.0178499
733.022	0.0178467
733.100	0.0177076
733.178	0.0176897
733.256	0.0175932
733.334	0.0174957
733.413	0.0171897
733.491	0.0171203
733.569	0.0168863
733.647	0.0166565
733.725	0.0163065
733.803	0.0159508
733.881	0.0157986
733.959	0.0155293
734.038	0.0152826
734.116	0.0149599
734.194	0.0146918
734.272	0.0144711
734.350	0.0144198
734.428	0.0142775
734.506	0.0141158
734.584	0.0139042
734.663	0.0137448
734.741	0.0137590
734.819	0.0140081
734.897	0.0138639
734.975	0.0137347
735.053	0.0137325
735.131	0.0139116
735.209	0.0140745
735.288	0.0140635
735.366	0.0141701
735.444	0.0141959
735.522	0.0145744
735.600	0.0146149
735.678	0.0148714
735.756	0.0149396
735.834	0.0150520
735.913	0.0153103
735.991	0.0154203
736.069	0.0154347
736.147	0.0156128
736.225	0.0156463
736.303	0.0155643
736.381	0.0154762
736.459	0.0155009
736.538	0.0153970
736.616	0.0154485
736.694	0.0153602
736.772	0.0151424
736.850	0.0152528
736.928	0.0151163
737.006	0.0151656
737.084	0.0152576
737.163	0.0150974
737.241	0.0149598
737.319	0.0152004
737.397	0.0152645
737.475	0.0151705
737.553	0.0152222
737.631	0.0152296
737.709	0.0153369
737.788	0.0153320
737.866	0.0153563
737.944	0.0153423
738.022	0.0154072
738.100	0.0154645
738.178	0.0155656
738.256	0.0154958
738.334	0.0156593
738.413	0.0157160
738.491	0.0157544
738.569	0.0157755
738.647	0.0158934
738.725	0.0159678
738.803	0.0158128
738.881	0.0159532
738.959	0.0160030
739.038	0.0158285
739.116	0.0157873
739.194	0.0156631
739.272	0.0156821
739.350	0.0155550
739.428	0.0153709
739.506	0.0153316
739.584	0.0151405
739.663	0.0151410
739.741	0.0148212
739.819	0.0147339
739.897	0.0146117
739.975	0.0145508
740.053	0.0143462
740.131	0.0143037
740.209	0.0142152
740.288	0.0142313
740.366	0.0142056
740.444	0.0142812
740.522	0.0142243
740.600	0.0143838
740.678	0.0142782
740.756	0.0143749
740.834	0.0144029
740.913	0.0146819
740.991	0.0146651
741.069	0.0147966
741.147	0.0150419
741.225	0.0150496
741.303	0.0152142
741.381	0.0155075
741.459	0.0156499
741.538	0.0157620
741.616	0.0159529
741.694	0.0160230
741.772	0.0161672
741.850	0.0163259
741.928	0.0164848
742.006	0.0165089
742.084	0.0166119
742.163	0.0166256
742.241	0.0167635
742.319	0.0167326
742.397	0.0165813
742.475	0.0164799
742.553	0.0164677
742.631	0.0164822
742.709	0.0163342
742.788	0.0163783
742.866	0.0161134
742.944	0.0159757
743.022	0.0158182
743.100	0.0158938
743.178	0.0158983
743.256	0.0157495
743.334	0.0156290
743.413	0.0156851
743.491	0.0155219
743.569	0.0154542
743.647	0.0154186
743.725	0.0154359
743.803	0.0154388
743.881	0.0155199
743.959	0.0154196
744.038	0.0154150
744.116	0.0154770
744.194	0.0153246
744.272	0.0153719
744.350	0.0152896
744.428	0.0152322
744.506	0.0151630
744.584	0.0151675
744.663	0.0149128
744.741	0.0149493
744.819	0.0148915
744.897	0.0147999
744.975	0.0148328
745.053	0.0147243
745.131	0.0147191
745.209	0.0146397
745.288	0.0145866
745.366	0.0144833
745.444	0.0146464
745.522	0.0145589
745.600	0.0145517
745.678	0.0145622
745.756	0.0145576
745.834	0.0145400
745.913	0.0147034
745.991	0.0146606
746.069	0.0146503
746.147	0.0147121
746.225	0.0147163
746.303	0.0148068
746.381	0.0149321
746.459	0.0149171
746.538	0.0148623
746.616	0.0150803
746.694	0.0153425
746.772	0.0151775
746.850	0.0152267
746.928	0.0152211
747.006	0.0153235
747.084	0.0155533
747.163	0.0157059
747.241	0.0154324
747.319	0.0155751
747.397	0.0157811
747.475	0.0157648
747.553	0.0156853
747.631	0.0158614
747.709	0.0159566
747.788	0.0159120
747.866	0.0159010
747.944	0.0161724
748.022	0.0160598
748.100	0.0162157
748.178	0.0163167
748.256	0.0160764
748.334	0.0162270
748.413	0.0162806
748.491	0.0161881
748.569	0.0161785
748.647	0.0162080
748.725	0.0161517
748.803	0.0160322
748.881	0.0158489
748.959	0.0158948
749.038	0.0157304
749.116	0.0155687
749.194	0.0153333
749.272	0.0152451
749.350	0.0150504
749.428	0.0149220
749.506	0.0148080
749.584	0.0146325
749.663	0.0144772
749.741	0.0144443
749.819	0.0145333
749.897	0.0144000
749.975	0.0142534
750.053	0.0142745
750.131	0.0143047
750.209	0.0145635
750.288	0.0144668
750.366	0.0147201
750.444	0.0148280
750.522	0.0147706
750.600	0.0149187
750.678	0.0152197
750.756	0.0152755
750.834	0.0156602
750.913	0.0155341
750.991	0.0156965
751.069	0.0159066
751.147	0.0159008
751.225	0.0160297
751.303	0.0161300
751.381	0.0161607
751.459	0.0161886
751.538	0.0160203
751.616	0.0161572
751.694	0.0162694
751.772	0.0160867
751.850	0.0160986
751.928	0.0160515
752.006	0.0159793
752.084	0.0157695
752.163	0.0158065
752.241	0.0156391
752.319	0.0155446
752.397	0.0154969
752.475	0.0152537
752.553	0.0151829
752.631	0.0150217
752.709	0.0150206
752.788	0.0149765
752.866	0.0151362
752.944	0.0148976
753.022	0.0147229
753.100	0.0145289
753.178	0.0146161
753.256	0.0145425
753.334	0.0143334
753.413	0.0144052
753.491	0.0142352
753.569	0.0142198
753.647	0.0142677
753.725	0.0142757
753.803	0.0142345
753.881	0.0142514
753.959	0.0144627
754.038	0.0145232
754.116	0.0144218
754.194	0.0146472
754.272	0.0148559
754.350	0.0147462
754.428	0.0150073
754.506	0.0152622
754.584	0.0152869
754.663	0.0152435
754.741	0.0154094
754.819	0.0156905
754.897	0.0157123
754.975	0.0158649
755.053	0.0159575
755.131	0.0159993
755.209	0.0162111
755.288	0.0163070
755.366	0.0164275
755.444	0.0165118
755.522	0.0164748
755.600	0.0165811
755.678	0.0166001
755.756	0.0165180
755.834	0.0165993
755.913	0.0164288
755.991	0.0163351
756.069	0.0162428
756.147	0.0161932
756.225	0.0161179
756.303	0.0160224
756.381	0.0159545
756.459	0.0157092
756.538	0.0157001
756.616	0.0155713
756.694	0.0154132
756.772	0.0152798
756.850	0.0152875
756.928	0.0150676
757.006	0.0149945
757.084	0.0148907
757.163	0.0149628
757.241	0.0147350
757.319	0.0146884
757.397	0.0147390
757.475	0.0148212
757.553	0.0147220
757.631	0.0146795
757.709	0.0144956
757.788	0.0144965
757.866	0.0145660
757.944	0.0146764
758.022	0.0147269
758.100	0.0146491
758.178	0.0147035
758.256	0.0147530
758.334	0.0146571
758.413	0.0147992
758.491	0.0147766
758.569	0.0148827
758.647	0.0149985
758.725	0.0150871
758.803	0.0151486
758.881	0.0150382
758.959	0.0151884
759.038	0.0154580
759.116	0.0153445
759.194	0.0153259
759.272	0.0152212
759.350	0.0154067
759.428	0.0153703
759.506	0.0154887
759.584	0.0153555
759.663	0.0155295
759.741	0.0154861
759.819	0.0154019
759.897	0.0154536
759.975	0.0155404
760.053	0.0155205
760.131	0.0155817
760.209	0.0156267
760.288	0.0156212
760.366	0.0154984
760.444	0.0154469
760.522	0.0155862
760.600	0.0153747
760.678	0.0154292
760.756	0.0154010
760.834	0.0153986
760.913	0.0154687
760.991	0.0154131
761.069	0.0154276
761.147	0.0154436
761.225	0.0155845
761.303	0.0156809
761.381	0.0156193
761.459	0.0155939
761.538	0.0155791
761.616	0.0156389
761.694	0.0155245
761.772	0.0157230
761.850	0.0157471
761.928	0.0156387
762.006	0.0157009
762.084	0.0155551
762.163	0.0155247
762.241	0.0154852
762.319	0.0153197
762.397	0.0152567
762.475	0.0151498
762.553	0.0152502
762.631	0.0149799
762.709	0.0149342
762.788	0.0147336
762.866	0.0148360
762.944	0.0146389
763.022	0.0146230
763.100	0.0144801
763.178	0.0144788
763.256	0.0145046
763.334	0.0145099
763.413	0.0146915
763.491	0.0145992
763.569	0.0146678
763.647	0.0146728
763.725	0.0147316
763.803	0.0148242
763.881	0.0150053
763.959	0.0150916
764.038	0.0151292
764.116	0.0152124
764.194	0.0153599
764.272	0.0154535
764.350	0.0153706
764.428	0.0155290
764.506	0.0156023
764.584	0.0155934
764.663	0.0156774
764.741	0.0158431
764.819	0.0157547
764.897	0.0157295
764.975	0.0156634
765.053	0.0157285
765.131	0.0160049
765.209	0.0160188
765.288	0.0158533
765.366	0.0158386
765.444	0.0158853
765.522	0.0159801
765.600	0.0158199
765.678	0.0158662
765.756	0.0158068
765.834	0.0158213
765.913	0.0159328
765.991	0.0158626
766.069	0.0156497
766.147	0.0157735
766.225	0.0157507
766.303	0.0156805
766.381	0.0157136
766.459	0.0154774
766.538	0.0156404
766.616	0.0155318
766.694	0.0155830
766.772	0.0155369
766.850	0.0156613
766.928	0.0156424
767.006	0.0155712
767.084	0.0153547
767.163	0.0156384
767.241	0.0155093
767.319	0.0153110
767.397	0.0154038
767.475	0.0153613
767.553	0.0152410
767.631	0.0151042
767.709	0.0150312
767.788	0.0150227
767.866	0.0150290
767.944	0.0149873
768.022	0.0148560
768.100	0.0146690
768.178	0.0147272
768.256	0.0148041
768.334	0.0147761
768.413	0.0147039
768.491	0.0145612
768.569	0.0146820
768.647	0.0149140
768.725	0.0148502
768.803	0.0149245
768.881	0.0149055
768.959	0.0149210
769.038	0.0149778
769.116	0.0150080
769.194	0.0151287
769.272	0.0151900
769.350	0.0153553
769.428	0.0154376
769.506	0.0152980
769.584	0.0154616
769.663	0.0156452
769.741	0.0156161
769.819	0.0157923
769.897	0.0158683
769.975	0.0158244
770.053	0.0158580
770.131	0.0160036
770.209	0.0159076
770.288	0.0159801
770.366	0.0159760
770.444	0.0160488
770.522	0.0159138
770.600	0.0159566
770.678	0.0159898
770.756	0.0159261
770.834	0.0160266
770.913	0.0157175
770.991	0.0157046
771.069	0.0158083
771.147	0.0157132
771.225	0.0157587
771.303	0.0158200
771.381	0.0155953
771.459	0.0157556
771.538	0.0156294
771.616	0.0157027
771.694	0.0154987
771.772	0.0154852
771.850	0.0153794
771.928	0.0153335
772.006	0.0152746
772.084	0.0152181
772.163	0.0150629
772.241	0.0149524
772.319	0.0148137
772.397	0.0146967
772.475	0.0146416
772.553	0.0145808
772.631	0.0145794
772.709	0.0146085
772.788	0.0144394
772.866	0.0145676
772.944	0.0146311
773.022	0.0147729
773.100	0.0146739
773.178	0.0147331
773.256	0.0148701
773.334	0.0148949
773.413	0.0149696
773.491	0.0151937
773.569	0.0150846
773.647	0.0151170
773.725	0.0153939
773.803	0.0154784
773.881	0.0154587
773.959	0.0155543
774.038	0.0156583
774.116	0.0157552
774.194	0.0157717
774.272	0.0159129
774.350	0.0159193
774.428	0.0157047
774.506	0.0160011
774.584	0.0160103
774.663	0.0159502
774.741	0.0158205
774.819	0.0158216
774.897	0.0157813
774.975	0.0159499
775.053	0.0158027
775.131	0.0156889
775.209	0.0155315
775.288	0.0153672
775.366	0.0154464
775.444	0.0155956
775.522	0.0155630
775.600	0.0153790
775.678	0.0153629
775.756	0.0153108
775.834	0.0153070
775.913	0.0155050
775.991	0.0152659
776.069	0.0153494
776.147	0.0153088
776.225	0.0153153
776.303	0.0152039
776.381	0.0153201
776.459	0.0154292
776.538	0.0152766
776.616	0.0152135
776.694	0.0152225
776.772	0.0152365
776.850	0.0152330
776.928	0.0153168
777.006	0.0151879
777.084	0.0153436
777.163	0.0152408
777.241	0.0151782
777.319	0.0152074
777.397	0.0152316
777.475	0.0151031
777.553	0.0150828
777.631	0.0151632
777.709	0.0151617
777.788	0.0152406
777.866	0.0152857
777.944	0.0152310
778.022	0.0151172
778.100	0.0151893
778.178	0.0151230
778.256	0.0152264
778.334	0.0152633
778.413	0.0152368
778.491	0.0151593
778.569	0.0152483
778.647	0.0152347
778.725	0.0152475
778.803	0.0153205
778.881	0.0153907
778.959	0.0153995
779.038	0.0154715
779.116	0.0154393
779.194	0.0153911
779.272	0.0155385
779.350	0.0154638
779.428	0.0154103
779.506	0.0155699
779.584	0.0154539
779.663	0.0156744
779.741	0.0156441
779.819	0.0156992
779.897	0.0155071
779.975	0.0157871
780.053	0.0156751
780.131	0.0157554
780.209	0.0159073
780.288	0.0157445
780.366	0.0156929
780.444	0.0157400
780.522	0.0158472
780.600	0.0157423
780.678	0.0156819
780.756	0.0156059
780.834	0.0154662
780.913	0.0157131
780.991	0.0155872
781.069	0.0153862
781.147	0.0154211
781.225	0.0153331
781.303	0.0151531
781.381	0.0152354
781.459	0.0152230
781.538	0.0151738
781.616	0.0152520
781.694	0.0153461
781.772	0.0152280
781.850	0.0152182
781.928	0.0152093
782.006	0.0153279
782.084	0.0153674
782.163	0.0153641
782.241	0.0153305
782.319	0.0153334
782.397	0.0153535
782.475	0.0154411
782.553	0.0153066
782.631	0.0152454
782.709	0.0153273
782.788	0.0153767
782.866	0.0151911
782.944	0.0152462
783.022	0.0152385
783.100	0.0151918
783.178	0.0151822
783.256	0.0150817
783.334	0.0151988
783.413	0.0151122
783.491	0.0149981
783.569	0.0150143
783.647	0.0149673
783.725	0.0149562
783.803	0.0148592
783.881	0.0148927
783.959	0.0148337
784.038	0.0147882
784.116	0.0148141
784.194	0.0149023
784.272	0.0150009
784.350	0.0147993
784.428	0.0149782
784.506	0.0150498
784.584	0.0152473
784.663	0.0151801
784.741	0.0151559
784.819	0.0152041
784.897	0.0153431
784.975	0.0153957
785.053	0.0152689
785.131	0.0153373
785.209	0.0153880
785.288	0.0154429
785.366	0.0154488
785.444	0.0154679
785.522	0.0154098
785.600	0.0154922
785.678	0.0154675
785.756	0.0154849
785.834	0.0154153
785.913	0.0155904
785.991	0.0156343
786.069	0.0156223
786.147	0.0155370
786.225	0.0154910
786.303	0.0156450
786.381	0.0154743
786.459	0.0155232
786.538	0.0155257
786.616	0.0154951
786.694	0.0156351
786.772	0.0154491
786.850	0.0155101
786.928	0.0154900
787.006	0.0154666
787.084	0.0154961
787.163	0.0155911
787.241	0.0155779
787.319	0.0157214
787.397	0.0156033
787.475	0.0155119
787.553	0.0156547
787.631	0.0155377
787.709	0.0153939
787.788	0.0154202
787.866	0.0153645
787.944	0.0153004
788.022	0.0152934
788.100	0.0150859
788.178	0.0150840
788.256	0.0149920
788.334	0.0150531
788.413	0.0150478
788.491	0.0149656
788.569	0.0149022
788.647	0.0150723
788.725	0.0149027
788.803	0.0148472
788.881	0.0150475
788.959	0.0149818
789.038	0.0150764
789.116	0.0152208
789.194	0.0151187
789.272	0.0151936
789.350	0.0151472
789.428	0.0152915
789.506	0.0153924
789.584	0.0155690
789.663	0.0154285
789.741	0.0156005
789.819	0.0156067
789.897	0.0157954
789.975	0.0157703
790.053	0.0157882
790.131	0.0157021
790.209	0.0158026
790.288	0.0158234
790.366	0.0157910
790.444	0.0157706
790.522	0.0159615
790.600	0.0157973
790.678	0.0157581
790.756	0.0156772
790.834	0.0156522
790.913	0.0157517
790.991	0.0155887
791.069	0.0156113
791.147	0.0156207
791.225	0.0155859
791.303	0.0155131
791.381	0.0155705
791.459	0.0154703
791.538	0.0153867
791.616	0.0153515
791.694	0.0153560
791.772	0.0153860
791.850	0.0153060
791.928	0.0153179
792.006	0.0151396
792.084	0.0152473
792.163	0.0152719
792.241	0.0150899
792.319	0.0151211
792.397	0.0150436
792.475	0.0151201
792.553	0.0152246
792.631	0.0152020
792.709	0.0152213
792.788	0.0151747
792.866	0.0150455
792.944	0.0153281
793.022	0.0152586
793.100	0.0153298
793.178	0.0151447
793.256	0.0152415
793.334	0.0154114
793.413	0.0154266
793.491	0.0154369
793.569	0.0154945
793.647	0.0153632
793.725	0.0154568
793.803	0.0156108
793.881	0.0157257
793.959	0.0155329
794.038	0.0155231
794.116	0.0155914
794.194	0.0155128
794.272	0.0156274
794.350	0.0156517
794.428	0.0154409
794.506	0.0154054
794.584	0.0154889
794.663	0.0155718
794.741	0.0154687
794.819	0.0154595
794.897	0.0155484
794.975	0.0154752
795.053	0.0154443
795.131	0.0154237
795.209	0.0154762
795.288	0.0155029
795.366	0.0155457
795.444	0.0155356
795.522	0.0153878
795.600	0.0154496
795.678	0.0153929
795.756	0.0154514
795.834	0.0154108
795.913	0.0153783
795.991	0.0153628
796.069	0.0154480
796.147	0.0154677
796.225	0.0154933
796.303	0.0154276
796.381	0.0154494
796.459	0.0154873
796.538	0.0154789
796.616	0.0154984
796.694	0.0155809
796.772	0.0155816
796.850	0.0155047
796.928	0.0154633
797.006	0.0153669
797.084	0.0154838
797.163	0.0153845
797.241	0.0155646
797.319	0.0154288
797.397	0.0155100
797.475	0.0153323
797.553	0.0154421
797.631	0.0155162
797.709	0.0154446
797.788	0.0154265
797.866	0.0154160
797.944	0.0154453
798.022	0.0155690
798.100	0.0153338
798.178	0.0153271
798.256	0.0152257
798.334	0.0151435
798.413	0.0152788
798.491	0.0154447
798.569	0.0152846
798.647	0.0153249
798.725	0.0151692
798.803	0.0152571
798.881	0.0152105
798.959	0.0151837
799.038	0.0151237
799.116	0.0152047
799.194	0.0151715
799.272	0.0150388
799.350	0.0150684
799.428	0.0148791
799.506	0.0149142
799.584	0.0149825
799.663	0.0149763
799.741	0.0149699
799.819	0.0149982
799.897	0.0150692
799.975	0.0149516
800.053	0.0149158
800.131	0.0148683
800.209	0.0150719
800.288	0.0150720
800.366	0.0149476
800.444	0.0150955
800.522	0.0151645
800.600	0.0150707
800.678	0.0151932
800.756	0.0152140
800.834	0.0150711
800.913	0.0149840
800.991	0.0152111
801.069	0.0151917
801.147	0.0152473
801.225	0.0152691
801.303	0.0153714
801.381	0.0152923
801.459	0.0153125
801.538	0.0153750
801.616	0.0154678
801.694	0.0155376
801.772	0.0153625
801.850	0.0154074
801.928	0.0153001
802.006	0.0153156
802.084	0.0153097
802.163	0.0153320
802.241	0.0149659
802.319	0.0150113
802.397	0.0151091
802.475	0.0151363
802.553	0.0150299
802.631	0.0150368
802.709	0.0150074
802.788	0.0149685
802.866	0.0150307
802.944	0.0150485
803.022	0.0151562
803.100	0.0150857
803.178	0.0150681
803.256	0.0151280
803.334	0.0150817
803.413	0.0150111
803.491	0.0153226
803.569	0.0152558
803.647	0.0152322
803.725	0.0153986
803.803	0.0154705
803.881	0.0155251
803.959	0.0155475
804.038	0.0156374
804.116	0.0156543
804.194	0.0158266
804.272	0.0157940
804.350	0.0157531
804.428	0.0157230
804.506	0.0158443
804.584	0.0157925
804.663	0.0156879
804.741	0.0157024
804.819	0.0156561
804.897	0.0156661
804.975	0.0157496
805.053	0.0156707
805.131	0.0155862
805.209	0.0156934
805.288	0.0154136
805.366	0.0153854
805.444	0.0153503
805.522	0.0152573
805.600	0.0152290
805.678	0.0151601
805.756	0.0150789
805.834	0.0150309
805.913	0.0150845
805.991	0.0149857
806.069	0.0148848
806.147	0.0147744
806.225	0.0148365
806.303	0.0148844
806.381	0.0149832
806.459	0.0150185
806.538	0.0148667
806.616	0.0150136
806.694	0.0150884
806.772	0.0150311
806.850	0.0150274
806.928	0.0150644
807.006	0.0150681
807.084	0.0154073
807.163	0.0152797
807.241	0.0154176
807.319	0.0154644
807.397	0.0156579
807.475	0.0156564
807.553	0.0157372
807.631	0.0157614
807.709	0.0156326
807.788	0.0159225
807.866	0.0159048
807.944	0.0159072
808.022	0.0158283
808.100	0.0158883
808.178	0.0158323
808.256	0.0159488
808.334	0.0158755
808.413	0.0158113
808.491	0.0156348
808.569	0.0155965
808.647	0.0158002
808.725	0.0155231
808.803	0.0153336
808.881	0.0155549
808.959	0.0154066
809.038	0.0152713
809.116	0.0152963
809.194	0.0153017
809.272	0.0151049
809.350	0.0150681
809.428	0.0150961
809.506	0.0149929
809.584	0.0150211
809.663	0.0150287
809.741	0.0150363
809.819	0.0151298
809.897	0.0150600
809.975	0.0149701
810.053	0.0152549
810.131	0.0151919
810.209	0.0152301
810.288	0.0152707
810.366	0.0153495
810.444	0.0154925
810.522	0.0153823
810.600	0.0154385
810.678	0.0155301
810.756	0.0156690
810.834	0.0157093
810.913	0.0157068
810.991	0.0155251
811.069	0.0155859
811.147	0.0155325
811.225	0.0156373
811.303	0.0155283
811.381	0.0155880
811.459	0.0155627
811.538	0.0154536
811.616	0.0155040
811.694	0.0154444
811.772	0.0153143
811.850	0.0153235
811.928	0.0153317
812.006	0.0153974
812.084	0.0153419
812.163	0.0152571
812.241	0.0152190
812.319	0.0152962
812.397	0.0151796
812.475	0.0152154
812.553	0.0152110
812.631	0.0152056
812.709	0.0152795
812.788	0.0155151
812.866	0.0153463
812.944	0.0152135
813.022	0.0152745
813.100	0.0153711
813.178	0.0153379
813.256	0.0155913
813.334	0.0153484
813.413	0.0153017
813.491	0.0153431
813.569	0.0155203
813.647	0.0154051
813.725	0.0154236
813.803	0.0153937
813.881	0.0153394
813.959	0.0152943
814.038	0.0153197
814.116	0.0153703
814.194	0.0153104
814.272	0.0151877
814.350	0.0152232
814.428	0.0152339
814.506	0.0152843
814.584	0.0150968
814.663	0.0151128
814.741	0.0150549
814.819	0.0152142
814.897	0.0151150
814.975	0.0150274
815.053	0.0149894
815.131	0.0151154
815.209	0.0150375
815.288	0.0150272
815.366	0.0151275
815.444	0.0150976
815.522	0.0150787
815.600	0.0153028
815.678	0.0153020
815.756	0.0153061
815.834	0.0153107
815.913	0.0153236
815.991	0.0152110
816.069	0.0152318
816.147	0.0152737
816.225	0.0152484
816.303	0.0152280
816.381	0.0153290
816.459	0.0153323
816.538	0.0152946
816.616	0.0152278
816.694	0.0153074
816.772	0.0153296
816.850	0.0150615
816.928	0.0152298
817.006	0.0152196
817.084	0.0151680
817.163	0.0152196
817.241	0.0152114
817.319	0.0150879
817.397	0.0150919
817.475	0.0150274
817.553	0.0150821
817.631	0.0149902
817.709	0.0149292
817.788	0.0151346
817.866	0.0151358
817.944	0.0148990
818.022	0.0149659
818.100	0.0148907
818.178	0.0150754
818.256	0.0149460
818.334	0.0149003
818.413	0.0149772
818.491	0.0150638
818.569	0.0151644
818.647	0.0150235
818.725	0.0149400
818.803	0.0152740
818.881	0.0153414
818.959	0.0152779
819.038	0.0152685
819.116	0.0154655
819.194	0.0153870
819.272	0.0154527
819.350	0.0155441
819.428	0.0155656
819.506	0.0155608
819.584	0.0156850
819.663	0.0155880
819.741	0.0156664
819.819	0.0156319
819.897	0.0156329
819.975	0.0158797
820.053	0.0155070
820.131	0.0157210
820.209	0.0157485
820.288	0.0157169
820.366	0.0156896
820.444	0.0156465
820.522	0.0158276
820.600	0.0156314
820.678	0.0155727
820.756	0.0155945
820.834	0.0155326
820.913	0.0155839
820.991	0.0154323
821.069	0.0153117
821.147	0.0153353
821.225	0.0154408
821.303	0.0153445
821.381	0.0153104
821.459	0.0152296
821.538	0.0152003
821.616	0.0151768
821.694	0.0152253
821.772	0.0151354
821.850	0.0150410
821.928	0.0150528
822.006	0.0150675
822.084	0.0150542
822.163	0.0150535
822.241	0.0150193
822.319	0.0149862
822.397	0.0150230
822.475	0.0150780
822.553	0.0150629
822.631	0.0150602
822.709	0.0150877
822.788	0.0150681
822.866	0.0150884
822.944	0.0151949
823.022	0.0150155
823.100	0.0151358
823.178	0.0151756
823.256	0.0154076
823.334	0.0153231
823.413	0.0152084
823.491	0.0154208
823.569	0.0153391
823.647	0.0153385
823.725	0.0153983
823.803	0.0154395
823.881	0.0154388
823.959	0.0153490
824.038	0.0153510
824.116	0.0156091
824.194	0.0155797
824.272	0.0155453
824.350	0.0154168
824.428	0.0156319
824.506	0.0156407
824.584	0.0155734
824.663	0.0155125
824.741	0.0155149
824.819	0.0156236
824.897	0.0155781
824.975	0.0153627
825.053	0.0154676
825.131	0.0154107
825.209	0.0153919
825.288	0.0154413
825.366	0.0154012
825.444	0.0155794
825.522	0.0155025
825.600	0.0153220
825.678	0.0154122
825.756	0.0153976
825.834	0.0152905
825.913	0.0153680
825.991	0.0154202
826.069	0.0152158
826.147	0.0153609
826.225	0.0152477
826.303	0.0152905
826.381	0.0150797
826.459	0.0150155
826.538	0.0150968
826.616	0.0149476
826.694	0.0148298
826.772	0.0148668
826.850	0.0148714
826.928	0.0150229
827.006	0.0147195
827.084	0.0148991
827.163	0.0148615
827.241	0.0148002
827.319	0.0148914
827.397	0.0150281
827.475	0.0149416
827.553	0.0149762
827.631	0.0149883
827.709	0.0151526
827.788	0.0150524
827.866	0.0148325
827.944	0.0150789
828.022	0.0151589
828.100	0.0152093
828.178	0.0152554
828.256	0.0154157
828.334	0.0154916
828.413	0.0153486
828.491	0.0154119
828.569	0.0154843
828.647	0.0155801
828.725	0.0156345
828.803	0.0154711
828.881	0.0155397
828.959	0.0155030
829.038	0.0156491
829.116	0.0157533
829.194	0.0155725
829.272	0.0156337
829.350	0.0156636
829.428	0.0156082
829.506	0.0156900
829.584	0.0155696
829.663	0.0156297
829.741	0.0155854
829.819	0.0155274
829.897	0.0155087
829.975	0.0155079
830.053	0.0155873
830.131	0.0155030
830.209	0.0153659
830.288	0.0152984
830.366	0.0152164
830.444	0.0152229
830.522	0.0152336
830.600	0.0152457
830.678	0.0151816
830.756	0.0150903
830.834	0.0150288
830.913	0.0150719
830.991	0.0150111
831.069	0.0150945
831.147	0.0150644
831.225	0.0149667
831.303	0.0149717
831.381	0.0150088
831.459	0.0150453
831.538	0.0150341
831.616	0.0150105
831.694	0.0150552
831.772	0.0150031
831.850	0.0150080
831.928	0.0149497
832.006	0.0150022
832.084	0.0150471
832.163	0.0150094
832.241	0.0152186
832.319	0.0151875
832.397	0.0150769
832.475	0.0152229
832.553	0.0152000
832.631	0.0152508
832.709	0.0151809
832.788	0.0154154
832.866	0.0153348
832.944	0.0152247
833.022	0.0152769
833.100	0.0151710
833.178	0.0151830
833.256	0.0152795
833.334	0.0151546
833.413	0.0152477
833.491	0.0152566
833.569	0.0152737
833.647	0.0151995
833.725	0.0152724
833.803	0.0153162
833.881	0.0153326
833.959	0.0153424
834.038	0.0152838
834.116	0.0152927
834.194	0.0153818
834.272	0.0154409
834.350	0.0155411
834.428	0.0152731
834.506	0.0155771
834.584	0.0155746
834.663	0.0156393
834.741	0.0154449
834.819	0.0156550
834.897	0.0154543
834.975	0.0154871
835.053	0.0155225
835.131	0.0155204
835.209	0.0155622
835.288	0.0155441
835.366	0.0155589
835.444	0.0156317
835.522	0.0155804
835.600	0.0156887
835.678	0.0154833
835.756	0.0154093
835.834	0.0153286
835.913	0.0155415
835.991	0.0154468
836.069	0.0153465
836.147	0.0154530
836.225	0.0154997
836.303	0.0153712
836.381	0.0154099
836.459	0.0152702
836.538	0.0152124
836.616	0.0152991
836.694	0.0152627
836.772	0.0153622
836.850	0.0153572
836.928	0.0151881
837.006	0.0152374
837.084	0.0153481
837.163	0.0152483
837.241	0.0152592
837.319	0.0151690
837.397	0.0152016
837.475	0.0152194
837.553	0.0154551
837.631	0.0152773
837.709	0.0151615
837.788	0.0153290
837.866	0.0154167
837.944	0.0154211
838.022	0.0152534
838.100	0.0152692
838.178	0.0154475
838.256	0.0153492
838.334	0.0153912
838.413	0.0153627
838.491	0.0152614
838.569	0.0153754
838.647	0.0152207
838.725	0.0151785
838.803	0.0153358
838.881	0.0152969
838.959	0.0152837
839.038	0.0153873
839.116	0.0153062
839.194	0.0152993
839.272	0.0154329
839.350	0.0153581
839.428	0.0153693
839.506	0.0152571
839.584	0.0152976
839.663	0.0154623
839.741	0.0153974
839.819	0.0153735
839.897	0.0153469
839.975	0.0155261
840.053	0.0155907
840.131	0.0157138
840.209	0.0154616
840.288	0.0153542
840.366	0.0155087
840.444	0.0155379
840.522	0.0155576
840.600	0.0155428
840.678	0.0155933
840.756	0.0154085
840.834	0.0155198
840.913	0.0155654
840.991	0.0155127
841.069	0.0155549
841.147	0.0153310
841.225	0.0154446
841.303	0.0153466
841.381	0.0153534
841.459	0.0153008
841.538	0.0153649
841.616	0.0151199
841.694	0.0150500
841.772	0.0151356
841.850	0.0150510
841.928	0.0149975
842.006	0.0150520
842.084	0.0151701
842.163	0.0150075
842.241	0.0149629
842.319	0.0151780
842.397	0.0151572
842.475	0.0150846
842.553	0.0151048
842.631	0.0150489
842.709	0.0150361
842.788	0.0150953
842.866	0.0152258
842.944	0.0152191
843.022	0.0151907
843.100	0.0151888
843.178	0.0153794
843.256	0.0153555
843.334	0.0153432
843.413	0.0153543
843.491	0.0154068
843.569	0.0154513
843.647	0.0154436
843.725	0.0155038
843.803	0.0154590
843.881	0.0154597
843.959	0.0155099
844.038	0.0156606
844.116	0.0154185
844.194	0.0155141
844.272	0.0155547
844.350	0.0155929
844.428	0.0156168
844.506	0.0155009
844.584	0.0154600
844.663	0.0155215
844.741	0.0155380
844.819	0.0156208
844.897	0.0154092
844.975	0.0153851
845.053	0.0153278
845.131	0.0153835
845.209	0.0153288
845.288	0.0154811
845.366	0.0152890
845.444	0.0153749
845.522	0.0156146
845.600	0.0153106
845.678	0.0151210
845.756	0.0153576
845.834	0.0152794
845.913	0.0151254
845.991	0.0151164
846.069	0.0152151
846.147	0.0153850
846.225	0.0152075
846.303	0.0151144
846.381	0.0153050
846.459	0.0152939
846.538	0.0154615
846.616	0.0152808
846.694	0.0152495
846.772	0.0153594
846.850	0.0153497
846.928	0.0153808
847.006	0.0152267
847.084	0.0152807
847.163	0.0152874
847.241	0.0151642
847.319	0.0152892
847.397	0.0153272
847.475	0.0151847
847.553	0.0152483
847.631	0.0152979
847.709	0.0153300
847.788	0.0153155
847.866	0.0152988
847.944	0.0154137
848.022	0.0153629
848.100	0.0153815
848.178	0.0153807
848.256	0.0152201
848.334	0.0152003
848.413	0.0155865
848.491	0.0155325
848.569	0.0154244
848.647	0.0154217
848.725	0.0155599
848.803	0.0153890
848.881	0.0154359
848.959	0.0155611
849.038	0.0154136
849.116	0.0154294
849.194	0.0155888
849.272	0.0155609
849.350	0.0155456
849.428	0.0155576
849.506	0.0155058
849.584	0.0153422
849.663	0.0154552
849.741	0.0155393
849.819	0.0155763
849.897	0.0153313
849.975	0.0153880
850.053	0.0156204
850.131	0.0154740
850.209	0.0154211
850.288	0.0153898
850.366	0.0155165
850.444	0.0153884
850.522	0.0153951
850.600	0.0154898
850.678	0.0154063
850.756	0.0154198
850.834	0.0154305
850.913	0.0152105
850.991	0.0153334
851.069	0.0155134
851.147	0.0153569
851.225	0.0152888
851.303	0.0152968
851.381	0.0152741
851.459	0.0153931
851.538	0.0152509
851.616	0.0153428
851.694	0.0152188
851.772	0.0152770
851.850	0.0153030
851.928	0.0151527
852.006	0.0152995
852.084	0.0153321
852.163	0.0152864
852.241	0.0153661
852.319	0.0151985
852.397	0.0152708
852.475	0.0151963
852.553	0.0152468
852.631	0.0150446
852.709	0.0150303
852.788	0.0152056
852.866	0.0150578
852.944	0.0151342
853.022	0.0151477
853.100	0.0152061
853.178	0.0151452
853.256	0.0150903
853.334	0.0150925
853.413	0.0150304
853.491	0.0151228
853.569	0.0150568
853.647	0.0150003
853.725	0.0150666
853.803	0.0150132
853.881	0.0150489
853.959	0.0150187
854.038	0.0150636
854.116	0.0151430
854.194	0.0151362
854.272	0.0149695
854.350	0.0150699
854.428	0.0150093
854.506	0.0150996
854.584	0.0150507
854.663	0.0149864
854.741	0.0150564
854.819	0.0150881
854.897	0.0152248
854.975	0.0152447
855.053	0.0152874
855.131	0.0151696
855.209	0.0152676
855.288	0.0151559
855.366	0.0151595
855.444	0.0153407
855.522	0.0155119
855.600	0.0153858
855.678	0.0153227
855.756	0.0151815
855.834	0.0153754
855.913	0.0153468
855.991	0.0154940
856.069	0.0153203
856.147	0.0154815
856.225	0.0153920
856.303	0.0153816
856.381	0.0154203
856.459	0.0154196
856.538	0.0153182
856.616	0.0154247
856.694	0.0152525
856.772	0.0153949
856.850	0.0153351
856.928	0.0154310
857.006	0.0153020
857.084	0.0154165
857.163	0.0152908
857.241	0.0152232
857.319	0.0153946
857.397	0.0153355
857.475	0.0153396
857.553	0.0153493
857.631	0.0152826
857.709	0.0153510
857.788	0.0151048
857.866	0.0152391
857.944	0.0152585
858.022	0.0152387
858.100	0.0152743
858.178	0.0153703
858.256	0.0153453
858.334	0.0153154
858.413	0.0154285
858.491	0.0153243
858.569	0.0154007
858.647	0.0153179
858.725	0.0153601
858.803	0.0153230
858.881	0.0153316
858.959	0.0153204
859.038	0.0152369
859.116	0.0152483
859.194	0.0152415
859.272	0.0151559
859.350	0.0153008
859.428	0.0152256
859.506	0.0151994
859.584	0.0151949
859.663	0.0152354
859.741	0.0152954
859.819	0.0151977
859.897	0.0152316
859.975	0.0152881
860.053	0.0150906
860.131	0.0151029
860.209	0.0152132
860.288	0.0152428
860.366	0.0152450
860.444	0.0151894
860.522	0.0151820
860.600	0.0152784
860.678	0.0153508
860.756	0.0152425
860.834	0.0152588
860.913	0.0152821
860.991	0.0152706
861.069	0.0153186
861.147	0.0152032
861.225	0.0154031
861.303	0.0153983
861.381	0.0152142
861.459	0.0153402
861.538	0.0152726
861.616	0.0153099
861.694	0.0154558
861.772	0.0153379
861.850	0.0154353
861.928	0.0153262
862.006	0.0154460
862.084	0.0155629
862.163	0.0155180
862.241	0.0154226
862.319	0.0155158
862.397	0.0154649
862.475	0.0154102
862.553	0.0154087
862.631	0.0153899
862.709	0.0154073
862.788	0.0153537
862.866	0.0154813
862.944	0.0153681
863.022	0.0152725
863.100	0.0152955
863.178	0.0153848
863.256	0.0153207
863.334	0.0152631
863.413	0.0151565
863.491	0.0151427
863.569	0.0152119
863.647	0.0151759
863.725	0.0150233
863.803	0.0151355
863.881	0.0151004
863.959	0.0149969
864.038	0.0151755
864.116	0.0151062
864.194	0.0152214
864.272	0.0151614
864.350	0.0151217
864.428	0.0152668
864.506	0.0151956
864.584	0.0152493
864.663	0.0153642
864.741	0.0153670
864.819	0.0152081
864.897	0.0152558
864.975	0.0152843
865.053	0.0154144
865.131	0.0153427
865.209	0.0153650
865.288	0.0154496
865.366	0.0154443
865.444	0.0154108
865.522	0.0154676
865.600	0.0154858
865.678	0.0154490
865.756	0.0153203
865.834	0.0155927
865.913	0.0154259
865.991	0.0153305
866.069	0.0155229
866.147	0.0155290
866.225	0.0154493
866.303	0.0153454
866.381	0.0154729
866.459	0.0155177
866.538	0.0155889
866.616	0.0155516
866.694	0.0152941
866.772	0.0155147
866.850	0.0154548
866.928	0.0154991
867.006	0.0155562
867.084	0.0153346
867.163	0.0154409
867.241	0.0154176
867.319	0.0153305
867.397	0.0154420
867.475	0.0153968
867.553	0.0152956
867.631	0.0153079
867.709	0.0154994
867.788	0.0152560
867.866	0.0153989
867.944	0.0154420
868.022	0.0154890
868.100	0.0155022
868.178	0.0152741
868.256	0.0154585
868.334	0.0154938
868.413	0.0155303
868.491	0.0153163
868.569	0.0153597
868.647	0.0153411
868.725	0.0153632
868.803	0.0153816
868.881	0.0152982
868.959	0.0154523
869.038	0.0155429
869.116	0.0155268
869.194	0.0154274
869.272	0.0154785
869.350	0.0155423
869.428	0.0155128
869.506	0.0153310
869.584	0.0155335
869.663	0.0155172
869.741	0.0154439
869.819	0.0154749
869.897	0.0155040
869.975	0.0155172
870.053	0.0154083
870.131	0.0154971
870.209	0.0157270
870.288	0.0155694
870.366	0.0155174
870.444	0.0155045
870.522	0.0155094
870.600	0.0155016
870.678	0.0156799
870.756	0.0155733
870.834	0.0156180
870.913	0.0156297
870.991	0.0155817
871.069	0.0154890
871.147	0.0155802
871.225	0.0155811
871.303	0.0156249
871.381	0.0155684
871.459	0.0155529
871.538	0.0154816
871.616	0.0154781
871.694	0.0155657
871.772	0.0154597
871.850	0.0155170
871.928	0.0154097
872.006	0.0154263
872.084	0.0155319
872.163	0.0154121
872.241	0.0154793
872.319	0.0154497
872.397	0.0154442
872.475	0.0154343
872.553	0.0154712
872.631	0.0153394
872.709	0.0153284
872.788	0.0152374
872.866	0.0153048
872.944	0.0150549
873.022	0.0152914
873.100	0.0153442
873.178	0.0152373
873.256	0.0150954
873.334	0.0151669
873.413	0.0151955
873.491	0.0151814
873.569	0.0150598
873.647	0.0151488
873.725	0.0151386
873.803	0.0151830
873.881	0.0151541
873.959	0.0151180
874.038	0.0152103
874.116	0.0151376
874.194	0.0152721
874.272	0.0151208
874.350	0.0152058
874.428	0.0152457
874.506	0.0151856
874.584	0.0152187
874.663	0.0152805
874.741	0.0151889
874.819	0.0153293
874.897	0.0152528
874.975	0.0153009
875.053	0.0152169
875.131	0.0153065
875.209	0.0153445
875.288	0.0153805
875.366	0.0153286
875.444	0.0152177
875.522	0.0153773
875.600	0.0155093
875.678	0.0153898
875.756	0.0154101
875.834	0.0153669
875.913	0.0154299
875.991	0.0155061
876.069	0.0154456
876.147	0.0155262
876.225	0.0154019
876.303	0.0153859
876.381	0.0153800
876.459	0.0154879
876.538	0.0154121
876.616	0.0153894
876.694	0.0154821
876.772	0.0155112
876.850	0.0154565
876.928	0.0154467
877.006	0.0153535
877.084	0.0152543
877.163	0.0153878
877.241	0.0154065
877.319	0.0154394
877.397	0.0153764
877.475	0.0152872
877.553	0.0152248
877.631	0.0153236
877.709	0.0152793
877.788	0.0153271
877.866	0.0154283
877.944	0.0152213
878.022	0.0152998
878.100	0.0153065
878.178	0.0152454
878.256	0.0152750
878.334	0.0153767
878.413	0.0154454
878.491	0.0153155
878.569	0.0151492
878.647	0.0152452
878.725	0.0154204
878.803	0.0151217
878.881	0.0151630
878.959	0.0152677
879.038	0.0153134
879.116	0.0153544
879.194	0.0152975
879.272	0.0153044
879.350	0.0152567
879.428	0.0152955
879.506	0.0151615
879.584	0.0151856
879.663	0.0151759
879.741	0.0152806
879.819	0.0151661
879.897	0.0151212
879.975	0.0151430
880.053	0.0150097
880.131	0.0151044
880.209	0.0152776
880.288	0.0151738
880.366	0.0152249
880.444	0.0150128
880.522	0.0150132
880.600	0.0149564
880.678	0.0151630
880.756	0.0152384
880.834	0.0151197
880.913	0.0151319
880.991	0.0153254
881.069	0.0151687
881.147	0.0151417
881.225	0.0151971
881.303	0.0152826
881.381	0.0151436
881.459	0.0151743
881.538	0.0152203
881.616	0.0152856
881.694	0.0151113
881.772	0.0152029
881.850	0.0152425
881.928	0.0151299
882.006	0.0151350
882.084	0.0151214
882.163	0.0151897
882.241	0.0150281
882.319	0.0151723
882.397	0.0150851
882.475	0.0151633
882.553	0.0150089
882.631	0.0151418
882.709	0.0151894
882.788	0.0151480
882.866	0.0150563
882.944	0.0151818
883.022	0.0150999
883.100	0.0151530
883.178	0.0152099
883.256	0.0151196
883.334	0.0151658
883.413	0.0151768
883.491	0.0152356
883.569	0.0153091
883.647	0.0150529
883.725	0.0151657
883.803	0.0152753
883.881	0.0151452
883.959	0.0153591
884.038	0.0152936
884.116	0.0153613
884.194	0.0153757
884.272	0.0153293
884.350	0.0153635
884.428	0.0153162
884.506	0.0154639
884.584	0.0153522
884.663	0.0153181
884.741	0.0151939
884.819	0.0152577
884.897	0.0152055
884.975	0.0152740
885.053	0.0153099
885.131	0.0153837
885.209	0.0152358
885.288	0.0153554
885.366	0.0153217
885.444	0.0153979
885.522	0.0152016
885.600	0.0152245
885.678	0.0152907
885.756	0.0153761
885.834	0.0152288
885.913	0.0151258
885.991	0.0151295
886.069	0.0150348
886.147	0.0150695
886.225	0.0150742
886.303	0.0151522
886.381	0.0151654
886.459	0.0152220
886.538	0.0150633
886.616	0.0152205
886.694	0.0150249
886.772	0.0151463
886.850	0.0151665
886.928	0.0152746
887.006	0.0151367
887.084	0.0152057
887.163	0.0151785
887.241	0.0151909
887.319	0.0152788
887.397	0.0151816
887.475	0.0152109
887.553	0.0151104
887.631	0.0152959
887.709	0.0152919
887.788	0.0152982
887.866	0.0152291
887.944	0.0151926
888.022	0.0153346
888.100	0.0153215
888.178	0.0154196
888.256	0.0154691
888.334	0.0153983
888.413	0.0153687
888.491	0.0155414
888.569	0.0153808
888.647	0.0153601
888.725	0.0153359
888.803	0.0153712
888.881	0.0155283
888.959	0.0155370
889.038	0.0153780
889.116	0.0153799
889.194	0.0156001
889.272	0.0153762
889.350	0.0154645
889.428	0.0153853
889.506	0.0154369
889.584	0.0153608
889.663	0.0153019
889.741	0.0154266
889.819	0.0155514
889.897	0.0154006
889.975	0.0154848
890.053	0.0154686
890.131	0.0154130
890.209	0.0152671
890.288	0.0152486
890.366	0.0153924
890.444	0.0152837
890.522	0.0152846
890.600	0.0153387
890.678	0.0153527
890.756	0.0153721
890.834	0.0153357
890.913	0.0154913
890.991	0.0154366
891.069	0.0153584
891.147	0.0153086
891.225	0.0153440
891.303	0.0153568
891.381	0.0153288
891.459	0.0154323
891.538	0.0154359
891.616	0.0154733
891.694	0.0154569
891.772	0.0153854
891.850	0.0155717
891.928	0.0156573
892.006	0.0155982
892.084	0.0154696
892.163	0.0155638
892.241	0.0153284
892.319	0.0156203
892.397	0.0155157
892.475	0.0156222
892.553	0.0155378
892.631	0.0155006
892.709	0.0156372
892.788	0.0156732
892.866	0.0156141
892.944	0.0156470
893.022	0.0154951
893.100	0.0155711
893.178	0.0155679
893.256	0.0156090
893.334	0.0155123
893.413	0.0155119
893.491	0.0153488
893.569	0.0154806
893.647	0.0154176
893.725	0.0153525
893.803	0.0153539
893.881	0.0154127
893.959	0.0153867
894.038	0.0153474
894.116	0.0152598
894.194	0.0152932
894.272	0.0153687
894.350	0.0154523
894.428	0.0152532
894.506	0.0153862
894.584	0.0154626
894.663	0.0154044
894.741	0.0153607
894.819	0.0153579
894.897	0.0153420
894.975	0.0152800
895.053	0.0153857
895.131	0.0154248
895.209	0.0154500
895.288	0.0154230
895.366	0.0153335
895.444	0.0154118
895.522	0.0153071
895.600	0.0152949
895.678	0.0154183
895.756	0.0153345
895.834	0.0155589
895.913	0.0153410
895.991	0.0153996
896.069	0.0154155
896.147	0.0154081
896.225	0.0153342
896.303	0.0153043
896.381	0.0153311
896.459	0.0154048
896.538	0.0154208
896.616	0.0152334
896.694	0.0153516
896.772	0.0153638
896.850	0.0153430
896.928	0.0152298
897.006	0.0151284
897.084	0.0152693
897.163	0.0153396
897.241	0.0154497
897.319	0.0153548
897.397	0.0151924
897.475	0.0152404
897.553	0.0150323
897.631	0.0152277
897.709	0.0153530
897.788	0.0152307
897.866	0.0153049
897.944	0.0153075
898.022	0.0151984
898.100	0.0152700
898.178	0.0153318
898.256	0.0153362
898.334	0.0153480
898.413	0.0153087
898.491	0.0153645
898.569	0.0154224
898.647	0.0152965
898.725	0.0155005
898.803	0.0154284
898.881	0.0155114
898.959	0.0154829
899.038	0.0154641
899.116	0.0155349
899.194	0.0154317
899.272	0.0154669
899.350	0.0154345
899.428	0.0155277
899.506	0.0154950
899.584	0.0153801
899.663	0.0154594
899.741	0.0152498
899.819	0.0153727
899.897	0.0153905
899.975	0.0152785
900.053	0.0151672
900.131	0.0153068
900.209	0.0153281
900.288	0.0152794
900.366	0.0152802
900.444	0.0152346
900.522	0.0152393
900.600	0.0151826
900.678	0.0152968
900.756	0.0152177
900.834	0.0150895
900.913	0.0152885
900.991	0.0152559
901.069	0.0151361
901.147	0.0152076
901.225	0.0151679
901.303	0.0151615
901.381	0.0153292
901.459	0.0152254
901.538	0.0153392
901.616	0.0154053
901.694	0.0152493
901.772	0.0152829
901.850	0.0153425
901.928	0.0154739
902.006	0.0153080
902.084	0.0153367
902.163	0.0152621
902.241	0.0152841
902.319	0.0153069
902.397	0.0152211
902.475	0.0153053
902.553	0.0153188
902.631	0.0153365
902.709	0.0153197
902.788	0.0152436
902.866	0.0153664
902.944	0.0154186
903.022	0.0153192
903.100	0.0153149
903.178	0.0153466
903.256	0.0151318
903.334	0.0152644
903.413	0.0153339
903.491	0.0151279
903.569	0.0151604
903.647	0.0152827
903.725	0.0150310
903.803	0.0151652
903.881	0.0151422
903.959	0.0151449
904.038	0.0153019
904.116	0.0152828
904.194	0.0152034
904.272	0.0152238
904.350	0.0152518
904.428	0.0152666
904.506	0.0153104
904.584	0.0154107
904.663	0.0153132
904.741	0.0153220
904.819	0.0154484
904.897	0.0154072
904.975	0.0153294
905.053	0.0152779
905.131	0.0154214
905.209	0.0155038
905.288	0.0152850
905.366	0.0152034
905.444	0.0152687
905.522	0.0152200
905.600	0.0151481
905.678	0.0152937
905.756	0.0152605
905.834	0.0153130
905.913	0.0151797
905.991	0.0151512
906.069	0.0152967
906.147	0.0151675
906.225	0.0150091
906.303	0.0150435
906.381	0.0151493
906.459	0.0151225
906.538	0.0150842
906.616	0.0149292
906.694	0.0150861
906.772	0.0151420
906.850	0.0150830
906.928	0.0151670
907.006	0.0150948
907.084	0.0151082
907.163	0.0152257
907.241	0.0152020
907.319	0.0151334
907.397	0.0152664
907.475	0.0151997
907.553	0.0151305
907.631	0.0152220
907.709	0.0152521
907.788	0.0152761
907.866	0.0153777
907.944	0.0152315
908.022	0.0153122
908.100	0.0154127
908.178	0.0154426
908.256	0.0153400
908.334	0.0153951
908.413	0.0153896
908.491	0.0154146
908.569	0.0154543
908.647	0.0154731
908.725	0.0155517
908.803	0.0154630
908.881	0.0154114
908.959	0.0153915
909.038	0.0153580
909.116	0.0153985
909.194	0.0153321
909.272	0.0154373
909.350	0.0153280
909.428	0.0152781
909.506	0.0153822
909.584	0.0151592
909.663	0.0153208
909.741	0.0153449
909.819	0.0153832
909.897	0.0151840
909.975	0.0152212
910.053	0.0152112
910.131	0.0152390
910.209	0.0152879
910.288	0.0151772
910.366	0.0152475
910.444	0.0151338
910.522	0.0152050
910.600	0.0152200
910.678	0.0152811
910.756	0.0152660
910.834	0.0152581
910.913	0.0153137
910.991	0.0152456
911.069	0.0153040
911.147	0.0151978
911.225	0.0153429
911.303	0.0151237
911.381	0.0153365
911.459	0.0152008
911.538	0.0152277
911.616	0.0153200
911.694	0.0153152
911.772	0.0153052
911.850	0.0153757
911.928	0.0152850
912.006	0.0153600
912.084	0.0154428
912.163	0.0153346
912.241	0.0154922
912.319	0.0153794
912.397	0.0154875
912.475	0.0154494
912.553	0.0152198
912.631	0.0154621
912.709	0.0154865
912.788	0.0154980
912.866	0.0154178
912.944	0.0154620
913.022	0.0153564
913.100	0.0153791
913.178	0.0155244
913.256	0.0154387
913.334	0.0153417
913.413	0.0153072
913.491	0.0155071
913.569	0.0152796
913.647	0.0153554
913.725	0.0153519
913.803	0.0154717
913.881	0.0155103
913.959	0.0154943
914.038	0.0155112
914.116	0.0154386
914.194	0.0155019
914.272	0.0155608
914.350	0.0154092
914.428	0.0155491
914.506	0.0155495
914.584	0.0155127
914.663	0.0154264
914.741	0.0153851
914.819	0.0154013
914.897	0.0153856
914.975	0.0154684
915.053	0.0154440
915.131	0.0152771
915.209	0.0153411
915.288	0.0154082
915.366	0.0153235
915.444	0.0153330
915.522	0.0152331
915.600	0.0152870
915.678	0.0152184
915.756	0.0152831
915.834	0.0152568
915.913	0.0151405
915.991	0.0151126
916.069	0.0151176
916.147	0.0150427
916.225	0.0149534
916.303	0.0150249
916.381	0.0150401
916.459	0.0148849
916.538	0.0151312
916.616	0.0151154
916.694	0.0150970
916.772	0.0151226
916.850	0.0150771
916.928	0.0150477
917.006	0.0151731
917.084	0.0151091
917.163	0.0153033
917.241	0.0154504
917.319	0.0152267
917.397	0.0154078
917.475	0.0153982
917.553	0.0153708
917.631	0.0154782
917.709	0.0154723
917.788	0.0154109
917.866	0.0154823
917.944	0.0155305
918.022	0.0154961
918.100	0.0154320
918.178	0.0154947
918.256	0.0155759
918.334	0.0155209
918.413	0.0155457
918.491	0.0155754
918.569	0.0154678
918.647	0.0153832
918.725	0.0153706
918.803	0.0156614
918.881	0.0155370
918.959	0.0154830
919.038	0.0154814
919.116	0.0154814
919.194	0.0153239
919.272	0.0154622
919.350	0.0156362
919.428	0.0156228
919.506	0.0155473
919.584	0.0155509
919.663	0.0156596
919.741	0.0155527
919.819	0.0155812
919.897	0.0156129
