05/20/2022	21:20:14	Ver.	4.1	UNKNOWN
Optical Delay	599.975067	Delta X		0.078125	Sweeps	1	Scan Rate	0/0
Coordinates	Axis 1	NaN	Axis 2	NaN	Axis 3	NaN	Axis 4	NaN	Axis 5	NaN	Axis 6	0.000000
TX Power	0.000000	RX Power	0.000000

599.975	0.0153857
600.053	0.0154172
600.131	0.0154613
600.209	0.0154617
600.288	0.0152422
600.366	0.0152318
600.444	0.0152679
600.522	0.0152917
600.600	0.0152637
600.678	0.0151874
600.756	0.0152924
600.834	0.0153121
600.913	0.0153297
600.991	0.0151842
601.069	0.0154008
601.147	0.0152418
601.225	0.0151836
601.303	0.0152383
601.381	0.0152664
601.459	0.0151808
601.538	0.0151609
601.616	0.0151949
601.694	0.0153063
601.772	0.0152567
601.850	0.0152161
601.928	0.0150638
602.006	0.0152409
602.084	0.0151743
602.163	0.0151353
602.241	0.0151290
602.319	0.0151048
602.397	0.0151989
602.475	0.0152299
602.553	0.0152499
602.631	0.0152665
602.709	0.0152289
602.788	0.0150410
602.866	0.0151974
602.944	0.0152230
603.022	0.0150644
603.100	0.0151847
603.178	0.0151827
603.256	0.0150655
603.334	0.0151009
603.413	0.0151249
603.491	0.0152425
603.569	0.0152594
603.647	0.0152839
603.725	0.0151363
603.803	0.0151510
603.881	0.0152554
603.959	0.0152721
604.038	0.0151131
604.116	0.0151231
604.194	0.0151295
604.272	0.0152087
604.350	0.0152966
604.428	0.0152006
604.506	0.0152484
604.584	0.0151302
604.663	0.0151891
604.741	0.0151938
604.819	0.0152625
604.897	0.0151449
604.975	0.0152194
605.053	0.0152480
605.131	0.0152049
605.209	0.0152907
605.288	0.0152512
605.366	0.0153239
605.444	0.0152831
605.522	0.0152343
605.600	0.0152854
605.678	0.0152451
605.756	0.0152212
605.834	0.0151849
605.913	0.0152807
605.991	0.0152705
606.069	0.0152621
606.147	0.0152917
606.225	0.0153244
606.303	0.0152727
606.381	0.0152258
606.459	0.0152300
606.538	0.0152238
606.616	0.0151413
606.694	0.0153206
606.772	0.0152628
606.850	0.0152273
606.928	0.0153410
607.006	0.0153712
607.084	0.0152371
607.163	0.0152676
607.241	0.0154436
607.319	0.0153957
607.397	0.0154211
607.475	0.0153606
607.553	0.0153131
607.631	0.0153737
607.709	0.0152401
607.788	0.0153719
607.866	0.0152699
607.944	0.0154218
608.022	0.0153886
608.100	0.0153424
608.178	0.0153049
608.256	0.0152604
608.334	0.0154491
608.413	0.0152519
608.491	0.0153423
608.569	0.0153024
608.647	0.0152885
608.725	0.0152759
608.803	0.0153567
608.881	0.0153832
608.959	0.0152591
609.038	0.0152421
609.116	0.0152929
609.194	0.0152317
609.272	0.0153589
609.350	0.0153012
609.428	0.0152893
609.506	0.0154181
609.584	0.0151699
609.663	0.0152113
609.741	0.0152957
609.819	0.0152767
609.897	0.0151782
609.975	0.0151679
610.053	0.0152581
610.131	0.0151891
610.209	0.0152698
610.288	0.0152154
610.366	0.0151939
610.444	0.0151934
610.522	0.0151063
610.600	0.0153452
610.678	0.0153088
610.756	0.0152798
610.834	0.0151044
610.913	0.0151540
610.991	0.0154098
611.069	0.0152790
611.147	0.0152840
611.225	0.0153125
611.303	0.0152168
611.381	0.0151331
611.459	0.0152693
611.538	0.0151167
611.616	0.0153026
611.694	0.0153112
611.772	0.0153523
611.850	0.0152634
611.928	0.0151971
612.006	0.0153860
612.084	0.0154309
612.163	0.0154059
612.241	0.0153860
612.319	0.0153932
612.397	0.0152925
612.475	0.0153806
612.553	0.0153728
612.631	0.0153615
612.709	0.0153706
612.788	0.0153213
612.866	0.0152295
612.944	0.0153654
613.022	0.0154004
613.100	0.0153717
613.178	0.0153934
613.256	0.0154864
613.334	0.0153998
613.413	0.0153301
613.491	0.0153825
613.569	0.0154446
613.647	0.0154187
613.725	0.0154419
613.803	0.0155125
613.881	0.0153740
613.959	0.0155089
614.038	0.0155173
614.116	0.0154563
614.194	0.0154118
614.272	0.0154043
614.350	0.0153970
614.428	0.0153999
614.506	0.0154494
614.584	0.0153269
614.663	0.0153450
614.741	0.0154404
614.819	0.0154047
614.897	0.0154688
614.975	0.0154622
615.053	0.0154661
615.131	0.0153307
615.209	0.0155562
615.288	0.0153979
615.366	0.0153846
615.444	0.0153422
615.522	0.0152889
615.600	0.0152530
615.678	0.0153679
615.756	0.0153515
615.834	0.0153644
615.913	0.0151494
615.991	0.0153171
616.069	0.0152503
616.147	0.0150669
616.225	0.0152418
616.303	0.0151691
616.381	0.0153231
616.459	0.0151836
616.538	0.0152008
616.616	0.0152695
616.694	0.0153514
616.772	0.0152290
616.850	0.0151933
616.928	0.0151459
617.006	0.0152905
617.084	0.0154724
617.163	0.0153847
617.241	0.0153414
617.319	0.0153995
617.397	0.0154535
617.475	0.0152419
617.553	0.0152846
617.631	0.0153674
617.709	0.0153442
617.788	0.0155010
617.866	0.0153295
617.944	0.0152005
618.022	0.0152723
618.100	0.0154510
618.178	0.0153494
618.256	0.0153551
618.334	0.0154191
618.413	0.0152216
618.491	0.0153532
618.569	0.0152615
618.647	0.0153124
618.725	0.0152180
618.803	0.0154259
618.881	0.0153139
618.959	0.0152250
619.038	0.0153223
619.116	0.0153892
619.194	0.0153584
619.272	0.0153095
619.350	0.0155382
619.428	0.0155404
619.506	0.0154000
619.584	0.0154510
619.663	0.0153397
619.741	0.0155420
619.819	0.0153741
619.897	0.0154150
619.975	0.0156330
620.053	0.0154883
620.131	0.0153947
620.209	0.0154274
620.288	0.0154636
620.366	0.0155528
620.444	0.0154784
620.522	0.0153542
620.600	0.0153078
620.678	0.0153711
620.756	0.0152956
620.834	0.0152767
620.913	0.0154541
620.991	0.0152309
621.069	0.0152866
621.147	0.0153161
621.225	0.0151681
621.303	0.0152268
621.381	0.0151974
621.459	0.0152115
621.538	0.0150330
621.616	0.0151811
621.694	0.0150652
621.772	0.0151913
621.850	0.0152300
621.928	0.0151289
622.006	0.0151994
622.084	0.0151105
622.163	0.0150547
622.241	0.0151179
622.319	0.0149846
622.397	0.0151799
622.475	0.0152374
622.553	0.0150518
622.631	0.0152058
622.709	0.0152032
622.788	0.0151742
622.866	0.0152369
622.944	0.0151520
623.022	0.0150052
623.100	0.0151430
623.178	0.0150863
623.256	0.0150920
623.334	0.0150761
623.413	0.0149547
623.491	0.0152002
623.569	0.0151965
623.647	0.0152085
623.725	0.0150513
623.803	0.0151328
623.881	0.0151847
623.959	0.0150465
624.038	0.0152290
624.116	0.0151997
624.194	0.0153101
624.272	0.0151842
624.350	0.0152257
624.428	0.0151849
624.506	0.0152880
624.584	0.0152635
624.663	0.0152527
624.741	0.0151504
624.819	0.0152409
624.897	0.0152606
624.975	0.0151929
625.053	0.0154375
625.131	0.0152654
625.209	0.0151777
625.288	0.0152053
625.366	0.0153458
625.444	0.0152414
625.522	0.0152154
625.600	0.0153901
625.678	0.0152077
625.756	0.0152228
625.834	0.0153400
625.913	0.0151930
625.991	0.0153364
626.069	0.0152481
626.147	0.0152600
626.225	0.0152737
626.303	0.0152499
626.381	0.0152690
626.459	0.0153338
626.538	0.0152272
626.616	0.0152955
626.694	0.0151551
626.772	0.0151946
626.850	0.0152889
626.928	0.0153073
627.006	0.0152324
627.084	0.0152340
627.163	0.0153309
627.241	0.0152443
627.319	0.0152109
627.397	0.0152032
627.475	0.0151506
627.553	0.0152599
627.631	0.0153890
627.709	0.0153243
627.788	0.0152044
627.866	0.0153551
627.944	0.0154272
628.022	0.0154328
628.100	0.0153885
628.178	0.0151857
628.256	0.0152821
628.334	0.0153268
628.413	0.0154168
628.491	0.0152882
628.569	0.0152640
628.647	0.0153587
628.725	0.0153616
628.803	0.0152639
628.881	0.0152905
628.959	0.0152321
629.038	0.0151382
629.116	0.0153147
629.194	0.0153710
629.272	0.0153947
629.350	0.0152946
629.428	0.0151386
629.506	0.0151364
629.584	0.0152112
629.663	0.0153041
629.741	0.0153849
629.819	0.0153798
629.897	0.0153152
629.975	0.0152050
630.053	0.0152753
630.131	0.0154246
630.209	0.0154161
630.288	0.0153536
630.366	0.0152648
630.444	0.0152924
630.522	0.0153312
630.600	0.0151479
630.678	0.0152192
630.756	0.0155017
630.834	0.0154334
630.913	0.0153468
630.991	0.0152380
631.069	0.0153457
631.147	0.0151757
631.225	0.0153569
631.303	0.0153189
631.381	0.0153720
631.459	0.0152428
631.538	0.0151873
631.616	0.0152669
631.694	0.0154151
631.772	0.0154277
631.850	0.0152281
631.928	0.0152348
632.006	0.0153876
632.084	0.0154237
632.163	0.0154177
632.241	0.0153207
632.319	0.0153966
632.397	0.0154154
632.475	0.0152531
632.553	0.0154061
632.631	0.0152908
632.709	0.0153558
632.788	0.0153705
632.866	0.0153641
632.944	0.0153019
633.022	0.0153107
633.100	0.0153563
633.178	0.0154710
633.256	0.0153022
633.334	0.0153227
633.413	0.0153180
633.491	0.0153823
633.569	0.0153170
633.647	0.0154115
633.725	0.0155156
633.803	0.0154292
633.881	0.0152740
633.959	0.0153117
634.038	0.0152042
634.116	0.0153403
634.194	0.0154350
634.272	0.0154145
634.350	0.0153139
634.428	0.0152935
634.506	0.0153613
634.584	0.0152071
634.663	0.0152557
634.741	0.0152341
634.819	0.0153490
634.897	0.0153161
634.975	0.0154831
635.053	0.0154308
635.131	0.0153259
635.209	0.0153114
635.288	0.0153233
635.366	0.0152824
635.444	0.0154031
635.522	0.0153195
635.600	0.0153068
635.678	0.0152768
635.756	0.0153738
635.834	0.0152785
635.913	0.0154277
635.991	0.0152393
636.069	0.0152538
636.147	0.0152506
636.225	0.0154327
636.303	0.0153832
636.381	0.0153670
636.459	0.0153379
636.538	0.0153620
636.616	0.0153203
636.694	0.0153742
636.772	0.0152328
636.850	0.0152734
636.928	0.0152749
637.006	0.0152352
637.084	0.0152659
637.163	0.0153068
637.241	0.0153897
637.319	0.0152303
637.397	0.0151097
637.475	0.0153216
637.553	0.0153056
637.631	0.0152113
637.709	0.0153069
637.788	0.0152445
637.866	0.0153362
637.944	0.0152383
638.022	0.0151328
638.100	0.0151978
638.178	0.0153187
638.256	0.0153311
638.334	0.0152409
638.413	0.0152191
638.491	0.0153098
638.569	0.0151281
638.647	0.0152109
638.725	0.0153645
638.803	0.0153730
638.881	0.0152520
638.959	0.0151115
639.038	0.0152848
639.116	0.0153348
639.194	0.0153229
639.272	0.0153834
639.350	0.0152966
639.428	0.0152228
639.506	0.0152756
639.584	0.0152216
639.663	0.0153334
639.741	0.0152175
639.819	0.0154042
639.897	0.0153168
639.975	0.0152858
640.053	0.0152409
640.131	0.0152782
640.209	0.0154195
640.288	0.0151909
640.366	0.0153314
640.444	0.0153306
640.522	0.0153343
640.600	0.0153457
640.678	0.0152395
640.756	0.0153410
640.834	0.0154417
640.913	0.0153972
640.991	0.0153683
641.069	0.0155196
641.147	0.0154510
641.225	0.0155396
641.303	0.0156487
641.381	0.0154874
641.459	0.0155372
641.538	0.0156299
641.616	0.0156343
641.694	0.0155476
641.772	0.0156084
641.850	0.0153542
641.928	0.0153810
642.006	0.0155630
642.084	0.0156372
642.163	0.0154664
642.241	0.0155579
642.319	0.0155110
642.397	0.0155437
642.475	0.0155376
642.553	0.0152907
642.631	0.0155067
642.709	0.0155371
642.788	0.0154647
642.866	0.0153650
642.944	0.0154282
643.022	0.0154073
643.100	0.0154681
643.178	0.0154325
643.256	0.0154495
643.334	0.0153631
643.413	0.0153120
643.491	0.0153331
643.569	0.0154212
643.647	0.0154331
643.725	0.0153291
643.803	0.0152675
643.881	0.0152582
643.959	0.0152666
644.038	0.0154529
644.116	0.0152926
644.194	0.0152775
644.272	0.0153080
644.350	0.0154085
644.428	0.0153188
644.506	0.0154541
644.584	0.0153091
644.663	0.0153672
644.741	0.0153470
644.819	0.0154549
644.897	0.0154765
644.975	0.0154678
645.053	0.0154279
645.131	0.0154745
645.209	0.0154419
645.288	0.0155019
645.366	0.0154324
645.444	0.0154750
645.522	0.0154752
645.600	0.0155118
645.678	0.0154823
645.756	0.0153394
645.834	0.0154205
645.913	0.0154059
645.991	0.0154320
646.069	0.0153986
646.147	0.0154001
646.225	0.0154094
646.303	0.0155460
646.381	0.0154140
646.459	0.0154007
646.538	0.0155190
646.616	0.0155494
646.694	0.0154067
646.772	0.0154063
646.850	0.0154879
646.928	0.0154226
647.006	0.0153486
647.084	0.0154642
647.163	0.0154368
647.241	0.0153370
647.319	0.0152543
647.397	0.0154311
647.475	0.0154243
647.553	0.0152887
647.631	0.0152796
647.709	0.0153868
647.788	0.0153719
647.866	0.0152406
647.944	0.0153028
648.022	0.0151555
648.100	0.0152666
648.178	0.0153293
648.256	0.0152200
648.334	0.0152048
648.413	0.0153589
648.491	0.0151846
648.569	0.0151550
648.647	0.0152888
648.725	0.0153634
648.803	0.0153414
648.881	0.0153516
648.959	0.0152567
649.038	0.0153189
649.116	0.0152928
649.194	0.0153102
649.272	0.0153046
649.350	0.0152748
649.428	0.0151241
649.506	0.0154057
649.584	0.0154621
649.663	0.0153271
649.741	0.0154380
649.819	0.0153500
649.897	0.0154111
649.975	0.0153829
650.053	0.0152766
650.131	0.0154466
650.209	0.0154412
650.288	0.0154559
650.366	0.0154078
650.444	0.0153834
650.522	0.0152614
650.600	0.0153575
650.678	0.0154194
650.756	0.0155022
650.834	0.0154945
650.913	0.0154381
650.991	0.0154577
651.069	0.0154124
651.147	0.0153210
651.225	0.0153564
651.303	0.0154945
651.381	0.0154541
651.459	0.0154204
651.538	0.0152908
651.616	0.0154822
651.694	0.0155236
651.772	0.0154024
651.850	0.0153511
651.928	0.0153590
652.006	0.0153521
652.084	0.0153047
652.163	0.0155029
652.241	0.0152747
652.319	0.0151781
652.397	0.0153168
652.475	0.0151998
652.553	0.0153224
652.631	0.0153436
652.709	0.0153682
652.788	0.0152959
652.866	0.0153587
652.944	0.0153436
653.022	0.0153336
653.100	0.0152484
653.178	0.0154097
653.256	0.0154140
653.334	0.0152501
653.413	0.0152770
653.491	0.0153779
653.569	0.0152811
653.647	0.0153962
653.725	0.0153530
653.803	0.0153237
653.881	0.0153017
653.959	0.0152332
654.038	0.0153689
654.116	0.0153065
654.194	0.0152715
654.272	0.0155049
654.350	0.0152050
654.428	0.0152283
654.506	0.0152535
654.584	0.0152150
654.663	0.0153465
654.741	0.0152802
654.819	0.0151730
654.897	0.0153210
654.975	0.0153550
655.053	0.0152938
655.131	0.0152280
655.209	0.0151083
655.288	0.0153444
655.366	0.0152867
655.444	0.0151904
655.522	0.0153279
655.600	0.0150705
655.678	0.0151863
655.756	0.0153604
655.834	0.0152598
655.913	0.0151768
655.991	0.0151903
656.069	0.0152017
656.147	0.0151238
656.225	0.0152663
656.303	0.0151579
656.381	0.0151639
656.459	0.0153375
656.538	0.0152873
656.616	0.0151979
656.694	0.0152467
656.772	0.0153866
656.850	0.0151897
656.928	0.0152266
657.006	0.0153113
657.084	0.0153610
657.163	0.0152109
657.241	0.0152518
657.319	0.0152509
657.397	0.0152976
657.475	0.0151051
657.553	0.0151666
657.631	0.0153786
657.709	0.0151640
657.788	0.0153601
657.866	0.0151186
657.944	0.0152411
658.022	0.0153245
658.100	0.0153878
658.178	0.0152579
658.256	0.0151452
658.334	0.0150456
658.413	0.0151694
658.491	0.0150565
658.569	0.0151611
658.647	0.0151707
658.725	0.0152436
658.803	0.0150483
658.881	0.0152498
658.959	0.0151958
659.038	0.0151849
659.116	0.0152731
659.194	0.0151747
659.272	0.0151402
659.350	0.0153220
659.428	0.0152751
659.506	0.0152837
659.584	0.0151458
659.663	0.0151133
659.741	0.0152896
659.819	0.0153095
659.897	0.0151495
659.975	0.0151971
660.053	0.0152824
660.131	0.0151891
660.209	0.0152058
660.288	0.0153284
660.366	0.0151718
660.444	0.0151800
660.522	0.0151994
660.600	0.0151405
660.678	0.0152881
660.756	0.0152461
660.834	0.0153638
660.913	0.0153709
660.991	0.0154677
661.069	0.0153687
661.147	0.0153622
661.225	0.0155381
661.303	0.0154291
661.381	0.0153549
661.459	0.0155669
661.538	0.0155370
661.616	0.0153078
661.694	0.0153420
661.772	0.0153536
661.850	0.0153636
661.928	0.0154134
662.006	0.0154044
662.084	0.0153254
662.163	0.0152988
662.241	0.0153328
662.319	0.0153227
662.397	0.0153163
662.475	0.0153166
662.553	0.0152808
662.631	0.0152120
662.709	0.0153658
662.788	0.0152787
662.866	0.0153091
662.944	0.0153627
663.022	0.0155478
663.100	0.0153683
663.178	0.0152662
663.256	0.0153565
663.334	0.0152527
663.413	0.0153988
663.491	0.0152387
663.569	0.0153550
663.647	0.0151408
663.725	0.0150406
663.803	0.0151601
663.881	0.0150795
663.959	0.0151891
664.038	0.0150749
664.116	0.0150705
664.194	0.0150591
664.272	0.0151847
664.350	0.0151273
664.428	0.0151603
664.506	0.0151982
664.584	0.0151973
664.663	0.0151337
664.741	0.0153224
664.819	0.0153559
664.897	0.0153693
664.975	0.0153146
665.053	0.0154432
665.131	0.0153915
665.209	0.0155628
665.288	0.0154944
665.366	0.0155725
665.444	0.0157525
665.522	0.0157703
665.600	0.0157368
665.678	0.0158260
665.756	0.0157529
665.834	0.0158036
665.913	0.0157668
665.991	0.0158145
666.069	0.0156631
666.147	0.0155367
666.225	0.0156538
666.303	0.0156203
666.381	0.0156023
666.459	0.0155111
666.538	0.0154361
666.616	0.0154008
666.694	0.0153640
666.772	0.0153506
666.850	0.0151521
666.928	0.0150785
667.006	0.0151170
667.084	0.0150285
667.163	0.0150529
667.241	0.0150531
667.319	0.0150201
667.397	0.0149588
667.475	0.0150290
667.553	0.0150816
667.631	0.0151276
667.709	0.0151932
667.788	0.0148970
667.866	0.0151289
667.944	0.0151682
668.022	0.0152324
668.100	0.0151487
668.178	0.0151167
668.256	0.0152784
668.334	0.0154430
668.413	0.0153739
668.491	0.0153685
668.569	0.0155196
668.647	0.0155565
668.725	0.0157433
668.803	0.0157705
668.881	0.0158026
668.959	0.0158546
669.038	0.0160381
669.116	0.0160071
669.194	0.0160928
669.272	0.0160722
669.350	0.0162885
669.428	0.0161990
669.506	0.0161445
669.584	0.0161864
669.663	0.0163036
669.741	0.0162926
669.819	0.0161828
669.897	0.0160957
669.975	0.0162111
670.053	0.0159759
670.131	0.0160094
670.209	0.0159307
670.288	0.0159258
670.366	0.0157127
670.444	0.0156265
670.522	0.0156274
670.600	0.0155335
670.678	0.0152500
670.756	0.0151298
670.834	0.0150257
670.913	0.0148778
670.991	0.0147401
671.069	0.0145722
671.147	0.0143844
671.225	0.0143320
671.303	0.0144257
671.381	0.0142072
671.459	0.0142038
671.538	0.0141079
671.616	0.0140212
671.694	0.0140272
671.772	0.0140965
671.850	0.0141234
671.928	0.0142590
672.006	0.0144134
672.084	0.0145557
672.163	0.0145929
672.241	0.0148443
672.319	0.0150729
672.397	0.0153193
672.475	0.0152042
672.553	0.0155538
672.631	0.0156797
672.709	0.0160223
672.788	0.0162838
672.866	0.0163466
672.944	0.0164700
673.022	0.0166829
673.100	0.0168259
673.178	0.0169854
673.256	0.0171304
673.334	0.0171935
673.413	0.0172243
673.491	0.0174747
673.569	0.0172388
673.647	0.0172397
673.725	0.0171732
673.803	0.0170145
673.881	0.0168200
673.959	0.0167035
674.038	0.0165110
674.116	0.0162901
674.194	0.0161433
674.272	0.0158040
674.350	0.0156499
674.428	0.0156113
674.506	0.0154020
674.584	0.0150122
674.663	0.0149282
674.741	0.0146333
674.819	0.0144195
674.897	0.0142207
674.975	0.0142759
675.053	0.0141381
675.131	0.0139086
675.209	0.0138159
675.288	0.0136497
675.366	0.0135944
675.444	0.0134255
675.522	0.0134682
675.600	0.0134167
675.678	0.0134026
675.756	0.0133849
675.834	0.0134608
675.913	0.0134901
675.991	0.0134971
676.069	0.0136481
676.147	0.0138332
676.225	0.0141767
676.303	0.0142862
676.381	0.0144369
676.459	0.0146371
676.538	0.0149663
676.616	0.0151902
676.694	0.0155071
676.772	0.0157951
676.850	0.0161557
676.928	0.0162817
677.006	0.0164939
677.084	0.0167616
677.163	0.0168637
677.241	0.0170377
677.319	0.0172135
677.397	0.0175198
677.475	0.0174411
677.553	0.0173783
677.631	0.0175635
677.709	0.0175224
677.788	0.0174015
677.866	0.0174236
677.944	0.0173280
678.022	0.0172840
678.100	0.0170211
678.178	0.0168315
678.256	0.0165271
678.334	0.0162665
678.413	0.0159702
678.491	0.0157301
678.569	0.0155580
678.647	0.0152608
678.725	0.0149433
678.803	0.0146783
678.881	0.0146652
678.959	0.0143061
679.038	0.0141010
679.116	0.0140295
679.194	0.0139428
679.272	0.0138807
679.350	0.0135493
679.428	0.0135488
679.506	0.0135798
679.584	0.0136469
679.663	0.0136444
679.741	0.0137218
679.819	0.0137972
679.897	0.0138917
679.975	0.0139984
680.053	0.0142114
680.131	0.0143488
680.209	0.0145893
680.288	0.0147939
680.366	0.0151339
680.444	0.0152431
680.522	0.0153138
680.600	0.0156286
680.678	0.0156145
680.756	0.0158074
680.834	0.0160673
680.913	0.0160680
680.991	0.0161058
681.069	0.0161981
681.147	0.0161951
681.225	0.0161163
681.303	0.0161572
681.381	0.0159193
681.459	0.0159810
681.538	0.0159783
681.616	0.0156711
681.694	0.0156561
681.772	0.0156715
681.850	0.0153936
681.928	0.0151612
682.006	0.0152294
682.084	0.0150835
682.163	0.0148998
682.241	0.0148935
682.319	0.0146916
682.397	0.0147689
682.475	0.0146009
682.553	0.0145821
682.631	0.0144511
682.709	0.0145870
682.788	0.0146185
682.866	0.0147924
682.944	0.0147496
683.022	0.0147581
683.100	0.0149847
683.178	0.0150407
683.256	0.0152366
683.334	0.0155398
683.413	0.0153297
683.491	0.0155930
683.569	0.0158318
683.647	0.0158334
683.725	0.0158916
683.803	0.0159956
683.881	0.0161591
683.959	0.0160155
684.038	0.0163219
684.116	0.0163433
684.194	0.0164395
684.272	0.0161383
684.350	0.0165403
684.428	0.0163528
684.506	0.0163453
684.584	0.0162754
684.663	0.0163142
684.741	0.0162091
684.819	0.0160935
684.897	0.0158694
684.975	0.0158399
685.053	0.0156614
685.131	0.0154350
685.209	0.0153411
685.288	0.0151248
685.366	0.0150359
685.444	0.0150150
685.522	0.0147968
685.600	0.0147139
685.678	0.0145650
685.756	0.0144267
685.834	0.0144460
685.913	0.0143736
685.991	0.0143226
686.069	0.0143018
686.147	0.0141792
686.225	0.0142631
686.303	0.0142089
686.381	0.0140519
686.459	0.0141724
686.538	0.0142723
686.616	0.0142411
686.694	0.0144282
686.772	0.0142685
686.850	0.0144776
686.928	0.0143172
687.006	0.0143581
687.084	0.0143523
687.163	0.0145830
687.241	0.0145528
687.319	0.0146824
687.397	0.0147452
687.475	0.0147372
687.553	0.0148651
687.631	0.0150098
687.709	0.0150860
687.788	0.0150481
687.866	0.0151815
687.944	0.0153366
688.022	0.0153001
688.100	0.0154329
688.178	0.0154939
688.256	0.0155696
688.334	0.0155730
688.413	0.0156737
688.491	0.0157786
688.569	0.0157858
688.647	0.0158151
688.725	0.0158550
688.803	0.0158965
688.881	0.0160413
688.959	0.0160128
689.038	0.0159578
689.116	0.0162011
689.194	0.0162691
689.272	0.0163046
689.350	0.0164199
689.428	0.0164666
689.506	0.0166511
689.584	0.0166266
689.663	0.0168259
689.741	0.0167804
689.819	0.0168136
689.897	0.0167027
689.975	0.0167136
690.053	0.0168839
690.131	0.0167211
690.209	0.0165639
690.288	0.0165032
690.366	0.0163934
690.444	0.0163116
690.522	0.0160928
690.600	0.0160003
690.678	0.0158620
690.756	0.0155796
690.834	0.0153783
690.913	0.0150436
690.991	0.0149781
691.069	0.0145067
691.147	0.0142867
691.225	0.0140445
691.303	0.0137128
691.381	0.0135683
691.459	0.0133239
691.538	0.0131026
691.616	0.0128812
691.694	0.0127274
691.772	0.0127382
691.850	0.0128008
691.928	0.0125760
692.006	0.0125768
692.084	0.0126643
692.163	0.0128897
692.241	0.0130595
692.319	0.0131877
692.397	0.0134859
692.475	0.0137741
692.553	0.0139709
692.631	0.0143267
692.709	0.0147231
692.788	0.0151363
692.866	0.0157259
692.944	0.0160811
693.022	0.0164239
693.100	0.0166964
693.178	0.0170390
693.256	0.0175055
693.334	0.0177594
693.413	0.0177910
693.491	0.0180865
693.569	0.0180473
693.647	0.0180530
693.725	0.0181969
693.803	0.0180714
693.881	0.0179767
693.959	0.0179546
694.038	0.0177045
694.116	0.0175115
694.194	0.0172033
694.272	0.0168736
694.350	0.0166186
694.428	0.0163615
694.506	0.0161610
694.584	0.0157887
694.663	0.0155244
694.741	0.0152377
694.819	0.0149200
694.897	0.0147788
694.975	0.0144402
695.053	0.0142569
695.131	0.0140420
695.209	0.0139990
695.288	0.0138040
695.366	0.0136886
695.444	0.0135830
695.522	0.0134972
695.600	0.0134412
695.678	0.0136620
695.756	0.0137920
695.834	0.0138007
695.913	0.0138297
695.991	0.0141513
696.069	0.0142730
696.147	0.0143552
696.225	0.0145242
696.303	0.0147721
696.381	0.0149038
696.459	0.0149738
696.538	0.0152011
696.616	0.0154527
696.694	0.0158039
696.772	0.0157624
696.850	0.0160557
696.928	0.0162595
697.006	0.0164346
697.084	0.0164300
697.163	0.0165764
697.241	0.0167522
697.319	0.0167122
697.397	0.0168514
697.475	0.0167946
697.553	0.0168227
697.631	0.0166913
697.709	0.0166458
697.788	0.0165164
697.866	0.0164031
697.944	0.0161478
698.022	0.0159138
698.100	0.0157693
698.178	0.0156629
698.256	0.0154815
698.334	0.0152555
698.413	0.0149116
698.491	0.0147797
698.569	0.0146866
698.647	0.0144401
698.725	0.0142935
698.803	0.0141879
698.881	0.0138263
698.959	0.0140604
699.038	0.0137897
699.116	0.0137360
699.194	0.0138028
699.272	0.0137790
699.350	0.0138451
699.428	0.0138448
699.506	0.0140599
699.584	0.0143610
699.663	0.0144393
699.741	0.0146098
699.819	0.0148477
699.897	0.0151216
699.975	0.0152026
700.053	0.0156387
700.131	0.0158131
700.209	0.0161336
700.288	0.0162857
700.366	0.0165692
700.444	0.0168378
700.522	0.0170042
700.600	0.0173215
700.678	0.0174976
700.756	0.0173502
700.834	0.0174705
700.913	0.0175818
700.991	0.0175823
701.069	0.0174783
701.147	0.0174301
701.225	0.0171648
701.303	0.0169369
701.381	0.0166668
701.459	0.0164704
701.538	0.0162627
701.616	0.0159833
701.694	0.0155624
701.772	0.0153152
701.850	0.0150077
701.928	0.0146870
702.006	0.0142524
702.084	0.0141760
702.163	0.0139471
702.241	0.0137595
702.319	0.0134901
702.397	0.0134335
702.475	0.0132614
702.553	0.0133113
702.631	0.0132196
702.709	0.0132361
702.788	0.0132460
702.866	0.0132941
702.944	0.0134691
703.022	0.0135399
703.100	0.0136306
703.178	0.0137919
703.256	0.0140398
703.334	0.0142079
703.413	0.0143552
703.491	0.0144431
703.569	0.0146461
703.647	0.0148463
703.725	0.0149854
703.803	0.0153565
703.881	0.0154574
703.959	0.0155886
704.038	0.0160293
704.116	0.0159756
704.194	0.0162751
704.272	0.0163516
704.350	0.0166409
704.428	0.0166972
704.506	0.0166864
704.584	0.0169299
704.663	0.0170204
704.741	0.0169787
704.819	0.0170805
704.897	0.0170110
704.975	0.0170406
705.053	0.0169824
705.131	0.0165607
705.209	0.0166439
705.288	0.0164487
705.366	0.0162035
705.444	0.0159438
705.522	0.0156420
705.600	0.0153226
705.678	0.0150115
705.756	0.0147582
705.834	0.0143905
705.913	0.0140855
705.991	0.0137559
706.069	0.0137078
706.147	0.0135352
706.225	0.0132332
706.303	0.0132843
706.381	0.0132274
706.459	0.0132401
706.538	0.0132666
706.616	0.0134437
706.694	0.0136167
706.772	0.0137843
706.850	0.0141529
706.928	0.0143788
707.006	0.0146347
707.084	0.0147884
707.163	0.0151718
707.241	0.0154533
707.319	0.0158207
707.397	0.0159812
707.475	0.0162987
707.553	0.0164318
707.631	0.0166637
707.709	0.0168241
707.788	0.0169755
707.866	0.0171220
707.944	0.0172330
708.022	0.0172265
708.100	0.0172141
708.178	0.0171825
708.256	0.0171352
708.334	0.0170795
708.413	0.0169112
708.491	0.0167307
708.569	0.0165180
708.647	0.0163720
708.725	0.0161143
708.803	0.0156979
708.881	0.0155112
708.959	0.0150826
709.038	0.0148112
709.116	0.0145225
709.194	0.0143630
709.272	0.0138690
709.350	0.0137876
709.428	0.0134082
709.506	0.0132294
709.584	0.0132595
709.663	0.0129975
709.741	0.0128833
709.819	0.0129498
709.897	0.0128195
709.975	0.0129512
710.053	0.0129876
710.131	0.0132785
710.209	0.0132642
710.288	0.0134466
710.366	0.0136456
710.444	0.0138819
710.522	0.0142233
710.600	0.0144629
710.678	0.0146163
710.756	0.0147568
710.834	0.0151266
710.913	0.0152785
710.991	0.0154860
711.069	0.0157476
711.147	0.0158755
711.225	0.0160854
711.303	0.0161721
711.381	0.0163070
711.459	0.0165932
711.538	0.0167025
711.616	0.0168264
711.694	0.0167599
711.772	0.0168794
711.850	0.0168356
711.928	0.0170335
712.006	0.0169251
712.084	0.0170025
712.163	0.0169191
712.241	0.0169001
712.319	0.0168333
712.397	0.0168628
712.475	0.0166392
712.553	0.0166041
712.631	0.0164943
712.709	0.0164024
712.788	0.0162595
712.866	0.0161976
712.944	0.0160153
713.022	0.0159820
713.100	0.0159582
713.178	0.0158961
713.256	0.0156470
713.334	0.0155901
713.413	0.0155698
713.491	0.0154595
713.569	0.0154760
713.647	0.0154858
713.725	0.0151775
713.803	0.0150712
713.881	0.0150371
713.959	0.0148081
714.038	0.0147205
714.116	0.0146952
714.194	0.0146638
714.272	0.0144684
714.350	0.0143053
714.428	0.0144673
714.506	0.0142892
714.584	0.0141913
714.663	0.0143345
714.741	0.0141681
714.819	0.0140491
714.897	0.0141220
714.975	0.0139720
715.053	0.0140978
715.131	0.0139897
715.209	0.0139735
715.288	0.0140645
715.366	0.0139491
715.444	0.0141008
715.522	0.0139030
715.600	0.0140767
715.678	0.0142334
715.756	0.0142025
715.834	0.0142752
715.913	0.0143765
715.991	0.0146529
716.069	0.0145823
716.147	0.0147776
716.225	0.0150252
716.303	0.0150491
716.381	0.0152824
716.459	0.0155862
716.538	0.0156616
716.616	0.0156436
716.694	0.0159158
716.772	0.0159888
716.850	0.0161973
716.928	0.0161173
717.006	0.0160540
717.084	0.0160780
717.163	0.0159917
717.241	0.0161117
717.319	0.0161534
717.397	0.0159696
717.475	0.0160350
717.553	0.0161076
717.631	0.0161281
717.709	0.0160716
717.788	0.0160931
717.866	0.0160650
717.944	0.0163182
718.022	0.0162558
718.100	0.0159634
718.178	0.0162554
718.256	0.0163922
718.334	0.0162954
718.413	0.0161051
718.491	0.0159726
718.569	0.0158398
718.647	0.0158934
718.725	0.0156759
718.803	0.0157463
718.881	0.0154980
718.959	0.0153026
719.038	0.0153193
719.116	0.0151986
719.194	0.0150491
719.272	0.0150256
719.350	0.0149601
719.428	0.0148595
719.506	0.0147940
719.584	0.0146288
719.663	0.0143884
719.741	0.0143809
719.819	0.0142582
719.897	0.0142520
719.975	0.0142648
720.053	0.0143418
720.131	0.0142648
720.209	0.0144721
720.288	0.0145378
720.366	0.0146110
720.444	0.0148313
720.522	0.0148369
720.600	0.0150573
720.678	0.0151535
720.756	0.0151784
720.834	0.0153956
720.913	0.0154763
720.991	0.0154592
721.069	0.0154494
721.147	0.0153792
721.225	0.0154234
721.303	0.0152529
721.381	0.0153693
721.459	0.0152338
721.538	0.0150784
721.616	0.0149998
721.694	0.0148763
721.772	0.0147410
721.850	0.0147986
721.928	0.0145933
722.006	0.0146842
722.084	0.0146279
722.163	0.0148230
722.241	0.0146968
722.319	0.0148032
722.397	0.0148431
722.475	0.0150417
722.553	0.0149030
722.631	0.0152619
722.709	0.0153763
722.788	0.0155585
722.866	0.0157833
722.944	0.0160851
723.022	0.0162476
723.100	0.0164359
723.178	0.0165462
723.256	0.0166582
723.334	0.0166633
723.413	0.0167136
723.491	0.0168137
723.569	0.0169288
723.647	0.0169492
723.725	0.0168976
723.803	0.0167245
723.881	0.0168446
723.959	0.0167592
724.038	0.0164891
724.116	0.0163121
724.194	0.0161621
724.272	0.0159839
724.350	0.0156670
724.428	0.0154378
724.506	0.0152299
724.584	0.0148237
724.663	0.0147282
724.741	0.0146060
724.819	0.0143342
724.897	0.0141030
724.975	0.0141499
725.053	0.0139105
725.131	0.0137926
725.209	0.0137821
725.288	0.0136748
725.366	0.0137078
725.444	0.0137435
725.522	0.0138496
725.600	0.0137584
725.678	0.0138579
725.756	0.0140000
725.834	0.0140479
725.913	0.0142806
725.991	0.0145915
726.069	0.0146176
726.147	0.0147044
726.225	0.0151492
726.303	0.0153745
726.381	0.0155029
726.459	0.0156622
726.538	0.0159601
726.616	0.0161138
726.694	0.0162088
726.772	0.0165108
726.850	0.0166732
726.928	0.0166421
727.006	0.0166769
727.084	0.0166454
727.163	0.0166602
727.241	0.0168684
727.319	0.0167034
727.397	0.0166399
727.475	0.0165314
727.553	0.0164989
727.631	0.0163618
727.709	0.0162219
727.788	0.0159879
727.866	0.0161678
727.944	0.0160439
728.022	0.0158507
728.100	0.0159523
728.178	0.0156309
728.256	0.0156230
728.334	0.0154734
728.413	0.0154721
728.491	0.0152548
728.569	0.0151836
728.647	0.0151961
728.725	0.0152359
728.803	0.0151051
728.881	0.0150008
728.959	0.0150620
729.038	0.0149197
729.116	0.0148831
729.194	0.0149321
729.272	0.0149762
729.350	0.0148705
729.428	0.0150641
729.506	0.0148299
729.584	0.0149603
729.663	0.0150629
729.741	0.0147913
729.819	0.0148853
729.897	0.0147954
729.975	0.0147804
730.053	0.0147496
730.131	0.0146721
730.209	0.0144013
730.288	0.0143887
730.366	0.0143977
730.444	0.0142875
730.522	0.0142175
730.600	0.0139033
730.678	0.0138985
730.756	0.0139434
730.834	0.0138241
730.913	0.0138907
730.991	0.0137016
731.069	0.0136243
731.147	0.0136423
731.225	0.0136483
731.303	0.0135481
731.381	0.0137557
731.459	0.0137012
731.538	0.0137048
731.616	0.0138758
731.694	0.0140070
731.772	0.0140588
731.850	0.0141395
731.928	0.0144164
732.006	0.0145908
732.084	0.0149844
732.163	0.0153559
732.241	0.0156557
732.319	0.0159958
732.397	0.0164384
732.475	0.0167918
732.553	0.0171267
732.631	0.0173315
732.709	0.0175265
732.788	0.0178401
732.866	0.0178864
732.944	0.0181531
733.022	0.0179661
733.100	0.0179757
733.178	0.0179816
733.256	0.0177477
733.334	0.0174284
733.413	0.0172783
733.491	0.0172723
733.569	0.0168584
733.647	0.0168044
733.725	0.0164515
733.803	0.0163457
733.881	0.0161496
733.959	0.0159061
734.038	0.0158528
734.116	0.0156242
734.194	0.0155340
734.272	0.0153918
734.350	0.0154010
734.428	0.0152100
734.506	0.0149112
734.584	0.0149644
734.663	0.0149059
734.741	0.0146942
734.819	0.0146899
734.897	0.0145390
734.975	0.0145055
735.053	0.0143123
735.131	0.0143802
735.209	0.0142655
735.288	0.0142310
735.366	0.0143546
735.444	0.0143636
735.522	0.0141960
735.600	0.0143034
735.678	0.0143987
735.756	0.0144943
735.834	0.0144289
735.913	0.0145340
735.991	0.0145278
736.069	0.0146376
736.147	0.0145995
736.225	0.0146569
736.303	0.0148384
736.381	0.0150116
736.459	0.0149709
736.538	0.0148486
736.616	0.0149612
736.694	0.0150297
736.772	0.0150753
736.850	0.0150011
736.928	0.0151537
737.006	0.0151163
737.084	0.0150883
737.163	0.0151984
737.241	0.0150864
737.319	0.0152017
737.397	0.0153026
737.475	0.0153011
737.553	0.0153904
737.631	0.0153748
737.709	0.0153210
737.788	0.0153959
737.866	0.0153508
737.944	0.0152944
738.022	0.0152596
738.100	0.0150571
738.178	0.0152495
738.256	0.0152837
738.334	0.0151692
738.413	0.0152094
738.491	0.0151188
738.569	0.0151842
738.647	0.0154189
738.725	0.0154742
738.803	0.0153580
738.881	0.0156643
738.959	0.0158401
739.038	0.0157657
739.116	0.0159568
739.194	0.0160905
739.272	0.0161771
739.350	0.0162547
739.428	0.0162217
739.506	0.0163049
739.584	0.0161655
739.663	0.0162341
739.741	0.0162480
739.819	0.0162054
739.897	0.0160944
739.975	0.0160671
740.053	0.0158931
740.131	0.0157028
740.209	0.0157329
740.288	0.0153887
740.366	0.0153899
740.444	0.0152584
740.522	0.0152515
740.600	0.0150201
740.678	0.0149999
740.756	0.0149011
740.834	0.0148147
740.913	0.0147630
740.991	0.0147926
741.069	0.0146580
741.147	0.0146015
741.225	0.0144599
741.303	0.0143545
741.381	0.0145132
741.459	0.0143460
741.538	0.0143144
741.616	0.0145015
741.694	0.0144051
741.772	0.0145824
741.850	0.0146217
741.928	0.0147728
742.006	0.0148872
742.084	0.0151049
742.163	0.0151673
742.241	0.0154448
742.319	0.0156721
742.397	0.0158022
742.475	0.0158211
742.553	0.0160374
742.631	0.0162160
742.709	0.0163426
742.788	0.0163676
742.866	0.0163589
742.944	0.0165039
743.022	0.0165846
743.100	0.0164951
743.178	0.0163152
743.256	0.0163725
743.334	0.0162836
743.413	0.0161197
743.491	0.0160028
743.569	0.0160074
743.647	0.0158731
743.725	0.0157140
743.803	0.0156260
743.881	0.0154509
743.959	0.0152711
744.038	0.0152571
744.116	0.0150675
744.194	0.0148733
744.272	0.0147693
744.350	0.0146835
744.428	0.0146117
744.506	0.0144351
744.584	0.0145286
744.663	0.0144975
744.741	0.0144414
744.819	0.0144967
744.897	0.0144420
744.975	0.0144875
745.053	0.0145837
745.131	0.0144862
745.209	0.0144982
745.288	0.0146777
745.366	0.0146516
745.444	0.0148205
745.522	0.0148701
745.600	0.0148556
745.678	0.0150897
745.756	0.0151511
745.834	0.0151484
745.913	0.0153191
745.991	0.0153236
746.069	0.0155324
746.147	0.0155431
746.225	0.0154160
746.303	0.0156174
746.381	0.0156709
746.459	0.0156184
746.538	0.0156815
746.616	0.0155885
746.694	0.0155299
746.772	0.0156898
746.850	0.0154117
746.928	0.0154732
747.006	0.0154073
747.084	0.0154018
747.163	0.0153118
747.241	0.0153452
747.319	0.0155228
747.397	0.0155076
747.475	0.0154895
747.553	0.0154234
747.631	0.0155624
747.709	0.0155849
747.788	0.0156202
747.866	0.0158965
747.944	0.0159057
748.022	0.0158183
748.100	0.0159399
748.178	0.0159483
748.256	0.0157465
748.334	0.0157885
748.413	0.0158218
748.491	0.0156818
748.569	0.0157756
748.647	0.0155836
748.725	0.0154526
748.803	0.0155299
748.881	0.0153770
748.959	0.0153877
749.038	0.0153317
749.116	0.0153493
749.194	0.0155437
749.272	0.0155763
749.350	0.0155566
749.428	0.0155370
749.506	0.0156973
749.584	0.0157321
749.663	0.0158153
749.741	0.0157672
749.819	0.0158616
749.897	0.0158603
749.975	0.0158888
750.053	0.0157362
750.131	0.0159302
750.209	0.0157097
750.288	0.0158372
750.366	0.0157500
750.444	0.0156215
750.522	0.0156873
750.600	0.0155646
750.678	0.0155021
750.756	0.0154964
750.834	0.0154316
750.913	0.0151790
750.991	0.0150445
751.069	0.0150426
751.147	0.0149092
751.225	0.0149657
751.303	0.0146271
751.381	0.0146735
751.459	0.0146721
751.538	0.0145566
751.616	0.0145634
751.694	0.0145725
751.772	0.0145564
751.850	0.0144756
751.928	0.0145273
752.006	0.0146294
752.084	0.0146589
752.163	0.0147657
752.241	0.0149139
752.319	0.0150420
752.397	0.0150458
752.475	0.0151663
752.553	0.0153009
752.631	0.0154658
752.709	0.0155450
752.788	0.0154650
752.866	0.0155833
752.944	0.0158197
753.022	0.0156223
753.100	0.0157300
753.178	0.0156158
753.256	0.0155925
753.334	0.0157309
753.413	0.0156408
753.491	0.0156151
753.569	0.0155148
753.647	0.0156407
753.725	0.0154727
753.803	0.0151878
753.881	0.0151108
753.959	0.0153270
754.038	0.0151659
754.116	0.0150797
754.194	0.0150121
754.272	0.0148908
754.350	0.0149970
754.428	0.0150120
754.506	0.0150048
754.584	0.0151139
754.663	0.0150438
754.741	0.0150871
754.819	0.0149841
754.897	0.0149851
754.975	0.0149857
755.053	0.0150524
755.131	0.0151344
755.209	0.0151468
755.288	0.0149360
755.366	0.0152600
755.444	0.0151602
755.522	0.0153004
755.600	0.0151997
755.678	0.0152071
755.756	0.0154190
755.834	0.0154050
755.913	0.0156751
755.991	0.0157170
756.069	0.0157837
756.147	0.0158609
756.225	0.0158120
756.303	0.0160851
756.381	0.0159898
756.459	0.0161162
756.538	0.0161690
756.616	0.0160269
756.694	0.0161285
756.772	0.0161978
756.850	0.0161116
756.928	0.0161504
757.006	0.0162888
757.084	0.0162334
757.163	0.0161308
757.241	0.0160088
757.319	0.0161006
757.397	0.0160300
757.475	0.0160794
757.553	0.0161816
757.631	0.0160539
757.709	0.0161049
757.788	0.0160152
757.866	0.0159216
757.944	0.0160452
758.022	0.0159786
758.100	0.0158489
758.178	0.0157737
758.256	0.0156823
758.334	0.0154037
758.413	0.0155049
758.491	0.0154283
758.569	0.0151728
758.647	0.0149373
758.725	0.0148985
758.803	0.0147735
758.881	0.0147558
758.959	0.0145109
759.038	0.0145255
759.116	0.0145811
759.194	0.0143420
759.272	0.0143221
759.350	0.0142734
759.428	0.0143465
759.506	0.0142622
759.584	0.0142806
759.663	0.0143258
759.741	0.0142011
759.819	0.0143463
759.897	0.0145368
759.975	0.0144161
760.053	0.0147370
760.131	0.0147319
760.209	0.0148636
760.288	0.0150881
760.366	0.0150233
760.444	0.0152238
760.522	0.0153365
760.600	0.0155736
760.678	0.0157279
760.756	0.0157552
760.834	0.0156938
760.913	0.0158264
760.991	0.0160197
761.069	0.0159116
761.147	0.0159216
761.225	0.0158939
761.303	0.0158920
761.381	0.0157360
761.459	0.0158473
761.538	0.0160146
761.616	0.0159456
761.694	0.0159698
761.772	0.0159750
761.850	0.0159305
761.928	0.0159547
762.006	0.0159665
762.084	0.0160132
762.163	0.0160237
762.241	0.0158062
762.319	0.0158356
762.397	0.0158884
762.475	0.0158223
762.553	0.0156911
762.631	0.0156642
762.709	0.0155588
762.788	0.0155442
762.866	0.0156510
762.944	0.0155510
763.022	0.0156908
763.100	0.0156185
763.178	0.0155690
763.256	0.0156563
763.334	0.0155221
763.413	0.0155292
763.491	0.0156226
763.569	0.0154910
763.647	0.0156648
763.725	0.0153217
763.803	0.0153161
763.881	0.0151196
763.959	0.0149545
764.038	0.0150942
764.116	0.0149125
764.194	0.0147488
764.272	0.0147144
764.350	0.0147746
764.428	0.0146199
764.506	0.0147095
764.584	0.0147335
764.663	0.0146572
764.741	0.0146231
764.819	0.0145871
764.897	0.0146656
764.975	0.0146780
765.053	0.0148078
765.131	0.0146807
765.209	0.0148463
765.288	0.0147515
765.366	0.0149587
765.444	0.0150196
765.522	0.0151435
765.600	0.0152370
765.678	0.0152587
765.756	0.0154401
765.834	0.0155422
765.913	0.0157448
765.991	0.0158472
766.069	0.0158781
766.147	0.0161214
766.225	0.0162811
766.303	0.0161329
766.381	0.0162904
766.459	0.0165155
766.538	0.0165002
766.616	0.0165410
766.694	0.0165115
766.772	0.0164503
766.850	0.0162831
766.928	0.0162602
767.006	0.0161157
767.084	0.0160622
767.163	0.0157346
767.241	0.0156268
767.319	0.0154163
767.397	0.0153923
767.475	0.0153356
767.553	0.0151793
767.631	0.0151180
767.709	0.0148852
767.788	0.0150878
767.866	0.0148902
767.944	0.0147554
768.022	0.0147095
768.100	0.0147533
768.178	0.0146920
768.256	0.0147664
768.334	0.0149745
768.413	0.0149603
768.491	0.0148533
768.569	0.0149776
768.647	0.0151208
768.725	0.0151659
768.803	0.0153191
768.881	0.0152307
768.959	0.0152450
769.038	0.0153666
769.116	0.0153873
769.194	0.0155128
769.272	0.0154677
769.350	0.0156094
769.428	0.0155830
769.506	0.0156531
769.584	0.0156001
769.663	0.0156404
769.741	0.0157454
769.819	0.0155352
769.897	0.0156218
769.975	0.0155118
770.053	0.0154253
770.131	0.0153088
770.209	0.0151922
770.288	0.0152065
770.366	0.0151389
770.444	0.0150925
770.522	0.0150145
770.600	0.0149680
770.678	0.0148798
770.756	0.0149034
770.834	0.0150427
770.913	0.0149063
770.991	0.0150574
771.069	0.0149457
771.147	0.0150044
771.225	0.0150511
771.303	0.0152321
771.381	0.0152387
771.459	0.0151869
771.538	0.0154045
771.616	0.0155252
771.694	0.0154458
771.772	0.0155369
771.850	0.0154140
771.928	0.0155244
772.006	0.0154523
772.084	0.0155516
772.163	0.0155910
772.241	0.0156016
772.319	0.0155683
772.397	0.0154983
772.475	0.0153827
772.553	0.0153233
772.631	0.0153683
772.709	0.0152491
772.788	0.0154231
772.866	0.0152770
772.944	0.0153718
773.022	0.0153551
773.100	0.0154889
773.178	0.0153876
773.256	0.0153951
773.334	0.0155183
773.413	0.0154489
773.491	0.0155168
773.569	0.0156045
773.647	0.0155762
773.725	0.0153094
773.803	0.0155238
773.881	0.0155931
773.959	0.0155463
774.038	0.0154285
774.116	0.0154797
774.194	0.0154744
774.272	0.0153764
774.350	0.0154693
774.428	0.0153122
774.506	0.0153759
774.584	0.0152758
774.663	0.0152132
774.741	0.0151792
774.819	0.0151163
774.897	0.0150307
774.975	0.0150237
775.053	0.0151708
775.131	0.0149740
775.209	0.0149111
775.288	0.0148698
775.366	0.0147517
775.444	0.0147114
775.522	0.0147144
775.600	0.0147042
775.678	0.0147079
775.756	0.0146949
775.834	0.0146339
775.913	0.0146358
775.991	0.0148477
776.069	0.0148081
776.147	0.0149931
776.225	0.0150345
776.303	0.0150653
776.381	0.0150710
776.459	0.0152319
776.538	0.0154325
776.616	0.0153828
776.694	0.0154316
776.772	0.0154535
776.850	0.0155643
776.928	0.0156545
777.006	0.0156400
777.084	0.0157467
777.163	0.0156940
777.241	0.0158003
777.319	0.0156904
777.397	0.0158038
777.475	0.0158163
777.553	0.0157880
777.631	0.0157230
777.709	0.0156584
777.788	0.0156710
777.866	0.0156979
777.944	0.0155418
778.022	0.0155524
778.100	0.0155186
778.178	0.0154762
778.256	0.0155235
778.334	0.0154522
778.413	0.0154800
778.491	0.0153957
778.569	0.0154912
778.647	0.0153697
778.725	0.0152385
778.803	0.0153517
778.881	0.0154301
778.959	0.0153480
779.038	0.0152778
779.116	0.0153868
779.194	0.0153354
779.272	0.0153805
779.350	0.0153193
779.428	0.0154340
779.506	0.0154933
779.584	0.0154385
779.663	0.0155541
779.741	0.0154514
779.819	0.0154757
779.897	0.0155837
779.975	0.0155041
780.053	0.0154991
780.131	0.0154254
780.209	0.0155428
780.288	0.0154032
780.366	0.0152927
780.444	0.0154845
780.522	0.0154875
780.600	0.0155137
780.678	0.0154031
780.756	0.0153606
780.834	0.0154173
780.913	0.0155218
780.991	0.0155292
781.069	0.0154729
781.147	0.0155370
781.225	0.0155328
781.303	0.0155007
781.381	0.0154852
781.459	0.0155543
781.538	0.0154662
781.616	0.0154887
781.694	0.0155428
781.772	0.0154340
781.850	0.0153909
781.928	0.0155667
782.006	0.0154165
782.084	0.0154212
782.163	0.0155021
782.241	0.0154563
782.319	0.0153549
782.397	0.0153863
782.475	0.0154359
782.553	0.0154660
782.631	0.0154543
782.709	0.0153610
782.788	0.0154556
782.866	0.0154205
782.944	0.0152312
783.022	0.0154753
783.100	0.0153144
783.178	0.0152503
783.256	0.0154053
783.334	0.0154252
783.413	0.0154893
783.491	0.0153425
783.569	0.0153197
783.647	0.0153788
783.725	0.0152831
783.803	0.0153418
783.881	0.0152836
783.959	0.0153256
784.038	0.0154114
784.116	0.0153280
784.194	0.0152012
784.272	0.0153233
784.350	0.0152251
784.428	0.0153157
784.506	0.0154447
784.584	0.0153920
784.663	0.0154126
784.741	0.0153206
784.819	0.0155110
784.897	0.0153117
784.975	0.0155923
785.053	0.0156480
785.131	0.0155559
785.209	0.0155541
785.288	0.0155759
785.366	0.0156951
785.444	0.0155861
785.522	0.0157066
785.600	0.0155440
785.678	0.0155735
785.756	0.0156020
785.834	0.0156425
785.913	0.0157011
785.991	0.0156201
786.069	0.0155595
786.147	0.0154520
786.225	0.0155343
786.303	0.0154993
786.381	0.0156159
786.459	0.0155407
786.538	0.0156059
786.616	0.0154651
786.694	0.0155658
786.772	0.0154118
786.850	0.0154661
786.928	0.0154308
787.006	0.0154401
787.084	0.0153677
787.163	0.0153277
787.241	0.0153147
787.319	0.0154846
787.397	0.0154276
787.475	0.0152723
787.553	0.0152144
787.631	0.0151881
787.709	0.0152522
787.788	0.0151964
787.866	0.0150828
787.944	0.0151974
788.022	0.0151642
788.100	0.0150933
788.178	0.0152072
788.256	0.0150524
788.334	0.0150086
788.413	0.0150616
788.491	0.0150913
788.569	0.0151601
788.647	0.0150311
788.725	0.0151385
788.803	0.0148730
788.881	0.0150974
788.959	0.0151137
789.038	0.0151864
789.116	0.0151057
789.194	0.0151460
789.272	0.0151290
789.350	0.0150372
789.428	0.0152004
789.506	0.0153236
789.584	0.0152110
789.663	0.0153165
789.741	0.0154658
789.819	0.0154437
789.897	0.0154625
789.975	0.0155855
790.053	0.0155937
790.131	0.0156746
790.209	0.0156015
790.288	0.0157494
790.366	0.0156345
790.444	0.0156703
790.522	0.0157355
790.600	0.0154539
790.678	0.0154355
790.756	0.0156035
790.834	0.0156410
790.913	0.0154690
790.991	0.0155258
791.069	0.0153899
791.147	0.0153851
791.225	0.0153568
791.303	0.0151482
791.381	0.0150603
791.459	0.0153001
791.538	0.0152226
791.616	0.0151116
791.694	0.0151091
791.772	0.0147095
791.850	0.0148033
791.928	0.0147945
792.006	0.0147223
792.084	0.0146056
792.163	0.0147865
792.241	0.0147434
792.319	0.0145747
792.397	0.0147137
792.475	0.0147316
792.553	0.0148023
792.631	0.0147675
792.709	0.0149072
792.788	0.0149576
792.866	0.0147717
792.944	0.0149533
793.022	0.0150609
793.100	0.0149383
793.178	0.0150171
793.256	0.0152499
793.334	0.0151669
793.413	0.0153059
793.491	0.0152699
793.569	0.0152987
793.647	0.0152473
793.725	0.0153194
793.803	0.0153127
793.881	0.0152937
793.959	0.0154533
794.038	0.0153419
794.116	0.0153205
794.194	0.0154354
794.272	0.0154488
794.350	0.0153616
794.428	0.0153321
794.506	0.0153246
794.584	0.0152661
794.663	0.0154180
794.741	0.0154617
794.819	0.0153503
794.897	0.0153636
794.975	0.0153793
795.053	0.0153970
795.131	0.0153516
795.209	0.0153226
795.288	0.0153888
795.366	0.0152795
795.444	0.0152455
795.522	0.0152392
795.600	0.0153339
795.678	0.0152966
795.756	0.0153999
795.834	0.0153497
795.913	0.0152827
795.991	0.0152586
796.069	0.0151971
796.147	0.0154019
796.225	0.0155022
796.303	0.0153784
796.381	0.0152885
796.459	0.0154220
796.538	0.0154079
796.616	0.0155325
796.694	0.0153616
796.772	0.0154951
796.850	0.0155818
796.928	0.0155134
797.006	0.0155136
797.084	0.0155289
797.163	0.0154670
797.241	0.0155812
797.319	0.0155158
797.397	0.0153904
797.475	0.0155689
797.553	0.0154313
797.631	0.0155292
797.709	0.0154227
797.788	0.0153587
797.866	0.0155035
797.944	0.0154878
798.022	0.0153162
798.100	0.0153743
798.178	0.0153867
798.256	0.0152914
798.334	0.0152853
798.413	0.0151465
798.491	0.0152245
798.569	0.0150335
798.647	0.0151359
798.725	0.0150281
798.803	0.0148573
798.881	0.0149274
798.959	0.0150892
799.038	0.0148973
799.116	0.0148842
799.194	0.0149138
799.272	0.0148743
799.350	0.0150250
799.428	0.0151587
799.506	0.0151272
799.584	0.0151849
799.663	0.0151344
799.741	0.0152793
799.819	0.0154438
799.897	0.0154124
799.975	0.0154517
800.053	0.0155197
800.131	0.0155042
800.209	0.0157281
800.288	0.0157833
800.366	0.0157703
800.444	0.0158434
800.522	0.0159492
800.600	0.0158340
800.678	0.0159914
800.756	0.0159295
800.834	0.0159721
800.913	0.0160696
800.991	0.0158759
801.069	0.0157896
801.147	0.0160342
801.225	0.0159969
801.303	0.0157762
801.381	0.0156824
801.459	0.0156216
801.538	0.0156772
801.616	0.0155626
801.694	0.0156120
801.772	0.0154819
801.850	0.0153053
801.928	0.0155975
802.006	0.0154994
802.084	0.0152193
802.163	0.0152738
802.241	0.0153111
802.319	0.0150809
802.397	0.0148855
802.475	0.0151437
802.553	0.0152044
802.631	0.0152159
802.709	0.0151135
802.788	0.0149747
802.866	0.0151440
802.944	0.0151573
803.022	0.0149620
803.100	0.0152438
803.178	0.0153165
803.256	0.0150603
803.334	0.0152181
803.413	0.0152524
803.491	0.0154233
803.569	0.0153723
803.647	0.0154433
803.725	0.0154243
803.803	0.0153634
803.881	0.0153217
803.959	0.0154968
804.038	0.0155305
804.116	0.0154847
804.194	0.0155629
804.272	0.0153761
804.350	0.0154111
804.428	0.0155461
804.506	0.0156150
804.584	0.0154410
804.663	0.0155151
804.741	0.0154043
804.819	0.0153695
804.897	0.0154153
804.975	0.0154382
805.053	0.0153566
805.131	0.0153899
805.209	0.0153135
805.288	0.0152917
805.366	0.0153522
805.444	0.0153101
805.522	0.0154314
805.600	0.0151196
805.678	0.0152190
805.756	0.0151590
805.834	0.0151228
805.913	0.0150328
805.991	0.0150153
806.069	0.0151454
806.147	0.0148751
806.225	0.0148528
806.303	0.0149564
806.381	0.0149078
806.459	0.0147422
806.538	0.0148793
806.616	0.0147511
806.694	0.0146770
806.772	0.0147886
806.850	0.0147390
806.928	0.0146581
807.006	0.0148516
807.084	0.0149483
807.163	0.0149778
807.241	0.0149680
807.319	0.0150143
807.397	0.0149417
807.475	0.0152014
807.553	0.0151524
807.631	0.0153065
807.709	0.0154839
807.788	0.0153106
807.866	0.0155139
807.944	0.0157679
808.022	0.0156867
808.100	0.0158022
808.178	0.0157225
808.256	0.0157114
808.334	0.0158224
808.413	0.0157948
808.491	0.0158931
808.569	0.0157593
808.647	0.0157805
808.725	0.0157006
808.803	0.0157709
808.881	0.0157697
808.959	0.0156837
809.038	0.0156179
809.116	0.0155289
809.194	0.0155943
809.272	0.0155068
809.350	0.0154781
809.428	0.0153625
809.506	0.0152680
809.584	0.0152454
809.663	0.0152993
809.741	0.0153290
809.819	0.0152122
809.897	0.0150709
809.975	0.0151495
810.053	0.0151054
810.131	0.0150121
810.209	0.0151925
810.288	0.0150844
810.366	0.0150640
810.444	0.0151976
810.522	0.0151888
810.600	0.0151054
810.678	0.0151116
810.756	0.0151147
810.834	0.0150258
810.913	0.0150275
810.991	0.0151863
811.069	0.0151476
811.147	0.0151794
811.225	0.0151472
811.303	0.0151588
811.381	0.0150552
811.459	0.0150790
811.538	0.0152366
811.616	0.0152024
811.694	0.0152313
811.772	0.0151675
811.850	0.0152341
811.928	0.0153637
812.006	0.0152704
812.084	0.0152106
812.163	0.0151938
812.241	0.0152641
812.319	0.0152338
812.397	0.0152740
812.475	0.0153240
812.553	0.0154577
812.631	0.0152742
812.709	0.0151704
812.788	0.0152893
812.866	0.0153207
812.944	0.0154575
813.022	0.0153369
813.100	0.0153118
813.178	0.0152860
813.256	0.0155170
813.334	0.0154490
813.413	0.0155415
813.491	0.0155199
813.569	0.0155549
813.647	0.0156679
813.725	0.0154517
813.803	0.0156449
813.881	0.0156985
813.959	0.0155969
814.038	0.0154967
814.116	0.0154097
814.194	0.0154811
814.272	0.0155256
814.350	0.0153615
814.428	0.0152158
814.506	0.0153188
814.584	0.0153272
814.663	0.0153715
814.741	0.0153361
814.819	0.0152602
814.897	0.0151207
814.975	0.0151328
815.053	0.0152613
815.131	0.0150954
815.209	0.0151326
815.288	0.0152732
815.366	0.0150966
815.444	0.0151685
815.522	0.0152189
815.600	0.0150706
815.678	0.0151837
815.756	0.0151901
815.834	0.0151067
815.913	0.0150445
815.991	0.0152174
816.069	0.0152398
816.147	0.0152898
816.225	0.0151282
816.303	0.0151822
816.381	0.0152779
816.459	0.0152575
816.538	0.0151837
816.616	0.0152302
816.694	0.0152391
816.772	0.0152567
816.850	0.0152216
816.928	0.0152331
817.006	0.0151746
817.084	0.0151846
817.163	0.0151467
817.241	0.0151321
817.319	0.0150944
817.397	0.0150464
817.475	0.0151186
817.553	0.0151279
817.631	0.0150366
817.709	0.0149533
817.788	0.0150386
817.866	0.0151869
817.944	0.0150871
818.022	0.0149677
818.100	0.0150062
818.178	0.0151826
818.256	0.0150624
818.334	0.0150269
818.413	0.0150745
818.491	0.0151515
818.569	0.0151801
818.647	0.0150970
818.725	0.0151952
818.803	0.0152419
818.881	0.0152156
818.959	0.0154086
819.038	0.0154128
819.116	0.0153371
819.194	0.0154462
819.272	0.0154229
819.350	0.0154852
819.428	0.0155636
819.506	0.0155443
819.584	0.0156472
819.663	0.0155863
819.741	0.0157499
819.819	0.0156400
819.897	0.0156884
819.975	0.0158111
820.053	0.0157864
820.131	0.0157223
820.209	0.0156134
820.288	0.0155994
820.366	0.0155685
820.444	0.0156253
820.522	0.0156716
820.600	0.0155451
820.678	0.0155318
820.756	0.0156609
820.834	0.0153792
820.913	0.0152850
820.991	0.0153221
821.069	0.0153322
821.147	0.0152152
821.225	0.0152614
821.303	0.0152758
821.381	0.0151414
821.459	0.0150381
821.538	0.0152422
821.616	0.0151162
821.694	0.0150498
821.772	0.0150356
821.850	0.0150931
821.928	0.0151962
822.006	0.0151527
822.084	0.0151442
822.163	0.0151039
822.241	0.0151759
822.319	0.0150966
822.397	0.0150841
822.475	0.0150746
822.553	0.0151830
822.631	0.0152621
822.709	0.0152077
822.788	0.0152166
822.866	0.0152441
822.944	0.0152220
823.022	0.0152666
823.100	0.0153156
823.178	0.0153233
823.256	0.0151983
823.334	0.0152943
823.413	0.0152699
823.491	0.0153543
823.569	0.0154261
823.647	0.0153421
823.725	0.0153492
823.803	0.0153642
823.881	0.0154066
823.959	0.0154685
824.038	0.0155105
824.116	0.0155428
824.194	0.0155198
824.272	0.0155618
824.350	0.0156836
824.428	0.0155582
824.506	0.0156003
824.584	0.0158227
824.663	0.0157038
824.741	0.0157270
824.819	0.0156977
824.897	0.0155663
824.975	0.0155515
825.053	0.0156059
825.131	0.0155553
825.209	0.0155519
825.288	0.0156291
825.366	0.0155194
825.444	0.0155965
825.522	0.0154885
825.600	0.0154289
825.678	0.0153967
825.756	0.0154590
825.834	0.0152431
825.913	0.0151586
825.991	0.0152541
826.069	0.0152768
826.147	0.0152608
826.225	0.0151604
826.303	0.0153489
826.381	0.0151770
826.459	0.0151436
826.538	0.0151807
826.616	0.0152525
826.694	0.0151167
826.772	0.0153091
826.850	0.0151350
826.928	0.0152684
827.006	0.0153265
827.084	0.0152538
827.163	0.0152216
827.241	0.0152562
827.319	0.0152654
827.397	0.0152379
827.475	0.0151144
827.553	0.0152489
827.631	0.0152702
827.709	0.0152589
827.788	0.0150085
827.866	0.0150706
827.944	0.0152778
828.022	0.0151662
828.100	0.0150809
828.178	0.0151643
828.256	0.0151775
828.334	0.0151263
828.413	0.0151363
828.491	0.0151401
828.569	0.0150961
828.647	0.0153462
828.725	0.0151218
828.803	0.0153706
828.881	0.0153420
828.959	0.0154144
829.038	0.0153674
829.116	0.0153371
829.194	0.0154463
829.272	0.0154489
829.350	0.0156960
829.428	0.0154015
829.506	0.0155181
829.584	0.0155261
829.663	0.0156766
829.741	0.0155688
829.819	0.0156367
829.897	0.0157431
829.975	0.0155277
830.053	0.0156030
830.131	0.0156824
830.209	0.0155685
830.288	0.0155466
830.366	0.0156218
830.444	0.0155858
830.522	0.0155259
830.600	0.0155279
830.678	0.0154710
830.756	0.0156051
830.834	0.0155399
830.913	0.0154006
830.991	0.0154424
831.069	0.0154868
831.147	0.0154192
831.225	0.0153728
831.303	0.0154825
831.381	0.0153523
831.459	0.0153783
831.538	0.0153025
831.616	0.0152075
831.694	0.0152018
831.772	0.0152419
831.850	0.0152592
831.928	0.0153363
832.006	0.0151705
832.084	0.0153495
832.163	0.0151410
832.241	0.0153483
832.319	0.0152225
832.397	0.0151716
832.475	0.0153185
832.553	0.0151799
832.631	0.0152267
832.709	0.0151969
832.788	0.0151404
832.866	0.0151924
832.944	0.0152685
833.022	0.0151261
833.100	0.0152660
833.178	0.0152271
833.256	0.0153678
833.334	0.0154070
833.413	0.0152322
833.491	0.0151719
833.569	0.0151492
833.647	0.0152140
833.725	0.0152586
833.803	0.0152894
833.881	0.0153542
833.959	0.0152706
834.038	0.0153648
834.116	0.0153053
834.194	0.0153332
834.272	0.0152466
834.350	0.0151867
834.428	0.0151607
834.506	0.0152341
834.584	0.0153529
834.663	0.0153467
834.741	0.0153807
834.819	0.0153123
834.897	0.0152974
834.975	0.0153467
835.053	0.0154961
835.131	0.0154253
835.209	0.0154169
835.288	0.0154269
835.366	0.0156829
835.444	0.0155373
835.522	0.0154080
835.600	0.0154882
835.678	0.0154644
835.756	0.0154784
835.834	0.0156263
835.913	0.0154504
835.991	0.0154732
836.069	0.0155156
836.147	0.0155764
836.225	0.0155112
836.303	0.0154985
836.381	0.0154625
836.459	0.0156173
836.538	0.0155228
836.616	0.0154253
836.694	0.0152966
836.772	0.0153916
836.850	0.0154221
836.928	0.0154369
837.006	0.0153142
837.084	0.0153791
837.163	0.0154033
837.241	0.0153796
837.319	0.0152485
837.397	0.0153792
837.475	0.0153023
837.553	0.0152446
837.631	0.0152457
837.709	0.0153822
837.788	0.0152253
837.866	0.0152412
837.944	0.0151295
838.022	0.0151652
838.100	0.0152383
838.178	0.0153093
838.256	0.0151849
838.334	0.0152872
838.413	0.0152711
838.491	0.0153994
838.569	0.0153668
838.647	0.0153891
838.725	0.0154357
838.803	0.0153896
838.881	0.0154646
838.959	0.0154852
839.038	0.0155234
839.116	0.0155408
839.194	0.0155653
839.272	0.0156421
839.350	0.0155709
839.428	0.0156165
839.506	0.0156562
839.584	0.0156361
839.663	0.0155564
839.741	0.0157077
839.819	0.0156998
839.897	0.0156759
839.975	0.0157046
840.053	0.0155929
840.131	0.0157550
840.209	0.0157601
840.288	0.0154815
840.366	0.0156998
840.444	0.0156464
840.522	0.0155621
840.600	0.0155514
840.678	0.0155090
840.756	0.0154222
840.834	0.0155209
840.913	0.0154151
840.991	0.0153439
841.069	0.0154211
841.147	0.0153934
841.225	0.0155252
841.303	0.0153568
841.381	0.0153035
841.459	0.0152551
841.538	0.0152664
841.616	0.0151410
841.694	0.0154258
841.772	0.0153400
841.850	0.0151501
841.928	0.0151725
842.006	0.0152092
842.084	0.0151463
842.163	0.0150967
842.241	0.0151675
842.319	0.0153456
842.397	0.0153049
842.475	0.0152022
842.553	0.0152773
842.631	0.0152272
842.709	0.0151939
842.788	0.0152767
842.866	0.0152432
842.944	0.0151465
843.022	0.0152147
843.100	0.0151452
843.178	0.0151704
843.256	0.0152802
843.334	0.0152037
843.413	0.0153302
843.491	0.0152934
843.569	0.0152791
843.647	0.0151440
843.725	0.0153295
843.803	0.0153650
843.881	0.0153191
843.959	0.0153386
844.038	0.0153541
844.116	0.0151613
844.194	0.0151075
844.272	0.0151923
844.350	0.0152681
844.428	0.0153368
844.506	0.0153088
844.584	0.0153435
844.663	0.0152010
844.741	0.0151733
844.819	0.0152652
844.897	0.0153215
844.975	0.0153386
845.053	0.0153845
845.131	0.0154658
845.209	0.0151768
845.288	0.0151987
845.366	0.0152947
845.444	0.0153458
845.522	0.0155273
845.600	0.0153753
845.678	0.0152989
845.756	0.0153172
845.834	0.0152950
845.913	0.0153365
845.991	0.0153474
846.069	0.0154604
846.147	0.0153680
846.225	0.0154699
846.303	0.0153053
846.381	0.0153432
846.459	0.0152585
846.538	0.0152702
846.616	0.0152000
846.694	0.0153176
846.772	0.0153796
846.850	0.0153200
846.928	0.0152765
847.006	0.0152051
847.084	0.0152368
847.163	0.0152087
847.241	0.0152950
847.319	0.0151824
847.397	0.0150163
847.475	0.0152164
847.553	0.0151916
847.631	0.0151350
847.709	0.0153402
847.788	0.0152001
847.866	0.0151681
847.944	0.0151344
848.022	0.0152290
848.100	0.0153227
848.178	0.0152361
848.256	0.0151197
848.334	0.0153157
848.413	0.0153005
848.491	0.0152898
848.569	0.0152904
848.647	0.0152684
848.725	0.0152627
848.803	0.0153751
848.881	0.0153100
848.959	0.0153312
849.038	0.0154872
849.116	0.0152359
849.194	0.0153654
849.272	0.0154716
849.350	0.0155412
849.428	0.0154212
849.506	0.0153268
849.584	0.0154768
849.663	0.0153851
849.741	0.0155035
849.819	0.0154063
849.897	0.0153115
849.975	0.0152914
850.053	0.0152567
850.131	0.0153138
850.209	0.0154655
850.288	0.0152251
850.366	0.0152658
850.444	0.0153462
850.522	0.0154555
850.600	0.0153378
850.678	0.0152648
850.756	0.0152387
850.834	0.0152970
850.913	0.0153073
850.991	0.0153017
851.069	0.0152795
851.147	0.0153034
851.225	0.0153490
851.303	0.0154305
851.381	0.0153000
851.459	0.0152486
851.538	0.0153614
851.616	0.0152715
851.694	0.0152066
851.772	0.0154870
851.850	0.0154934
851.928	0.0153550
852.006	0.0152901
852.084	0.0153671
852.163	0.0153043
852.241	0.0152586
852.319	0.0153412
852.397	0.0154057
852.475	0.0151447
852.553	0.0153821
852.631	0.0154431
852.709	0.0154721
852.788	0.0151930
852.866	0.0153513
852.944	0.0153218
853.022	0.0154603
853.100	0.0153188
853.178	0.0153986
853.256	0.0153808
853.334	0.0154267
853.413	0.0153504
853.491	0.0153551
853.569	0.0153239
853.647	0.0154134
853.725	0.0153813
853.803	0.0153475
853.881	0.0153160
853.959	0.0155305
854.038	0.0154791
854.116	0.0152769
854.194	0.0154750
854.272	0.0153953
854.350	0.0154610
854.428	0.0154871
854.506	0.0153900
854.584	0.0153583
854.663	0.0155457
854.741	0.0154352
854.819	0.0153430
854.897	0.0154600
854.975	0.0154356
855.053	0.0153711
855.131	0.0153698
855.209	0.0153445
855.288	0.0154501
855.366	0.0153953
855.444	0.0154937
855.522	0.0153745
855.600	0.0153081
855.678	0.0153273
855.756	0.0152647
855.834	0.0152762
855.913	0.0152618
855.991	0.0154063
856.069	0.0152661
856.147	0.0153329
856.225	0.0152801
856.303	0.0152377
856.381	0.0152673
856.459	0.0152755
856.538	0.0152504
856.616	0.0152466
856.694	0.0153154
856.772	0.0153576
856.850	0.0153401
856.928	0.0152391
857.006	0.0152826
857.084	0.0153629
857.163	0.0154263
857.241	0.0153199
857.319	0.0154171
857.397	0.0153255
857.475	0.0152494
857.553	0.0154199
857.631	0.0154075
857.709	0.0152718
857.788	0.0154376
857.866	0.0153777
857.944	0.0153233
858.022	0.0154271
858.100	0.0154884
858.178	0.0153849
858.256	0.0153302
858.334	0.0153535
858.413	0.0153689
858.491	0.0154292
858.569	0.0154630
858.647	0.0155526
858.725	0.0155520
858.803	0.0153600
858.881	0.0154359
858.959	0.0155070
859.038	0.0155606
859.116	0.0154707
859.194	0.0154148
859.272	0.0155302
859.350	0.0155587
859.428	0.0154965
859.506	0.0154645
859.584	0.0155569
859.663	0.0155333
859.741	0.0155617
859.819	0.0154167
859.897	0.0154995
859.975	0.0154671
860.053	0.0155080
860.131	0.0155042
860.209	0.0155002
860.288	0.0154716
860.366	0.0154506
860.444	0.0154343
860.522	0.0154874
860.600	0.0154318
860.678	0.0153996
860.756	0.0153931
860.834	0.0154836
860.913	0.0153999
860.991	0.0153016
861.069	0.0155373
861.147	0.0155878
861.225	0.0153826
861.303	0.0154861
861.381	0.0154539
861.459	0.0153943
861.538	0.0153215
861.616	0.0154902
861.694	0.0154813
861.772	0.0154414
861.850	0.0153748
861.928	0.0153452
862.006	0.0154789
862.084	0.0155137
862.163	0.0153887
862.241	0.0154422
862.319	0.0153473
862.397	0.0154034
862.475	0.0154465
862.553	0.0154562
862.631	0.0152766
862.709	0.0153540
862.788	0.0153132
862.866	0.0154237
862.944	0.0152637
863.022	0.0153748
863.100	0.0152757
863.178	0.0152220
863.256	0.0151861
863.334	0.0153223
863.413	0.0152423
863.491	0.0152435
863.569	0.0152111
863.647	0.0152567
863.725	0.0154189
863.803	0.0153205
863.881	0.0151218
863.959	0.0153041
864.038	0.0152405
864.116	0.0153320
864.194	0.0155086
864.272	0.0153033
864.350	0.0153175
864.428	0.0153519
864.506	0.0154356
864.584	0.0153577
864.663	0.0153620
864.741	0.0152901
864.819	0.0154384
864.897	0.0154194
864.975	0.0153756
865.053	0.0154216
865.131	0.0153450
865.209	0.0154051
865.288	0.0154758
865.366	0.0154352
865.444	0.0154716
865.522	0.0156147
865.600	0.0153329
865.678	0.0155614
865.756	0.0155383
865.834	0.0154546
865.913	0.0154058
865.991	0.0154077
866.069	0.0154702
866.147	0.0153284
866.225	0.0153411
866.303	0.0154253
866.381	0.0152660
866.459	0.0153883
866.538	0.0153851
866.616	0.0152663
866.694	0.0154040
866.772	0.0154021
866.850	0.0153166
866.928	0.0152673
867.006	0.0152601
867.084	0.0153329
867.163	0.0152988
867.241	0.0152357
867.319	0.0151145
867.397	0.0150956
867.475	0.0151911
867.553	0.0151976
867.631	0.0151501
867.709	0.0152030
867.788	0.0152985
867.866	0.0151692
867.944	0.0152036
868.022	0.0152058
868.100	0.0152602
868.178	0.0153710
868.256	0.0151975
868.334	0.0152423
868.413	0.0153526
868.491	0.0153188
868.569	0.0152103
868.647	0.0152849
868.725	0.0154086
868.803	0.0153741
868.881	0.0152010
868.959	0.0152943
869.038	0.0153290
869.116	0.0151711
869.194	0.0153151
869.272	0.0153564
869.350	0.0152971
869.428	0.0153527
869.506	0.0152911
869.584	0.0152494
869.663	0.0152236
869.741	0.0152909
869.819	0.0153942
869.897	0.0153062
869.975	0.0153910
870.053	0.0153066
870.131	0.0152090
870.209	0.0152285
870.288	0.0151508
870.366	0.0152596
870.444	0.0152262
870.522	0.0151528
870.600	0.0151768
870.678	0.0150531
870.756	0.0152087
870.834	0.0151888
870.913	0.0150337
870.991	0.0151621
871.069	0.0150678
871.147	0.0151656
871.225	0.0150578
871.303	0.0151399
871.381	0.0149910
871.459	0.0151830
871.538	0.0151782
871.616	0.0152284
871.694	0.0151562
871.772	0.0151790
871.850	0.0151091
871.928	0.0150906
872.006	0.0152024
872.084	0.0149840
872.163	0.0150218
872.241	0.0150664
872.319	0.0149895
872.397	0.0150469
872.475	0.0150652
872.553	0.0151367
872.631	0.0149985
872.709	0.0150858
872.788	0.0151485
872.866	0.0150999
872.944	0.0150244
873.022	0.0149909
873.100	0.0152482
873.178	0.0152254
873.256	0.0151237
873.334	0.0151978
873.413	0.0152831
873.491	0.0152924
873.569	0.0151987
873.647	0.0151703
873.725	0.0153284
873.803	0.0152330
873.881	0.0152934
873.959	0.0153916
874.038	0.0152251
874.116	0.0151400
874.194	0.0153238
874.272	0.0153424
874.350	0.0153281
874.428	0.0153909
874.506	0.0153426
874.584	0.0152410
874.663	0.0151815
874.741	0.0152379
874.819	0.0153547
874.897	0.0152440
874.975	0.0152525
875.053	0.0152997
875.131	0.0153325
875.209	0.0152625
875.288	0.0153720
875.366	0.0153221
875.444	0.0153423
875.522	0.0154390
875.600	0.0153050
875.678	0.0151731
875.756	0.0153198
875.834	0.0152233
875.913	0.0154214
875.991	0.0153555
876.069	0.0153210
876.147	0.0153434
876.225	0.0152892
876.303	0.0153719
876.381	0.0153089
876.459	0.0154137
876.538	0.0154591
876.616	0.0153201
876.694	0.0153536
876.772	0.0153276
876.850	0.0153340
876.928	0.0154263
877.006	0.0153735
877.084	0.0153793
877.163	0.0153392
877.241	0.0154274
877.319	0.0153685
877.397	0.0153798
877.475	0.0153296
877.553	0.0154343
877.631	0.0154857
877.709	0.0152483
877.788	0.0154134
877.866	0.0152930
877.944	0.0153712
878.022	0.0154073
878.100	0.0152839
878.178	0.0153293
878.256	0.0152486
878.334	0.0153947
878.413	0.0154907
878.491	0.0153519
878.569	0.0153171
878.647	0.0152548
878.725	0.0152991
878.803	0.0152390
878.881	0.0152946
878.959	0.0153931
879.038	0.0151250
879.116	0.0152789
879.194	0.0154321
879.272	0.0151998
879.350	0.0152100
879.428	0.0152961
879.506	0.0151531
879.584	0.0152878
879.663	0.0153286
879.741	0.0152835
879.819	0.0154035
879.897	0.0153946
879.975	0.0152222
880.053	0.0154080
880.131	0.0155290
880.209	0.0154634
880.288	0.0153511
880.366	0.0156432
880.444	0.0154780
880.522	0.0154150
880.600	0.0156648
880.678	0.0155096
880.756	0.0155887
880.834	0.0155490
880.913	0.0155405
880.991	0.0155849
881.069	0.0154987
881.147	0.0156288
881.225	0.0156310
881.303	0.0155569
881.381	0.0155338
881.459	0.0155520
881.538	0.0155138
881.616	0.0154703
881.694	0.0154511
881.772	0.0154554
881.850	0.0155547
881.928	0.0155518
882.006	0.0154446
882.084	0.0154198
882.163	0.0154224
882.241	0.0154393
882.319	0.0153271
882.397	0.0153691
882.475	0.0153967
882.553	0.0154041
882.631	0.0154118
882.709	0.0154195
882.788	0.0154419
882.866	0.0152779
882.944	0.0152408
883.022	0.0152904
883.100	0.0152942
883.178	0.0155310
883.256	0.0153537
883.334	0.0153570
883.413	0.0154582
883.491	0.0153790
883.569	0.0153476
883.647	0.0153625
883.725	0.0153742
883.803	0.0153427
883.881	0.0154523
883.959	0.0153753
884.038	0.0153843
884.116	0.0153330
884.194	0.0153976
884.272	0.0153536
884.350	0.0154710
884.428	0.0152670
884.506	0.0154356
884.584	0.0154768
884.663	0.0154063
884.741	0.0154702
884.819	0.0153726
884.897	0.0155770
884.975	0.0156221
885.053	0.0154322
885.131	0.0153799
885.209	0.0155517
885.288	0.0154072
885.366	0.0155505
885.444	0.0154239
885.522	0.0154178
885.600	0.0154486
885.678	0.0153596
885.756	0.0153301
885.834	0.0154383
885.913	0.0153003
885.991	0.0152668
886.069	0.0152973
886.147	0.0152189
886.225	0.0152785
886.303	0.0153471
886.381	0.0152956
886.459	0.0153531
886.538	0.0152568
886.616	0.0151319
886.694	0.0153073
886.772	0.0153409
886.850	0.0153365
886.928	0.0154317
887.006	0.0152972
887.084	0.0152542
887.163	0.0153215
887.241	0.0154064
887.319	0.0154179
887.397	0.0154539
887.475	0.0154317
887.553	0.0153740
887.631	0.0154353
887.709	0.0153272
887.788	0.0152684
887.866	0.0153844
887.944	0.0152754
888.022	0.0153911
888.100	0.0153822
888.178	0.0153827
888.256	0.0153123
888.334	0.0152762
888.413	0.0151637
888.491	0.0151912
888.569	0.0151874
888.647	0.0153343
888.725	0.0153522
888.803	0.0152705
888.881	0.0151972
888.959	0.0151817
889.038	0.0152310
889.116	0.0152873
889.194	0.0152791
889.272	0.0151627
889.350	0.0153096
889.428	0.0151403
889.506	0.0151205
889.584	0.0152545
889.663	0.0152786
889.741	0.0152406
889.819	0.0152601
889.897	0.0152193
889.975	0.0152111
890.053	0.0151208
890.131	0.0151974
890.209	0.0152470
890.288	0.0151338
890.366	0.0152622
890.444	0.0152776
890.522	0.0153764
890.600	0.0152609
890.678	0.0151575
890.756	0.0151881
890.834	0.0152636
890.913	0.0151464
890.991	0.0152314
891.069	0.0152970
891.147	0.0152604
891.225	0.0151086
891.303	0.0152584
891.381	0.0151611
891.459	0.0155562
891.538	0.0152663
891.616	0.0152245
891.694	0.0152345
891.772	0.0154276
891.850	0.0153056
891.928	0.0154279
892.006	0.0153335
892.084	0.0155428
892.163	0.0154768
892.241	0.0153759
892.319	0.0153207
892.397	0.0154534
892.475	0.0153807
892.553	0.0153161
892.631	0.0151779
892.709	0.0153172
892.788	0.0153239
892.866	0.0151523
892.944	0.0151950
893.022	0.0153041
893.100	0.0152866
893.178	0.0151198
893.256	0.0152537
893.334	0.0151554
893.413	0.0151633
893.491	0.0150690
893.569	0.0150765
893.647	0.0150587
893.725	0.0151540
893.803	0.0150270
893.881	0.0152212
893.959	0.0151129
894.038	0.0152381
894.116	0.0152115
894.194	0.0151622
894.272	0.0152299
894.350	0.0152003
894.428	0.0152771
894.506	0.0152545
894.584	0.0152355
894.663	0.0153800
894.741	0.0154638
894.819	0.0153134
894.897	0.0153614
894.975	0.0154145
895.053	0.0153726
895.131	0.0152598
895.209	0.0154072
895.288	0.0153751
895.366	0.0153358
895.444	0.0153307
895.522	0.0152419
895.600	0.0153287
895.678	0.0153563
895.756	0.0152771
895.834	0.0153362
895.913	0.0153394
895.991	0.0153711
896.069	0.0152036
896.147	0.0152328
896.225	0.0153757
896.303	0.0153488
896.381	0.0153769
896.459	0.0152648
896.538	0.0153328
896.616	0.0152609
896.694	0.0152620
896.772	0.0152962
896.850	0.0153122
896.928	0.0152804
897.006	0.0153157
897.084	0.0150618
897.163	0.0152005
897.241	0.0152032
897.319	0.0152087
897.397	0.0152496
897.475	0.0151619
897.553	0.0152905
897.631	0.0151756
897.709	0.0151500
897.788	0.0152187
897.866	0.0152523
897.944	0.0152918
898.022	0.0153619
898.100	0.0153309
898.178	0.0153689
898.256	0.0153888
898.334	0.0154358
898.413	0.0153390
898.491	0.0154429
898.569	0.0156103
898.647	0.0156409
898.725	0.0156564
898.803	0.0157927
898.881	0.0157347
898.959	0.0155479
899.038	0.0156611
899.116	0.0158200
899.194	0.0156526
899.272	0.0155136
899.350	0.0155965
899.428	0.0156329
899.506	0.0155936
899.584	0.0156187
899.663	0.0156207
899.741	0.0155125
899.819	0.0154522
899.897	0.0154161
899.975	0.0154256
900.053	0.0154471
900.131	0.0153548
900.209	0.0154377
900.288	0.0153526
900.366	0.0154043
900.444	0.0153795
900.522	0.0151780
900.600	0.0152452
900.678	0.0153288
900.756	0.0153157
900.834	0.0153610
900.913	0.0153036
900.991	0.0153434
901.069	0.0154107
901.147	0.0154076
901.225	0.0154089
901.303	0.0154668
901.381	0.0154166
901.459	0.0154931
901.538	0.0154395
901.616	0.0154663
901.694	0.0154914
901.772	0.0154768
901.850	0.0155795
901.928	0.0154016
902.006	0.0154681
902.084	0.0153650
902.163	0.0155487
902.241	0.0154969
902.319	0.0153471
902.397	0.0154242
902.475	0.0154264
902.553	0.0152959
902.631	0.0153147
902.709	0.0152386
902.788	0.0153455
902.866	0.0153506
902.944	0.0154282
903.022	0.0155138
903.100	0.0153468
903.178	0.0153253
903.256	0.0153812
903.334	0.0153375
903.413	0.0153113
903.491	0.0153461
903.569	0.0153581
903.647	0.0153240
903.725	0.0154339
903.803	0.0153523
903.881	0.0152650
903.959	0.0153172
904.038	0.0153992
904.116	0.0153503
904.194	0.0154287
904.272	0.0155026
904.350	0.0154540
904.428	0.0154904
904.506	0.0154957
904.584	0.0153489
904.663	0.0154662
904.741	0.0154572
904.819	0.0154101
904.897	0.0154715
904.975	0.0154784
905.053	0.0153265
905.131	0.0154759
905.209	0.0155460
905.288	0.0153114
905.366	0.0153098
905.444	0.0153098
905.522	0.0153156
905.600	0.0153172
905.678	0.0153065
905.756	0.0153534
905.834	0.0152835
905.913	0.0150964
905.991	0.0152238
906.069	0.0152668
906.147	0.0151572
906.225	0.0150620
906.303	0.0152278
906.381	0.0152645
906.459	0.0152320
906.538	0.0151365
906.616	0.0150840
906.694	0.0150711
906.772	0.0150235
906.850	0.0150238
906.928	0.0148761
907.006	0.0151206
907.084	0.0153272
907.163	0.0152409
907.241	0.0151392
907.319	0.0152020
907.397	0.0151605
907.475	0.0150707
907.553	0.0152743
907.631	0.0152753
907.709	0.0152789
907.788	0.0153484
907.866	0.0152340
907.944	0.0152446
908.022	0.0153034
908.100	0.0152261
908.178	0.0154158
908.256	0.0153215
908.334	0.0152975
908.413	0.0153400
908.491	0.0153131
908.569	0.0153983
908.647	0.0153618
908.725	0.0153184
908.803	0.0152646
908.881	0.0153217
908.959	0.0153202
909.038	0.0153722
909.116	0.0154587
909.194	0.0152686
909.272	0.0154322
909.350	0.0152650
909.428	0.0154229
909.506	0.0154224
909.584	0.0154330
909.663	0.0152551
909.741	0.0154253
909.819	0.0154265
909.897	0.0154826
909.975	0.0155192
910.053	0.0155710
910.131	0.0154681
910.209	0.0154783
910.288	0.0154624
910.366	0.0154263
910.444	0.0154939
910.522	0.0154537
910.600	0.0155687
910.678	0.0153720
910.756	0.0154861
910.834	0.0154212
910.913	0.0154836
910.991	0.0154937
911.069	0.0155731
911.147	0.0154397
911.225	0.0154675
911.303	0.0155841
911.381	0.0154797
911.459	0.0155417
911.538	0.0155147
911.616	0.0154942
911.694	0.0155469
911.772	0.0155466
911.850	0.0154321
911.928	0.0155328
912.006	0.0155349
912.084	0.0155350
912.163	0.0155477
912.241	0.0157165
912.319	0.0156200
912.397	0.0155251
912.475	0.0157184
912.553	0.0155343
912.631	0.0155983
912.709	0.0154943
912.788	0.0153421
912.866	0.0154540
912.944	0.0155161
913.022	0.0155181
913.100	0.0155178
913.178	0.0154514
913.256	0.0153017
913.334	0.0152948
913.413	0.0154031
913.491	0.0153584
913.569	0.0152612
913.647	0.0153703
913.725	0.0152184
913.803	0.0152776
913.881	0.0152834
913.959	0.0151810
914.038	0.0153844
914.116	0.0152570
914.194	0.0154060
914.272	0.0152896
914.350	0.0152720
914.428	0.0153714
914.506	0.0153158
914.584	0.0153711
914.663	0.0152722
914.741	0.0154764
914.819	0.0154937
914.897	0.0153764
914.975	0.0154012
915.053	0.0154652
915.131	0.0154398
915.209	0.0153592
915.288	0.0153528
915.366	0.0152766
915.444	0.0152340
915.522	0.0153252
915.600	0.0154167
915.678	0.0151933
915.756	0.0152108
915.834	0.0153185
915.913	0.0153157
915.991	0.0151925
916.069	0.0152140
916.147	0.0151045
916.225	0.0151683
916.303	0.0151314
916.381	0.0152107
916.459	0.0151441
916.538	0.0151041
916.616	0.0152608
916.694	0.0151929
916.772	0.0152793
916.850	0.0152258
916.928	0.0152544
917.006	0.0152374
917.084	0.0152694
917.163	0.0152793
917.241	0.0152435
917.319	0.0153226
917.397	0.0153565
917.475	0.0153033
917.553	0.0153535
917.631	0.0154449
917.709	0.0153378
917.788	0.0154562
917.866	0.0153253
917.944	0.0153853
918.022	0.0154700
918.100	0.0154813
918.178	0.0153260
918.256	0.0155311
918.334	0.0154250
918.413	0.0154667
918.491	0.0154092
918.569	0.0154465
918.647	0.0154501
918.725	0.0153267
918.803	0.0153761
918.881	0.0152779
918.959	0.0153909
919.038	0.0153690
919.116	0.0153075
919.194	0.0153307
919.272	0.0153713
919.350	0.0154609
919.428	0.0152039
919.506	0.0153917
919.584	0.0154328
919.663	0.0154321
919.741	0.0155342
919.819	0.0153873
919.897	0.0153360
