05/20/2022	21:24:19	Ver.	4.1	UNKNOWN
Optical Delay	599.975067	Delta X		0.078125	Sweeps	1	Scan Rate	0/0
Coordinates	Axis 1	NaN	Axis 2	NaN	Axis 3	NaN	Axis 4	NaN	Axis 5	NaN	Axis 6	0.000000
TX Power	0.000000	RX Power	0.000000

599.975	0.0151835
600.053	0.0151081
600.131	0.0151128
600.209	0.0151486
600.288	0.0151162
600.366	0.0152235
600.444	0.0152199
600.522	0.0152312
600.600	0.0150679
600.678	0.0149852
600.756	0.0151679
600.834	0.0152029
600.913	0.0150323
600.991	0.0150710
601.069	0.0151968
601.147	0.0150331
601.225	0.0151334
601.303	0.0152411
601.381	0.0150542
601.459	0.0150792
601.538	0.0152725
601.616	0.0151128
601.694	0.0150678
601.772	0.0151544
601.850	0.0151302
601.928	0.0151607
602.006	0.0151330
602.084	0.0151257
602.163	0.0148846
602.241	0.0150454
602.319	0.0149152
602.397	0.0149329
602.475	0.0152625
602.553	0.0150999
602.631	0.0149201
602.709	0.0151138
602.788	0.0150649
602.866	0.0150647
602.944	0.0151929
603.022	0.0151077
603.100	0.0152313
603.178	0.0150451
603.256	0.0150366
603.334	0.0150494
603.413	0.0150391
603.491	0.0148367
603.569	0.0151203
603.647	0.0151031
603.725	0.0150345
603.803	0.0149323
603.881	0.0150233
603.959	0.0149461
604.038	0.0148751
604.116	0.0150397
604.194	0.0150211
604.272	0.0149323
604.350	0.0151290
604.428	0.0149471
604.506	0.0150360
604.584	0.0150835
604.663	0.0150017
604.741	0.0150430
604.819	0.0150969
604.897	0.0150047
604.975	0.0149826
605.053	0.0149795
605.131	0.0150826
605.209	0.0151038
605.288	0.0150283
605.366	0.0150674
605.444	0.0151163
605.522	0.0149844
605.600	0.0149686
605.678	0.0151450
605.756	0.0150638
605.834	0.0150615
605.913	0.0149469
605.991	0.0151910
606.069	0.0151340
606.147	0.0150157
606.225	0.0150165
606.303	0.0151289
606.381	0.0151672
606.459	0.0150633
606.538	0.0150207
606.616	0.0151956
606.694	0.0150999
606.772	0.0151804
606.850	0.0150597
606.928	0.0150971
607.006	0.0151537
607.084	0.0152030
607.163	0.0152417
607.241	0.0151803
607.319	0.0151891
607.397	0.0150534
607.475	0.0151318
607.553	0.0153306
607.631	0.0153870
607.709	0.0152113
607.788	0.0152029
607.866	0.0151829
607.944	0.0153494
608.022	0.0152213
608.100	0.0153470
608.178	0.0151994
608.256	0.0153137
608.334	0.0152233
608.413	0.0152642
608.491	0.0152666
608.569	0.0153020
608.647	0.0152824
608.725	0.0153102
608.803	0.0153504
608.881	0.0151902
608.959	0.0154445
609.038	0.0153642
609.116	0.0154082
609.194	0.0154295
609.272	0.0153036
609.350	0.0152647
609.428	0.0153415
609.506	0.0152911
609.584	0.0153457
609.663	0.0154045
609.741	0.0153359
609.819	0.0155356
609.897	0.0154778
609.975	0.0154777
610.053	0.0154008
610.131	0.0153430
610.209	0.0155733
610.288	0.0154566
610.366	0.0153663
610.444	0.0154511
610.522	0.0153339
610.600	0.0153185
610.678	0.0155289
610.756	0.0154684
610.834	0.0154189
610.913	0.0155389
610.991	0.0153076
611.069	0.0154099
611.147	0.0154795
611.225	0.0152770
611.303	0.0153145
611.381	0.0152324
611.459	0.0153424
611.538	0.0152798
611.616	0.0153187
611.694	0.0153733
611.772	0.0153469
611.850	0.0153754
611.928	0.0153507
612.006	0.0151633
612.084	0.0152134
612.163	0.0153162
612.241	0.0153825
612.319	0.0153112
612.397	0.0151814
612.475	0.0152636
612.553	0.0152407
612.631	0.0151786
612.709	0.0152347
612.788	0.0152272
612.866	0.0152728
612.944	0.0152982
613.022	0.0153088
613.100	0.0152835
613.178	0.0153946
613.256	0.0153353
613.334	0.0153113
613.413	0.0154031
613.491	0.0152511
613.569	0.0153034
613.647	0.0152984
613.725	0.0153119
613.803	0.0152158
613.881	0.0153154
613.959	0.0153150
614.038	0.0152303
614.116	0.0152403
614.194	0.0152408
614.272	0.0152589
614.350	0.0153186
614.428	0.0152473
614.506	0.0152979
614.584	0.0151261
614.663	0.0151500
614.741	0.0151399
614.819	0.0152050
614.897	0.0151260
614.975	0.0151686
615.053	0.0151391
615.131	0.0152366
615.209	0.0151582
615.288	0.0150916
615.366	0.0150932
615.444	0.0151547
615.522	0.0151157
615.600	0.0152888
615.678	0.0151447
615.756	0.0151923
615.834	0.0150154
615.913	0.0150513
615.991	0.0150890
616.069	0.0151578
616.147	0.0150787
616.225	0.0151453
616.303	0.0151173
616.381	0.0150934
616.459	0.0150717
616.538	0.0150974
616.616	0.0151834
616.694	0.0151138
616.772	0.0152161
616.850	0.0151761
616.928	0.0150858
617.006	0.0152035
617.084	0.0152494
617.163	0.0151710
617.241	0.0151153
617.319	0.0152998
617.397	0.0152111
617.475	0.0150908
617.553	0.0151714
617.631	0.0151530
617.709	0.0152077
617.788	0.0152348
617.866	0.0151704
617.944	0.0151228
618.022	0.0151884
618.100	0.0151659
618.178	0.0151262
618.256	0.0152008
618.334	0.0152431
618.413	0.0152433
618.491	0.0151075
618.569	0.0151463
618.647	0.0151537
618.725	0.0151441
618.803	0.0150097
618.881	0.0152026
618.959	0.0151859
619.038	0.0151322
619.116	0.0151637
619.194	0.0151598
619.272	0.0150961
619.350	0.0151576
619.428	0.0151859
619.506	0.0150988
619.584	0.0152593
619.663	0.0151279
619.741	0.0151562
619.819	0.0151370
619.897	0.0150757
619.975	0.0150358
620.053	0.0152076
620.131	0.0152594
620.209	0.0149909
620.288	0.0151012
620.366	0.0152552
620.444	0.0151433
620.522	0.0151079
620.600	0.0150371
620.678	0.0150186
620.756	0.0150484
620.834	0.0150270
620.913	0.0150403
620.991	0.0149986
621.069	0.0150827
621.147	0.0151162
621.225	0.0150411
621.303	0.0148854
621.381	0.0149124
621.459	0.0149920
621.538	0.0149147
621.616	0.0149493
621.694	0.0149136
621.772	0.0150087
621.850	0.0149160
621.928	0.0148988
622.006	0.0148461
622.084	0.0150454
622.163	0.0150063
622.241	0.0149640
622.319	0.0151646
622.397	0.0150165
622.475	0.0148948
622.553	0.0149838
622.631	0.0150399
622.709	0.0150721
622.788	0.0150224
622.866	0.0150549
622.944	0.0150778
623.022	0.0150558
623.100	0.0150835
623.178	0.0150351
623.256	0.0150156
623.334	0.0150795
623.413	0.0149507
623.491	0.0150645
623.569	0.0151794
623.647	0.0151938
623.725	0.0151620
623.803	0.0151349
623.881	0.0151274
623.959	0.0151160
624.038	0.0150793
624.116	0.0151138
624.194	0.0150366
624.272	0.0150581
624.350	0.0149940
624.428	0.0151588
624.506	0.0151051
624.584	0.0151527
624.663	0.0152401
624.741	0.0151475
624.819	0.0150948
624.897	0.0151347
624.975	0.0150854
625.053	0.0150742
625.131	0.0150739
625.209	0.0151413
625.288	0.0153303
625.366	0.0152203
625.444	0.0150532
625.522	0.0150639
625.600	0.0150796
625.678	0.0151337
625.756	0.0150988
625.834	0.0150411
625.913	0.0149799
625.991	0.0151048
626.069	0.0151035
626.147	0.0151179
626.225	0.0149666
626.303	0.0150717
626.381	0.0151329
626.459	0.0151468
626.538	0.0152074
626.616	0.0150906
626.694	0.0151250
626.772	0.0150532
626.850	0.0149948
626.928	0.0152285
627.006	0.0152386
627.084	0.0151773
627.163	0.0151830
627.241	0.0152113
627.319	0.0151771
627.397	0.0151675
627.475	0.0151167
627.553	0.0150246
627.631	0.0152952
627.709	0.0152415
627.788	0.0151550
627.866	0.0151477
627.944	0.0151215
628.022	0.0151834
628.100	0.0152372
628.178	0.0153532
628.256	0.0152488
628.334	0.0152124
628.413	0.0153342
628.491	0.0153144
628.569	0.0150927
628.647	0.0152557
628.725	0.0152447
628.803	0.0153116
628.881	0.0153149
628.959	0.0151704
629.038	0.0151414
629.116	0.0152343
629.194	0.0152560
629.272	0.0153065
629.350	0.0152399
629.428	0.0153412
629.506	0.0152095
629.584	0.0152291
629.663	0.0152328
629.741	0.0153930
629.819	0.0152362
629.897	0.0155091
629.975	0.0153201
630.053	0.0152975
630.131	0.0152905
630.209	0.0152406
630.288	0.0150620
630.366	0.0151809
630.444	0.0152004
630.522	0.0152825
630.600	0.0152035
630.678	0.0151985
630.756	0.0151424
630.834	0.0152441
630.913	0.0152084
630.991	0.0152224
631.069	0.0152499
631.147	0.0152412
631.225	0.0153142
631.303	0.0152377
631.381	0.0152422
631.459	0.0151776
631.538	0.0151762
631.616	0.0152520
631.694	0.0152139
631.772	0.0151999
631.850	0.0151631
631.928	0.0152660
632.006	0.0152303
632.084	0.0153271
632.163	0.0153182
632.241	0.0151493
632.319	0.0150955
632.397	0.0151810
632.475	0.0152191
632.553	0.0151179
632.631	0.0152283
632.709	0.0152888
632.788	0.0151851
632.866	0.0150824
632.944	0.0151830
633.022	0.0152805
633.100	0.0151939
633.178	0.0151412
633.256	0.0152148
633.334	0.0151796
633.413	0.0152255
633.491	0.0151834
633.569	0.0152811
633.647	0.0152557
633.725	0.0151450
633.803	0.0153180
633.881	0.0151168
633.959	0.0151736
634.038	0.0151374
634.116	0.0150977
634.194	0.0151358
634.272	0.0154525
634.350	0.0152113
634.428	0.0152863
634.506	0.0152135
634.584	0.0151067
634.663	0.0151234
634.741	0.0153290
634.819	0.0152714
634.897	0.0151509
634.975	0.0153366
635.053	0.0152705
635.131	0.0150626
635.209	0.0150961
635.288	0.0152760
635.366	0.0152329
635.444	0.0151141
635.522	0.0151321
635.600	0.0151109
635.678	0.0151201
635.756	0.0153172
635.834	0.0150811
635.913	0.0152047
635.991	0.0153410
636.069	0.0150776
636.147	0.0152004
636.225	0.0152033
636.303	0.0151994
636.381	0.0151519
636.459	0.0151991
636.538	0.0152376
636.616	0.0150826
636.694	0.0153284
636.772	0.0151910
636.850	0.0151759
636.928	0.0152316
637.006	0.0152201
637.084	0.0151919
637.163	0.0152155
637.241	0.0153036
637.319	0.0152740
637.397	0.0152035
637.475	0.0152087
637.553	0.0152395
637.631	0.0151880
637.709	0.0151806
637.788	0.0152268
637.866	0.0152924
637.944	0.0152779
638.022	0.0152924
638.100	0.0152914
638.178	0.0152821
638.256	0.0152312
638.334	0.0153627
638.413	0.0152180
638.491	0.0152600
638.569	0.0152671
638.647	0.0152604
638.725	0.0153142
638.803	0.0151969
638.881	0.0153496
638.959	0.0152792
639.038	0.0152840
639.116	0.0152664
639.194	0.0152299
639.272	0.0153191
639.350	0.0153738
639.428	0.0152174
639.506	0.0152685
639.584	0.0153279
639.663	0.0152937
639.741	0.0154427
639.819	0.0153386
639.897	0.0153024
639.975	0.0152113
640.053	0.0152700
640.131	0.0153471
640.209	0.0152999
640.288	0.0152419
640.366	0.0153422
640.444	0.0153419
640.522	0.0153992
640.600	0.0153420
640.678	0.0153241
640.756	0.0151689
640.834	0.0152975
640.913	0.0153806
640.991	0.0153387
641.069	0.0151702
641.147	0.0151233
641.225	0.0152546
641.303	0.0152086
641.381	0.0153142
641.459	0.0152763
641.538	0.0153000
641.616	0.0152218
641.694	0.0150858
641.772	0.0152333
641.850	0.0152055
641.928	0.0151247
642.006	0.0151772
642.084	0.0152219
642.163	0.0151645
642.241	0.0150975
642.319	0.0150578
642.397	0.0150755
642.475	0.0150101
642.553	0.0149612
642.631	0.0149947
642.709	0.0149961
642.788	0.0150293
642.866	0.0150218
642.944	0.0149837
643.022	0.0149499
643.100	0.0151172
643.178	0.0150345
643.256	0.0150296
643.334	0.0150616
643.413	0.0152174
643.491	0.0151366
643.569	0.0150516
643.647	0.0149496
643.725	0.0151316
643.803	0.0152338
643.881	0.0150227
643.959	0.0152625
644.038	0.0151233
644.116	0.0150908
644.194	0.0151279
644.272	0.0151270
644.350	0.0151196
644.428	0.0150641
644.506	0.0150568
644.584	0.0150166
644.663	0.0150178
644.741	0.0149982
644.819	0.0149522
644.897	0.0148839
644.975	0.0150481
645.053	0.0150845
645.131	0.0150727
645.209	0.0150132
645.288	0.0149677
645.366	0.0150880
645.444	0.0148407
645.522	0.0149533
645.600	0.0149638
645.678	0.0150970
645.756	0.0151493
645.834	0.0149857
645.913	0.0150079
645.991	0.0150220
646.069	0.0150887
646.147	0.0150213
646.225	0.0150292
646.303	0.0150262
646.381	0.0148949
646.459	0.0150090
646.538	0.0150290
646.616	0.0149215
646.694	0.0149837
646.772	0.0149448
646.850	0.0150188
646.928	0.0150402
647.006	0.0149805
647.084	0.0149772
647.163	0.0150956
647.241	0.0150481
647.319	0.0148935
647.397	0.0149209
647.475	0.0151107
647.553	0.0149541
647.631	0.0149863
647.709	0.0151243
647.788	0.0150385
647.866	0.0149352
647.944	0.0151710
648.022	0.0150991
648.100	0.0150020
648.178	0.0149388
648.256	0.0151506
648.334	0.0151521
648.413	0.0149737
648.491	0.0149166
648.569	0.0150946
648.647	0.0151453
648.725	0.0150420
648.803	0.0151471
648.881	0.0151257
648.959	0.0150312
649.038	0.0150298
649.116	0.0151264
649.194	0.0150626
649.272	0.0150563
649.350	0.0151220
649.428	0.0151192
649.506	0.0149550
649.584	0.0150900
649.663	0.0151599
649.741	0.0152059
649.819	0.0152272
649.897	0.0152357
649.975	0.0151665
650.053	0.0151000
650.131	0.0152869
650.209	0.0151767
650.288	0.0152313
650.366	0.0152853
650.444	0.0150936
650.522	0.0151232
650.600	0.0151633
650.678	0.0152197
650.756	0.0153213
650.834	0.0153037
650.913	0.0151705
650.991	0.0151447
651.069	0.0151721
651.147	0.0152930
651.225	0.0152561
651.303	0.0152830
651.381	0.0151934
651.459	0.0151039
651.538	0.0152682
651.616	0.0151410
651.694	0.0153095
651.772	0.0153701
651.850	0.0153033
651.928	0.0151682
652.006	0.0152296
652.084	0.0150964
652.163	0.0153788
652.241	0.0153103
652.319	0.0152259
652.397	0.0153195
652.475	0.0153036
652.553	0.0153044
652.631	0.0152479
652.709	0.0153273
652.788	0.0153965
652.866	0.0152847
652.944	0.0153433
653.022	0.0153505
653.100	0.0153815
653.178	0.0152486
653.256	0.0154026
653.334	0.0153075
653.413	0.0153296
653.491	0.0152133
653.569	0.0152745
653.647	0.0151223
653.725	0.0154060
653.803	0.0153116
653.881	0.0152256
653.959	0.0152336
654.038	0.0150668
654.116	0.0150961
654.194	0.0151940
654.272	0.0152410
654.350	0.0152485
654.428	0.0151124
654.506	0.0150743
654.584	0.0150862
654.663	0.0151367
654.741	0.0150948
654.819	0.0150700
654.897	0.0151187
654.975	0.0151192
655.053	0.0151048
655.131	0.0151036
655.209	0.0151904
655.288	0.0150030
655.366	0.0150620
655.444	0.0149867
655.522	0.0149557
655.600	0.0150812
655.678	0.0151728
655.756	0.0150350
655.834	0.0149839
655.913	0.0149782
655.991	0.0150018
656.069	0.0150275
656.147	0.0150959
656.225	0.0149910
656.303	0.0151612
656.381	0.0149207
656.459	0.0150364
656.538	0.0149654
656.616	0.0147012
656.694	0.0150744
656.772	0.0150333
656.850	0.0150219
656.928	0.0149770
657.006	0.0149684
657.084	0.0151146
657.163	0.0151193
657.241	0.0148815
657.319	0.0150574
657.397	0.0151649
657.475	0.0151286
657.553	0.0151778
657.631	0.0151244
657.709	0.0151336
657.788	0.0151834
657.866	0.0150226
657.944	0.0151936
658.022	0.0150388
658.100	0.0149596
658.178	0.0151109
658.256	0.0149517
658.334	0.0148551
658.413	0.0151643
658.491	0.0151043
658.569	0.0148971
658.647	0.0150817
658.725	0.0150954
658.803	0.0151003
658.881	0.0150795
658.959	0.0150791
659.038	0.0153731
659.116	0.0151630
659.194	0.0152869
659.272	0.0152212
659.350	0.0153986
659.428	0.0152604
659.506	0.0152526
659.584	0.0153429
659.663	0.0154794
659.741	0.0154185
659.819	0.0152965
659.897	0.0153328
659.975	0.0153880
660.053	0.0152261
660.131	0.0152608
660.209	0.0151917
660.288	0.0151723
660.366	0.0150209
660.444	0.0151094
660.522	0.0152054
660.600	0.0150362
660.678	0.0149651
660.756	0.0151155
660.834	0.0150964
660.913	0.0150471
660.991	0.0151846
661.069	0.0151426
661.147	0.0151920
661.225	0.0152945
661.303	0.0151479
661.381	0.0152437
661.459	0.0153266
661.538	0.0152368
661.616	0.0153753
661.694	0.0153233
661.772	0.0153335
661.850	0.0155189
661.928	0.0153766
662.006	0.0155340
662.084	0.0154218
662.163	0.0155262
662.241	0.0155492
662.319	0.0155465
662.397	0.0154691
662.475	0.0156233
662.553	0.0155988
662.631	0.0155815
662.709	0.0153851
662.788	0.0153281
662.866	0.0152098
662.944	0.0152245
663.022	0.0151284
663.100	0.0150407
663.178	0.0149628
663.256	0.0148808
663.334	0.0147221
663.413	0.0146501
663.491	0.0145274
663.569	0.0145206
663.647	0.0146002
663.725	0.0145002
663.803	0.0142957
663.881	0.0145196
663.959	0.0146546
664.038	0.0146471
664.116	0.0145543
664.194	0.0146617
664.272	0.0147192
664.350	0.0148270
664.428	0.0149913
664.506	0.0150323
664.584	0.0150581
664.663	0.0151567
664.741	0.0152725
664.819	0.0152125
664.897	0.0154765
664.975	0.0154494
665.053	0.0155574
665.131	0.0155291
665.209	0.0155186
665.288	0.0156544
665.366	0.0156696
665.444	0.0155434
665.522	0.0157157
665.600	0.0157434
665.678	0.0158135
665.756	0.0156705
665.834	0.0157562
665.913	0.0156981
665.991	0.0154881
666.069	0.0154703
666.147	0.0153896
666.225	0.0154787
666.303	0.0153533
666.381	0.0152161
666.459	0.0151276
666.538	0.0150774
666.616	0.0152208
666.694	0.0150336
666.772	0.0148699
666.850	0.0149966
666.928	0.0149368
667.006	0.0148257
667.084	0.0149078
667.163	0.0147181
667.241	0.0147555
667.319	0.0147745
667.397	0.0148225
667.475	0.0146816
667.553	0.0145836
667.631	0.0145812
667.709	0.0145061
667.788	0.0144952
667.866	0.0144659
667.944	0.0144503
668.022	0.0144051
668.100	0.0144398
668.178	0.0141787
668.256	0.0141911
668.334	0.0143010
668.413	0.0143318
668.491	0.0143266
668.569	0.0143207
668.647	0.0144845
668.725	0.0145121
668.803	0.0147087
668.881	0.0149123
668.959	0.0149747
669.038	0.0149495
669.116	0.0151189
669.194	0.0153316
669.272	0.0155122
669.350	0.0157550
669.428	0.0156289
669.506	0.0157877
669.584	0.0160081
669.663	0.0159885
669.741	0.0161890
669.819	0.0162602
669.897	0.0163486
669.975	0.0164890
670.053	0.0165075
670.131	0.0164505
670.209	0.0164350
670.288	0.0165141
670.366	0.0165712
670.444	0.0164240
670.522	0.0164059
670.600	0.0163574
670.678	0.0160638
670.756	0.0159573
670.834	0.0158778
670.913	0.0155460
670.991	0.0153294
671.069	0.0152460
671.147	0.0149704
671.225	0.0147796
671.303	0.0147382
671.381	0.0144943
671.459	0.0143315
671.538	0.0143942
671.616	0.0141107
671.694	0.0138934
671.772	0.0136826
671.850	0.0136575
671.928	0.0137219
672.006	0.0136937
672.084	0.0135957
672.163	0.0136134
672.241	0.0136164
672.319	0.0136099
672.397	0.0136692
672.475	0.0138549
672.553	0.0138892
672.631	0.0141243
672.709	0.0142365
672.788	0.0143701
672.866	0.0144518
672.944	0.0147449
673.022	0.0148857
673.100	0.0151617
673.178	0.0152517
673.256	0.0153291
673.334	0.0155431
673.413	0.0155766
673.491	0.0156801
673.569	0.0158234
673.647	0.0159948
673.725	0.0161001
673.803	0.0160492
673.881	0.0160110
673.959	0.0160638
674.038	0.0160729
674.116	0.0161920
674.194	0.0161201
674.272	0.0161429
674.350	0.0161365
674.428	0.0161929
674.506	0.0163006
674.584	0.0161665
674.663	0.0162636
674.741	0.0161695
674.819	0.0163121
674.897	0.0162440
674.975	0.0161742
675.053	0.0161223
675.131	0.0162032
675.209	0.0161290
675.288	0.0160529
675.366	0.0161017
675.444	0.0159212
675.522	0.0157000
675.600	0.0154636
675.678	0.0154861
675.756	0.0153188
675.834	0.0152232
675.913	0.0149076
675.991	0.0146822
676.069	0.0144423
676.147	0.0143385
676.225	0.0141219
676.303	0.0139206
676.381	0.0138733
676.459	0.0137075
676.538	0.0134042
676.616	0.0132650
676.694	0.0132139
676.772	0.0130540
676.850	0.0130606
676.928	0.0130122
677.006	0.0129358
677.084	0.0130216
677.163	0.0130894
677.241	0.0132822
677.319	0.0133093
677.397	0.0132751
677.475	0.0136205
677.553	0.0137319
677.631	0.0138965
677.709	0.0141832
677.788	0.0144242
677.866	0.0147392
677.944	0.0148785
678.022	0.0150684
678.100	0.0153712
678.178	0.0155299
678.256	0.0159522
678.334	0.0160612
678.413	0.0160252
678.491	0.0160661
678.569	0.0163839
678.647	0.0163638
678.725	0.0164433
678.803	0.0165428
678.881	0.0166205
678.959	0.0165540
679.038	0.0164684
679.116	0.0165293
679.194	0.0165150
679.272	0.0163898
679.350	0.0163374
679.428	0.0162984
679.506	0.0162405
679.584	0.0161182
679.663	0.0157500
679.741	0.0156487
679.819	0.0156172
679.897	0.0155032
679.975	0.0151349
680.053	0.0149081
680.131	0.0148301
680.209	0.0147341
680.288	0.0146313
680.366	0.0146501
680.444	0.0145378
680.522	0.0144466
680.600	0.0144035
680.678	0.0144048
680.756	0.0144069
680.834	0.0144285
680.913	0.0145605
680.991	0.0145083
681.069	0.0145377
681.147	0.0144945
681.225	0.0146243
681.303	0.0146056
681.381	0.0145609
681.459	0.0145852
681.538	0.0148100
681.616	0.0147089
681.694	0.0146571
681.772	0.0149190
681.850	0.0149242
681.928	0.0151839
682.006	0.0151392
682.084	0.0152211
682.163	0.0153970
682.241	0.0153238
682.319	0.0154952
682.397	0.0158183
682.475	0.0157510
682.553	0.0157716
682.631	0.0158664
682.709	0.0158390
682.788	0.0156712
682.866	0.0157236
682.944	0.0155869
683.022	0.0156384
683.100	0.0154865
683.178	0.0153944
683.256	0.0152942
683.334	0.0151955
683.413	0.0151036
683.491	0.0150558
683.569	0.0150683
683.647	0.0150119
683.725	0.0148154
683.803	0.0148759
683.881	0.0147513
683.959	0.0148474
684.038	0.0148067
684.116	0.0146873
684.194	0.0145781
684.272	0.0144826
684.350	0.0144659
684.428	0.0144453
684.506	0.0144057
684.584	0.0143124
684.663	0.0143729
684.741	0.0144514
684.819	0.0145336
684.897	0.0147238
684.975	0.0148562
685.053	0.0148948
685.131	0.0151955
685.209	0.0152835
685.288	0.0154736
685.366	0.0157025
685.444	0.0158521
685.522	0.0160500
685.600	0.0161723
685.678	0.0162529
685.756	0.0163380
685.834	0.0164429
685.913	0.0164163
685.991	0.0164867
686.069	0.0163773
686.147	0.0163718
686.225	0.0163147
686.303	0.0162204
686.381	0.0161922
686.459	0.0161320
686.538	0.0158943
686.616	0.0158076
686.694	0.0158058
686.772	0.0154949
686.850	0.0153226
686.928	0.0151677
687.006	0.0150274
687.084	0.0148071
687.163	0.0146845
687.241	0.0148288
687.319	0.0146479
687.397	0.0146318
687.475	0.0144867
687.553	0.0144636
687.631	0.0143999
687.709	0.0144486
687.788	0.0144491
687.866	0.0143989
687.944	0.0143899
688.022	0.0144810
688.100	0.0145004
688.178	0.0146184
688.256	0.0146315
688.334	0.0145822
688.413	0.0147417
688.491	0.0147037
688.569	0.0147816
688.647	0.0147920
688.725	0.0148779
688.803	0.0148197
688.881	0.0149815
688.959	0.0150101
689.038	0.0148824
689.116	0.0149670
689.194	0.0149003
689.272	0.0148725
689.350	0.0149245
689.428	0.0149031
689.506	0.0148367
689.584	0.0148347
689.663	0.0149658
689.741	0.0147319
689.819	0.0147092
689.897	0.0146512
689.975	0.0146589
690.053	0.0147268
690.131	0.0145551
690.209	0.0146152
690.288	0.0145207
690.366	0.0146055
690.444	0.0146849
690.522	0.0146172
690.600	0.0145789
690.678	0.0146029
690.756	0.0144339
690.834	0.0145038
690.913	0.0145548
690.991	0.0146701
691.069	0.0148873
691.147	0.0149032
691.225	0.0147880
691.303	0.0150488
691.381	0.0151620
691.459	0.0153694
691.538	0.0154924
691.616	0.0157896
691.694	0.0158757
691.772	0.0161674
691.850	0.0162949
691.928	0.0165469
692.006	0.0165899
692.084	0.0168107
692.163	0.0169482
692.241	0.0170334
692.319	0.0170809
692.397	0.0172919
692.475	0.0171711
692.553	0.0171886
692.631	0.0172034
692.709	0.0172350
692.788	0.0171984
692.866	0.0171077
692.944	0.0170334
693.022	0.0169106
693.100	0.0167798
693.178	0.0166962
693.256	0.0164413
693.334	0.0161343
693.413	0.0160384
693.491	0.0156877
693.569	0.0153088
693.647	0.0150977
693.725	0.0147823
693.803	0.0146355
693.881	0.0143262
693.959	0.0140846
694.038	0.0137978
694.116	0.0134827
694.194	0.0131572
694.272	0.0128897
694.350	0.0126815
694.428	0.0125938
694.506	0.0124368
694.584	0.0123129
694.663	0.0122743
694.741	0.0123496
694.819	0.0121744
694.897	0.0122614
694.975	0.0122375
695.053	0.0123974
695.131	0.0124594
695.209	0.0127490
695.288	0.0128721
695.366	0.0130447
695.444	0.0132974
695.522	0.0134664
695.600	0.0137806
695.678	0.0141694
695.756	0.0144940
695.834	0.0148077
695.913	0.0149487
695.991	0.0152714
696.069	0.0156229
696.147	0.0158462
696.225	0.0160872
696.303	0.0164369
696.381	0.0164674
696.459	0.0168142
696.538	0.0168361
696.616	0.0170053
696.694	0.0170744
696.772	0.0172329
696.850	0.0172170
696.928	0.0172874
697.006	0.0173922
697.084	0.0174977
697.163	0.0175831
697.241	0.0174525
697.319	0.0175100
697.397	0.0174519
697.475	0.0173532
697.553	0.0173160
697.631	0.0171825
697.709	0.0171720
697.788	0.0169240
697.866	0.0167631
697.944	0.0166878
698.022	0.0162915
698.100	0.0159074
698.178	0.0156289
698.256	0.0154399
698.334	0.0153673
698.413	0.0148826
698.491	0.0145675
698.569	0.0141184
698.647	0.0138901
698.725	0.0138467
698.803	0.0134566
698.881	0.0132561
698.959	0.0129980
699.038	0.0130695
699.116	0.0129228
699.194	0.0126854
699.272	0.0127370
699.350	0.0127824
699.428	0.0127013
699.506	0.0126146
699.584	0.0127507
699.663	0.0127308
699.741	0.0129517
699.819	0.0129207
699.897	0.0131866
699.975	0.0133340
700.053	0.0135577
700.131	0.0137254
700.209	0.0139861
700.288	0.0142238
700.366	0.0146062
700.444	0.0147935
700.522	0.0150119
700.600	0.0153855
700.678	0.0156631
700.756	0.0157614
700.834	0.0160023
700.913	0.0161238
700.991	0.0163618
701.069	0.0163511
701.147	0.0164204
701.225	0.0162870
701.303	0.0163117
701.381	0.0163958
701.459	0.0162761
701.538	0.0163280
701.616	0.0162042
701.694	0.0161646
701.772	0.0160649
701.850	0.0159869
701.928	0.0159374
702.006	0.0158290
702.084	0.0157592
702.163	0.0156218
702.241	0.0156592
702.319	0.0155969
702.397	0.0155223
702.475	0.0153960
702.553	0.0153493
702.631	0.0155421
702.709	0.0154726
702.788	0.0155900
702.866	0.0157715
702.944	0.0158197
703.022	0.0158213
703.100	0.0161204
703.178	0.0159759
703.256	0.0159539
703.334	0.0159269
703.413	0.0159430
703.491	0.0159782
703.569	0.0159410
703.647	0.0159756
703.725	0.0158192
703.803	0.0157951
703.881	0.0156346
703.959	0.0155276
704.038	0.0153957
704.116	0.0151971
704.194	0.0151679
704.272	0.0149744
704.350	0.0148965
704.428	0.0149374
704.506	0.0146278
704.584	0.0144420
704.663	0.0142928
704.741	0.0143256
704.819	0.0143228
704.897	0.0140668
704.975	0.0140453
705.053	0.0140331
705.131	0.0140494
705.209	0.0140063
705.288	0.0140192
705.366	0.0140214
705.444	0.0142271
705.522	0.0143657
705.600	0.0143568
705.678	0.0142673
705.756	0.0145351
705.834	0.0147462
705.913	0.0147964
705.991	0.0148463
706.069	0.0149001
706.147	0.0150826
706.225	0.0150481
706.303	0.0149787
706.381	0.0152765
706.459	0.0152557
706.538	0.0153117
706.616	0.0153926
706.694	0.0154351
706.772	0.0156232
706.850	0.0155120
706.928	0.0156499
707.006	0.0157382
707.084	0.0156510
707.163	0.0157236
707.241	0.0157500
707.319	0.0158356
707.397	0.0157616
707.475	0.0157483
707.553	0.0158350
707.631	0.0158569
707.709	0.0157981
707.788	0.0157950
707.866	0.0155995
707.944	0.0156408
708.022	0.0154881
708.100	0.0153734
708.178	0.0153506
708.256	0.0152950
708.334	0.0153350
708.413	0.0152877
708.491	0.0152155
708.569	0.0151191
708.647	0.0151953
708.725	0.0150576
708.803	0.0149575
708.881	0.0147924
708.959	0.0147890
709.038	0.0146967
709.116	0.0146615
709.194	0.0147028
709.272	0.0146105
709.350	0.0145824
709.428	0.0144988
709.506	0.0143897
709.584	0.0143920
709.663	0.0145255
709.741	0.0144359
709.819	0.0144588
709.897	0.0145126
709.975	0.0144436
710.053	0.0145589
710.131	0.0143444
710.209	0.0144346
710.288	0.0146508
710.366	0.0144747
710.444	0.0144063
710.522	0.0144209
710.600	0.0145205
710.678	0.0145808
710.756	0.0147049
710.834	0.0147067
710.913	0.0147242
710.991	0.0149371
711.069	0.0149348
711.147	0.0151552
711.225	0.0151734
711.303	0.0153221
711.381	0.0154964
711.459	0.0156702
711.538	0.0161359
711.616	0.0162378
711.694	0.0162337
711.772	0.0164603
711.850	0.0164281
711.928	0.0166931
712.006	0.0167733
712.084	0.0169458
712.163	0.0169318
712.241	0.0169485
712.319	0.0169869
712.397	0.0170613
712.475	0.0168609
712.553	0.0167416
712.631	0.0168155
712.709	0.0164446
712.788	0.0162910
712.866	0.0161074
712.944	0.0157785
713.022	0.0156418
713.100	0.0155227
713.178	0.0151646
713.256	0.0149366
713.334	0.0146461
713.413	0.0146931
713.491	0.0145218
713.569	0.0143909
713.647	0.0143916
713.725	0.0141566
713.803	0.0141326
713.881	0.0140709
713.959	0.0139195
714.038	0.0141164
714.116	0.0140414
714.194	0.0141237
714.272	0.0141131
714.350	0.0141248
714.428	0.0140421
714.506	0.0141644
714.584	0.0141969
714.663	0.0141541
714.741	0.0142922
714.819	0.0143744
714.897	0.0143925
714.975	0.0144717
715.053	0.0143507
715.131	0.0145226
715.209	0.0147035
715.288	0.0147067
715.366	0.0148845
715.444	0.0149309
715.522	0.0150312
715.600	0.0150732
715.678	0.0150927
715.756	0.0152512
715.834	0.0152784
715.913	0.0152449
715.991	0.0153078
716.069	0.0154586
716.147	0.0154144
716.225	0.0154744
716.303	0.0155938
716.381	0.0156174
716.459	0.0155123
716.538	0.0156806
716.616	0.0156216
716.694	0.0155456
716.772	0.0157098
716.850	0.0157758
716.928	0.0157536
717.006	0.0158813
717.084	0.0158336
717.163	0.0158593
717.241	0.0158723
717.319	0.0158523
717.397	0.0158818
717.475	0.0157533
717.553	0.0157635
717.631	0.0157456
717.709	0.0157570
717.788	0.0158336
717.866	0.0155598
717.944	0.0155113
718.022	0.0154626
718.100	0.0156445
718.178	0.0154455
718.256	0.0156596
718.334	0.0156523
718.413	0.0155086
718.491	0.0154137
718.569	0.0154053
718.647	0.0155700
718.725	0.0156114
718.803	0.0155530
718.881	0.0154747
718.959	0.0155196
719.038	0.0154746
719.116	0.0154447
719.194	0.0154082
719.272	0.0153783
719.350	0.0153998
719.428	0.0154044
719.506	0.0150880
719.584	0.0150519
719.663	0.0149686
719.741	0.0148681
719.819	0.0146375
719.897	0.0144023
719.975	0.0143185
720.053	0.0142206
720.131	0.0139063
720.209	0.0138922
720.288	0.0137852
720.366	0.0134440
720.444	0.0133219
720.522	0.0133632
720.600	0.0132855
720.678	0.0133072
720.756	0.0132554
720.834	0.0132053
720.913	0.0133185
720.991	0.0135049
721.069	0.0137833
721.147	0.0135735
721.225	0.0138157
721.303	0.0140211
721.381	0.0142052
721.459	0.0144390
721.538	0.0146660
721.616	0.0147922
721.694	0.0147789
721.772	0.0152450
721.850	0.0156015
721.928	0.0156848
722.006	0.0158970
722.084	0.0160812
722.163	0.0162544
722.241	0.0163202
722.319	0.0164823
722.397	0.0164988
722.475	0.0166678
722.553	0.0167113
722.631	0.0167692
722.709	0.0166911
722.788	0.0167426
722.866	0.0167271
722.944	0.0167111
723.022	0.0166074
723.100	0.0164030
723.178	0.0164604
723.256	0.0165180
723.334	0.0162772
723.413	0.0163605
723.491	0.0163441
723.569	0.0162491
723.647	0.0159338
723.725	0.0157381
723.803	0.0156174
723.881	0.0155155
723.959	0.0152616
724.038	0.0151685
724.116	0.0149860
724.194	0.0146404
724.272	0.0144879
724.350	0.0141850
724.428	0.0141033
724.506	0.0139459
724.584	0.0138762
724.663	0.0139029
724.741	0.0138246
724.819	0.0137495
724.897	0.0137154
724.975	0.0136045
725.053	0.0136678
725.131	0.0136988
725.209	0.0138779
725.288	0.0139451
725.366	0.0141267
725.444	0.0141368
725.522	0.0141805
725.600	0.0145209
725.678	0.0148943
725.756	0.0149711
725.834	0.0151751
725.913	0.0154182
725.991	0.0155186
726.069	0.0156126
726.147	0.0158746
726.225	0.0161621
726.303	0.0161452
726.381	0.0163203
726.459	0.0163213
726.538	0.0163206
726.616	0.0162073
726.694	0.0161868
726.772	0.0160258
726.850	0.0160442
726.928	0.0157925
727.006	0.0154084
727.084	0.0153131
727.163	0.0153085
727.241	0.0150338
727.319	0.0148904
727.397	0.0148792
727.475	0.0148345
727.553	0.0148218
727.631	0.0146896
727.709	0.0146451
727.788	0.0149356
727.866	0.0148772
727.944	0.0148323
728.022	0.0148760
728.100	0.0150093
728.178	0.0149980
728.256	0.0150762
728.334	0.0151733
728.413	0.0152932
728.491	0.0152956
728.569	0.0152818
728.647	0.0154512
728.725	0.0155302
728.803	0.0155505
728.881	0.0155753
728.959	0.0157576
729.038	0.0157142
729.116	0.0158414
729.194	0.0156418
729.272	0.0158226
729.350	0.0157205
729.428	0.0156921
729.506	0.0156258
729.584	0.0155015
729.663	0.0154235
729.741	0.0153522
729.819	0.0153655
729.897	0.0152583
729.975	0.0151797
730.053	0.0149400
730.131	0.0149142
730.209	0.0147792
730.288	0.0148286
730.366	0.0147317
730.444	0.0146186
730.522	0.0147665
730.600	0.0146169
730.678	0.0146000
730.756	0.0147427
730.834	0.0146054
730.913	0.0147760
730.991	0.0147855
731.069	0.0149413
731.147	0.0150160
731.225	0.0152428
731.303	0.0151157
731.381	0.0151665
731.459	0.0153189
731.538	0.0154966
731.616	0.0156034
731.694	0.0155842
731.772	0.0156284
731.850	0.0156657
731.928	0.0157014
732.006	0.0156536
732.084	0.0156060
732.163	0.0158096
732.241	0.0155824
732.319	0.0156990
732.397	0.0156315
732.475	0.0155166
732.553	0.0155273
732.631	0.0154380
732.709	0.0154317
732.788	0.0152950
732.866	0.0152174
732.944	0.0150719
733.022	0.0151592
733.100	0.0151755
733.178	0.0148869
733.256	0.0149550
733.334	0.0147807
733.413	0.0148205
733.491	0.0146503
733.569	0.0146021
733.647	0.0145164
733.725	0.0145026
733.803	0.0145771
733.881	0.0144685
733.959	0.0144789
734.038	0.0144855
734.116	0.0145028
734.194	0.0145538
734.272	0.0146549
734.350	0.0147697
734.428	0.0146215
734.506	0.0147331
734.584	0.0148705
734.663	0.0149539
734.741	0.0150543
734.819	0.0150274
734.897	0.0150813
734.975	0.0151320
735.053	0.0153078
735.131	0.0153455
735.209	0.0154444
735.288	0.0153796
735.366	0.0155004
735.444	0.0156487
735.522	0.0156039
735.600	0.0155305
735.678	0.0155562
735.756	0.0156840
735.834	0.0158187
735.913	0.0157915
735.991	0.0157478
736.069	0.0157764
736.147	0.0158963
736.225	0.0156705
736.303	0.0154710
736.381	0.0154848
736.459	0.0153605
736.538	0.0154092
736.616	0.0151163
736.694	0.0150996
736.772	0.0150352
736.850	0.0149718
736.928	0.0149581
737.006	0.0150616
737.084	0.0148448
737.163	0.0148860
737.241	0.0148288
737.319	0.0148875
737.397	0.0147935
737.475	0.0146027
737.553	0.0147237
737.631	0.0146782
737.709	0.0145598
737.788	0.0145859
737.866	0.0144396
737.944	0.0145621
738.022	0.0145677
738.100	0.0144196
738.178	0.0145376
738.256	0.0145114
738.334	0.0145008
738.413	0.0145342
738.491	0.0143279
738.569	0.0144689
738.647	0.0143974
738.725	0.0144283
738.803	0.0145318
738.881	0.0145287
738.959	0.0147849
739.038	0.0147818
739.116	0.0147108
739.194	0.0148733
739.272	0.0150433
739.350	0.0149599
739.428	0.0150676
739.506	0.0151545
739.584	0.0151591
739.663	0.0151274
739.741	0.0151865
739.819	0.0152084
739.897	0.0152425
739.975	0.0154446
740.053	0.0152984
740.131	0.0151699
740.209	0.0151537
740.288	0.0152443
740.366	0.0153470
740.444	0.0155090
740.522	0.0155682
740.600	0.0155746
740.678	0.0155936
740.756	0.0156623
740.834	0.0156830
740.913	0.0157825
740.991	0.0158509
741.069	0.0158422
741.147	0.0158183
741.225	0.0160119
741.303	0.0159366
741.381	0.0159415
741.459	0.0160001
741.538	0.0159724
741.616	0.0157711
741.694	0.0159061
741.772	0.0156858
741.850	0.0157436
741.928	0.0157432
742.006	0.0155853
742.084	0.0154642
742.163	0.0153625
742.241	0.0151520
742.319	0.0150979
742.397	0.0148893
742.475	0.0148701
742.553	0.0147307
742.631	0.0146733
742.709	0.0146790
742.788	0.0142480
742.866	0.0142480
742.944	0.0141917
743.022	0.0140789
743.100	0.0141409
743.178	0.0139295
743.256	0.0138547
743.334	0.0139274
743.413	0.0139738
743.491	0.0138116
743.569	0.0139459
743.647	0.0140424
743.725	0.0138437
743.803	0.0141042
743.881	0.0141280
743.959	0.0142453
744.038	0.0145006
744.116	0.0145554
744.194	0.0147514
744.272	0.0148647
744.350	0.0151304
744.428	0.0151352
744.506	0.0153686
744.584	0.0155965
744.663	0.0157359
744.741	0.0157151
744.819	0.0160066
744.897	0.0161322
744.975	0.0161583
745.053	0.0161365
745.131	0.0161860
745.209	0.0162659
745.288	0.0162764
745.366	0.0162504
745.444	0.0161062
745.522	0.0160928
745.600	0.0160702
745.678	0.0159228
745.756	0.0159139
745.834	0.0157278
745.913	0.0157806
745.991	0.0157493
746.069	0.0155900
746.147	0.0154736
746.225	0.0155770
746.303	0.0153992
746.381	0.0152975
746.459	0.0154258
746.538	0.0155090
746.616	0.0154839
746.694	0.0155730
746.772	0.0154995
746.850	0.0156190
746.928	0.0156168
747.006	0.0154680
747.084	0.0157272
747.163	0.0155338
747.241	0.0155296
747.319	0.0156400
747.397	0.0155014
747.475	0.0154421
747.553	0.0154565
747.631	0.0156339
747.709	0.0154637
747.788	0.0155191
747.866	0.0155970
747.944	0.0154323
748.022	0.0155441
748.100	0.0154137
748.178	0.0152444
748.256	0.0152601
748.334	0.0151769
748.413	0.0151421
748.491	0.0149621
748.569	0.0148571
748.647	0.0147346
748.725	0.0145903
748.803	0.0144006
748.881	0.0144902
748.959	0.0144213
749.038	0.0143764
749.116	0.0142767
749.194	0.0142486
749.272	0.0142686
749.350	0.0142358
749.428	0.0143447
749.506	0.0142226
749.584	0.0142353
749.663	0.0142126
749.741	0.0142110
749.819	0.0142979
749.897	0.0144923
749.975	0.0143233
750.053	0.0143112
750.131	0.0144450
750.209	0.0144380
750.288	0.0143841
750.366	0.0144469
750.444	0.0145442
750.522	0.0146627
750.600	0.0145666
750.678	0.0148263
750.756	0.0149812
750.834	0.0148557
750.913	0.0151853
750.991	0.0152392
751.069	0.0153240
751.147	0.0153733
751.225	0.0156792
751.303	0.0157135
751.381	0.0158255
751.459	0.0158315
751.538	0.0158810
751.616	0.0158244
751.694	0.0158652
751.772	0.0158663
751.850	0.0160324
751.928	0.0158300
752.006	0.0159791
752.084	0.0158415
752.163	0.0157844
752.241	0.0156854
752.319	0.0155525
752.397	0.0154556
752.475	0.0153658
752.553	0.0151369
752.631	0.0150595
752.709	0.0147890
752.788	0.0148264
752.866	0.0146665
752.944	0.0146188
753.022	0.0146615
753.100	0.0144574
753.178	0.0144427
753.256	0.0145797
753.334	0.0145715
753.413	0.0145244
753.491	0.0144855
753.569	0.0144566
753.647	0.0146310
753.725	0.0147308
753.803	0.0147814
753.881	0.0147777
753.959	0.0150104
754.038	0.0150150
754.116	0.0152425
754.194	0.0151791
754.272	0.0152898
754.350	0.0154417
754.428	0.0156230
754.506	0.0157443
754.584	0.0156627
754.663	0.0158608
754.741	0.0158020
754.819	0.0158136
754.897	0.0158272
754.975	0.0157232
755.053	0.0156705
755.131	0.0157223
755.209	0.0155608
755.288	0.0155143
755.366	0.0155627
755.444	0.0153234
755.522	0.0153297
755.600	0.0153323
755.678	0.0152259
755.756	0.0151923
755.834	0.0151170
755.913	0.0150207
755.991	0.0149042
756.069	0.0148557
756.147	0.0150150
756.225	0.0148913
756.303	0.0146926
756.381	0.0147463
756.459	0.0146931
756.538	0.0146922
756.616	0.0147727
756.694	0.0146345
756.772	0.0145747
756.850	0.0146754
756.928	0.0147607
757.006	0.0148857
757.084	0.0147647
757.163	0.0149029
757.241	0.0150340
757.319	0.0150281
757.397	0.0149980
757.475	0.0150955
757.553	0.0150616
757.631	0.0151729
757.709	0.0150615
757.788	0.0153102
757.866	0.0152637
757.944	0.0154310
758.022	0.0151289
758.100	0.0151576
758.178	0.0150977
758.256	0.0151714
758.334	0.0150383
758.413	0.0148738
758.491	0.0149293
758.569	0.0148150
758.647	0.0146973
758.725	0.0148032
758.803	0.0146233
758.881	0.0146170
758.959	0.0148084
759.038	0.0147816
759.116	0.0149776
759.194	0.0148755
759.272	0.0148074
759.350	0.0147073
759.428	0.0147395
759.506	0.0148069
759.584	0.0148509
759.663	0.0149443
759.741	0.0149180
759.819	0.0150327
759.897	0.0150432
759.975	0.0150787
760.053	0.0150156
760.131	0.0149349
760.209	0.0150786
760.288	0.0148795
760.366	0.0150739
760.444	0.0151970
760.522	0.0152029
760.600	0.0151627
760.678	0.0150070
760.756	0.0151221
760.834	0.0150871
760.913	0.0151190
760.991	0.0151321
761.069	0.0150263
761.147	0.0150122
761.225	0.0149436
761.303	0.0150653
761.381	0.0149355
761.459	0.0149613
761.538	0.0149195
761.616	0.0149549
761.694	0.0149902
761.772	0.0148426
761.850	0.0149150
761.928	0.0149844
762.006	0.0150723
762.084	0.0150263
762.163	0.0148184
762.241	0.0150580
762.319	0.0150092
762.397	0.0150027
762.475	0.0151072
762.553	0.0151810
762.631	0.0151309
762.709	0.0150388
762.788	0.0151442
762.866	0.0152199
762.944	0.0152369
763.022	0.0154508
763.100	0.0153661
763.178	0.0156284
763.256	0.0155761
763.334	0.0155472
763.413	0.0155056
763.491	0.0156011
763.569	0.0156129
763.647	0.0156311
763.725	0.0155580
763.803	0.0153472
763.881	0.0153124
763.959	0.0152375
764.038	0.0151756
764.116	0.0150059
764.194	0.0150751
764.272	0.0148940
764.350	0.0147998
764.428	0.0145971
764.506	0.0144868
764.584	0.0146307
764.663	0.0145104
764.741	0.0143632
764.819	0.0144112
764.897	0.0145976
764.975	0.0143458
765.053	0.0142935
765.131	0.0142902
765.209	0.0144226
765.288	0.0145515
765.366	0.0143714
765.444	0.0145744
765.522	0.0144823
765.600	0.0144987
765.678	0.0145760
765.756	0.0147310
765.834	0.0147493
765.913	0.0147273
765.991	0.0148627
766.069	0.0148538
766.147	0.0150838
766.225	0.0151713
766.303	0.0151113
766.381	0.0151321
766.459	0.0152924
766.538	0.0152251
766.616	0.0154861
766.694	0.0156651
766.772	0.0155679
766.850	0.0157243
766.928	0.0156973
767.006	0.0157376
767.084	0.0159588
767.163	0.0158566
767.241	0.0159108
767.319	0.0157933
767.397	0.0158250
767.475	0.0160084
767.553	0.0157244
767.631	0.0157875
767.709	0.0158104
767.788	0.0157706
767.866	0.0155942
767.944	0.0155445
768.022	0.0156652
768.100	0.0154607
768.178	0.0153004
768.256	0.0153349
768.334	0.0152789
768.413	0.0152559
768.491	0.0151132
768.569	0.0150465
768.647	0.0147722
768.725	0.0147955
768.803	0.0146463
768.881	0.0147291
768.959	0.0145779
769.038	0.0146089
769.116	0.0146481
769.194	0.0146333
769.272	0.0143257
769.350	0.0144336
769.428	0.0143227
769.506	0.0145079
769.584	0.0146298
769.663	0.0145360
769.741	0.0144139
769.819	0.0144905
769.897	0.0145704
769.975	0.0147003
770.053	0.0147825
770.131	0.0147392
770.209	0.0149020
770.288	0.0148148
770.366	0.0150478
770.444	0.0152216
770.522	0.0153058
770.600	0.0154199
770.678	0.0154141
770.756	0.0156801
770.834	0.0155525
770.913	0.0158367
770.991	0.0159193
771.069	0.0160168
771.147	0.0160484
771.225	0.0160583
771.303	0.0160897
771.381	0.0162572
771.459	0.0161730
771.538	0.0160353
771.616	0.0161095
771.694	0.0160743
771.772	0.0159731
771.850	0.0159306
771.928	0.0158575
772.006	0.0156896
772.084	0.0156339
772.163	0.0155643
772.241	0.0155109
772.319	0.0153963
772.397	0.0151700
772.475	0.0150581
772.553	0.0149117
772.631	0.0149806
772.709	0.0149073
772.788	0.0148094
772.866	0.0148437
772.944	0.0149281
773.022	0.0146995
773.100	0.0147343
773.178	0.0146349
773.256	0.0146185
773.334	0.0146899
773.413	0.0146878
773.491	0.0144906
773.569	0.0144059
773.647	0.0145127
773.725	0.0145230
773.803	0.0144457
773.881	0.0144245
773.959	0.0142979
774.038	0.0143053
774.116	0.0142892
774.194	0.0143676
774.272	0.0142070
774.350	0.0143039
774.428	0.0143829
774.506	0.0145665
774.584	0.0144406
774.663	0.0145135
774.741	0.0147206
774.819	0.0148254
774.897	0.0148753
774.975	0.0151841
775.053	0.0153207
775.131	0.0151982
775.209	0.0154594
775.288	0.0153804
775.366	0.0155235
775.444	0.0156679
775.522	0.0156815
775.600	0.0157020
775.678	0.0158758
775.756	0.0157375
775.834	0.0157870
775.913	0.0157479
775.991	0.0157485
776.069	0.0157887
776.147	0.0156922
776.225	0.0156975
776.303	0.0156369
776.381	0.0154197
776.459	0.0155750
776.538	0.0155081
776.616	0.0153590
776.694	0.0153585
776.772	0.0152399
776.850	0.0152170
776.928	0.0151171
777.006	0.0151895
777.084	0.0151819
777.163	0.0151855
777.241	0.0151767
777.319	0.0150573
777.397	0.0151958
777.475	0.0151513
777.553	0.0153493
777.631	0.0150502
777.709	0.0152000
777.788	0.0153057
777.866	0.0152889
777.944	0.0151413
778.022	0.0152768
778.100	0.0151286
778.178	0.0150757
778.256	0.0152059
778.334	0.0151689
778.413	0.0151615
778.491	0.0151043
778.569	0.0151529
778.647	0.0149974
778.725	0.0151521
778.803	0.0151746
778.881	0.0150659
778.959	0.0149879
779.038	0.0151780
779.116	0.0150692
779.194	0.0151190
779.272	0.0150826
779.350	0.0149766
779.428	0.0150202
779.506	0.0149416
779.584	0.0149894
779.663	0.0148925
779.741	0.0148590
779.819	0.0148216
779.897	0.0147334
779.975	0.0147852
780.053	0.0148241
780.131	0.0146705
780.209	0.0149024
780.288	0.0147894
780.366	0.0146444
780.444	0.0145882
780.522	0.0147758
780.600	0.0146933
780.678	0.0147828
780.756	0.0146520
780.834	0.0147356
780.913	0.0147570
780.991	0.0147614
781.069	0.0147224
781.147	0.0147587
781.225	0.0147665
781.303	0.0148099
781.381	0.0148452
781.459	0.0149097
781.538	0.0150690
781.616	0.0150202
781.694	0.0151328
781.772	0.0152772
781.850	0.0152676
781.928	0.0152598
782.006	0.0153474
782.084	0.0154909
782.163	0.0155009
782.241	0.0156077
782.319	0.0156268
782.397	0.0155318
782.475	0.0156731
782.553	0.0156411
782.631	0.0157229
782.709	0.0157938
782.788	0.0156723
782.866	0.0157512
782.944	0.0156753
783.022	0.0157835
783.100	0.0156224
783.178	0.0154012
783.256	0.0156087
783.334	0.0154973
783.413	0.0155724
783.491	0.0154165
783.569	0.0152261
783.647	0.0151427
783.725	0.0151642
783.803	0.0151012
783.881	0.0149915
783.959	0.0147759
784.038	0.0149313
784.116	0.0147370
784.194	0.0147353
784.272	0.0145570
784.350	0.0145541
784.428	0.0146584
784.506	0.0147324
784.584	0.0147226
784.663	0.0148037
784.741	0.0147873
784.819	0.0147129
784.897	0.0148850
784.975	0.0149760
785.053	0.0150851
785.131	0.0149186
785.209	0.0149250
785.288	0.0151309
785.366	0.0152357
785.444	0.0151643
785.522	0.0151548
785.600	0.0151546
785.678	0.0152770
785.756	0.0152964
785.834	0.0151927
785.913	0.0152422
785.991	0.0153105
786.069	0.0151817
786.147	0.0152328
786.225	0.0153615
786.303	0.0152418
786.381	0.0152612
786.459	0.0152443
786.538	0.0149715
786.616	0.0152377
786.694	0.0152052
786.772	0.0151926
786.850	0.0150751
786.928	0.0150110
787.006	0.0150440
787.084	0.0151554
787.163	0.0149639
787.241	0.0149579
787.319	0.0150446
787.397	0.0151042
787.475	0.0152243
787.553	0.0152259
787.631	0.0152278
787.709	0.0151591
787.788	0.0152442
787.866	0.0154169
787.944	0.0153284
788.022	0.0154044
788.100	0.0154436
788.178	0.0155597
788.256	0.0155213
788.334	0.0154126
788.413	0.0154549
788.491	0.0153642
788.569	0.0154151
788.647	0.0152901
788.725	0.0152202
788.803	0.0152060
788.881	0.0151417
788.959	0.0151447
789.038	0.0151032
789.116	0.0152047
789.194	0.0150472
789.272	0.0151186
789.350	0.0151144
789.428	0.0150652
789.506	0.0150433
789.584	0.0149950
789.663	0.0149030
789.741	0.0149810
789.819	0.0149275
789.897	0.0148978
789.975	0.0148746
790.053	0.0150336
790.131	0.0148233
790.209	0.0149081
790.288	0.0150610
790.366	0.0149920
790.444	0.0149906
790.522	0.0149276
790.600	0.0148669
790.678	0.0151241
790.756	0.0149906
790.834	0.0149049
790.913	0.0151212
790.991	0.0149878
791.069	0.0151035
791.147	0.0150701
791.225	0.0150133
791.303	0.0149372
791.381	0.0149654
791.459	0.0149086
791.538	0.0148789
791.616	0.0147926
791.694	0.0147960
791.772	0.0148615
791.850	0.0147753
791.928	0.0147974
792.006	0.0147124
792.084	0.0147591
792.163	0.0147261
792.241	0.0147951
792.319	0.0148342
792.397	0.0147957
792.475	0.0146999
792.553	0.0148515
792.631	0.0149143
792.709	0.0148893
792.788	0.0150051
792.866	0.0150632
792.944	0.0152200
793.022	0.0151988
793.100	0.0151842
793.178	0.0152989
793.256	0.0153274
793.334	0.0153908
793.413	0.0154517
793.491	0.0155479
793.569	0.0154659
793.647	0.0154909
793.725	0.0156090
793.803	0.0157629
793.881	0.0155544
793.959	0.0157478
794.038	0.0156245
794.116	0.0156716
794.194	0.0156059
794.272	0.0156432
794.350	0.0155035
794.428	0.0154330
794.506	0.0155271
794.584	0.0155547
794.663	0.0154790
794.741	0.0152881
794.819	0.0152632
794.897	0.0153098
794.975	0.0152768
795.053	0.0152974
795.131	0.0153086
795.209	0.0151990
795.288	0.0151763
795.366	0.0151724
795.444	0.0151545
795.522	0.0150936
795.600	0.0150703
795.678	0.0151418
795.756	0.0149600
795.834	0.0149265
795.913	0.0149673
795.991	0.0148901
796.069	0.0147938
796.147	0.0148293
796.225	0.0149023
796.303	0.0148248
796.381	0.0148856
796.459	0.0148962
796.538	0.0148392
796.616	0.0148051
796.694	0.0147967
796.772	0.0150053
796.850	0.0150787
796.928	0.0149464
797.006	0.0150203
797.084	0.0151026
797.163	0.0152876
797.241	0.0152456
797.319	0.0153476
797.397	0.0152380
797.475	0.0152631
797.553	0.0153319
797.631	0.0153873
797.709	0.0154247
797.788	0.0154934
797.866	0.0153095
797.944	0.0154442
798.022	0.0154901
798.100	0.0155040
798.178	0.0153975
798.256	0.0154075
798.334	0.0153121
798.413	0.0155090
798.491	0.0153338
798.569	0.0153201
798.647	0.0153288
798.725	0.0151804
798.803	0.0153664
798.881	0.0151682
798.959	0.0150552
799.038	0.0151814
799.116	0.0152426
799.194	0.0151169
799.272	0.0152568
799.350	0.0152608
799.428	0.0152607
799.506	0.0151348
799.584	0.0151341
799.663	0.0153394
799.741	0.0152430
799.819	0.0152950
799.897	0.0152514
799.975	0.0153168
800.053	0.0152412
800.131	0.0154677
800.209	0.0154773
800.288	0.0153868
800.366	0.0153279
800.444	0.0153360
800.522	0.0152305
800.600	0.0152111
800.678	0.0154301
800.756	0.0153798
800.834	0.0152008
800.913	0.0153029
800.991	0.0151398
801.069	0.0151694
801.147	0.0151607
801.225	0.0151382
801.303	0.0151435
801.381	0.0149580
801.459	0.0150848
801.538	0.0150682
801.616	0.0151062
801.694	0.0151041
801.772	0.0148844
801.850	0.0148628
801.928	0.0149110
802.006	0.0149995
802.084	0.0150636
802.163	0.0150539
802.241	0.0151745
802.319	0.0151554
802.397	0.0151864
802.475	0.0152427
802.553	0.0152193
802.631	0.0151472
802.709	0.0152445
802.788	0.0152225
802.866	0.0152627
802.944	0.0151865
803.022	0.0153707
803.100	0.0153125
803.178	0.0152053
803.256	0.0152716
803.334	0.0152185
803.413	0.0150907
803.491	0.0152924
803.569	0.0152929
803.647	0.0151398
803.725	0.0151713
803.803	0.0149922
803.881	0.0150648
803.959	0.0149509
804.038	0.0151231
804.116	0.0152220
804.194	0.0150227
804.272	0.0150525
804.350	0.0150559
804.428	0.0149852
804.506	0.0149055
804.584	0.0149419
804.663	0.0151015
804.741	0.0150269
804.819	0.0151218
804.897	0.0151127
804.975	0.0150462
805.053	0.0152364
805.131	0.0150346
805.209	0.0151559
805.288	0.0151714
805.366	0.0153024
805.444	0.0152284
805.522	0.0152231
805.600	0.0152984
805.678	0.0153974
805.756	0.0153621
805.834	0.0154340
805.913	0.0153555
805.991	0.0154932
806.069	0.0155375
806.147	0.0153495
806.225	0.0155939
806.303	0.0154991
806.381	0.0155758
806.459	0.0154947
806.538	0.0155381
806.616	0.0153786
806.694	0.0155167
806.772	0.0154783
806.850	0.0152667
806.928	0.0153033
807.006	0.0152232
807.084	0.0152991
807.163	0.0151660
807.241	0.0150333
807.319	0.0150579
807.397	0.0152436
807.475	0.0150878
807.553	0.0150799
807.631	0.0149886
807.709	0.0151863
807.788	0.0151755
807.866	0.0151146
807.944	0.0149258
808.022	0.0150998
808.100	0.0153103
808.178	0.0152355
808.256	0.0153584
808.334	0.0152742
808.413	0.0154324
808.491	0.0154073
808.569	0.0154997
808.647	0.0156885
808.725	0.0155916
808.803	0.0155090
808.881	0.0155215
808.959	0.0157005
809.038	0.0157179
809.116	0.0157275
809.194	0.0156238
809.272	0.0156243
809.350	0.0156021
809.428	0.0156027
809.506	0.0155093
809.584	0.0153588
809.663	0.0153862
809.741	0.0154115
809.819	0.0151637
809.897	0.0151089
809.975	0.0152096
810.053	0.0150816
810.131	0.0149709
810.209	0.0150912
810.288	0.0149272
810.366	0.0151009
810.444	0.0150479
810.522	0.0148586
810.600	0.0148550
810.678	0.0147293
810.756	0.0149581
810.834	0.0148238
810.913	0.0148876
810.991	0.0149136
811.069	0.0147930
811.147	0.0149173
811.225	0.0147750
811.303	0.0149046
811.381	0.0148723
811.459	0.0148237
811.538	0.0148965
811.616	0.0149110
811.694	0.0150047
811.772	0.0148736
811.850	0.0148123
811.928	0.0147849
812.006	0.0149591
812.084	0.0150364
812.163	0.0149809
812.241	0.0150828
812.319	0.0151028
812.397	0.0149643
812.475	0.0149013
812.553	0.0149546
812.631	0.0149302
812.709	0.0151062
812.788	0.0150078
812.866	0.0151130
812.944	0.0152345
813.022	0.0151695
813.100	0.0152643
813.178	0.0151009
813.256	0.0148751
813.334	0.0151463
813.413	0.0152507
813.491	0.0151071
813.569	0.0151318
813.647	0.0151704
813.725	0.0150929
813.803	0.0152381
813.881	0.0152559
813.959	0.0152065
814.038	0.0151245
814.116	0.0152042
814.194	0.0151364
814.272	0.0151213
814.350	0.0150714
814.428	0.0152384
814.506	0.0152180
814.584	0.0151456
814.663	0.0152607
814.741	0.0152218
814.819	0.0153237
814.897	0.0153373
814.975	0.0153246
815.053	0.0152487
815.131	0.0153327
815.209	0.0152200
815.288	0.0153726
815.366	0.0153067
815.444	0.0154318
815.522	0.0154024
815.600	0.0153196
815.678	0.0152402
815.756	0.0152187
815.834	0.0151733
815.913	0.0152658
815.991	0.0151438
816.069	0.0150549
816.147	0.0150848
816.225	0.0151145
816.303	0.0148176
816.381	0.0149495
816.459	0.0148064
816.538	0.0148890
816.616	0.0148766
816.694	0.0147973
816.772	0.0148287
816.850	0.0149411
816.928	0.0147794
817.006	0.0148751
817.084	0.0147502
817.163	0.0147750
817.241	0.0149228
817.319	0.0150653
817.397	0.0148712
817.475	0.0149690
817.553	0.0150870
817.631	0.0151028
817.709	0.0150076
817.788	0.0152460
817.866	0.0152148
817.944	0.0151955
818.022	0.0152529
818.100	0.0152811
818.178	0.0151790
818.256	0.0151699
818.334	0.0151850
818.413	0.0152865
818.491	0.0153069
818.569	0.0153375
818.647	0.0151945
818.725	0.0153578
818.803	0.0153979
818.881	0.0154128
818.959	0.0153353
819.038	0.0152576
819.116	0.0153612
819.194	0.0152673
819.272	0.0155370
819.350	0.0153697
819.428	0.0152611
819.506	0.0154308
819.584	0.0152964
819.663	0.0153399
819.741	0.0152673
819.819	0.0152039
819.897	0.0151515
819.975	0.0153001
820.053	0.0152306
820.131	0.0150594
820.209	0.0150986
820.288	0.0151591
820.366	0.0151795
820.444	0.0150420
820.522	0.0150632
820.600	0.0150063
820.678	0.0150500
820.756	0.0150475
820.834	0.0150465
820.913	0.0150744
820.991	0.0148846
821.069	0.0148866
821.147	0.0149617
821.225	0.0150049
821.303	0.0147358
821.381	0.0146944
821.459	0.0147255
821.538	0.0148815
821.616	0.0149525
821.694	0.0148804
821.772	0.0148055
821.850	0.0148562
821.928	0.0147971
822.006	0.0148228
822.084	0.0148646
822.163	0.0148106
822.241	0.0148415
822.319	0.0147570
822.397	0.0149039
822.475	0.0149062
822.553	0.0149336
822.631	0.0148409
822.709	0.0147918
822.788	0.0148313
822.866	0.0149880
822.944	0.0148660
823.022	0.0150817
823.100	0.0148682
823.178	0.0148530
823.256	0.0148743
823.334	0.0150082
823.413	0.0148811
823.491	0.0148525
823.569	0.0149109
823.647	0.0149284
823.725	0.0150806
823.803	0.0150901
823.881	0.0149937
823.959	0.0150759
824.038	0.0149651
824.116	0.0149979
824.194	0.0152409
824.272	0.0153178
824.350	0.0151033
824.428	0.0152361
824.506	0.0152557
824.584	0.0154176
824.663	0.0153815
824.741	0.0153496
824.819	0.0153522
824.897	0.0154565
824.975	0.0153496
825.053	0.0154253
825.131	0.0153223
825.209	0.0154194
825.288	0.0152757
825.366	0.0153500
825.444	0.0154496
825.522	0.0154200
825.600	0.0155030
825.678	0.0154185
825.756	0.0153591
825.834	0.0153758
825.913	0.0153150
825.991	0.0153491
826.069	0.0153804
826.147	0.0153365
826.225	0.0152837
826.303	0.0153638
826.381	0.0152843
826.459	0.0152866
826.538	0.0152911
826.616	0.0152746
826.694	0.0154330
826.772	0.0153316
826.850	0.0153746
826.928	0.0154100
827.006	0.0154126
827.084	0.0153749
827.163	0.0153043
827.241	0.0153307
827.319	0.0153280
827.397	0.0154441
827.475	0.0153418
827.553	0.0151805
827.631	0.0153064
827.709	0.0151677
827.788	0.0152992
827.866	0.0152799
827.944	0.0153259
828.022	0.0152503
828.100	0.0152145
828.178	0.0153270
828.256	0.0152141
828.334	0.0151552
828.413	0.0153564
828.491	0.0151242
828.569	0.0152159
828.647	0.0153575
828.725	0.0151344
828.803	0.0152980
828.881	0.0154238
828.959	0.0152410
829.038	0.0152499
829.116	0.0153216
829.194	0.0154192
829.272	0.0152701
829.350	0.0154053
829.428	0.0155177
829.506	0.0152707
829.584	0.0152888
829.663	0.0152613
829.741	0.0153586
829.819	0.0152116
829.897	0.0152564
829.975	0.0153239
830.053	0.0151669
830.131	0.0152265
830.209	0.0152951
830.288	0.0152570
830.366	0.0153408
830.444	0.0151614
830.522	0.0151128
830.600	0.0150796
830.678	0.0151116
830.756	0.0150785
830.834	0.0151441
830.913	0.0152200
830.991	0.0150388
831.069	0.0149503
831.147	0.0150167
831.225	0.0150092
831.303	0.0150389
831.381	0.0149667
831.459	0.0150008
831.538	0.0150226
831.616	0.0149617
831.694	0.0150375
831.772	0.0149193
831.850	0.0149203
831.928	0.0148811
832.006	0.0149624
832.084	0.0148759
832.163	0.0150193
832.241	0.0149900
832.319	0.0148558
832.397	0.0148437
832.475	0.0150027
832.553	0.0150376
832.631	0.0150791
832.709	0.0148846
832.788	0.0150420
832.866	0.0150929
832.944	0.0151008
833.022	0.0150415
833.100	0.0150384
833.178	0.0150282
833.256	0.0150092
833.334	0.0152841
833.413	0.0152407
833.491	0.0150660
833.569	0.0151607
833.647	0.0151967
833.725	0.0151719
833.803	0.0150591
833.881	0.0151820
833.959	0.0149659
834.038	0.0150211
834.116	0.0150891
834.194	0.0151279
834.272	0.0149768
834.350	0.0150758
834.428	0.0150521
834.506	0.0150100
834.584	0.0149774
834.663	0.0149957
834.741	0.0150842
834.819	0.0150713
834.897	0.0150307
834.975	0.0150204
835.053	0.0151324
835.131	0.0152313
835.209	0.0150283
835.288	0.0152079
835.366	0.0150416
835.444	0.0150648
835.522	0.0152225
835.600	0.0151762
835.678	0.0151393
835.756	0.0151125
835.834	0.0150471
835.913	0.0149627
835.991	0.0150211
836.069	0.0150243
836.147	0.0151227
836.225	0.0149239
836.303	0.0150246
836.381	0.0150822
836.459	0.0150056
836.538	0.0152096
836.616	0.0151038
836.694	0.0152288
836.772	0.0149994
836.850	0.0150657
836.928	0.0150452
837.006	0.0150352
837.084	0.0150566
837.163	0.0151267
837.241	0.0151202
837.319	0.0149042
837.397	0.0149082
837.475	0.0151154
837.553	0.0150433
837.631	0.0148984
837.709	0.0150050
837.788	0.0150628
837.866	0.0150266
837.944	0.0148275
838.022	0.0150293
838.100	0.0150206
838.178	0.0148048
838.256	0.0150164
838.334	0.0150761
838.413	0.0148851
838.491	0.0150047
838.569	0.0151182
838.647	0.0151024
838.725	0.0151132
838.803	0.0150794
838.881	0.0150722
838.959	0.0151250
839.038	0.0150725
839.116	0.0149960
839.194	0.0150218
839.272	0.0151206
839.350	0.0150047
839.428	0.0148621
839.506	0.0150654
839.584	0.0150929
839.663	0.0150623
839.741	0.0149718
839.819	0.0149592
839.897	0.0150323
839.975	0.0149748
840.053	0.0149046
840.131	0.0148740
840.209	0.0149823
840.288	0.0149208
840.366	0.0147774
840.444	0.0148936
840.522	0.0148452
840.600	0.0148529
840.678	0.0150883
840.756	0.0149694
840.834	0.0150059
840.913	0.0151128
840.991	0.0151189
841.069	0.0150882
841.147	0.0151062
841.225	0.0152298
841.303	0.0153091
841.381	0.0152822
841.459	0.0151743
841.538	0.0152551
841.616	0.0153420
841.694	0.0152752
841.772	0.0151793
841.850	0.0152625
841.928	0.0153548
842.006	0.0152328
842.084	0.0152844
842.163	0.0153553
842.241	0.0151977
842.319	0.0150555
842.397	0.0152598
842.475	0.0154106
842.553	0.0153721
842.631	0.0152003
842.709	0.0153389
842.788	0.0153608
842.866	0.0152168
842.944	0.0152863
843.022	0.0152689
843.100	0.0152717
843.178	0.0153070
843.256	0.0152534
843.334	0.0152261
843.413	0.0153027
843.491	0.0152829
843.569	0.0152489
843.647	0.0151736
843.725	0.0151068
843.803	0.0152236
843.881	0.0152068
843.959	0.0152875
844.038	0.0152370
844.116	0.0152087
844.194	0.0150005
844.272	0.0151176
844.350	0.0152122
844.428	0.0150288
844.506	0.0151030
844.584	0.0151027
844.663	0.0150822
844.741	0.0152187
844.819	0.0150884
844.897	0.0149944
844.975	0.0149891
845.053	0.0150027
845.131	0.0151717
845.209	0.0150374
845.288	0.0149595
845.366	0.0151232
845.444	0.0151167
845.522	0.0150556
845.600	0.0151484
845.678	0.0151564
845.756	0.0150383
845.834	0.0151210
845.913	0.0149840
845.991	0.0150293
846.069	0.0150094
846.147	0.0150847
846.225	0.0148876
846.303	0.0149772
846.381	0.0150317
846.459	0.0148686
846.538	0.0151003
846.616	0.0150436
846.694	0.0148713
846.772	0.0148878
846.850	0.0149001
846.928	0.0149840
847.006	0.0149868
847.084	0.0149950
847.163	0.0151158
847.241	0.0151404
847.319	0.0149100
847.397	0.0151789
847.475	0.0150614
847.553	0.0151425
847.631	0.0153015
847.709	0.0151788
847.788	0.0151229
847.866	0.0154046
847.944	0.0152464
848.022	0.0150828
848.100	0.0151343
848.178	0.0152858
848.256	0.0151871
848.334	0.0151651
848.413	0.0152126
848.491	0.0152773
848.569	0.0152207
848.647	0.0151313
848.725	0.0151283
848.803	0.0151285
848.881	0.0151360
848.959	0.0152436
849.038	0.0151559
849.116	0.0149429
849.194	0.0151717
849.272	0.0150468
849.350	0.0150836
849.428	0.0150047
849.506	0.0149700
849.584	0.0150523
849.663	0.0150366
849.741	0.0151408
849.819	0.0152748
849.897	0.0151546
849.975	0.0151273
850.053	0.0150259
850.131	0.0150576
850.209	0.0150848
850.288	0.0152722
850.366	0.0150046
850.444	0.0150874
850.522	0.0151630
850.600	0.0151907
850.678	0.0150771
850.756	0.0151028
850.834	0.0151162
850.913	0.0151440
850.991	0.0150019
851.069	0.0150782
851.147	0.0150948
851.225	0.0152078
851.303	0.0151849
851.381	0.0151422
851.459	0.0151601
851.538	0.0152028
851.616	0.0152685
851.694	0.0150257
851.772	0.0153393
851.850	0.0152281
851.928	0.0152743
852.006	0.0152454
852.084	0.0152239
852.163	0.0152689
852.241	0.0152189
852.319	0.0151408
852.397	0.0151967
852.475	0.0153134
852.553	0.0154116
852.631	0.0153600
852.709	0.0153060
852.788	0.0152815
852.866	0.0153499
852.944	0.0152545
853.022	0.0153235
853.100	0.0152118
853.178	0.0151763
853.256	0.0152302
853.334	0.0153063
853.413	0.0152439
853.491	0.0151181
853.569	0.0151031
853.647	0.0151923
853.725	0.0150800
853.803	0.0151447
853.881	0.0151463
853.959	0.0151077
854.038	0.0152020
854.116	0.0152159
854.194	0.0150919
854.272	0.0151470
854.350	0.0150928
854.428	0.0151395
854.506	0.0151328
854.584	0.0151134
854.663	0.0152063
854.741	0.0151461
854.819	0.0151208
854.897	0.0151709
854.975	0.0151571
855.053	0.0151021
855.131	0.0151383
855.209	0.0151764
855.288	0.0151080
855.366	0.0150634
855.444	0.0151558
855.522	0.0151418
855.600	0.0151520
855.678	0.0151580
855.756	0.0152046
855.834	0.0151225
855.913	0.0150019
855.991	0.0152643
856.069	0.0151197
856.147	0.0150600
856.225	0.0150843
856.303	0.0151734
856.381	0.0151055
856.459	0.0148313
856.538	0.0151905
856.616	0.0150765
856.694	0.0150043
856.772	0.0150407
856.850	0.0150020
856.928	0.0151348
857.006	0.0149769
857.084	0.0150262
857.163	0.0151082
857.241	0.0150066
857.319	0.0150252
857.397	0.0150307
857.475	0.0150783
857.553	0.0150392
857.631	0.0150796
857.709	0.0150063
857.788	0.0149967
857.866	0.0148730
857.944	0.0150671
858.022	0.0151051
858.100	0.0149790
858.178	0.0150790
858.256	0.0150001
858.334	0.0151919
858.413	0.0150494
858.491	0.0150683
858.569	0.0149461
858.647	0.0150486
858.725	0.0150850
858.803	0.0150875
858.881	0.0149578
858.959	0.0151019
859.038	0.0150623
859.116	0.0151448
859.194	0.0151862
859.272	0.0150636
859.350	0.0150889
859.428	0.0151894
859.506	0.0152372
859.584	0.0150330
859.663	0.0151686
859.741	0.0150805
859.819	0.0150729
859.897	0.0149804
859.975	0.0150903
860.053	0.0151910
860.131	0.0150724
860.209	0.0150883
860.288	0.0151508
860.366	0.0149675
860.444	0.0151042
860.522	0.0150206
860.600	0.0150005
860.678	0.0149339
860.756	0.0151621
860.834	0.0151810
860.913	0.0151036
860.991	0.0150130
861.069	0.0151124
861.147	0.0151019
861.225	0.0150883
861.303	0.0151477
861.381	0.0152020
861.459	0.0151305
861.538	0.0152057
861.616	0.0151735
861.694	0.0152104
861.772	0.0150126
861.850	0.0151769
861.928	0.0152159
862.006	0.0150311
862.084	0.0152193
862.163	0.0151064
862.241	0.0151262
862.319	0.0151088
862.397	0.0150103
862.475	0.0150296
862.553	0.0150034
862.631	0.0150514
862.709	0.0150904
862.788	0.0151060
862.866	0.0151010
862.944	0.0150532
863.022	0.0151622
863.100	0.0150313
863.178	0.0151137
863.256	0.0151157
863.334	0.0150118
863.413	0.0150558
863.491	0.0151258
863.569	0.0152214
863.647	0.0150304
863.725	0.0151665
863.803	0.0152338
863.881	0.0152850
863.959	0.0152961
864.038	0.0152430
864.116	0.0151949
864.194	0.0151126
864.272	0.0151842
864.350	0.0153003
864.428	0.0152653
864.506	0.0152206
864.584	0.0152502
864.663	0.0151952
864.741	0.0150949
864.819	0.0152396
864.897	0.0151228
864.975	0.0150755
865.053	0.0149475
865.131	0.0151556
865.209	0.0150945
865.288	0.0149160
865.366	0.0150396
865.444	0.0151170
865.522	0.0149517
865.600	0.0149203
865.678	0.0149311
865.756	0.0149146
865.834	0.0148554
865.913	0.0149460
865.991	0.0149741
866.069	0.0150132
866.147	0.0148857
866.225	0.0150347
866.303	0.0149407
866.381	0.0149244
866.459	0.0150781
866.538	0.0150345
866.616	0.0149285
866.694	0.0150139
866.772	0.0151493
866.850	0.0151997
866.928	0.0150050
867.006	0.0151942
867.084	0.0150882
867.163	0.0150482
867.241	0.0153128
867.319	0.0153657
867.397	0.0151565
867.475	0.0153282
867.553	0.0152840
867.631	0.0152345
867.709	0.0152503
867.788	0.0151786
867.866	0.0152023
867.944	0.0151381
868.022	0.0152735
868.100	0.0151720
868.178	0.0152332
868.256	0.0152153
868.334	0.0152043
868.413	0.0152353
868.491	0.0151048
868.569	0.0152412
868.647	0.0151628
868.725	0.0151617
868.803	0.0151627
868.881	0.0150264
868.959	0.0149768
869.038	0.0151996
869.116	0.0152916
869.194	0.0151048
869.272	0.0150181
869.350	0.0150934
869.428	0.0151362
869.506	0.0152052
869.584	0.0151507
869.663	0.0151441
869.741	0.0151864
869.819	0.0151911
869.897	0.0150970
869.975	0.0151131
870.053	0.0152634
870.131	0.0151491
870.209	0.0150919
870.288	0.0150188
870.366	0.0152151
870.444	0.0151432
870.522	0.0151386
870.600	0.0152293
870.678	0.0150412
870.756	0.0150973
870.834	0.0150951
870.913	0.0151927
870.991	0.0151218
871.069	0.0150447
871.147	0.0152452
871.225	0.0151306
871.303	0.0150860
871.381	0.0151897
871.459	0.0151923
871.538	0.0152479
871.616	0.0152572
871.694	0.0151562
871.772	0.0150378
871.850	0.0151663
871.928	0.0151463
872.006	0.0150414
872.084	0.0152078
872.163	0.0151887
872.241	0.0152740
872.319	0.0151510
872.397	0.0152663
872.475	0.0153387
872.553	0.0154012
872.631	0.0152774
872.709	0.0153829
872.788	0.0153136
872.866	0.0153635
872.944	0.0153410
873.022	0.0153188
873.100	0.0152741
873.178	0.0154243
873.256	0.0152408
873.334	0.0152934
873.413	0.0152660
873.491	0.0152470
873.569	0.0150995
873.647	0.0152571
873.725	0.0152524
873.803	0.0151189
873.881	0.0152761
873.959	0.0151294
874.038	0.0152304
874.116	0.0151374
874.194	0.0152071
874.272	0.0152869
874.350	0.0151724
874.428	0.0151349
874.506	0.0151131
874.584	0.0150215
874.663	0.0150421
874.741	0.0150867
874.819	0.0149722
874.897	0.0152451
874.975	0.0150943
875.053	0.0149834
875.131	0.0149861
875.209	0.0149606
875.288	0.0151154
875.366	0.0149743
875.444	0.0149786
875.522	0.0148835
875.600	0.0149234
875.678	0.0150195
875.756	0.0149535
875.834	0.0150422
875.913	0.0149928
875.991	0.0149248
876.069	0.0149232
876.147	0.0147902
876.225	0.0149222
876.303	0.0149753
876.381	0.0149133
876.459	0.0148739
876.538	0.0149472
876.616	0.0148470
876.694	0.0150527
876.772	0.0149329
876.850	0.0149803
876.928	0.0149915
877.006	0.0149449
877.084	0.0149259
877.163	0.0148695
877.241	0.0149514
877.319	0.0150858
877.397	0.0151126
877.475	0.0151895
877.553	0.0150735
877.631	0.0151867
877.709	0.0151367
877.788	0.0151123
877.866	0.0150933
877.944	0.0151338
878.022	0.0153556
878.100	0.0152766
878.178	0.0151273
878.256	0.0152518
878.334	0.0152704
878.413	0.0151537
878.491	0.0152856
878.569	0.0153912
878.647	0.0151955
878.725	0.0151589
878.803	0.0151823
878.881	0.0151690
878.959	0.0151820
879.038	0.0152955
879.116	0.0153693
879.194	0.0152917
879.272	0.0153494
879.350	0.0152837
879.428	0.0153338
879.506	0.0154499
879.584	0.0154877
879.663	0.0156265
879.741	0.0154006
879.819	0.0153638
879.897	0.0154527
879.975	0.0153606
880.053	0.0154523
880.131	0.0153318
880.209	0.0153438
880.288	0.0152657
880.366	0.0152872
880.444	0.0152213
880.522	0.0153033
880.600	0.0153045
880.678	0.0151308
880.756	0.0151431
880.834	0.0151877
880.913	0.0150803
880.991	0.0150659
881.069	0.0150719
881.147	0.0149704
881.225	0.0150062
881.303	0.0149804
881.381	0.0150726
881.459	0.0149701
881.538	0.0150542
881.616	0.0149937
881.694	0.0150111
881.772	0.0149539
881.850	0.0149258
881.928	0.0150132
882.006	0.0151686
882.084	0.0151327
882.163	0.0152582
882.241	0.0151917
882.319	0.0150641
882.397	0.0152112
882.475	0.0152227
882.553	0.0151344
882.631	0.0150897
882.709	0.0154495
882.788	0.0154454
882.866	0.0153356
882.944	0.0153848
883.022	0.0154814
883.100	0.0154513
883.178	0.0154276
883.256	0.0153886
883.334	0.0153197
883.413	0.0154214
883.491	0.0155230
883.569	0.0153281
883.647	0.0154260
883.725	0.0153818
883.803	0.0153548
883.881	0.0154236
883.959	0.0154530
884.038	0.0153745
884.116	0.0152349
884.194	0.0152919
884.272	0.0152480
884.350	0.0152662
884.428	0.0152423
884.506	0.0151825
884.584	0.0151823
884.663	0.0150606
884.741	0.0152290
884.819	0.0151849
884.897	0.0152803
884.975	0.0150854
885.053	0.0152200
885.131	0.0150870
885.209	0.0148492
885.288	0.0151431
885.366	0.0150337
885.444	0.0150591
885.522	0.0150250
885.600	0.0150647
885.678	0.0148700
885.756	0.0149526
885.834	0.0150378
885.913	0.0149569
885.991	0.0148355
886.069	0.0149517
886.147	0.0151013
886.225	0.0149510
886.303	0.0149590
886.381	0.0150385
886.459	0.0149983
886.538	0.0149793
886.616	0.0150436
886.694	0.0150700
886.772	0.0149719
886.850	0.0151839
886.928	0.0150600
887.006	0.0151979
887.084	0.0150508
887.163	0.0150122
887.241	0.0151541
887.319	0.0151141
887.397	0.0151923
887.475	0.0151588
887.553	0.0151901
887.631	0.0152930
887.709	0.0152454
887.788	0.0152842
887.866	0.0153072
887.944	0.0153648
888.022	0.0152342
888.100	0.0153010
888.178	0.0151571
888.256	0.0151667
888.334	0.0151321
888.413	0.0152560
888.491	0.0151658
888.569	0.0151289
888.647	0.0153046
888.725	0.0151653
888.803	0.0150453
888.881	0.0151872
888.959	0.0151937
889.038	0.0150716
889.116	0.0150062
889.194	0.0150484
889.272	0.0151347
889.350	0.0150877
889.428	0.0151118
889.506	0.0151163
889.584	0.0151170
889.663	0.0153123
889.741	0.0152214
889.819	0.0151212
889.897	0.0152073
889.975	0.0149973
890.053	0.0151290
890.131	0.0151006
890.209	0.0151215
890.288	0.0150957
890.366	0.0150904
890.444	0.0152766
890.522	0.0151905
890.600	0.0151152
890.678	0.0152408
890.756	0.0151956
890.834	0.0151805
890.913	0.0151979
890.991	0.0152048
891.069	0.0152135
891.147	0.0151693
891.225	0.0152116
891.303	0.0151409
891.381	0.0152033
891.459	0.0151666
891.538	0.0150698
891.616	0.0152560
891.694	0.0152398
891.772	0.0151096
891.850	0.0151630
891.928	0.0151629
892.006	0.0151486
892.084	0.0152568
892.163	0.0151066
892.241	0.0151141
892.319	0.0151057
892.397	0.0151792
892.475	0.0151894
892.553	0.0150809
892.631	0.0149580
892.709	0.0149283
892.788	0.0149541
892.866	0.0150638
892.944	0.0150515
893.022	0.0148219
893.100	0.0149579
893.178	0.0150620
893.256	0.0149689
893.334	0.0150130
893.413	0.0148389
893.491	0.0149277
893.569	0.0149805
893.647	0.0151595
893.725	0.0151086
893.803	0.0150238
893.881	0.0151263
893.959	0.0150583
894.038	0.0148968
894.116	0.0149703
894.194	0.0151913
894.272	0.0150420
894.350	0.0151969
894.428	0.0152784
894.506	0.0152682
894.584	0.0152418
894.663	0.0152090
894.741	0.0151517
894.819	0.0153175
894.897	0.0152803
894.975	0.0154023
895.053	0.0153015
895.131	0.0151847
895.209	0.0153219
895.288	0.0153414
895.366	0.0153809
895.444	0.0153208
895.522	0.0153499
895.600	0.0153415
895.678	0.0154346
895.756	0.0153648
895.834	0.0152284
895.913	0.0153217
895.991	0.0152534
896.069	0.0152477
896.147	0.0152120
896.225	0.0154353
896.303	0.0152324
896.381	0.0152229
896.459	0.0151717
896.538	0.0151504
896.616	0.0150333
896.694	0.0150952
896.772	0.0149556
896.850	0.0151392
896.928	0.0151121
897.006	0.0150956
897.084	0.0150446
897.163	0.0150562
897.241	0.0149382
897.319	0.0149462
897.397	0.0149947
897.475	0.0149704
897.553	0.0149391
897.631	0.0149947
897.709	0.0150163
897.788	0.0150120
897.866	0.0148595
897.944	0.0148729
898.022	0.0150625
898.100	0.0150330
898.178	0.0149277
898.256	0.0149612
898.334	0.0150541
898.413	0.0149693
898.491	0.0151060
898.569	0.0151086
898.647	0.0149213
898.725	0.0150483
898.803	0.0150478
898.881	0.0149862
898.959	0.0149464
899.038	0.0150576
899.116	0.0150648
899.194	0.0151615
899.272	0.0152971
899.350	0.0152480
899.428	0.0151953
899.506	0.0150803
899.584	0.0152099
899.663	0.0151916
899.741	0.0151740
899.819	0.0151443
899.897	0.0152364
899.975	0.0152557
900.053	0.0153127
900.131	0.0152563
900.209	0.0153205
900.288	0.0153221
900.366	0.0153122
900.444	0.0153039
900.522	0.0153716
900.600	0.0151880
900.678	0.0153032
900.756	0.0152453
900.834	0.0151718
900.913	0.0151919
900.991	0.0151781
901.069	0.0152771
901.147	0.0152699
901.225	0.0151066
901.303	0.0150297
901.381	0.0150842
901.459	0.0151530
901.538	0.0150804
901.616	0.0151227
901.694	0.0152458
901.772	0.0152655
901.850	0.0150880
901.928	0.0151448
902.006	0.0149892
902.084	0.0151562
902.163	0.0151260
902.241	0.0150561
902.319	0.0153453
902.397	0.0152199
902.475	0.0150616
902.553	0.0150823
902.631	0.0151924
902.709	0.0152475
902.788	0.0151550
902.866	0.0153770
902.944	0.0151437
903.022	0.0153967
903.100	0.0153649
903.178	0.0153714
903.256	0.0153959
903.334	0.0152826
903.413	0.0153796
903.491	0.0154395
903.569	0.0154967
903.647	0.0153714
903.725	0.0153730
903.803	0.0153987
903.881	0.0153127
903.959	0.0154021
904.038	0.0153809
904.116	0.0152682
904.194	0.0154227
904.272	0.0154267
904.350	0.0152764
904.428	0.0151661
904.506	0.0153136
904.584	0.0153269
904.663	0.0151439
904.741	0.0151569
904.819	0.0150708
904.897	0.0150527
904.975	0.0151260
905.053	0.0151949
905.131	0.0150312
905.209	0.0150510
905.288	0.0150431
905.366	0.0150206
905.444	0.0150343
905.522	0.0150443
905.600	0.0148720
905.678	0.0149797
905.756	0.0150387
905.834	0.0150004
905.913	0.0149770
905.991	0.0151283
906.069	0.0150802
906.147	0.0149475
906.225	0.0150995
906.303	0.0151312
906.381	0.0150088
906.459	0.0150746
906.538	0.0150501
906.616	0.0152703
906.694	0.0151810
906.772	0.0151344
906.850	0.0149926
906.928	0.0150330
907.006	0.0150359
907.084	0.0150626
907.163	0.0151788
907.241	0.0152203
907.319	0.0151192
907.397	0.0151888
907.475	0.0151134
907.553	0.0149941
907.631	0.0149869
907.709	0.0150107
907.788	0.0150909
907.866	0.0149987
907.944	0.0150918
908.022	0.0149333
908.100	0.0150354
908.178	0.0149571
908.256	0.0150013
908.334	0.0150237
908.413	0.0149439
908.491	0.0149896
908.569	0.0150156
908.647	0.0150170
908.725	0.0149401
908.803	0.0150240
908.881	0.0150414
908.959	0.0149865
909.038	0.0150096
909.116	0.0151608
909.194	0.0151903
909.272	0.0151818
909.350	0.0149389
909.428	0.0150885
909.506	0.0151443
909.584	0.0150983
909.663	0.0150468
909.741	0.0151785
909.819	0.0152265
909.897	0.0153686
909.975	0.0153150
910.053	0.0151340
910.131	0.0152901
910.209	0.0150921
910.288	0.0153253
910.366	0.0152388
910.444	0.0154023
910.522	0.0152838
910.600	0.0152985
910.678	0.0152788
910.756	0.0152672
910.834	0.0151756
910.913	0.0152019
910.991	0.0152736
911.069	0.0151360
911.147	0.0152837
911.225	0.0151074
911.303	0.0151200
911.381	0.0150306
911.459	0.0150546
911.538	0.0150969
911.616	0.0151295
911.694	0.0150104
911.772	0.0150834
911.850	0.0150095
911.928	0.0150829
912.006	0.0149671
912.084	0.0149683
912.163	0.0150121
912.241	0.0149771
912.319	0.0149345
912.397	0.0150473
912.475	0.0149742
912.553	0.0150103
912.631	0.0150221
912.709	0.0149570
912.788	0.0150616
912.866	0.0148605
912.944	0.0149824
913.022	0.0151434
913.100	0.0150546
913.178	0.0153051
913.256	0.0151181
913.334	0.0150846
913.413	0.0151324
913.491	0.0151305
913.569	0.0151349
913.647	0.0152470
913.725	0.0151827
913.803	0.0153159
913.881	0.0151615
913.959	0.0151069
914.038	0.0152063
914.116	0.0150935
914.194	0.0152241
914.272	0.0152792
914.350	0.0151024
914.428	0.0150246
914.506	0.0150173
914.584	0.0150702
914.663	0.0151723
914.741	0.0149581
914.819	0.0148914
914.897	0.0148304
914.975	0.0150361
915.053	0.0151011
915.131	0.0149341
915.209	0.0150694
915.288	0.0149842
915.366	0.0150163
915.444	0.0150176
915.522	0.0150518
915.600	0.0151109
915.678	0.0150761
915.756	0.0150524
915.834	0.0152435
915.913	0.0152707
915.991	0.0150432
916.069	0.0150430
916.147	0.0151397
916.225	0.0152443
916.303	0.0150631
916.381	0.0151336
916.459	0.0151431
916.538	0.0150557
916.616	0.0150033
916.694	0.0151369
916.772	0.0151289
916.850	0.0151318
916.928	0.0151598
917.006	0.0151852
917.084	0.0151163
917.163	0.0150481
917.241	0.0151492
917.319	0.0153729
917.397	0.0152122
917.475	0.0152764
917.553	0.0152187
917.631	0.0152520
917.709	0.0151813
917.788	0.0153381
917.866	0.0153790
917.944	0.0153282
918.022	0.0152545
918.100	0.0152756
918.178	0.0151945
918.256	0.0152158
918.334	0.0151183
918.413	0.0151381
918.491	0.0152066
918.569	0.0151519
918.647	0.0150619
918.725	0.0150499
918.803	0.0150698
918.881	0.0151539
918.959	0.0152365
919.038	0.0152257
919.116	0.0150526
919.194	0.0151760
919.272	0.0150536
919.350	0.0148969
919.428	0.0150378
919.506	0.0150570
919.584	0.0152197
919.663	0.0152151
919.741	0.0151949
919.819	0.0152350
919.897	0.0151661
