05/20/2022	21:24:49	Ver.	4.1	UNKNOWN
Optical Delay	599.975067	Delta X		0.078125	Sweeps	1	Scan Rate	0/0
Coordinates	Axis 1	NaN	Axis 2	NaN	Axis 3	NaN	Axis 4	NaN	Axis 5	NaN	Axis 6	0.000000
TX Power	0.000000	RX Power	0.000000

599.975	0.0150848
600.053	0.0151740
600.131	0.0151338
600.209	0.0151268
600.288	0.0152899
600.366	0.0150724
600.444	0.0152087
600.522	0.0150138
600.600	0.0151624
600.678	0.0151662
600.756	0.0150122
600.834	0.0150499
600.913	0.0151733
600.991	0.0151738
601.069	0.0152364
601.147	0.0152248
601.225	0.0152198
601.303	0.0152355
601.381	0.0152663
601.459	0.0152658
601.538	0.0152319
601.616	0.0151394
601.694	0.0151853
601.772	0.0152396
601.850	0.0151578
601.928	0.0153371
602.006	0.0153883
602.084	0.0152356
602.163	0.0152106
602.241	0.0152753
602.319	0.0152276
602.397	0.0153292
602.475	0.0153468
602.553	0.0153236
602.631	0.0153748
602.709	0.0153042
602.788	0.0154117
602.866	0.0153222
602.944	0.0154012
603.022	0.0153447
603.100	0.0153376
603.178	0.0153999
603.256	0.0153592
603.334	0.0153265
603.413	0.0154384
603.491	0.0153838
603.569	0.0152312
603.647	0.0153938
603.725	0.0154541
603.803	0.0155201
603.881	0.0153288
603.959	0.0153495
604.038	0.0154292
604.116	0.0153967
604.194	0.0155760
604.272	0.0154327
604.350	0.0153604
604.428	0.0154807
604.506	0.0155151
604.584	0.0154045
604.663	0.0153579
604.741	0.0153065
604.819	0.0152925
604.897	0.0154841
604.975	0.0154090
605.053	0.0153368
605.131	0.0154148
605.209	0.0153860
605.288	0.0153872
605.366	0.0154447
605.444	0.0154789
605.522	0.0153160
605.600	0.0151825
605.678	0.0152744
605.756	0.0151949
605.834	0.0153586
605.913	0.0153573
605.991	0.0153633
606.069	0.0152898
606.147	0.0152229
606.225	0.0153571
606.303	0.0153356
606.381	0.0153501
606.459	0.0153996
606.538	0.0153522
606.616	0.0151798
606.694	0.0153058
606.772	0.0152626
606.850	0.0154920
606.928	0.0153024
607.006	0.0152412
607.084	0.0152663
607.163	0.0152341
607.241	0.0152240
607.319	0.0151785
607.397	0.0152640
607.475	0.0153577
607.553	0.0153384
607.631	0.0153132
607.709	0.0152740
607.788	0.0153879
607.866	0.0153180
607.944	0.0153159
608.022	0.0152441
608.100	0.0152196
608.178	0.0153284
608.256	0.0153048
608.334	0.0152067
608.413	0.0152019
608.491	0.0151547
608.569	0.0154199
608.647	0.0152404
608.725	0.0150793
608.803	0.0153575
608.881	0.0153011
608.959	0.0153678
609.038	0.0153025
609.116	0.0152008
609.194	0.0152267
609.272	0.0152577
609.350	0.0151436
609.428	0.0152065
609.506	0.0152676
609.584	0.0152979
609.663	0.0151732
609.741	0.0151348
609.819	0.0152611
609.897	0.0153342
609.975	0.0152134
610.053	0.0152629
610.131	0.0151204
610.209	0.0151995
610.288	0.0152528
610.366	0.0151913
610.444	0.0153151
610.522	0.0151218
610.600	0.0152050
610.678	0.0150963
610.756	0.0151913
610.834	0.0152070
610.913	0.0150865
610.991	0.0150678
611.069	0.0151868
611.147	0.0151952
611.225	0.0150947
611.303	0.0152070
611.381	0.0152180
611.459	0.0152689
611.538	0.0149930
611.616	0.0151659
611.694	0.0152254
611.772	0.0151987
611.850	0.0151546
611.928	0.0152915
612.006	0.0152906
612.084	0.0151909
612.163	0.0152499
612.241	0.0152784
612.319	0.0152664
612.397	0.0153260
612.475	0.0153388
612.553	0.0152617
612.631	0.0151886
612.709	0.0153379
612.788	0.0151821
612.866	0.0153085
612.944	0.0152279
613.022	0.0152019
613.100	0.0152744
613.178	0.0152202
613.256	0.0153666
613.334	0.0151687
613.413	0.0153100
613.491	0.0153102
613.569	0.0152242
613.647	0.0151511
613.725	0.0152152
613.803	0.0150937
613.881	0.0152510
613.959	0.0152459
614.038	0.0150788
614.116	0.0152863
614.194	0.0151061
614.272	0.0150922
614.350	0.0151966
614.428	0.0152386
614.506	0.0150839
614.584	0.0152384
614.663	0.0151376
614.741	0.0151740
614.819	0.0151714
614.897	0.0152143
614.975	0.0152048
615.053	0.0152518
615.131	0.0151570
615.209	0.0152480
615.288	0.0152206
615.366	0.0151583
615.444	0.0150687
615.522	0.0151472
615.600	0.0149606
615.678	0.0149083
615.756	0.0149644
615.834	0.0150376
615.913	0.0149649
615.991	0.0149593
616.069	0.0150711
616.147	0.0150266
616.225	0.0150047
616.303	0.0148402
616.381	0.0149841
616.459	0.0151660
616.538	0.0150449
616.616	0.0150325
616.694	0.0149734
616.772	0.0151009
616.850	0.0150610
616.928	0.0149451
617.006	0.0150093
617.084	0.0150479
617.163	0.0150076
617.241	0.0152232
617.319	0.0150212
617.397	0.0150984
617.475	0.0151807
617.553	0.0151553
617.631	0.0151117
617.709	0.0150338
617.788	0.0151842
617.866	0.0151900
617.944	0.0152313
618.022	0.0151627
618.100	0.0151820
618.178	0.0152196
618.256	0.0152374
618.334	0.0151907
618.413	0.0151067
618.491	0.0151633
618.569	0.0151070
618.647	0.0151870
618.725	0.0150898
618.803	0.0153529
618.881	0.0151340
618.959	0.0152439
619.038	0.0152751
619.116	0.0151635
619.194	0.0152386
619.272	0.0152740
619.350	0.0150169
619.428	0.0153082
619.506	0.0152581
619.584	0.0152251
619.663	0.0152285
619.741	0.0152051
619.819	0.0150937
619.897	0.0152390
619.975	0.0152883
620.053	0.0153577
620.131	0.0152897
620.209	0.0149947
620.288	0.0151920
620.366	0.0152138
620.444	0.0151752
620.522	0.0151917
620.600	0.0151855
620.678	0.0151254
620.756	0.0150684
620.834	0.0152116
620.913	0.0151278
620.991	0.0152089
621.069	0.0152959
621.147	0.0151594
621.225	0.0152209
621.303	0.0152593
621.381	0.0152485
621.459	0.0152491
621.538	0.0153399
621.616	0.0152785
621.694	0.0153610
621.772	0.0153218
621.850	0.0153177
621.928	0.0152125
622.006	0.0152968
622.084	0.0153400
622.163	0.0153726
622.241	0.0153179
622.319	0.0152044
622.397	0.0153206
622.475	0.0152687
622.553	0.0152724
622.631	0.0154025
622.709	0.0152969
622.788	0.0152431
622.866	0.0153253
622.944	0.0152988
623.022	0.0152506
623.100	0.0154209
623.178	0.0152427
623.256	0.0153182
623.334	0.0153133
623.413	0.0153114
623.491	0.0151913
623.569	0.0152863
623.647	0.0153218
623.725	0.0152098
623.803	0.0152290
623.881	0.0152547
623.959	0.0153026
624.038	0.0152559
624.116	0.0152286
624.194	0.0151672
624.272	0.0152512
624.350	0.0152149
624.428	0.0152731
624.506	0.0152028
624.584	0.0152644
624.663	0.0152229
624.741	0.0152654
624.819	0.0150638
624.897	0.0151751
624.975	0.0152993
625.053	0.0152782
625.131	0.0152940
625.209	0.0152086
625.288	0.0152812
625.366	0.0153149
625.444	0.0151639
625.522	0.0151158
625.600	0.0151636
625.678	0.0152869
625.756	0.0151348
625.834	0.0151122
625.913	0.0151651
625.991	0.0151520
626.069	0.0151997
626.147	0.0153204
626.225	0.0152016
626.303	0.0151505
626.381	0.0151877
626.459	0.0151373
626.538	0.0152034
626.616	0.0151519
626.694	0.0152431
626.772	0.0152100
626.850	0.0153017
626.928	0.0152124
627.006	0.0151173
627.084	0.0151980
627.163	0.0152686
627.241	0.0151902
627.319	0.0155077
627.397	0.0153647
627.475	0.0151094
627.553	0.0153045
627.631	0.0153034
627.709	0.0152438
627.788	0.0151315
627.866	0.0152139
627.944	0.0153477
628.022	0.0154367
628.100	0.0154063
628.178	0.0152464
628.256	0.0153895
628.334	0.0152406
628.413	0.0153177
628.491	0.0152544
628.569	0.0152295
628.647	0.0154187
628.725	0.0152542
628.803	0.0153754
628.881	0.0152865
628.959	0.0153632
629.038	0.0154824
629.116	0.0152175
629.194	0.0153023
629.272	0.0153606
629.350	0.0153045
629.428	0.0152316
629.506	0.0153982
629.584	0.0153382
629.663	0.0150699
629.741	0.0152345
629.819	0.0152922
629.897	0.0152784
629.975	0.0152044
630.053	0.0152700
630.131	0.0153028
630.209	0.0152677
630.288	0.0153886
630.366	0.0152990
630.444	0.0152560
630.522	0.0153003
630.600	0.0152027
630.678	0.0152629
630.756	0.0152264
630.834	0.0153884
630.913	0.0153145
630.991	0.0152730
631.069	0.0153315
631.147	0.0151957
631.225	0.0152621
631.303	0.0151322
631.381	0.0152381
631.459	0.0151262
631.538	0.0151582
631.616	0.0151270
631.694	0.0152345
631.772	0.0153141
631.850	0.0151912
631.928	0.0151145
632.006	0.0151933
632.084	0.0151172
632.163	0.0150907
632.241	0.0152106
632.319	0.0149719
632.397	0.0152352
632.475	0.0152136
632.553	0.0151777
632.631	0.0152942
632.709	0.0152433
632.788	0.0153033
632.866	0.0152645
632.944	0.0152913
633.022	0.0151140
633.100	0.0152526
633.178	0.0153349
633.256	0.0153359
633.334	0.0152251
633.413	0.0152470
633.491	0.0153070
633.569	0.0153564
633.647	0.0153432
633.725	0.0153658
633.803	0.0154092
633.881	0.0153725
633.959	0.0155401
634.038	0.0155169
634.116	0.0152555
634.194	0.0153527
634.272	0.0153629
634.350	0.0154465
634.428	0.0153531
634.506	0.0155010
634.584	0.0154420
634.663	0.0155057
634.741	0.0152663
634.819	0.0153954
634.897	0.0154644
634.975	0.0155167
635.053	0.0153688
635.131	0.0153845
635.209	0.0153497
635.288	0.0153914
635.366	0.0154701
635.444	0.0153851
635.522	0.0153741
635.600	0.0153677
635.678	0.0153313
635.756	0.0154431
635.834	0.0152396
635.913	0.0152647
635.991	0.0154210
636.069	0.0153656
636.147	0.0153177
636.225	0.0151943
636.303	0.0152618
636.381	0.0151665
636.459	0.0152887
636.538	0.0153111
636.616	0.0152394
636.694	0.0153623
636.772	0.0151273
636.850	0.0150687
636.928	0.0151636
637.006	0.0152699
637.084	0.0152209
637.163	0.0151889
637.241	0.0153191
637.319	0.0152089
637.397	0.0152277
637.475	0.0151417
637.553	0.0151338
637.631	0.0151398
637.709	0.0150684
637.788	0.0151103
637.866	0.0151485
637.944	0.0151017
638.022	0.0150953
638.100	0.0151759
638.178	0.0150537
638.256	0.0151287
638.334	0.0151646
638.413	0.0151516
638.491	0.0152356
638.569	0.0152293
638.647	0.0151636
638.725	0.0151109
638.803	0.0152250
638.881	0.0153326
638.959	0.0151714
639.038	0.0152513
639.116	0.0152856
639.194	0.0151725
639.272	0.0151241
639.350	0.0151914
639.428	0.0151431
639.506	0.0151932
639.584	0.0151216
639.663	0.0151472
639.741	0.0152023
639.819	0.0151886
639.897	0.0150154
639.975	0.0151266
640.053	0.0151250
640.131	0.0150806
640.209	0.0150316
640.288	0.0150645
640.366	0.0150391
640.444	0.0150708
640.522	0.0152345
640.600	0.0150539
640.678	0.0150119
640.756	0.0151886
640.834	0.0151218
640.913	0.0150881
640.991	0.0150935
641.069	0.0151311
641.147	0.0152360
641.225	0.0150728
641.303	0.0151070
641.381	0.0151162
641.459	0.0151416
641.538	0.0151040
641.616	0.0152248
641.694	0.0151637
641.772	0.0149895
641.850	0.0151028
641.928	0.0150733
642.006	0.0151124
642.084	0.0153057
642.163	0.0151271
642.241	0.0151544
642.319	0.0151290
642.397	0.0148905
642.475	0.0150774
642.553	0.0151685
642.631	0.0152113
642.709	0.0151438
642.788	0.0150823
642.866	0.0151195
642.944	0.0151846
643.022	0.0152472
643.100	0.0152191
643.178	0.0150894
643.256	0.0150866
643.334	0.0151270
643.413	0.0151162
643.491	0.0152625
643.569	0.0151283
643.647	0.0149681
643.725	0.0151014
643.803	0.0151221
643.881	0.0152426
643.959	0.0152188
644.038	0.0153394
644.116	0.0151570
644.194	0.0152504
644.272	0.0151807
644.350	0.0152036
644.428	0.0151721
644.506	0.0151595
644.584	0.0152644
644.663	0.0152835
644.741	0.0152928
644.819	0.0153086
644.897	0.0152380
644.975	0.0152578
645.053	0.0153063
645.131	0.0153432
645.209	0.0152847
645.288	0.0152509
645.366	0.0152137
645.444	0.0152180
645.522	0.0152148
645.600	0.0151675
645.678	0.0151490
645.756	0.0150840
645.834	0.0150513
645.913	0.0151541
645.991	0.0152303
646.069	0.0153509
646.147	0.0151977
646.225	0.0151839
646.303	0.0152619
646.381	0.0152056
646.459	0.0152695
646.538	0.0152517
646.616	0.0152359
646.694	0.0154076
646.772	0.0151849
646.850	0.0154648
646.928	0.0151418
647.006	0.0152371
647.084	0.0153773
647.163	0.0153041
647.241	0.0151667
647.319	0.0152211
647.397	0.0153735
647.475	0.0153596
647.553	0.0153180
647.631	0.0152175
647.709	0.0153066
647.788	0.0152847
647.866	0.0153408
647.944	0.0152700
648.022	0.0150785
648.100	0.0152422
648.178	0.0152042
648.256	0.0152089
648.334	0.0152877
648.413	0.0152113
648.491	0.0153220
648.569	0.0151315
648.647	0.0152399
648.725	0.0153333
648.803	0.0152522
648.881	0.0152676
648.959	0.0151704
649.038	0.0152835
649.116	0.0151349
649.194	0.0151947
649.272	0.0153340
649.350	0.0150928
649.428	0.0151325
649.506	0.0151646
649.584	0.0152026
649.663	0.0151170
649.741	0.0150114
649.819	0.0150308
649.897	0.0150567
649.975	0.0150911
650.053	0.0150619
650.131	0.0149564
650.209	0.0150906
650.288	0.0151895
650.366	0.0151321
650.444	0.0151283
650.522	0.0150729
650.600	0.0151173
650.678	0.0151324
650.756	0.0150850
650.834	0.0150819
650.913	0.0150182
650.991	0.0150719
651.069	0.0150589
651.147	0.0151048
651.225	0.0150883
651.303	0.0150159
651.381	0.0149039
651.459	0.0150055
651.538	0.0150607
651.616	0.0150258
651.694	0.0150687
651.772	0.0149628
651.850	0.0151859
651.928	0.0151976
652.006	0.0151869
652.084	0.0151336
652.163	0.0150120
652.241	0.0150577
652.319	0.0152112
652.397	0.0151543
652.475	0.0151115
652.553	0.0151810
652.631	0.0151795
652.709	0.0152635
652.788	0.0152430
652.866	0.0152293
652.944	0.0151990
653.022	0.0152718
653.100	0.0153394
653.178	0.0153178
653.256	0.0152988
653.334	0.0151447
653.413	0.0151704
653.491	0.0152283
653.569	0.0151774
653.647	0.0151718
653.725	0.0151443
653.803	0.0151967
653.881	0.0152616
653.959	0.0152657
654.038	0.0152618
654.116	0.0152760
654.194	0.0152867
654.272	0.0153748
654.350	0.0152211
654.428	0.0153374
654.506	0.0151326
654.584	0.0152036
654.663	0.0153263
654.741	0.0153266
654.819	0.0152271
654.897	0.0153303
654.975	0.0153421
655.053	0.0154867
655.131	0.0152710
655.209	0.0153443
655.288	0.0152153
655.366	0.0153710
655.444	0.0153129
655.522	0.0151122
655.600	0.0154454
655.678	0.0153452
655.756	0.0155029
655.834	0.0152747
655.913	0.0153155
655.991	0.0153610
656.069	0.0152642
656.147	0.0153298
656.225	0.0151979
656.303	0.0151627
656.381	0.0151388
656.459	0.0151816
656.538	0.0152427
656.616	0.0151208
656.694	0.0151785
656.772	0.0150782
656.850	0.0151578
656.928	0.0151840
657.006	0.0152761
657.084	0.0152010
657.163	0.0154265
657.241	0.0152968
657.319	0.0154052
657.397	0.0153348
657.475	0.0153539
657.553	0.0152605
657.631	0.0151279
657.709	0.0151608
657.788	0.0151324
657.866	0.0152792
657.944	0.0151305
658.022	0.0151328
658.100	0.0149626
658.178	0.0148927
658.256	0.0148994
658.334	0.0149648
658.413	0.0151240
658.491	0.0150591
658.569	0.0150383
658.647	0.0149914
658.725	0.0150352
658.803	0.0150002
658.881	0.0151639
658.959	0.0152184
659.038	0.0151115
659.116	0.0152685
659.194	0.0152463
659.272	0.0154189
659.350	0.0152975
659.428	0.0153504
659.506	0.0153555
659.584	0.0152776
659.663	0.0153267
659.741	0.0152744
659.819	0.0153303
659.897	0.0152307
659.975	0.0151189
660.053	0.0151232
660.131	0.0151607
660.209	0.0150856
660.288	0.0150729
660.366	0.0150264
660.444	0.0150472
660.522	0.0149174
660.600	0.0148899
660.678	0.0149489
660.756	0.0150670
660.834	0.0151083
660.913	0.0150332
660.991	0.0149532
661.069	0.0150292
661.147	0.0152056
661.225	0.0152081
661.303	0.0150578
661.381	0.0151797
661.459	0.0152256
661.538	0.0153333
661.616	0.0154028
661.694	0.0154282
661.772	0.0153879
661.850	0.0153194
661.928	0.0155009
662.006	0.0156116
662.084	0.0154485
662.163	0.0154620
662.241	0.0155500
662.319	0.0154413
662.397	0.0154755
662.475	0.0153864
662.553	0.0154497
662.631	0.0153129
662.709	0.0153268
662.788	0.0150834
662.866	0.0149794
662.944	0.0148875
663.022	0.0147823
663.100	0.0146424
663.178	0.0147264
663.256	0.0144810
663.334	0.0145952
663.413	0.0145445
663.491	0.0144659
663.569	0.0144398
663.647	0.0144865
663.725	0.0145076
663.803	0.0145543
663.881	0.0146970
663.959	0.0148225
664.038	0.0148866
664.116	0.0146742
664.194	0.0149040
664.272	0.0150688
664.350	0.0151804
664.428	0.0152118
664.506	0.0153187
664.584	0.0155515
664.663	0.0155707
664.741	0.0155283
664.819	0.0155760
664.897	0.0157004
664.975	0.0157750
665.053	0.0157288
665.131	0.0157173
665.209	0.0158407
665.288	0.0159274
665.366	0.0158368
665.444	0.0158302
665.522	0.0158909
665.600	0.0157127
665.678	0.0159616
665.756	0.0156602
665.834	0.0156954
665.913	0.0155884
665.991	0.0155458
666.069	0.0154562
666.147	0.0155444
666.225	0.0153770
666.303	0.0152148
666.381	0.0152099
666.459	0.0151655
666.538	0.0152110
666.616	0.0149986
666.694	0.0149526
666.772	0.0150262
666.850	0.0149514
666.928	0.0148684
667.006	0.0148613
667.084	0.0147725
667.163	0.0147238
667.241	0.0148933
667.319	0.0147418
667.397	0.0145342
667.475	0.0148000
667.553	0.0146781
667.631	0.0145908
667.709	0.0146924
667.788	0.0146429
667.866	0.0146388
667.944	0.0145880
668.022	0.0145557
668.100	0.0145983
668.178	0.0144773
668.256	0.0145699
668.334	0.0146398
668.413	0.0146918
668.491	0.0147193
668.569	0.0147285
668.647	0.0148882
668.725	0.0149158
668.803	0.0151213
668.881	0.0153236
668.959	0.0155025
669.038	0.0154259
669.116	0.0154611
669.194	0.0156776
669.272	0.0157729
669.350	0.0158932
669.428	0.0161275
669.506	0.0160551
669.584	0.0160915
669.663	0.0160410
669.741	0.0162565
669.819	0.0162645
669.897	0.0162947
669.975	0.0165113
670.053	0.0163348
670.131	0.0162062
670.209	0.0162195
670.288	0.0161975
670.366	0.0161267
670.444	0.0160445
670.522	0.0159124
670.600	0.0158605
670.678	0.0157842
670.756	0.0156217
670.834	0.0154215
670.913	0.0152159
670.991	0.0149068
671.069	0.0147707
671.147	0.0146152
671.225	0.0145562
671.303	0.0143681
671.381	0.0140755
671.459	0.0138593
671.538	0.0138273
671.616	0.0137173
671.694	0.0136465
671.772	0.0135835
671.850	0.0135630
671.928	0.0134362
672.006	0.0135706
672.084	0.0135464
672.163	0.0134460
672.241	0.0136572
672.319	0.0137073
672.397	0.0139191
672.475	0.0139854
672.553	0.0140457
672.631	0.0141902
672.709	0.0143623
672.788	0.0144978
672.866	0.0148629
672.944	0.0152430
673.022	0.0150193
673.100	0.0153053
673.178	0.0152653
673.256	0.0154652
673.334	0.0155231
673.413	0.0157969
673.491	0.0158286
673.569	0.0157652
673.647	0.0157700
673.725	0.0158431
673.803	0.0160691
673.881	0.0159266
673.959	0.0160248
674.038	0.0160326
674.116	0.0160248
674.194	0.0159252
674.272	0.0159805
674.350	0.0160276
674.428	0.0160883
674.506	0.0161895
674.584	0.0160769
674.663	0.0161639
674.741	0.0160880
674.819	0.0160482
674.897	0.0161298
674.975	0.0161379
675.053	0.0160313
675.131	0.0161990
675.209	0.0159564
675.288	0.0158480
675.366	0.0158410
675.444	0.0158179
675.522	0.0156912
675.600	0.0155956
675.678	0.0154253
675.756	0.0152910
675.834	0.0151585
675.913	0.0148924
675.991	0.0148470
676.069	0.0145531
676.147	0.0144827
676.225	0.0143343
676.303	0.0142130
676.381	0.0139859
676.459	0.0138222
676.538	0.0137467
676.616	0.0135762
676.694	0.0135495
676.772	0.0135227
676.850	0.0135128
676.928	0.0135104
677.006	0.0134061
677.084	0.0133848
677.163	0.0136273
677.241	0.0139904
677.319	0.0140104
677.397	0.0140341
677.475	0.0141887
677.553	0.0144165
677.631	0.0146169
677.709	0.0147517
677.788	0.0149716
677.866	0.0152473
677.944	0.0154932
678.022	0.0157332
678.100	0.0158897
678.178	0.0160801
678.256	0.0163251
678.334	0.0164688
678.413	0.0165287
678.491	0.0166915
678.569	0.0168623
678.647	0.0168092
678.725	0.0169515
678.803	0.0170385
678.881	0.0173414
678.959	0.0170787
679.038	0.0172764
679.116	0.0171172
679.194	0.0169641
679.272	0.0170919
679.350	0.0168019
679.428	0.0165339
679.506	0.0165189
679.584	0.0163386
679.663	0.0160194
679.741	0.0158448
679.819	0.0156855
679.897	0.0155548
679.975	0.0152387
680.053	0.0150040
680.131	0.0148412
680.209	0.0146832
680.288	0.0145583
680.366	0.0144259
680.444	0.0144511
680.522	0.0143376
680.600	0.0141266
680.678	0.0142667
680.756	0.0139957
680.834	0.0140417
680.913	0.0140490
680.991	0.0141172
681.069	0.0141101
681.147	0.0142406
681.225	0.0142608
681.303	0.0143477
681.381	0.0142274
681.459	0.0144282
681.538	0.0144687
681.616	0.0145595
681.694	0.0147368
681.772	0.0147017
681.850	0.0147994
681.928	0.0149574
682.006	0.0149767
682.084	0.0151703
682.163	0.0151819
682.241	0.0154418
682.319	0.0154398
682.397	0.0154928
682.475	0.0157063
682.553	0.0158024
682.631	0.0156876
682.709	0.0157267
682.788	0.0158496
682.866	0.0156902
682.944	0.0156564
683.022	0.0157199
683.100	0.0156062
683.178	0.0156593
683.256	0.0155000
683.334	0.0155210
683.413	0.0154586
683.491	0.0152787
683.569	0.0151074
683.647	0.0152309
683.725	0.0149355
683.803	0.0149218
683.881	0.0149252
683.959	0.0147618
684.038	0.0146984
684.116	0.0146684
684.194	0.0144886
684.272	0.0146107
684.350	0.0144490
684.428	0.0144510
684.506	0.0142827
684.584	0.0144556
684.663	0.0145370
684.741	0.0145459
684.819	0.0147179
684.897	0.0147890
684.975	0.0148477
685.053	0.0149908
685.131	0.0152095
685.209	0.0153262
685.288	0.0156092
685.366	0.0157545
685.444	0.0157615
685.522	0.0158077
685.600	0.0159890
685.678	0.0161742
685.756	0.0161987
685.834	0.0162443
685.913	0.0161201
685.991	0.0162971
686.069	0.0163765
686.147	0.0164040
686.225	0.0162459
686.303	0.0163757
686.381	0.0161966
686.459	0.0159208
686.538	0.0159316
686.616	0.0157815
686.694	0.0156989
686.772	0.0154668
686.850	0.0153168
686.928	0.0153602
687.006	0.0150958
687.084	0.0150453
687.163	0.0151115
687.241	0.0149187
687.319	0.0147258
687.397	0.0148175
687.475	0.0145907
687.553	0.0146093
687.631	0.0145122
687.709	0.0145412
687.788	0.0145337
687.866	0.0145422
687.944	0.0145366
688.022	0.0144821
688.100	0.0146127
688.178	0.0147514
688.256	0.0146884
688.334	0.0147416
688.413	0.0148873
688.491	0.0149066
688.569	0.0147929
688.647	0.0148567
688.725	0.0150328
688.803	0.0150735
688.881	0.0149892
688.959	0.0150204
689.038	0.0149981
689.116	0.0150933
689.194	0.0152185
689.272	0.0151332
689.350	0.0150266
689.428	0.0150262
689.506	0.0150507
689.584	0.0150101
689.663	0.0149953
689.741	0.0150549
689.819	0.0150851
689.897	0.0149671
689.975	0.0150143
690.053	0.0150458
690.131	0.0150384
690.209	0.0147536
690.288	0.0149412
690.366	0.0148202
690.444	0.0148180
690.522	0.0147330
690.600	0.0147018
690.678	0.0147137
690.756	0.0146915
690.834	0.0147160
690.913	0.0147053
690.991	0.0147551
691.069	0.0147107
691.147	0.0148309
691.225	0.0147534
691.303	0.0149397
691.381	0.0149995
691.459	0.0150439
691.538	0.0152386
691.616	0.0153815
691.694	0.0155647
691.772	0.0155870
691.850	0.0157780
691.928	0.0159351
692.006	0.0161587
692.084	0.0163412
692.163	0.0162047
692.241	0.0164503
692.319	0.0165802
692.397	0.0165675
692.475	0.0166790
692.553	0.0167037
692.631	0.0168556
692.709	0.0167245
692.788	0.0166385
692.866	0.0167984
692.944	0.0165679
693.022	0.0167375
693.100	0.0166286
693.178	0.0166808
693.256	0.0164754
693.334	0.0162956
693.413	0.0161232
693.491	0.0161213
693.569	0.0158776
693.647	0.0156042
693.725	0.0153378
693.803	0.0151263
693.881	0.0147186
693.959	0.0145237
694.038	0.0142910
694.116	0.0139468
694.194	0.0138354
694.272	0.0134985
694.350	0.0133907
694.428	0.0129837
694.506	0.0129107
694.584	0.0126436
694.663	0.0125790
694.741	0.0124815
694.819	0.0124385
694.897	0.0122923
694.975	0.0121876
695.053	0.0123370
695.131	0.0124052
695.209	0.0123307
695.288	0.0126000
695.366	0.0128213
695.444	0.0129528
695.522	0.0133391
695.600	0.0135184
695.678	0.0138051
695.756	0.0141782
695.834	0.0146392
695.913	0.0150274
695.991	0.0153877
696.069	0.0156158
696.147	0.0159558
696.225	0.0164270
696.303	0.0164612
696.381	0.0167297
696.459	0.0168799
696.538	0.0170882
696.616	0.0172784
696.694	0.0174237
696.772	0.0173843
696.850	0.0175394
696.928	0.0176363
697.006	0.0177594
697.084	0.0179095
697.163	0.0179392
697.241	0.0180262
697.319	0.0180981
697.397	0.0181065
697.475	0.0180391
697.553	0.0180479
697.631	0.0179744
697.709	0.0177932
697.788	0.0177950
697.866	0.0175567
697.944	0.0173529
698.022	0.0170209
698.100	0.0168515
698.178	0.0164734
698.256	0.0162111
698.334	0.0160985
698.413	0.0155641
698.491	0.0152866
698.569	0.0150027
698.647	0.0146368
698.725	0.0143900
698.803	0.0140240
698.881	0.0139476
698.959	0.0135255
699.038	0.0134216
699.116	0.0131943
699.194	0.0131470
699.272	0.0128054
699.350	0.0126910
699.428	0.0126392
699.506	0.0126520
699.584	0.0128182
699.663	0.0126092
699.741	0.0126273
699.819	0.0127647
699.897	0.0127666
699.975	0.0128519
700.053	0.0130300
700.131	0.0131879
700.209	0.0132973
700.288	0.0134772
700.366	0.0137776
700.444	0.0141045
700.522	0.0143497
700.600	0.0144982
700.678	0.0147253
700.756	0.0149686
700.834	0.0151635
700.913	0.0153546
700.991	0.0158161
701.069	0.0158907
701.147	0.0160581
701.225	0.0164407
701.303	0.0165134
701.381	0.0166705
701.459	0.0167023
701.538	0.0167986
701.616	0.0168118
701.694	0.0167804
701.772	0.0167194
701.850	0.0168744
701.928	0.0168984
702.006	0.0166098
702.084	0.0165714
702.163	0.0165916
702.241	0.0163203
702.319	0.0160348
702.397	0.0158734
702.475	0.0159113
702.553	0.0156882
702.631	0.0155018
702.709	0.0153268
702.788	0.0151511
702.866	0.0150592
702.944	0.0152863
703.022	0.0151881
703.100	0.0151582
703.178	0.0153091
703.256	0.0152663
703.334	0.0150682
703.413	0.0150723
703.491	0.0152754
703.569	0.0153096
703.647	0.0152386
703.725	0.0151692
703.803	0.0152761
703.881	0.0153191
703.959	0.0152575
704.038	0.0152826
704.116	0.0152641
704.194	0.0152792
704.272	0.0151475
704.350	0.0152283
704.428	0.0151577
704.506	0.0152129
704.584	0.0150835
704.663	0.0149835
704.741	0.0149462
704.819	0.0149339
704.897	0.0147845
704.975	0.0145508
705.053	0.0144227
705.131	0.0143626
705.209	0.0142545
705.288	0.0141203
705.366	0.0141541
705.444	0.0140512
705.522	0.0140704
705.600	0.0139416
705.678	0.0140492
705.756	0.0144087
705.834	0.0141908
705.913	0.0144253
705.991	0.0146772
706.069	0.0146689
706.147	0.0148354
706.225	0.0148666
706.303	0.0150454
706.381	0.0152524
706.459	0.0154542
706.538	0.0156615
706.616	0.0156547
706.694	0.0158707
706.772	0.0159643
706.850	0.0160609
706.928	0.0163090
707.006	0.0162143
707.084	0.0162594
707.163	0.0163859
707.241	0.0163074
707.319	0.0163986
707.397	0.0164133
707.475	0.0163220
707.553	0.0161173
707.631	0.0161749
707.709	0.0160442
707.788	0.0160497
707.866	0.0158685
707.944	0.0158148
708.022	0.0157415
708.100	0.0156734
708.178	0.0154575
708.256	0.0152865
708.334	0.0152203
708.413	0.0153157
708.491	0.0150632
708.569	0.0152385
708.647	0.0150674
708.725	0.0149050
708.803	0.0148280
708.881	0.0148784
708.959	0.0147054
709.038	0.0146178
709.116	0.0146749
709.194	0.0145681
709.272	0.0145004
709.350	0.0145585
709.428	0.0145188
709.506	0.0146944
709.584	0.0145532
709.663	0.0146028
709.741	0.0147073
709.819	0.0146784
709.897	0.0148003
709.975	0.0150085
710.053	0.0150216
710.131	0.0150324
710.209	0.0151258
710.288	0.0151189
710.366	0.0151102
710.444	0.0152621
710.522	0.0152499
710.600	0.0152082
710.678	0.0150274
710.756	0.0151472
710.834	0.0150844
710.913	0.0149948
710.991	0.0148950
711.069	0.0149478
711.147	0.0148979
711.225	0.0149257
711.303	0.0148553
711.381	0.0150433
711.459	0.0150584
711.538	0.0152325
711.616	0.0153838
711.694	0.0153114
711.772	0.0154438
711.850	0.0157426
711.928	0.0158529
712.006	0.0159068
712.084	0.0161185
712.163	0.0160432
712.241	0.0160880
712.319	0.0161779
712.397	0.0160586
712.475	0.0161794
712.553	0.0161983
712.631	0.0164161
712.709	0.0163338
712.788	0.0161968
712.866	0.0160968
712.944	0.0160499
713.022	0.0160055
713.100	0.0158789
713.178	0.0156902
713.256	0.0155071
713.334	0.0152496
713.413	0.0152880
713.491	0.0149953
713.569	0.0149103
713.647	0.0146628
713.725	0.0145663
713.803	0.0144067
713.881	0.0142501
713.959	0.0142040
714.038	0.0142792
714.116	0.0141170
714.194	0.0142432
714.272	0.0143396
714.350	0.0142640
714.428	0.0143711
714.506	0.0144803
714.584	0.0146064
714.663	0.0144567
714.741	0.0146579
714.819	0.0146298
714.897	0.0147394
714.975	0.0146992
715.053	0.0148643
715.131	0.0149344
715.209	0.0148402
715.288	0.0148724
715.366	0.0149687
715.444	0.0149401
715.522	0.0150637
715.600	0.0150619
715.678	0.0151138
715.756	0.0150608
715.834	0.0150246
715.913	0.0151177
715.991	0.0151779
716.069	0.0150704
716.147	0.0149477
716.225	0.0150708
716.303	0.0147770
716.381	0.0148627
716.459	0.0149098
716.538	0.0148244
716.616	0.0148398
716.694	0.0148557
716.772	0.0149782
716.850	0.0149814
716.928	0.0150462
717.006	0.0151978
717.084	0.0150900
717.163	0.0151006
717.241	0.0154044
717.319	0.0154806
717.397	0.0156168
717.475	0.0154713
717.553	0.0155862
717.631	0.0156880
717.709	0.0156544
717.788	0.0155078
717.866	0.0157130
717.944	0.0157062
718.022	0.0157339
718.100	0.0157576
718.178	0.0157079
718.256	0.0157242
718.334	0.0159247
718.413	0.0160445
718.491	0.0158649
718.569	0.0158840
718.647	0.0159538
718.725	0.0160088
718.803	0.0159373
718.881	0.0159296
718.959	0.0159203
719.038	0.0156748
719.116	0.0156746
719.194	0.0155885
719.272	0.0154917
719.350	0.0154172
719.428	0.0152819
719.506	0.0153554
719.584	0.0151672
719.663	0.0151742
719.741	0.0151665
719.819	0.0151738
719.897	0.0151762
719.975	0.0150252
720.053	0.0149586
720.131	0.0148751
720.209	0.0148441
720.288	0.0149128
720.366	0.0147344
720.444	0.0146207
720.522	0.0144765
720.600	0.0143836
720.678	0.0142710
720.756	0.0142188
720.834	0.0141025
720.913	0.0140401
720.991	0.0141453
721.069	0.0139556
721.147	0.0139719
721.225	0.0139924
721.303	0.0139474
721.381	0.0140681
721.459	0.0140493
721.538	0.0140038
721.616	0.0141079
721.694	0.0143114
721.772	0.0144447
721.850	0.0146638
721.928	0.0147454
722.006	0.0148701
722.084	0.0150353
722.163	0.0152318
722.241	0.0155862
722.319	0.0158340
722.397	0.0160664
722.475	0.0161028
722.553	0.0162971
722.631	0.0165885
722.709	0.0167300
722.788	0.0168066
722.866	0.0169627
722.944	0.0169262
723.022	0.0170305
723.100	0.0169419
723.178	0.0170309
723.256	0.0168819
723.334	0.0169524
723.413	0.0168690
723.491	0.0168852
723.569	0.0167201
723.647	0.0167111
723.725	0.0166730
723.803	0.0164783
723.881	0.0164206
723.959	0.0163152
724.038	0.0160497
724.116	0.0159814
724.194	0.0157793
724.272	0.0155763
724.350	0.0153802
724.428	0.0153065
724.506	0.0149962
724.584	0.0145805
724.663	0.0144807
724.741	0.0143285
724.819	0.0140489
724.897	0.0139137
724.975	0.0138679
725.053	0.0137862
725.131	0.0137493
725.209	0.0137694
725.288	0.0136310
725.366	0.0138413
725.444	0.0137337
725.522	0.0139825
725.600	0.0141851
725.678	0.0142466
725.756	0.0143232
725.834	0.0143234
725.913	0.0144810
725.991	0.0146044
726.069	0.0145937
726.147	0.0146768
726.225	0.0147744
726.303	0.0150774
726.381	0.0151554
726.459	0.0151581
726.538	0.0153922
726.616	0.0155536
726.694	0.0157125
726.772	0.0158224
726.850	0.0159111
726.928	0.0159692
727.006	0.0160048
727.084	0.0159946
727.163	0.0160580
727.241	0.0161393
727.319	0.0159325
727.397	0.0157274
727.475	0.0157098
727.553	0.0156155
727.631	0.0153189
727.709	0.0153310
727.788	0.0152888
727.866	0.0149419
727.944	0.0148164
728.022	0.0148059
728.100	0.0146502
728.178	0.0144600
728.256	0.0145920
728.334	0.0146727
728.413	0.0145583
728.491	0.0144927
728.569	0.0145540
728.647	0.0145670
728.725	0.0146470
728.803	0.0146688
728.881	0.0147388
728.959	0.0148746
729.038	0.0150342
729.116	0.0151436
729.194	0.0151190
729.272	0.0151196
729.350	0.0150565
729.428	0.0152728
729.506	0.0154325
729.584	0.0154288
729.663	0.0154341
729.741	0.0155854
729.819	0.0157031
729.897	0.0157114
729.975	0.0156228
730.053	0.0157285
730.131	0.0157710
730.209	0.0157798
730.288	0.0157812
730.366	0.0157534
730.444	0.0155344
730.522	0.0156179
730.600	0.0155736
730.678	0.0156129
730.756	0.0154049
730.834	0.0153694
730.913	0.0152790
730.991	0.0153005
731.069	0.0152680
731.147	0.0152827
731.225	0.0152213
731.303	0.0149975
731.381	0.0148127
731.459	0.0148586
731.538	0.0147543
731.616	0.0148902
731.694	0.0147092
731.772	0.0146936
731.850	0.0146117
731.928	0.0146801
732.006	0.0144894
732.084	0.0144855
732.163	0.0147527
732.241	0.0146956
732.319	0.0145427
732.397	0.0147618
732.475	0.0150153
732.553	0.0148473
732.631	0.0148524
732.709	0.0149547
732.788	0.0150057
732.866	0.0149949
732.944	0.0150265
733.022	0.0151382
733.100	0.0153234
733.178	0.0154096
733.256	0.0155817
733.334	0.0156304
733.413	0.0156591
733.491	0.0157677
733.569	0.0159048
733.647	0.0160314
733.725	0.0160159
733.803	0.0158091
733.881	0.0159411
733.959	0.0159700
734.038	0.0157578
734.116	0.0156096
734.194	0.0153865
734.272	0.0154597
734.350	0.0152989
734.428	0.0150471
734.506	0.0148820
734.584	0.0149086
734.663	0.0147465
734.741	0.0146321
734.819	0.0145801
734.897	0.0145178
734.975	0.0147241
735.053	0.0143011
735.131	0.0142358
735.209	0.0144851
735.288	0.0144825
735.366	0.0142984
735.444	0.0143245
735.522	0.0144755
735.600	0.0145149
735.678	0.0146210
735.756	0.0145341
735.834	0.0146476
735.913	0.0147482
735.991	0.0148596
736.069	0.0149744
736.147	0.0151608
736.225	0.0153828
736.303	0.0153855
736.381	0.0154652
736.459	0.0157595
736.538	0.0158363
736.616	0.0156897
736.694	0.0156851
736.772	0.0158992
736.850	0.0159100
736.928	0.0158804
737.006	0.0159149
737.084	0.0160322
737.163	0.0158205
737.241	0.0157661
737.319	0.0158025
737.397	0.0156961
737.475	0.0157100
737.553	0.0156612
737.631	0.0155775
737.709	0.0154974
737.788	0.0155849
737.866	0.0155422
737.944	0.0156503
738.022	0.0154527
738.100	0.0154560
738.178	0.0153727
738.256	0.0154446
738.334	0.0152660
738.413	0.0153581
738.491	0.0153169
738.569	0.0150903
738.647	0.0151508
738.725	0.0149955
738.803	0.0149252
738.881	0.0148186
738.959	0.0148537
739.038	0.0146592
739.116	0.0146174
739.194	0.0145683
739.272	0.0145200
739.350	0.0144901
739.428	0.0144928
739.506	0.0144878
739.584	0.0144086
739.663	0.0145728
739.741	0.0145393
739.819	0.0144595
739.897	0.0146732
739.975	0.0148972
740.053	0.0148891
740.131	0.0149619
740.209	0.0149227
740.288	0.0151502
740.366	0.0151632
740.444	0.0153506
740.522	0.0154771
740.600	0.0156219
740.678	0.0157362
740.756	0.0156367
740.834	0.0158008
740.913	0.0160151
740.991	0.0158659
741.069	0.0159993
741.147	0.0159782
741.225	0.0159197
741.303	0.0160430
741.381	0.0159565
741.459	0.0162514
741.538	0.0162400
741.616	0.0159523
741.694	0.0161227
741.772	0.0161866
741.850	0.0160993
741.928	0.0159759
742.006	0.0158668
742.084	0.0159794
742.163	0.0159512
742.241	0.0159203
742.319	0.0158238
742.397	0.0156635
742.475	0.0158349
742.553	0.0157701
742.631	0.0155812
742.709	0.0158188
742.788	0.0156445
742.866	0.0155128
742.944	0.0155949
743.022	0.0153348
743.100	0.0152854
743.178	0.0151829
743.256	0.0151291
743.334	0.0149519
743.413	0.0148498
743.491	0.0145086
743.569	0.0145881
743.647	0.0142772
743.725	0.0141347
743.803	0.0139371
743.881	0.0137984
743.959	0.0137209
744.038	0.0135391
744.116	0.0135355
744.194	0.0134318
744.272	0.0135339
744.350	0.0134249
744.428	0.0135450
744.506	0.0135571
744.584	0.0136504
744.663	0.0136516
744.741	0.0138911
744.819	0.0141116
744.897	0.0142170
744.975	0.0143121
745.053	0.0145700
745.131	0.0148894
745.209	0.0150327
745.288	0.0152700
745.366	0.0154681
745.444	0.0156615
745.522	0.0159007
745.600	0.0159953
745.678	0.0161839
745.756	0.0163208
745.834	0.0165012
745.913	0.0166715
745.991	0.0167824
746.069	0.0165968
746.147	0.0167484
746.225	0.0165670
746.303	0.0165453
746.381	0.0165413
746.459	0.0163538
746.538	0.0160904
746.616	0.0158974
746.694	0.0158729
746.772	0.0158128
746.850	0.0156406
746.928	0.0154134
747.006	0.0153014
747.084	0.0152135
747.163	0.0150717
747.241	0.0149448
747.319	0.0149591
747.397	0.0150795
747.475	0.0150142
747.553	0.0150205
747.631	0.0150274
747.709	0.0149601
747.788	0.0150155
747.866	0.0150647
747.944	0.0151388
748.022	0.0151501
748.100	0.0150195
748.178	0.0150166
748.256	0.0149963
748.334	0.0150720
748.413	0.0150361
748.491	0.0149026
748.569	0.0150136
748.647	0.0150472
748.725	0.0151268
748.803	0.0151097
748.881	0.0151880
748.959	0.0152992
749.038	0.0155172
749.116	0.0154316
749.194	0.0154335
749.272	0.0155302
749.350	0.0155460
749.428	0.0154830
749.506	0.0154203
749.584	0.0153518
749.663	0.0153889
749.741	0.0151337
749.819	0.0150399
749.897	0.0149329
749.975	0.0147947
750.053	0.0146301
750.131	0.0146674
750.209	0.0144389
750.288	0.0143066
750.366	0.0142755
750.444	0.0141734
750.522	0.0143355
750.600	0.0142363
750.678	0.0142165
750.756	0.0143524
750.834	0.0142597
750.913	0.0144286
750.991	0.0144975
751.069	0.0146853
751.147	0.0146552
751.225	0.0147404
751.303	0.0149744
751.381	0.0150160
751.459	0.0150254
751.538	0.0152653
751.616	0.0153623
751.694	0.0153306
751.772	0.0153979
751.850	0.0154630
751.928	0.0155020
752.006	0.0155424
752.084	0.0155873
752.163	0.0156541
752.241	0.0157488
752.319	0.0158222
752.397	0.0159119
752.475	0.0158692
752.553	0.0157140
752.631	0.0158704
752.709	0.0157953
752.788	0.0158619
752.866	0.0159242
752.944	0.0158610
753.022	0.0158687
753.100	0.0159649
753.178	0.0157351
753.256	0.0156644
753.334	0.0157156
753.413	0.0155465
753.491	0.0155348
753.569	0.0154847
753.647	0.0154704
753.725	0.0153853
753.803	0.0151614
753.881	0.0150838
753.959	0.0147918
754.038	0.0148015
754.116	0.0147582
754.194	0.0148275
754.272	0.0146827
754.350	0.0145585
754.428	0.0145827
754.506	0.0144852
754.584	0.0145065
754.663	0.0143578
754.741	0.0144200
754.819	0.0144456
754.897	0.0146980
754.975	0.0145391
755.053	0.0145476
755.131	0.0146301
755.209	0.0146847
755.288	0.0148220
755.366	0.0148615
755.444	0.0150516
755.522	0.0150726
755.600	0.0150173
755.678	0.0152356
755.756	0.0151980
755.834	0.0151331
755.913	0.0153546
755.991	0.0155078
756.069	0.0154794
756.147	0.0154958
756.225	0.0154890
756.303	0.0156326
756.381	0.0155196
756.459	0.0155379
756.538	0.0155238
756.616	0.0155164
756.694	0.0154420
756.772	0.0152875
756.850	0.0150966
756.928	0.0150301
757.006	0.0150934
757.084	0.0150909
757.163	0.0149606
757.241	0.0147643
757.319	0.0148289
757.397	0.0146686
757.475	0.0146055
757.553	0.0147379
757.631	0.0146569
757.709	0.0146919
757.788	0.0148071
757.866	0.0148579
757.944	0.0149006
758.022	0.0149673
758.100	0.0149747
758.178	0.0150262
758.256	0.0149458
758.334	0.0151067
758.413	0.0151813
758.491	0.0151536
758.569	0.0151756
758.647	0.0151919
758.725	0.0152292
758.803	0.0151803
758.881	0.0152772
758.959	0.0151427
759.038	0.0153077
759.116	0.0153065
759.194	0.0152774
759.272	0.0151122
759.350	0.0153359
759.428	0.0151762
759.506	0.0151350
759.584	0.0150047
759.663	0.0148923
759.741	0.0149483
759.819	0.0149207
759.897	0.0148940
759.975	0.0149529
760.053	0.0149973
760.131	0.0149552
760.209	0.0148274
760.288	0.0148900
760.366	0.0149730
760.444	0.0151153
760.522	0.0153913
760.600	0.0151802
760.678	0.0153139
760.756	0.0153562
760.834	0.0154478
760.913	0.0155910
760.991	0.0156068
761.069	0.0154753
761.147	0.0155772
761.225	0.0156836
761.303	0.0155586
761.381	0.0156950
761.459	0.0157619
761.538	0.0155796
761.616	0.0158389
761.694	0.0157838
761.772	0.0156371
761.850	0.0157533
761.928	0.0157859
762.006	0.0155398
762.084	0.0154972
762.163	0.0154496
762.241	0.0154940
762.319	0.0154641
762.397	0.0151208
762.475	0.0152467
762.553	0.0152541
762.631	0.0150762
762.709	0.0151146
762.788	0.0149856
762.866	0.0149784
762.944	0.0149982
763.022	0.0149895
763.100	0.0148875
763.178	0.0149550
763.256	0.0148839
763.334	0.0148900
763.413	0.0150298
763.491	0.0150981
763.569	0.0150712
763.647	0.0150782
763.725	0.0152169
763.803	0.0151633
763.881	0.0152566
763.959	0.0152926
764.038	0.0151823
764.116	0.0152993
764.194	0.0152468
764.272	0.0152767
764.350	0.0154414
764.428	0.0153522
764.506	0.0155515
764.584	0.0154021
764.663	0.0153999
764.741	0.0155266
764.819	0.0154820
764.897	0.0153741
764.975	0.0153352
765.053	0.0153203
765.131	0.0153371
765.209	0.0153766
765.288	0.0152463
765.366	0.0151773
765.444	0.0151833
765.522	0.0150542
765.600	0.0148801
765.678	0.0149552
765.756	0.0149763
765.834	0.0149709
765.913	0.0149554
765.991	0.0147090
766.069	0.0149435
766.147	0.0150111
766.225	0.0149243
766.303	0.0149969
766.381	0.0149357
766.459	0.0148933
766.538	0.0148619
766.616	0.0151361
766.694	0.0150701
766.772	0.0149400
766.850	0.0149821
766.928	0.0150538
767.006	0.0149824
767.084	0.0149075
767.163	0.0151630
767.241	0.0149902
767.319	0.0150299
767.397	0.0151015
767.475	0.0150351
767.553	0.0150756
767.631	0.0150828
767.709	0.0151186
767.788	0.0152251
767.866	0.0154871
767.944	0.0153394
768.022	0.0154887
768.100	0.0155357
768.178	0.0156043
768.256	0.0156168
768.334	0.0157735
768.413	0.0156947
768.491	0.0154861
768.569	0.0156288
768.647	0.0156493
768.725	0.0155791
768.803	0.0156061
768.881	0.0155097
768.959	0.0154037
769.038	0.0154687
769.116	0.0155328
769.194	0.0153928
769.272	0.0153956
769.350	0.0154053
769.428	0.0153124
769.506	0.0152292
769.584	0.0152348
769.663	0.0152448
769.741	0.0151775
769.819	0.0149336
769.897	0.0149598
769.975	0.0149789
770.053	0.0149672
770.131	0.0148190
770.209	0.0147349
770.288	0.0148475
770.366	0.0147831
770.444	0.0146634
770.522	0.0146489
770.600	0.0146093
770.678	0.0148933
770.756	0.0148226
770.834	0.0147704
770.913	0.0147522
770.991	0.0147616
771.069	0.0147033
771.147	0.0149538
771.225	0.0149332
771.303	0.0149369
771.381	0.0150803
771.459	0.0152240
771.538	0.0152406
771.616	0.0152550
771.694	0.0153408
771.772	0.0153281
771.850	0.0154904
771.928	0.0155810
772.006	0.0157594
772.084	0.0157894
772.163	0.0156895
772.241	0.0156610
772.319	0.0157774
772.397	0.0157102
772.475	0.0157108
772.553	0.0157353
772.631	0.0157185
772.709	0.0156659
772.788	0.0156405
772.866	0.0155495
772.944	0.0154645
773.022	0.0153474
773.100	0.0154137
773.178	0.0153031
773.256	0.0151913
773.334	0.0152443
773.413	0.0152113
773.491	0.0152112
773.569	0.0150494
773.647	0.0151344
773.725	0.0150546
773.803	0.0151607
773.881	0.0150237
773.959	0.0149667
774.038	0.0149630
774.116	0.0149299
774.194	0.0149648
774.272	0.0149838
774.350	0.0149126
774.428	0.0148204
774.506	0.0148202
774.584	0.0148661
774.663	0.0147764
774.741	0.0148671
774.819	0.0149162
774.897	0.0147623
774.975	0.0148631
775.053	0.0148893
775.131	0.0148516
775.209	0.0150813
775.288	0.0149397
775.366	0.0150896
775.444	0.0151196
775.522	0.0151546
775.600	0.0151662
775.678	0.0153159
775.756	0.0153178
775.834	0.0152389
775.913	0.0153791
775.991	0.0153751
776.069	0.0154042
776.147	0.0154266
776.225	0.0154575
776.303	0.0153472
776.381	0.0153403
776.459	0.0153687
776.538	0.0152378
776.616	0.0153713
776.694	0.0153450
776.772	0.0153934
776.850	0.0152846
776.928	0.0152271
777.006	0.0152068
777.084	0.0150591
777.163	0.0152879
777.241	0.0151613
777.319	0.0150645
777.397	0.0150678
777.475	0.0148940
777.553	0.0149428
777.631	0.0149992
777.709	0.0149005
777.788	0.0149004
777.866	0.0149610
777.944	0.0149078
778.022	0.0148972
778.100	0.0150475
778.178	0.0150664
778.256	0.0152002
778.334	0.0151533
778.413	0.0153084
778.491	0.0153166
778.569	0.0153520
778.647	0.0155839
778.725	0.0157613
778.803	0.0157838
778.881	0.0157580
778.959	0.0159653
779.038	0.0158860
779.116	0.0157948
779.194	0.0156927
779.272	0.0157030
779.350	0.0157330
779.428	0.0156642
779.506	0.0157478
779.584	0.0155145
779.663	0.0155694
779.741	0.0152624
779.819	0.0153673
779.897	0.0152845
779.975	0.0152257
780.053	0.0152854
780.131	0.0150838
780.209	0.0150626
780.288	0.0150389
780.366	0.0149628
780.444	0.0150064
780.522	0.0150331
780.600	0.0149774
780.678	0.0149850
780.756	0.0149688
780.834	0.0150300
780.913	0.0150374
780.991	0.0150311
781.069	0.0150323
781.147	0.0150383
781.225	0.0151507
781.303	0.0150820
781.381	0.0150425
781.459	0.0150364
781.538	0.0151426
781.616	0.0151718
781.694	0.0150155
781.772	0.0149384
781.850	0.0148886
781.928	0.0148814
782.006	0.0149110
782.084	0.0149660
782.163	0.0149069
782.241	0.0148132
782.319	0.0150397
782.397	0.0149049
782.475	0.0149703
782.553	0.0151005
782.631	0.0150716
782.709	0.0150945
782.788	0.0152442
782.866	0.0152045
782.944	0.0152391
783.022	0.0153151
783.100	0.0154623
783.178	0.0153312
783.256	0.0154517
783.334	0.0154877
783.413	0.0155544
783.491	0.0156236
783.569	0.0155628
783.647	0.0154303
783.725	0.0153455
783.803	0.0153927
783.881	0.0154151
783.959	0.0153397
784.038	0.0152834
784.116	0.0152629
784.194	0.0151624
784.272	0.0151676
784.350	0.0149482
784.428	0.0150515
784.506	0.0149945
784.584	0.0150954
784.663	0.0150820
784.741	0.0151535
784.819	0.0151218
784.897	0.0150617
784.975	0.0149002
785.053	0.0148605
785.131	0.0149899
785.209	0.0149760
785.288	0.0149830
785.366	0.0148288
785.444	0.0151147
785.522	0.0149563
785.600	0.0148879
785.678	0.0149018
785.756	0.0150751
785.834	0.0149887
785.913	0.0149913
785.991	0.0150346
786.069	0.0150960
786.147	0.0149905
786.225	0.0148633
786.303	0.0150150
786.381	0.0149085
786.459	0.0148814
786.538	0.0149511
786.616	0.0149173
786.694	0.0149719
786.772	0.0149274
786.850	0.0148506
786.928	0.0147868
787.006	0.0148386
787.084	0.0150453
787.163	0.0149089
787.241	0.0149474
787.319	0.0149238
787.397	0.0150113
787.475	0.0149097
787.553	0.0150170
787.631	0.0151052
787.709	0.0152666
787.788	0.0151512
787.866	0.0150731
787.944	0.0152806
788.022	0.0153156
788.100	0.0153028
788.178	0.0152876
788.256	0.0154494
788.334	0.0154924
788.413	0.0156461
788.491	0.0156963
788.569	0.0155342
788.647	0.0156005
788.725	0.0155412
788.803	0.0156014
788.881	0.0156789
788.959	0.0156761
789.038	0.0155447
789.116	0.0154390
789.194	0.0155258
789.272	0.0154832
789.350	0.0153409
789.428	0.0153985
789.506	0.0151913
789.584	0.0152981
789.663	0.0151541
789.741	0.0150233
789.819	0.0152388
789.897	0.0151601
789.975	0.0150110
790.053	0.0149866
790.131	0.0151775
790.209	0.0151041
790.288	0.0150883
790.366	0.0151563
790.444	0.0152123
790.522	0.0151447
790.600	0.0151263
790.678	0.0152023
790.756	0.0151880
790.834	0.0153002
790.913	0.0150735
790.991	0.0150967
791.069	0.0152893
791.147	0.0153091
791.225	0.0153468
791.303	0.0151640
791.381	0.0151681
791.459	0.0151683
791.538	0.0151991
791.616	0.0153127
791.694	0.0150986
791.772	0.0151617
791.850	0.0151807
791.928	0.0150550
792.006	0.0152084
792.084	0.0150434
792.163	0.0150939
792.241	0.0151603
792.319	0.0151601
792.397	0.0150597
792.475	0.0152084
792.553	0.0150912
792.631	0.0151511
792.709	0.0152891
792.788	0.0152626
792.866	0.0153288
792.944	0.0153452
793.022	0.0152850
793.100	0.0154176
793.178	0.0153798
793.256	0.0155978
793.334	0.0156109
793.413	0.0156892
793.491	0.0156705
793.569	0.0155627
793.647	0.0156554
793.725	0.0158044
793.803	0.0156348
793.881	0.0157367
793.959	0.0157255
794.038	0.0155706
794.116	0.0157571
794.194	0.0157343
794.272	0.0157375
794.350	0.0156921
794.428	0.0158532
794.506	0.0156877
794.584	0.0155195
794.663	0.0154795
794.741	0.0154891
794.819	0.0153975
794.897	0.0153941
794.975	0.0153233
795.053	0.0151924
795.131	0.0152357
795.209	0.0151113
795.288	0.0150868
795.366	0.0151826
795.444	0.0149485
795.522	0.0148452
795.600	0.0149949
795.678	0.0149587
795.756	0.0148401
795.834	0.0148516
795.913	0.0148689
795.991	0.0147829
796.069	0.0146809
796.147	0.0146547
796.225	0.0145664
796.303	0.0146959
796.381	0.0146255
796.459	0.0146784
796.538	0.0147337
796.616	0.0147728
796.694	0.0149041
796.772	0.0147313
796.850	0.0148592
796.928	0.0149078
797.006	0.0149357
797.084	0.0148974
797.163	0.0150103
797.241	0.0150130
797.319	0.0150916
797.397	0.0150577
797.475	0.0152603
797.553	0.0151784
797.631	0.0152129
797.709	0.0152773
797.788	0.0154172
797.866	0.0154861
797.944	0.0152838
798.022	0.0153536
798.100	0.0155950
798.178	0.0153651
798.256	0.0153835
798.334	0.0153277
798.413	0.0153556
798.491	0.0154664
798.569	0.0154211
798.647	0.0154134
798.725	0.0153357
798.803	0.0153947
798.881	0.0153692
798.959	0.0152707
799.038	0.0153714
799.116	0.0154169
799.194	0.0153642
799.272	0.0154140
799.350	0.0153548
799.428	0.0153581
799.506	0.0153746
799.584	0.0152447
799.663	0.0154036
799.741	0.0155053
799.819	0.0153751
799.897	0.0154089
799.975	0.0153436
800.053	0.0153728
800.131	0.0153011
800.209	0.0153725
800.288	0.0154362
800.366	0.0155591
800.444	0.0154490
800.522	0.0153742
800.600	0.0155208
800.678	0.0153622
800.756	0.0154525
800.834	0.0154066
800.913	0.0154272
800.991	0.0154126
801.069	0.0154006
801.147	0.0152565
801.225	0.0153794
801.303	0.0152078
801.381	0.0152270
801.459	0.0151845
801.538	0.0151523
801.616	0.0153391
801.694	0.0152540
801.772	0.0152494
801.850	0.0152153
801.928	0.0151765
802.006	0.0152176
802.084	0.0153269
802.163	0.0153163
802.241	0.0154071
802.319	0.0153419
802.397	0.0153591
802.475	0.0154095
802.553	0.0154220
802.631	0.0153445
802.709	0.0154636
802.788	0.0155878
802.866	0.0153943
802.944	0.0154568
803.022	0.0155566
803.100	0.0154279
803.178	0.0154453
803.256	0.0154057
803.334	0.0154128
803.413	0.0155697
803.491	0.0155734
803.569	0.0154435
803.647	0.0153218
803.725	0.0154660
803.803	0.0155003
803.881	0.0154455
803.959	0.0153159
804.038	0.0152431
804.116	0.0152348
804.194	0.0153979
804.272	0.0152802
804.350	0.0152150
804.428	0.0151973
804.506	0.0152024
804.584	0.0151991
804.663	0.0150639
804.741	0.0150613
804.819	0.0150208
804.897	0.0151555
804.975	0.0149615
805.053	0.0150289
805.131	0.0150061
805.209	0.0149967
805.288	0.0148159
805.366	0.0149538
805.444	0.0150935
805.522	0.0151638
805.600	0.0149683
805.678	0.0149851
805.756	0.0151410
805.834	0.0150507
805.913	0.0149533
805.991	0.0150657
806.069	0.0150838
806.147	0.0150922
806.225	0.0150923
806.303	0.0151905
806.381	0.0150497
806.459	0.0152380
806.538	0.0151144
806.616	0.0150674
806.694	0.0152377
806.772	0.0152316
806.850	0.0150874
806.928	0.0151664
807.006	0.0150301
807.084	0.0151198
807.163	0.0151071
807.241	0.0149722
807.319	0.0150430
807.397	0.0150982
807.475	0.0149954
807.553	0.0148486
807.631	0.0149645
807.709	0.0148965
807.788	0.0149025
807.866	0.0149132
807.944	0.0149188
808.022	0.0149759
808.100	0.0150111
808.178	0.0149461
808.256	0.0148427
808.334	0.0149432
808.413	0.0150797
808.491	0.0150403
808.569	0.0151507
808.647	0.0152530
808.725	0.0152085
808.803	0.0152597
808.881	0.0154914
808.959	0.0153455
809.038	0.0152986
809.116	0.0154995
809.194	0.0154934
809.272	0.0155465
809.350	0.0155413
809.428	0.0155329
809.506	0.0154571
809.584	0.0154980
809.663	0.0157147
809.741	0.0156823
809.819	0.0155635
809.897	0.0156005
809.975	0.0155916
810.053	0.0154147
810.131	0.0155081
810.209	0.0155785
810.288	0.0154587
810.366	0.0152673
810.444	0.0153328
810.522	0.0153175
810.600	0.0153417
810.678	0.0152650
810.756	0.0151683
810.834	0.0152160
810.913	0.0152222
810.991	0.0150433
811.069	0.0150489
811.147	0.0149849
811.225	0.0150948
811.303	0.0151582
811.381	0.0151163
811.459	0.0153075
811.538	0.0152015
811.616	0.0150931
811.694	0.0150890
811.772	0.0152048
811.850	0.0151701
811.928	0.0151481
812.006	0.0151203
812.084	0.0151107
812.163	0.0152517
812.241	0.0151617
812.319	0.0150838
812.397	0.0152673
812.475	0.0152262
812.553	0.0151393
812.631	0.0151984
812.709	0.0151479
812.788	0.0153548
812.866	0.0151585
812.944	0.0150913
813.022	0.0150960
813.100	0.0150787
813.178	0.0151168
813.256	0.0152019
813.334	0.0150628
813.413	0.0149976
813.491	0.0150457
813.569	0.0151311
813.647	0.0150499
813.725	0.0150720
813.803	0.0150360
813.881	0.0148818
813.959	0.0151582
814.038	0.0152139
814.116	0.0152270
814.194	0.0152365
814.272	0.0152217
814.350	0.0151852
814.428	0.0152203
814.506	0.0153476
814.584	0.0153581
814.663	0.0154266
814.741	0.0154179
814.819	0.0154453
814.897	0.0153540
814.975	0.0155394
815.053	0.0154833
815.131	0.0154098
815.209	0.0153823
815.288	0.0155562
815.366	0.0152573
815.444	0.0153272
815.522	0.0153271
815.600	0.0153352
815.678	0.0153783
815.756	0.0152975
815.834	0.0150479
815.913	0.0151665
815.991	0.0151117
816.069	0.0151061
816.147	0.0150472
816.225	0.0150488
816.303	0.0149313
816.381	0.0148927
816.459	0.0148624
816.538	0.0147546
816.616	0.0148598
816.694	0.0147675
816.772	0.0148111
816.850	0.0147895
816.928	0.0148077
817.006	0.0148614
817.084	0.0149831
817.163	0.0149607
817.241	0.0147971
817.319	0.0149796
817.397	0.0149351
817.475	0.0149285
817.553	0.0149609
817.631	0.0149858
817.709	0.0150452
817.788	0.0150217
817.866	0.0150201
817.944	0.0150205
818.022	0.0150497
818.100	0.0150687
818.178	0.0151923
818.256	0.0152653
818.334	0.0151531
818.413	0.0152493
818.491	0.0154215
818.569	0.0153516
818.647	0.0153275
818.725	0.0154169
818.803	0.0153849
818.881	0.0152921
818.959	0.0155099
819.038	0.0153723
819.116	0.0154687
819.194	0.0155064
819.272	0.0154572
819.350	0.0156194
819.428	0.0155882
819.506	0.0155029
819.584	0.0155501
819.663	0.0154677
819.741	0.0155161
819.819	0.0155499
819.897	0.0156310
819.975	0.0155968
820.053	0.0155780
820.131	0.0154880
820.209	0.0155332
820.288	0.0155906
820.366	0.0155983
820.444	0.0156451
820.522	0.0155299
820.600	0.0155412
820.678	0.0155582
820.756	0.0155257
820.834	0.0155540
820.913	0.0154232
820.991	0.0155442
821.069	0.0155369
821.147	0.0155350
821.225	0.0154999
821.303	0.0154745
821.381	0.0153888
821.459	0.0153876
821.538	0.0152921
821.616	0.0152873
821.694	0.0152886
821.772	0.0153145
821.850	0.0152354
821.928	0.0151166
822.006	0.0151063
822.084	0.0148891
822.163	0.0150014
822.241	0.0149768
822.319	0.0149830
822.397	0.0149176
822.475	0.0150162
822.553	0.0150060
822.631	0.0149622
822.709	0.0149879
822.788	0.0150504
822.866	0.0150172
822.944	0.0149546
823.022	0.0151216
823.100	0.0150427
823.178	0.0150455
823.256	0.0150787
823.334	0.0152060
823.413	0.0150186
823.491	0.0151945
823.569	0.0151176
823.647	0.0151973
823.725	0.0152737
823.803	0.0152802
823.881	0.0151982
823.959	0.0150779
824.038	0.0150903
824.116	0.0152038
824.194	0.0151562
824.272	0.0152197
824.350	0.0151926
824.428	0.0151936
824.506	0.0152062
824.584	0.0151676
824.663	0.0152444
824.741	0.0152747
824.819	0.0152377
824.897	0.0151990
824.975	0.0152579
825.053	0.0153221
825.131	0.0153085
825.209	0.0151907
825.288	0.0151092
825.366	0.0152853
825.444	0.0152821
825.522	0.0154043
825.600	0.0153372
825.678	0.0152116
825.756	0.0151649
825.834	0.0152914
825.913	0.0150716
825.991	0.0150269
826.069	0.0150840
826.147	0.0150777
826.225	0.0152219
826.303	0.0150975
826.381	0.0151859
826.459	0.0151404
826.538	0.0150825
826.616	0.0151747
826.694	0.0151724
826.772	0.0150459
826.850	0.0151241
826.928	0.0152377
827.006	0.0151586
827.084	0.0152789
827.163	0.0151725
827.241	0.0150603
827.319	0.0151172
827.397	0.0150676
827.475	0.0151444
827.553	0.0151894
827.631	0.0150525
827.709	0.0150578
827.788	0.0151058
827.866	0.0152184
827.944	0.0151280
828.022	0.0151696
828.100	0.0151765
828.178	0.0151379
828.256	0.0151228
828.334	0.0150973
828.413	0.0151287
828.491	0.0150472
828.569	0.0151208
828.647	0.0151334
828.725	0.0151275
828.803	0.0152821
828.881	0.0152629
828.959	0.0152335
829.038	0.0152428
829.116	0.0152720
829.194	0.0153049
829.272	0.0152760
829.350	0.0153200
829.428	0.0153497
829.506	0.0153161
829.584	0.0154337
829.663	0.0154634
829.741	0.0155067
829.819	0.0153997
829.897	0.0155809
829.975	0.0155492
830.053	0.0154284
830.131	0.0154993
830.209	0.0155190
830.288	0.0154491
830.366	0.0155289
830.444	0.0153763
830.522	0.0151893
830.600	0.0152129
830.678	0.0152973
830.756	0.0153348
830.834	0.0152541
830.913	0.0151707
830.991	0.0151571
831.069	0.0151372
831.147	0.0149408
831.225	0.0149380
831.303	0.0150552
831.381	0.0149009
831.459	0.0147910
831.538	0.0147634
831.616	0.0148239
831.694	0.0148499
831.772	0.0147520
831.850	0.0148428
831.928	0.0147861
832.006	0.0149280
832.084	0.0148569
832.163	0.0149613
832.241	0.0149326
832.319	0.0149522
832.397	0.0148299
832.475	0.0150082
832.553	0.0150800
832.631	0.0150483
832.709	0.0150178
832.788	0.0150591
832.866	0.0149819
832.944	0.0150239
833.022	0.0152925
833.100	0.0152586
833.178	0.0151653
833.256	0.0153036
833.334	0.0151466
833.413	0.0151350
833.491	0.0152245
833.569	0.0152659
833.647	0.0152455
833.725	0.0150541
833.803	0.0151331
833.881	0.0153915
833.959	0.0151543
834.038	0.0152345
834.116	0.0151232
834.194	0.0151443
834.272	0.0152689
834.350	0.0151243
834.428	0.0152437
834.506	0.0151588
834.584	0.0151157
834.663	0.0153168
834.741	0.0153606
834.819	0.0150610
834.897	0.0152310
834.975	0.0152142
835.053	0.0153309
835.131	0.0153065
835.209	0.0152495
835.288	0.0152483
835.366	0.0152463
835.444	0.0151009
835.522	0.0152283
835.600	0.0151469
835.678	0.0151958
835.756	0.0153218
835.834	0.0153106
835.913	0.0153440
835.991	0.0152697
836.069	0.0154119
836.147	0.0152812
836.225	0.0152102
836.303	0.0152603
836.381	0.0153027
836.459	0.0153245
836.538	0.0152762
836.616	0.0152450
836.694	0.0153969
836.772	0.0153614
836.850	0.0152538
836.928	0.0153300
837.006	0.0154259
837.084	0.0152947
837.163	0.0150507
837.241	0.0151908
837.319	0.0150659
837.397	0.0153214
837.475	0.0151875
837.553	0.0151691
837.631	0.0151726
837.709	0.0151559
837.788	0.0152686
837.866	0.0151910
837.944	0.0151888
838.022	0.0151104
838.100	0.0151623
838.178	0.0152086
838.256	0.0152619
838.334	0.0151784
838.413	0.0151522
838.491	0.0152639
838.569	0.0153663
838.647	0.0153757
838.725	0.0152304
838.803	0.0153339
838.881	0.0152729
838.959	0.0151257
839.038	0.0152902
839.116	0.0151797
839.194	0.0153403
839.272	0.0152695
839.350	0.0153045
839.428	0.0152664
839.506	0.0151331
839.584	0.0150970
839.663	0.0151876
839.741	0.0151787
839.819	0.0151172
839.897	0.0151299
839.975	0.0150742
840.053	0.0149725
840.131	0.0149416
840.209	0.0150596
840.288	0.0149963
840.366	0.0146672
840.444	0.0147368
840.522	0.0149508
840.600	0.0149703
840.678	0.0148118
840.756	0.0147717
840.834	0.0146895
840.913	0.0149080
840.991	0.0149279
841.069	0.0150928
841.147	0.0149751
841.225	0.0150548
841.303	0.0150487
841.381	0.0150350
841.459	0.0151743
841.538	0.0151793
841.616	0.0152109
841.694	0.0151965
841.772	0.0152948
841.850	0.0153295
841.928	0.0153294
842.006	0.0152216
842.084	0.0154427
842.163	0.0154697
842.241	0.0154163
842.319	0.0153692
842.397	0.0155198
842.475	0.0154184
842.553	0.0155472
842.631	0.0153452
842.709	0.0153884
842.788	0.0154037
842.866	0.0154202
842.944	0.0153576
843.022	0.0153452
843.100	0.0154069
843.178	0.0153079
843.256	0.0153056
843.334	0.0152931
843.413	0.0152556
843.491	0.0153091
843.569	0.0152903
843.647	0.0153130
843.725	0.0153133
843.803	0.0152539
843.881	0.0153345
843.959	0.0152314
844.038	0.0153001
844.116	0.0152429
844.194	0.0152766
844.272	0.0151658
844.350	0.0151087
844.428	0.0153465
844.506	0.0152995
844.584	0.0152621
844.663	0.0153056
844.741	0.0153179
844.819	0.0150584
844.897	0.0151706
844.975	0.0151879
845.053	0.0150666
845.131	0.0150655
845.209	0.0151160
845.288	0.0151770
845.366	0.0150123
845.444	0.0150793
845.522	0.0151342
845.600	0.0151138
845.678	0.0149432
845.756	0.0151907
845.834	0.0151540
845.913	0.0151830
845.991	0.0152184
846.069	0.0151572
846.147	0.0152245
846.225	0.0150388
846.303	0.0151640
846.381	0.0151263
846.459	0.0151044
846.538	0.0150609
846.616	0.0150015
846.694	0.0152116
846.772	0.0151701
846.850	0.0150766
846.928	0.0151128
847.006	0.0149494
847.084	0.0150311
847.163	0.0150641
847.241	0.0150812
847.319	0.0152021
847.397	0.0151904
847.475	0.0151556
847.553	0.0152272
847.631	0.0152202
847.709	0.0152401
847.788	0.0152068
847.866	0.0152225
847.944	0.0153213
848.022	0.0152834
848.100	0.0153612
848.178	0.0153568
848.256	0.0153540
848.334	0.0153107
848.413	0.0153339
848.491	0.0153902
848.569	0.0154355
848.647	0.0154052
848.725	0.0152864
848.803	0.0153407
848.881	0.0154483
848.959	0.0153281
849.038	0.0152967
849.116	0.0152687
849.194	0.0152736
849.272	0.0154183
849.350	0.0152892
849.428	0.0152598
849.506	0.0151700
849.584	0.0152026
849.663	0.0152065
849.741	0.0152248
849.819	0.0152972
849.897	0.0152122
849.975	0.0152262
850.053	0.0152944
850.131	0.0150694
850.209	0.0152174
850.288	0.0152692
850.366	0.0153017
850.444	0.0152302
850.522	0.0151594
850.600	0.0152815
850.678	0.0153118
850.756	0.0152617
850.834	0.0151565
850.913	0.0152445
850.991	0.0150856
851.069	0.0150667
851.147	0.0150659
851.225	0.0151822
851.303	0.0152049
851.381	0.0150443
851.459	0.0151644
851.538	0.0151278
851.616	0.0151804
851.694	0.0150489
851.772	0.0150666
851.850	0.0150745
851.928	0.0152221
852.006	0.0151314
852.084	0.0150642
852.163	0.0151756
852.241	0.0151463
852.319	0.0150584
852.397	0.0151869
852.475	0.0151804
852.553	0.0150305
852.631	0.0152067
852.709	0.0152139
852.788	0.0150335
852.866	0.0152234
852.944	0.0150901
853.022	0.0151163
853.100	0.0150898
853.178	0.0153268
853.256	0.0152429
853.334	0.0150437
853.413	0.0151628
853.491	0.0150922
853.569	0.0150690
853.647	0.0151576
853.725	0.0151480
853.803	0.0148834
853.881	0.0150366
853.959	0.0150872
854.038	0.0150237
854.116	0.0152051
854.194	0.0151511
854.272	0.0152935
854.350	0.0151127
854.428	0.0152183
854.506	0.0150999
854.584	0.0151805
854.663	0.0149859
854.741	0.0151278
854.819	0.0151649
854.897	0.0151997
854.975	0.0150973
855.053	0.0150469
855.131	0.0151712
855.209	0.0150442
855.288	0.0151392
855.366	0.0152552
855.444	0.0151675
855.522	0.0152029
855.600	0.0152247
855.678	0.0151472
855.756	0.0151469
855.834	0.0150540
855.913	0.0151447
855.991	0.0153036
856.069	0.0152002
856.147	0.0151333
856.225	0.0152885
856.303	0.0151641
856.381	0.0152731
856.459	0.0153049
856.538	0.0153539
856.616	0.0153473
856.694	0.0152234
856.772	0.0152441
856.850	0.0153572
856.928	0.0153723
857.006	0.0153699
857.084	0.0153695
857.163	0.0155733
857.241	0.0153064
857.319	0.0153137
857.397	0.0153363
857.475	0.0152426
857.553	0.0153390
857.631	0.0153267
857.709	0.0153632
857.788	0.0152744
857.866	0.0153902
857.944	0.0152235
858.022	0.0152718
858.100	0.0151388
858.178	0.0151315
858.256	0.0152319
858.334	0.0151387
858.413	0.0151029
858.491	0.0151520
858.569	0.0152008
858.647	0.0151569
858.725	0.0150714
858.803	0.0151503
858.881	0.0149950
858.959	0.0151658
859.038	0.0150143
859.116	0.0150321
859.194	0.0151339
859.272	0.0150539
859.350	0.0150984
859.428	0.0151250
859.506	0.0152321
859.584	0.0151278
859.663	0.0150121
859.741	0.0151807
859.819	0.0151283
859.897	0.0150350
859.975	0.0151602
860.053	0.0150494
860.131	0.0152037
860.209	0.0151143
860.288	0.0151852
860.366	0.0151362
860.444	0.0152419
860.522	0.0152949
860.600	0.0151257
860.678	0.0151208
860.756	0.0153481
860.834	0.0152499
860.913	0.0151754
860.991	0.0152026
861.069	0.0151640
861.147	0.0150953
861.225	0.0151762
861.303	0.0152808
861.381	0.0150625
861.459	0.0151567
861.538	0.0152170
861.616	0.0152838
861.694	0.0153492
861.772	0.0152159
861.850	0.0151056
861.928	0.0151691
862.006	0.0150447
862.084	0.0151138
862.163	0.0151751
862.241	0.0151439
862.319	0.0151440
862.397	0.0150434
862.475	0.0151473
862.553	0.0150745
862.631	0.0151279
862.709	0.0149805
862.788	0.0151099
862.866	0.0150050
862.944	0.0151250
863.022	0.0150662
863.100	0.0151526
863.178	0.0151748
863.256	0.0150667
863.334	0.0151482
863.413	0.0150928
863.491	0.0151287
863.569	0.0151338
863.647	0.0151297
863.725	0.0152193
863.803	0.0152579
863.881	0.0153300
863.959	0.0152049
864.038	0.0153497
864.116	0.0153429
864.194	0.0153980
864.272	0.0153796
864.350	0.0152409
864.428	0.0154212
864.506	0.0153387
864.584	0.0151347
864.663	0.0154238
864.741	0.0154221
864.819	0.0152760
864.897	0.0153603
864.975	0.0153749
865.053	0.0153538
865.131	0.0153271
865.209	0.0154223
865.288	0.0154250
865.366	0.0154489
865.444	0.0152126
865.522	0.0153905
865.600	0.0154787
865.678	0.0153941
865.756	0.0153405
865.834	0.0152134
865.913	0.0153719
865.991	0.0153758
866.069	0.0153538
866.147	0.0154217
866.225	0.0152273
866.303	0.0152913
866.381	0.0152230
866.459	0.0153701
866.538	0.0153862
866.616	0.0153382
866.694	0.0153362
866.772	0.0152866
866.850	0.0154011
866.928	0.0151777
867.006	0.0151721
867.084	0.0154038
867.163	0.0152846
867.241	0.0152068
867.319	0.0153401
867.397	0.0152490
867.475	0.0153753
867.553	0.0152002
867.631	0.0152895
867.709	0.0152979
867.788	0.0152340
867.866	0.0151843
867.944	0.0152676
868.022	0.0152608
868.100	0.0149809
868.178	0.0151543
868.256	0.0154095
868.334	0.0151479
868.413	0.0153106
868.491	0.0151589
868.569	0.0151149
868.647	0.0151376
868.725	0.0151456
868.803	0.0153140
868.881	0.0152495
868.959	0.0152099
869.038	0.0152505
869.116	0.0152809
869.194	0.0151779
869.272	0.0151920
869.350	0.0152926
869.428	0.0152572
869.506	0.0152534
869.584	0.0151637
869.663	0.0153381
869.741	0.0152828
869.819	0.0153258
869.897	0.0151334
869.975	0.0152316
870.053	0.0153805
870.131	0.0152074
870.209	0.0150842
870.288	0.0151541
870.366	0.0153039
870.444	0.0152571
870.522	0.0152473
870.600	0.0152495
870.678	0.0150833
870.756	0.0150527
870.834	0.0150976
870.913	0.0150646
870.991	0.0150366
871.069	0.0149192
871.147	0.0149693
871.225	0.0151123
871.303	0.0149638
871.381	0.0148396
871.459	0.0150681
871.538	0.0149088
871.616	0.0150321
871.694	0.0149531
871.772	0.0150365
871.850	0.0150552
871.928	0.0149702
872.006	0.0151528
872.084	0.0150251
872.163	0.0151633
872.241	0.0150909
872.319	0.0152264
872.397	0.0152145
872.475	0.0151620
872.553	0.0152882
872.631	0.0152302
872.709	0.0152975
872.788	0.0152593
872.866	0.0153336
872.944	0.0151641
873.022	0.0152728
873.100	0.0151652
873.178	0.0153060
873.256	0.0154026
873.334	0.0152068
873.413	0.0152950
873.491	0.0152238
873.569	0.0152596
873.647	0.0151438
873.725	0.0151559
873.803	0.0153167
873.881	0.0151682
873.959	0.0152655
874.038	0.0151012
874.116	0.0151530
874.194	0.0151900
874.272	0.0152026
874.350	0.0152768
874.428	0.0152335
874.506	0.0151675
874.584	0.0152814
874.663	0.0154087
874.741	0.0153158
874.819	0.0152533
874.897	0.0153169
874.975	0.0153444
875.053	0.0155023
875.131	0.0154269
875.209	0.0153691
875.288	0.0154073
875.366	0.0152451
875.444	0.0153893
875.522	0.0154133
875.600	0.0153098
875.678	0.0153823
875.756	0.0154008
875.834	0.0154745
875.913	0.0155036
875.991	0.0152245
876.069	0.0153239
876.147	0.0152826
876.225	0.0152586
876.303	0.0153831
876.381	0.0153296
876.459	0.0152884
876.538	0.0153545
876.616	0.0152875
876.694	0.0153339
876.772	0.0153329
876.850	0.0153767
876.928	0.0152564
877.006	0.0153606
877.084	0.0152726
877.163	0.0153281
877.241	0.0155210
877.319	0.0153973
877.397	0.0153131
877.475	0.0153283
877.553	0.0152866
877.631	0.0153255
877.709	0.0152414
877.788	0.0150825
877.866	0.0152299
877.944	0.0152499
878.022	0.0152915
878.100	0.0151630
878.178	0.0151263
878.256	0.0152512
878.334	0.0152087
878.413	0.0152704
878.491	0.0151186
878.569	0.0152330
878.647	0.0152137
878.725	0.0152350
878.803	0.0150606
878.881	0.0151765
878.959	0.0151004
879.038	0.0151215
879.116	0.0152663
879.194	0.0153156
879.272	0.0153391
879.350	0.0154588
879.428	0.0154595
879.506	0.0153508
879.584	0.0153845
879.663	0.0155154
879.741	0.0153595
879.819	0.0153474
879.897	0.0154385
879.975	0.0154741
880.053	0.0154747
880.131	0.0153468
880.209	0.0152390
880.288	0.0152905
880.366	0.0151725
880.444	0.0151852
880.522	0.0153558
880.600	0.0151620
880.678	0.0150232
880.756	0.0150501
880.834	0.0151759
880.913	0.0151143
880.991	0.0151633
881.069	0.0151447
881.147	0.0152058
881.225	0.0150092
881.303	0.0150180
881.381	0.0150488
881.459	0.0149336
881.538	0.0149089
881.616	0.0148711
881.694	0.0150802
881.772	0.0149477
881.850	0.0150095
881.928	0.0150789
882.006	0.0151649
882.084	0.0149471
882.163	0.0150662
882.241	0.0151227
882.319	0.0149767
882.397	0.0151225
882.475	0.0150774
882.553	0.0152685
882.631	0.0151411
882.709	0.0151698
882.788	0.0152274
882.866	0.0151855
882.944	0.0151444
883.022	0.0152456
883.100	0.0153256
883.178	0.0149689
883.256	0.0152483
883.334	0.0152116
883.413	0.0152528
883.491	0.0152023
883.569	0.0152825
883.647	0.0153452
883.725	0.0153056
883.803	0.0152882
883.881	0.0152634
883.959	0.0152230
884.038	0.0152678
884.116	0.0154375
884.194	0.0152853
884.272	0.0152443
884.350	0.0153759
884.428	0.0153611
884.506	0.0153621
884.584	0.0151733
884.663	0.0152361
884.741	0.0154530
884.819	0.0154095
884.897	0.0154021
884.975	0.0152864
885.053	0.0153972
885.131	0.0154189
885.209	0.0153693
885.288	0.0154414
885.366	0.0151880
885.444	0.0153436
885.522	0.0154145
885.600	0.0153433
885.678	0.0152664
885.756	0.0153200
885.834	0.0152081
885.913	0.0151910
885.991	0.0152287
886.069	0.0152528
886.147	0.0150243
886.225	0.0149754
886.303	0.0151199
886.381	0.0152237
886.459	0.0150598
886.538	0.0148914
886.616	0.0149973
886.694	0.0150048
886.772	0.0148629
886.850	0.0150101
886.928	0.0150598
887.006	0.0149728
887.084	0.0150771
887.163	0.0150690
887.241	0.0151132
887.319	0.0149731
887.397	0.0151239
887.475	0.0151480
887.553	0.0152114
887.631	0.0150832
887.709	0.0152282
887.788	0.0152174
887.866	0.0152176
887.944	0.0153429
888.022	0.0152586
888.100	0.0151396
888.178	0.0152454
888.256	0.0152626
888.334	0.0152255
888.413	0.0152406
888.491	0.0151664
888.569	0.0153157
888.647	0.0153677
888.725	0.0151736
888.803	0.0152425
888.881	0.0151160
888.959	0.0152102
889.038	0.0152061
889.116	0.0152296
889.194	0.0152525
889.272	0.0153693
889.350	0.0152030
889.428	0.0150983
889.506	0.0152059
889.584	0.0152404
889.663	0.0152773
889.741	0.0151531
889.819	0.0151363
889.897	0.0152109
889.975	0.0152924
890.053	0.0151755
890.131	0.0152045
890.209	0.0151377
890.288	0.0152203
890.366	0.0154135
890.444	0.0153297
890.522	0.0152598
890.600	0.0153433
890.678	0.0153300
890.756	0.0154046
890.834	0.0153430
890.913	0.0151905
890.991	0.0152826
891.069	0.0154348
891.147	0.0154607
891.225	0.0152396
891.303	0.0153503
891.381	0.0153264
891.459	0.0152527
891.538	0.0151749
891.616	0.0152435
891.694	0.0152389
891.772	0.0153394
891.850	0.0152093
891.928	0.0154107
892.006	0.0151814
892.084	0.0152010
892.163	0.0152282
892.241	0.0150645
892.319	0.0150851
892.397	0.0152229
892.475	0.0151698
892.553	0.0151354
892.631	0.0150496
892.709	0.0152306
892.788	0.0151328
892.866	0.0150851
892.944	0.0149728
893.022	0.0149136
893.100	0.0150037
893.178	0.0150544
893.256	0.0150354
893.334	0.0150130
893.413	0.0149208
893.491	0.0147872
893.569	0.0148841
893.647	0.0149159
893.725	0.0149325
893.803	0.0148833
893.881	0.0147907
893.959	0.0148230
894.038	0.0149641
894.116	0.0150198
894.194	0.0149077
894.272	0.0150386
894.350	0.0151495
894.428	0.0151384
894.506	0.0151349
894.584	0.0151888
894.663	0.0151525
894.741	0.0151621
894.819	0.0152819
894.897	0.0152270
894.975	0.0153298
895.053	0.0152570
895.131	0.0153539
895.209	0.0154321
895.288	0.0153599
895.366	0.0153860
895.444	0.0153404
895.522	0.0155650
895.600	0.0155733
895.678	0.0153687
895.756	0.0153097
895.834	0.0151505
895.913	0.0153487
895.991	0.0152386
896.069	0.0152596
896.147	0.0153767
896.225	0.0151743
896.303	0.0153074
896.381	0.0153629
896.459	0.0151980
896.538	0.0151336
896.616	0.0151557
896.694	0.0152822
896.772	0.0150394
896.850	0.0152035
896.928	0.0150920
897.006	0.0152973
897.084	0.0151862
897.163	0.0151625
897.241	0.0151776
897.319	0.0151406
897.397	0.0152061
897.475	0.0151970
897.553	0.0151601
897.631	0.0152609
897.709	0.0151309
897.788	0.0152208
897.866	0.0152483
897.944	0.0151733
898.022	0.0153477
898.100	0.0151500
898.178	0.0153024
898.256	0.0153233
898.334	0.0152966
898.413	0.0153324
898.491	0.0153233
898.569	0.0151156
898.647	0.0151210
898.725	0.0151496
898.803	0.0153398
898.881	0.0153424
898.959	0.0151907
899.038	0.0151733
899.116	0.0151745
899.194	0.0153930
899.272	0.0151920
899.350	0.0152184
899.428	0.0152311
899.506	0.0152214
899.584	0.0153334
899.663	0.0152518
899.741	0.0152156
899.819	0.0153583
899.897	0.0151754
899.975	0.0151875
900.053	0.0152921
900.131	0.0152186
900.209	0.0152409
900.288	0.0151399
900.366	0.0151587
900.444	0.0151990
900.522	0.0152508
900.600	0.0152168
900.678	0.0150690
900.756	0.0150816
900.834	0.0149633
900.913	0.0151539
900.991	0.0150490
901.069	0.0150320
901.147	0.0151891
901.225	0.0151462
901.303	0.0149617
901.381	0.0149426
901.459	0.0151027
901.538	0.0150722
901.616	0.0150279
901.694	0.0151157
901.772	0.0151189
901.850	0.0150428
901.928	0.0151289
902.006	0.0150679
902.084	0.0151742
902.163	0.0151047
902.241	0.0150449
902.319	0.0150300
902.397	0.0151075
902.475	0.0150388
902.553	0.0150204
902.631	0.0150344
902.709	0.0150727
902.788	0.0151726
902.866	0.0151898
902.944	0.0150546
903.022	0.0150700
903.100	0.0151500
903.178	0.0151580
903.256	0.0152657
903.334	0.0152524
903.413	0.0152902
903.491	0.0153040
903.569	0.0153674
903.647	0.0153735
903.725	0.0153473
903.803	0.0152922
903.881	0.0153365
903.959	0.0152161
904.038	0.0153063
904.116	0.0152554
904.194	0.0152391
904.272	0.0153252
904.350	0.0152194
904.428	0.0153230
904.506	0.0151742
904.584	0.0151788
904.663	0.0152618
904.741	0.0152403
904.819	0.0152184
904.897	0.0152440
904.975	0.0150964
905.053	0.0152248
905.131	0.0152962
905.209	0.0152121
905.288	0.0152332
905.366	0.0151853
905.444	0.0151526
905.522	0.0150912
905.600	0.0153265
905.678	0.0152210
905.756	0.0153146
905.834	0.0152150
905.913	0.0152668
905.991	0.0153329
906.069	0.0152650
906.147	0.0152191
906.225	0.0152063
906.303	0.0152618
906.381	0.0151681
906.459	0.0153925
906.538	0.0154211
906.616	0.0155032
906.694	0.0153159
906.772	0.0153112
906.850	0.0153722
906.928	0.0155428
907.006	0.0153434
907.084	0.0153255
907.163	0.0153382
907.241	0.0152972
907.319	0.0153159
907.397	0.0154041
907.475	0.0153358
907.553	0.0152752
907.631	0.0151441
907.709	0.0151271
907.788	0.0151377
907.866	0.0149660
907.944	0.0151167
908.022	0.0149866
908.100	0.0150523
908.178	0.0150502
908.256	0.0151640
908.334	0.0150411
908.413	0.0150177
908.491	0.0151530
908.569	0.0151568
908.647	0.0152879
908.725	0.0152214
908.803	0.0153876
908.881	0.0152496
908.959	0.0151361
909.038	0.0152308
909.116	0.0153445
909.194	0.0151906
909.272	0.0153442
909.350	0.0152896
909.428	0.0151837
909.506	0.0152982
909.584	0.0152082
909.663	0.0151184
909.741	0.0152269
909.819	0.0151361
909.897	0.0152868
909.975	0.0153300
910.053	0.0152647
910.131	0.0150108
910.209	0.0151945
910.288	0.0152805
910.366	0.0151538
910.444	0.0152479
910.522	0.0153032
910.600	0.0151563
910.678	0.0153751
910.756	0.0154298
910.834	0.0153873
910.913	0.0152793
910.991	0.0151279
911.069	0.0152589
911.147	0.0151043
911.225	0.0154004
911.303	0.0153101
911.381	0.0151662
911.459	0.0152123
911.538	0.0153044
911.616	0.0151741
911.694	0.0152465
911.772	0.0152930
911.850	0.0152593
911.928	0.0152673
912.006	0.0152702
912.084	0.0151565
912.163	0.0152182
912.241	0.0152408
912.319	0.0150609
912.397	0.0151453
912.475	0.0151802
912.553	0.0150634
912.631	0.0150706
912.709	0.0150294
912.788	0.0151475
912.866	0.0152096
912.944	0.0150694
913.022	0.0150946
913.100	0.0152803
913.178	0.0151340
913.256	0.0151186
913.334	0.0151625
913.413	0.0152048
913.491	0.0151677
913.569	0.0151167
913.647	0.0150758
913.725	0.0151750
913.803	0.0152033
913.881	0.0151631
913.959	0.0150249
914.038	0.0151100
914.116	0.0150813
914.194	0.0151707
914.272	0.0151813
914.350	0.0150111
914.428	0.0149845
914.506	0.0152576
914.584	0.0151479
914.663	0.0150787
914.741	0.0150562
914.819	0.0151313
914.897	0.0150641
914.975	0.0150227
915.053	0.0151248
915.131	0.0151271
915.209	0.0151485
915.288	0.0152553
915.366	0.0151669
915.444	0.0152988
915.522	0.0151094
915.600	0.0150513
915.678	0.0150697
915.756	0.0151734
915.834	0.0151210
915.913	0.0152197
915.991	0.0151073
916.069	0.0150900
916.147	0.0153402
916.225	0.0151998
916.303	0.0150966
916.381	0.0153725
916.459	0.0153258
916.538	0.0150057
916.616	0.0152107
916.694	0.0153416
916.772	0.0152411
916.850	0.0152225
916.928	0.0151639
917.006	0.0153309
917.084	0.0151435
917.163	0.0151702
917.241	0.0153319
917.319	0.0152430
917.397	0.0151210
917.475	0.0152088
917.553	0.0151402
917.631	0.0151169
917.709	0.0150562
917.788	0.0151340
917.866	0.0150872
917.944	0.0150827
918.022	0.0149876
918.100	0.0151131
918.178	0.0150719
918.256	0.0151661
918.334	0.0150269
918.413	0.0150515
918.491	0.0151445
918.569	0.0151839
918.647	0.0152624
918.725	0.0152417
918.803	0.0152236
918.881	0.0152332
918.959	0.0151409
919.038	0.0151328
919.116	0.0152113
919.194	0.0151974
919.272	0.0151745
919.350	0.0150410
919.428	0.0150613
919.506	0.0150919
919.584	0.0149881
919.663	0.0149061
919.741	0.0150481
919.819	0.0150171
919.897	0.0149452
