05/20/2022	21:25:09	Ver.	4.1	UNKNOWN
Optical Delay	599.975067	Delta X		0.078125	Sweeps	1	Scan Rate	0/0
Coordinates	Axis 1	NaN	Axis 2	NaN	Axis 3	NaN	Axis 4	NaN	Axis 5	NaN	Axis 6	0.000000
TX Power	0.000000	RX Power	0.000000

599.975	0.0150973
600.053	0.0152303
600.131	0.0152027
600.209	0.0153397
600.288	0.0151591
600.366	0.0151595
600.444	0.0152605
600.522	0.0152874
600.600	0.0152462
600.678	0.0153071
600.756	0.0153352
600.834	0.0152090
600.913	0.0152903
600.991	0.0153069
601.069	0.0153128
601.147	0.0153037
601.225	0.0153036
601.303	0.0151534
601.381	0.0153692
601.459	0.0154150
601.538	0.0153290
601.616	0.0152792
601.694	0.0153142
601.772	0.0153402
601.850	0.0152303
601.928	0.0151717
602.006	0.0152264
602.084	0.0153386
602.163	0.0154662
602.241	0.0151971
602.319	0.0153046
602.397	0.0151929
602.475	0.0153722
602.553	0.0152463
602.631	0.0152170
602.709	0.0153271
602.788	0.0151770
602.866	0.0152440
602.944	0.0152213
603.022	0.0152341
603.100	0.0150936
603.178	0.0151469
603.256	0.0152545
603.334	0.0152161
603.413	0.0151892
603.491	0.0152615
603.569	0.0152156
603.647	0.0152762
603.725	0.0152151
603.803	0.0151292
603.881	0.0152305
603.959	0.0152058
604.038	0.0151794
604.116	0.0151096
604.194	0.0152980
604.272	0.0151936
604.350	0.0151838
604.428	0.0151541
604.506	0.0152689
604.584	0.0152138
604.663	0.0152110
604.741	0.0152261
604.819	0.0151494
604.897	0.0151923
604.975	0.0151514
605.053	0.0151104
605.131	0.0152029
605.209	0.0151551
605.288	0.0151753
605.366	0.0152608
605.444	0.0152199
605.522	0.0152491
605.600	0.0151955
605.678	0.0150776
605.756	0.0152096
605.834	0.0152425
605.913	0.0151856
605.991	0.0151630
606.069	0.0151474
606.147	0.0151658
606.225	0.0151891
606.303	0.0152105
606.381	0.0150540
606.459	0.0150984
606.538	0.0151363
606.616	0.0151739
606.694	0.0150896
606.772	0.0150650
606.850	0.0151453
606.928	0.0151023
607.006	0.0151871
607.084	0.0151206
607.163	0.0151283
607.241	0.0151098
607.319	0.0150066
607.397	0.0151220
607.475	0.0149918
607.553	0.0150566
607.631	0.0149624
607.709	0.0151412
607.788	0.0151841
607.866	0.0149947
607.944	0.0150211
608.022	0.0149766
608.100	0.0150378
608.178	0.0148002
608.256	0.0150202
608.334	0.0150978
608.413	0.0150686
608.491	0.0151065
608.569	0.0151305
608.647	0.0150483
608.725	0.0150932
608.803	0.0150719
608.881	0.0151414
608.959	0.0150517
609.038	0.0152572
609.116	0.0152430
609.194	0.0151012
609.272	0.0150726
609.350	0.0150218
609.428	0.0152121
609.506	0.0151544
609.584	0.0151534
609.663	0.0151946
609.741	0.0151658
609.819	0.0151822
609.897	0.0151276
609.975	0.0151987
610.053	0.0150390
610.131	0.0151823
610.209	0.0151063
610.288	0.0150144
610.366	0.0151039
610.444	0.0151996
610.522	0.0150493
610.600	0.0149611
610.678	0.0149455
610.756	0.0149637
610.834	0.0150314
610.913	0.0150867
610.991	0.0150401
611.069	0.0151324
611.147	0.0149611
611.225	0.0150389
611.303	0.0150095
611.381	0.0149588
611.459	0.0147905
611.538	0.0150423
611.616	0.0152193
611.694	0.0150637
611.772	0.0150291
611.850	0.0149438
611.928	0.0150148
612.006	0.0148611
612.084	0.0150265
612.163	0.0149141
612.241	0.0149918
612.319	0.0150280
612.397	0.0149091
612.475	0.0148716
612.553	0.0150227
612.631	0.0150188
612.709	0.0149775
612.788	0.0149678
612.866	0.0149545
612.944	0.0148713
613.022	0.0148317
613.100	0.0148658
613.178	0.0148312
613.256	0.0150130
613.334	0.0149118
613.413	0.0147607
613.491	0.0148737
613.569	0.0149268
613.647	0.0149114
613.725	0.0148882
613.803	0.0150325
613.881	0.0149580
613.959	0.0149667
614.038	0.0148332
614.116	0.0149258
614.194	0.0150389
614.272	0.0150755
614.350	0.0149772
614.428	0.0149008
614.506	0.0149408
614.584	0.0149708
614.663	0.0151833
614.741	0.0148722
614.819	0.0149918
614.897	0.0149084
614.975	0.0151048
615.053	0.0150729
615.131	0.0151811
615.209	0.0150011
615.288	0.0150533
615.366	0.0151377
615.444	0.0150142
615.522	0.0150297
615.600	0.0149920
615.678	0.0150021
615.756	0.0150679
615.834	0.0150706
615.913	0.0151354
615.991	0.0151096
616.069	0.0151118
616.147	0.0149687
616.225	0.0150717
616.303	0.0151315
616.381	0.0152116
616.459	0.0152369
616.538	0.0152002
616.616	0.0150411
616.694	0.0150277
616.772	0.0149992
616.850	0.0152010
616.928	0.0150843
617.006	0.0151700
617.084	0.0150165
617.163	0.0150452
617.241	0.0152306
617.319	0.0152068
617.397	0.0152487
617.475	0.0150687
617.553	0.0151223
617.631	0.0152115
617.709	0.0151254
617.788	0.0151622
617.866	0.0151604
617.944	0.0151244
618.022	0.0152167
618.100	0.0151419
618.178	0.0150952
618.256	0.0151662
618.334	0.0151422
618.413	0.0151234
618.491	0.0151874
618.569	0.0152322
618.647	0.0152942
618.725	0.0151403
618.803	0.0151393
618.881	0.0151788
618.959	0.0152210
619.038	0.0151471
619.116	0.0151318
619.194	0.0151534
619.272	0.0152560
619.350	0.0152486
619.428	0.0151483
619.506	0.0151018
619.584	0.0151174
619.663	0.0151147
619.741	0.0152507
619.819	0.0151578
619.897	0.0152126
619.975	0.0149509
620.053	0.0151592
620.131	0.0150966
620.209	0.0150751
620.288	0.0152055
620.366	0.0150912
620.444	0.0151563
620.522	0.0151257
620.600	0.0150582
620.678	0.0150706
620.756	0.0150893
620.834	0.0150399
620.913	0.0150965
620.991	0.0150570
621.069	0.0150848
621.147	0.0151233
621.225	0.0152103
621.303	0.0150928
621.381	0.0150436
621.459	0.0150018
621.538	0.0150234
621.616	0.0150818
621.694	0.0149624
621.772	0.0150063
621.850	0.0150323
621.928	0.0151045
622.006	0.0151433
622.084	0.0150784
622.163	0.0151359
622.241	0.0149485
622.319	0.0150405
622.397	0.0149405
622.475	0.0151581
622.553	0.0150894
622.631	0.0150087
622.709	0.0149868
622.788	0.0149801
622.866	0.0149991
622.944	0.0151255
623.022	0.0151602
623.100	0.0150106
623.178	0.0150213
623.256	0.0149874
623.334	0.0150182
623.413	0.0151850
623.491	0.0152487
623.569	0.0152060
623.647	0.0151481
623.725	0.0150716
623.803	0.0151747
623.881	0.0151935
623.959	0.0151075
624.038	0.0152271
624.116	0.0151170
624.194	0.0150709
624.272	0.0151911
624.350	0.0151377
624.428	0.0152280
624.506	0.0152206
624.584	0.0152185
624.663	0.0152512
624.741	0.0152062
624.819	0.0150816
624.897	0.0151839
624.975	0.0151566
625.053	0.0153111
625.131	0.0152164
625.209	0.0152483
625.288	0.0151524
625.366	0.0151878
625.444	0.0151543
625.522	0.0152144
625.600	0.0151334
625.678	0.0152341
625.756	0.0153014
625.834	0.0152084
625.913	0.0151025
625.991	0.0150496
626.069	0.0152078
626.147	0.0153342
626.225	0.0152798
626.303	0.0151983
626.381	0.0152920
626.459	0.0151652
626.538	0.0152391
626.616	0.0151447
626.694	0.0151791
626.772	0.0151504
626.850	0.0151730
626.928	0.0151800
627.006	0.0151868
627.084	0.0152599
627.163	0.0151735
627.241	0.0151546
627.319	0.0152184
627.397	0.0150847
627.475	0.0152612
627.553	0.0152564
627.631	0.0151441
627.709	0.0151009
627.788	0.0151097
627.866	0.0151234
627.944	0.0152258
628.022	0.0151507
628.100	0.0150594
628.178	0.0149864
628.256	0.0151283
628.334	0.0150681
628.413	0.0150124
628.491	0.0149264
628.569	0.0151250
628.647	0.0149921
628.725	0.0150569
628.803	0.0150861
628.881	0.0150971
628.959	0.0150067
629.038	0.0149667
629.116	0.0149352
629.194	0.0150957
629.272	0.0151038
629.350	0.0152052
629.428	0.0150897
629.506	0.0149900
629.584	0.0150623
629.663	0.0152185
629.741	0.0151633
629.819	0.0151056
629.897	0.0151532
629.975	0.0151605
630.053	0.0151482
630.131	0.0150877
630.209	0.0152094
630.288	0.0153014
630.366	0.0151582
630.444	0.0151984
630.522	0.0151202
630.600	0.0153465
630.678	0.0152171
630.756	0.0153467
630.834	0.0153346
630.913	0.0152925
630.991	0.0152782
631.069	0.0153146
631.147	0.0153053
631.225	0.0153511
631.303	0.0152926
631.381	0.0151938
631.459	0.0153284
631.538	0.0153244
631.616	0.0153883
631.694	0.0153223
631.772	0.0152389
631.850	0.0153000
631.928	0.0153381
632.006	0.0154682
632.084	0.0153175
632.163	0.0153373
632.241	0.0153763
632.319	0.0152783
632.397	0.0153829
632.475	0.0153024
632.553	0.0151766
632.631	0.0153534
632.709	0.0153252
632.788	0.0152715
632.866	0.0152792
632.944	0.0152604
633.022	0.0152658
633.100	0.0151957
633.178	0.0151578
633.256	0.0151620
633.334	0.0152153
633.413	0.0151711
633.491	0.0151073
633.569	0.0151243
633.647	0.0151022
633.725	0.0151469
633.803	0.0151684
633.881	0.0151306
633.959	0.0150951
634.038	0.0150948
634.116	0.0150552
634.194	0.0150991
634.272	0.0151454
634.350	0.0151128
634.428	0.0152088
634.506	0.0150558
634.584	0.0150897
634.663	0.0151048
634.741	0.0149673
634.819	0.0150397
634.897	0.0149693
634.975	0.0151349
635.053	0.0150719
635.131	0.0149911
635.209	0.0150578
635.288	0.0151237
635.366	0.0149496
635.444	0.0149205
635.522	0.0149825
635.600	0.0151075
635.678	0.0150786
635.756	0.0151125
635.834	0.0150517
635.913	0.0150594
635.991	0.0149573
636.069	0.0152616
636.147	0.0151088
636.225	0.0150365
636.303	0.0150406
636.381	0.0150846
636.459	0.0149203
636.538	0.0150513
636.616	0.0151245
636.694	0.0149834
636.772	0.0148513
636.850	0.0150319
636.928	0.0151324
637.006	0.0149915
637.084	0.0151184
637.163	0.0150492
637.241	0.0149644
637.319	0.0148582
637.397	0.0148101
637.475	0.0148608
637.553	0.0150066
637.631	0.0148937
637.709	0.0149412
637.788	0.0149734
637.866	0.0148851
637.944	0.0149675
638.022	0.0151096
638.100	0.0150607
638.178	0.0150208
638.256	0.0148756
638.334	0.0147626
638.413	0.0150231
638.491	0.0149992
638.569	0.0150034
638.647	0.0150702
638.725	0.0150885
638.803	0.0151080
638.881	0.0149168
638.959	0.0149282
639.038	0.0151422
639.116	0.0150082
639.194	0.0151121
639.272	0.0150548
639.350	0.0151078
639.428	0.0149900
639.506	0.0151527
639.584	0.0151605
639.663	0.0150450
639.741	0.0150459
639.819	0.0151426
639.897	0.0150572
639.975	0.0149982
640.053	0.0151821
640.131	0.0151486
640.209	0.0151353
640.288	0.0150874
640.366	0.0151151
640.444	0.0151080
640.522	0.0150928
640.600	0.0150851
640.678	0.0150593
640.756	0.0150811
640.834	0.0151475
640.913	0.0150958
640.991	0.0151680
641.069	0.0150117
641.147	0.0151611
641.225	0.0152210
641.303	0.0151131
641.381	0.0153153
641.459	0.0151099
641.538	0.0150316
641.616	0.0150974
641.694	0.0150729
641.772	0.0150740
641.850	0.0151290
641.928	0.0150671
642.006	0.0151981
642.084	0.0152014
642.163	0.0150975
642.241	0.0152235
642.319	0.0152653
642.397	0.0150912
642.475	0.0150905
642.553	0.0150795
642.631	0.0151528
642.709	0.0152715
642.788	0.0151096
642.866	0.0151203
642.944	0.0150737
643.022	0.0151418
643.100	0.0151720
643.178	0.0152375
643.256	0.0151823
643.334	0.0151773
643.413	0.0150845
643.491	0.0152913
643.569	0.0151476
643.647	0.0152866
643.725	0.0153071
643.803	0.0153080
643.881	0.0150602
643.959	0.0151152
644.038	0.0150713
644.116	0.0151472
644.194	0.0152769
644.272	0.0152235
644.350	0.0152969
644.428	0.0151332
644.506	0.0151736
644.584	0.0151749
644.663	0.0152476
644.741	0.0152980
644.819	0.0151109
644.897	0.0151415
644.975	0.0152026
645.053	0.0151237
645.131	0.0151082
645.209	0.0150534
645.288	0.0151624
645.366	0.0152100
645.444	0.0151726
645.522	0.0151167
645.600	0.0152339
645.678	0.0151390
645.756	0.0150449
645.834	0.0150115
645.913	0.0151254
645.991	0.0151559
646.069	0.0151067
646.147	0.0151105
646.225	0.0151035
646.303	0.0149144
646.381	0.0149297
646.459	0.0150977
646.538	0.0149564
646.616	0.0150499
646.694	0.0151338
646.772	0.0150344
646.850	0.0149682
646.928	0.0149505
647.006	0.0151327
647.084	0.0150163
647.163	0.0148573
647.241	0.0151335
647.319	0.0149557
647.397	0.0149773
647.475	0.0148892
647.553	0.0151040
647.631	0.0150238
647.709	0.0150151
647.788	0.0149901
647.866	0.0149075
647.944	0.0150535
648.022	0.0149586
648.100	0.0150740
648.178	0.0150829
648.256	0.0148610
648.334	0.0149363
648.413	0.0148121
648.491	0.0148920
648.569	0.0148341
648.647	0.0148527
648.725	0.0148747
648.803	0.0148709
648.881	0.0149194
648.959	0.0148637
649.038	0.0150246
649.116	0.0149054
649.194	0.0149312
649.272	0.0150063
649.350	0.0151312
649.428	0.0150000
649.506	0.0150078
649.584	0.0150600
649.663	0.0150790
649.741	0.0151205
649.819	0.0151669
649.897	0.0150883
649.975	0.0150509
650.053	0.0151140
650.131	0.0152205
650.209	0.0151183
650.288	0.0150952
650.366	0.0151952
650.444	0.0151442
650.522	0.0152919
650.600	0.0151608
650.678	0.0153468
650.756	0.0152044
650.834	0.0152271
650.913	0.0152678
650.991	0.0152454
651.069	0.0151399
651.147	0.0151276
651.225	0.0152082
651.303	0.0153252
651.381	0.0152733
651.459	0.0152284
651.538	0.0152068
651.616	0.0151332
651.694	0.0152814
651.772	0.0153531
651.850	0.0152953
651.928	0.0154707
652.006	0.0153298
652.084	0.0153148
652.163	0.0153185
652.241	0.0150633
652.319	0.0152135
652.397	0.0152309
652.475	0.0151752
652.553	0.0152045
652.631	0.0152534
652.709	0.0151443
652.788	0.0151923
652.866	0.0150626
652.944	0.0150640
653.022	0.0150812
653.100	0.0150734
653.178	0.0149686
653.256	0.0151469
653.334	0.0150452
653.413	0.0150658
653.491	0.0151692
653.569	0.0150911
653.647	0.0148201
653.725	0.0151355
653.803	0.0150398
653.881	0.0149703
653.959	0.0150454
654.038	0.0150314
654.116	0.0150403
654.194	0.0150310
654.272	0.0149542
654.350	0.0150450
654.428	0.0152164
654.506	0.0151550
654.584	0.0151057
654.663	0.0152450
654.741	0.0151590
654.819	0.0150584
654.897	0.0151463
654.975	0.0153259
655.053	0.0151649
655.131	0.0151634
655.209	0.0152441
655.288	0.0150919
655.366	0.0152027
655.444	0.0152042
655.522	0.0150931
655.600	0.0151175
655.678	0.0150333
655.756	0.0151042
655.834	0.0150887
655.913	0.0151025
655.991	0.0151823
656.069	0.0150333
656.147	0.0149187
656.225	0.0151111
656.303	0.0151956
656.381	0.0150935
656.459	0.0151968
656.538	0.0152250
656.616	0.0150709
656.694	0.0152347
656.772	0.0151465
656.850	0.0151775
656.928	0.0152612
657.006	0.0151879
657.084	0.0151398
657.163	0.0152424
657.241	0.0151641
657.319	0.0150940
657.397	0.0151225
657.475	0.0149695
657.553	0.0149594
657.631	0.0150008
657.709	0.0148690
657.788	0.0148083
657.866	0.0148975
657.944	0.0148641
658.022	0.0147465
658.100	0.0148774
658.178	0.0148542
658.256	0.0148495
658.334	0.0148713
658.413	0.0148768
658.491	0.0148823
658.569	0.0150173
658.647	0.0151122
658.725	0.0152039
658.803	0.0151525
658.881	0.0152102
658.959	0.0152329
659.038	0.0152586
659.116	0.0152126
659.194	0.0151393
659.272	0.0150995
659.350	0.0151381
659.428	0.0150863
659.506	0.0151079
659.584	0.0150270
659.663	0.0149653
659.741	0.0150383
659.819	0.0149569
659.897	0.0149561
659.975	0.0148260
660.053	0.0148808
660.131	0.0149300
660.209	0.0149172
660.288	0.0150038
660.366	0.0150497
660.444	0.0151147
660.522	0.0149525
660.600	0.0150064
660.678	0.0149641
660.756	0.0150513
660.834	0.0152449
660.913	0.0151792
660.991	0.0151871
661.069	0.0152344
661.147	0.0152922
661.225	0.0153056
661.303	0.0153928
661.381	0.0152307
661.459	0.0153937
661.538	0.0154861
661.616	0.0154855
661.694	0.0155235
661.772	0.0155304
661.850	0.0154494
661.928	0.0154454
662.006	0.0153911
662.084	0.0154387
662.163	0.0153474
662.241	0.0152182
662.319	0.0151661
662.397	0.0152327
662.475	0.0150089
662.553	0.0148139
662.631	0.0148968
662.709	0.0147372
662.788	0.0146851
662.866	0.0145651
662.944	0.0144593
663.022	0.0145021
663.100	0.0144923
663.178	0.0144494
663.256	0.0145075
663.334	0.0146730
663.413	0.0147309
663.491	0.0146691
663.569	0.0145592
663.647	0.0148792
663.725	0.0149376
663.803	0.0148841
663.881	0.0150784
663.959	0.0151284
664.038	0.0153612
664.116	0.0152464
664.194	0.0153686
664.272	0.0154323
664.350	0.0155771
664.428	0.0156408
664.506	0.0157188
664.584	0.0156141
664.663	0.0156433
664.741	0.0155957
664.819	0.0158270
664.897	0.0156302
664.975	0.0156979
665.053	0.0157093
665.131	0.0156760
665.209	0.0156327
665.288	0.0155746
665.366	0.0157063
665.444	0.0154939
665.522	0.0154885
665.600	0.0152345
665.678	0.0151651
665.756	0.0151554
665.834	0.0151685
665.913	0.0149667
665.991	0.0148893
666.069	0.0148943
666.147	0.0148289
666.225	0.0146818
666.303	0.0147460
666.381	0.0148267
666.459	0.0147839
666.538	0.0147153
666.616	0.0145886
666.694	0.0146428
666.772	0.0147713
666.850	0.0146876
666.928	0.0145740
667.006	0.0145097
667.084	0.0147645
667.163	0.0147097
667.241	0.0146141
667.319	0.0148080
667.397	0.0144774
667.475	0.0145832
667.553	0.0145648
667.631	0.0147536
667.709	0.0145403
667.788	0.0145222
667.866	0.0146183
667.944	0.0145041
668.022	0.0146476
668.100	0.0146886
668.178	0.0146257
668.256	0.0148524
668.334	0.0149037
668.413	0.0150612
668.491	0.0150142
668.569	0.0151885
668.647	0.0154121
668.725	0.0152395
668.803	0.0154909
668.881	0.0155486
668.959	0.0155871
669.038	0.0154443
669.116	0.0157447
669.194	0.0158797
669.272	0.0157859
669.350	0.0157965
669.428	0.0157602
669.506	0.0158412
669.584	0.0157589
669.663	0.0158548
669.741	0.0158645
669.819	0.0158179
669.897	0.0157526
669.975	0.0156310
670.053	0.0155158
670.131	0.0154623
670.209	0.0154211
670.288	0.0152500
670.366	0.0151872
670.444	0.0150214
670.522	0.0148119
670.600	0.0146872
670.678	0.0144170
670.756	0.0142525
670.834	0.0140998
670.913	0.0140932
670.991	0.0139541
671.069	0.0136913
671.147	0.0135737
671.225	0.0135662
671.303	0.0135889
671.381	0.0135344
671.459	0.0133427
671.538	0.0134004
671.616	0.0136777
671.694	0.0135115
671.772	0.0137283
671.850	0.0138564
671.928	0.0138864
672.006	0.0141733
672.084	0.0142526
672.163	0.0144206
672.241	0.0146385
672.319	0.0147456
672.397	0.0149454
672.475	0.0152273
672.553	0.0153519
672.631	0.0154228
672.709	0.0154872
672.788	0.0155920
672.866	0.0156956
672.944	0.0159345
673.022	0.0159718
673.100	0.0160075
673.178	0.0161619
673.256	0.0162201
673.334	0.0161971
673.413	0.0161116
673.491	0.0162673
673.569	0.0163004
673.647	0.0161006
673.725	0.0161948
673.803	0.0161311
673.881	0.0162478
673.959	0.0160250
674.038	0.0161037
674.116	0.0160123
674.194	0.0161673
674.272	0.0161044
674.350	0.0160577
674.428	0.0161289
674.506	0.0159909
674.584	0.0159888
674.663	0.0159874
674.741	0.0159427
674.819	0.0157462
674.897	0.0158085
674.975	0.0155927
675.053	0.0154591
675.131	0.0153153
675.209	0.0152329
675.288	0.0153049
675.366	0.0150069
675.444	0.0148751
675.522	0.0147960
675.600	0.0146481
675.678	0.0145112
675.756	0.0144218
675.834	0.0142143
675.913	0.0140210
675.991	0.0138989
676.069	0.0138300
676.147	0.0136893
676.225	0.0135791
676.303	0.0133964
676.381	0.0133700
676.459	0.0132171
676.538	0.0133658
676.616	0.0134493
676.694	0.0134765
676.772	0.0135104
676.850	0.0136782
676.928	0.0137193
677.006	0.0137878
677.084	0.0139986
677.163	0.0142351
677.241	0.0143993
677.319	0.0144109
677.397	0.0146364
677.475	0.0149902
677.553	0.0152039
677.631	0.0153117
677.709	0.0155472
677.788	0.0157660
677.866	0.0160193
677.944	0.0162566
678.022	0.0163336
678.100	0.0165330
678.178	0.0166404
678.256	0.0165954
678.334	0.0167490
678.413	0.0169249
678.491	0.0169498
678.569	0.0169334
678.647	0.0167821
678.725	0.0168678
678.803	0.0166856
678.881	0.0167902
678.959	0.0166632
679.038	0.0163326
679.116	0.0161701
679.194	0.0160413
679.272	0.0159120
679.350	0.0155196
679.428	0.0154649
679.506	0.0151717
679.584	0.0150744
679.663	0.0148468
679.741	0.0147243
679.819	0.0145895
679.897	0.0142784
679.975	0.0142278
680.053	0.0140135
680.131	0.0139927
680.209	0.0138145
680.288	0.0138293
680.366	0.0136932
680.444	0.0138057
680.522	0.0137113
680.600	0.0136883
680.678	0.0137713
680.756	0.0137523
680.834	0.0138656
680.913	0.0139079
680.991	0.0140059
681.069	0.0140833
681.147	0.0141990
681.225	0.0143150
681.303	0.0144264
681.381	0.0146207
681.459	0.0147949
681.538	0.0149831
681.616	0.0149435
681.694	0.0149374
681.772	0.0151339
681.850	0.0154227
681.928	0.0155093
682.006	0.0155920
682.084	0.0154710
682.163	0.0156419
682.241	0.0158391
682.319	0.0159715
682.397	0.0159386
682.475	0.0159035
682.553	0.0158837
682.631	0.0158418
682.709	0.0158051
682.788	0.0159428
682.866	0.0157406
682.944	0.0157015
683.022	0.0155148
683.100	0.0154517
683.178	0.0153999
683.256	0.0154111
683.334	0.0151868
683.413	0.0151060
683.491	0.0150655
683.569	0.0149134
683.647	0.0148457
683.725	0.0147199
683.803	0.0146072
683.881	0.0145380
683.959	0.0143710
684.038	0.0142875
684.116	0.0143682
684.194	0.0143711
684.272	0.0145077
684.350	0.0143999
684.428	0.0144667
684.506	0.0145335
684.584	0.0147456
684.663	0.0148729
684.741	0.0150120
684.819	0.0150758
684.897	0.0151477
684.975	0.0152397
685.053	0.0153813
685.131	0.0153513
685.209	0.0156376
685.288	0.0156365
685.366	0.0156929
685.444	0.0158230
685.522	0.0157571
685.600	0.0158405
685.678	0.0159326
685.756	0.0160132
685.834	0.0158915
685.913	0.0158350
685.991	0.0158957
686.069	0.0158866
686.147	0.0158447
686.225	0.0156896
686.303	0.0155729
686.381	0.0156043
686.459	0.0154076
686.538	0.0151757
686.616	0.0151154
686.694	0.0150880
686.772	0.0148606
686.850	0.0148985
686.928	0.0146906
687.006	0.0146921
687.084	0.0145132
687.163	0.0145330
687.241	0.0144602
687.319	0.0144498
687.397	0.0144528
687.475	0.0143751
687.553	0.0145207
687.631	0.0144756
687.709	0.0143001
687.788	0.0144203
687.866	0.0146249
687.944	0.0147109
688.022	0.0145693
688.100	0.0145589
688.178	0.0146406
688.256	0.0148271
688.334	0.0146836
688.413	0.0148280
688.491	0.0148264
688.569	0.0148479
688.647	0.0148115
688.725	0.0148634
688.803	0.0149289
688.881	0.0149686
688.959	0.0149593
689.038	0.0147810
689.116	0.0148393
689.194	0.0149229
689.272	0.0148431
689.350	0.0149705
689.428	0.0149657
689.506	0.0148804
689.584	0.0147176
689.663	0.0147527
689.741	0.0146542
689.819	0.0146752
689.897	0.0146986
689.975	0.0145108
690.053	0.0145824
690.131	0.0146157
690.209	0.0145515
690.288	0.0145264
690.366	0.0144402
690.444	0.0145632
690.522	0.0144996
690.600	0.0145491
690.678	0.0145226
690.756	0.0147343
690.834	0.0146600
690.913	0.0149477
690.991	0.0148692
691.069	0.0148380
691.147	0.0149950
691.225	0.0151435
691.303	0.0152415
691.381	0.0154394
691.459	0.0156110
691.538	0.0156237
691.616	0.0155971
691.694	0.0157796
691.772	0.0160576
691.850	0.0161890
691.928	0.0162666
692.006	0.0163123
692.084	0.0164266
692.163	0.0166054
692.241	0.0164520
692.319	0.0166634
692.397	0.0168168
692.475	0.0169261
692.553	0.0168378
692.631	0.0169020
692.709	0.0169851
692.788	0.0169733
692.866	0.0169090
692.944	0.0167686
693.022	0.0166547
693.100	0.0164959
693.178	0.0164106
693.256	0.0162759
693.334	0.0159286
693.413	0.0155969
693.491	0.0154601
693.569	0.0151276
693.647	0.0148584
693.725	0.0144419
693.803	0.0142110
693.881	0.0139614
693.959	0.0136937
694.038	0.0133812
694.116	0.0132227
694.194	0.0130978
694.272	0.0129063
694.350	0.0127340
694.428	0.0126720
694.506	0.0124368
694.584	0.0123891
694.663	0.0124450
694.741	0.0124045
694.819	0.0123801
694.897	0.0123566
694.975	0.0123554
695.053	0.0126308
695.131	0.0127245
695.209	0.0128787
695.288	0.0131387
695.366	0.0134397
695.444	0.0138071
695.522	0.0140833
695.600	0.0144080
695.678	0.0148000
695.756	0.0150214
695.834	0.0154676
695.913	0.0157711
695.991	0.0160171
696.069	0.0163206
696.147	0.0164779
696.225	0.0167211
696.303	0.0168881
696.381	0.0170541
696.459	0.0171488
696.538	0.0173391
696.616	0.0174733
696.694	0.0175142
696.772	0.0175614
696.850	0.0178302
696.928	0.0178393
697.006	0.0178207
697.084	0.0178323
697.163	0.0176031
697.241	0.0176924
697.319	0.0175443
697.397	0.0175604
697.475	0.0173493
697.553	0.0171404
697.631	0.0168553
697.709	0.0166631
697.788	0.0163882
697.866	0.0161691
697.944	0.0160184
698.022	0.0157383
698.100	0.0153972
698.178	0.0152106
698.256	0.0149056
698.334	0.0147590
698.413	0.0143551
698.491	0.0142101
698.569	0.0138595
698.647	0.0135528
698.725	0.0134079
698.803	0.0132932
698.881	0.0130272
698.959	0.0129021
699.038	0.0127332
699.116	0.0127202
699.194	0.0124130
699.272	0.0124556
699.350	0.0124274
699.428	0.0124536
699.506	0.0125572
699.584	0.0126274
699.663	0.0127402
699.741	0.0127551
699.819	0.0128356
699.897	0.0131019
699.975	0.0131867
700.053	0.0133813
700.131	0.0135929
700.209	0.0138641
700.288	0.0138996
700.366	0.0140933
700.444	0.0143649
700.522	0.0145190
700.600	0.0147398
700.678	0.0151305
700.756	0.0152635
700.834	0.0155505
700.913	0.0160001
700.991	0.0161121
701.069	0.0163398
701.147	0.0165800
701.225	0.0168237
701.303	0.0168919
701.381	0.0170525
701.459	0.0170937
701.538	0.0171429
701.616	0.0170748
701.694	0.0170858
701.772	0.0169440
701.850	0.0168222
701.928	0.0166824
702.006	0.0166755
702.084	0.0165312
702.163	0.0161701
702.241	0.0161726
702.319	0.0158392
702.397	0.0158335
702.475	0.0157211
702.553	0.0156148
702.631	0.0154732
702.709	0.0152231
702.788	0.0153141
702.866	0.0151473
702.944	0.0150564
703.022	0.0150189
703.100	0.0148632
703.178	0.0150195
703.256	0.0150423
703.334	0.0149991
703.413	0.0150044
703.491	0.0148454
703.569	0.0147878
703.647	0.0151023
703.725	0.0150648
703.803	0.0151402
703.881	0.0151741
703.959	0.0149683
704.038	0.0150184
704.116	0.0149622
704.194	0.0149944
704.272	0.0150250
704.350	0.0148992
704.428	0.0147639
704.506	0.0145152
704.584	0.0146542
704.663	0.0145168
704.741	0.0143320
704.819	0.0141322
704.897	0.0140515
704.975	0.0139870
705.053	0.0138354
705.131	0.0138394
705.209	0.0137670
705.288	0.0137157
705.366	0.0137268
705.444	0.0137458
705.522	0.0137851
705.600	0.0140073
705.678	0.0141142
705.756	0.0142693
705.834	0.0143886
705.913	0.0145934
705.991	0.0147123
706.069	0.0147927
706.147	0.0150786
706.225	0.0153559
706.303	0.0154811
706.381	0.0157246
706.459	0.0158197
706.538	0.0160453
706.616	0.0161958
706.694	0.0162450
706.772	0.0162561
706.850	0.0164723
706.928	0.0164242
707.006	0.0165771
707.084	0.0166242
707.163	0.0166029
707.241	0.0166880
707.319	0.0165002
707.397	0.0163805
707.475	0.0164040
707.553	0.0164209
707.631	0.0160699
707.709	0.0160765
707.788	0.0159287
707.866	0.0157536
707.944	0.0155491
708.022	0.0155775
708.100	0.0154271
708.178	0.0152671
708.256	0.0152370
708.334	0.0150306
708.413	0.0148635
708.491	0.0148479
708.569	0.0146465
708.647	0.0146020
708.725	0.0145255
708.803	0.0142954
708.881	0.0144364
708.959	0.0143211
709.038	0.0143823
709.116	0.0143860
709.194	0.0144115
709.272	0.0144439
709.350	0.0142848
709.428	0.0145838
709.506	0.0146159
709.584	0.0146011
709.663	0.0147085
709.741	0.0147667
709.819	0.0147678
709.897	0.0149290
709.975	0.0150407
710.053	0.0149908
710.131	0.0148055
710.209	0.0148262
710.288	0.0149806
710.366	0.0148844
710.444	0.0149262
710.522	0.0147286
710.600	0.0149000
710.678	0.0146939
710.756	0.0145466
710.834	0.0147417
710.913	0.0146857
710.991	0.0147281
711.069	0.0145075
711.147	0.0145831
711.225	0.0148533
711.303	0.0148294
711.381	0.0147652
711.459	0.0151202
711.538	0.0150938
711.616	0.0152299
711.694	0.0153314
711.772	0.0153861
711.850	0.0154615
711.928	0.0152715
712.006	0.0155054
712.084	0.0155651
712.163	0.0156439
712.241	0.0157239
712.319	0.0158338
712.397	0.0156398
712.475	0.0157503
712.553	0.0158121
712.631	0.0157948
712.709	0.0159754
712.788	0.0159212
712.866	0.0158923
712.944	0.0156864
713.022	0.0157474
713.100	0.0157179
713.178	0.0153499
713.256	0.0154121
713.334	0.0151227
713.413	0.0151353
713.491	0.0147981
713.569	0.0146855
713.647	0.0145329
713.725	0.0144302
713.803	0.0144507
713.881	0.0143761
713.959	0.0145188
714.038	0.0145717
714.116	0.0142834
714.194	0.0143015
714.272	0.0145610
714.350	0.0145700
714.428	0.0146307
714.506	0.0146313
714.584	0.0147979
714.663	0.0147892
714.741	0.0146029
714.819	0.0148067
714.897	0.0149139
714.975	0.0149049
715.053	0.0148272
715.131	0.0149712
715.209	0.0149306
715.288	0.0150365
715.366	0.0150048
715.444	0.0151160
715.522	0.0149857
715.600	0.0149131
715.678	0.0149462
715.756	0.0148188
715.834	0.0147810
715.913	0.0147070
715.991	0.0147488
716.069	0.0143565
716.147	0.0144179
716.225	0.0144124
716.303	0.0144057
716.381	0.0144862
716.459	0.0143079
716.538	0.0144296
716.616	0.0145538
716.694	0.0145975
716.772	0.0145895
716.850	0.0148388
716.928	0.0148373
717.006	0.0150910
717.084	0.0152422
717.163	0.0154516
717.241	0.0154344
717.319	0.0157010
717.397	0.0156702
717.475	0.0157820
717.553	0.0159576
717.631	0.0159807
717.709	0.0158827
717.788	0.0158490
717.866	0.0160452
717.944	0.0162583
718.022	0.0162887
718.100	0.0162193
718.178	0.0162055
718.256	0.0162583
718.334	0.0162921
718.413	0.0161325
718.491	0.0162016
718.569	0.0162312
718.647	0.0161156
718.725	0.0159280
718.803	0.0159138
718.881	0.0157734
718.959	0.0157201
719.038	0.0156189
719.116	0.0154341
719.194	0.0153968
719.272	0.0154539
719.350	0.0153735
719.428	0.0152143
719.506	0.0152409
719.584	0.0152478
719.663	0.0152180
719.741	0.0151386
719.819	0.0149860
719.897	0.0149470
719.975	0.0149485
720.053	0.0149489
720.131	0.0146718
720.209	0.0145826
720.288	0.0145019
720.366	0.0143451
720.444	0.0144392
720.522	0.0142818
720.600	0.0140183
720.678	0.0141289
720.756	0.0139693
720.834	0.0139895
720.913	0.0139343
720.991	0.0138544
721.069	0.0139345
721.147	0.0137849
721.225	0.0139160
721.303	0.0136614
721.381	0.0138714
721.459	0.0138663
721.538	0.0140542
721.616	0.0141696
721.694	0.0142066
721.772	0.0143922
721.850	0.0142554
721.928	0.0145209
722.006	0.0148074
722.084	0.0149976
722.163	0.0151759
722.241	0.0154697
722.319	0.0156126
722.397	0.0158102
722.475	0.0159423
722.553	0.0161070
722.631	0.0163062
722.709	0.0164635
722.788	0.0165508
722.866	0.0166804
722.944	0.0167006
723.022	0.0167290
723.100	0.0168279
723.178	0.0166769
723.256	0.0165969
723.334	0.0165916
723.413	0.0164147
723.491	0.0165994
723.569	0.0164086
723.647	0.0162291
723.725	0.0159800
723.803	0.0158858
723.881	0.0157307
723.959	0.0157533
724.038	0.0153035
724.116	0.0152573
724.194	0.0152389
724.272	0.0150497
724.350	0.0150011
724.428	0.0147301
724.506	0.0145512
724.584	0.0144878
724.663	0.0143168
724.741	0.0140885
724.819	0.0141675
724.897	0.0141132
724.975	0.0140808
725.053	0.0139572
725.131	0.0139187
725.209	0.0140774
725.288	0.0139270
725.366	0.0141943
725.444	0.0141351
725.522	0.0142356
725.600	0.0141515
725.678	0.0141169
725.756	0.0143731
725.834	0.0142606
725.913	0.0142667
725.991	0.0143465
726.069	0.0144286
726.147	0.0144523
726.225	0.0145361
726.303	0.0147199
726.381	0.0148559
726.459	0.0149659
726.538	0.0150378
726.616	0.0152490
726.694	0.0154492
726.772	0.0154457
726.850	0.0157027
726.928	0.0156932
727.006	0.0157324
727.084	0.0158273
727.163	0.0158209
727.241	0.0157305
727.319	0.0157640
727.397	0.0157565
727.475	0.0155177
727.553	0.0153599
727.631	0.0152309
727.709	0.0153085
727.788	0.0151867
727.866	0.0150159
727.944	0.0149641
728.022	0.0148338
728.100	0.0148009
728.178	0.0146876
728.256	0.0145737
728.334	0.0146217
728.413	0.0145940
728.491	0.0146729
728.569	0.0146656
728.647	0.0147187
728.725	0.0147099
728.803	0.0147615
728.881	0.0147433
728.959	0.0148659
729.038	0.0148852
729.116	0.0149795
729.194	0.0149413
729.272	0.0150814
729.350	0.0151505
729.428	0.0152693
729.506	0.0153295
729.584	0.0153330
729.663	0.0154340
729.741	0.0155145
729.819	0.0155576
729.897	0.0155482
729.975	0.0155730
730.053	0.0157330
730.131	0.0156590
730.209	0.0157536
730.288	0.0158427
730.366	0.0156924
730.444	0.0156185
730.522	0.0157351
730.600	0.0156461
730.678	0.0154943
730.756	0.0156713
730.834	0.0154112
730.913	0.0154067
730.991	0.0152812
731.069	0.0151871
731.147	0.0150822
731.225	0.0149649
731.303	0.0148385
731.381	0.0147057
731.459	0.0145918
731.538	0.0145224
731.616	0.0143485
731.694	0.0142038
731.772	0.0141703
731.850	0.0141885
731.928	0.0141383
732.006	0.0139951
732.084	0.0140123
732.163	0.0140926
732.241	0.0141812
732.319	0.0143235
732.397	0.0144402
732.475	0.0144917
732.553	0.0144926
732.631	0.0147332
732.709	0.0146576
732.788	0.0148364
732.866	0.0149628
732.944	0.0151885
733.022	0.0152559
733.100	0.0153798
733.178	0.0155503
733.256	0.0156544
733.334	0.0158540
733.413	0.0159801
733.491	0.0160191
733.569	0.0161462
733.647	0.0162084
733.725	0.0164101
733.803	0.0163614
733.881	0.0164137
733.959	0.0163161
734.038	0.0160681
734.116	0.0160370
734.194	0.0160029
734.272	0.0158292
734.350	0.0156691
734.428	0.0155477
734.506	0.0153905
734.584	0.0150999
734.663	0.0150196
734.741	0.0148166
734.819	0.0146474
734.897	0.0145256
734.975	0.0145155
735.053	0.0145030
735.131	0.0144963
735.209	0.0144577
735.288	0.0141882
735.366	0.0141227
735.444	0.0142136
735.522	0.0141376
735.600	0.0142448
735.678	0.0142580
735.756	0.0143658
735.834	0.0145019
735.913	0.0146313
735.991	0.0147354
736.069	0.0148385
736.147	0.0150774
736.225	0.0149903
736.303	0.0152357
736.381	0.0152766
736.459	0.0155338
736.538	0.0157949
736.616	0.0158456
736.694	0.0157996
736.772	0.0158772
736.850	0.0158974
736.928	0.0159127
737.006	0.0160139
737.084	0.0159772
737.163	0.0157954
737.241	0.0159362
737.319	0.0159827
737.397	0.0157618
737.475	0.0156669
737.553	0.0157790
737.631	0.0155594
737.709	0.0156635
737.788	0.0155802
737.866	0.0155276
737.944	0.0156540
738.022	0.0154655
738.100	0.0152638
738.178	0.0152097
738.256	0.0151829
738.334	0.0152059
738.413	0.0150745
738.491	0.0151289
738.569	0.0150739
738.647	0.0148135
738.725	0.0148053
738.803	0.0147777
738.881	0.0146703
738.959	0.0146457
739.038	0.0145926
739.116	0.0144989
739.194	0.0143300
739.272	0.0143381
739.350	0.0144217
739.428	0.0143092
739.506	0.0142889
739.584	0.0144803
739.663	0.0143256
739.741	0.0142508
739.819	0.0142885
739.897	0.0143239
739.975	0.0144236
740.053	0.0144807
740.131	0.0145416
740.209	0.0146780
740.288	0.0147180
740.366	0.0148789
740.444	0.0151052
740.522	0.0150988
740.600	0.0152158
740.678	0.0154745
740.756	0.0153851
740.834	0.0155904
740.913	0.0157446
740.991	0.0158118
741.069	0.0159194
741.147	0.0158626
741.225	0.0157885
741.303	0.0159279
741.381	0.0158561
741.459	0.0157278
741.538	0.0158913
741.616	0.0158675
741.694	0.0156975
741.772	0.0156093
741.850	0.0156838
741.928	0.0155637
742.006	0.0154115
742.084	0.0154614
742.163	0.0153321
742.241	0.0152595
742.319	0.0152598
742.397	0.0151777
742.475	0.0150719
742.553	0.0150569
742.631	0.0153217
742.709	0.0151337
742.788	0.0149968
742.866	0.0150283
742.944	0.0150705
743.022	0.0152098
743.100	0.0150686
743.178	0.0148598
743.256	0.0149186
743.334	0.0148160
743.413	0.0147632
743.491	0.0146426
743.569	0.0144942
743.647	0.0142955
743.725	0.0141833
743.803	0.0141602
743.881	0.0139944
743.959	0.0138989
744.038	0.0137018
744.116	0.0136790
744.194	0.0136650
744.272	0.0134884
744.350	0.0135435
744.428	0.0135451
744.506	0.0135914
744.584	0.0136648
744.663	0.0138641
744.741	0.0139931
744.819	0.0141959
744.897	0.0142551
744.975	0.0145322
745.053	0.0146920
745.131	0.0148255
745.209	0.0150332
745.288	0.0153156
745.366	0.0155614
745.444	0.0156384
745.522	0.0158760
745.600	0.0160731
745.678	0.0162086
745.756	0.0164328
745.834	0.0165039
745.913	0.0165194
745.991	0.0167484
746.069	0.0167718
746.147	0.0168447
746.225	0.0168527
746.303	0.0166185
746.381	0.0166100
746.459	0.0166683
746.538	0.0163724
746.616	0.0163901
746.694	0.0161072
746.772	0.0158585
746.850	0.0158453
746.928	0.0155616
747.006	0.0153519
747.084	0.0152219
747.163	0.0150594
747.241	0.0149551
747.319	0.0147519
747.397	0.0146629
747.475	0.0145845
747.553	0.0145155
747.631	0.0146010
747.709	0.0144590
747.788	0.0145951
747.866	0.0145586
747.944	0.0144611
748.022	0.0145007
748.100	0.0146159
748.178	0.0144649
748.256	0.0145361
748.334	0.0146092
748.413	0.0147178
748.491	0.0148364
748.569	0.0147272
748.647	0.0147451
748.725	0.0148757
748.803	0.0150845
748.881	0.0150755
748.959	0.0150600
749.038	0.0151335
749.116	0.0151865
749.194	0.0151759
749.272	0.0152150
749.350	0.0152712
749.428	0.0153201
749.506	0.0153314
749.584	0.0153680
749.663	0.0152661
749.741	0.0150857
749.819	0.0150784
749.897	0.0148430
749.975	0.0146375
750.053	0.0146177
750.131	0.0145642
750.209	0.0143633
750.288	0.0141647
750.366	0.0143674
750.444	0.0142219
750.522	0.0139955
750.600	0.0140320
750.678	0.0140469
750.756	0.0141281
750.834	0.0141199
750.913	0.0141730
750.991	0.0141225
751.069	0.0142024
751.147	0.0143259
751.225	0.0143849
751.303	0.0144937
751.381	0.0144418
751.459	0.0145981
751.538	0.0148283
751.616	0.0148610
751.694	0.0148768
751.772	0.0150619
751.850	0.0150042
751.928	0.0150414
752.006	0.0153205
752.084	0.0154269
752.163	0.0153522
752.241	0.0153025
752.319	0.0154872
752.397	0.0154837
752.475	0.0154935
752.553	0.0154447
752.631	0.0155215
752.709	0.0155960
752.788	0.0156269
752.866	0.0156679
752.944	0.0157030
753.022	0.0157485
753.100	0.0156190
753.178	0.0157777
753.256	0.0157111
753.334	0.0158011
753.413	0.0156593
753.491	0.0156796
753.569	0.0155146
753.647	0.0155623
753.725	0.0156245
753.803	0.0153650
753.881	0.0154930
753.959	0.0153284
754.038	0.0152621
754.116	0.0150842
754.194	0.0148394
754.272	0.0148897
754.350	0.0147838
754.428	0.0147659
754.506	0.0146651
754.584	0.0145222
754.663	0.0144170
754.741	0.0143382
754.819	0.0142212
754.897	0.0142277
754.975	0.0141923
755.053	0.0141949
755.131	0.0143756
755.209	0.0142976
755.288	0.0143309
755.366	0.0144785
755.444	0.0144608
755.522	0.0144527
755.600	0.0145078
755.678	0.0146824
755.756	0.0147453
755.834	0.0148325
755.913	0.0149635
755.991	0.0150388
756.069	0.0153191
756.147	0.0152998
756.225	0.0153460
756.303	0.0155236
756.381	0.0156097
756.459	0.0156046
756.538	0.0157414
756.616	0.0157620
756.694	0.0156015
756.772	0.0157204
756.850	0.0157330
756.928	0.0156857
757.006	0.0156378
757.084	0.0155692
757.163	0.0153613
757.241	0.0153934
757.319	0.0153540
757.397	0.0151390
757.475	0.0152339
757.553	0.0150175
757.631	0.0150009
757.709	0.0148686
757.788	0.0148479
757.866	0.0147762
757.944	0.0146391
758.022	0.0147736
758.100	0.0147330
758.178	0.0145989
758.256	0.0146139
758.334	0.0147381
758.413	0.0147668
758.491	0.0148230
758.569	0.0147797
758.647	0.0147365
758.725	0.0148313
758.803	0.0149060
758.881	0.0149770
758.959	0.0149940
759.038	0.0150042
759.116	0.0151595
759.194	0.0152904
759.272	0.0152263
759.350	0.0153150
759.428	0.0151816
759.506	0.0152914
759.584	0.0152960
759.663	0.0151563
759.741	0.0150353
759.819	0.0149747
759.897	0.0149342
759.975	0.0149609
760.053	0.0148267
760.131	0.0148242
760.209	0.0148508
760.288	0.0149516
760.366	0.0150084
760.444	0.0149953
760.522	0.0150320
760.600	0.0151025
760.678	0.0152533
760.756	0.0152806
760.834	0.0153365
760.913	0.0154466
760.991	0.0153218
761.069	0.0156491
761.147	0.0156053
761.225	0.0155556
761.303	0.0155684
761.381	0.0155534
761.459	0.0155527
761.538	0.0157519
761.616	0.0154346
761.694	0.0154247
761.772	0.0155264
761.850	0.0154629
761.928	0.0153759
762.006	0.0152931
762.084	0.0153214
762.163	0.0153341
762.241	0.0149923
762.319	0.0149815
762.397	0.0149479
762.475	0.0149297
762.553	0.0149185
762.631	0.0147997
762.709	0.0146249
762.788	0.0146910
762.866	0.0146677
762.944	0.0146899
763.022	0.0146391
763.100	0.0145128
763.178	0.0145454
763.256	0.0145188
763.334	0.0144981
763.413	0.0144128
763.491	0.0145214
763.569	0.0145791
763.647	0.0147278
763.725	0.0145612
763.803	0.0144943
763.881	0.0147812
763.959	0.0149366
764.038	0.0149041
764.116	0.0149011
764.194	0.0149751
764.272	0.0151945
764.350	0.0152526
764.428	0.0153746
764.506	0.0152578
764.584	0.0152970
764.663	0.0153783
764.741	0.0154237
764.819	0.0153191
764.897	0.0153902
764.975	0.0154210
765.053	0.0153297
765.131	0.0154145
765.209	0.0153775
765.288	0.0152699
765.366	0.0151621
765.444	0.0153577
765.522	0.0152168
765.600	0.0151590
765.678	0.0150492
765.756	0.0150626
765.834	0.0151580
765.913	0.0150259
765.991	0.0149536
766.069	0.0150053
766.147	0.0149500
766.225	0.0150060
766.303	0.0149466
766.381	0.0149480
766.459	0.0149743
766.538	0.0149341
766.616	0.0149786
766.694	0.0148589
766.772	0.0149633
766.850	0.0148320
766.928	0.0147232
767.006	0.0147788
767.084	0.0146739
767.163	0.0146664
767.241	0.0145660
767.319	0.0145154
767.397	0.0145764
767.475	0.0144991
767.553	0.0144473
767.631	0.0144094
767.709	0.0145287
767.788	0.0145477
767.866	0.0145798
767.944	0.0148016
768.022	0.0149076
768.100	0.0151012
768.178	0.0151730
768.256	0.0152868
768.334	0.0154834
768.413	0.0155872
768.491	0.0155035
768.569	0.0156389
768.647	0.0157253
768.725	0.0157922
768.803	0.0157272
768.881	0.0157251
768.959	0.0157418
769.038	0.0156229
769.116	0.0156181
769.194	0.0155948
769.272	0.0156956
769.350	0.0156530
769.428	0.0154886
769.506	0.0154700
769.584	0.0154379
769.663	0.0153361
769.741	0.0153600
769.819	0.0150603
769.897	0.0150874
769.975	0.0151350
770.053	0.0151147
770.131	0.0150308
770.209	0.0147208
770.288	0.0148376
770.366	0.0147832
770.444	0.0146014
770.522	0.0145845
770.600	0.0146539
770.678	0.0145942
770.756	0.0145483
770.834	0.0145896
770.913	0.0145341
770.991	0.0146856
771.069	0.0146000
771.147	0.0146875
771.225	0.0145618
771.303	0.0146615
771.381	0.0148211
771.459	0.0148257
771.538	0.0149091
771.616	0.0149480
771.694	0.0150198
771.772	0.0151707
771.850	0.0151665
771.928	0.0152276
772.006	0.0151656
772.084	0.0152162
772.163	0.0153324
772.241	0.0152122
772.319	0.0153487
772.397	0.0153546
772.475	0.0154099
772.553	0.0152840
772.631	0.0153922
772.709	0.0154267
772.788	0.0152848
772.866	0.0152818
772.944	0.0153415
773.022	0.0152589
773.100	0.0152877
773.178	0.0152119
773.256	0.0150878
773.334	0.0149846
773.413	0.0149657
773.491	0.0149666
773.569	0.0147694
773.647	0.0146880
773.725	0.0148566
773.803	0.0149931
773.881	0.0148081
773.959	0.0148760
774.038	0.0147939
774.116	0.0149639
774.194	0.0149358
774.272	0.0149429
774.350	0.0148579
774.428	0.0149121
774.506	0.0148225
774.584	0.0148190
774.663	0.0148520
774.741	0.0148469
774.819	0.0147647
774.897	0.0148148
774.975	0.0147388
775.053	0.0149119
775.131	0.0148695
775.209	0.0148185
775.288	0.0149956
775.366	0.0150047
775.444	0.0151724
775.522	0.0151565
775.600	0.0151621
775.678	0.0151841
775.756	0.0152251
775.834	0.0152720
775.913	0.0153114
775.991	0.0154295
776.069	0.0153295
776.147	0.0152511
776.225	0.0151604
776.303	0.0151582
776.381	0.0152584
776.459	0.0152173
776.538	0.0152908
776.616	0.0151844
776.694	0.0151173
776.772	0.0150964
776.850	0.0151365
776.928	0.0151211
777.006	0.0150941
777.084	0.0151660
777.163	0.0151215
777.241	0.0149580
777.319	0.0150450
777.397	0.0148853
777.475	0.0149898
777.553	0.0149850
777.631	0.0148856
777.709	0.0149385
777.788	0.0149351
777.866	0.0148934
777.944	0.0148764
778.022	0.0149454
778.100	0.0149636
778.178	0.0150962
778.256	0.0150591
778.334	0.0151407
778.413	0.0151793
778.491	0.0153290
778.569	0.0153288
778.647	0.0154990
778.725	0.0155823
778.803	0.0154801
778.881	0.0155628
778.959	0.0156557
779.038	0.0156103
779.116	0.0158157
779.194	0.0157676
779.272	0.0156322
779.350	0.0156417
779.428	0.0156390
779.506	0.0153667
779.584	0.0152788
779.663	0.0153654
779.741	0.0151610
779.819	0.0150106
779.897	0.0150980
779.975	0.0150449
780.053	0.0150122
780.131	0.0148267
780.209	0.0147437
780.288	0.0148061
780.366	0.0147811
780.444	0.0145828
780.522	0.0146575
780.600	0.0146786
780.678	0.0146581
780.756	0.0146077
780.834	0.0145673
780.913	0.0145242
780.991	0.0146510
781.069	0.0147261
781.147	0.0146812
781.225	0.0148411
781.303	0.0147736
781.381	0.0148377
781.459	0.0147584
781.538	0.0148891
781.616	0.0148294
781.694	0.0149006
781.772	0.0149467
781.850	0.0148987
781.928	0.0148548
782.006	0.0148521
782.084	0.0147250
782.163	0.0146988
782.241	0.0147670
782.319	0.0146359
782.397	0.0147928
782.475	0.0146144
782.553	0.0146376
782.631	0.0147975
782.709	0.0148263
782.788	0.0148209
782.866	0.0149345
782.944	0.0150581
783.022	0.0149445
783.100	0.0151271
783.178	0.0150906
783.256	0.0152237
783.334	0.0153729
783.413	0.0153297
783.491	0.0152757
783.569	0.0153161
783.647	0.0153712
783.725	0.0151540
783.803	0.0152997
783.881	0.0154617
783.959	0.0152960
784.038	0.0153159
784.116	0.0152924
784.194	0.0152722
784.272	0.0152291
784.350	0.0151621
784.428	0.0150610
784.506	0.0150956
784.584	0.0151411
784.663	0.0151556
784.741	0.0152724
784.819	0.0152728
784.897	0.0151911
784.975	0.0151692
785.053	0.0152831
785.131	0.0152236
785.209	0.0152315
785.288	0.0152193
785.366	0.0151205
785.444	0.0151733
785.522	0.0151653
785.600	0.0152382
785.678	0.0152659
785.756	0.0151452
785.834	0.0150677
785.913	0.0150829
785.991	0.0150368
786.069	0.0148920
786.147	0.0150270
786.225	0.0149433
786.303	0.0148678
786.381	0.0147967
786.459	0.0147447
786.538	0.0148569
786.616	0.0150212
786.694	0.0148547
786.772	0.0147868
786.850	0.0150738
786.928	0.0149943
787.006	0.0147962
787.084	0.0148357
787.163	0.0149532
787.241	0.0150218
787.319	0.0150088
787.397	0.0150951
787.475	0.0150906
787.553	0.0150571
787.631	0.0152810
787.709	0.0151360
787.788	0.0151673
787.866	0.0151774
787.944	0.0153935
788.022	0.0153299
788.100	0.0155006
788.178	0.0155378
788.256	0.0155486
788.334	0.0153831
788.413	0.0155288
788.491	0.0156000
788.569	0.0156586
788.647	0.0156337
788.725	0.0156688
788.803	0.0157655
788.881	0.0156607
788.959	0.0155880
789.038	0.0155828
789.116	0.0154983
789.194	0.0155053
789.272	0.0152734
789.350	0.0152323
789.428	0.0153985
789.506	0.0151256
789.584	0.0151089
789.663	0.0151179
789.741	0.0151644
789.819	0.0149986
789.897	0.0149812
789.975	0.0150542
790.053	0.0149504
790.131	0.0150309
790.209	0.0150134
790.288	0.0150703
790.366	0.0149786
790.444	0.0149629
790.522	0.0149176
790.600	0.0149734
790.678	0.0150190
790.756	0.0150971
790.834	0.0151198
790.913	0.0149416
790.991	0.0148498
791.069	0.0151228
791.147	0.0150069
791.225	0.0150050
791.303	0.0150141
791.381	0.0149271
791.459	0.0149297
791.538	0.0149062
791.616	0.0148845
791.694	0.0149186
791.772	0.0148314
791.850	0.0149554
791.928	0.0149725
792.006	0.0149308
792.084	0.0149505
792.163	0.0149367
792.241	0.0149176
792.319	0.0148654
792.397	0.0149140
792.475	0.0150024
792.553	0.0150552
792.631	0.0149657
792.709	0.0150719
792.788	0.0151116
792.866	0.0150478
792.944	0.0150572
793.022	0.0152081
793.100	0.0152893
793.178	0.0151940
793.256	0.0152492
793.334	0.0153544
793.413	0.0153877
793.491	0.0152964
793.569	0.0152945
793.647	0.0153344
793.725	0.0153265
793.803	0.0153809
793.881	0.0153081
793.959	0.0152447
794.038	0.0152588
794.116	0.0153017
794.194	0.0152830
794.272	0.0151360
794.350	0.0151353
794.428	0.0152190
794.506	0.0150367
794.584	0.0149385
794.663	0.0149465
794.741	0.0149125
794.819	0.0148506
794.897	0.0148744
794.975	0.0148911
795.053	0.0148014
795.131	0.0148566
795.209	0.0147874
795.288	0.0147544
795.366	0.0147048
795.444	0.0148794
795.522	0.0147356
795.600	0.0147223
795.678	0.0147773
795.756	0.0147430
795.834	0.0146912
795.913	0.0148309
795.991	0.0148274
796.069	0.0148950
796.147	0.0148454
796.225	0.0148229
796.303	0.0150544
796.381	0.0148888
796.459	0.0150056
796.538	0.0149288
796.616	0.0150249
796.694	0.0149870
796.772	0.0150999
796.850	0.0152183
796.928	0.0151787
797.006	0.0152914
797.084	0.0152598
797.163	0.0154208
797.241	0.0153243
797.319	0.0154900
797.397	0.0156802
797.475	0.0155666
797.553	0.0155355
797.631	0.0156206
797.709	0.0155330
797.788	0.0157706
797.866	0.0156332
797.944	0.0156200
798.022	0.0156014
798.100	0.0155859
798.178	0.0157339
798.256	0.0156068
798.334	0.0155602
798.413	0.0156331
798.491	0.0154469
798.569	0.0154149
798.647	0.0154594
798.725	0.0153757
798.803	0.0154105
798.881	0.0150905
798.959	0.0152223
799.038	0.0151907
799.116	0.0151315
799.194	0.0151242
799.272	0.0150354
799.350	0.0151903
799.428	0.0151170
799.506	0.0149710
799.584	0.0150799
799.663	0.0149461
799.741	0.0150996
799.819	0.0150387
799.897	0.0150768
799.975	0.0151138
800.053	0.0149393
800.131	0.0150682
800.209	0.0150938
800.288	0.0150788
800.366	0.0151192
800.444	0.0149067
800.522	0.0150644
800.600	0.0150560
800.678	0.0149231
800.756	0.0149284
800.834	0.0149338
800.913	0.0149803
800.991	0.0151752
801.069	0.0148943
801.147	0.0149642
801.225	0.0149385
801.303	0.0149104
801.381	0.0148576
801.459	0.0149366
801.538	0.0149343
801.616	0.0149300
801.694	0.0149328
801.772	0.0148978
801.850	0.0149313
801.928	0.0149670
802.006	0.0149628
802.084	0.0150526
802.163	0.0149862
802.241	0.0149584
802.319	0.0151030
802.397	0.0150613
802.475	0.0151124
802.553	0.0150933
802.631	0.0151235
802.709	0.0151125
802.788	0.0150803
802.866	0.0151376
802.944	0.0151489
803.022	0.0151086
803.100	0.0152141
803.178	0.0151109
803.256	0.0151913
803.334	0.0152159
803.413	0.0151605
803.491	0.0152304
803.569	0.0153638
803.647	0.0151788
803.725	0.0151896
803.803	0.0153725
803.881	0.0151912
803.959	0.0153202
804.038	0.0151260
804.116	0.0151615
804.194	0.0152132
804.272	0.0149671
804.350	0.0148611
804.428	0.0149471
804.506	0.0150754
804.584	0.0149393
804.663	0.0150174
804.741	0.0148587
804.819	0.0149645
804.897	0.0149667
804.975	0.0149953
805.053	0.0148313
805.131	0.0149152
805.209	0.0149332
805.288	0.0148150
805.366	0.0150124
805.444	0.0149792
805.522	0.0149710
805.600	0.0148737
805.678	0.0149706
805.756	0.0149946
805.834	0.0151434
805.913	0.0152168
805.991	0.0150208
806.069	0.0153149
806.147	0.0152297
806.225	0.0151309
806.303	0.0152174
806.381	0.0151385
806.459	0.0151642
806.538	0.0152816
806.616	0.0153159
806.694	0.0153117
806.772	0.0152063
806.850	0.0152273
806.928	0.0151054
807.006	0.0151960
807.084	0.0153038
807.163	0.0151965
807.241	0.0150343
807.319	0.0149819
807.397	0.0151511
807.475	0.0151559
807.553	0.0151692
807.631	0.0150378
807.709	0.0149683
807.788	0.0150559
807.866	0.0150959
807.944	0.0151040
808.022	0.0150262
808.100	0.0149755
808.178	0.0149371
808.256	0.0150900
808.334	0.0151374
808.413	0.0152966
808.491	0.0151461
808.569	0.0150891
808.647	0.0151933
808.725	0.0152457
808.803	0.0153594
808.881	0.0153433
808.959	0.0152568
809.038	0.0152414
809.116	0.0153500
809.194	0.0155526
809.272	0.0154417
809.350	0.0153643
809.428	0.0153464
809.506	0.0152981
809.584	0.0152370
809.663	0.0153052
809.741	0.0152669
809.819	0.0152753
809.897	0.0154010
809.975	0.0151942
810.053	0.0149670
810.131	0.0151541
810.209	0.0152235
810.288	0.0152042
810.366	0.0150784
810.444	0.0151006
810.522	0.0150068
810.600	0.0149014
810.678	0.0150443
810.756	0.0147909
810.834	0.0148836
810.913	0.0148135
810.991	0.0148213
811.069	0.0149589
811.147	0.0147689
811.225	0.0146994
811.303	0.0146510
811.381	0.0145184
811.459	0.0145612
811.538	0.0146911
811.616	0.0145128
811.694	0.0146727
811.772	0.0147584
811.850	0.0146651
811.928	0.0145296
812.006	0.0145635
812.084	0.0148942
812.163	0.0146398
812.241	0.0145787
812.319	0.0147424
812.397	0.0148267
812.475	0.0148646
812.553	0.0147104
812.631	0.0148233
812.709	0.0149225
812.788	0.0149744
812.866	0.0149577
812.944	0.0147371
813.022	0.0149614
813.100	0.0148470
813.178	0.0148071
813.256	0.0149655
813.334	0.0147717
813.413	0.0149348
813.491	0.0149867
813.569	0.0150758
813.647	0.0150045
813.725	0.0149298
813.803	0.0150671
813.881	0.0151183
813.959	0.0151369
814.038	0.0152978
814.116	0.0152386
814.194	0.0152753
814.272	0.0152883
814.350	0.0153430
814.428	0.0153991
814.506	0.0153418
814.584	0.0153915
814.663	0.0154340
814.741	0.0155763
814.819	0.0155352
814.897	0.0155009
814.975	0.0152841
815.053	0.0154991
815.131	0.0155267
815.209	0.0153349
815.288	0.0154620
815.366	0.0153900
815.444	0.0153768
815.522	0.0153185
815.600	0.0153453
815.678	0.0153252
815.756	0.0153638
815.834	0.0151976
815.913	0.0152332
815.991	0.0151040
816.069	0.0150615
816.147	0.0150259
816.225	0.0149971
816.303	0.0148692
816.381	0.0147628
816.459	0.0149936
816.538	0.0149528
816.616	0.0148768
816.694	0.0148933
816.772	0.0148548
816.850	0.0146436
816.928	0.0148478
817.006	0.0149646
817.084	0.0149171
817.163	0.0150193
817.241	0.0147409
817.319	0.0147775
817.397	0.0149542
817.475	0.0149722
817.553	0.0149064
817.631	0.0148667
817.709	0.0148747
817.788	0.0149731
817.866	0.0151169
817.944	0.0149888
818.022	0.0149763
818.100	0.0151791
818.178	0.0151213
818.256	0.0151141
818.334	0.0151474
818.413	0.0152277
818.491	0.0152061
818.569	0.0151542
818.647	0.0152127
818.725	0.0152277
818.803	0.0152985
818.881	0.0153252
818.959	0.0152133
819.038	0.0153016
819.116	0.0152470
819.194	0.0152280
819.272	0.0151987
819.350	0.0151595
819.428	0.0152179
819.506	0.0152132
819.584	0.0152785
819.663	0.0153328
819.741	0.0152812
819.819	0.0151778
819.897	0.0152552
819.975	0.0152443
820.053	0.0151991
820.131	0.0152682
820.209	0.0152470
820.288	0.0151803
820.366	0.0151955
820.444	0.0152486
820.522	0.0150923
820.600	0.0150708
820.678	0.0152250
820.756	0.0152779
820.834	0.0150886
820.913	0.0151147
820.991	0.0150688
821.069	0.0150473
821.147	0.0151398
821.225	0.0150752
821.303	0.0150814
821.381	0.0149238
821.459	0.0149371
821.538	0.0150156
821.616	0.0149960
821.694	0.0149400
821.772	0.0150076
821.850	0.0149413
821.928	0.0148798
822.006	0.0149687
822.084	0.0149368
822.163	0.0149026
822.241	0.0148135
822.319	0.0147965
822.397	0.0149049
822.475	0.0148414
822.553	0.0148369
822.631	0.0149246
822.709	0.0149694
822.788	0.0147662
822.866	0.0149291
822.944	0.0148460
823.022	0.0149370
823.100	0.0149294
823.178	0.0151248
823.256	0.0149362
823.334	0.0151042
823.413	0.0152322
823.491	0.0151506
823.569	0.0150446
823.647	0.0151487
823.725	0.0150365
823.803	0.0151729
823.881	0.0150988
823.959	0.0150308
824.038	0.0151688
824.116	0.0151514
824.194	0.0149550
824.272	0.0149174
824.350	0.0151133
824.428	0.0151296
824.506	0.0150945
824.584	0.0150660
824.663	0.0150755
824.741	0.0150542
824.819	0.0149891
824.897	0.0150992
824.975	0.0150173
825.053	0.0151295
825.131	0.0152267
825.209	0.0151476
825.288	0.0150252
825.366	0.0150333
825.444	0.0150603
825.522	0.0151797
825.600	0.0151794
825.678	0.0151230
825.756	0.0151220
825.834	0.0150672
825.913	0.0151092
825.991	0.0151153
826.069	0.0151339
826.147	0.0152290
826.225	0.0151337
826.303	0.0151035
826.381	0.0151830
826.459	0.0149848
826.538	0.0150857
826.616	0.0149723
826.694	0.0151194
826.772	0.0149897
826.850	0.0149561
826.928	0.0150668
827.006	0.0150306
827.084	0.0150592
827.163	0.0150668
827.241	0.0150334
827.319	0.0150661
827.397	0.0151264
827.475	0.0149700
827.553	0.0149824
827.631	0.0151337
827.709	0.0150892
827.788	0.0149740
827.866	0.0147498
827.944	0.0149752
828.022	0.0150564
828.100	0.0148573
828.178	0.0148273
828.256	0.0148875
828.334	0.0148041
828.413	0.0148181
828.491	0.0149708
828.569	0.0146519
828.647	0.0148563
828.725	0.0147877
828.803	0.0148595
828.881	0.0148717
828.959	0.0149542
829.038	0.0148264
829.116	0.0148560
829.194	0.0149975
829.272	0.0149527
829.350	0.0150385
829.428	0.0150076
829.506	0.0151675
829.584	0.0150455
829.663	0.0150862
829.741	0.0151209
829.819	0.0150330
829.897	0.0151999
829.975	0.0152618
830.053	0.0153352
830.131	0.0152027
830.209	0.0151333
830.288	0.0152998
830.366	0.0152002
830.444	0.0153571
830.522	0.0151532
830.600	0.0150460
830.678	0.0150445
830.756	0.0151462
830.834	0.0150873
830.913	0.0150016
830.991	0.0148800
831.069	0.0149209
831.147	0.0148388
831.225	0.0147389
831.303	0.0148092
831.381	0.0148042
831.459	0.0147383
831.538	0.0146126
831.616	0.0147923
831.694	0.0147343
831.772	0.0146950
831.850	0.0146335
831.928	0.0145270
832.006	0.0147340
832.084	0.0148990
832.163	0.0147881
832.241	0.0147485
832.319	0.0149071
832.397	0.0149793
832.475	0.0149026
832.553	0.0149868
832.631	0.0148903
832.709	0.0150514
832.788	0.0152008
832.866	0.0150870
832.944	0.0152790
833.022	0.0152541
833.100	0.0153356
833.178	0.0153402
833.256	0.0152962
833.334	0.0152308
833.413	0.0152965
833.491	0.0151737
833.569	0.0152218
833.647	0.0152885
833.725	0.0153635
833.803	0.0153660
833.881	0.0152435
833.959	0.0152354
834.038	0.0152357
834.116	0.0153181
834.194	0.0152708
834.272	0.0153146
834.350	0.0151082
834.428	0.0150951
834.506	0.0151330
834.584	0.0152338
834.663	0.0151861
834.741	0.0151714
834.819	0.0152510
834.897	0.0151864
834.975	0.0152095
835.053	0.0150914
835.131	0.0150465
835.209	0.0150910
835.288	0.0152128
835.366	0.0151346
835.444	0.0151959
835.522	0.0152228
835.600	0.0150611
835.678	0.0151706
835.756	0.0150696
835.834	0.0150273
835.913	0.0150906
835.991	0.0150865
836.069	0.0150377
836.147	0.0151125
836.225	0.0150446
836.303	0.0151086
836.381	0.0149120
836.459	0.0150616
836.538	0.0150404
836.616	0.0151154
836.694	0.0151334
836.772	0.0149422
836.850	0.0150235
836.928	0.0151300
837.006	0.0149334
837.084	0.0148709
837.163	0.0149962
837.241	0.0148726
837.319	0.0149318
837.397	0.0147747
837.475	0.0148337
837.553	0.0148937
837.631	0.0148973
837.709	0.0148576
837.788	0.0147971
837.866	0.0149403
837.944	0.0150095
838.022	0.0148471
838.100	0.0149596
838.178	0.0150122
838.256	0.0148910
838.334	0.0149476
838.413	0.0151168
838.491	0.0151434
838.569	0.0150383
838.647	0.0149980
838.725	0.0152375
838.803	0.0153143
838.881	0.0153313
838.959	0.0153382
839.038	0.0153001
839.116	0.0153642
839.194	0.0154402
839.272	0.0153299
839.350	0.0152078
839.428	0.0153005
839.506	0.0154123
839.584	0.0152267
839.663	0.0151858
839.741	0.0151521
839.819	0.0150385
839.897	0.0150539
839.975	0.0150047
840.053	0.0149976
840.131	0.0149634
840.209	0.0149152
840.288	0.0148392
840.366	0.0149020
840.444	0.0149349
840.522	0.0148384
840.600	0.0148751
840.678	0.0149426
840.756	0.0148507
840.834	0.0148879
840.913	0.0149434
840.991	0.0149510
841.069	0.0149066
841.147	0.0148578
841.225	0.0148775
841.303	0.0148195
841.381	0.0149348
841.459	0.0150218
841.538	0.0148756
841.616	0.0148824
841.694	0.0150735
841.772	0.0150763
841.850	0.0149859
841.928	0.0151125
842.006	0.0151294
842.084	0.0149570
842.163	0.0151933
842.241	0.0151461
842.319	0.0151156
842.397	0.0150610
842.475	0.0151917
842.553	0.0150565
842.631	0.0150091
842.709	0.0152488
842.788	0.0151244
842.866	0.0150637
842.944	0.0150427
843.022	0.0150918
843.100	0.0152435
843.178	0.0150968
843.256	0.0150217
843.334	0.0151181
843.413	0.0150559
843.491	0.0150894
843.569	0.0149644
843.647	0.0151073
843.725	0.0151073
843.803	0.0151142
843.881	0.0150583
843.959	0.0150993
844.038	0.0150385
844.116	0.0150420
844.194	0.0151242
844.272	0.0150765
844.350	0.0153075
844.428	0.0150123
844.506	0.0152068
844.584	0.0151685
844.663	0.0152090
844.741	0.0151411
844.819	0.0150558
844.897	0.0151431
844.975	0.0151057
845.053	0.0151961
845.131	0.0153224
845.209	0.0151546
845.288	0.0152455
845.366	0.0150921
845.444	0.0151940
845.522	0.0151186
845.600	0.0151468
845.678	0.0152198
845.756	0.0151579
845.834	0.0150975
845.913	0.0150362
845.991	0.0150414
846.069	0.0150173
846.147	0.0151050
846.225	0.0150288
846.303	0.0150269
846.381	0.0150499
846.459	0.0149365
846.538	0.0149628
846.616	0.0151235
846.694	0.0149246
846.772	0.0149700
846.850	0.0149226
846.928	0.0148210
847.006	0.0148615
847.084	0.0148496
847.163	0.0149128
847.241	0.0150115
847.319	0.0148203
847.397	0.0149494
847.475	0.0149850
847.553	0.0150047
847.631	0.0150690
847.709	0.0148959
847.788	0.0151502
847.866	0.0150996
847.944	0.0151509
848.022	0.0151246
848.100	0.0151711
848.178	0.0151810
848.256	0.0150723
848.334	0.0152689
848.413	0.0150750
848.491	0.0150783
848.569	0.0151611
848.647	0.0151901
848.725	0.0151072
848.803	0.0151746
848.881	0.0152734
848.959	0.0152497
849.038	0.0151373
849.116	0.0150890
849.194	0.0152617
849.272	0.0151776
849.350	0.0150263
849.428	0.0151595
849.506	0.0150406
849.584	0.0150866
849.663	0.0151324
849.741	0.0150677
849.819	0.0151533
849.897	0.0150649
849.975	0.0150774
850.053	0.0151128
850.131	0.0150921
850.209	0.0149677
850.288	0.0152071
850.366	0.0150674
850.444	0.0150563
850.522	0.0151007
850.600	0.0151145
850.678	0.0150531
850.756	0.0150200
850.834	0.0149592
850.913	0.0149809
850.991	0.0149850
851.069	0.0150243
851.147	0.0148577
851.225	0.0149434
851.303	0.0148919
851.381	0.0148698
851.459	0.0148242
851.538	0.0149725
851.616	0.0148750
851.694	0.0149979
851.772	0.0149913
851.850	0.0150182
851.928	0.0150707
852.006	0.0149983
852.084	0.0148701
852.163	0.0149622
852.241	0.0150231
852.319	0.0148116
852.397	0.0148752
852.475	0.0148327
852.553	0.0149597
852.631	0.0150379
852.709	0.0149945
852.788	0.0149598
852.866	0.0148842
852.944	0.0148369
853.022	0.0150613
853.100	0.0150609
853.178	0.0150112
853.256	0.0150796
853.334	0.0150304
853.413	0.0150211
853.491	0.0151118
853.569	0.0151867
853.647	0.0151341
853.725	0.0150076
853.803	0.0151461
853.881	0.0151414
853.959	0.0150862
854.038	0.0150209
854.116	0.0151383
854.194	0.0151104
854.272	0.0151627
854.350	0.0151346
854.428	0.0151360
854.506	0.0150864
854.584	0.0151703
854.663	0.0150524
854.741	0.0150420
854.819	0.0150786
854.897	0.0150477
854.975	0.0150961
855.053	0.0151081
855.131	0.0150903
855.209	0.0150791
855.288	0.0150607
855.366	0.0152057
855.444	0.0150958
855.522	0.0149731
855.600	0.0149718
855.678	0.0149209
855.756	0.0150562
855.834	0.0149049
855.913	0.0149864
855.991	0.0151024
856.069	0.0149458
856.147	0.0150221
856.225	0.0149655
856.303	0.0150645
856.381	0.0151425
856.459	0.0150898
856.538	0.0151079
856.616	0.0151024
856.694	0.0150358
856.772	0.0150009
856.850	0.0151616
856.928	0.0152243
857.006	0.0150953
857.084	0.0150449
857.163	0.0151144
857.241	0.0151915
857.319	0.0150668
857.397	0.0151404
857.475	0.0151242
857.553	0.0150469
857.631	0.0149261
857.709	0.0151767
857.788	0.0151445
857.866	0.0150909
857.944	0.0150675
858.022	0.0150404
858.100	0.0149619
858.178	0.0151134
858.256	0.0150584
858.334	0.0149584
858.413	0.0150042
858.491	0.0149912
858.569	0.0149968
858.647	0.0150846
858.725	0.0150119
858.803	0.0149062
858.881	0.0149133
858.959	0.0150707
859.038	0.0149740
859.116	0.0150546
859.194	0.0149067
859.272	0.0150188
859.350	0.0150243
859.428	0.0149952
859.506	0.0150903
859.584	0.0150537
859.663	0.0150571
859.741	0.0151024
859.819	0.0151460
859.897	0.0152429
859.975	0.0150522
860.053	0.0151483
860.131	0.0151093
860.209	0.0151813
860.288	0.0152644
860.366	0.0150656
860.444	0.0151888
860.522	0.0152389
860.600	0.0150423
860.678	0.0151968
860.756	0.0154316
860.834	0.0152379
860.913	0.0153512
860.991	0.0154263
861.069	0.0153493
861.147	0.0153508
861.225	0.0153452
861.303	0.0151570
861.381	0.0151927
861.459	0.0152258
861.538	0.0151578
861.616	0.0153019
861.694	0.0151731
861.772	0.0152244
861.850	0.0151205
861.928	0.0151852
862.006	0.0149117
862.084	0.0150952
862.163	0.0150932
862.241	0.0150494
862.319	0.0150533
862.397	0.0150956
862.475	0.0152024
862.553	0.0148769
862.631	0.0150900
862.709	0.0151489
862.788	0.0150731
862.866	0.0149669
862.944	0.0151631
863.022	0.0151298
863.100	0.0150450
863.178	0.0151144
863.256	0.0150153
863.334	0.0149883
863.413	0.0149921
863.491	0.0150937
863.569	0.0150700
863.647	0.0150126
863.725	0.0151733
863.803	0.0148923
863.881	0.0150069
863.959	0.0152553
864.038	0.0151974
864.116	0.0151955
864.194	0.0151400
864.272	0.0150493
864.350	0.0151756
864.428	0.0150091
864.506	0.0151561
864.584	0.0151640
864.663	0.0150671
864.741	0.0150038
864.819	0.0150491
864.897	0.0151131
864.975	0.0150690
865.053	0.0152792
865.131	0.0150046
865.209	0.0151533
865.288	0.0150600
865.366	0.0151893
865.444	0.0152795
865.522	0.0151837
865.600	0.0151900
865.678	0.0151511
865.756	0.0150851
865.834	0.0151160
865.913	0.0152800
865.991	0.0151092
866.069	0.0152050
866.147	0.0151786
866.225	0.0151943
866.303	0.0150556
866.381	0.0150668
866.459	0.0151162
866.538	0.0150066
866.616	0.0150952
866.694	0.0149265
866.772	0.0150619
866.850	0.0152370
866.928	0.0150777
867.006	0.0149409
867.084	0.0150835
867.163	0.0149606
867.241	0.0150281
867.319	0.0150705
867.397	0.0149561
867.475	0.0149252
867.553	0.0148964
867.631	0.0148283
867.709	0.0149332
867.788	0.0149299
867.866	0.0149236
867.944	0.0148555
868.022	0.0149111
868.100	0.0149534
868.178	0.0149900
868.256	0.0151006
868.334	0.0148220
868.413	0.0149980
868.491	0.0150887
868.569	0.0148495
868.647	0.0149749
868.725	0.0152108
868.803	0.0151482
868.881	0.0151384
868.959	0.0152435
869.038	0.0151360
869.116	0.0150264
869.194	0.0151425
869.272	0.0152074
869.350	0.0151134
869.428	0.0151960
869.506	0.0152981
869.584	0.0152101
869.663	0.0151015
869.741	0.0152100
869.819	0.0151682
869.897	0.0152467
869.975	0.0151237
870.053	0.0150822
870.131	0.0151752
870.209	0.0151064
870.288	0.0149152
870.366	0.0150928
870.444	0.0151315
870.522	0.0150705
870.600	0.0149461
870.678	0.0151222
870.756	0.0149923
870.834	0.0148367
870.913	0.0148594
870.991	0.0149663
871.069	0.0149500
871.147	0.0148811
871.225	0.0149281
871.303	0.0148691
871.381	0.0148013
871.459	0.0148197
871.538	0.0148499
871.616	0.0149996
871.694	0.0148785
871.772	0.0150333
871.850	0.0149374
871.928	0.0150362
872.006	0.0150822
872.084	0.0151306
872.163	0.0150368
872.241	0.0151765
872.319	0.0151318
872.397	0.0151074
872.475	0.0152888
872.553	0.0152966
872.631	0.0152778
872.709	0.0153099
872.788	0.0152657
872.866	0.0153072
872.944	0.0152847
873.022	0.0153228
873.100	0.0152222
873.178	0.0152467
873.256	0.0153801
873.334	0.0153971
873.413	0.0151002
873.491	0.0153105
873.569	0.0152283
873.647	0.0152283
873.725	0.0151894
873.803	0.0154341
873.881	0.0153259
873.959	0.0151966
874.038	0.0152250
874.116	0.0152170
874.194	0.0153686
874.272	0.0152863
874.350	0.0152958
874.428	0.0151237
874.506	0.0151465
874.584	0.0152287
874.663	0.0153332
874.741	0.0151621
874.819	0.0151879
874.897	0.0152668
874.975	0.0152861
875.053	0.0153312
875.131	0.0152080
875.209	0.0152586
875.288	0.0152584
875.366	0.0152496
875.444	0.0153146
875.522	0.0152026
875.600	0.0152251
875.678	0.0151936
875.756	0.0152338
875.834	0.0152254
875.913	0.0150552
875.991	0.0152365
876.069	0.0150713
876.147	0.0152059
876.225	0.0151754
876.303	0.0151387
876.381	0.0150845
876.459	0.0151481
876.538	0.0151273
876.616	0.0150671
876.694	0.0150270
876.772	0.0148238
876.850	0.0150668
876.928	0.0150878
877.006	0.0149279
877.084	0.0148135
877.163	0.0149821
877.241	0.0149928
877.319	0.0149082
877.397	0.0148705
877.475	0.0150109
877.553	0.0149662
877.631	0.0149008
877.709	0.0149609
877.788	0.0149256
877.866	0.0149361
877.944	0.0149578
878.022	0.0149545
878.100	0.0149673
878.178	0.0149480
878.256	0.0149537
878.334	0.0150545
878.413	0.0150483
878.491	0.0149244
878.569	0.0149326
878.647	0.0148480
878.725	0.0149435
878.803	0.0149566
878.881	0.0149913
878.959	0.0149209
879.038	0.0150108
879.116	0.0151437
879.194	0.0151271
879.272	0.0150920
879.350	0.0151747
879.428	0.0152259
879.506	0.0150566
879.584	0.0151611
879.663	0.0151643
879.741	0.0153078
879.819	0.0151134
879.897	0.0153011
879.975	0.0151540
880.053	0.0150980
880.131	0.0152037
880.209	0.0151895
880.288	0.0152558
880.366	0.0152180
880.444	0.0151691
880.522	0.0151923
880.600	0.0150932
880.678	0.0151069
880.756	0.0149863
880.834	0.0150704
880.913	0.0149801
880.991	0.0150172
881.069	0.0151119
881.147	0.0150032
881.225	0.0149841
881.303	0.0150382
881.381	0.0150508
881.459	0.0150391
881.538	0.0151417
881.616	0.0149453
881.694	0.0150207
881.772	0.0151428
881.850	0.0150710
881.928	0.0152112
882.006	0.0152670
882.084	0.0153049
882.163	0.0153083
882.241	0.0152683
882.319	0.0152798
882.397	0.0151853
882.475	0.0151711
882.553	0.0152273
882.631	0.0153164
882.709	0.0153792
882.788	0.0153233
882.866	0.0152485
882.944	0.0152258
883.022	0.0153944
883.100	0.0152399
883.178	0.0151514
883.256	0.0152298
883.334	0.0151952
883.413	0.0150997
883.491	0.0151711
883.569	0.0150795
883.647	0.0150130
883.725	0.0150637
883.803	0.0151862
883.881	0.0152369
883.959	0.0150831
884.038	0.0149962
884.116	0.0151151
884.194	0.0151166
884.272	0.0151341
884.350	0.0152276
884.428	0.0151598
884.506	0.0150966
884.584	0.0152171
884.663	0.0152255
884.741	0.0151464
884.819	0.0151678
884.897	0.0151154
884.975	0.0150819
885.053	0.0150946
885.131	0.0151544
885.209	0.0150414
885.288	0.0149797
885.366	0.0149499
885.444	0.0150812
885.522	0.0150932
885.600	0.0148283
885.678	0.0148285
885.756	0.0150629
885.834	0.0150245
885.913	0.0148952
885.991	0.0149110
886.069	0.0150276
886.147	0.0148757
886.225	0.0150509
886.303	0.0151131
886.381	0.0149505
886.459	0.0149648
886.538	0.0149211
886.616	0.0149277
886.694	0.0149986
886.772	0.0150446
886.850	0.0150991
886.928	0.0152525
887.006	0.0150125
887.084	0.0151637
887.163	0.0151274
887.241	0.0152658
887.319	0.0154050
887.397	0.0153378
887.475	0.0153027
887.553	0.0152765
887.631	0.0153838
887.709	0.0154315
887.788	0.0153422
887.866	0.0151972
887.944	0.0153102
888.022	0.0153383
888.100	0.0152283
888.178	0.0152246
888.256	0.0152512
888.334	0.0152241
888.413	0.0152415
888.491	0.0150642
888.569	0.0152144
888.647	0.0150996
888.725	0.0149377
888.803	0.0150196
888.881	0.0150365
888.959	0.0149131
889.038	0.0150484
889.116	0.0150458
889.194	0.0148728
889.272	0.0150185
889.350	0.0148903
889.428	0.0148212
889.506	0.0147218
889.584	0.0149533
889.663	0.0148119
889.741	0.0148898
889.819	0.0148009
889.897	0.0147438
889.975	0.0147572
890.053	0.0147645
890.131	0.0148963
890.209	0.0148085
890.288	0.0147691
890.366	0.0147999
890.444	0.0148026
890.522	0.0149528
890.600	0.0148840
890.678	0.0149617
890.756	0.0150154
890.834	0.0149249
890.913	0.0149994
890.991	0.0149739
891.069	0.0150500
891.147	0.0149310
891.225	0.0149377
891.303	0.0151382
891.381	0.0150305
891.459	0.0152012
891.538	0.0150573
891.616	0.0150509
891.694	0.0151873
891.772	0.0151768
891.850	0.0150333
891.928	0.0152029
892.006	0.0151021
892.084	0.0150606
892.163	0.0150995
892.241	0.0150227
892.319	0.0151038
892.397	0.0151176
892.475	0.0152771
892.553	0.0151249
892.631	0.0151464
892.709	0.0151007
892.788	0.0151180
892.866	0.0151302
892.944	0.0152688
893.022	0.0151557
893.100	0.0149364
893.178	0.0151303
893.256	0.0150610
893.334	0.0151299
893.413	0.0150876
893.491	0.0149651
893.569	0.0150742
893.647	0.0149649
893.725	0.0149481
893.803	0.0150751
893.881	0.0149988
893.959	0.0150510
894.038	0.0150967
894.116	0.0149396
894.194	0.0151397
894.272	0.0153127
894.350	0.0151459
894.428	0.0151205
894.506	0.0152577
894.584	0.0152460
894.663	0.0151872
894.741	0.0152859
894.819	0.0153972
894.897	0.0153536
894.975	0.0153334
895.053	0.0152393
895.131	0.0153805
895.209	0.0153275
895.288	0.0153446
895.366	0.0153820
895.444	0.0155084
895.522	0.0153524
895.600	0.0152624
895.678	0.0152534
895.756	0.0153741
895.834	0.0153202
895.913	0.0152039
895.991	0.0151806
896.069	0.0152092
896.147	0.0150690
896.225	0.0152000
896.303	0.0149647
896.381	0.0150282
896.459	0.0150082
896.538	0.0149702
896.616	0.0151404
896.694	0.0149372
896.772	0.0148758
896.850	0.0148975
896.928	0.0148679
897.006	0.0148779
897.084	0.0150137
897.163	0.0150240
897.241	0.0149038
897.319	0.0149444
897.397	0.0149919
897.475	0.0149870
897.553	0.0148912
897.631	0.0150848
897.709	0.0149445
897.788	0.0150906
897.866	0.0151709
897.944	0.0150930
898.022	0.0150179
898.100	0.0150028
898.178	0.0150683
898.256	0.0150102
898.334	0.0150565
898.413	0.0150404
898.491	0.0150983
898.569	0.0149153
898.647	0.0150702
898.725	0.0150307
898.803	0.0150855
898.881	0.0152995
898.959	0.0150529
899.038	0.0150433
899.116	0.0150862
899.194	0.0151217
899.272	0.0150776
899.350	0.0150838
899.428	0.0151824
899.506	0.0151785
899.584	0.0152452
899.663	0.0152273
899.741	0.0151929
899.819	0.0153261
899.897	0.0151595
899.975	0.0150611
900.053	0.0152873
900.131	0.0152680
900.209	0.0150172
900.288	0.0151369
900.366	0.0152869
900.444	0.0152776
900.522	0.0151064
900.600	0.0151718
900.678	0.0151669
900.756	0.0151425
900.834	0.0151624
900.913	0.0151820
900.991	0.0152821
901.069	0.0151223
901.147	0.0151276
901.225	0.0152495
901.303	0.0151514
901.381	0.0151046
901.459	0.0151363
901.538	0.0153252
901.616	0.0151637
901.694	0.0150340
901.772	0.0150903
901.850	0.0150448
901.928	0.0151212
902.006	0.0151026
902.084	0.0151900
902.163	0.0152677
902.241	0.0149976
902.319	0.0151289
902.397	0.0151548
902.475	0.0151498
902.553	0.0151360
902.631	0.0151573
902.709	0.0151158
902.788	0.0151677
902.866	0.0152906
902.944	0.0151581
903.022	0.0151301
903.100	0.0152071
903.178	0.0152061
903.256	0.0152792
903.334	0.0152138
903.413	0.0151447
903.491	0.0151279
903.569	0.0152619
903.647	0.0151991
903.725	0.0154109
903.803	0.0152701
903.881	0.0152695
903.959	0.0151775
904.038	0.0152066
904.116	0.0151097
904.194	0.0151086
904.272	0.0152030
904.350	0.0152267
904.428	0.0151069
904.506	0.0151505
904.584	0.0151508
904.663	0.0149951
904.741	0.0150276
904.819	0.0150291
904.897	0.0149561
904.975	0.0149442
905.053	0.0149595
905.131	0.0149211
905.209	0.0148962
905.288	0.0148113
905.366	0.0148031
905.444	0.0148773
905.522	0.0150166
905.600	0.0149620
905.678	0.0148849
905.756	0.0148362
905.834	0.0150352
905.913	0.0150591
905.991	0.0151229
906.069	0.0151044
906.147	0.0149895
906.225	0.0151502
906.303	0.0150603
906.381	0.0151449
906.459	0.0152734
906.538	0.0153512
906.616	0.0151569
906.694	0.0150961
906.772	0.0152194
906.850	0.0152590
906.928	0.0151658
907.006	0.0153133
907.084	0.0153032
907.163	0.0152547
907.241	0.0152218
907.319	0.0152551
907.397	0.0152099
907.475	0.0151260
907.553	0.0153050
907.631	0.0151834
907.709	0.0151351
907.788	0.0152059
907.866	0.0151598
907.944	0.0151990
908.022	0.0151418
908.100	0.0150598
908.178	0.0152614
908.256	0.0150830
908.334	0.0150471
908.413	0.0150243
908.491	0.0151434
908.569	0.0151513
908.647	0.0152657
908.725	0.0152238
908.803	0.0152364
908.881	0.0150981
908.959	0.0152576
909.038	0.0152567
909.116	0.0152847
909.194	0.0150980
909.272	0.0151696
909.350	0.0151687
909.428	0.0152552
909.506	0.0152320
909.584	0.0150790
909.663	0.0151997
909.741	0.0150742
909.819	0.0150018
909.897	0.0151379
909.975	0.0151163
910.053	0.0151891
910.131	0.0150428
910.209	0.0149707
910.288	0.0151534
910.366	0.0149810
910.444	0.0150685
910.522	0.0150509
910.600	0.0150045
910.678	0.0149782
910.756	0.0150228
910.834	0.0149435
910.913	0.0149804
910.991	0.0148956
911.069	0.0150285
911.147	0.0149042
911.225	0.0149950
911.303	0.0151384
911.381	0.0151197
911.459	0.0150458
911.538	0.0151109
911.616	0.0150603
911.694	0.0150696
911.772	0.0151895
911.850	0.0150711
911.928	0.0151064
912.006	0.0150748
912.084	0.0152638
912.163	0.0151629
912.241	0.0152056
912.319	0.0151653
912.397	0.0151823
912.475	0.0149537
912.553	0.0150717
912.631	0.0151968
912.709	0.0150826
912.788	0.0150387
912.866	0.0150421
912.944	0.0150689
913.022	0.0150547
913.100	0.0151450
913.178	0.0150929
913.256	0.0151107
913.334	0.0150023
913.413	0.0150101
913.491	0.0151720
913.569	0.0151177
913.647	0.0152061
913.725	0.0150135
913.803	0.0150310
913.881	0.0151462
913.959	0.0150490
914.038	0.0150993
914.116	0.0151469
914.194	0.0150259
914.272	0.0149623
914.350	0.0150461
914.428	0.0150690
914.506	0.0151009
914.584	0.0150271
914.663	0.0150138
914.741	0.0149738
914.819	0.0149486
914.897	0.0149963
914.975	0.0149490
915.053	0.0148988
915.131	0.0149647
915.209	0.0150872
915.288	0.0148064
915.366	0.0147804
915.444	0.0149361
915.522	0.0148904
915.600	0.0149304
915.678	0.0149857
915.756	0.0150385
915.834	0.0151324
915.913	0.0150748
915.991	0.0150763
916.069	0.0149517
916.147	0.0151319
916.225	0.0151476
916.303	0.0150993
916.381	0.0150501
916.459	0.0149748
916.538	0.0151194
916.616	0.0148925
916.694	0.0150407
916.772	0.0149922
916.850	0.0151491
916.928	0.0151344
917.006	0.0150645
917.084	0.0149862
917.163	0.0148801
917.241	0.0150758
917.319	0.0150452
917.397	0.0150213
917.475	0.0150484
917.553	0.0150599
917.631	0.0149814
917.709	0.0150193
917.788	0.0150523
917.866	0.0149982
917.944	0.0149805
918.022	0.0151357
918.100	0.0149099
918.178	0.0149850
918.256	0.0152342
918.334	0.0150774
918.413	0.0151315
918.491	0.0150527
918.569	0.0150984
918.647	0.0153201
918.725	0.0151466
918.803	0.0151060
918.881	0.0150196
918.959	0.0149667
919.038	0.0151661
919.116	0.0150247
919.194	0.0149909
919.272	0.0150505
919.350	0.0151042
919.428	0.0149804
919.506	0.0150386
919.584	0.0150211
919.663	0.0149979
919.741	0.0151260
919.819	0.0150835
919.897	0.0149818
