05/20/2022	21:25:29	Ver.	4.1	UNKNOWN
Optical Delay	599.975067	Delta X		0.078125	Sweeps	1	Scan Rate	0/0
Coordinates	Axis 1	NaN	Axis 2	NaN	Axis 3	NaN	Axis 4	NaN	Axis 5	NaN	Axis 6	0.000000
TX Power	0.000000	RX Power	0.000000

599.975	0.0154039
600.053	0.0155013
600.131	0.0153419
600.209	0.0154607
600.288	0.0153786
600.366	0.0154550
600.444	0.0153282
600.522	0.0153778
600.600	0.0152848
600.678	0.0151671
600.756	0.0152126
600.834	0.0154539
600.913	0.0153023
600.991	0.0153473
601.069	0.0152707
601.147	0.0153967
601.225	0.0154190
601.303	0.0153158
601.381	0.0155086
601.459	0.0154104
601.538	0.0153568
601.616	0.0153782
601.694	0.0153181
601.772	0.0152706
601.850	0.0154124
601.928	0.0153654
602.006	0.0154607
602.084	0.0153718
602.163	0.0153083
602.241	0.0152851
602.319	0.0152856
602.397	0.0154515
602.475	0.0152383
602.553	0.0151946
602.631	0.0153520
602.709	0.0152570
602.788	0.0152843
602.866	0.0154217
602.944	0.0153622
603.022	0.0153133
603.100	0.0153829
603.178	0.0153991
603.256	0.0152607
603.334	0.0153149
603.413	0.0153055
603.491	0.0153234
603.569	0.0152519
603.647	0.0153941
603.725	0.0152921
603.803	0.0153646
603.881	0.0155585
603.959	0.0152820
604.038	0.0152036
604.116	0.0153502
604.194	0.0151817
604.272	0.0151747
604.350	0.0152342
604.428	0.0151405
604.506	0.0152749
604.584	0.0150852
604.663	0.0151643
604.741	0.0152866
604.819	0.0152451
604.897	0.0151213
604.975	0.0152630
605.053	0.0152524
605.131	0.0153486
605.209	0.0152012
605.288	0.0150788
605.366	0.0151626
605.444	0.0152354
605.522	0.0152036
605.600	0.0152297
605.678	0.0151628
605.756	0.0151979
605.834	0.0152260
605.913	0.0151796
605.991	0.0151418
606.069	0.0151978
606.147	0.0151391
606.225	0.0151036
606.303	0.0152275
606.381	0.0152876
606.459	0.0151998
606.538	0.0152893
606.616	0.0152612
606.694	0.0152052
606.772	0.0152805
606.850	0.0151987
606.928	0.0152905
607.006	0.0152608
607.084	0.0153080
607.163	0.0152254
607.241	0.0154751
607.319	0.0154008
607.397	0.0152986
607.475	0.0153634
607.553	0.0152982
607.631	0.0152995
607.709	0.0152969
607.788	0.0152736
607.866	0.0151984
607.944	0.0152705
608.022	0.0152491
608.100	0.0152229
608.178	0.0153152
608.256	0.0152332
608.334	0.0153242
608.413	0.0152631
608.491	0.0150784
608.569	0.0151933
608.647	0.0152714
608.725	0.0151779
608.803	0.0151517
608.881	0.0151741
608.959	0.0151761
609.038	0.0152214
609.116	0.0151273
609.194	0.0151681
609.272	0.0151029
609.350	0.0151518
609.428	0.0151208
609.506	0.0151669
609.584	0.0150527
609.663	0.0150667
609.741	0.0150760
609.819	0.0153229
609.897	0.0151287
609.975	0.0151217
610.053	0.0152134
610.131	0.0150953
610.209	0.0150578
610.288	0.0150496
610.366	0.0150406
610.444	0.0151006
610.522	0.0150127
610.600	0.0150653
610.678	0.0151437
610.756	0.0149950
610.834	0.0150278
610.913	0.0151221
610.991	0.0150198
611.069	0.0150933
611.147	0.0151765
611.225	0.0150679
611.303	0.0151307
611.381	0.0150131
611.459	0.0150905
611.538	0.0150713
611.616	0.0152020
611.694	0.0151737
611.772	0.0151436
611.850	0.0151364
611.928	0.0152045
612.006	0.0152682
612.084	0.0151455
612.163	0.0152295
612.241	0.0153484
612.319	0.0151385
612.397	0.0152065
612.475	0.0152879
612.553	0.0153367
612.631	0.0152673
612.709	0.0153236
612.788	0.0151877
612.866	0.0151959
612.944	0.0153405
613.022	0.0153813
613.100	0.0153299
613.178	0.0151929
613.256	0.0152289
613.334	0.0152924
613.413	0.0152412
613.491	0.0152666
613.569	0.0153345
613.647	0.0153153
613.725	0.0152876
613.803	0.0153738
613.881	0.0153138
613.959	0.0151566
614.038	0.0153159
614.116	0.0152511
614.194	0.0153658
614.272	0.0151477
614.350	0.0152506
614.428	0.0153285
614.506	0.0154085
614.584	0.0153173
614.663	0.0152517
614.741	0.0153394
614.819	0.0152634
614.897	0.0153618
614.975	0.0154012
615.053	0.0152516
615.131	0.0154262
615.209	0.0154261
615.288	0.0154053
615.366	0.0153845
615.444	0.0152719
615.522	0.0153736
615.600	0.0153310
615.678	0.0153572
615.756	0.0153111
615.834	0.0155128
615.913	0.0153900
615.991	0.0153115
616.069	0.0153596
616.147	0.0155219
616.225	0.0154537
616.303	0.0154092
616.381	0.0152487
616.459	0.0154267
616.538	0.0154196
616.616	0.0153721
616.694	0.0154443
616.772	0.0153545
616.850	0.0153822
616.928	0.0154003
617.006	0.0152916
617.084	0.0152805
617.163	0.0152516
617.241	0.0152722
617.319	0.0152766
617.397	0.0152893
617.475	0.0153269
617.553	0.0152450
617.631	0.0153059
617.709	0.0152083
617.788	0.0152853
617.866	0.0154153
617.944	0.0152726
618.022	0.0150526
618.100	0.0153235
618.178	0.0153881
618.256	0.0154341
618.334	0.0153246
618.413	0.0152596
618.491	0.0151756
618.569	0.0152292
618.647	0.0152460
618.725	0.0153398
618.803	0.0151836
618.881	0.0151861
618.959	0.0152963
619.038	0.0151099
619.116	0.0151812
619.194	0.0149997
619.272	0.0152551
619.350	0.0152724
619.428	0.0151587
619.506	0.0151265
619.584	0.0151103
619.663	0.0151950
619.741	0.0152149
619.819	0.0152988
619.897	0.0152058
619.975	0.0150882
620.053	0.0152055
620.131	0.0154146
620.209	0.0152108
620.288	0.0151020
620.366	0.0153011
620.444	0.0153309
620.522	0.0152378
620.600	0.0152658
620.678	0.0153009
620.756	0.0152095
620.834	0.0152252
620.913	0.0151907
620.991	0.0151710
621.069	0.0153937
621.147	0.0153210
621.225	0.0153407
621.303	0.0152575
621.381	0.0151744
621.459	0.0152983
621.538	0.0153762
621.616	0.0152563
621.694	0.0154320
621.772	0.0154817
621.850	0.0153529
621.928	0.0152804
622.006	0.0153533
622.084	0.0154213
622.163	0.0153951
622.241	0.0153503
622.319	0.0154365
622.397	0.0154253
622.475	0.0153476
622.553	0.0152768
622.631	0.0154817
622.709	0.0154539
622.788	0.0154588
622.866	0.0153575
622.944	0.0153863
623.022	0.0154841
623.100	0.0153902
623.178	0.0154123
623.256	0.0154136
623.334	0.0153984
623.413	0.0153324
623.491	0.0154431
623.569	0.0154550
623.647	0.0153532
623.725	0.0154940
623.803	0.0152544
623.881	0.0154522
623.959	0.0154881
624.038	0.0154157
624.116	0.0152770
624.194	0.0154713
624.272	0.0154102
624.350	0.0153476
624.428	0.0154346
624.506	0.0154991
624.584	0.0154088
624.663	0.0153624
624.741	0.0153101
624.819	0.0153838
624.897	0.0153855
624.975	0.0153844
625.053	0.0152328
625.131	0.0153308
625.209	0.0152789
625.288	0.0152912
625.366	0.0152625
625.444	0.0153320
625.522	0.0152538
625.600	0.0152399
625.678	0.0152409
625.756	0.0151917
625.834	0.0152581
625.913	0.0153014
625.991	0.0152049
626.069	0.0152944
626.147	0.0151985
626.225	0.0152538
626.303	0.0151447
626.381	0.0151040
626.459	0.0150564
626.538	0.0150504
626.616	0.0151309
626.694	0.0152161
626.772	0.0152243
626.850	0.0152671
626.928	0.0151469
627.006	0.0151723
627.084	0.0152139
627.163	0.0152092
627.241	0.0152152
627.319	0.0152544
627.397	0.0153471
627.475	0.0154001
627.553	0.0152464
627.631	0.0152239
627.709	0.0151952
627.788	0.0152809
627.866	0.0151343
627.944	0.0153294
628.022	0.0153268
628.100	0.0153147
628.178	0.0153690
628.256	0.0153982
628.334	0.0153983
628.413	0.0154713
628.491	0.0153598
628.569	0.0153976
628.647	0.0154882
628.725	0.0154307
628.803	0.0154654
628.881	0.0155536
628.959	0.0154364
629.038	0.0155439
629.116	0.0155672
629.194	0.0155672
629.272	0.0154087
629.350	0.0154552
629.428	0.0155916
629.506	0.0154868
629.584	0.0154624
629.663	0.0153763
629.741	0.0155484
629.819	0.0154883
629.897	0.0154790
629.975	0.0154771
630.053	0.0153959
630.131	0.0156232
630.209	0.0153123
630.288	0.0154317
630.366	0.0155324
630.444	0.0153262
630.522	0.0154360
630.600	0.0152976
630.678	0.0153836
630.756	0.0153331
630.834	0.0152979
630.913	0.0153977
630.991	0.0153769
631.069	0.0153046
631.147	0.0153445
631.225	0.0153201
631.303	0.0151593
631.381	0.0153709
631.459	0.0152798
631.538	0.0151391
631.616	0.0152341
631.694	0.0151624
631.772	0.0152072
631.850	0.0151002
631.928	0.0151762
632.006	0.0150808
632.084	0.0152409
632.163	0.0153024
632.241	0.0152213
632.319	0.0152260
632.397	0.0152072
632.475	0.0152892
632.553	0.0151831
632.631	0.0152168
632.709	0.0150224
632.788	0.0151247
632.866	0.0152461
632.944	0.0151688
633.022	0.0151965
633.100	0.0152079
633.178	0.0150399
633.256	0.0151441
633.334	0.0151844
633.413	0.0150713
633.491	0.0151592
633.569	0.0150775
633.647	0.0152138
633.725	0.0152081
633.803	0.0152184
633.881	0.0151479
633.959	0.0151851
634.038	0.0150102
634.116	0.0152344
634.194	0.0151232
634.272	0.0151639
634.350	0.0153351
634.428	0.0151778
634.506	0.0150303
634.584	0.0149538
634.663	0.0151617
634.741	0.0150718
634.819	0.0151010
634.897	0.0150214
634.975	0.0151263
635.053	0.0151214
635.131	0.0151070
635.209	0.0151373
635.288	0.0152544
635.366	0.0151866
635.444	0.0151756
635.522	0.0149673
635.600	0.0150401
635.678	0.0152487
635.756	0.0151542
635.834	0.0151257
635.913	0.0151051
635.991	0.0151267
636.069	0.0152593
636.147	0.0152392
636.225	0.0151327
636.303	0.0152307
636.381	0.0152541
636.459	0.0152886
636.538	0.0152597
636.616	0.0152972
636.694	0.0152314
636.772	0.0153571
636.850	0.0154028
636.928	0.0151922
637.006	0.0151865
637.084	0.0154482
637.163	0.0153490
637.241	0.0152597
637.319	0.0153736
637.397	0.0155066
637.475	0.0152729
637.553	0.0153850
637.631	0.0153188
637.709	0.0153255
637.788	0.0154759
637.866	0.0152930
637.944	0.0153160
638.022	0.0153669
638.100	0.0153175
638.178	0.0153749
638.256	0.0153609
638.334	0.0152826
638.413	0.0153722
638.491	0.0152858
638.569	0.0153331
638.647	0.0152976
638.725	0.0153797
638.803	0.0152755
638.881	0.0154010
638.959	0.0154313
639.038	0.0152200
639.116	0.0152760
639.194	0.0152213
639.272	0.0152471
639.350	0.0153107
639.428	0.0151758
639.506	0.0151986
639.584	0.0152855
639.663	0.0153490
639.741	0.0152856
639.819	0.0152483
639.897	0.0153503
639.975	0.0153833
640.053	0.0152858
640.131	0.0153114
640.209	0.0152094
640.288	0.0154068
640.366	0.0152354
640.444	0.0153468
640.522	0.0153065
640.600	0.0154082
640.678	0.0153335
640.756	0.0153704
640.834	0.0152070
640.913	0.0153145
640.991	0.0152411
641.069	0.0152892
641.147	0.0152716
641.225	0.0153703
641.303	0.0152183
641.381	0.0152469
641.459	0.0151837
641.538	0.0153396
641.616	0.0152757
641.694	0.0153354
641.772	0.0152258
641.850	0.0153345
641.928	0.0154620
642.006	0.0153448
642.084	0.0154275
642.163	0.0152823
642.241	0.0152390
642.319	0.0153181
642.397	0.0153365
642.475	0.0152904
642.553	0.0153699
642.631	0.0153318
642.709	0.0153054
642.788	0.0152434
642.866	0.0152660
642.944	0.0152604
643.022	0.0153510
643.100	0.0153589
643.178	0.0153635
643.256	0.0152335
643.334	0.0152180
643.413	0.0152818
643.491	0.0151713
643.569	0.0151329
643.647	0.0152188
643.725	0.0153043
643.803	0.0151643
643.881	0.0152676
643.959	0.0151962
644.038	0.0153051
644.116	0.0151311
644.194	0.0153810
644.272	0.0152626
644.350	0.0150900
644.428	0.0151730
644.506	0.0150500
644.584	0.0152049
644.663	0.0151061
644.741	0.0149917
644.819	0.0150931
644.897	0.0151962
644.975	0.0151630
645.053	0.0151474
645.131	0.0152628
645.209	0.0151792
645.288	0.0152046
645.366	0.0152019
645.444	0.0150926
645.522	0.0150860
645.600	0.0150956
645.678	0.0151204
645.756	0.0151210
645.834	0.0150417
645.913	0.0152813
645.991	0.0151433
646.069	0.0150543
646.147	0.0151938
646.225	0.0151653
646.303	0.0151501
646.381	0.0151322
646.459	0.0153205
646.538	0.0152639
646.616	0.0151844
646.694	0.0151303
646.772	0.0151780
646.850	0.0153208
646.928	0.0152953
647.006	0.0152016
647.084	0.0152257
647.163	0.0151876
647.241	0.0152958
647.319	0.0153469
647.397	0.0153798
647.475	0.0153457
647.553	0.0152806
647.631	0.0154100
647.709	0.0152962
647.788	0.0151736
647.866	0.0153086
647.944	0.0153614
648.022	0.0152726
648.100	0.0154361
648.178	0.0152843
648.256	0.0153479
648.334	0.0153339
648.413	0.0153973
648.491	0.0153904
648.569	0.0154512
648.647	0.0153691
648.725	0.0153931
648.803	0.0154233
648.881	0.0153524
648.959	0.0153299
649.038	0.0153351
649.116	0.0154632
649.194	0.0153819
649.272	0.0152339
649.350	0.0152891
649.428	0.0154989
649.506	0.0153227
649.584	0.0152885
649.663	0.0152728
649.741	0.0153890
649.819	0.0153570
649.897	0.0153918
649.975	0.0154122
650.053	0.0154006
650.131	0.0151630
650.209	0.0152491
650.288	0.0153680
650.366	0.0153463
650.444	0.0152711
650.522	0.0153631
650.600	0.0153568
650.678	0.0152552
650.756	0.0151840
650.834	0.0152169
650.913	0.0153530
650.991	0.0153400
651.069	0.0153098
651.147	0.0152493
651.225	0.0152711
651.303	0.0153454
651.381	0.0153407
651.459	0.0152773
651.538	0.0152868
651.616	0.0153830
651.694	0.0153252
651.772	0.0153522
651.850	0.0153142
651.928	0.0152314
652.006	0.0152560
652.084	0.0152931
652.163	0.0152792
652.241	0.0153569
652.319	0.0153040
652.397	0.0151269
652.475	0.0151740
652.553	0.0152074
652.631	0.0153098
652.709	0.0152273
652.788	0.0151565
652.866	0.0152366
652.944	0.0150520
653.022	0.0151483
653.100	0.0151749
653.178	0.0151908
653.256	0.0153027
653.334	0.0152273
653.413	0.0150784
653.491	0.0151971
653.569	0.0151655
653.647	0.0152100
653.725	0.0152166
653.803	0.0152100
653.881	0.0151234
653.959	0.0151299
654.038	0.0153622
654.116	0.0153584
654.194	0.0153704
654.272	0.0151632
654.350	0.0152856
654.428	0.0153677
654.506	0.0153473
654.584	0.0154789
654.663	0.0154265
654.741	0.0153094
654.819	0.0153194
654.897	0.0152631
654.975	0.0151812
655.053	0.0152663
655.131	0.0154065
655.209	0.0153192
655.288	0.0152965
655.366	0.0152377
655.444	0.0151788
655.522	0.0151245
655.600	0.0151738
655.678	0.0151300
655.756	0.0152988
655.834	0.0151067
655.913	0.0151525
655.991	0.0150417
656.069	0.0151765
656.147	0.0152711
656.225	0.0152019
656.303	0.0152876
656.381	0.0153431
656.459	0.0153056
656.538	0.0153892
656.616	0.0154214
656.694	0.0153828
656.772	0.0153368
656.850	0.0153468
656.928	0.0152686
657.006	0.0152775
657.084	0.0153518
657.163	0.0152011
657.241	0.0152251
657.319	0.0149876
657.397	0.0151958
657.475	0.0151833
657.553	0.0152617
657.631	0.0151140
657.709	0.0151053
657.788	0.0151235
657.866	0.0152298
657.944	0.0151582
658.022	0.0151955
658.100	0.0151797
658.178	0.0152657
658.256	0.0154836
658.334	0.0153967
658.413	0.0153234
658.491	0.0154864
658.569	0.0155373
658.647	0.0153809
658.725	0.0154390
658.803	0.0154169
658.881	0.0154991
658.959	0.0154289
659.038	0.0154162
659.116	0.0154884
659.194	0.0153547
659.272	0.0152934
659.350	0.0153106
659.428	0.0152272
659.506	0.0152764
659.584	0.0152869
659.663	0.0152217
659.741	0.0151972
659.819	0.0152285
659.897	0.0152751
659.975	0.0152319
660.053	0.0152682
660.131	0.0154559
660.209	0.0153398
660.288	0.0153040
660.366	0.0154421
660.444	0.0154542
660.522	0.0154540
660.600	0.0154074
660.678	0.0155138
660.756	0.0155353
660.834	0.0155539
660.913	0.0157026
660.991	0.0155477
661.069	0.0156152
661.147	0.0155939
661.225	0.0155862
661.303	0.0155740
661.381	0.0155344
661.459	0.0156339
661.538	0.0156079
661.616	0.0155255
661.694	0.0155107
661.772	0.0155132
661.850	0.0154276
661.928	0.0154295
662.006	0.0152835
662.084	0.0153362
662.163	0.0151120
662.241	0.0151208
662.319	0.0150848
662.397	0.0149853
662.475	0.0148022
662.553	0.0148425
662.631	0.0147568
662.709	0.0146600
662.788	0.0145992
662.866	0.0145804
662.944	0.0144901
663.022	0.0146647
663.100	0.0147446
663.178	0.0147829
663.256	0.0147604
663.334	0.0149448
663.413	0.0150990
663.491	0.0151379
663.569	0.0151727
663.647	0.0154006
663.725	0.0153867
663.803	0.0155076
663.881	0.0155725
663.959	0.0155523
664.038	0.0157237
664.116	0.0158535
664.194	0.0158446
664.272	0.0158137
664.350	0.0157677
664.428	0.0157369
664.506	0.0158875
664.584	0.0159039
664.663	0.0159230
664.741	0.0158726
664.819	0.0158020
664.897	0.0157184
664.975	0.0157113
665.053	0.0156374
665.131	0.0156583
665.209	0.0153967
665.288	0.0155018
665.366	0.0154090
665.444	0.0152773
665.522	0.0152339
665.600	0.0151382
665.678	0.0149615
665.756	0.0147421
665.834	0.0148587
665.913	0.0148663
665.991	0.0146620
666.069	0.0146821
666.147	0.0146666
666.225	0.0146618
666.303	0.0147546
666.381	0.0147798
666.459	0.0147768
666.538	0.0145097
666.616	0.0144818
666.694	0.0146047
666.772	0.0144643
666.850	0.0146017
666.928	0.0146939
667.006	0.0146711
667.084	0.0146647
667.163	0.0145496
667.241	0.0145927
667.319	0.0145636
667.397	0.0145333
667.475	0.0146788
667.553	0.0145712
667.631	0.0147023
667.709	0.0147346
667.788	0.0146249
667.866	0.0148893
667.944	0.0149399
668.022	0.0149585
668.100	0.0149842
668.178	0.0152162
668.256	0.0153104
668.334	0.0152663
668.413	0.0153598
668.491	0.0155719
668.569	0.0156230
668.647	0.0157043
668.725	0.0158264
668.803	0.0157236
668.881	0.0158733
668.959	0.0160670
669.038	0.0160634
669.116	0.0160902
669.194	0.0160390
669.272	0.0161909
669.350	0.0161398
669.428	0.0160384
669.506	0.0161997
669.584	0.0161861
669.663	0.0160891
669.741	0.0160953
669.819	0.0160188
669.897	0.0159820
669.975	0.0156524
670.053	0.0157566
670.131	0.0156833
670.209	0.0154331
670.288	0.0154057
670.366	0.0151559
670.444	0.0150394
670.522	0.0148690
670.600	0.0145752
670.678	0.0145400
670.756	0.0145909
670.834	0.0142770
670.913	0.0141856
670.991	0.0141209
671.069	0.0139635
671.147	0.0138744
671.225	0.0139848
671.303	0.0140987
671.381	0.0140296
671.459	0.0140347
671.538	0.0140652
671.616	0.0142636
671.694	0.0143210
671.772	0.0145797
671.850	0.0148363
671.928	0.0148778
672.006	0.0149109
672.084	0.0151838
672.163	0.0154154
672.241	0.0155771
672.319	0.0156785
672.397	0.0157753
672.475	0.0160502
672.553	0.0159428
672.631	0.0161551
672.709	0.0161667
672.788	0.0162378
672.866	0.0163177
672.944	0.0164406
673.022	0.0163826
673.100	0.0162643
673.178	0.0162101
673.256	0.0163181
673.334	0.0163724
673.413	0.0163646
673.491	0.0163625
673.569	0.0161501
673.647	0.0163587
673.725	0.0162408
673.803	0.0162788
673.881	0.0162759
673.959	0.0161524
674.038	0.0160374
674.116	0.0162420
674.194	0.0160955
674.272	0.0160422
674.350	0.0159556
674.428	0.0159851
674.506	0.0160594
674.584	0.0158827
674.663	0.0158053
674.741	0.0155995
674.819	0.0156472
674.897	0.0155300
674.975	0.0154130
675.053	0.0154108
675.131	0.0153479
675.209	0.0150756
675.288	0.0149660
675.366	0.0147893
675.444	0.0147310
675.522	0.0146167
675.600	0.0144662
675.678	0.0142366
675.756	0.0140414
675.834	0.0139328
675.913	0.0138429
675.991	0.0137463
676.069	0.0134695
676.147	0.0134925
676.225	0.0134576
676.303	0.0134844
676.381	0.0135610
676.459	0.0134599
676.538	0.0136434
676.616	0.0137924
676.694	0.0138463
676.772	0.0139598
676.850	0.0140792
676.928	0.0142347
677.006	0.0144333
677.084	0.0145819
677.163	0.0148141
677.241	0.0150461
677.319	0.0152390
677.397	0.0155750
677.475	0.0156042
677.553	0.0157982
677.631	0.0160737
677.709	0.0163528
677.788	0.0164397
677.866	0.0165273
677.944	0.0167127
678.022	0.0169492
678.100	0.0170637
678.178	0.0170457
678.256	0.0170866
678.334	0.0170771
678.413	0.0171461
678.491	0.0172238
678.569	0.0171178
678.647	0.0168750
678.725	0.0169414
678.803	0.0167776
678.881	0.0165265
678.959	0.0165060
679.038	0.0161685
679.116	0.0160337
679.194	0.0157541
679.272	0.0154840
679.350	0.0154004
679.428	0.0151714
679.506	0.0151678
679.584	0.0148440
679.663	0.0147357
679.741	0.0145441
679.819	0.0144851
679.897	0.0143223
679.975	0.0143228
680.053	0.0141177
680.131	0.0139857
680.209	0.0140711
680.288	0.0140334
680.366	0.0139810
680.444	0.0139027
680.522	0.0140749
680.600	0.0142378
680.678	0.0141600
680.756	0.0140902
680.834	0.0142757
680.913	0.0144476
680.991	0.0146671
681.069	0.0147504
681.147	0.0149138
681.225	0.0149471
681.303	0.0149856
681.381	0.0153244
681.459	0.0152529
681.538	0.0152847
681.616	0.0154801
681.694	0.0156118
681.772	0.0158158
681.850	0.0158076
681.928	0.0160062
682.006	0.0159631
682.084	0.0160098
682.163	0.0160192
682.241	0.0162576
682.319	0.0161351
682.397	0.0161032
682.475	0.0161258
682.553	0.0159914
682.631	0.0160858
682.709	0.0161945
682.788	0.0158880
682.866	0.0157813
682.944	0.0157379
683.022	0.0156934
683.100	0.0154768
683.178	0.0153479
683.256	0.0152246
683.334	0.0151991
683.413	0.0151813
683.491	0.0148734
683.569	0.0146624
683.647	0.0147898
683.725	0.0146666
683.803	0.0145464
683.881	0.0145877
683.959	0.0145230
684.038	0.0145023
684.116	0.0146639
684.194	0.0145734
684.272	0.0146543
684.350	0.0148756
684.428	0.0148651
684.506	0.0150256
684.584	0.0151454
684.663	0.0151389
684.741	0.0153082
684.819	0.0153507
684.897	0.0154443
684.975	0.0155679
685.053	0.0156883
685.131	0.0157346
685.209	0.0158728
685.288	0.0159225
685.366	0.0159677
685.444	0.0159346
685.522	0.0161038
685.600	0.0160437
685.678	0.0159676
685.756	0.0161343
685.834	0.0161707
685.913	0.0161008
685.991	0.0161302
686.069	0.0159108
686.147	0.0157400
686.225	0.0155362
686.303	0.0155568
686.381	0.0153574
686.459	0.0154089
686.538	0.0151591
686.616	0.0151174
686.694	0.0150442
686.772	0.0149104
686.850	0.0147969
686.928	0.0147741
687.006	0.0145564
687.084	0.0146755
687.163	0.0145705
687.241	0.0146122
687.319	0.0146547
687.397	0.0146348
687.475	0.0145805
687.553	0.0147243
687.631	0.0147506
687.709	0.0146399
687.788	0.0147404
687.866	0.0148138
687.944	0.0149011
688.022	0.0148412
688.100	0.0148465
688.178	0.0148750
688.256	0.0150326
688.334	0.0150366
688.413	0.0149117
688.491	0.0150290
688.569	0.0151015
688.647	0.0149396
688.725	0.0152676
688.803	0.0151499
688.881	0.0152287
688.959	0.0151459
689.038	0.0151401
689.116	0.0151228
689.194	0.0151862
689.272	0.0152854
689.350	0.0151490
689.428	0.0150967
689.506	0.0151235
689.584	0.0151371
689.663	0.0150865
689.741	0.0151112
689.819	0.0150385
689.897	0.0150099
689.975	0.0150423
690.053	0.0150367
690.131	0.0153030
690.209	0.0151759
690.288	0.0151636
690.366	0.0151958
690.444	0.0153639
690.522	0.0153799
690.600	0.0153606
690.678	0.0154428
690.756	0.0155078
690.834	0.0155914
690.913	0.0155171
690.991	0.0156495
691.069	0.0156690
691.147	0.0156518
691.225	0.0159491
691.303	0.0159706
691.381	0.0159834
691.459	0.0158888
691.538	0.0161212
691.616	0.0161670
691.694	0.0163084
691.772	0.0163305
691.850	0.0164595
691.928	0.0165067
692.006	0.0166525
692.084	0.0167580
692.163	0.0169378
692.241	0.0170007
692.319	0.0169521
692.397	0.0170663
692.475	0.0169994
692.553	0.0169421
692.631	0.0167931
692.709	0.0167968
692.788	0.0167570
692.866	0.0165395
692.944	0.0163569
693.022	0.0162911
693.100	0.0158634
693.178	0.0157253
693.256	0.0156150
693.334	0.0154724
693.413	0.0151060
693.491	0.0148474
693.569	0.0144760
693.647	0.0143060
693.725	0.0140563
693.803	0.0138232
693.881	0.0136385
693.959	0.0134381
694.038	0.0131266
694.116	0.0129685
694.194	0.0127493
694.272	0.0128461
694.350	0.0126369
694.428	0.0125710
694.506	0.0124628
694.584	0.0124458
694.663	0.0123978
694.741	0.0125663
694.819	0.0126910
694.897	0.0127470
694.975	0.0128653
695.053	0.0130279
695.131	0.0132339
695.209	0.0136271
695.288	0.0140549
695.366	0.0142395
695.444	0.0145480
695.522	0.0147533
695.600	0.0153414
695.678	0.0156250
695.756	0.0157864
695.834	0.0162243
695.913	0.0164874
695.991	0.0166215
696.069	0.0169751
696.147	0.0170229
696.225	0.0174683
696.303	0.0176289
696.381	0.0176108
696.459	0.0178455
696.538	0.0178671
696.616	0.0179576
696.694	0.0181696
696.772	0.0180617
696.850	0.0180164
696.928	0.0180618
697.006	0.0181015
697.084	0.0178618
697.163	0.0178027
697.241	0.0178051
697.319	0.0175451
697.397	0.0174243
697.475	0.0172271
697.553	0.0169773
697.631	0.0166029
697.709	0.0164497
697.788	0.0162785
697.866	0.0158353
697.944	0.0156440
698.022	0.0152972
698.100	0.0150887
698.178	0.0148865
698.256	0.0145403
698.334	0.0143417
698.413	0.0141932
698.491	0.0138758
698.569	0.0136948
698.647	0.0134023
698.725	0.0132889
698.803	0.0130976
698.881	0.0129486
698.959	0.0128204
699.038	0.0128032
699.116	0.0128551
699.194	0.0129425
699.272	0.0128307
699.350	0.0128265
699.428	0.0130228
699.506	0.0129693
699.584	0.0131104
699.663	0.0131683
699.741	0.0133322
699.819	0.0134902
699.897	0.0136771
699.975	0.0138620
700.053	0.0138944
700.131	0.0141920
700.209	0.0143580
700.288	0.0146002
700.366	0.0147814
700.444	0.0149339
700.522	0.0151021
700.600	0.0155118
700.678	0.0157854
700.756	0.0160490
700.834	0.0162476
700.913	0.0166396
700.991	0.0168095
701.069	0.0170917
701.147	0.0173070
701.225	0.0173919
701.303	0.0173980
701.381	0.0175894
701.459	0.0173631
701.538	0.0176369
701.616	0.0173777
701.694	0.0173840
701.772	0.0172031
701.850	0.0170546
701.928	0.0169022
702.006	0.0166631
702.084	0.0166382
702.163	0.0164321
702.241	0.0161961
702.319	0.0159532
702.397	0.0158968
702.475	0.0157536
702.553	0.0155151
702.631	0.0153300
702.709	0.0152586
702.788	0.0149992
702.866	0.0148849
702.944	0.0149123
703.022	0.0147547
703.100	0.0148891
703.178	0.0148434
703.256	0.0148885
703.334	0.0149361
703.413	0.0148827
703.491	0.0147997
703.569	0.0149171
703.647	0.0150110
703.725	0.0152636
703.803	0.0152280
703.881	0.0152686
703.959	0.0150848
704.038	0.0153107
704.116	0.0153321
704.194	0.0151083
704.272	0.0150478
704.350	0.0152445
704.428	0.0151974
704.506	0.0149220
704.584	0.0150043
704.663	0.0148646
704.741	0.0146983
704.819	0.0146309
704.897	0.0147527
704.975	0.0145419
705.053	0.0144828
705.131	0.0144492
705.209	0.0143623
705.288	0.0142792
705.366	0.0144103
705.444	0.0144643
705.522	0.0144983
705.600	0.0144985
705.678	0.0147234
705.756	0.0148635
705.834	0.0149529
705.913	0.0151511
705.991	0.0152950
706.069	0.0154715
706.147	0.0157983
706.225	0.0158944
706.303	0.0162035
706.381	0.0162431
706.459	0.0165363
706.538	0.0164954
706.616	0.0165234
706.694	0.0166502
706.772	0.0165996
706.850	0.0167886
706.928	0.0167632
707.006	0.0166741
707.084	0.0166388
707.163	0.0165906
707.241	0.0166435
707.319	0.0165935
707.397	0.0163204
707.475	0.0162141
707.553	0.0160770
707.631	0.0158922
707.709	0.0157092
707.788	0.0154422
707.866	0.0152316
707.944	0.0152077
708.022	0.0150560
708.100	0.0147964
708.178	0.0146646
708.256	0.0146256
708.334	0.0143790
708.413	0.0144645
708.491	0.0144378
708.569	0.0141670
708.647	0.0142570
708.725	0.0141642
708.803	0.0141988
708.881	0.0141969
708.959	0.0140156
709.038	0.0142353
709.116	0.0143169
709.194	0.0144574
709.272	0.0145867
709.350	0.0146063
709.428	0.0147417
709.506	0.0148535
709.584	0.0148589
709.663	0.0150923
709.741	0.0153886
709.819	0.0153399
709.897	0.0154209
709.975	0.0154940
710.053	0.0156532
710.131	0.0156290
710.209	0.0156532
710.288	0.0156689
710.366	0.0155713
710.444	0.0155856
710.522	0.0155640
710.600	0.0154198
710.678	0.0152926
710.756	0.0152451
710.834	0.0151337
710.913	0.0150623
710.991	0.0150822
711.069	0.0152151
711.147	0.0150996
711.225	0.0150232
711.303	0.0150118
711.381	0.0150756
711.459	0.0150567
711.538	0.0151648
711.616	0.0152657
711.694	0.0152832
711.772	0.0153325
711.850	0.0153713
711.928	0.0154749
712.006	0.0155418
712.084	0.0156161
712.163	0.0155930
712.241	0.0155744
712.319	0.0159509
712.397	0.0157879
712.475	0.0157520
712.553	0.0158960
712.631	0.0159225
712.709	0.0160863
712.788	0.0159537
712.866	0.0158965
712.944	0.0158956
713.022	0.0158775
713.100	0.0155232
713.178	0.0155699
713.256	0.0155733
713.334	0.0151842
713.413	0.0152676
713.491	0.0151671
713.569	0.0149242
713.647	0.0150642
713.725	0.0148159
713.803	0.0148783
713.881	0.0148950
713.959	0.0148332
714.038	0.0149123
714.116	0.0150450
714.194	0.0150588
714.272	0.0149968
714.350	0.0151176
714.428	0.0152480
714.506	0.0153335
714.584	0.0151179
714.663	0.0153648
714.741	0.0154181
714.819	0.0154167
714.897	0.0155032
714.975	0.0156483
715.053	0.0156236
715.131	0.0156698
715.209	0.0156699
715.288	0.0156345
715.366	0.0156393
715.444	0.0156438
715.522	0.0154574
715.600	0.0154691
715.678	0.0152792
715.756	0.0152244
715.834	0.0149991
715.913	0.0149326
715.991	0.0147623
716.069	0.0147531
716.147	0.0147056
716.225	0.0147445
716.303	0.0145862
716.381	0.0145271
716.459	0.0145102
716.538	0.0147805
716.616	0.0148087
716.694	0.0150163
716.772	0.0150753
716.850	0.0150295
716.928	0.0152164
717.006	0.0154113
717.084	0.0156056
717.163	0.0156776
717.241	0.0157304
717.319	0.0158939
717.397	0.0159229
717.475	0.0160215
717.553	0.0161021
717.631	0.0162365
717.709	0.0163692
717.788	0.0163116
717.866	0.0164009
717.944	0.0165391
718.022	0.0165314
718.100	0.0164833
718.178	0.0165106
718.256	0.0165729
718.334	0.0164404
718.413	0.0163218
718.491	0.0162141
718.569	0.0162379
718.647	0.0162002
718.725	0.0158556
718.803	0.0157272
718.881	0.0157044
718.959	0.0155031
719.038	0.0155065
719.116	0.0152381
719.194	0.0152740
719.272	0.0151690
719.350	0.0150622
719.428	0.0150218
719.506	0.0150179
719.584	0.0149164
719.663	0.0150055
719.741	0.0149052
719.819	0.0148325
719.897	0.0148496
719.975	0.0147400
720.053	0.0147205
720.131	0.0146633
720.209	0.0146536
720.288	0.0145361
720.366	0.0144416
720.444	0.0142327
720.522	0.0142656
720.600	0.0142529
720.678	0.0142923
720.756	0.0143503
720.834	0.0142847
720.913	0.0144015
720.991	0.0142752
721.069	0.0141972
721.147	0.0142124
721.225	0.0141781
721.303	0.0142236
721.381	0.0143018
721.459	0.0142937
721.538	0.0145072
721.616	0.0143552
721.694	0.0145415
721.772	0.0147328
721.850	0.0147363
721.928	0.0150082
722.006	0.0150477
722.084	0.0151781
722.163	0.0154465
722.241	0.0156738
722.319	0.0157465
722.397	0.0160423
722.475	0.0161588
722.553	0.0164547
722.631	0.0165897
722.709	0.0165756
722.788	0.0165673
722.866	0.0164120
722.944	0.0166461
723.022	0.0165872
723.100	0.0165068
723.178	0.0166602
723.256	0.0165059
723.334	0.0165099
723.413	0.0164498
723.491	0.0163233
723.569	0.0162328
723.647	0.0161675
723.725	0.0159820
723.803	0.0159956
723.881	0.0159473
723.959	0.0157999
724.038	0.0157054
724.116	0.0155315
724.194	0.0153995
724.272	0.0152309
724.350	0.0152819
724.428	0.0151426
724.506	0.0150961
724.584	0.0149448
724.663	0.0148794
724.741	0.0149170
724.819	0.0147796
724.897	0.0148620
724.975	0.0149338
725.053	0.0147298
725.131	0.0147151
725.209	0.0148590
725.288	0.0146356
725.366	0.0145336
725.444	0.0146970
725.522	0.0145745
725.600	0.0145300
725.678	0.0145738
725.756	0.0145413
725.834	0.0144481
725.913	0.0143933
725.991	0.0145800
726.069	0.0146303
726.147	0.0146023
726.225	0.0147309
726.303	0.0147389
726.381	0.0147821
726.459	0.0149923
726.538	0.0151127
726.616	0.0153767
726.694	0.0153424
726.772	0.0153687
726.850	0.0155910
726.928	0.0156548
727.006	0.0155385
727.084	0.0156964
727.163	0.0157499
727.241	0.0157729
727.319	0.0156844
727.397	0.0157371
727.475	0.0157384
727.553	0.0155740
727.631	0.0155807
727.709	0.0156029
727.788	0.0155394
727.866	0.0155757
727.944	0.0153057
728.022	0.0153616
728.100	0.0152165
728.178	0.0149986
728.256	0.0151975
728.334	0.0152349
728.413	0.0150455
728.491	0.0150764
728.569	0.0150149
728.647	0.0151003
728.725	0.0149339
728.803	0.0149619
728.881	0.0148401
728.959	0.0149651
729.038	0.0148804
729.116	0.0149075
729.194	0.0149168
729.272	0.0148455
729.350	0.0150277
729.428	0.0149461
729.506	0.0152116
729.584	0.0153451
729.663	0.0154948
729.741	0.0153573
729.819	0.0154901
729.897	0.0156632
729.975	0.0158351
730.053	0.0157990
730.131	0.0157185
730.209	0.0158892
730.288	0.0159570
730.366	0.0158334
730.444	0.0159989
730.522	0.0159830
730.600	0.0159032
730.678	0.0159524
730.756	0.0158341
730.834	0.0158510
730.913	0.0159489
730.991	0.0158473
731.069	0.0156921
731.147	0.0155721
731.225	0.0155085
731.303	0.0153115
731.381	0.0152962
731.459	0.0151120
731.538	0.0149184
731.616	0.0147712
731.694	0.0147552
731.772	0.0146439
731.850	0.0143976
731.928	0.0143375
732.006	0.0143047
732.084	0.0143158
732.163	0.0142199
732.241	0.0142483
732.319	0.0142124
732.397	0.0144315
732.475	0.0144953
732.553	0.0145956
732.631	0.0147591
732.709	0.0148738
732.788	0.0151180
732.866	0.0151871
732.944	0.0154301
733.022	0.0155504
733.100	0.0156955
733.178	0.0158752
733.256	0.0161018
733.334	0.0160491
733.413	0.0163192
733.491	0.0163921
733.569	0.0165737
733.647	0.0165122
733.725	0.0164992
733.803	0.0166270
733.881	0.0165553
733.959	0.0166792
734.038	0.0165599
734.116	0.0164096
734.194	0.0161123
734.272	0.0160470
734.350	0.0161333
734.428	0.0158809
734.506	0.0156702
734.584	0.0153993
734.663	0.0152132
734.741	0.0152322
734.819	0.0150863
734.897	0.0148951
734.975	0.0147032
735.053	0.0146633
735.131	0.0143616
735.209	0.0142203
735.288	0.0142753
735.366	0.0141045
735.444	0.0142183
735.522	0.0141145
735.600	0.0141549
735.678	0.0140940
735.756	0.0142236
735.834	0.0143266
735.913	0.0144355
735.991	0.0145786
736.069	0.0146616
736.147	0.0148965
736.225	0.0150860
736.303	0.0151853
736.381	0.0154140
736.459	0.0155994
736.538	0.0157040
736.616	0.0157589
736.694	0.0159737
736.772	0.0161169
736.850	0.0160418
736.928	0.0160750
737.006	0.0162389
737.084	0.0162170
737.163	0.0161871
737.241	0.0162025
737.319	0.0162073
737.397	0.0161747
737.475	0.0162416
737.553	0.0162224
737.631	0.0161303
737.709	0.0161717
737.788	0.0157563
737.866	0.0158590
737.944	0.0157008
738.022	0.0157079
738.100	0.0154683
738.178	0.0155245
738.256	0.0154081
738.334	0.0153244
738.413	0.0152724
738.491	0.0150226
738.569	0.0149359
738.647	0.0149683
738.725	0.0148458
738.803	0.0147269
738.881	0.0146219
738.959	0.0146955
739.038	0.0147119
739.116	0.0145332
739.194	0.0144233
739.272	0.0142573
739.350	0.0143990
739.428	0.0143303
739.506	0.0142044
739.584	0.0140868
739.663	0.0140700
739.741	0.0140836
739.819	0.0140887
739.897	0.0140153
739.975	0.0140035
740.053	0.0141098
740.131	0.0142634
740.209	0.0144532
740.288	0.0145172
740.366	0.0145653
740.444	0.0148127
740.522	0.0150283
740.600	0.0151044
740.678	0.0152950
740.756	0.0154552
740.834	0.0157516
740.913	0.0158813
740.991	0.0158424
741.069	0.0160007
741.147	0.0161055
741.225	0.0161153
741.303	0.0162490
741.381	0.0162586
741.459	0.0162376
741.538	0.0163332
741.616	0.0161211
741.694	0.0162009
741.772	0.0160571
741.850	0.0161578
741.928	0.0160945
742.006	0.0159658
742.084	0.0161091
742.163	0.0160068
742.241	0.0159058
742.319	0.0157557
742.397	0.0158087
742.475	0.0156165
742.553	0.0156801
742.631	0.0155838
742.709	0.0156114
742.788	0.0155791
742.866	0.0155671
742.944	0.0155060
743.022	0.0155508
743.100	0.0154649
743.178	0.0154106
743.256	0.0152422
743.334	0.0152182
743.413	0.0151965
743.491	0.0151951
743.569	0.0150775
743.647	0.0148965
743.725	0.0147781
743.803	0.0146530
743.881	0.0146412
743.959	0.0142660
744.038	0.0142462
744.116	0.0142158
744.194	0.0141288
744.272	0.0140919
744.350	0.0139410
744.428	0.0139622
744.506	0.0139887
744.584	0.0139475
744.663	0.0139376
744.741	0.0139724
744.819	0.0141276
744.897	0.0144285
744.975	0.0144540
745.053	0.0146702
745.131	0.0148380
745.209	0.0148219
745.288	0.0151500
745.366	0.0154424
745.444	0.0156485
745.522	0.0157777
745.600	0.0159885
745.678	0.0159193
745.756	0.0161816
745.834	0.0164131
745.913	0.0163644
745.991	0.0164944
746.069	0.0166287
746.147	0.0166558
746.225	0.0165919
746.303	0.0165706
746.381	0.0165879
746.459	0.0166921
746.538	0.0164654
746.616	0.0164088
746.694	0.0163818
746.772	0.0161673
746.850	0.0160796
746.928	0.0159985
747.006	0.0157391
747.084	0.0156867
747.163	0.0153658
747.241	0.0151859
747.319	0.0150947
747.397	0.0150092
747.475	0.0147274
747.553	0.0146537
747.631	0.0145571
747.709	0.0141956
747.788	0.0144580
747.866	0.0142210
747.944	0.0142756
748.022	0.0142091
748.100	0.0141628
748.178	0.0141854
748.256	0.0144135
748.334	0.0142805
748.413	0.0143848
748.491	0.0145567
748.569	0.0145913
748.647	0.0148526
748.725	0.0149720
748.803	0.0151604
748.881	0.0153797
748.959	0.0153923
749.038	0.0154832
749.116	0.0157333
749.194	0.0156264
749.272	0.0155827
749.350	0.0157682
749.428	0.0157414
749.506	0.0156186
749.584	0.0156366
749.663	0.0157220
749.741	0.0155745
749.819	0.0156166
749.897	0.0155676
749.975	0.0154303
750.053	0.0151831
750.131	0.0150929
750.209	0.0150105
750.288	0.0148574
750.366	0.0148605
750.444	0.0147923
750.522	0.0146309
750.600	0.0146069
750.678	0.0144937
750.756	0.0143130
750.834	0.0143453
750.913	0.0143983
750.991	0.0144050
751.069	0.0143660
751.147	0.0145828
751.225	0.0143961
751.303	0.0145129
751.381	0.0145377
751.459	0.0145251
751.538	0.0146711
751.616	0.0145518
751.694	0.0145946
751.772	0.0148834
751.850	0.0149747
751.928	0.0150934
752.006	0.0152631
752.084	0.0152082
752.163	0.0154358
752.241	0.0154272
752.319	0.0155430
752.397	0.0155251
752.475	0.0157202
752.553	0.0158175
752.631	0.0156702
752.709	0.0158035
752.788	0.0159577
752.866	0.0160378
752.944	0.0159602
753.022	0.0159337
753.100	0.0159536
753.178	0.0159798
753.256	0.0161075
753.334	0.0160154
753.413	0.0160743
753.491	0.0159931
753.569	0.0159824
753.647	0.0159405
753.725	0.0160667
753.803	0.0161391
753.881	0.0161208
753.959	0.0159963
754.038	0.0159299
754.116	0.0158650
754.194	0.0158064
754.272	0.0157278
754.350	0.0156734
754.428	0.0155814
754.506	0.0153895
754.584	0.0152683
754.663	0.0152850
754.741	0.0151081
754.819	0.0149956
754.897	0.0148557
754.975	0.0145434
755.053	0.0146294
755.131	0.0144822
755.209	0.0143698
755.288	0.0143748
755.366	0.0143681
755.444	0.0143193
755.522	0.0143451
755.600	0.0143539
755.678	0.0143270
755.756	0.0144353
755.834	0.0145826
755.913	0.0146407
755.991	0.0148221
756.069	0.0148643
756.147	0.0151411
756.225	0.0153083
756.303	0.0153470
756.381	0.0154636
756.459	0.0155255
756.538	0.0156786
756.616	0.0158738
756.694	0.0160954
756.772	0.0159877
756.850	0.0162835
756.928	0.0163120
757.006	0.0161858
757.084	0.0161758
757.163	0.0162151
757.241	0.0161783
757.319	0.0161212
757.397	0.0161217
757.475	0.0159709
757.553	0.0158607
757.631	0.0157924
757.709	0.0154013
757.788	0.0152600
757.866	0.0152126
757.944	0.0151358
758.022	0.0149354
758.100	0.0149253
758.178	0.0147781
758.256	0.0148611
758.334	0.0146743
758.413	0.0147014
758.491	0.0146746
758.569	0.0148168
758.647	0.0147990
758.725	0.0148047
758.803	0.0149321
758.881	0.0149581
758.959	0.0150944
759.038	0.0151127
759.116	0.0151770
759.194	0.0152306
759.272	0.0152345
759.350	0.0152734
759.428	0.0153355
759.506	0.0154788
759.584	0.0155202
759.663	0.0153533
759.741	0.0152865
759.819	0.0152892
759.897	0.0152892
759.975	0.0152032
760.053	0.0151621
760.131	0.0151826
760.209	0.0152051
760.288	0.0151740
760.366	0.0151425
760.444	0.0152498
760.522	0.0151758
760.600	0.0152640
760.678	0.0151598
760.756	0.0152163
760.834	0.0153034
760.913	0.0155350
760.991	0.0154768
761.069	0.0154408
761.147	0.0155689
761.225	0.0156651
761.303	0.0157952
761.381	0.0157368
761.459	0.0157215
761.538	0.0157980
761.616	0.0156281
761.694	0.0156995
761.772	0.0155741
761.850	0.0155082
761.928	0.0156175
762.006	0.0154528
762.084	0.0153523
762.163	0.0154883
762.241	0.0155099
762.319	0.0154283
762.397	0.0153731
762.475	0.0151529
762.553	0.0153122
762.631	0.0152731
762.709	0.0153374
762.788	0.0151886
762.866	0.0151016
762.944	0.0150102
763.022	0.0150021
763.100	0.0150089
763.178	0.0148221
763.256	0.0147961
763.334	0.0147636
763.413	0.0148380
763.491	0.0146539
763.569	0.0147469
763.647	0.0147193
763.725	0.0147234
763.803	0.0147249
763.881	0.0148389
763.959	0.0148858
764.038	0.0149615
764.116	0.0150874
764.194	0.0151739
764.272	0.0152798
764.350	0.0154014
764.428	0.0154709
764.506	0.0155223
764.584	0.0156476
764.663	0.0155988
764.741	0.0156460
764.819	0.0157213
764.897	0.0156342
764.975	0.0155543
765.053	0.0157398
765.131	0.0155908
765.209	0.0156143
765.288	0.0156187
765.366	0.0155702
765.444	0.0155379
765.522	0.0155017
765.600	0.0155621
765.678	0.0155121
765.756	0.0155017
765.834	0.0155608
765.913	0.0153806
765.991	0.0154356
766.069	0.0153664
766.147	0.0154155
766.225	0.0154945
766.303	0.0152937
766.381	0.0152020
766.459	0.0152263
766.538	0.0152268
766.616	0.0152526
766.694	0.0151184
766.772	0.0151061
766.850	0.0149660
766.928	0.0149951
767.006	0.0149646
767.084	0.0148904
767.163	0.0148446
767.241	0.0147028
767.319	0.0146674
767.397	0.0146306
767.475	0.0147821
767.553	0.0146780
767.631	0.0145023
767.709	0.0145666
767.788	0.0146376
767.866	0.0148203
767.944	0.0148657
768.022	0.0149181
768.100	0.0150916
768.178	0.0150368
768.256	0.0153934
768.334	0.0154433
768.413	0.0156912
768.491	0.0156387
768.569	0.0158587
768.647	0.0160167
768.725	0.0160873
768.803	0.0160525
768.881	0.0161826
768.959	0.0161781
769.038	0.0161467
769.116	0.0161731
769.194	0.0161259
769.272	0.0160520
769.350	0.0159554
769.428	0.0157565
769.506	0.0158447
769.584	0.0158324
769.663	0.0156053
769.741	0.0156252
769.819	0.0154830
769.897	0.0154623
769.975	0.0152421
770.053	0.0151662
770.131	0.0150977
770.209	0.0148046
770.288	0.0148938
770.366	0.0148917
770.444	0.0149128
770.522	0.0147189
770.600	0.0146539
770.678	0.0145030
770.756	0.0145567
770.834	0.0144850
770.913	0.0145727
770.991	0.0146246
771.069	0.0146968
771.147	0.0146589
771.225	0.0146661
771.303	0.0146891
771.381	0.0148381
771.459	0.0149147
771.538	0.0147659
771.616	0.0148268
771.694	0.0150314
771.772	0.0149603
771.850	0.0150768
771.928	0.0152058
772.006	0.0152457
772.084	0.0152342
772.163	0.0152285
772.241	0.0153766
772.319	0.0151579
772.397	0.0153443
772.475	0.0155306
772.553	0.0152950
772.631	0.0154423
772.709	0.0154453
772.788	0.0154855
772.866	0.0153277
772.944	0.0154774
773.022	0.0154980
773.100	0.0154021
773.178	0.0154787
773.256	0.0154959
773.334	0.0153914
773.413	0.0154070
773.491	0.0153989
773.569	0.0153574
773.647	0.0154211
773.725	0.0153841
773.803	0.0154961
773.881	0.0156084
773.959	0.0154623
774.038	0.0154536
774.116	0.0153738
774.194	0.0155444
774.272	0.0155796
774.350	0.0156311
774.428	0.0154517
774.506	0.0154881
774.584	0.0153863
774.663	0.0155003
774.741	0.0154926
774.819	0.0154156
774.897	0.0153227
774.975	0.0153532
775.053	0.0152410
775.131	0.0154864
775.209	0.0154185
775.288	0.0153610
775.366	0.0152579
775.444	0.0154208
775.522	0.0152606
775.600	0.0153916
775.678	0.0154436
775.756	0.0155067
775.834	0.0154207
775.913	0.0154420
775.991	0.0155577
776.069	0.0155174
776.147	0.0154230
776.225	0.0154982
776.303	0.0155283
776.381	0.0153593
776.459	0.0154317
776.538	0.0153652
776.616	0.0154298
776.694	0.0154282
776.772	0.0153392
776.850	0.0151680
776.928	0.0150363
777.006	0.0151154
777.084	0.0151450
777.163	0.0151014
777.241	0.0150221
777.319	0.0149483
777.397	0.0149216
777.475	0.0147324
777.553	0.0148281
777.631	0.0148903
777.709	0.0147175
777.788	0.0148541
777.866	0.0148741
777.944	0.0148321
778.022	0.0148534
778.100	0.0149880
778.178	0.0150159
778.256	0.0150559
778.334	0.0150311
778.413	0.0151273
778.491	0.0152457
778.569	0.0151508
778.647	0.0153455
778.725	0.0153550
778.803	0.0155843
778.881	0.0155544
778.959	0.0154515
779.038	0.0154598
779.116	0.0156053
779.194	0.0157356
779.272	0.0155947
779.350	0.0155399
779.428	0.0155614
779.506	0.0155837
779.584	0.0155480
779.663	0.0155678
779.741	0.0155290
779.819	0.0154582
779.897	0.0154660
779.975	0.0152431
780.053	0.0152200
780.131	0.0153396
780.209	0.0152392
780.288	0.0150227
780.366	0.0151494
780.444	0.0149887
780.522	0.0149548
780.600	0.0149683
780.678	0.0148096
780.756	0.0148270
780.834	0.0148142
780.913	0.0147590
780.991	0.0148949
781.069	0.0147925
781.147	0.0150270
781.225	0.0150048
781.303	0.0149318
781.381	0.0150078
781.459	0.0150014
781.538	0.0149413
781.616	0.0149315
781.694	0.0150171
781.772	0.0149187
781.850	0.0151031
781.928	0.0151144
782.006	0.0150324
782.084	0.0149985
782.163	0.0150037
782.241	0.0149902
782.319	0.0151561
782.397	0.0151064
782.475	0.0149593
782.553	0.0149191
782.631	0.0149999
782.709	0.0151517
782.788	0.0152868
782.866	0.0150248
782.944	0.0151926
783.022	0.0151781
783.100	0.0153061
783.178	0.0154162
783.256	0.0153904
783.334	0.0153344
783.413	0.0153927
783.491	0.0155743
783.569	0.0155608
783.647	0.0155790
783.725	0.0156510
783.803	0.0155827
783.881	0.0156557
783.959	0.0155649
784.038	0.0156438
784.116	0.0155426
784.194	0.0156641
784.272	0.0155929
784.350	0.0155361
784.428	0.0155882
784.506	0.0155470
784.584	0.0154135
784.663	0.0155563
784.741	0.0155367
784.819	0.0154951
784.897	0.0155261
784.975	0.0156895
785.053	0.0155492
785.131	0.0155963
785.209	0.0156928
785.288	0.0157223
785.366	0.0157635
785.444	0.0156863
785.522	0.0156982
785.600	0.0157951
785.678	0.0157193
785.756	0.0157365
785.834	0.0157374
785.913	0.0156448
785.991	0.0154362
786.069	0.0154406
786.147	0.0154545
786.225	0.0153938
786.303	0.0153412
786.381	0.0152234
786.459	0.0152700
786.538	0.0153506
786.616	0.0151166
786.694	0.0151508
786.772	0.0152660
786.850	0.0151365
786.928	0.0151673
787.006	0.0151594
787.084	0.0151073
787.163	0.0150438
787.241	0.0152789
787.319	0.0152866
787.397	0.0151460
787.475	0.0152642
787.553	0.0153149
787.631	0.0152269
787.709	0.0153780
787.788	0.0152554
787.866	0.0154136
787.944	0.0155180
788.022	0.0153975
788.100	0.0155140
788.178	0.0154802
788.256	0.0155712
788.334	0.0156139
788.413	0.0155692
788.491	0.0155563
788.569	0.0156606
788.647	0.0156658
788.725	0.0155959
788.803	0.0156268
788.881	0.0155968
788.959	0.0154890
789.038	0.0156567
789.116	0.0155998
789.194	0.0154733
789.272	0.0153905
789.350	0.0153261
789.428	0.0152669
789.506	0.0151821
789.584	0.0152274
789.663	0.0152219
789.741	0.0150885
789.819	0.0150641
789.897	0.0149314
789.975	0.0150281
790.053	0.0149844
790.131	0.0149529
790.209	0.0149388
790.288	0.0150126
790.366	0.0148776
790.444	0.0150191
790.522	0.0149098
790.600	0.0148403
790.678	0.0148937
790.756	0.0150094
790.834	0.0150192
790.913	0.0148556
790.991	0.0149526
791.069	0.0149249
791.147	0.0149368
791.225	0.0150249
791.303	0.0150294
791.381	0.0147482
791.459	0.0149635
791.538	0.0149017
791.616	0.0148790
791.694	0.0149722
791.772	0.0150446
791.850	0.0148381
791.928	0.0150368
792.006	0.0150447
792.084	0.0150289
792.163	0.0151183
792.241	0.0151400
792.319	0.0152180
792.397	0.0151151
792.475	0.0152155
792.553	0.0153458
792.631	0.0153522
792.709	0.0154229
792.788	0.0155305
792.866	0.0155344
792.944	0.0155801
793.022	0.0156460
793.100	0.0156871
793.178	0.0158105
793.256	0.0158140
793.334	0.0158968
793.413	0.0157724
793.491	0.0158041
793.569	0.0158962
793.647	0.0158199
793.725	0.0158232
793.803	0.0158385
793.881	0.0157554
793.959	0.0158731
794.038	0.0158586
794.116	0.0155826
794.194	0.0156241
794.272	0.0157789
794.350	0.0157317
794.428	0.0156747
794.506	0.0156684
794.584	0.0155821
794.663	0.0155036
794.741	0.0154733
794.819	0.0153760
794.897	0.0151682
794.975	0.0151212
795.053	0.0152763
795.131	0.0151395
795.209	0.0150542
795.288	0.0150716
795.366	0.0150079
795.444	0.0150364
795.522	0.0150291
795.600	0.0149844
795.678	0.0148930
795.756	0.0149797
795.834	0.0150731
795.913	0.0148691
795.991	0.0149730
796.069	0.0151050
796.147	0.0149962
796.225	0.0150793
796.303	0.0150911
796.381	0.0151141
796.459	0.0152549
796.538	0.0152851
796.616	0.0151521
796.694	0.0152573
796.772	0.0152747
796.850	0.0151735
796.928	0.0153777
797.006	0.0153162
797.084	0.0155157
797.163	0.0154639
797.241	0.0154985
797.319	0.0154509
797.397	0.0155563
797.475	0.0156760
797.553	0.0156298
797.631	0.0156391
797.709	0.0157619
797.788	0.0157961
797.866	0.0157368
797.944	0.0156689
798.022	0.0157196
798.100	0.0157409
798.178	0.0157668
798.256	0.0155995
798.334	0.0157661
798.413	0.0158118
798.491	0.0157549
798.569	0.0156744
798.647	0.0155563
798.725	0.0153892
798.803	0.0154449
798.881	0.0153426
798.959	0.0151907
799.038	0.0152833
799.116	0.0152191
799.194	0.0152655
799.272	0.0151820
799.350	0.0150961
799.428	0.0150260
799.506	0.0151118
799.584	0.0148309
799.663	0.0149786
799.741	0.0150530
799.819	0.0149786
799.897	0.0150493
799.975	0.0150228
800.053	0.0149905
800.131	0.0149319
800.209	0.0150626
800.288	0.0150381
800.366	0.0150381
800.444	0.0152229
800.522	0.0151299
800.600	0.0150515
800.678	0.0151495
800.756	0.0151791
800.834	0.0151285
800.913	0.0151526
800.991	0.0150705
801.069	0.0149732
801.147	0.0149899
801.225	0.0150047
801.303	0.0149924
801.381	0.0149410
801.459	0.0148909
801.538	0.0148766
801.616	0.0149659
801.694	0.0150834
801.772	0.0151206
801.850	0.0150177
801.928	0.0151741
802.006	0.0150430
802.084	0.0151997
802.163	0.0150867
802.241	0.0152247
802.319	0.0153461
802.397	0.0154176
802.475	0.0155222
802.553	0.0155490
802.631	0.0154594
802.709	0.0153613
802.788	0.0154488
802.866	0.0156149
802.944	0.0155729
803.022	0.0155021
803.100	0.0155186
803.178	0.0156298
803.256	0.0155173
803.334	0.0156057
803.413	0.0155395
803.491	0.0154119
803.569	0.0155165
803.647	0.0155283
803.725	0.0154994
803.803	0.0153876
803.881	0.0155497
803.959	0.0155065
804.038	0.0153748
804.116	0.0155260
804.194	0.0155025
804.272	0.0153789
804.350	0.0153382
804.428	0.0151949
804.506	0.0153879
804.584	0.0154206
804.663	0.0153253
804.741	0.0154269
804.819	0.0154559
804.897	0.0152297
804.975	0.0153489
805.053	0.0155030
805.131	0.0152665
805.209	0.0154545
805.288	0.0153370
805.366	0.0153291
805.444	0.0153786
805.522	0.0152991
805.600	0.0154969
805.678	0.0153269
805.756	0.0154008
805.834	0.0152243
805.913	0.0153274
805.991	0.0152926
806.069	0.0154470
806.147	0.0155066
806.225	0.0152834
806.303	0.0153902
806.381	0.0154211
806.459	0.0154108
806.538	0.0153812
806.616	0.0155003
806.694	0.0153258
806.772	0.0153407
806.850	0.0152972
806.928	0.0152430
807.006	0.0152785
807.084	0.0153206
807.163	0.0152461
807.241	0.0153047
807.319	0.0150742
807.397	0.0151632
807.475	0.0151150
807.553	0.0149900
807.631	0.0151431
807.709	0.0149625
807.788	0.0148963
807.866	0.0150378
807.944	0.0150832
808.022	0.0151365
808.100	0.0150003
808.178	0.0150027
808.256	0.0150788
808.334	0.0150875
808.413	0.0152032
808.491	0.0152298
808.569	0.0151672
808.647	0.0151113
808.725	0.0150643
808.803	0.0151079
808.881	0.0152686
808.959	0.0152143
809.038	0.0151269
809.116	0.0152135
809.194	0.0152408
809.272	0.0152389
809.350	0.0151901
809.428	0.0152064
809.506	0.0151460
809.584	0.0151608
809.663	0.0152716
809.741	0.0153427
809.819	0.0152833
809.897	0.0153638
809.975	0.0152047
810.053	0.0151963
810.131	0.0153019
810.209	0.0154078
810.288	0.0154458
810.366	0.0152494
810.444	0.0151891
810.522	0.0151754
810.600	0.0151444
810.678	0.0152192
810.756	0.0151496
810.834	0.0151681
810.913	0.0151714
810.991	0.0150620
811.069	0.0151886
811.147	0.0151364
811.225	0.0150748
811.303	0.0150967
811.381	0.0150384
811.459	0.0151614
811.538	0.0152028
811.616	0.0151243
811.694	0.0150787
811.772	0.0149641
811.850	0.0150394
811.928	0.0151977
812.006	0.0150808
812.084	0.0150342
812.163	0.0149083
812.241	0.0152123
812.319	0.0151497
812.397	0.0152324
812.475	0.0150788
812.553	0.0152555
812.631	0.0154433
812.709	0.0152303
812.788	0.0151719
812.866	0.0152345
812.944	0.0154441
813.022	0.0153372
813.100	0.0153541
813.178	0.0154504
813.256	0.0151762
813.334	0.0154844
813.413	0.0155178
813.491	0.0155054
813.569	0.0153761
813.647	0.0154782
813.725	0.0154749
813.803	0.0155173
813.881	0.0156240
813.959	0.0156228
814.038	0.0155730
814.116	0.0157491
814.194	0.0156059
814.272	0.0158370
814.350	0.0158727
814.428	0.0156549
814.506	0.0157707
814.584	0.0158069
814.663	0.0158701
814.741	0.0157203
814.819	0.0158858
814.897	0.0158807
814.975	0.0157624
815.053	0.0156544
815.131	0.0157835
815.209	0.0156976
815.288	0.0156448
815.366	0.0157162
815.444	0.0154765
815.522	0.0156208
815.600	0.0155672
815.678	0.0155286
815.756	0.0153690
815.834	0.0155468
815.913	0.0154698
815.991	0.0153628
816.069	0.0154082
816.147	0.0152237
816.225	0.0152217
816.303	0.0154151
816.381	0.0149650
816.459	0.0151480
816.538	0.0150491
816.616	0.0149950
816.694	0.0150011
816.772	0.0149737
816.850	0.0148934
816.928	0.0148759
817.006	0.0150495
817.084	0.0150667
817.163	0.0149200
817.241	0.0150326
817.319	0.0149784
817.397	0.0151259
817.475	0.0149792
817.553	0.0151075
817.631	0.0152042
817.709	0.0151508
817.788	0.0150537
817.866	0.0149657
817.944	0.0150725
818.022	0.0152763
818.100	0.0152161
818.178	0.0151205
818.256	0.0152253
818.334	0.0153417
818.413	0.0152940
818.491	0.0153098
818.569	0.0153036
818.647	0.0151987
818.725	0.0151765
818.803	0.0152772
818.881	0.0152079
818.959	0.0153454
819.038	0.0153344
819.116	0.0152611
819.194	0.0153980
819.272	0.0154733
819.350	0.0153841
819.428	0.0154473
819.506	0.0154429
819.584	0.0155044
819.663	0.0154964
819.741	0.0153810
819.819	0.0155077
819.897	0.0156343
819.975	0.0155318
820.053	0.0155823
820.131	0.0154681
820.209	0.0154900
820.288	0.0154459
820.366	0.0154639
820.444	0.0154356
820.522	0.0154426
820.600	0.0154025
820.678	0.0153998
820.756	0.0153922
820.834	0.0152953
820.913	0.0153849
820.991	0.0152277
821.069	0.0154112
821.147	0.0152213
821.225	0.0152380
821.303	0.0152045
821.381	0.0151340
821.459	0.0151057
821.538	0.0150704
821.616	0.0151942
821.694	0.0150497
821.772	0.0150119
821.850	0.0150903
821.928	0.0150796
822.006	0.0150236
822.084	0.0151684
822.163	0.0150625
822.241	0.0149471
822.319	0.0149329
822.397	0.0149818
822.475	0.0150880
822.553	0.0151273
822.631	0.0150455
822.709	0.0150303
822.788	0.0150959
822.866	0.0151744
822.944	0.0150755
823.022	0.0151443
823.100	0.0151853
823.178	0.0151898
823.256	0.0152338
823.334	0.0151757
823.413	0.0152408
823.491	0.0152973
823.569	0.0152605
823.647	0.0153017
823.725	0.0152748
823.803	0.0153280
823.881	0.0152366
823.959	0.0153619
824.038	0.0153037
824.116	0.0152917
824.194	0.0153216
824.272	0.0152376
824.350	0.0151688
824.428	0.0153454
824.506	0.0154277
824.584	0.0152480
824.663	0.0152848
824.741	0.0154197
824.819	0.0152287
824.897	0.0151881
824.975	0.0153389
825.053	0.0153609
825.131	0.0153010
825.209	0.0152780
825.288	0.0153352
825.366	0.0154414
825.444	0.0153338
825.522	0.0153530
825.600	0.0151533
825.678	0.0151861
825.756	0.0152020
825.834	0.0152708
825.913	0.0152932
825.991	0.0151362
826.069	0.0151672
826.147	0.0153032
826.225	0.0150893
826.303	0.0152134
826.381	0.0152305
826.459	0.0151343
826.538	0.0151104
826.616	0.0151755
826.694	0.0151401
826.772	0.0150693
826.850	0.0151859
826.928	0.0151191
827.006	0.0151971
827.084	0.0151407
827.163	0.0150758
827.241	0.0151527
827.319	0.0151994
827.397	0.0150549
827.475	0.0150901
827.553	0.0150423
827.631	0.0152462
827.709	0.0150903
827.788	0.0151012
827.866	0.0150392
827.944	0.0152246
828.022	0.0152064
828.100	0.0151490
828.178	0.0152103
828.256	0.0153268
828.334	0.0152244
828.413	0.0151431
828.491	0.0151495
828.569	0.0152730
828.647	0.0150571
828.725	0.0152106
828.803	0.0151134
828.881	0.0153446
828.959	0.0152621
829.038	0.0152358
829.116	0.0151366
829.194	0.0153503
829.272	0.0152791
829.350	0.0153449
829.428	0.0154381
829.506	0.0152890
829.584	0.0154604
829.663	0.0154865
829.741	0.0154428
829.819	0.0155236
829.897	0.0153869
829.975	0.0154834
830.053	0.0155888
830.131	0.0155306
830.209	0.0154884
830.288	0.0156674
830.366	0.0155948
830.444	0.0155553
830.522	0.0154488
830.600	0.0155632
830.678	0.0154012
830.756	0.0154223
830.834	0.0153502
830.913	0.0152504
830.991	0.0153609
831.069	0.0153629
831.147	0.0151874
831.225	0.0151236
831.303	0.0151645
831.381	0.0151336
831.459	0.0151378
831.538	0.0149870
831.616	0.0152058
831.694	0.0151732
831.772	0.0151390
831.850	0.0149179
831.928	0.0150931
832.006	0.0152000
832.084	0.0151541
832.163	0.0151651
832.241	0.0150700
832.319	0.0152962
832.397	0.0153673
832.475	0.0152624
832.553	0.0152576
832.631	0.0152885
832.709	0.0152585
832.788	0.0151330
832.866	0.0153154
832.944	0.0153328
833.022	0.0152580
833.100	0.0153860
833.178	0.0153149
833.256	0.0155151
833.334	0.0153892
833.413	0.0152898
833.491	0.0152863
833.569	0.0153972
833.647	0.0154226
833.725	0.0154336
833.803	0.0154518
833.881	0.0153109
833.959	0.0154169
834.038	0.0152634
834.116	0.0153378
834.194	0.0152332
834.272	0.0152309
834.350	0.0155003
834.428	0.0153470
834.506	0.0151694
834.584	0.0152498
834.663	0.0152500
834.741	0.0152057
834.819	0.0151985
834.897	0.0151280
834.975	0.0151744
835.053	0.0151849
835.131	0.0150813
835.209	0.0151395
835.288	0.0152261
835.366	0.0151698
835.444	0.0151224
835.522	0.0151175
835.600	0.0151056
835.678	0.0152029
835.756	0.0151665
835.834	0.0152386
835.913	0.0151397
835.991	0.0152470
836.069	0.0152446
836.147	0.0152704
836.225	0.0152300
836.303	0.0152489
836.381	0.0152313
836.459	0.0151295
836.538	0.0152364
836.616	0.0152866
836.694	0.0152130
836.772	0.0152151
836.850	0.0150880
836.928	0.0151408
837.006	0.0151897
837.084	0.0152999
837.163	0.0151968
837.241	0.0152790
837.319	0.0153349
837.397	0.0152012
837.475	0.0151085
837.553	0.0151678
837.631	0.0152516
837.709	0.0152598
837.788	0.0152438
837.866	0.0152540
837.944	0.0152934
838.022	0.0153742
838.100	0.0153987
838.178	0.0153684
838.256	0.0154182
838.334	0.0153546
838.413	0.0153618
838.491	0.0154739
838.569	0.0154359
838.647	0.0154805
838.725	0.0155023
838.803	0.0153336
838.881	0.0154025
838.959	0.0154738
839.038	0.0154163
839.116	0.0153645
839.194	0.0153620
839.272	0.0152702
839.350	0.0153193
839.428	0.0152695
839.506	0.0152593
839.584	0.0152988
839.663	0.0152314
839.741	0.0150668
839.819	0.0153374
839.897	0.0151725
839.975	0.0151245
840.053	0.0150512
840.131	0.0151462
840.209	0.0151800
840.288	0.0151294
840.366	0.0149526
840.444	0.0149847
840.522	0.0150242
840.600	0.0150028
840.678	0.0150583
840.756	0.0150129
840.834	0.0149352
840.913	0.0149593
840.991	0.0151228
841.069	0.0150568
841.147	0.0150108
841.225	0.0150629
841.303	0.0151107
841.381	0.0152630
841.459	0.0152172
841.538	0.0151663
841.616	0.0151733
841.694	0.0152528
841.772	0.0153592
841.850	0.0153114
841.928	0.0152878
842.006	0.0154019
842.084	0.0155200
842.163	0.0153651
842.241	0.0154313
842.319	0.0154792
842.397	0.0154661
842.475	0.0153510
842.553	0.0154204
842.631	0.0154755
842.709	0.0155883
842.788	0.0155051
842.866	0.0153953
842.944	0.0153667
843.022	0.0154546
843.100	0.0155092
843.178	0.0154543
843.256	0.0155979
843.334	0.0154610
843.413	0.0153516
843.491	0.0151810
843.569	0.0153789
843.647	0.0153530
843.725	0.0154908
843.803	0.0153711
843.881	0.0153212
843.959	0.0153719
844.038	0.0153783
844.116	0.0153523
844.194	0.0154096
844.272	0.0153455
844.350	0.0154575
844.428	0.0154587
844.506	0.0153265
844.584	0.0154274
844.663	0.0154028
844.741	0.0154331
844.819	0.0153939
844.897	0.0153146
844.975	0.0154926
845.053	0.0155505
845.131	0.0152853
845.209	0.0154357
845.288	0.0154778
845.366	0.0153895
845.444	0.0153885
845.522	0.0153554
845.600	0.0152260
845.678	0.0153368
845.756	0.0153726
845.834	0.0153606
845.913	0.0152967
845.991	0.0152950
846.069	0.0151750
846.147	0.0150258
846.225	0.0152697
846.303	0.0151370
846.381	0.0150970
846.459	0.0152334
846.538	0.0152588
846.616	0.0152907
846.694	0.0150880
846.772	0.0150526
846.850	0.0151612
846.928	0.0152550
847.006	0.0151096
847.084	0.0153178
847.163	0.0152007
847.241	0.0152827
847.319	0.0150674
847.397	0.0151833
847.475	0.0152055
847.553	0.0152647
847.631	0.0152547
847.709	0.0150632
847.788	0.0151803
847.866	0.0152548
847.944	0.0152026
848.022	0.0153036
848.100	0.0151521
848.178	0.0152234
848.256	0.0151010
848.334	0.0151574
848.413	0.0151425
848.491	0.0151954
848.569	0.0152749
848.647	0.0152659
848.725	0.0153217
848.803	0.0150584
848.881	0.0152111
848.959	0.0152199
849.038	0.0151594
849.116	0.0152512
849.194	0.0152307
849.272	0.0151642
849.350	0.0151208
849.428	0.0152202
849.506	0.0152193
849.584	0.0152377
849.663	0.0152157
849.741	0.0153139
849.819	0.0153176
849.897	0.0152310
849.975	0.0153526
850.053	0.0152863
850.131	0.0152837
850.209	0.0152766
850.288	0.0152657
850.366	0.0152937
850.444	0.0153725
850.522	0.0152892
850.600	0.0152320
850.678	0.0152245
850.756	0.0152509
850.834	0.0152993
850.913	0.0153445
850.991	0.0151848
851.069	0.0151981
851.147	0.0152686
851.225	0.0152502
851.303	0.0153097
851.381	0.0152563
851.459	0.0151247
851.538	0.0151444
851.616	0.0152686
851.694	0.0151797
851.772	0.0152034
851.850	0.0152134
851.928	0.0150928
852.006	0.0150301
852.084	0.0151976
852.163	0.0150955
852.241	0.0150483
852.319	0.0151223
852.397	0.0150693
852.475	0.0151885
852.553	0.0151228
852.631	0.0152644
852.709	0.0151347
852.788	0.0151586
852.866	0.0151910
852.944	0.0152829
853.022	0.0152258
853.100	0.0152342
853.178	0.0152326
853.256	0.0153976
853.334	0.0152560
853.413	0.0153147
853.491	0.0152663
853.569	0.0153502
853.647	0.0153217
853.725	0.0152079
853.803	0.0152644
853.881	0.0153112
853.959	0.0153471
854.038	0.0154656
854.116	0.0153262
854.194	0.0152636
854.272	0.0152822
854.350	0.0153487
854.428	0.0152110
854.506	0.0152810
854.584	0.0152295
854.663	0.0153084
854.741	0.0151275
854.819	0.0150517
854.897	0.0151096
854.975	0.0151699
855.053	0.0151613
855.131	0.0151517
855.209	0.0152943
855.288	0.0152044
855.366	0.0152065
855.444	0.0152517
855.522	0.0151801
855.600	0.0151855
855.678	0.0151954
855.756	0.0153072
855.834	0.0151856
855.913	0.0151517
855.991	0.0151894
856.069	0.0152727
856.147	0.0152544
856.225	0.0152113
856.303	0.0152197
856.381	0.0153381
856.459	0.0153203
856.538	0.0152431
856.616	0.0152776
856.694	0.0152864
856.772	0.0153452
856.850	0.0153423
856.928	0.0153522
857.006	0.0154997
857.084	0.0153368
857.163	0.0155685
857.241	0.0153804
857.319	0.0154155
857.397	0.0154821
857.475	0.0155215
857.553	0.0153445
857.631	0.0153249
857.709	0.0153327
857.788	0.0153772
857.866	0.0152364
857.944	0.0153682
858.022	0.0154330
858.100	0.0155034
858.178	0.0152565
858.256	0.0153462
858.334	0.0153124
858.413	0.0152248
858.491	0.0152747
858.569	0.0152304
858.647	0.0152278
858.725	0.0153091
858.803	0.0151511
858.881	0.0154337
858.959	0.0153551
859.038	0.0153691
859.116	0.0153113
859.194	0.0152952
859.272	0.0152612
859.350	0.0152222
859.428	0.0152441
859.506	0.0154559
859.584	0.0153868
859.663	0.0153249
859.741	0.0154372
859.819	0.0153881
859.897	0.0154391
859.975	0.0153676
860.053	0.0154011
860.131	0.0153642
860.209	0.0153739
860.288	0.0153603
860.366	0.0153509
860.444	0.0155254
860.522	0.0154910
860.600	0.0154030
860.678	0.0154419
860.756	0.0153874
860.834	0.0155853
860.913	0.0153672
860.991	0.0153271
861.069	0.0154275
861.147	0.0154964
861.225	0.0153587
861.303	0.0153821
861.381	0.0153918
861.459	0.0153181
861.538	0.0153759
861.616	0.0153793
861.694	0.0152176
861.772	0.0152405
861.850	0.0153867
861.928	0.0152407
862.006	0.0153610
862.084	0.0153159
862.163	0.0151795
862.241	0.0153355
862.319	0.0152568
862.397	0.0151330
862.475	0.0153115
862.553	0.0154667
862.631	0.0152817
862.709	0.0151801
862.788	0.0152262
862.866	0.0154095
862.944	0.0153806
863.022	0.0152663
863.100	0.0152769
863.178	0.0153206
863.256	0.0153683
863.334	0.0153233
863.413	0.0152333
863.491	0.0154600
863.569	0.0153004
863.647	0.0151711
863.725	0.0153703
863.803	0.0152526
863.881	0.0152200
863.959	0.0150912
864.038	0.0151080
864.116	0.0152467
864.194	0.0152399
864.272	0.0151489
864.350	0.0151591
864.428	0.0151634
864.506	0.0151342
864.584	0.0151871
864.663	0.0151957
864.741	0.0150822
864.819	0.0150585
864.897	0.0151815
864.975	0.0151836
865.053	0.0152358
865.131	0.0151833
865.209	0.0151724
865.288	0.0151852
865.366	0.0154128
865.444	0.0153107
865.522	0.0152629
865.600	0.0152443
865.678	0.0153453
865.756	0.0154398
865.834	0.0153878
865.913	0.0153789
865.991	0.0154974
866.069	0.0152631
866.147	0.0153079
866.225	0.0153349
866.303	0.0154140
866.381	0.0154286
866.459	0.0153710
866.538	0.0153367
866.616	0.0152387
866.694	0.0152840
866.772	0.0154658
866.850	0.0152403
866.928	0.0150829
867.006	0.0152757
867.084	0.0150983
867.163	0.0153124
867.241	0.0152259
867.319	0.0151627
867.397	0.0152314
867.475	0.0151468
867.553	0.0151017
867.631	0.0149877
867.709	0.0151520
867.788	0.0151929
867.866	0.0151984
867.944	0.0152209
868.022	0.0151846
868.100	0.0153120
868.178	0.0152033
868.256	0.0151990
868.334	0.0152483
868.413	0.0153828
868.491	0.0152039
868.569	0.0152315
868.647	0.0153374
868.725	0.0153980
868.803	0.0153947
868.881	0.0155479
868.959	0.0156030
869.038	0.0155176
869.116	0.0155182
869.194	0.0156081
869.272	0.0156552
869.350	0.0153419
869.428	0.0154156
869.506	0.0154671
869.584	0.0154613
869.663	0.0155683
869.741	0.0154030
869.819	0.0153793
869.897	0.0154255
869.975	0.0154730
870.053	0.0153301
870.131	0.0152865
870.209	0.0154164
870.288	0.0154596
870.366	0.0154630
870.444	0.0152924
870.522	0.0152383
870.600	0.0153374
870.678	0.0153510
870.756	0.0152257
870.834	0.0152721
870.913	0.0152061
870.991	0.0152076
871.069	0.0152519
871.147	0.0152493
871.225	0.0152046
871.303	0.0153040
871.381	0.0153336
871.459	0.0152150
871.538	0.0151780
871.616	0.0152868
871.694	0.0153280
871.772	0.0153499
871.850	0.0154726
871.928	0.0153693
872.006	0.0154701
872.084	0.0155396
872.163	0.0155557
872.241	0.0154438
872.319	0.0154500
872.397	0.0156022
872.475	0.0155709
872.553	0.0155111
872.631	0.0155991
872.709	0.0155298
872.788	0.0154713
872.866	0.0155816
872.944	0.0154408
873.022	0.0154429
873.100	0.0153838
873.178	0.0153744
873.256	0.0154639
873.334	0.0153465
873.413	0.0152987
873.491	0.0153472
873.569	0.0152982
873.647	0.0154830
873.725	0.0152790
873.803	0.0153636
873.881	0.0153786
873.959	0.0152270
874.038	0.0153071
874.116	0.0152519
874.194	0.0152023
874.272	0.0151826
874.350	0.0150664
874.428	0.0152914
874.506	0.0152593
874.584	0.0151728
874.663	0.0151795
874.741	0.0152255
874.819	0.0152026
874.897	0.0151573
874.975	0.0152183
875.053	0.0152788
875.131	0.0152575
875.209	0.0154041
875.288	0.0151952
875.366	0.0153257
875.444	0.0152858
875.522	0.0153246
875.600	0.0152995
875.678	0.0151936
875.756	0.0152899
875.834	0.0153577
875.913	0.0153341
875.991	0.0153965
876.069	0.0153329
876.147	0.0152895
876.225	0.0153846
876.303	0.0151642
876.381	0.0153934
876.459	0.0152807
876.538	0.0152744
876.616	0.0152056
876.694	0.0152442
876.772	0.0152351
876.850	0.0151044
876.928	0.0151611
877.006	0.0152528
877.084	0.0151978
877.163	0.0151750
877.241	0.0152248
877.319	0.0152420
877.397	0.0152736
877.475	0.0152530
877.553	0.0151402
877.631	0.0151198
877.709	0.0150423
877.788	0.0154329
877.866	0.0153101
877.944	0.0151677
878.022	0.0152277
878.100	0.0152865
878.178	0.0154073
878.256	0.0153754
878.334	0.0152451
878.413	0.0152995
878.491	0.0153683
878.569	0.0153889
878.647	0.0153330
878.725	0.0153339
878.803	0.0153514
878.881	0.0154729
878.959	0.0155095
879.038	0.0155464
879.116	0.0156190
879.194	0.0154608
879.272	0.0153050
879.350	0.0155817
879.428	0.0156599
879.506	0.0156209
879.584	0.0156260
879.663	0.0157575
879.741	0.0156637
879.819	0.0155653
879.897	0.0154909
879.975	0.0155333
880.053	0.0155497
880.131	0.0155444
880.209	0.0155299
880.288	0.0154710
880.366	0.0152914
880.444	0.0154533
880.522	0.0155424
880.600	0.0154762
880.678	0.0153378
880.756	0.0154291
880.834	0.0152209
880.913	0.0154243
880.991	0.0152592
881.069	0.0150867
881.147	0.0151706
881.225	0.0151160
881.303	0.0150914
881.381	0.0152551
881.459	0.0151586
881.538	0.0151895
881.616	0.0151754
881.694	0.0152018
881.772	0.0151809
881.850	0.0153148
881.928	0.0152197
882.006	0.0152695
882.084	0.0151859
882.163	0.0152119
882.241	0.0152238
882.319	0.0151134
882.397	0.0152107
882.475	0.0151537
882.553	0.0151509
882.631	0.0151048
882.709	0.0152333
882.788	0.0151929
882.866	0.0152414
882.944	0.0151596
883.022	0.0152199
883.100	0.0153088
883.178	0.0150738
883.256	0.0152122
883.334	0.0151176
883.413	0.0150648
883.491	0.0151112
883.569	0.0150964
883.647	0.0153033
883.725	0.0152561
883.803	0.0153227
883.881	0.0152394
883.959	0.0153494
884.038	0.0153890
884.116	0.0154232
884.194	0.0153389
884.272	0.0153059
884.350	0.0153124
884.428	0.0155448
884.506	0.0154945
884.584	0.0154079
884.663	0.0155382
884.741	0.0155109
884.819	0.0154158
884.897	0.0153777
884.975	0.0155310
885.053	0.0155379
885.131	0.0154783
885.209	0.0154105
885.288	0.0153581
885.366	0.0153241
885.444	0.0154918
885.522	0.0152139
885.600	0.0152719
885.678	0.0153886
885.756	0.0153246
885.834	0.0151963
885.913	0.0150991
885.991	0.0152158
886.069	0.0149680
886.147	0.0150059
886.225	0.0152212
886.303	0.0150476
886.381	0.0151071
886.459	0.0150520
886.538	0.0150893
886.616	0.0150494
886.694	0.0150378
886.772	0.0151256
886.850	0.0151099
886.928	0.0150243
887.006	0.0150740
887.084	0.0150214
887.163	0.0150303
887.241	0.0151009
887.319	0.0150635
887.397	0.0151559
887.475	0.0151203
887.553	0.0151363
887.631	0.0151360
887.709	0.0151559
887.788	0.0152431
887.866	0.0151683
887.944	0.0151550
888.022	0.0151987
888.100	0.0151065
888.178	0.0152364
888.256	0.0152636
888.334	0.0151733
888.413	0.0151826
888.491	0.0150658
888.569	0.0150771
888.647	0.0152149
888.725	0.0151015
888.803	0.0152264
888.881	0.0151616
888.959	0.0150419
889.038	0.0150612
889.116	0.0151978
889.194	0.0151411
889.272	0.0150874
889.350	0.0150892
889.428	0.0151957
889.506	0.0151602
889.584	0.0151671
889.663	0.0151552
889.741	0.0150980
889.819	0.0152036
889.897	0.0152187
889.975	0.0152074
890.053	0.0152376
890.131	0.0152557
890.209	0.0153088
890.288	0.0154226
890.366	0.0152916
890.444	0.0154444
890.522	0.0153917
890.600	0.0154547
890.678	0.0153544
890.756	0.0153768
890.834	0.0153383
890.913	0.0155910
890.991	0.0154338
891.069	0.0155530
891.147	0.0153864
891.225	0.0152779
891.303	0.0155450
891.381	0.0155784
891.459	0.0154987
891.538	0.0153658
891.616	0.0154247
891.694	0.0154877
891.772	0.0154214
891.850	0.0154418
891.928	0.0154333
892.006	0.0154156
892.084	0.0155336
892.163	0.0153803
892.241	0.0152211
892.319	0.0151656
892.397	0.0153423
892.475	0.0152752
892.553	0.0153149
892.631	0.0153561
892.709	0.0154012
892.788	0.0153279
892.866	0.0153503
892.944	0.0155360
893.022	0.0153507
893.100	0.0154194
893.178	0.0153201
893.256	0.0154073
893.334	0.0153911
893.413	0.0153155
893.491	0.0152087
893.569	0.0153375
893.647	0.0151488
893.725	0.0151679
893.803	0.0151489
893.881	0.0152198
893.959	0.0151562
894.038	0.0151373
894.116	0.0152159
894.194	0.0151628
894.272	0.0153188
894.350	0.0152580
894.428	0.0152908
894.506	0.0151941
894.584	0.0153902
894.663	0.0153877
894.741	0.0153467
894.819	0.0153925
894.897	0.0152402
894.975	0.0153266
895.053	0.0153564
895.131	0.0154761
895.209	0.0155000
895.288	0.0152975
895.366	0.0153558
895.444	0.0153844
895.522	0.0155291
895.600	0.0154578
895.678	0.0152848
895.756	0.0154169
895.834	0.0153181
895.913	0.0152852
895.991	0.0152908
896.069	0.0152808
896.147	0.0152215
896.225	0.0153131
896.303	0.0153170
896.381	0.0151487
896.459	0.0150558
896.538	0.0150510
896.616	0.0152144
896.694	0.0152387
896.772	0.0152801
896.850	0.0150060
896.928	0.0151061
897.006	0.0151131
897.084	0.0151173
897.163	0.0150943
897.241	0.0151699
897.319	0.0151579
897.397	0.0150702
897.475	0.0153500
897.553	0.0153952
897.631	0.0152686
897.709	0.0153168
897.788	0.0154305
897.866	0.0152793
897.944	0.0153325
898.022	0.0154436
898.100	0.0152714
898.178	0.0153807
898.256	0.0155222
898.334	0.0155150
898.413	0.0153777
898.491	0.0154366
898.569	0.0153732
898.647	0.0155041
898.725	0.0154586
898.803	0.0153960
898.881	0.0153543
898.959	0.0152950
899.038	0.0153666
899.116	0.0154476
899.194	0.0154438
899.272	0.0153506
899.350	0.0152839
899.428	0.0153402
899.506	0.0156167
899.584	0.0154508
899.663	0.0154442
899.741	0.0153416
899.819	0.0154274
899.897	0.0154145
899.975	0.0153687
900.053	0.0152903
900.131	0.0154134
900.209	0.0154147
900.288	0.0154266
900.366	0.0152637
900.444	0.0154113
900.522	0.0152609
900.600	0.0153989
900.678	0.0151520
900.756	0.0153953
900.834	0.0153259
900.913	0.0152100
900.991	0.0152694
901.069	0.0153262
901.147	0.0152912
901.225	0.0152596
901.303	0.0153302
901.381	0.0153424
901.459	0.0154263
901.538	0.0152975
901.616	0.0151974
901.694	0.0152660
901.772	0.0154207
901.850	0.0152953
901.928	0.0153233
902.006	0.0152561
902.084	0.0153569
902.163	0.0151526
902.241	0.0152088
902.319	0.0152757
902.397	0.0151439
902.475	0.0153503
902.553	0.0151947
902.631	0.0152515
902.709	0.0150951
902.788	0.0153310
902.866	0.0153214
902.944	0.0152058
903.022	0.0153186
903.100	0.0153432
903.178	0.0151545
903.256	0.0153230
903.334	0.0153386
903.413	0.0152167
903.491	0.0152474
903.569	0.0152864
903.647	0.0153392
903.725	0.0152688
903.803	0.0152039
903.881	0.0153085
903.959	0.0153542
904.038	0.0152020
904.116	0.0151850
904.194	0.0151830
904.272	0.0152002
904.350	0.0152910
904.428	0.0153387
904.506	0.0152904
904.584	0.0152839
904.663	0.0153976
904.741	0.0153329
904.819	0.0153645
904.897	0.0155420
904.975	0.0154175
905.053	0.0153094
905.131	0.0153745
905.209	0.0154100
905.288	0.0152793
905.366	0.0152831
905.444	0.0151597
905.522	0.0152179
905.600	0.0152669
905.678	0.0152637
905.756	0.0153439
905.834	0.0153558
905.913	0.0153729
905.991	0.0151966
906.069	0.0153971
906.147	0.0153961
906.225	0.0154214
906.303	0.0153366
906.381	0.0154288
906.459	0.0155291
906.538	0.0154303
906.616	0.0152793
906.694	0.0153146
906.772	0.0153694
906.850	0.0154480
906.928	0.0154047
907.006	0.0153986
907.084	0.0152254
907.163	0.0152329
907.241	0.0152235
907.319	0.0153902
907.397	0.0152881
907.475	0.0152518
907.553	0.0152380
907.631	0.0152785
907.709	0.0152335
907.788	0.0152494
907.866	0.0151020
907.944	0.0150632
908.022	0.0151721
908.100	0.0151285
908.178	0.0152277
908.256	0.0151368
908.334	0.0151109
908.413	0.0151437
908.491	0.0150972
908.569	0.0151173
908.647	0.0151323
908.725	0.0151472
908.803	0.0151913
908.881	0.0152330
908.959	0.0151070
909.038	0.0152431
909.116	0.0152087
909.194	0.0152290
909.272	0.0152940
909.350	0.0151701
909.428	0.0151496
909.506	0.0153006
909.584	0.0153347
909.663	0.0151688
909.741	0.0151535
909.819	0.0151919
909.897	0.0151135
909.975	0.0151871
910.053	0.0151997
910.131	0.0152859
910.209	0.0152063
910.288	0.0152583
910.366	0.0151688
910.444	0.0151423
910.522	0.0151862
910.600	0.0151624
910.678	0.0151617
910.756	0.0150761
910.834	0.0150937
910.913	0.0151407
910.991	0.0152750
911.069	0.0151546
911.147	0.0151785
911.225	0.0154309
911.303	0.0153492
911.381	0.0152061
911.459	0.0151754
911.538	0.0152003
911.616	0.0151850
911.694	0.0153106
911.772	0.0152206
911.850	0.0152235
911.928	0.0153023
912.006	0.0152693
912.084	0.0151693
912.163	0.0152763
912.241	0.0151857
912.319	0.0152016
912.397	0.0152151
912.475	0.0151513
912.553	0.0151752
912.631	0.0151970
912.709	0.0151946
912.788	0.0152449
912.866	0.0151711
912.944	0.0153716
913.022	0.0151083
913.100	0.0150063
913.178	0.0151614
913.256	0.0150388
913.334	0.0150974
913.413	0.0150671
913.491	0.0152142
913.569	0.0150775
913.647	0.0151152
913.725	0.0151364
913.803	0.0152859
913.881	0.0151441
913.959	0.0151855
914.038	0.0151128
914.116	0.0151313
914.194	0.0150690
914.272	0.0151749
914.350	0.0150655
914.428	0.0151537
914.506	0.0150871
914.584	0.0152071
914.663	0.0150515
914.741	0.0151299
914.819	0.0151359
914.897	0.0151195
914.975	0.0151728
915.053	0.0150537
915.131	0.0150356
915.209	0.0150530
915.288	0.0151734
915.366	0.0151953
915.444	0.0151167
915.522	0.0151620
915.600	0.0150620
915.678	0.0152158
915.756	0.0153017
915.834	0.0150944
915.913	0.0152341
915.991	0.0153101
916.069	0.0152444
916.147	0.0153259
916.225	0.0154497
916.303	0.0151935
916.381	0.0153049
916.459	0.0153734
916.538	0.0153224
916.616	0.0153522
916.694	0.0153471
916.772	0.0153169
916.850	0.0152917
916.928	0.0152934
917.006	0.0151994
917.084	0.0153768
917.163	0.0153022
917.241	0.0151704
917.319	0.0151600
917.397	0.0152257
917.475	0.0151891
917.553	0.0152375
917.631	0.0152456
917.709	0.0151727
917.788	0.0153226
917.866	0.0152201
917.944	0.0152226
918.022	0.0154263
918.100	0.0153373
918.178	0.0152809
918.256	0.0153377
918.334	0.0154221
918.413	0.0154439
918.491	0.0153484
918.569	0.0153042
918.647	0.0153922
918.725	0.0155124
918.803	0.0154561
918.881	0.0154605
918.959	0.0154599
919.038	0.0155644
919.116	0.0153986
919.194	0.0154577
919.272	0.0154989
919.350	0.0154269
919.428	0.0154342
919.506	0.0153502
919.584	0.0153234
919.663	0.0154741
919.741	0.0153725
919.819	0.0153724
919.897	0.0154646
