05/20/2022	21:26:09	Ver.	4.1	UNKNOWN
Optical Delay	599.975067	Delta X		0.078125	Sweeps	1	Scan Rate	0/0
Coordinates	Axis 1	NaN	Axis 2	NaN	Axis 3	NaN	Axis 4	NaN	Axis 5	NaN	Axis 6	0.000000
TX Power	0.000000	RX Power	0.000000

599.975	0.0152196
600.053	0.0151929
600.131	0.0151878
600.209	0.0152744
600.288	0.0152036
600.366	0.0152029
600.444	0.0151791
600.522	0.0152562
600.600	0.0151252
600.678	0.0151723
600.756	0.0150999
600.834	0.0151368
600.913	0.0151607
600.991	0.0152280
601.069	0.0153622
601.147	0.0152155
601.225	0.0152249
601.303	0.0151657
601.381	0.0151867
601.459	0.0152561
601.538	0.0152947
601.616	0.0151390
601.694	0.0151231
601.772	0.0150841
601.850	0.0153502
601.928	0.0152309
602.006	0.0153587
602.084	0.0150547
602.163	0.0150775
602.241	0.0151565
602.319	0.0151044
602.397	0.0151684
602.475	0.0152329
602.553	0.0150381
602.631	0.0152807
602.709	0.0151141
602.788	0.0151517
602.866	0.0151912
602.944	0.0151452
603.022	0.0151061
603.100	0.0150967
603.178	0.0152338
603.256	0.0151196
603.334	0.0150759
603.413	0.0150644
603.491	0.0150367
603.569	0.0149275
603.647	0.0151150
603.725	0.0150939
603.803	0.0151565
603.881	0.0150575
603.959	0.0151202
604.038	0.0149381
604.116	0.0149431
604.194	0.0151035
604.272	0.0149889
604.350	0.0149628
604.428	0.0150291
604.506	0.0149838
604.584	0.0150929
604.663	0.0150389
604.741	0.0150124
604.819	0.0149590
604.897	0.0150152
604.975	0.0151357
605.053	0.0150792
605.131	0.0149480
605.209	0.0150629
605.288	0.0150848
605.366	0.0151572
605.444	0.0151367
605.522	0.0150115
605.600	0.0151678
605.678	0.0151141
605.756	0.0151038
605.834	0.0152421
605.913	0.0150538
605.991	0.0151594
606.069	0.0151917
606.147	0.0149957
606.225	0.0151218
606.303	0.0151378
606.381	0.0150917
606.459	0.0151942
606.538	0.0152712
606.616	0.0150851
606.694	0.0151822
606.772	0.0151599
606.850	0.0151453
606.928	0.0152470
607.006	0.0151366
607.084	0.0152436
607.163	0.0152498
607.241	0.0152990
607.319	0.0151898
607.397	0.0151507
607.475	0.0152762
607.553	0.0152397
607.631	0.0152177
607.709	0.0151688
607.788	0.0153281
607.866	0.0152348
607.944	0.0151663
608.022	0.0152493
608.100	0.0152690
608.178	0.0151347
608.256	0.0153786
608.334	0.0153483
608.413	0.0152608
608.491	0.0151514
608.569	0.0153008
608.647	0.0153118
608.725	0.0152766
608.803	0.0152074
608.881	0.0153005
608.959	0.0153381
609.038	0.0154526
609.116	0.0153035
609.194	0.0152586
609.272	0.0154047
609.350	0.0154586
609.428	0.0152450
609.506	0.0153185
609.584	0.0153603
609.663	0.0153342
609.741	0.0153776
609.819	0.0153672
609.897	0.0152383
609.975	0.0153072
610.053	0.0152850
610.131	0.0153787
610.209	0.0153092
610.288	0.0154594
610.366	0.0154112
610.444	0.0152500
610.522	0.0152776
610.600	0.0153783
610.678	0.0153393
610.756	0.0153398
610.834	0.0152692
610.913	0.0153512
610.991	0.0152517
611.069	0.0151920
611.147	0.0152307
611.225	0.0152389
611.303	0.0151443
611.381	0.0152087
611.459	0.0151010
611.538	0.0152106
611.616	0.0153458
611.694	0.0151906
611.772	0.0151510
611.850	0.0151603
611.928	0.0150888
612.006	0.0152177
612.084	0.0152685
612.163	0.0151397
612.241	0.0151520
612.319	0.0152428
612.397	0.0151984
612.475	0.0150752
612.553	0.0152147
612.631	0.0152625
612.709	0.0152007
612.788	0.0151047
612.866	0.0150976
612.944	0.0151684
613.022	0.0151958
613.100	0.0150319
613.178	0.0151624
613.256	0.0150771
613.334	0.0151137
613.413	0.0151672
613.491	0.0151024
613.569	0.0150813
613.647	0.0150172
613.725	0.0151540
613.803	0.0151016
613.881	0.0151147
613.959	0.0151531
614.038	0.0150938
614.116	0.0151902
614.194	0.0150457
614.272	0.0151294
614.350	0.0151090
614.428	0.0151490
614.506	0.0151764
614.584	0.0151827
614.663	0.0151653
614.741	0.0151534
614.819	0.0151127
614.897	0.0151978
614.975	0.0151865
615.053	0.0151303
615.131	0.0152348
615.209	0.0151756
615.288	0.0151887
615.366	0.0151997
615.444	0.0152383
615.522	0.0153454
615.600	0.0152170
615.678	0.0153507
615.756	0.0154147
615.834	0.0153763
615.913	0.0152458
615.991	0.0154164
616.069	0.0153649
616.147	0.0153613
616.225	0.0153426
616.303	0.0153873
616.381	0.0152581
616.459	0.0153431
616.538	0.0153811
616.616	0.0153470
616.694	0.0153311
616.772	0.0153310
616.850	0.0153638
616.928	0.0152815
617.006	0.0153514
617.084	0.0154981
617.163	0.0153848
617.241	0.0152374
617.319	0.0152912
617.397	0.0153080
617.475	0.0152931
617.553	0.0154333
617.631	0.0152061
617.709	0.0152591
617.788	0.0152379
617.866	0.0152364
617.944	0.0152260
618.022	0.0153960
618.100	0.0152538
618.178	0.0152754
618.256	0.0152293
618.334	0.0152988
618.413	0.0152077
618.491	0.0153175
618.569	0.0151222
618.647	0.0152086
618.725	0.0152583
618.803	0.0151777
618.881	0.0150800
618.959	0.0151955
619.038	0.0150538
619.116	0.0151259
619.194	0.0151404
619.272	0.0151534
619.350	0.0152024
619.428	0.0151736
619.506	0.0151488
619.584	0.0151919
619.663	0.0151269
619.741	0.0151180
619.819	0.0152718
619.897	0.0152337
619.975	0.0151105
620.053	0.0151894
620.131	0.0151568
620.209	0.0151601
620.288	0.0153734
620.366	0.0152245
620.444	0.0151831
620.522	0.0151138
620.600	0.0150187
620.678	0.0152765
620.756	0.0152026
620.834	0.0152205
620.913	0.0152026
620.991	0.0152515
621.069	0.0151899
621.147	0.0151820
621.225	0.0151372
621.303	0.0152326
621.381	0.0151650
621.459	0.0151807
621.538	0.0151991
621.616	0.0152784
621.694	0.0151884
621.772	0.0153677
621.850	0.0151480
621.928	0.0153111
622.006	0.0153310
622.084	0.0154027
622.163	0.0152853
622.241	0.0152093
622.319	0.0152361
622.397	0.0152987
622.475	0.0155048
622.553	0.0153806
622.631	0.0153542
622.709	0.0152103
622.788	0.0153426
622.866	0.0152868
622.944	0.0153856
623.022	0.0152588
623.100	0.0154149
623.178	0.0153896
623.256	0.0153734
623.334	0.0153941
623.413	0.0153452
623.491	0.0153636
623.569	0.0153841
623.647	0.0153689
623.725	0.0152733
623.803	0.0152850
623.881	0.0154177
623.959	0.0153181
624.038	0.0152362
624.116	0.0153072
624.194	0.0153002
624.272	0.0152607
624.350	0.0152633
624.428	0.0153088
624.506	0.0152723
624.584	0.0151534
624.663	0.0152441
624.741	0.0152027
624.819	0.0151527
624.897	0.0154194
624.975	0.0151590
625.053	0.0152830
625.131	0.0151749
625.209	0.0151543
625.288	0.0151734
625.366	0.0151215
625.444	0.0151681
625.522	0.0152083
625.600	0.0152477
625.678	0.0151580
625.756	0.0150172
625.834	0.0150315
625.913	0.0150095
625.991	0.0150733
626.069	0.0150352
626.147	0.0150481
626.225	0.0150745
626.303	0.0149912
626.381	0.0150109
626.459	0.0151642
626.538	0.0150340
626.616	0.0150780
626.694	0.0150266
626.772	0.0150570
626.850	0.0151981
626.928	0.0150304
627.006	0.0149551
627.084	0.0150900
627.163	0.0149471
627.241	0.0151282
627.319	0.0151704
627.397	0.0152071
627.475	0.0151150
627.553	0.0149492
627.631	0.0149489
627.709	0.0151563
627.788	0.0150284
627.866	0.0150256
627.944	0.0150629
628.022	0.0150442
628.100	0.0151633
628.178	0.0150205
628.256	0.0151166
628.334	0.0151946
628.413	0.0150883
628.491	0.0149724
628.569	0.0151076
628.647	0.0151664
628.725	0.0151262
628.803	0.0151123
628.881	0.0151424
628.959	0.0151173
629.038	0.0150987
629.116	0.0152482
629.194	0.0151778
629.272	0.0151765
629.350	0.0152114
629.428	0.0151852
629.506	0.0150453
629.584	0.0151244
629.663	0.0151469
629.741	0.0151479
629.819	0.0151449
629.897	0.0152360
629.975	0.0151314
630.053	0.0151240
630.131	0.0152723
630.209	0.0152024
630.288	0.0151654
630.366	0.0151562
630.444	0.0152115
630.522	0.0151991
630.600	0.0152911
630.678	0.0152890
630.756	0.0152872
630.834	0.0153214
630.913	0.0153072
630.991	0.0152208
631.069	0.0151382
631.147	0.0152491
631.225	0.0153303
631.303	0.0153244
631.381	0.0153349
631.459	0.0153489
631.538	0.0154311
631.616	0.0153270
631.694	0.0151791
631.772	0.0152385
631.850	0.0153069
631.928	0.0152869
632.006	0.0151438
632.084	0.0152045
632.163	0.0152570
632.241	0.0151932
632.319	0.0151798
632.397	0.0152348
632.475	0.0151957
632.553	0.0151211
632.631	0.0152496
632.709	0.0153085
632.788	0.0152788
632.866	0.0151897
632.944	0.0151736
633.022	0.0152979
633.100	0.0151523
633.178	0.0152122
633.256	0.0152215
633.334	0.0151966
633.413	0.0152640
633.491	0.0152339
633.569	0.0150173
633.647	0.0150150
633.725	0.0151382
633.803	0.0151983
633.881	0.0152348
633.959	0.0152271
634.038	0.0152552
634.116	0.0151617
634.194	0.0151046
634.272	0.0151359
634.350	0.0152657
634.428	0.0151427
634.506	0.0151855
634.584	0.0150497
634.663	0.0152882
634.741	0.0152362
634.819	0.0152897
634.897	0.0151265
634.975	0.0152500
635.053	0.0152370
635.131	0.0152596
635.209	0.0151688
635.288	0.0153156
635.366	0.0153744
635.444	0.0153080
635.522	0.0152673
635.600	0.0151963
635.678	0.0152563
635.756	0.0152434
635.834	0.0152361
635.913	0.0152460
635.991	0.0152528
636.069	0.0152547
636.147	0.0153344
636.225	0.0153363
636.303	0.0152538
636.381	0.0151575
636.459	0.0153064
636.538	0.0152716
636.616	0.0153231
636.694	0.0153269
636.772	0.0153457
636.850	0.0152863
636.928	0.0152512
637.006	0.0152486
637.084	0.0151560
637.163	0.0153043
637.241	0.0152422
637.319	0.0151780
637.397	0.0152950
637.475	0.0152341
637.553	0.0152425
637.631	0.0152676
637.709	0.0151954
637.788	0.0151311
637.866	0.0151504
637.944	0.0152253
638.022	0.0151981
638.100	0.0153266
638.178	0.0152347
638.256	0.0151689
638.334	0.0153513
638.413	0.0151192
638.491	0.0151579
638.569	0.0151969
638.647	0.0151926
638.725	0.0152591
638.803	0.0151171
638.881	0.0150926
638.959	0.0153039
639.038	0.0151192
639.116	0.0150565
639.194	0.0152013
639.272	0.0150967
639.350	0.0152652
639.428	0.0152090
639.506	0.0150589
639.584	0.0151711
639.663	0.0151659
639.741	0.0151656
639.819	0.0151189
639.897	0.0150102
639.975	0.0151201
640.053	0.0151968
640.131	0.0152608
640.209	0.0150494
640.288	0.0150713
640.366	0.0150838
640.444	0.0151670
640.522	0.0152409
640.600	0.0150738
640.678	0.0152349
640.756	0.0151822
640.834	0.0151598
640.913	0.0153274
640.991	0.0152216
641.069	0.0152044
641.147	0.0151379
641.225	0.0151181
641.303	0.0152200
641.381	0.0152426
641.459	0.0152718
641.538	0.0153170
641.616	0.0154076
641.694	0.0154343
641.772	0.0152494
641.850	0.0152592
641.928	0.0153332
642.006	0.0153797
642.084	0.0153756
642.163	0.0153274
642.241	0.0151601
642.319	0.0152436
642.397	0.0152417
642.475	0.0152624
642.553	0.0154018
642.631	0.0152727
642.709	0.0151862
642.788	0.0152688
642.866	0.0153712
642.944	0.0152950
643.022	0.0152219
643.100	0.0152832
643.178	0.0151203
643.256	0.0152615
643.334	0.0153693
643.413	0.0152592
643.491	0.0152002
643.569	0.0150915
643.647	0.0152132
643.725	0.0151262
643.803	0.0152357
643.881	0.0151701
643.959	0.0152604
644.038	0.0149993
644.116	0.0151736
644.194	0.0151036
644.272	0.0152045
644.350	0.0153127
644.428	0.0151624
644.506	0.0151314
644.584	0.0151756
644.663	0.0151665
644.741	0.0151810
644.819	0.0151949
644.897	0.0151814
644.975	0.0152098
645.053	0.0151040
645.131	0.0151357
645.209	0.0152364
645.288	0.0151645
645.366	0.0151121
645.444	0.0151263
645.522	0.0150812
645.600	0.0152154
645.678	0.0152061
645.756	0.0151591
645.834	0.0152013
645.913	0.0151119
645.991	0.0151382
646.069	0.0149700
646.147	0.0152164
646.225	0.0152196
646.303	0.0152246
646.381	0.0151328
646.459	0.0152128
646.538	0.0151780
646.616	0.0151620
646.694	0.0151860
646.772	0.0152098
646.850	0.0151096
646.928	0.0151562
647.006	0.0151563
647.084	0.0150737
647.163	0.0152746
647.241	0.0152045
647.319	0.0151170
647.397	0.0150742
647.475	0.0151623
647.553	0.0150684
647.631	0.0153033
647.709	0.0152046
647.788	0.0150616
647.866	0.0150658
647.944	0.0151550
648.022	0.0152866
648.100	0.0150781
648.178	0.0152217
648.256	0.0151585
648.334	0.0151919
648.413	0.0153207
648.491	0.0151324
648.569	0.0151345
648.647	0.0152189
648.725	0.0152111
648.803	0.0152365
648.881	0.0152460
648.959	0.0152090
649.038	0.0153021
649.116	0.0151025
649.194	0.0149960
649.272	0.0151942
649.350	0.0151466
649.428	0.0151148
649.506	0.0150576
649.584	0.0151660
649.663	0.0151634
649.741	0.0151909
649.819	0.0151746
649.897	0.0151552
649.975	0.0150628
650.053	0.0150827
650.131	0.0152570
650.209	0.0152699
650.288	0.0152017
650.366	0.0152866
650.444	0.0153249
650.522	0.0153269
650.600	0.0152631
650.678	0.0151316
650.756	0.0152017
650.834	0.0150958
650.913	0.0151682
650.991	0.0152744
651.069	0.0152052
651.147	0.0151871
651.225	0.0151010
651.303	0.0152447
651.381	0.0153278
651.459	0.0152334
651.538	0.0151721
651.616	0.0152196
651.694	0.0152059
651.772	0.0152186
651.850	0.0151842
651.928	0.0151389
652.006	0.0152294
652.084	0.0152890
652.163	0.0150638
652.241	0.0149879
652.319	0.0151682
652.397	0.0151997
652.475	0.0152128
652.553	0.0153228
652.631	0.0152457
652.709	0.0152032
652.788	0.0150661
652.866	0.0151992
652.944	0.0152012
653.022	0.0152642
653.100	0.0151608
653.178	0.0152875
653.256	0.0152357
653.334	0.0152053
653.413	0.0152293
653.491	0.0152650
653.569	0.0153240
653.647	0.0154366
653.725	0.0153378
653.803	0.0153847
653.881	0.0152825
653.959	0.0152219
654.038	0.0153970
654.116	0.0153693
654.194	0.0153983
654.272	0.0152563
654.350	0.0153299
654.428	0.0154009
654.506	0.0152312
654.584	0.0152482
654.663	0.0152334
654.741	0.0152708
654.819	0.0152707
654.897	0.0151753
654.975	0.0149787
655.053	0.0153226
655.131	0.0153432
655.209	0.0151865
655.288	0.0150837
655.366	0.0152451
655.444	0.0152987
655.522	0.0151374
655.600	0.0151924
655.678	0.0152078
655.756	0.0152761
655.834	0.0152779
655.913	0.0153172
655.991	0.0153038
656.069	0.0152795
656.147	0.0151257
656.225	0.0152067
656.303	0.0151035
656.381	0.0151380
656.459	0.0151105
656.538	0.0151644
656.616	0.0150825
656.694	0.0149927
656.772	0.0150060
656.850	0.0150742
656.928	0.0151354
657.006	0.0151145
657.084	0.0151254
657.163	0.0151526
657.241	0.0151510
657.319	0.0150948
657.397	0.0152649
657.475	0.0151523
657.553	0.0153020
657.631	0.0152516
657.709	0.0153111
657.788	0.0153658
657.866	0.0153854
657.944	0.0153026
658.022	0.0155151
658.100	0.0153747
658.178	0.0151211
658.256	0.0152957
658.334	0.0153289
658.413	0.0152378
658.491	0.0151369
658.569	0.0152733
658.647	0.0151751
658.725	0.0150650
658.803	0.0149702
658.881	0.0149951
658.959	0.0150909
659.038	0.0149501
659.116	0.0150708
659.194	0.0149387
659.272	0.0149085
659.350	0.0149053
659.428	0.0149030
659.506	0.0149639
659.584	0.0149272
659.663	0.0150385
659.741	0.0150781
659.819	0.0152652
659.897	0.0151357
659.975	0.0150437
660.053	0.0152628
660.131	0.0153986
660.209	0.0153167
660.288	0.0153434
660.366	0.0152843
660.444	0.0153199
660.522	0.0152257
660.600	0.0153077
660.678	0.0153063
660.756	0.0153778
660.834	0.0153585
660.913	0.0153422
660.991	0.0153648
661.069	0.0152735
661.147	0.0151547
661.225	0.0151384
661.303	0.0150081
661.381	0.0149025
661.459	0.0148329
661.538	0.0146889
661.616	0.0146793
661.694	0.0146206
661.772	0.0144885
661.850	0.0143360
661.928	0.0143465
662.006	0.0141988
662.084	0.0142226
662.163	0.0143711
662.241	0.0142191
662.319	0.0142093
662.397	0.0145056
662.475	0.0146254
662.553	0.0147921
662.631	0.0147389
662.709	0.0149016
662.788	0.0150995
662.866	0.0150990
662.944	0.0151977
663.022	0.0154374
663.100	0.0155933
663.178	0.0154429
663.256	0.0156161
663.334	0.0156604
663.413	0.0157762
663.491	0.0159221
663.569	0.0156716
663.647	0.0157951
663.725	0.0158540
663.803	0.0158286
663.881	0.0157722
663.959	0.0157689
664.038	0.0158907
664.116	0.0156970
664.194	0.0157214
664.272	0.0156782
664.350	0.0156676
664.428	0.0155067
664.506	0.0154507
664.584	0.0153721
664.663	0.0152053
664.741	0.0150396
664.819	0.0151978
664.897	0.0151599
664.975	0.0150121
665.053	0.0150436
665.131	0.0149980
665.209	0.0148637
665.288	0.0148539
665.366	0.0148995
665.444	0.0147873
665.522	0.0150559
665.600	0.0150002
665.678	0.0146659
665.756	0.0148498
665.834	0.0150549
665.913	0.0150230
665.991	0.0148703
666.069	0.0148598
666.147	0.0150747
666.225	0.0150741
666.303	0.0150095
666.381	0.0149908
666.459	0.0149590
666.538	0.0150012
666.616	0.0150633
666.694	0.0150984
666.772	0.0149662
666.850	0.0150623
666.928	0.0148318
667.006	0.0149944
667.084	0.0151209
667.163	0.0149739
667.241	0.0153164
667.319	0.0154150
667.397	0.0152815
667.475	0.0153242
667.553	0.0155722
667.631	0.0156079
667.709	0.0156026
667.788	0.0156885
667.866	0.0157381
667.944	0.0159734
668.022	0.0159632
668.100	0.0158759
668.178	0.0159746
668.256	0.0160594
668.334	0.0161239
668.413	0.0160916
668.491	0.0160432
668.569	0.0161025
668.647	0.0160696
668.725	0.0160760
668.803	0.0159918
668.881	0.0160607
668.959	0.0158272
669.038	0.0158363
669.116	0.0157330
669.194	0.0157722
669.272	0.0155962
669.350	0.0155367
669.428	0.0153392
669.506	0.0152237
669.584	0.0152568
669.663	0.0149485
669.741	0.0147242
669.819	0.0146838
669.897	0.0144889
669.975	0.0143003
670.053	0.0141164
670.131	0.0140684
670.209	0.0139810
670.288	0.0139718
670.366	0.0138020
670.444	0.0137740
670.522	0.0137965
670.600	0.0138739
670.678	0.0137449
670.756	0.0138182
670.834	0.0141082
670.913	0.0141531
670.991	0.0141312
671.069	0.0143731
671.147	0.0146304
671.225	0.0147465
671.303	0.0148818
671.381	0.0151235
671.459	0.0152200
671.538	0.0152277
671.616	0.0155178
671.694	0.0155141
671.772	0.0157630
671.850	0.0157565
671.928	0.0157461
672.006	0.0158211
672.084	0.0159166
672.163	0.0159101
672.241	0.0160664
672.319	0.0160160
672.397	0.0160996
672.475	0.0159879
672.553	0.0160342
672.631	0.0160196
672.709	0.0160427
672.788	0.0160217
672.866	0.0161410
672.944	0.0160834
673.022	0.0159625
673.100	0.0159370
673.178	0.0159672
673.256	0.0159901
673.334	0.0159363
673.413	0.0159398
673.491	0.0159653
673.569	0.0159055
673.647	0.0158521
673.725	0.0158516
673.803	0.0157626
673.881	0.0158375
673.959	0.0157819
674.038	0.0156192
674.116	0.0157471
674.194	0.0155784
674.272	0.0152906
674.350	0.0154269
674.428	0.0154615
674.506	0.0153343
674.584	0.0150697
674.663	0.0150961
674.741	0.0149960
674.819	0.0148169
674.897	0.0145936
674.975	0.0145109
675.053	0.0142741
675.131	0.0142445
675.209	0.0140450
675.288	0.0138573
675.366	0.0137631
675.444	0.0136549
675.522	0.0136253
675.600	0.0136367
675.678	0.0136288
675.756	0.0135074
675.834	0.0135812
675.913	0.0136989
675.991	0.0136835
676.069	0.0138810
676.147	0.0140163
676.225	0.0140727
676.303	0.0143073
676.381	0.0143817
676.459	0.0145436
676.538	0.0147489
676.616	0.0149710
676.694	0.0151846
676.772	0.0153191
676.850	0.0155305
676.928	0.0156276
677.006	0.0159393
677.084	0.0161662
677.163	0.0162611
677.241	0.0164947
677.319	0.0165871
677.397	0.0166351
677.475	0.0168277
677.553	0.0169680
677.631	0.0170601
677.709	0.0172111
677.788	0.0170329
677.866	0.0170338
677.944	0.0170396
678.022	0.0171187
678.100	0.0169165
678.178	0.0168209
678.256	0.0166219
678.334	0.0165332
678.413	0.0161608
678.491	0.0159719
678.569	0.0158134
678.647	0.0156738
678.725	0.0155737
678.803	0.0152077
678.881	0.0150591
678.959	0.0148642
679.038	0.0146915
679.116	0.0145167
679.194	0.0142883
679.272	0.0141609
679.350	0.0141042
679.428	0.0138633
679.506	0.0136623
679.584	0.0136407
679.663	0.0137540
679.741	0.0135523
679.819	0.0135565
679.897	0.0135732
679.975	0.0134124
680.053	0.0135602
680.131	0.0137413
680.209	0.0137897
680.288	0.0139466
680.366	0.0141863
680.444	0.0142007
680.522	0.0144667
680.600	0.0144146
680.678	0.0146899
680.756	0.0149072
680.834	0.0151250
680.913	0.0151101
680.991	0.0151847
681.069	0.0153641
681.147	0.0155732
681.225	0.0157632
681.303	0.0156207
681.381	0.0156096
681.459	0.0157523
681.538	0.0159268
681.616	0.0160897
681.694	0.0160915
681.772	0.0161481
681.850	0.0160973
681.928	0.0161872
682.006	0.0161732
682.084	0.0161147
682.163	0.0159867
682.241	0.0160317
682.319	0.0158595
682.397	0.0157065
682.475	0.0157063
682.553	0.0156686
682.631	0.0155164
682.709	0.0152174
682.788	0.0151590
682.866	0.0152013
682.944	0.0149598
683.022	0.0147183
683.100	0.0147421
683.178	0.0146732
683.256	0.0145271
683.334	0.0145004
683.413	0.0145992
683.491	0.0146832
683.569	0.0146866
683.647	0.0147948
683.725	0.0149387
683.803	0.0148018
683.881	0.0149401
683.959	0.0150785
684.038	0.0152004
684.116	0.0151185
684.194	0.0154260
684.272	0.0154610
684.350	0.0153387
684.428	0.0155806
684.506	0.0156129
684.584	0.0154279
684.663	0.0155789
684.741	0.0156705
684.819	0.0158089
684.897	0.0157857
684.975	0.0157665
685.053	0.0159106
685.131	0.0159491
685.209	0.0158739
685.288	0.0159208
685.366	0.0160417
685.444	0.0158669
685.522	0.0160196
685.600	0.0159939
685.678	0.0159654
685.756	0.0156984
685.834	0.0157887
685.913	0.0156957
685.991	0.0156023
686.069	0.0154019
686.147	0.0152698
686.225	0.0152654
686.303	0.0151516
686.381	0.0150485
686.459	0.0149161
686.538	0.0147714
686.616	0.0146977
686.694	0.0145636
686.772	0.0145393
686.850	0.0145056
686.928	0.0144202
687.006	0.0144210
687.084	0.0145477
687.163	0.0144756
687.241	0.0145950
687.319	0.0145770
687.397	0.0145466
687.475	0.0146549
687.553	0.0146702
687.631	0.0146115
687.709	0.0146450
687.788	0.0147900
687.866	0.0147656
687.944	0.0148251
688.022	0.0147275
688.100	0.0148063
688.178	0.0149088
688.256	0.0148942
688.334	0.0149516
688.413	0.0150500
688.491	0.0149724
688.569	0.0149676
688.647	0.0150610
688.725	0.0150616
688.803	0.0150202
688.881	0.0149488
688.959	0.0149623
689.038	0.0149680
689.116	0.0150410
689.194	0.0150099
689.272	0.0150629
689.350	0.0150354
689.428	0.0150401
689.506	0.0150295
689.584	0.0149895
689.663	0.0150443
689.741	0.0151543
689.819	0.0152197
689.897	0.0151627
689.975	0.0154242
690.053	0.0154071
690.131	0.0155153
690.209	0.0155206
690.288	0.0155388
690.366	0.0156519
690.444	0.0157196
690.522	0.0157395
690.600	0.0156816
690.678	0.0157877
690.756	0.0156406
690.834	0.0157489
690.913	0.0157821
690.991	0.0157099
691.069	0.0157148
691.147	0.0158356
691.225	0.0159335
691.303	0.0157034
691.381	0.0158829
691.459	0.0159724
691.538	0.0159545
691.616	0.0159706
691.694	0.0161156
691.772	0.0160960
691.850	0.0160896
691.928	0.0161396
692.006	0.0161488
692.084	0.0162559
692.163	0.0161845
692.241	0.0162222
692.319	0.0161358
692.397	0.0161459
692.475	0.0158531
692.553	0.0158714
692.631	0.0156542
692.709	0.0156123
692.788	0.0155261
692.866	0.0153300
692.944	0.0151637
693.022	0.0147089
693.100	0.0145913
693.178	0.0145651
693.256	0.0144113
693.334	0.0142689
693.413	0.0138578
693.491	0.0139394
693.569	0.0138718
693.647	0.0136085
693.725	0.0133844
693.803	0.0132847
693.881	0.0132822
693.959	0.0132307
694.038	0.0130667
694.116	0.0129374
694.194	0.0131829
694.272	0.0131017
694.350	0.0131435
694.428	0.0131965
694.506	0.0133733
694.584	0.0135532
694.663	0.0134964
694.741	0.0135078
694.819	0.0139441
694.897	0.0140526
694.975	0.0143354
695.053	0.0144949
695.131	0.0146458
695.209	0.0149262
695.288	0.0150499
695.366	0.0153192
695.444	0.0159147
695.522	0.0161481
695.600	0.0163022
695.678	0.0165534
695.756	0.0168477
695.834	0.0170388
695.913	0.0174249
695.991	0.0176595
696.069	0.0177255
696.147	0.0178972
696.225	0.0178770
696.303	0.0179217
696.381	0.0180020
696.459	0.0181561
696.538	0.0179530
696.616	0.0178532
696.694	0.0177751
696.772	0.0177249
696.850	0.0173595
696.928	0.0172510
697.006	0.0171893
697.084	0.0170137
697.163	0.0166722
697.241	0.0164780
697.319	0.0163905
697.397	0.0160394
697.475	0.0158747
697.553	0.0155474
697.631	0.0152848
697.709	0.0152028
697.788	0.0148388
697.866	0.0145705
697.944	0.0143407
698.022	0.0141104
698.100	0.0137378
698.178	0.0135853
698.256	0.0134415
698.334	0.0133734
698.413	0.0131570
698.491	0.0130635
698.569	0.0131676
698.647	0.0130022
698.725	0.0128883
698.803	0.0130708
698.881	0.0130404
698.959	0.0131837
699.038	0.0132008
699.116	0.0130999
699.194	0.0132278
699.272	0.0132969
699.350	0.0133672
699.428	0.0133372
699.506	0.0133859
699.584	0.0137405
699.663	0.0137786
699.741	0.0138583
699.819	0.0139055
699.897	0.0141212
699.975	0.0142990
700.053	0.0146055
700.131	0.0149715
700.209	0.0151286
700.288	0.0153263
700.366	0.0156784
700.444	0.0159698
700.522	0.0160796
700.600	0.0163954
700.678	0.0167957
700.756	0.0169170
700.834	0.0169843
700.913	0.0173320
700.991	0.0175740
701.069	0.0173761
701.147	0.0175269
701.225	0.0177113
701.303	0.0174978
701.381	0.0175873
701.459	0.0176367
701.538	0.0174268
701.616	0.0172353
701.694	0.0172557
701.772	0.0169495
701.850	0.0167742
701.928	0.0164622
702.006	0.0164310
702.084	0.0160466
702.163	0.0158534
702.241	0.0156359
702.319	0.0152148
702.397	0.0151485
702.475	0.0148480
702.553	0.0146443
702.631	0.0146065
702.709	0.0143201
702.788	0.0140720
702.866	0.0139688
702.944	0.0141953
703.022	0.0140041
703.100	0.0139196
703.178	0.0140355
703.256	0.0140094
703.334	0.0139935
703.413	0.0140948
703.491	0.0141541
703.569	0.0143325
703.647	0.0143486
703.725	0.0144421
703.803	0.0144954
703.881	0.0145430
703.959	0.0146104
704.038	0.0146471
704.116	0.0148451
704.194	0.0147070
704.272	0.0148741
704.350	0.0148174
704.428	0.0146535
704.506	0.0146515
704.584	0.0146776
704.663	0.0144643
704.741	0.0145394
704.819	0.0145955
704.897	0.0143441
704.975	0.0142957
705.053	0.0142742
705.131	0.0143888
705.209	0.0143820
705.288	0.0144365
705.366	0.0146191
705.444	0.0147850
705.522	0.0148520
705.600	0.0148968
705.678	0.0151807
705.756	0.0152732
705.834	0.0154128
705.913	0.0157707
705.991	0.0158379
706.069	0.0158782
706.147	0.0161129
706.225	0.0161855
706.303	0.0163895
706.381	0.0163757
706.459	0.0164848
706.538	0.0165285
706.616	0.0166151
706.694	0.0166644
706.772	0.0167335
706.850	0.0165276
706.928	0.0165398
707.006	0.0164890
707.084	0.0162572
707.163	0.0162546
707.241	0.0160450
707.319	0.0157961
707.397	0.0156183
707.475	0.0154893
707.553	0.0152095
707.631	0.0150287
707.709	0.0146903
707.788	0.0146435
707.866	0.0143130
707.944	0.0142004
708.022	0.0140528
708.100	0.0140188
708.178	0.0140373
708.256	0.0138792
708.334	0.0139169
708.413	0.0137447
708.491	0.0139210
708.569	0.0140989
708.647	0.0140411
708.725	0.0140691
708.803	0.0141293
708.881	0.0142917
708.959	0.0145375
709.038	0.0147247
709.116	0.0147674
709.194	0.0149642
709.272	0.0151924
709.350	0.0152864
709.428	0.0154904
709.506	0.0155215
709.584	0.0157076
709.663	0.0159044
709.741	0.0160873
709.819	0.0161205
709.897	0.0161707
709.975	0.0161939
710.053	0.0163066
710.131	0.0161830
710.209	0.0161815
710.288	0.0162467
710.366	0.0160435
710.444	0.0158351
710.522	0.0158279
710.600	0.0155791
710.678	0.0155055
710.756	0.0153033
710.834	0.0152325
710.913	0.0151888
710.991	0.0150544
711.069	0.0149151
711.147	0.0148445
711.225	0.0148113
711.303	0.0148118
711.381	0.0149811
711.459	0.0148280
711.538	0.0148026
711.616	0.0149917
711.694	0.0150132
711.772	0.0150067
711.850	0.0151421
711.928	0.0152025
712.006	0.0152541
712.084	0.0151810
712.163	0.0152630
712.241	0.0154080
712.319	0.0155105
712.397	0.0155765
712.475	0.0154074
712.553	0.0156173
712.631	0.0153849
712.709	0.0153852
712.788	0.0155208
712.866	0.0156512
712.944	0.0154903
713.022	0.0154209
713.100	0.0153742
713.178	0.0153516
713.256	0.0151494
713.334	0.0152457
713.413	0.0153265
713.491	0.0149814
713.569	0.0150155
713.647	0.0150668
713.725	0.0150233
713.803	0.0150813
713.881	0.0151020
713.959	0.0150636
714.038	0.0151570
714.116	0.0151249
714.194	0.0150044
714.272	0.0151117
714.350	0.0151471
714.428	0.0150785
714.506	0.0151273
714.584	0.0150891
714.663	0.0151442
714.741	0.0150298
714.819	0.0150125
714.897	0.0150439
714.975	0.0151633
715.053	0.0148703
715.131	0.0148888
715.209	0.0150000
715.288	0.0148613
715.366	0.0146667
715.444	0.0146172
715.522	0.0146290
715.600	0.0145717
715.678	0.0143986
715.756	0.0142968
715.834	0.0143729
715.913	0.0141333
715.991	0.0141755
716.069	0.0141022
716.147	0.0141927
716.225	0.0142837
716.303	0.0142951
716.381	0.0142837
716.459	0.0145324
716.538	0.0145274
716.616	0.0146867
716.694	0.0149231
716.772	0.0148946
716.850	0.0150736
716.928	0.0151943
717.006	0.0155302
717.084	0.0156377
717.163	0.0159799
717.241	0.0159877
717.319	0.0161123
717.397	0.0161906
717.475	0.0163960
717.553	0.0163452
717.631	0.0164812
717.709	0.0167236
717.788	0.0168676
717.866	0.0167864
717.944	0.0167927
718.022	0.0166617
718.100	0.0166181
718.178	0.0164133
718.256	0.0165130
718.334	0.0162863
718.413	0.0159831
718.491	0.0159041
718.569	0.0157336
718.647	0.0154155
718.725	0.0153030
718.803	0.0153732
718.881	0.0151427
718.959	0.0149443
719.038	0.0147089
719.116	0.0147678
719.194	0.0146345
719.272	0.0147173
719.350	0.0146543
719.428	0.0145698
719.506	0.0144351
719.584	0.0145814
719.663	0.0144566
719.741	0.0144252
719.819	0.0143701
719.897	0.0144318
719.975	0.0143282
720.053	0.0144736
720.131	0.0143320
720.209	0.0144523
720.288	0.0141765
720.366	0.0143523
720.444	0.0144238
720.522	0.0142404
720.600	0.0144978
720.678	0.0143585
720.756	0.0143819
720.834	0.0144433
720.913	0.0142365
720.991	0.0143924
721.069	0.0145566
721.147	0.0144992
721.225	0.0145478
721.303	0.0145632
721.381	0.0146199
721.459	0.0148261
721.538	0.0149380
721.616	0.0149361
721.694	0.0150578
721.772	0.0151107
721.850	0.0153741
721.928	0.0155129
722.006	0.0154250
722.084	0.0155428
722.163	0.0156948
722.241	0.0155450
722.319	0.0155110
722.397	0.0156712
722.475	0.0156353
722.553	0.0155997
722.631	0.0155589
722.709	0.0155377
722.788	0.0156865
722.866	0.0156381
722.944	0.0157059
723.022	0.0155842
723.100	0.0156167
723.178	0.0157166
723.256	0.0155743
723.334	0.0155099
723.413	0.0157223
723.491	0.0157841
723.569	0.0158703
723.647	0.0158261
723.725	0.0158591
723.803	0.0158152
723.881	0.0157088
723.959	0.0156873
724.038	0.0158195
724.116	0.0157748
724.194	0.0156809
724.272	0.0156815
724.350	0.0156688
724.428	0.0157487
724.506	0.0156682
724.584	0.0156721
724.663	0.0155223
724.741	0.0156881
724.819	0.0155732
724.897	0.0154526
724.975	0.0154799
725.053	0.0154891
725.131	0.0153204
725.209	0.0151836
725.288	0.0150901
725.366	0.0150436
725.444	0.0149071
725.522	0.0148291
725.600	0.0147540
725.678	0.0145416
725.756	0.0145127
725.834	0.0145570
725.913	0.0146828
725.991	0.0145835
726.069	0.0144488
726.147	0.0144389
726.225	0.0144243
726.303	0.0143922
726.381	0.0143962
726.459	0.0145557
726.538	0.0144274
726.616	0.0144411
726.694	0.0146069
726.772	0.0146684
726.850	0.0145632
726.928	0.0146368
727.006	0.0148150
727.084	0.0148371
727.163	0.0147997
727.241	0.0149290
727.319	0.0152003
727.397	0.0151395
727.475	0.0152960
727.553	0.0153430
727.631	0.0156101
727.709	0.0157307
727.788	0.0156708
727.866	0.0160321
727.944	0.0160509
728.022	0.0160130
728.100	0.0161663
728.178	0.0160906
728.256	0.0160928
728.334	0.0160419
728.413	0.0160773
728.491	0.0159710
728.569	0.0158590
728.647	0.0157297
728.725	0.0155207
728.803	0.0154247
728.881	0.0153506
728.959	0.0151897
729.038	0.0151945
729.116	0.0151325
729.194	0.0150757
729.272	0.0149324
729.350	0.0148814
729.428	0.0149294
729.506	0.0148546
729.584	0.0149939
729.663	0.0149714
729.741	0.0147984
729.819	0.0151571
729.897	0.0150369
729.975	0.0152283
730.053	0.0152379
730.131	0.0154533
730.209	0.0153954
730.288	0.0155450
730.366	0.0155463
730.444	0.0157349
730.522	0.0157713
730.600	0.0158475
730.678	0.0157818
730.756	0.0156799
730.834	0.0156966
730.913	0.0155391
730.991	0.0155032
731.069	0.0155477
731.147	0.0152547
731.225	0.0151994
731.303	0.0151644
731.381	0.0151535
731.459	0.0147876
731.538	0.0147602
731.616	0.0147826
731.694	0.0145862
731.772	0.0143642
731.850	0.0143952
731.928	0.0143533
732.006	0.0143620
732.084	0.0142233
732.163	0.0143468
732.241	0.0142967
732.319	0.0141424
732.397	0.0141263
732.475	0.0142052
732.553	0.0143801
732.631	0.0144723
732.709	0.0145309
732.788	0.0146072
732.866	0.0146278
732.944	0.0148057
733.022	0.0149706
733.100	0.0151952
733.178	0.0152970
733.256	0.0154080
733.334	0.0157583
733.413	0.0157970
733.491	0.0158145
733.569	0.0159297
733.647	0.0160131
733.725	0.0160904
733.803	0.0161971
733.881	0.0161054
733.959	0.0160503
734.038	0.0160226
734.116	0.0161264
734.194	0.0159935
734.272	0.0158862
734.350	0.0159241
734.428	0.0156334
734.506	0.0155057
734.584	0.0155208
734.663	0.0153326
734.741	0.0151165
734.819	0.0150601
734.897	0.0147718
734.975	0.0145956
735.053	0.0145332
735.131	0.0143385
735.209	0.0140987
735.288	0.0141695
735.366	0.0140842
735.444	0.0139659
735.522	0.0140600
735.600	0.0139698
735.678	0.0140479
735.756	0.0140470
735.834	0.0142334
735.913	0.0142906
735.991	0.0144286
736.069	0.0144055
736.147	0.0146738
736.225	0.0147091
736.303	0.0147852
736.381	0.0149565
736.459	0.0152563
736.538	0.0152820
736.616	0.0151775
736.694	0.0153668
736.772	0.0158002
736.850	0.0157419
736.928	0.0157893
737.006	0.0157296
737.084	0.0158462
737.163	0.0158995
737.241	0.0160186
737.319	0.0161144
737.397	0.0162405
737.475	0.0162006
737.553	0.0162177
737.631	0.0162952
737.709	0.0162646
737.788	0.0162752
737.866	0.0161398
737.944	0.0162151
738.022	0.0161982
738.100	0.0159719
738.178	0.0157295
738.256	0.0160108
738.334	0.0158212
738.413	0.0154223
738.491	0.0154375
738.569	0.0153171
738.647	0.0151450
738.725	0.0149837
738.803	0.0147961
738.881	0.0149105
738.959	0.0146962
739.038	0.0146262
739.116	0.0146594
739.194	0.0145512
739.272	0.0145502
739.350	0.0144374
739.428	0.0143726
739.506	0.0142950
739.584	0.0143862
739.663	0.0144202
739.741	0.0144343
739.819	0.0141728
739.897	0.0142628
739.975	0.0143694
740.053	0.0143885
740.131	0.0143785
740.209	0.0144784
740.288	0.0143637
740.366	0.0145959
740.444	0.0146773
740.522	0.0145557
740.600	0.0146405
740.678	0.0147672
740.756	0.0146719
740.834	0.0146980
740.913	0.0148825
740.991	0.0149744
741.069	0.0149150
741.147	0.0149450
741.225	0.0151057
741.303	0.0152480
741.381	0.0153468
741.459	0.0153709
741.538	0.0155831
741.616	0.0156966
741.694	0.0158905
741.772	0.0159137
741.850	0.0159974
741.928	0.0160548
742.006	0.0160648
742.084	0.0161217
742.163	0.0161513
742.241	0.0162033
742.319	0.0160377
742.397	0.0159577
742.475	0.0160641
742.553	0.0159223
742.631	0.0158050
742.709	0.0157104
742.788	0.0157528
742.866	0.0155355
742.944	0.0154832
743.022	0.0152673
743.100	0.0153178
743.178	0.0152670
743.256	0.0150941
743.334	0.0149716
743.413	0.0148493
743.491	0.0147065
743.569	0.0147251
743.647	0.0146207
743.725	0.0145412
743.803	0.0145245
743.881	0.0143747
743.959	0.0143094
744.038	0.0142403
744.116	0.0142583
744.194	0.0141521
744.272	0.0141624
744.350	0.0141453
744.428	0.0141527
744.506	0.0141549
744.584	0.0140949
744.663	0.0142073
744.741	0.0142821
744.819	0.0143151
744.897	0.0142712
744.975	0.0142677
745.053	0.0143343
745.131	0.0144884
745.209	0.0144729
745.288	0.0146889
745.366	0.0146702
745.444	0.0147744
745.522	0.0149427
745.600	0.0151126
745.678	0.0151919
745.756	0.0151860
745.834	0.0153009
745.913	0.0156094
745.991	0.0156081
746.069	0.0156158
746.147	0.0157808
746.225	0.0158607
746.303	0.0159583
746.381	0.0160194
746.459	0.0161620
746.538	0.0162322
746.616	0.0163108
746.694	0.0162857
746.772	0.0160879
746.850	0.0160786
746.928	0.0161687
747.006	0.0161137
747.084	0.0162170
747.163	0.0159970
747.241	0.0160085
747.319	0.0159106
747.397	0.0158641
747.475	0.0157869
747.553	0.0157240
747.631	0.0156385
747.709	0.0153312
747.788	0.0152216
747.866	0.0152632
747.944	0.0150649
748.022	0.0148642
748.100	0.0146543
748.178	0.0146085
748.256	0.0143340
748.334	0.0142274
748.413	0.0142227
748.491	0.0140462
748.569	0.0140501
748.647	0.0140469
748.725	0.0140739
748.803	0.0142223
748.881	0.0141596
748.959	0.0142795
749.038	0.0146435
749.116	0.0146706
749.194	0.0148530
749.272	0.0148515
749.350	0.0152737
749.428	0.0152766
749.506	0.0154165
749.584	0.0154394
749.663	0.0157522
749.741	0.0156897
749.819	0.0158218
749.897	0.0158714
749.975	0.0159407
750.053	0.0159554
750.131	0.0158970
750.209	0.0158824
750.288	0.0158118
750.366	0.0157511
750.444	0.0157304
750.522	0.0155579
750.600	0.0154559
750.678	0.0154704
750.756	0.0152189
750.834	0.0150955
750.913	0.0150525
750.991	0.0149062
751.069	0.0148032
751.147	0.0148284
751.225	0.0145396
751.303	0.0146011
751.381	0.0143850
751.459	0.0145251
751.538	0.0145274
751.616	0.0143500
751.694	0.0144247
751.772	0.0143808
751.850	0.0145198
751.928	0.0144926
752.006	0.0145491
752.084	0.0145741
752.163	0.0146998
752.241	0.0149372
752.319	0.0151077
752.397	0.0149877
752.475	0.0150684
752.553	0.0152271
752.631	0.0154534
752.709	0.0155448
752.788	0.0156412
752.866	0.0157400
752.944	0.0157424
753.022	0.0161661
753.100	0.0159795
753.178	0.0160635
753.256	0.0161508
753.334	0.0161285
753.413	0.0159927
753.491	0.0159827
753.569	0.0161355
753.647	0.0159304
753.725	0.0159122
753.803	0.0159014
753.881	0.0158122
753.959	0.0157131
754.038	0.0156826
754.116	0.0155347
754.194	0.0156335
754.272	0.0157275
754.350	0.0154578
754.428	0.0155013
754.506	0.0155200
754.584	0.0153314
754.663	0.0153020
754.741	0.0152747
754.819	0.0152726
754.897	0.0151487
754.975	0.0150624
755.053	0.0150212
755.131	0.0148458
755.209	0.0149725
755.288	0.0148949
755.366	0.0147267
755.444	0.0146258
755.522	0.0145982
755.600	0.0145786
755.678	0.0144127
755.756	0.0143354
755.834	0.0144147
755.913	0.0143027
755.991	0.0144918
756.069	0.0142542
756.147	0.0143532
756.225	0.0142957
756.303	0.0143464
756.381	0.0144359
756.459	0.0144579
756.538	0.0145596
756.616	0.0145358
756.694	0.0146414
756.772	0.0148586
756.850	0.0149776
756.928	0.0151364
757.006	0.0152398
757.084	0.0154256
757.163	0.0153992
757.241	0.0153587
757.319	0.0156043
757.397	0.0157580
757.475	0.0157038
757.553	0.0157617
757.631	0.0159779
757.709	0.0158476
757.788	0.0156628
757.866	0.0158695
757.944	0.0157439
758.022	0.0156398
758.100	0.0157786
758.178	0.0156692
758.256	0.0156222
758.334	0.0154654
758.413	0.0152162
758.491	0.0154515
758.569	0.0152999
758.647	0.0151911
758.725	0.0151041
758.803	0.0150040
758.881	0.0149641
758.959	0.0148957
759.038	0.0148587
759.116	0.0147512
759.194	0.0146809
759.272	0.0148370
759.350	0.0148001
759.428	0.0147606
759.506	0.0147509
759.584	0.0147688
759.663	0.0148343
759.741	0.0149005
759.819	0.0148210
759.897	0.0149987
759.975	0.0150829
760.053	0.0150868
760.131	0.0150360
760.209	0.0151337
760.288	0.0154100
760.366	0.0153988
760.444	0.0153082
760.522	0.0152780
760.600	0.0155274
760.678	0.0155943
760.756	0.0153982
760.834	0.0155677
760.913	0.0155831
760.991	0.0155070
761.069	0.0154560
761.147	0.0153538
761.225	0.0154694
761.303	0.0154292
761.381	0.0153934
761.459	0.0155413
761.538	0.0154102
761.616	0.0153239
761.694	0.0153538
761.772	0.0152807
761.850	0.0154111
761.928	0.0153622
762.006	0.0154637
762.084	0.0154741
762.163	0.0153177
762.241	0.0152762
762.319	0.0152788
762.397	0.0153115
762.475	0.0151873
762.553	0.0151680
762.631	0.0151595
762.709	0.0149873
762.788	0.0150637
762.866	0.0148923
762.944	0.0148380
763.022	0.0149346
763.100	0.0148150
763.178	0.0149210
763.256	0.0149004
763.334	0.0150086
763.413	0.0149121
763.491	0.0149643
763.569	0.0148824
763.647	0.0150470
763.725	0.0150361
763.803	0.0150259
763.881	0.0151594
763.959	0.0151712
764.038	0.0151820
764.116	0.0152818
764.194	0.0150773
764.272	0.0150885
764.350	0.0151392
764.428	0.0149850
764.506	0.0152180
764.584	0.0151562
764.663	0.0150883
764.741	0.0150948
764.819	0.0151580
764.897	0.0151062
764.975	0.0151445
765.053	0.0151556
765.131	0.0150915
765.209	0.0151901
765.288	0.0151954
765.366	0.0152515
765.444	0.0152387
765.522	0.0151577
765.600	0.0153000
765.678	0.0150488
765.756	0.0150262
765.834	0.0152998
765.913	0.0150487
765.991	0.0150238
766.069	0.0149108
766.147	0.0150056
766.225	0.0149329
766.303	0.0148765
766.381	0.0149878
766.459	0.0149190
766.538	0.0148359
766.616	0.0148707
766.694	0.0149639
766.772	0.0147995
766.850	0.0147666
766.928	0.0148115
767.006	0.0147582
767.084	0.0148969
767.163	0.0149200
767.241	0.0149328
767.319	0.0148775
767.397	0.0148648
767.475	0.0148917
767.553	0.0149282
767.631	0.0149666
767.709	0.0150163
767.788	0.0150282
767.866	0.0149316
767.944	0.0150346
768.022	0.0151414
768.100	0.0152293
768.178	0.0152284
768.256	0.0152926
768.334	0.0152928
768.413	0.0153539
768.491	0.0154936
768.569	0.0155448
768.647	0.0156380
768.725	0.0156119
768.803	0.0157687
768.881	0.0157283
768.959	0.0157285
769.038	0.0157682
769.116	0.0159161
769.194	0.0158633
769.272	0.0158244
769.350	0.0159859
769.428	0.0159132
769.506	0.0159618
769.584	0.0158781
769.663	0.0158302
769.741	0.0158961
769.819	0.0157592
769.897	0.0157031
769.975	0.0157517
770.053	0.0156687
770.131	0.0154897
770.209	0.0152976
770.288	0.0152441
770.366	0.0153029
770.444	0.0152254
770.522	0.0150497
770.600	0.0149580
770.678	0.0147848
770.756	0.0150294
770.834	0.0147936
770.913	0.0147066
770.991	0.0146970
771.069	0.0146249
771.147	0.0147873
771.225	0.0147216
771.303	0.0148179
771.381	0.0146995
771.459	0.0147625
771.538	0.0149355
771.616	0.0148918
771.694	0.0147572
771.772	0.0148456
771.850	0.0148830
771.928	0.0149025
772.006	0.0148161
772.084	0.0147912
772.163	0.0148296
772.241	0.0148053
772.319	0.0149009
772.397	0.0150021
772.475	0.0148935
772.553	0.0148426
772.631	0.0147943
772.709	0.0148175
772.788	0.0149335
772.866	0.0148984
772.944	0.0147889
773.022	0.0149117
773.100	0.0149890
773.178	0.0149023
773.256	0.0148194
773.334	0.0148754
773.413	0.0148713
773.491	0.0150462
773.569	0.0151159
773.647	0.0151042
773.725	0.0151222
773.803	0.0150368
773.881	0.0152056
773.959	0.0152484
774.038	0.0152730
774.116	0.0153194
774.194	0.0152751
774.272	0.0153478
774.350	0.0153242
774.428	0.0152768
774.506	0.0153548
774.584	0.0152795
774.663	0.0152810
774.741	0.0151504
774.819	0.0150737
774.897	0.0151519
774.975	0.0150354
775.053	0.0150866
775.131	0.0151273
775.209	0.0150919
775.288	0.0151427
775.366	0.0151712
775.444	0.0150894
775.522	0.0152335
775.600	0.0151947
775.678	0.0151297
775.756	0.0152907
775.834	0.0152924
775.913	0.0154659
775.991	0.0153215
776.069	0.0153577
776.147	0.0154106
776.225	0.0154674
776.303	0.0155987
776.381	0.0155672
776.459	0.0155457
776.538	0.0154453
776.616	0.0154266
776.694	0.0153536
776.772	0.0153523
776.850	0.0153493
776.928	0.0152113
777.006	0.0151522
777.084	0.0151701
777.163	0.0149696
777.241	0.0149607
777.319	0.0151514
777.397	0.0148586
777.475	0.0148447
777.553	0.0147661
777.631	0.0147110
777.709	0.0148509
777.788	0.0147820
777.866	0.0147441
777.944	0.0149644
778.022	0.0148392
778.100	0.0149697
778.178	0.0149280
778.256	0.0149084
778.334	0.0149562
778.413	0.0150204
778.491	0.0151921
778.569	0.0150843
778.647	0.0152208
778.725	0.0152416
778.803	0.0153629
778.881	0.0154105
778.959	0.0155704
779.038	0.0157484
779.116	0.0156181
779.194	0.0157874
779.272	0.0158642
779.350	0.0159435
779.428	0.0160523
779.506	0.0159160
779.584	0.0159816
779.663	0.0160345
779.741	0.0160083
779.819	0.0157957
779.897	0.0159729
779.975	0.0158652
780.053	0.0156784
780.131	0.0155352
780.209	0.0154973
780.288	0.0153670
780.366	0.0153933
780.444	0.0152478
780.522	0.0153237
780.600	0.0154004
780.678	0.0150874
780.756	0.0150599
780.834	0.0151296
780.913	0.0150425
780.991	0.0149975
781.069	0.0149136
781.147	0.0150565
781.225	0.0149568
781.303	0.0150165
781.381	0.0149265
781.459	0.0150018
781.538	0.0148713
781.616	0.0150064
781.694	0.0150352
781.772	0.0150452
781.850	0.0150148
781.928	0.0150780
782.006	0.0150281
782.084	0.0149932
782.163	0.0151357
782.241	0.0150663
782.319	0.0150811
782.397	0.0150591
782.475	0.0150393
782.553	0.0150954
782.631	0.0151358
782.709	0.0151276
782.788	0.0152638
782.866	0.0152166
782.944	0.0152124
783.022	0.0151394
783.100	0.0151994
783.178	0.0149272
783.256	0.0150528
783.334	0.0151080
783.413	0.0150175
783.491	0.0150587
783.569	0.0149049
783.647	0.0149842
783.725	0.0147986
783.803	0.0147898
783.881	0.0148335
783.959	0.0148513
784.038	0.0147572
784.116	0.0149312
784.194	0.0150320
784.272	0.0148659
784.350	0.0149204
784.428	0.0148847
784.506	0.0148686
784.584	0.0149142
784.663	0.0149873
784.741	0.0150117
784.819	0.0150122
784.897	0.0150604
784.975	0.0150353
785.053	0.0151846
785.131	0.0151019
785.209	0.0151018
785.288	0.0153304
785.366	0.0152661
785.444	0.0152200
785.522	0.0153495
785.600	0.0154487
785.678	0.0154118
785.756	0.0154703
785.834	0.0155206
785.913	0.0154213
785.991	0.0155552
786.069	0.0156032
786.147	0.0154993
786.225	0.0156195
786.303	0.0155685
786.381	0.0154868
786.459	0.0154813
786.538	0.0154332
786.616	0.0154492
786.694	0.0155260
786.772	0.0152068
786.850	0.0151955
786.928	0.0150346
787.006	0.0150309
787.084	0.0150903
787.163	0.0149827
787.241	0.0149583
787.319	0.0150072
787.397	0.0150858
787.475	0.0151200
787.553	0.0150186
787.631	0.0149781
787.709	0.0150613
787.788	0.0150752
787.866	0.0151955
787.944	0.0152528
788.022	0.0150910
788.100	0.0152760
788.178	0.0152151
788.256	0.0154624
788.334	0.0153994
788.413	0.0152436
788.491	0.0154170
788.569	0.0155115
788.647	0.0154429
788.725	0.0153101
788.803	0.0154134
788.881	0.0154400
788.959	0.0152834
789.038	0.0152682
789.116	0.0151640
789.194	0.0152522
789.272	0.0150487
789.350	0.0150545
789.428	0.0149347
789.506	0.0150364
789.584	0.0150141
789.663	0.0150540
789.741	0.0149978
789.819	0.0149735
789.897	0.0150478
789.975	0.0149855
790.053	0.0150372
790.131	0.0151108
790.209	0.0150070
790.288	0.0151208
790.366	0.0151820
790.444	0.0151579
790.522	0.0151656
790.600	0.0151639
790.678	0.0152196
790.756	0.0151762
790.834	0.0154153
790.913	0.0153314
790.991	0.0151014
791.069	0.0152202
791.147	0.0152615
791.225	0.0152074
791.303	0.0152820
791.381	0.0152749
791.459	0.0151890
791.538	0.0151919
791.616	0.0150778
791.694	0.0151064
791.772	0.0151029
791.850	0.0151246
791.928	0.0151661
792.006	0.0152817
792.084	0.0152864
792.163	0.0152029
792.241	0.0153666
792.319	0.0152332
792.397	0.0152067
792.475	0.0154607
792.553	0.0153773
792.631	0.0152356
792.709	0.0152551
792.788	0.0153548
792.866	0.0154765
792.944	0.0153406
793.022	0.0153485
793.100	0.0153902
793.178	0.0154397
793.256	0.0153306
793.334	0.0155501
793.413	0.0153316
793.491	0.0152570
793.569	0.0153049
793.647	0.0153165
793.725	0.0151688
793.803	0.0151313
793.881	0.0152927
793.959	0.0151151
794.038	0.0150911
794.116	0.0150110
794.194	0.0149742
794.272	0.0150200
794.350	0.0150195
794.428	0.0148859
794.506	0.0148499
794.584	0.0148383
794.663	0.0148109
794.741	0.0148997
794.819	0.0148067
794.897	0.0149143
794.975	0.0147793
795.053	0.0147188
795.131	0.0148425
795.209	0.0147083
795.288	0.0147568
795.366	0.0147966
795.444	0.0147960
795.522	0.0148019
795.600	0.0149103
795.678	0.0148054
795.756	0.0147591
795.834	0.0147320
795.913	0.0149126
795.991	0.0147704
796.069	0.0148870
796.147	0.0149073
796.225	0.0149873
796.303	0.0149555
796.381	0.0149454
796.459	0.0149416
796.538	0.0151402
796.616	0.0149809
796.694	0.0150668
796.772	0.0151466
796.850	0.0150861
796.928	0.0151961
797.006	0.0153540
797.084	0.0154680
797.163	0.0154657
797.241	0.0155064
797.319	0.0155983
797.397	0.0155440
797.475	0.0156719
797.553	0.0158724
797.631	0.0158111
797.709	0.0158949
797.788	0.0159288
797.866	0.0158503
797.944	0.0159007
798.022	0.0159772
798.100	0.0159130
798.178	0.0158881
798.256	0.0158688
798.334	0.0158779
798.413	0.0157823
798.491	0.0158498
798.569	0.0158987
798.647	0.0157066
798.725	0.0156519
798.803	0.0155880
798.881	0.0155660
798.959	0.0154076
799.038	0.0154319
799.116	0.0154015
799.194	0.0151879
799.272	0.0152518
799.350	0.0150704
799.428	0.0150768
799.506	0.0149042
799.584	0.0150687
799.663	0.0148270
799.741	0.0148180
799.819	0.0148654
799.897	0.0149374
799.975	0.0148858
800.053	0.0148846
800.131	0.0149941
800.209	0.0148888
800.288	0.0150008
800.366	0.0150201
800.444	0.0150466
800.522	0.0150784
800.600	0.0150587
800.678	0.0150925
800.756	0.0151383
800.834	0.0151224
800.913	0.0151231
800.991	0.0152229
801.069	0.0151112
801.147	0.0150951
801.225	0.0148853
801.303	0.0149554
801.381	0.0149554
801.459	0.0150140
801.538	0.0149301
801.616	0.0148766
801.694	0.0146530
801.772	0.0149348
801.850	0.0148148
801.928	0.0147201
802.006	0.0148061
802.084	0.0148653
802.163	0.0148724
802.241	0.0149380
802.319	0.0149988
802.397	0.0151266
802.475	0.0150675
802.553	0.0150225
802.631	0.0151309
802.709	0.0152925
802.788	0.0151627
802.866	0.0153282
802.944	0.0152864
803.022	0.0153171
803.100	0.0154228
803.178	0.0154090
803.256	0.0153382
803.334	0.0153405
803.413	0.0154042
803.491	0.0153100
803.569	0.0153686
803.647	0.0153931
803.725	0.0153020
803.803	0.0153433
803.881	0.0152882
803.959	0.0153532
804.038	0.0151913
804.116	0.0151711
804.194	0.0150789
804.272	0.0150206
804.350	0.0151054
804.428	0.0150961
804.506	0.0150263
804.584	0.0151760
804.663	0.0150778
804.741	0.0150066
804.819	0.0149062
804.897	0.0149827
804.975	0.0150286
805.053	0.0148773
805.131	0.0149231
805.209	0.0150695
805.288	0.0150714
805.366	0.0150298
805.444	0.0150114
805.522	0.0151246
805.600	0.0151796
805.678	0.0151414
805.756	0.0151733
805.834	0.0151642
805.913	0.0151445
805.991	0.0152340
806.069	0.0152444
806.147	0.0151833
806.225	0.0152639
806.303	0.0151931
806.381	0.0153257
806.459	0.0152973
806.538	0.0150807
806.616	0.0154014
806.694	0.0153342
806.772	0.0153081
806.850	0.0152452
806.928	0.0151550
807.006	0.0153518
807.084	0.0153264
807.163	0.0153404
807.241	0.0151614
807.319	0.0152236
807.397	0.0153535
807.475	0.0153146
807.553	0.0152248
807.631	0.0153687
807.709	0.0153056
807.788	0.0153322
807.866	0.0152235
807.944	0.0151756
808.022	0.0153082
808.100	0.0152208
808.178	0.0152251
808.256	0.0152483
808.334	0.0151656
808.413	0.0151286
808.491	0.0151523
808.569	0.0151762
808.647	0.0152159
808.725	0.0151403
808.803	0.0151833
808.881	0.0152670
808.959	0.0153826
809.038	0.0153979
809.116	0.0152081
809.194	0.0152156
809.272	0.0153689
809.350	0.0153462
809.428	0.0153423
809.506	0.0155157
809.584	0.0154818
809.663	0.0154057
809.741	0.0154606
809.819	0.0154949
809.897	0.0153290
809.975	0.0154626
810.053	0.0153889
810.131	0.0154569
810.209	0.0153696
810.288	0.0154209
810.366	0.0154609
810.444	0.0153095
810.522	0.0153333
810.600	0.0151857
810.678	0.0151681
810.756	0.0150345
810.834	0.0149960
810.913	0.0148548
810.991	0.0149438
811.069	0.0149939
811.147	0.0151113
811.225	0.0148560
811.303	0.0148407
811.381	0.0148801
811.459	0.0147696
811.538	0.0147715
811.616	0.0148289
811.694	0.0148349
811.772	0.0147482
811.850	0.0147144
811.928	0.0147477
812.006	0.0147874
812.084	0.0147873
812.163	0.0147103
812.241	0.0148273
812.319	0.0148069
812.397	0.0150114
812.475	0.0149754
812.553	0.0147626
812.631	0.0149612
812.709	0.0149588
812.788	0.0150005
812.866	0.0150660
812.944	0.0150731
813.022	0.0151722
813.100	0.0152025
813.178	0.0151431
813.256	0.0151286
813.334	0.0153356
813.413	0.0154000
813.491	0.0152529
813.569	0.0153414
813.647	0.0155176
813.725	0.0154692
813.803	0.0155434
813.881	0.0155787
813.959	0.0155030
814.038	0.0154809
814.116	0.0157105
814.194	0.0156071
814.272	0.0155220
814.350	0.0154636
814.428	0.0154188
814.506	0.0154007
814.584	0.0155241
814.663	0.0155344
814.741	0.0153368
814.819	0.0155234
814.897	0.0155199
814.975	0.0154214
815.053	0.0153859
815.131	0.0153684
815.209	0.0154134
815.288	0.0152412
815.366	0.0151785
815.444	0.0151477
815.522	0.0152566
815.600	0.0152115
815.678	0.0150941
815.756	0.0149492
815.834	0.0151170
815.913	0.0151610
815.991	0.0151718
816.069	0.0149783
816.147	0.0149213
816.225	0.0150153
816.303	0.0150103
816.381	0.0149575
816.459	0.0148930
816.538	0.0148684
816.616	0.0148322
816.694	0.0149339
816.772	0.0147748
816.850	0.0149032
816.928	0.0149504
817.006	0.0148756
817.084	0.0148685
817.163	0.0146601
817.241	0.0149433
817.319	0.0148881
817.397	0.0148949
817.475	0.0151021
817.553	0.0149846
817.631	0.0150778
817.709	0.0151202
817.788	0.0151899
817.866	0.0151415
817.944	0.0150806
818.022	0.0152354
818.100	0.0152185
818.178	0.0151395
818.256	0.0153752
818.334	0.0153029
818.413	0.0152473
818.491	0.0153497
818.569	0.0151456
818.647	0.0153154
818.725	0.0152557
818.803	0.0151225
818.881	0.0152828
818.959	0.0153431
819.038	0.0152738
819.116	0.0152429
819.194	0.0152364
819.272	0.0153327
819.350	0.0153288
819.428	0.0152459
819.506	0.0153107
819.584	0.0152178
819.663	0.0152681
819.741	0.0152210
819.819	0.0152431
819.897	0.0152795
819.975	0.0152079
820.053	0.0151013
820.131	0.0151646
820.209	0.0152225
820.288	0.0151947
820.366	0.0151849
820.444	0.0151311
820.522	0.0151617
820.600	0.0151087
820.678	0.0151117
820.756	0.0151604
820.834	0.0151107
820.913	0.0150593
820.991	0.0150248
821.069	0.0150955
821.147	0.0151828
821.225	0.0149918
821.303	0.0149848
821.381	0.0151321
821.459	0.0150957
821.538	0.0150359
821.616	0.0150980
821.694	0.0151839
821.772	0.0150044
821.850	0.0150472
821.928	0.0150315
822.006	0.0149738
822.084	0.0149871
822.163	0.0151554
822.241	0.0152242
822.319	0.0152014
822.397	0.0150673
822.475	0.0151601
822.553	0.0151273
822.631	0.0151002
822.709	0.0149878
822.788	0.0149555
822.866	0.0151237
822.944	0.0150459
823.022	0.0151311
823.100	0.0149893
823.178	0.0149953
823.256	0.0151895
823.334	0.0151809
823.413	0.0151169
823.491	0.0151981
823.569	0.0152029
823.647	0.0150626
823.725	0.0152571
823.803	0.0152100
823.881	0.0153642
823.959	0.0152615
824.038	0.0153345
824.116	0.0151952
824.194	0.0152429
824.272	0.0151602
824.350	0.0152948
824.428	0.0152299
824.506	0.0153636
824.584	0.0152580
824.663	0.0152894
824.741	0.0153027
824.819	0.0153368
824.897	0.0154033
824.975	0.0154149
825.053	0.0154330
825.131	0.0153216
825.209	0.0154360
825.288	0.0153873
825.366	0.0153056
825.444	0.0154357
825.522	0.0154347
825.600	0.0153363
825.678	0.0153217
825.756	0.0151623
825.834	0.0153356
825.913	0.0154333
825.991	0.0152354
826.069	0.0152788
826.147	0.0152626
826.225	0.0153493
826.303	0.0152879
826.381	0.0151938
826.459	0.0152742
826.538	0.0152769
826.616	0.0152343
826.694	0.0151800
826.772	0.0151949
826.850	0.0151288
826.928	0.0151742
827.006	0.0151413
827.084	0.0151765
827.163	0.0151951
827.241	0.0151984
827.319	0.0151388
827.397	0.0150898
827.475	0.0150046
827.553	0.0151766
827.631	0.0150877
827.709	0.0151677
827.788	0.0150322
827.866	0.0150056
827.944	0.0151534
828.022	0.0150371
828.100	0.0151100
828.178	0.0150258
828.256	0.0150851
828.334	0.0150394
828.413	0.0150674
828.491	0.0149629
828.569	0.0151084
828.647	0.0150919
828.725	0.0150097
828.803	0.0149387
828.881	0.0150523
828.959	0.0151505
829.038	0.0149131
829.116	0.0149323
829.194	0.0150522
829.272	0.0150747
829.350	0.0151868
829.428	0.0152066
829.506	0.0152138
829.584	0.0149831
829.663	0.0151591
829.741	0.0152505
829.819	0.0151754
829.897	0.0151974
829.975	0.0152258
830.053	0.0151762
830.131	0.0151945
830.209	0.0151997
830.288	0.0153893
830.366	0.0153089
830.444	0.0152454
830.522	0.0153568
830.600	0.0153003
830.678	0.0153427
830.756	0.0152277
830.834	0.0154115
830.913	0.0152864
830.991	0.0152137
831.069	0.0153210
831.147	0.0153619
831.225	0.0152621
831.303	0.0152908
831.381	0.0152854
831.459	0.0152283
831.538	0.0151643
831.616	0.0150363
831.694	0.0151875
831.772	0.0152644
831.850	0.0151011
831.928	0.0151650
832.006	0.0151659
832.084	0.0149752
832.163	0.0151340
832.241	0.0150288
832.319	0.0150567
832.397	0.0151201
832.475	0.0150806
832.553	0.0150661
832.631	0.0149091
832.709	0.0149966
832.788	0.0150111
832.866	0.0151265
832.944	0.0150118
833.022	0.0150398
833.100	0.0150455
833.178	0.0151402
833.256	0.0151611
833.334	0.0151628
833.413	0.0152789
833.491	0.0151747
833.569	0.0152744
833.647	0.0152466
833.725	0.0150829
833.803	0.0151155
833.881	0.0151232
833.959	0.0153071
834.038	0.0151813
834.116	0.0152547
834.194	0.0152296
834.272	0.0152224
834.350	0.0151167
834.428	0.0152628
834.506	0.0151471
834.584	0.0153015
834.663	0.0152115
834.741	0.0151160
834.819	0.0152364
834.897	0.0151466
834.975	0.0150967
835.053	0.0151185
835.131	0.0152564
835.209	0.0152193
835.288	0.0152049
835.366	0.0150714
835.444	0.0150952
835.522	0.0151371
835.600	0.0149878
835.678	0.0151747
835.756	0.0151146
835.834	0.0151839
835.913	0.0152203
835.991	0.0151076
836.069	0.0150273
836.147	0.0150974
836.225	0.0151553
836.303	0.0152978
836.381	0.0152130
836.459	0.0151029
836.538	0.0151233
836.616	0.0151709
836.694	0.0150923
836.772	0.0150882
836.850	0.0151091
836.928	0.0151488
837.006	0.0151601
837.084	0.0150550
837.163	0.0150967
837.241	0.0151500
837.319	0.0151614
837.397	0.0150548
837.475	0.0151514
837.553	0.0153263
837.631	0.0152131
837.709	0.0152756
837.788	0.0152732
837.866	0.0153656
837.944	0.0153529
838.022	0.0153767
838.100	0.0153479
838.178	0.0152863
838.256	0.0154375
838.334	0.0152907
838.413	0.0153542
838.491	0.0153984
838.569	0.0153293
838.647	0.0152871
838.725	0.0153779
838.803	0.0153925
838.881	0.0152838
838.959	0.0153778
839.038	0.0152690
839.116	0.0153019
839.194	0.0153523
839.272	0.0152818
839.350	0.0152804
839.428	0.0153031
839.506	0.0153489
839.584	0.0151868
839.663	0.0151217
839.741	0.0152291
839.819	0.0152243
839.897	0.0149895
839.975	0.0152189
840.053	0.0151565
840.131	0.0151955
840.209	0.0150657
840.288	0.0151040
840.366	0.0151888
840.444	0.0150604
840.522	0.0150165
840.600	0.0151003
840.678	0.0151137
840.756	0.0149963
840.834	0.0150257
840.913	0.0149053
840.991	0.0149735
841.069	0.0150257
841.147	0.0151067
841.225	0.0149467
841.303	0.0150352
841.381	0.0150632
841.459	0.0149620
841.538	0.0149570
841.616	0.0151105
841.694	0.0150588
841.772	0.0151440
841.850	0.0150261
841.928	0.0150117
842.006	0.0150822
842.084	0.0150473
842.163	0.0150700
842.241	0.0151189
842.319	0.0151614
842.397	0.0150466
842.475	0.0151235
842.553	0.0151282
842.631	0.0152577
842.709	0.0149860
842.788	0.0150640
842.866	0.0152709
842.944	0.0150753
843.022	0.0151313
843.100	0.0150672
843.178	0.0150233
843.256	0.0152159
843.334	0.0151215
843.413	0.0150384
843.491	0.0151318
843.569	0.0151073
843.647	0.0150335
843.725	0.0151847
843.803	0.0151019
843.881	0.0152160
843.959	0.0151101
844.038	0.0152603
844.116	0.0152756
844.194	0.0152172
844.272	0.0151154
844.350	0.0152139
844.428	0.0151861
844.506	0.0152281
844.584	0.0150691
844.663	0.0151838
844.741	0.0150860
844.819	0.0150465
844.897	0.0151299
844.975	0.0150935
845.053	0.0151279
845.131	0.0151591
845.209	0.0150661
845.288	0.0151106
845.366	0.0150059
845.444	0.0150986
845.522	0.0149824
845.600	0.0150109
845.678	0.0149474
845.756	0.0150694
845.834	0.0151375
845.913	0.0150934
845.991	0.0150803
846.069	0.0151010
846.147	0.0151913
846.225	0.0152112
846.303	0.0150112
846.381	0.0151265
846.459	0.0152258
846.538	0.0151176
846.616	0.0152767
846.694	0.0152887
846.772	0.0151640
846.850	0.0152500
846.928	0.0153403
847.006	0.0152020
847.084	0.0151263
847.163	0.0152515
847.241	0.0151669
847.319	0.0154169
847.397	0.0153367
847.475	0.0152230
847.553	0.0152173
847.631	0.0150807
847.709	0.0151547
847.788	0.0152132
847.866	0.0151884
847.944	0.0151868
848.022	0.0152785
848.100	0.0150718
848.178	0.0150458
848.256	0.0151700
848.334	0.0152071
848.413	0.0151938
848.491	0.0151075
848.569	0.0151138
848.647	0.0150040
848.725	0.0151295
848.803	0.0151642
848.881	0.0151944
848.959	0.0151254
849.038	0.0152003
849.116	0.0150482
849.194	0.0151777
849.272	0.0152238
849.350	0.0151663
849.428	0.0152439
849.506	0.0152966
849.584	0.0153194
849.663	0.0152076
849.741	0.0152077
849.819	0.0153343
849.897	0.0153409
849.975	0.0153152
850.053	0.0154787
850.131	0.0153194
850.209	0.0152856
850.288	0.0152879
850.366	0.0153443
850.444	0.0152938
850.522	0.0151923
850.600	0.0153128
850.678	0.0151154
850.756	0.0152578
850.834	0.0152839
850.913	0.0152766
850.991	0.0154245
851.069	0.0151917
851.147	0.0153258
851.225	0.0153081
851.303	0.0151571
851.381	0.0152149
851.459	0.0152218
851.538	0.0151454
851.616	0.0151245
851.694	0.0150948
851.772	0.0151279
851.850	0.0151609
851.928	0.0150696
852.006	0.0149278
852.084	0.0150754
852.163	0.0150127
852.241	0.0149989
852.319	0.0149614
852.397	0.0149751
852.475	0.0150283
852.553	0.0149214
852.631	0.0149902
852.709	0.0151019
852.788	0.0150966
852.866	0.0150974
852.944	0.0150557
853.022	0.0151403
853.100	0.0151503
853.178	0.0151328
853.256	0.0152261
853.334	0.0152525
853.413	0.0151485
853.491	0.0150491
853.569	0.0152795
853.647	0.0152811
853.725	0.0150736
853.803	0.0151984
853.881	0.0153130
853.959	0.0153212
854.038	0.0152945
854.116	0.0151048
854.194	0.0151994
854.272	0.0151756
854.350	0.0152037
854.428	0.0151419
854.506	0.0152090
854.584	0.0151340
854.663	0.0152747
854.741	0.0151918
854.819	0.0152238
854.897	0.0151521
854.975	0.0153081
855.053	0.0153724
855.131	0.0151598
855.209	0.0151665
855.288	0.0153173
855.366	0.0153258
855.444	0.0151979
855.522	0.0151012
855.600	0.0152096
855.678	0.0151709
855.756	0.0152070
855.834	0.0152946
855.913	0.0153539
855.991	0.0152435
856.069	0.0152028
856.147	0.0151662
856.225	0.0153849
856.303	0.0153564
856.381	0.0152962
856.459	0.0152277
856.538	0.0153773
856.616	0.0153615
856.694	0.0152994
856.772	0.0153687
856.850	0.0152553
856.928	0.0154208
857.006	0.0153033
857.084	0.0152501
857.163	0.0153574
857.241	0.0154416
857.319	0.0151908
857.397	0.0152001
857.475	0.0152618
857.553	0.0152023
857.631	0.0152959
857.709	0.0151888
857.788	0.0151843
857.866	0.0152031
857.944	0.0151994
858.022	0.0150874
858.100	0.0150319
858.178	0.0150597
858.256	0.0151547
858.334	0.0151591
858.413	0.0151046
858.491	0.0151629
858.569	0.0150846
858.647	0.0150497
858.725	0.0150497
858.803	0.0150522
858.881	0.0151376
858.959	0.0150272
859.038	0.0150304
859.116	0.0149915
859.194	0.0151273
859.272	0.0152142
859.350	0.0151535
859.428	0.0150928
859.506	0.0151191
859.584	0.0151471
859.663	0.0150626
859.741	0.0151260
859.819	0.0151986
859.897	0.0151165
859.975	0.0151496
860.053	0.0152036
860.131	0.0151446
860.209	0.0150758
860.288	0.0150411
860.366	0.0151633
860.444	0.0152282
860.522	0.0151285
860.600	0.0150986
860.678	0.0150753
860.756	0.0151072
860.834	0.0152040
860.913	0.0153233
860.991	0.0151357
861.069	0.0149794
861.147	0.0151189
861.225	0.0151100
861.303	0.0151881
861.381	0.0150670
861.459	0.0151053
861.538	0.0151031
861.616	0.0151221
861.694	0.0150396
861.772	0.0149973
861.850	0.0152531
861.928	0.0150758
862.006	0.0150599
862.084	0.0151421
862.163	0.0151350
862.241	0.0152061
862.319	0.0150772
862.397	0.0150608
862.475	0.0152856
862.553	0.0151286
862.631	0.0151752
862.709	0.0150944
862.788	0.0151469
862.866	0.0151171
862.944	0.0151663
863.022	0.0151578
863.100	0.0151591
863.178	0.0151092
863.256	0.0152814
863.334	0.0151784
863.413	0.0151753
863.491	0.0152004
863.569	0.0152555
863.647	0.0151151
863.725	0.0151234
863.803	0.0150134
863.881	0.0151768
863.959	0.0152399
864.038	0.0151254
864.116	0.0150996
864.194	0.0152721
864.272	0.0152593
864.350	0.0151051
864.428	0.0151561
864.506	0.0152668
864.584	0.0151994
864.663	0.0152946
864.741	0.0154673
864.819	0.0154715
864.897	0.0153354
864.975	0.0152163
865.053	0.0154092
865.131	0.0155357
865.209	0.0154175
865.288	0.0153280
865.366	0.0155457
865.444	0.0155379
865.522	0.0153669
865.600	0.0154113
865.678	0.0154277
865.756	0.0153983
865.834	0.0153264
865.913	0.0153311
865.991	0.0153204
866.069	0.0154626
866.147	0.0153302
866.225	0.0153689
866.303	0.0152753
866.381	0.0152126
866.459	0.0151180
866.538	0.0152063
866.616	0.0152534
866.694	0.0151083
866.772	0.0149791
866.850	0.0150828
866.928	0.0151349
867.006	0.0149683
867.084	0.0151274
867.163	0.0151072
867.241	0.0150652
867.319	0.0148652
867.397	0.0150230
867.475	0.0151286
867.553	0.0149468
867.631	0.0149119
867.709	0.0149284
867.788	0.0150983
867.866	0.0150419
867.944	0.0151910
868.022	0.0151437
868.100	0.0151253
868.178	0.0149855
868.256	0.0152370
868.334	0.0152921
868.413	0.0152540
868.491	0.0152050
868.569	0.0152084
868.647	0.0152888
868.725	0.0153431
868.803	0.0152698
868.881	0.0153628
868.959	0.0153004
869.038	0.0152323
869.116	0.0153278
869.194	0.0152131
869.272	0.0153549
869.350	0.0151585
869.428	0.0151341
869.506	0.0151759
869.584	0.0151015
869.663	0.0151003
869.741	0.0150635
869.819	0.0151961
869.897	0.0151244
869.975	0.0150314
870.053	0.0148743
870.131	0.0150420
870.209	0.0150778
870.288	0.0150377
870.366	0.0149396
870.444	0.0149766
870.522	0.0148734
870.600	0.0150207
870.678	0.0149129
870.756	0.0149248
870.834	0.0150304
870.913	0.0150842
870.991	0.0151469
871.069	0.0150103
871.147	0.0149351
871.225	0.0150923
871.303	0.0151656
871.381	0.0153000
871.459	0.0152961
871.538	0.0151894
871.616	0.0153159
871.694	0.0153938
871.772	0.0152933
871.850	0.0153007
871.928	0.0154877
872.006	0.0154798
872.084	0.0154241
872.163	0.0154897
872.241	0.0153505
872.319	0.0153679
872.397	0.0154790
872.475	0.0154644
872.553	0.0154150
872.631	0.0154121
872.709	0.0153924
872.788	0.0153111
872.866	0.0154673
872.944	0.0154000
873.022	0.0152753
873.100	0.0153327
873.178	0.0153254
873.256	0.0152441
873.334	0.0152351
873.413	0.0153754
873.491	0.0152127
873.569	0.0152937
873.647	0.0153245
873.725	0.0153307
873.803	0.0154036
873.881	0.0152438
873.959	0.0151776
874.038	0.0151357
874.116	0.0152230
874.194	0.0153928
874.272	0.0151634
874.350	0.0152174
874.428	0.0151462
874.506	0.0153220
874.584	0.0151824
874.663	0.0150838
874.741	0.0150573
874.819	0.0151994
874.897	0.0152052
874.975	0.0151703
875.053	0.0151318
875.131	0.0151754
875.209	0.0151716
875.288	0.0152052
875.366	0.0152001
875.444	0.0151806
875.522	0.0150681
875.600	0.0152375
875.678	0.0152187
875.756	0.0150867
875.834	0.0150352
875.913	0.0152671
875.991	0.0151489
876.069	0.0150103
876.147	0.0150597
876.225	0.0151810
876.303	0.0151479
876.381	0.0148779
876.459	0.0152474
876.538	0.0152771
876.616	0.0150832
876.694	0.0151461
876.772	0.0151268
876.850	0.0151752
876.928	0.0150658
877.006	0.0150159
877.084	0.0149252
877.163	0.0148941
877.241	0.0150107
877.319	0.0149305
877.397	0.0150455
877.475	0.0150969
877.553	0.0150836
877.631	0.0149337
877.709	0.0149174
877.788	0.0150686
877.866	0.0150540
877.944	0.0150169
878.022	0.0150925
878.100	0.0150654
878.178	0.0150549
878.256	0.0151298
878.334	0.0151170
878.413	0.0151818
878.491	0.0150893
878.569	0.0152752
878.647	0.0152317
878.725	0.0153809
878.803	0.0152095
878.881	0.0151826
878.959	0.0152615
879.038	0.0153391
879.116	0.0153208
879.194	0.0151514
879.272	0.0152350
879.350	0.0152158
879.428	0.0153184
879.506	0.0153026
879.584	0.0152867
879.663	0.0155099
879.741	0.0152897
879.819	0.0152220
879.897	0.0152524
879.975	0.0153525
880.053	0.0153409
880.131	0.0151916
880.209	0.0151274
880.288	0.0153078
880.366	0.0152240
880.444	0.0151321
880.522	0.0152118
880.600	0.0150895
880.678	0.0150382
880.756	0.0152014
880.834	0.0151867
880.913	0.0150874
880.991	0.0151363
881.069	0.0151650
881.147	0.0150242
881.225	0.0151717
881.303	0.0149834
881.381	0.0150414
881.459	0.0149940
881.538	0.0151456
881.616	0.0152325
881.694	0.0150922
881.772	0.0149826
881.850	0.0151165
881.928	0.0151306
882.006	0.0149799
882.084	0.0150186
882.163	0.0150301
882.241	0.0150879
882.319	0.0150340
882.397	0.0150423
882.475	0.0150964
882.553	0.0152122
882.631	0.0151747
882.709	0.0151058
882.788	0.0150626
882.866	0.0149242
882.944	0.0150095
883.022	0.0150641
883.100	0.0151160
883.178	0.0150561
883.256	0.0151524
883.334	0.0150514
883.413	0.0149982
883.491	0.0151955
883.569	0.0151099
883.647	0.0151688
883.725	0.0151964
883.803	0.0152994
883.881	0.0150934
883.959	0.0152159
884.038	0.0152007
884.116	0.0152529
884.194	0.0152751
884.272	0.0152512
884.350	0.0151476
884.428	0.0153188
884.506	0.0152518
884.584	0.0152402
884.663	0.0152198
884.741	0.0153311
884.819	0.0151668
884.897	0.0151271
884.975	0.0152545
885.053	0.0153266
885.131	0.0150987
885.209	0.0151785
885.288	0.0151948
885.366	0.0152469
885.444	0.0152212
885.522	0.0150700
885.600	0.0150933
885.678	0.0152278
885.756	0.0151592
885.834	0.0151549
885.913	0.0151096
885.991	0.0151327
886.069	0.0151256
886.147	0.0151523
886.225	0.0151608
886.303	0.0151154
886.381	0.0151743
886.459	0.0151371
886.538	0.0152119
886.616	0.0152313
886.694	0.0152802
886.772	0.0152737
886.850	0.0153026
886.928	0.0152784
887.006	0.0153651
887.084	0.0154033
887.163	0.0153362
887.241	0.0152948
887.319	0.0152744
887.397	0.0153387
887.475	0.0153879
887.553	0.0152868
887.631	0.0153226
887.709	0.0153191
887.788	0.0154785
887.866	0.0152091
887.944	0.0151732
888.022	0.0152395
888.100	0.0152927
888.178	0.0153193
888.256	0.0153312
888.334	0.0152425
888.413	0.0152052
888.491	0.0149441
888.569	0.0150673
888.647	0.0151388
888.725	0.0149860
888.803	0.0150697
888.881	0.0151321
888.959	0.0150791
889.038	0.0150924
889.116	0.0149975
889.194	0.0149336
889.272	0.0150224
889.350	0.0151171
889.428	0.0151698
889.506	0.0151791
889.584	0.0152051
889.663	0.0151945
889.741	0.0150949
889.819	0.0151227
889.897	0.0151112
889.975	0.0152013
890.053	0.0151575
890.131	0.0152144
890.209	0.0153252
890.288	0.0151732
890.366	0.0151775
890.444	0.0150881
890.522	0.0151695
890.600	0.0151646
890.678	0.0151518
890.756	0.0151392
890.834	0.0150815
890.913	0.0151006
890.991	0.0151489
891.069	0.0151891
891.147	0.0152085
891.225	0.0152225
891.303	0.0150637
891.381	0.0150703
891.459	0.0151871
891.538	0.0150993
891.616	0.0151229
891.694	0.0150315
891.772	0.0151884
891.850	0.0152308
891.928	0.0151152
892.006	0.0152665
892.084	0.0154325
892.163	0.0152499
892.241	0.0151996
892.319	0.0152546
892.397	0.0153043
892.475	0.0153200
892.553	0.0153150
892.631	0.0153687
892.709	0.0152589
892.788	0.0151952
892.866	0.0153030
892.944	0.0152698
893.022	0.0151870
893.100	0.0152808
893.178	0.0151506
893.256	0.0153983
893.334	0.0152249
893.413	0.0152580
893.491	0.0153078
893.569	0.0153662
893.647	0.0152691
893.725	0.0152354
893.803	0.0151067
893.881	0.0151015
893.959	0.0154232
894.038	0.0153332
894.116	0.0151593
894.194	0.0150430
894.272	0.0151491
894.350	0.0151553
894.428	0.0151689
894.506	0.0152856
894.584	0.0152319
894.663	0.0152293
894.741	0.0150609
894.819	0.0151894
894.897	0.0153886
894.975	0.0152681
895.053	0.0152767
895.131	0.0153619
895.209	0.0151961
895.288	0.0151991
895.366	0.0152708
895.444	0.0155301
895.522	0.0154179
895.600	0.0152991
895.678	0.0153533
895.756	0.0151477
895.834	0.0154806
895.913	0.0153575
895.991	0.0152814
896.069	0.0152259
896.147	0.0151529
896.225	0.0153500
896.303	0.0152283
896.381	0.0151081
896.459	0.0150474
896.538	0.0150341
896.616	0.0151343
896.694	0.0149553
896.772	0.0151988
896.850	0.0151084
896.928	0.0150996
897.006	0.0150026
897.084	0.0150164
897.163	0.0149642
897.241	0.0149802
897.319	0.0149676
897.397	0.0149378
897.475	0.0149834
897.553	0.0150769
897.631	0.0151997
897.709	0.0151076
897.788	0.0151223
897.866	0.0152250
897.944	0.0150811
898.022	0.0152034
898.100	0.0150352
898.178	0.0151964
898.256	0.0152840
898.334	0.0153358
898.413	0.0153384
898.491	0.0154220
898.569	0.0152969
898.647	0.0152242
898.725	0.0152827
898.803	0.0153327
898.881	0.0153971
898.959	0.0152975
899.038	0.0153001
899.116	0.0153011
899.194	0.0153407
899.272	0.0152917
899.350	0.0152747
899.428	0.0152069
899.506	0.0151164
899.584	0.0153359
899.663	0.0151028
899.741	0.0150559
899.819	0.0150635
899.897	0.0151456
899.975	0.0151190
900.053	0.0151398
900.131	0.0151460
900.209	0.0151465
900.288	0.0151308
900.366	0.0151640
900.444	0.0151380
900.522	0.0151534
900.600	0.0152126
900.678	0.0151280
900.756	0.0151530
900.834	0.0150877
900.913	0.0150217
900.991	0.0151302
901.069	0.0150404
901.147	0.0150857
901.225	0.0150633
901.303	0.0151249
901.381	0.0150663
901.459	0.0151907
901.538	0.0151694
901.616	0.0151469
901.694	0.0150522
901.772	0.0150910
901.850	0.0149251
901.928	0.0149203
902.006	0.0149770
902.084	0.0150210
902.163	0.0148822
902.241	0.0149885
902.319	0.0149869
902.397	0.0151243
902.475	0.0151329
902.553	0.0149112
902.631	0.0150851
902.709	0.0150723
902.788	0.0149808
902.866	0.0151199
902.944	0.0150214
903.022	0.0151524
903.100	0.0151187
903.178	0.0151619
903.256	0.0151945
903.334	0.0150707
903.413	0.0150939
903.491	0.0152465
903.569	0.0153099
903.647	0.0152824
903.725	0.0150837
903.803	0.0150749
903.881	0.0151013
903.959	0.0151895
904.038	0.0151574
904.116	0.0151403
904.194	0.0152089
904.272	0.0151555
904.350	0.0150995
904.428	0.0151256
904.506	0.0150750
904.584	0.0151369
904.663	0.0151606
904.741	0.0152244
904.819	0.0151770
904.897	0.0151380
904.975	0.0152115
905.053	0.0150350
905.131	0.0150781
905.209	0.0151460
905.288	0.0152209
905.366	0.0151021
905.444	0.0151961
905.522	0.0150591
905.600	0.0151546
905.678	0.0153929
905.756	0.0153422
905.834	0.0152133
905.913	0.0150126
905.991	0.0150980
906.069	0.0151850
906.147	0.0152206
906.225	0.0151609
906.303	0.0152457
906.381	0.0151893
906.459	0.0151783
906.538	0.0151649
906.616	0.0151141
906.694	0.0150723
906.772	0.0151027
906.850	0.0151308
906.928	0.0149857
907.006	0.0149014
907.084	0.0148439
907.163	0.0149365
907.241	0.0149707
907.319	0.0149092
907.397	0.0149542
907.475	0.0150623
907.553	0.0150857
907.631	0.0149960
907.709	0.0149536
907.788	0.0151517
907.866	0.0150346
907.944	0.0150397
908.022	0.0150774
908.100	0.0151857
908.178	0.0150599
908.256	0.0150883
908.334	0.0151173
908.413	0.0149384
908.491	0.0152134
908.569	0.0151850
908.647	0.0151312
908.725	0.0150450
908.803	0.0150835
908.881	0.0150942
908.959	0.0151764
909.038	0.0150678
909.116	0.0151517
909.194	0.0151341
909.272	0.0150565
909.350	0.0151346
909.428	0.0150871
909.506	0.0151385
909.584	0.0152072
909.663	0.0150948
909.741	0.0150886
909.819	0.0151656
909.897	0.0151639
909.975	0.0150309
910.053	0.0151625
910.131	0.0149837
910.209	0.0150072
910.288	0.0150702
910.366	0.0150558
910.444	0.0150114
910.522	0.0150028
910.600	0.0150527
910.678	0.0150502
910.756	0.0149557
910.834	0.0151720
910.913	0.0150505
910.991	0.0150581
911.069	0.0150230
911.147	0.0150974
911.225	0.0150829
911.303	0.0150806
911.381	0.0151527
911.459	0.0151804
911.538	0.0152371
911.616	0.0151968
911.694	0.0150942
911.772	0.0152646
911.850	0.0152984
911.928	0.0151493
912.006	0.0151685
912.084	0.0152821
912.163	0.0153790
912.241	0.0153460
912.319	0.0151805
912.397	0.0153510
912.475	0.0154180
912.553	0.0152982
912.631	0.0152652
912.709	0.0153747
912.788	0.0152900
912.866	0.0153536
912.944	0.0153484
913.022	0.0154283
913.100	0.0153732
913.178	0.0153246
913.256	0.0153141
913.334	0.0152960
913.413	0.0153338
913.491	0.0153641
913.569	0.0153222
913.647	0.0153832
913.725	0.0154156
913.803	0.0153872
913.881	0.0153376
913.959	0.0152045
914.038	0.0153336
914.116	0.0151180
914.194	0.0152833
914.272	0.0154089
914.350	0.0152638
914.428	0.0153171
914.506	0.0152900
914.584	0.0151255
914.663	0.0150676
914.741	0.0150355
914.819	0.0151556
914.897	0.0149745
914.975	0.0151637
915.053	0.0149784
915.131	0.0148993
915.209	0.0151015
915.288	0.0150184
915.366	0.0149902
915.444	0.0149466
915.522	0.0149136
915.600	0.0149931
915.678	0.0149556
915.756	0.0149683
915.834	0.0149793
915.913	0.0148866
915.991	0.0149519
916.069	0.0150166
916.147	0.0149402
916.225	0.0150549
916.303	0.0150686
916.381	0.0151228
916.459	0.0150824
916.538	0.0151789
916.616	0.0150763
916.694	0.0151085
916.772	0.0150484
916.850	0.0151036
916.928	0.0151498
917.006	0.0151522
917.084	0.0150893
917.163	0.0151815
917.241	0.0151510
917.319	0.0151814
917.397	0.0151116
917.475	0.0152420
917.553	0.0151283
917.631	0.0151507
917.709	0.0151038
917.788	0.0151688
917.866	0.0150999
917.944	0.0150856
918.022	0.0151380
918.100	0.0149610
918.178	0.0152155
918.256	0.0153145
918.334	0.0151425
918.413	0.0151723
918.491	0.0151854
918.569	0.0151952
918.647	0.0151076
918.725	0.0152106
918.803	0.0151297
918.881	0.0152987
918.959	0.0151727
919.038	0.0151935
919.116	0.0152181
919.194	0.0152563
919.272	0.0151989
919.350	0.0152164
919.428	0.0151424
919.506	0.0151550
919.584	0.0151041
919.663	0.0152457
919.741	0.0151685
919.819	0.0151546
919.897	0.0150729
