05/20/2022	21:27:54	Ver.	4.1	UNKNOWN
Optical Delay	599.975067	Delta X		0.078125	Sweeps	1	Scan Rate	0/0
Coordinates	Axis 1	NaN	Axis 2	NaN	Axis 3	NaN	Axis 4	NaN	Axis 5	NaN	Axis 6	0.000000
TX Power	0.000000	RX Power	0.000000

599.975	0.0155843
600.053	0.0155132
600.131	0.0156387
600.209	0.0157487
600.288	0.0156411
600.366	0.0156040
600.444	0.0156523
600.522	0.0156344
600.600	0.0156250
600.678	0.0154155
600.756	0.0155149
600.834	0.0156731
600.913	0.0156013
600.991	0.0155357
601.069	0.0155108
601.147	0.0155159
601.225	0.0156828
601.303	0.0156631
601.381	0.0158070
601.459	0.0155858
601.538	0.0156574
601.616	0.0155791
601.694	0.0155866
601.772	0.0156212
601.850	0.0156432
601.928	0.0156870
602.006	0.0156084
602.084	0.0156891
602.163	0.0154774
602.241	0.0156116
602.319	0.0155306
602.397	0.0157123
602.475	0.0155708
602.553	0.0155639
602.631	0.0154979
602.709	0.0156364
602.788	0.0155318
602.866	0.0155624
602.944	0.0155671
603.022	0.0155558
603.100	0.0155907
603.178	0.0156196
603.256	0.0156326
603.334	0.0157279
603.413	0.0155549
603.491	0.0155618
603.569	0.0155777
603.647	0.0155558
603.725	0.0155453
603.803	0.0156687
603.881	0.0156031
603.959	0.0156728
604.038	0.0154969
604.116	0.0153985
604.194	0.0156482
604.272	0.0155712
604.350	0.0155439
604.428	0.0155773
604.506	0.0155603
604.584	0.0156185
604.663	0.0157195
604.741	0.0157196
604.819	0.0154149
604.897	0.0157460
604.975	0.0155355
605.053	0.0155240
605.131	0.0156084
605.209	0.0156023
605.288	0.0156935
605.366	0.0157333
605.444	0.0156888
605.522	0.0155225
605.600	0.0155988
605.678	0.0156770
605.756	0.0157140
605.834	0.0155767
605.913	0.0156561
605.991	0.0157539
606.069	0.0156442
606.147	0.0156622
606.225	0.0156348
606.303	0.0156944
606.381	0.0158350
606.459	0.0156731
606.538	0.0155545
606.616	0.0156805
606.694	0.0156249
606.772	0.0156986
606.850	0.0156621
606.928	0.0155513
607.006	0.0156457
607.084	0.0156390
607.163	0.0156746
607.241	0.0155463
607.319	0.0157447
607.397	0.0156969
607.475	0.0155666
607.553	0.0156539
607.631	0.0155903
607.709	0.0155524
607.788	0.0155874
607.866	0.0156672
607.944	0.0156236
608.022	0.0155540
608.100	0.0155717
608.178	0.0154632
608.256	0.0155459
608.334	0.0155336
608.413	0.0154924
608.491	0.0155513
608.569	0.0155688
608.647	0.0154148
608.725	0.0157058
608.803	0.0156023
608.881	0.0155251
608.959	0.0155424
609.038	0.0155279
609.116	0.0156009
609.194	0.0155051
609.272	0.0154401
609.350	0.0155933
609.428	0.0154691
609.506	0.0155779
609.584	0.0154875
609.663	0.0152651
609.741	0.0155305
609.819	0.0155566
609.897	0.0153568
609.975	0.0154115
610.053	0.0154486
610.131	0.0155827
610.209	0.0156170
610.288	0.0154343
610.366	0.0155639
610.444	0.0154800
610.522	0.0155041
610.600	0.0155122
610.678	0.0156240
610.756	0.0156326
610.834	0.0156194
610.913	0.0155225
610.991	0.0154914
611.069	0.0154329
611.147	0.0154678
611.225	0.0155661
611.303	0.0155912
611.381	0.0156217
611.459	0.0155887
611.538	0.0154661
611.616	0.0155071
611.694	0.0156404
611.772	0.0154892
611.850	0.0155087
611.928	0.0154385
612.006	0.0155371
612.084	0.0154013
612.163	0.0154314
612.241	0.0156797
612.319	0.0155991
612.397	0.0153050
612.475	0.0155212
612.553	0.0154925
612.631	0.0155273
612.709	0.0155401
612.788	0.0156774
612.866	0.0155446
612.944	0.0153577
613.022	0.0155233
613.100	0.0156654
613.178	0.0156293
613.256	0.0155069
613.334	0.0156247
613.413	0.0155768
613.491	0.0154844
613.569	0.0155264
613.647	0.0154916
613.725	0.0155043
613.803	0.0155034
613.881	0.0156123
613.959	0.0155434
614.038	0.0155124
614.116	0.0155283
614.194	0.0155357
614.272	0.0155765
614.350	0.0155084
614.428	0.0155354
614.506	0.0154734
614.584	0.0153347
614.663	0.0155549
614.741	0.0154489
614.819	0.0156084
614.897	0.0154900
614.975	0.0154610
615.053	0.0154678
615.131	0.0155656
615.209	0.0155386
615.288	0.0154842
615.366	0.0154320
615.444	0.0155433
615.522	0.0155411
615.600	0.0155131
615.678	0.0154414
615.756	0.0155826
615.834	0.0156207
615.913	0.0155381
615.991	0.0156399
616.069	0.0155704
616.147	0.0155807
616.225	0.0157539
616.303	0.0156335
616.381	0.0155271
616.459	0.0154792
616.538	0.0155476
616.616	0.0154776
616.694	0.0154178
616.772	0.0155382
616.850	0.0155431
616.928	0.0155301
617.006	0.0155603
617.084	0.0154882
617.163	0.0155763
617.241	0.0155396
617.319	0.0153857
617.397	0.0153492
617.475	0.0155561
617.553	0.0154579
617.631	0.0155755
617.709	0.0156527
617.788	0.0155135
617.866	0.0154149
617.944	0.0155206
618.022	0.0154612
618.100	0.0154070
618.178	0.0155592
618.256	0.0155271
618.334	0.0154959
618.413	0.0155354
618.491	0.0155093
618.569	0.0155307
618.647	0.0155666
618.725	0.0155991
618.803	0.0154594
618.881	0.0155770
618.959	0.0154224
619.038	0.0156346
619.116	0.0156863
619.194	0.0155311
619.272	0.0154462
619.350	0.0156007
619.428	0.0154427
619.506	0.0154623
619.584	0.0154548
619.663	0.0153432
619.741	0.0155730
619.819	0.0154416
619.897	0.0155315
619.975	0.0155682
620.053	0.0156707
620.131	0.0155046
620.209	0.0155697
620.288	0.0155631
620.366	0.0154765
620.444	0.0156129
620.522	0.0155613
620.600	0.0154890
620.678	0.0155620
620.756	0.0155564
620.834	0.0154862
620.913	0.0155754
620.991	0.0157055
621.069	0.0155085
621.147	0.0154307
621.225	0.0155095
621.303	0.0155869
621.381	0.0156187
621.459	0.0155633
621.538	0.0155350
621.616	0.0154528
621.694	0.0155325
621.772	0.0156175
621.850	0.0155775
621.928	0.0156015
622.006	0.0156517
622.084	0.0155932
622.163	0.0155138
622.241	0.0156020
622.319	0.0155193
622.397	0.0156239
622.475	0.0155815
622.553	0.0154878
622.631	0.0155874
622.709	0.0156152
622.788	0.0155844
622.866	0.0155782
622.944	0.0155356
623.022	0.0156512
623.100	0.0156034
623.178	0.0156924
623.256	0.0155346
623.334	0.0155759
623.413	0.0156950
623.491	0.0155092
623.569	0.0154684
623.647	0.0155255
623.725	0.0154674
623.803	0.0155804
623.881	0.0154987
623.959	0.0155237
624.038	0.0155623
624.116	0.0154096
624.194	0.0154647
624.272	0.0155665
624.350	0.0155785
624.428	0.0154668
624.506	0.0154696
624.584	0.0154783
624.663	0.0156576
624.741	0.0155852
624.819	0.0157267
624.897	0.0154607
624.975	0.0156101
625.053	0.0156668
625.131	0.0155906
625.209	0.0155706
625.288	0.0155614
625.366	0.0155602
625.444	0.0156431
625.522	0.0155797
625.600	0.0155300
625.678	0.0154646
625.756	0.0155874
625.834	0.0156779
625.913	0.0156424
625.991	0.0154755
626.069	0.0155906
626.147	0.0156605
626.225	0.0155891
626.303	0.0156249
626.381	0.0155074
626.459	0.0156535
626.538	0.0156396
626.616	0.0156993
626.694	0.0155933
626.772	0.0155482
626.850	0.0157420
626.928	0.0157150
627.006	0.0156624
627.084	0.0156975
627.163	0.0157635
627.241	0.0156070
627.319	0.0156125
627.397	0.0155806
627.475	0.0157177
627.553	0.0155697
627.631	0.0155599
627.709	0.0155959
627.788	0.0156786
627.866	0.0157129
627.944	0.0155484
628.022	0.0154555
628.100	0.0154996
628.178	0.0156379
628.256	0.0156683
628.334	0.0155651
628.413	0.0155636
628.491	0.0156108
628.569	0.0156384
628.647	0.0155579
628.725	0.0155589
628.803	0.0155733
628.881	0.0157172
628.959	0.0155785
629.038	0.0155349
629.116	0.0155335
629.194	0.0155870
629.272	0.0155743
629.350	0.0156438
629.428	0.0156371
629.506	0.0156248
629.584	0.0156225
629.663	0.0156051
629.741	0.0155666
629.819	0.0155905
629.897	0.0155128
629.975	0.0155654
630.053	0.0154985
630.131	0.0156104
630.209	0.0155234
630.288	0.0155412
630.366	0.0156074
630.444	0.0157073
630.522	0.0155162
630.600	0.0155786
630.678	0.0156422
630.756	0.0156163
630.834	0.0156161
630.913	0.0155479
630.991	0.0155698
631.069	0.0155936
631.147	0.0155803
631.225	0.0157108
631.303	0.0154424
631.381	0.0155910
631.459	0.0155270
631.538	0.0156127
631.616	0.0156602
631.694	0.0156546
631.772	0.0156540
631.850	0.0157073
631.928	0.0154915
632.006	0.0157526
632.084	0.0157285
632.163	0.0154969
632.241	0.0155840
632.319	0.0157466
632.397	0.0156171
632.475	0.0155271
632.553	0.0155273
632.631	0.0156531
632.709	0.0157023
632.788	0.0156355
632.866	0.0156203
632.944	0.0156586
633.022	0.0156285
633.100	0.0156124
633.178	0.0157302
633.256	0.0156009
633.334	0.0155694
633.413	0.0155370
633.491	0.0156027
633.569	0.0157024
633.647	0.0157436
633.725	0.0158186
633.803	0.0157043
633.881	0.0155900
633.959	0.0157048
634.038	0.0155930
634.116	0.0156486
634.194	0.0155235
634.272	0.0156287
634.350	0.0157040
634.428	0.0156853
634.506	0.0157198
634.584	0.0157718
634.663	0.0156483
634.741	0.0156445
634.819	0.0157709
634.897	0.0157217
634.975	0.0156588
635.053	0.0155326
635.131	0.0155580
635.209	0.0155511
635.288	0.0156339
635.366	0.0156436
635.444	0.0156468
635.522	0.0155455
635.600	0.0155386
635.678	0.0155450
635.756	0.0154765
635.834	0.0155762
635.913	0.0156063
635.991	0.0155669
636.069	0.0156986
636.147	0.0155766
636.225	0.0156525
636.303	0.0156854
636.381	0.0156417
636.459	0.0155833
636.538	0.0155490
636.616	0.0156065
636.694	0.0155778
636.772	0.0155199
636.850	0.0156276
636.928	0.0156841
637.006	0.0156355
637.084	0.0156374
637.163	0.0156135
637.241	0.0154680
637.319	0.0155421
637.397	0.0156746
637.475	0.0155864
637.553	0.0154245
637.631	0.0155876
637.709	0.0154851
637.788	0.0156075
637.866	0.0156509
637.944	0.0155304
638.022	0.0156057
638.100	0.0153734
638.178	0.0155041
638.256	0.0154843
638.334	0.0156075
638.413	0.0155475
638.491	0.0157159
638.569	0.0155176
638.647	0.0155646
638.725	0.0155884
638.803	0.0155564
638.881	0.0155070
638.959	0.0155823
639.038	0.0156072
639.116	0.0156856
639.194	0.0157232
639.272	0.0155196
639.350	0.0154492
639.428	0.0155646
639.506	0.0156630
639.584	0.0156411
639.663	0.0156631
639.741	0.0155444
639.819	0.0155657
639.897	0.0155280
639.975	0.0156962
640.053	0.0155823
640.131	0.0155990
640.209	0.0157367
640.288	0.0157005
640.366	0.0156199
640.444	0.0156583
640.522	0.0155019
640.600	0.0156429
640.678	0.0156070
640.756	0.0154856
640.834	0.0155196
640.913	0.0156870
640.991	0.0155569
641.069	0.0156225
641.147	0.0155582
641.225	0.0154388
641.303	0.0154920
641.381	0.0156017
641.459	0.0156949
641.538	0.0155677
641.616	0.0156366
641.694	0.0156602
641.772	0.0157672
641.850	0.0156045
641.928	0.0155475
642.006	0.0155668
642.084	0.0156516
642.163	0.0155405
642.241	0.0154944
642.319	0.0155659
642.397	0.0155374
642.475	0.0156962
642.553	0.0156350
642.631	0.0156633
642.709	0.0155074
642.788	0.0155461
642.866	0.0154326
642.944	0.0155587
643.022	0.0154446
643.100	0.0156263
643.178	0.0157291
643.256	0.0156000
643.334	0.0155524
643.413	0.0155249
643.491	0.0156020
643.569	0.0155596
643.647	0.0155950
643.725	0.0155518
643.803	0.0155615
643.881	0.0157735
643.959	0.0155800
644.038	0.0155058
644.116	0.0155532
644.194	0.0155020
644.272	0.0155796
644.350	0.0156586
644.428	0.0156606
644.506	0.0154761
644.584	0.0155701
644.663	0.0154670
644.741	0.0155373
644.819	0.0155373
644.897	0.0156023
644.975	0.0154536
645.053	0.0155723
645.131	0.0154054
645.209	0.0154162
645.288	0.0155087
645.366	0.0154831
645.444	0.0154687
645.522	0.0154196
645.600	0.0154765
645.678	0.0154718
645.756	0.0152796
645.834	0.0155141
645.913	0.0155160
645.991	0.0153036
646.069	0.0154514
646.147	0.0154388
646.225	0.0153886
646.303	0.0153747
646.381	0.0153679
646.459	0.0154846
646.538	0.0155527
646.616	0.0154544
646.694	0.0155635
646.772	0.0156129
646.850	0.0153769
646.928	0.0154042
647.006	0.0153781
647.084	0.0154585
647.163	0.0155743
647.241	0.0155619
647.319	0.0153522
647.397	0.0156307
647.475	0.0155582
647.553	0.0155145
647.631	0.0154676
647.709	0.0155324
647.788	0.0155137
647.866	0.0155807
647.944	0.0156953
648.022	0.0156429
648.100	0.0155224
648.178	0.0155485
648.256	0.0155247
648.334	0.0157300
648.413	0.0156423
648.491	0.0156818
648.569	0.0156040
648.647	0.0158071
648.725	0.0155796
648.803	0.0156686
648.881	0.0157716
648.959	0.0155972
649.038	0.0156794
649.116	0.0157323
649.194	0.0158224
649.272	0.0156664
649.350	0.0155692
649.428	0.0156956
649.506	0.0156210
649.584	0.0157064
649.663	0.0156777
649.741	0.0157042
649.819	0.0156672
649.897	0.0156519
649.975	0.0155538
650.053	0.0155753
650.131	0.0157265
650.209	0.0156399
650.288	0.0155454
650.366	0.0157309
650.444	0.0156561
650.522	0.0155851
650.600	0.0156423
650.678	0.0156705
650.756	0.0157762
650.834	0.0155962
650.913	0.0157371
650.991	0.0157777
651.069	0.0155795
651.147	0.0155762
651.225	0.0156077
651.303	0.0156947
651.381	0.0157486
651.459	0.0158382
651.538	0.0155785
651.616	0.0157562
651.694	0.0157105
651.772	0.0156967
651.850	0.0157828
651.928	0.0156470
652.006	0.0155537
652.084	0.0156436
652.163	0.0157863
652.241	0.0155547
652.319	0.0154738
652.397	0.0156980
652.475	0.0155824
652.553	0.0154987
652.631	0.0156409
652.709	0.0155094
652.788	0.0154631
652.866	0.0155217
652.944	0.0155015
653.022	0.0154386
653.100	0.0155086
653.178	0.0154759
653.256	0.0153503
653.334	0.0155688
653.413	0.0154539
653.491	0.0155711
653.569	0.0155388
653.647	0.0156406
653.725	0.0155903
653.803	0.0155255
653.881	0.0156622
653.959	0.0156738
654.038	0.0158041
654.116	0.0156940
654.194	0.0156040
654.272	0.0156249
654.350	0.0157054
654.428	0.0155077
654.506	0.0155471
654.584	0.0154689
654.663	0.0153777
654.741	0.0155682
654.819	0.0156046
654.897	0.0155399
654.975	0.0154358
655.053	0.0156564
655.131	0.0156083
655.209	0.0155657
655.288	0.0155711
655.366	0.0156541
655.444	0.0156724
655.522	0.0157317
655.600	0.0157874
655.678	0.0158917
655.756	0.0158409
655.834	0.0158746
655.913	0.0158949
655.991	0.0157909
656.069	0.0159005
656.147	0.0158716
656.225	0.0158061
656.303	0.0159280
656.381	0.0157814
656.459	0.0157098
656.538	0.0158046
656.616	0.0156378
656.694	0.0155804
656.772	0.0155882
656.850	0.0155828
656.928	0.0154776
657.006	0.0155732
657.084	0.0154204
657.163	0.0154121
657.241	0.0154678
657.319	0.0154303
657.397	0.0154406
657.475	0.0151816
657.553	0.0154109
657.631	0.0155822
657.709	0.0154807
657.788	0.0154998
657.866	0.0156570
657.944	0.0156945
658.022	0.0155898
658.100	0.0157755
658.178	0.0158487
658.256	0.0159444
658.334	0.0158380
658.413	0.0159325
658.491	0.0160914
658.569	0.0160205
658.647	0.0160525
658.725	0.0160033
658.803	0.0158680
658.881	0.0157898
658.959	0.0159322
659.038	0.0159464
659.116	0.0158698
659.194	0.0157011
659.272	0.0156145
659.350	0.0156373
659.428	0.0155592
659.506	0.0153562
659.584	0.0152177
659.663	0.0152440
659.741	0.0152132
659.819	0.0150229
659.897	0.0151328
659.975	0.0150964
660.053	0.0149703
660.131	0.0149348
660.209	0.0148872
660.288	0.0150044
660.366	0.0151280
660.444	0.0150168
660.522	0.0151149
660.600	0.0152957
660.678	0.0153802
660.756	0.0154657
660.834	0.0156033
660.913	0.0156815
660.991	0.0157477
661.069	0.0158546
661.147	0.0159560
661.225	0.0159964
661.303	0.0162615
661.381	0.0163847
661.459	0.0162500
661.538	0.0164333
661.616	0.0163633
661.694	0.0164095
661.772	0.0164116
661.850	0.0162542
661.928	0.0164347
662.006	0.0163289
662.084	0.0161043
662.163	0.0161482
662.241	0.0159799
662.319	0.0158657
662.397	0.0157471
662.475	0.0155553
662.553	0.0156206
662.631	0.0153792
662.709	0.0153576
662.788	0.0153361
662.866	0.0152175
662.944	0.0150669
663.022	0.0149966
663.100	0.0149782
663.178	0.0148983
663.256	0.0147727
663.334	0.0147370
663.413	0.0148135
663.491	0.0148602
663.569	0.0146578
663.647	0.0148804
663.725	0.0149601
663.803	0.0150581
663.881	0.0150428
663.959	0.0150944
664.038	0.0151228
664.116	0.0152982
664.194	0.0152160
664.272	0.0154243
664.350	0.0154681
664.428	0.0155354
664.506	0.0154901
664.584	0.0157055
664.663	0.0156987
664.741	0.0155448
664.819	0.0156917
664.897	0.0157320
664.975	0.0156390
665.053	0.0156777
665.131	0.0157520
665.209	0.0157052
665.288	0.0155318
665.366	0.0156650
665.444	0.0157689
665.522	0.0158387
665.600	0.0156766
665.678	0.0157589
665.756	0.0155975
665.834	0.0158067
665.913	0.0156669
665.991	0.0157885
666.069	0.0158760
666.147	0.0158652
666.225	0.0159133
666.303	0.0159344
666.381	0.0159214
666.459	0.0159358
666.538	0.0159169
666.616	0.0160396
666.694	0.0159873
666.772	0.0160235
666.850	0.0160038
666.928	0.0160365
667.006	0.0158715
667.084	0.0160406
667.163	0.0159296
667.241	0.0158464
667.319	0.0158009
667.397	0.0156676
667.475	0.0155969
667.553	0.0156631
667.631	0.0156294
667.709	0.0155356
667.788	0.0152847
667.866	0.0152716
667.944	0.0150475
668.022	0.0149651
668.100	0.0150348
668.178	0.0148634
668.256	0.0147919
668.334	0.0146681
668.413	0.0144793
668.491	0.0144354
668.569	0.0145902
668.647	0.0144244
668.725	0.0145834
668.803	0.0146493
668.881	0.0145066
668.959	0.0147194
669.038	0.0147873
669.116	0.0148463
669.194	0.0150601
669.272	0.0152187
669.350	0.0153335
669.428	0.0153455
669.506	0.0154970
669.584	0.0156503
669.663	0.0158744
669.741	0.0159914
669.819	0.0159817
669.897	0.0161247
669.975	0.0162263
670.053	0.0161712
670.131	0.0162057
670.209	0.0161980
670.288	0.0163938
670.366	0.0164876
670.444	0.0163651
670.522	0.0165337
670.600	0.0164693
670.678	0.0162241
670.756	0.0161761
670.834	0.0162666
670.913	0.0161427
670.991	0.0162137
671.069	0.0161101
671.147	0.0160819
671.225	0.0162632
671.303	0.0160583
671.381	0.0158933
671.459	0.0159441
671.538	0.0158492
671.616	0.0158292
671.694	0.0157590
671.772	0.0159571
671.850	0.0158719
671.928	0.0158231
672.006	0.0158967
672.084	0.0156476
672.163	0.0155914
672.241	0.0156110
672.319	0.0154344
672.397	0.0156307
672.475	0.0155637
672.553	0.0155182
672.631	0.0153571
672.709	0.0152422
672.788	0.0151745
672.866	0.0150863
672.944	0.0150937
673.022	0.0150158
673.100	0.0149205
673.178	0.0147970
673.256	0.0146484
673.334	0.0145852
673.413	0.0145274
673.491	0.0145661
673.569	0.0144524
673.647	0.0143405
673.725	0.0141434
673.803	0.0142658
673.881	0.0143077
673.959	0.0143181
674.038	0.0142290
674.116	0.0143918
674.194	0.0143237
674.272	0.0144151
674.350	0.0145432
674.428	0.0146212
674.506	0.0147980
674.584	0.0147122
674.663	0.0149541
674.741	0.0152055
674.819	0.0151553
674.897	0.0154073
674.975	0.0155655
675.053	0.0156877
675.131	0.0158880
675.209	0.0159772
675.288	0.0163468
675.366	0.0163878
675.444	0.0166816
675.522	0.0166674
675.600	0.0170021
675.678	0.0172362
675.756	0.0172511
675.834	0.0172972
675.913	0.0174471
675.991	0.0175800
676.069	0.0175735
676.147	0.0175722
676.225	0.0175697
676.303	0.0176355
676.381	0.0173528
676.459	0.0172279
676.538	0.0171583
676.616	0.0171819
676.694	0.0170576
676.772	0.0169253
676.850	0.0167347
676.928	0.0164170
677.006	0.0161972
677.084	0.0160658
677.163	0.0158434
677.241	0.0157018
677.319	0.0153574
677.397	0.0151137
677.475	0.0150836
677.553	0.0148251
677.631	0.0144824
677.709	0.0143754
677.788	0.0141580
677.866	0.0140295
677.944	0.0139862
678.022	0.0139104
678.100	0.0137864
678.178	0.0137849
678.256	0.0137086
678.334	0.0136216
678.413	0.0135987
678.491	0.0137054
678.569	0.0139061
678.647	0.0138412
678.725	0.0139325
678.803	0.0140314
678.881	0.0142326
678.959	0.0143715
679.038	0.0145159
679.116	0.0148015
679.194	0.0149107
679.272	0.0151380
679.350	0.0151689
679.428	0.0154961
679.506	0.0157435
679.584	0.0159708
679.663	0.0162300
679.741	0.0162529
679.819	0.0165777
679.897	0.0167510
679.975	0.0167696
680.053	0.0169657
680.131	0.0170519
680.209	0.0171294
680.288	0.0172359
680.366	0.0171543
680.444	0.0172135
680.522	0.0170639
680.600	0.0170827
680.678	0.0170540
680.756	0.0168379
680.834	0.0166078
680.913	0.0166619
680.991	0.0165584
681.069	0.0163212
681.147	0.0162646
681.225	0.0162547
681.303	0.0160400
681.381	0.0159695
681.459	0.0159042
681.538	0.0158125
681.616	0.0156113
681.694	0.0154098
681.772	0.0152774
681.850	0.0153661
681.928	0.0151451
682.006	0.0152499
682.084	0.0151404
682.163	0.0150825
682.241	0.0150331
682.319	0.0148964
682.397	0.0149834
682.475	0.0149833
682.553	0.0150620
682.631	0.0151513
682.709	0.0151268
682.788	0.0150468
682.866	0.0150721
682.944	0.0151994
683.022	0.0152625
683.100	0.0152028
683.178	0.0153367
683.256	0.0153378
683.334	0.0154180
683.413	0.0156359
683.491	0.0155746
683.569	0.0155361
683.647	0.0157422
683.725	0.0156560
683.803	0.0158138
683.881	0.0159212
683.959	0.0159538
684.038	0.0160323
684.116	0.0160454
684.194	0.0159435
684.272	0.0159067
684.350	0.0157963
684.428	0.0158504
684.506	0.0158496
684.584	0.0157684
684.663	0.0158554
684.741	0.0157417
684.819	0.0155994
684.897	0.0155738
684.975	0.0155916
685.053	0.0155057
685.131	0.0154760
685.209	0.0154897
685.288	0.0155031
685.366	0.0154142
685.444	0.0153226
685.522	0.0152826
685.600	0.0152805
685.678	0.0151079
685.756	0.0152475
685.834	0.0152005
685.913	0.0150631
685.991	0.0150248
686.069	0.0150627
686.147	0.0150740
686.225	0.0150723
686.303	0.0150505
686.381	0.0148952
686.459	0.0150180
686.538	0.0151489
686.616	0.0151549
686.694	0.0152016
686.772	0.0151276
686.850	0.0152456
686.928	0.0154226
687.006	0.0155274
687.084	0.0153860
687.163	0.0153708
687.241	0.0154109
687.319	0.0152708
687.397	0.0154469
687.475	0.0154913
687.553	0.0154206
687.631	0.0154699
687.709	0.0155485
687.788	0.0157681
687.866	0.0157100
687.944	0.0158437
688.022	0.0158664
688.100	0.0160719
688.178	0.0159905
688.256	0.0161805
688.334	0.0161800
688.413	0.0162994
688.491	0.0162074
688.569	0.0163985
688.647	0.0164581
688.725	0.0162939
688.803	0.0163074
688.881	0.0162463
688.959	0.0162945
689.038	0.0162769
689.116	0.0160661
689.194	0.0160711
689.272	0.0160251
689.350	0.0159383
689.428	0.0159623
689.506	0.0157880
689.584	0.0158897
689.663	0.0158100
689.741	0.0158377
689.819	0.0157632
689.897	0.0156062
689.975	0.0155849
690.053	0.0155011
690.131	0.0154545
690.209	0.0153785
690.288	0.0153908
690.366	0.0152305
690.444	0.0152497
690.522	0.0152834
690.600	0.0151632
690.678	0.0149185
690.756	0.0151233
690.834	0.0150990
690.913	0.0151578
690.991	0.0150845
691.069	0.0150631
691.147	0.0150127
691.225	0.0151300
691.303	0.0153212
691.381	0.0152715
691.459	0.0154890
691.538	0.0155376
691.616	0.0154227
691.694	0.0154462
691.772	0.0154133
691.850	0.0155034
691.928	0.0155867
692.006	0.0155993
692.084	0.0156260
692.163	0.0155733
692.241	0.0156470
692.319	0.0156177
692.397	0.0155553
692.475	0.0154321
692.553	0.0153107
692.631	0.0153437
692.709	0.0152663
692.788	0.0152303
692.866	0.0151658
692.944	0.0151015
693.022	0.0148878
693.100	0.0147607
693.178	0.0147111
693.256	0.0146042
693.334	0.0146031
693.413	0.0145193
693.491	0.0145107
693.569	0.0146012
693.647	0.0145718
693.725	0.0146895
693.803	0.0147265
693.881	0.0149648
693.959	0.0149418
694.038	0.0152175
694.116	0.0151916
694.194	0.0155063
694.272	0.0157995
694.350	0.0158990
694.428	0.0160520
694.506	0.0162926
694.584	0.0163631
694.663	0.0165691
694.741	0.0168565
694.819	0.0169960
694.897	0.0170316
694.975	0.0172637
695.053	0.0173393
695.131	0.0174517
695.209	0.0175644
695.288	0.0175892
695.366	0.0176069
695.444	0.0178168
695.522	0.0176890
695.600	0.0176065
695.678	0.0175725
695.756	0.0175284
695.834	0.0173010
695.913	0.0169850
695.991	0.0168940
696.069	0.0166120
696.147	0.0165305
696.225	0.0162669
696.303	0.0158936
696.381	0.0158434
696.459	0.0153586
696.538	0.0152155
696.616	0.0150797
696.694	0.0148444
696.772	0.0145512
696.850	0.0145756
696.928	0.0144060
697.006	0.0141166
697.084	0.0140248
697.163	0.0139422
697.241	0.0136487
697.319	0.0137514
697.397	0.0134303
697.475	0.0133480
697.553	0.0133386
697.631	0.0133069
697.709	0.0132592
697.788	0.0132848
697.866	0.0132204
697.944	0.0132224
698.022	0.0133407
698.100	0.0133482
698.178	0.0132600
698.256	0.0135174
698.334	0.0136562
698.413	0.0137386
698.491	0.0137261
698.569	0.0139020
698.647	0.0140180
698.725	0.0140405
698.803	0.0142294
698.881	0.0145492
698.959	0.0147626
699.038	0.0148547
699.116	0.0150357
699.194	0.0152299
699.272	0.0155694
699.350	0.0157676
699.428	0.0159981
699.506	0.0163094
699.584	0.0166196
699.663	0.0168869
699.741	0.0171349
699.819	0.0171991
699.897	0.0175240
699.975	0.0177527
700.053	0.0179991
700.131	0.0181541
700.209	0.0182501
700.288	0.0183243
700.366	0.0184431
700.444	0.0185373
700.522	0.0185532
700.600	0.0184117
700.678	0.0184097
700.756	0.0182427
700.834	0.0181476
700.913	0.0180383
700.991	0.0177287
701.069	0.0175285
701.147	0.0173479
701.225	0.0172007
701.303	0.0167888
701.381	0.0164483
701.459	0.0162415
701.538	0.0158399
701.616	0.0153477
701.694	0.0150857
701.772	0.0148511
701.850	0.0146149
701.928	0.0140826
702.006	0.0138937
702.084	0.0137109
702.163	0.0134455
702.241	0.0133308
702.319	0.0130807
702.397	0.0131022
702.475	0.0129092
702.553	0.0128392
702.631	0.0130258
702.709	0.0131633
702.788	0.0132484
702.866	0.0133394
702.944	0.0136581
703.022	0.0137996
703.100	0.0139157
703.178	0.0140704
703.256	0.0145560
703.334	0.0146367
703.413	0.0148627
703.491	0.0152349
703.569	0.0153923
703.647	0.0155707
703.725	0.0157674
703.803	0.0160580
703.881	0.0163106
703.959	0.0163461
704.038	0.0163704
704.116	0.0164964
704.194	0.0165540
704.272	0.0165610
704.350	0.0165384
704.428	0.0165735
704.506	0.0164317
704.584	0.0162977
704.663	0.0163301
704.741	0.0161938
704.819	0.0160648
704.897	0.0161542
704.975	0.0160086
705.053	0.0158782
705.131	0.0160352
705.209	0.0159442
705.288	0.0158475
705.366	0.0158759
705.444	0.0157764
705.522	0.0156898
705.600	0.0157471
705.678	0.0156818
705.756	0.0157983
705.834	0.0157204
705.913	0.0156551
705.991	0.0157002
706.069	0.0157586
706.147	0.0157504
706.225	0.0157494
706.303	0.0156126
706.381	0.0156445
706.459	0.0157940
706.538	0.0157745
706.616	0.0157465
706.694	0.0155856
706.772	0.0156422
706.850	0.0154459
706.928	0.0154789
707.006	0.0154407
707.084	0.0151730
707.163	0.0152121
707.241	0.0149506
707.319	0.0150255
707.397	0.0148858
707.475	0.0148190
707.553	0.0146957
707.631	0.0147154
707.709	0.0148223
707.788	0.0147305
707.866	0.0148438
707.944	0.0148606
708.022	0.0149639
708.100	0.0149689
708.178	0.0151951
708.256	0.0152546
708.334	0.0152798
708.413	0.0154733
708.491	0.0155269
708.569	0.0157885
708.647	0.0160592
708.725	0.0160630
708.803	0.0161037
708.881	0.0162681
708.959	0.0164075
709.038	0.0164545
709.116	0.0165031
709.194	0.0165983
709.272	0.0165146
709.350	0.0164558
709.428	0.0165688
709.506	0.0163950
709.584	0.0163374
709.663	0.0161321
709.741	0.0161328
709.819	0.0158459
709.897	0.0157499
709.975	0.0155696
710.053	0.0154845
710.131	0.0153355
710.209	0.0150671
710.288	0.0150712
710.366	0.0148289
710.444	0.0148588
710.522	0.0149340
710.600	0.0147952
710.678	0.0148023
710.756	0.0148876
710.834	0.0148589
710.913	0.0149298
710.991	0.0149290
711.069	0.0151097
711.147	0.0153517
711.225	0.0153614
711.303	0.0154992
711.381	0.0156203
711.459	0.0155993
711.538	0.0157059
711.616	0.0159651
711.694	0.0160616
711.772	0.0160011
711.850	0.0160841
711.928	0.0161070
712.006	0.0161250
712.084	0.0162197
712.163	0.0161324
712.241	0.0160389
712.319	0.0159805
712.397	0.0159612
712.475	0.0158855
712.553	0.0159232
712.631	0.0158557
712.709	0.0156599
712.788	0.0157717
712.866	0.0156216
712.944	0.0153927
713.022	0.0154528
713.100	0.0153340
713.178	0.0153659
713.256	0.0153429
713.334	0.0152550
713.413	0.0152432
713.491	0.0152701
713.569	0.0152589
713.647	0.0153708
713.725	0.0155440
713.803	0.0154241
713.881	0.0155421
713.959	0.0155891
714.038	0.0157548
714.116	0.0156777
714.194	0.0158764
714.272	0.0159246
714.350	0.0159320
714.428	0.0160542
714.506	0.0160835
714.584	0.0160059
714.663	0.0160142
714.741	0.0160191
714.819	0.0160126
714.897	0.0160958
714.975	0.0159562
715.053	0.0158072
715.131	0.0156092
715.209	0.0156005
715.288	0.0156698
715.366	0.0153985
715.444	0.0152995
715.522	0.0152814
715.600	0.0151869
715.678	0.0150479
715.756	0.0150768
715.834	0.0149954
715.913	0.0148908
715.991	0.0150872
716.069	0.0151712
716.147	0.0152110
716.225	0.0153081
716.303	0.0153667
716.381	0.0154480
716.459	0.0154970
716.538	0.0156207
716.616	0.0157423
716.694	0.0159314
716.772	0.0160410
716.850	0.0159428
716.928	0.0161674
717.006	0.0161706
717.084	0.0161021
717.163	0.0160815
717.241	0.0160314
717.319	0.0160457
717.397	0.0160098
717.475	0.0160095
717.553	0.0158981
717.631	0.0158046
717.709	0.0155595
717.788	0.0155151
717.866	0.0154574
717.944	0.0153357
718.022	0.0154332
718.100	0.0152539
718.178	0.0152375
718.256	0.0151325
718.334	0.0150202
718.413	0.0150697
718.491	0.0150986
718.569	0.0151595
718.647	0.0150894
718.725	0.0151484
718.803	0.0151727
718.881	0.0153656
718.959	0.0151952
719.038	0.0154037
719.116	0.0154292
719.194	0.0154989
719.272	0.0155017
719.350	0.0155278
719.428	0.0155508
719.506	0.0156454
719.584	0.0156672
719.663	0.0156106
719.741	0.0156062
719.819	0.0156858
719.897	0.0157345
719.975	0.0155447
720.053	0.0156732
720.131	0.0155365
720.209	0.0154801
720.288	0.0155461
720.366	0.0153661
720.444	0.0154166
720.522	0.0154359
720.600	0.0153407
720.678	0.0152589
720.756	0.0153029
720.834	0.0152740
720.913	0.0150897
720.991	0.0152657
721.069	0.0152234
721.147	0.0151586
721.225	0.0151149
721.303	0.0152534
721.381	0.0152048
721.459	0.0152431
721.538	0.0154169
721.616	0.0154252
721.694	0.0153925
721.772	0.0155659
721.850	0.0155376
721.928	0.0156399
722.006	0.0154692
722.084	0.0157348
722.163	0.0159043
722.241	0.0158269
722.319	0.0157173
722.397	0.0159780
722.475	0.0161047
722.553	0.0160543
722.631	0.0159562
722.709	0.0160335
722.788	0.0161875
722.866	0.0161742
722.944	0.0159541
723.022	0.0160484
723.100	0.0161165
723.178	0.0160688
723.256	0.0159953
723.334	0.0160926
723.413	0.0161158
723.491	0.0161221
723.569	0.0162132
723.647	0.0164529
723.725	0.0162711
723.803	0.0163711
723.881	0.0162311
723.959	0.0163278
724.038	0.0164736
724.116	0.0162646
724.194	0.0163369
724.272	0.0161892
724.350	0.0162449
724.428	0.0161379
724.506	0.0161642
724.584	0.0158612
724.663	0.0158011
724.741	0.0157548
724.819	0.0156756
724.897	0.0154739
724.975	0.0155613
725.053	0.0153981
725.131	0.0152685
725.209	0.0151085
725.288	0.0149799
725.366	0.0149173
725.444	0.0148219
725.522	0.0145708
725.600	0.0144855
725.678	0.0144166
725.756	0.0144514
725.834	0.0143604
725.913	0.0141456
725.991	0.0142551
726.069	0.0142624
726.147	0.0143047
726.225	0.0142908
726.303	0.0143036
726.381	0.0144491
726.459	0.0144427
726.538	0.0144875
726.616	0.0145978
726.694	0.0146764
726.772	0.0146213
726.850	0.0148546
726.928	0.0150869
727.006	0.0150494
727.084	0.0152551
727.163	0.0152431
727.241	0.0154359
727.319	0.0155035
727.397	0.0157112
727.475	0.0157603
727.553	0.0158762
727.631	0.0160997
727.709	0.0160699
727.788	0.0164444
727.866	0.0163932
727.944	0.0167621
728.022	0.0166988
728.100	0.0167583
728.178	0.0167953
728.256	0.0169543
728.334	0.0169946
728.413	0.0169145
728.491	0.0169202
728.569	0.0169490
728.647	0.0168062
728.725	0.0167525
728.803	0.0165840
728.881	0.0164178
728.959	0.0165904
729.038	0.0163538
729.116	0.0160430
729.194	0.0159895
729.272	0.0158112
729.350	0.0156882
729.428	0.0153203
729.506	0.0151985
729.584	0.0150708
729.663	0.0149241
729.741	0.0148217
729.819	0.0146762
729.897	0.0147170
729.975	0.0144108
730.053	0.0143107
730.131	0.0144598
730.209	0.0144421
730.288	0.0144047
730.366	0.0145782
730.444	0.0145757
730.522	0.0146693
730.600	0.0146818
730.678	0.0149352
730.756	0.0150381
730.834	0.0151495
730.913	0.0151915
730.991	0.0153179
731.069	0.0154356
731.147	0.0155098
731.225	0.0156895
731.303	0.0158629
731.381	0.0157229
731.459	0.0157119
731.538	0.0157596
731.616	0.0156919
731.694	0.0158661
731.772	0.0158566
731.850	0.0157295
731.928	0.0156830
732.006	0.0157639
732.084	0.0157655
732.163	0.0155882
732.241	0.0154868
732.319	0.0157122
732.397	0.0156412
732.475	0.0155779
732.553	0.0156084
732.631	0.0154435
732.709	0.0155981
732.788	0.0156806
732.866	0.0157484
732.944	0.0157872
733.022	0.0158019
733.100	0.0157885
733.178	0.0158415
733.256	0.0158109
733.334	0.0156800
733.413	0.0156213
733.491	0.0158941
733.569	0.0157462
733.647	0.0157520
733.725	0.0156730
733.803	0.0158982
733.881	0.0158671
733.959	0.0158717
734.038	0.0156902
734.116	0.0156586
734.194	0.0155661
734.272	0.0157448
734.350	0.0156682
734.428	0.0156210
734.506	0.0156745
734.584	0.0157368
734.663	0.0156033
734.741	0.0155638
734.819	0.0154794
734.897	0.0155514
734.975	0.0156045
735.053	0.0156132
735.131	0.0155759
735.209	0.0156079
735.288	0.0157052
735.366	0.0156251
735.444	0.0156906
735.522	0.0156014
735.600	0.0156619
735.678	0.0156219
735.756	0.0156272
735.834	0.0154050
735.913	0.0155978
735.991	0.0154350
736.069	0.0154803
736.147	0.0152953
736.225	0.0152515
736.303	0.0151502
736.381	0.0150643
736.459	0.0149300
736.538	0.0149993
736.616	0.0149985
736.694	0.0147913
736.772	0.0149346
736.850	0.0149511
736.928	0.0148597
737.006	0.0151636
737.084	0.0151598
737.163	0.0154147
737.241	0.0153819
737.319	0.0154362
737.397	0.0156945
737.475	0.0157272
737.553	0.0156922
737.631	0.0159593
737.709	0.0161811
737.788	0.0161443
737.866	0.0163264
737.944	0.0165063
738.022	0.0165777
738.100	0.0167313
738.178	0.0165952
738.256	0.0165865
738.334	0.0167467
738.413	0.0167397
738.491	0.0167484
738.569	0.0166196
738.647	0.0164803
738.725	0.0164666
738.803	0.0163371
738.881	0.0161556
738.959	0.0160981
739.038	0.0160332
739.116	0.0157628
739.194	0.0157218
739.272	0.0155878
739.350	0.0155080
739.428	0.0152861
739.506	0.0151221
739.584	0.0150270
739.663	0.0148245
739.741	0.0147008
739.819	0.0147276
739.897	0.0146552
739.975	0.0145496
740.053	0.0144319
740.131	0.0143843
740.209	0.0144310
740.288	0.0143687
740.366	0.0144282
740.444	0.0144011
740.522	0.0144630
740.600	0.0143305
740.678	0.0143669
740.756	0.0144888
740.834	0.0145168
740.913	0.0145389
740.991	0.0147285
741.069	0.0146653
741.147	0.0150045
741.225	0.0150403
741.303	0.0150883
741.381	0.0150097
741.459	0.0152538
741.538	0.0153589
741.616	0.0155310
741.694	0.0156203
741.772	0.0156218
741.850	0.0156666
741.928	0.0158450
742.006	0.0161465
742.084	0.0161526
742.163	0.0162823
742.241	0.0164095
742.319	0.0164741
742.397	0.0167302
742.475	0.0168379
742.553	0.0170363
742.631	0.0170126
742.709	0.0169921
742.788	0.0170255
742.866	0.0170598
742.944	0.0170517
743.022	0.0169781
743.100	0.0168642
743.178	0.0167760
743.256	0.0167212
743.334	0.0165125
743.413	0.0163366
743.491	0.0162920
743.569	0.0160868
743.647	0.0158409
743.725	0.0155896
743.803	0.0154166
743.881	0.0152204
743.959	0.0151582
744.038	0.0149372
744.116	0.0148369
744.194	0.0146922
744.272	0.0146337
744.350	0.0145654
744.428	0.0144804
744.506	0.0145840
744.584	0.0146365
744.663	0.0145529
744.741	0.0145710
744.819	0.0147044
744.897	0.0148142
744.975	0.0148499
745.053	0.0149345
745.131	0.0149330
745.209	0.0151294
745.288	0.0152151
745.366	0.0153985
745.444	0.0156006
745.522	0.0155471
745.600	0.0156591
745.678	0.0156602
745.756	0.0156973
745.834	0.0158605
745.913	0.0157003
745.991	0.0158260
746.069	0.0157972
746.147	0.0158691
746.225	0.0157805
746.303	0.0158020
746.381	0.0157932
746.459	0.0158593
746.538	0.0156242
746.616	0.0155113
746.694	0.0156814
746.772	0.0157356
746.850	0.0155685
746.928	0.0156522
747.006	0.0156210
747.084	0.0155061
747.163	0.0156757
747.241	0.0155801
747.319	0.0157178
747.397	0.0158424
747.475	0.0157661
747.553	0.0158930
747.631	0.0158594
747.709	0.0159740
747.788	0.0161308
747.866	0.0159586
747.944	0.0159430
748.022	0.0160575
748.100	0.0160059
748.178	0.0160494
748.256	0.0159756
748.334	0.0159472
748.413	0.0159509
748.491	0.0157461
748.569	0.0157905
748.647	0.0156670
748.725	0.0155893
748.803	0.0153425
748.881	0.0154403
748.959	0.0153693
749.038	0.0151349
749.116	0.0150684
749.194	0.0150233
749.272	0.0149138
749.350	0.0148740
749.428	0.0148900
749.506	0.0147488
749.584	0.0148647
749.663	0.0149763
749.741	0.0150452
749.819	0.0150091
749.897	0.0148734
749.975	0.0150291
750.053	0.0151344
750.131	0.0150940
750.209	0.0150636
750.288	0.0151632
750.366	0.0151546
750.444	0.0152101
750.522	0.0150787
750.600	0.0151249
750.678	0.0153807
750.756	0.0153570
750.834	0.0153445
750.913	0.0154926
750.991	0.0156352
751.069	0.0155845
751.147	0.0157217
751.225	0.0158527
751.303	0.0160449
751.381	0.0161141
751.459	0.0162375
751.538	0.0161860
751.616	0.0164138
751.694	0.0164899
751.772	0.0165948
751.850	0.0166498
751.928	0.0165526
752.006	0.0165647
752.084	0.0163918
752.163	0.0164812
752.241	0.0164211
752.319	0.0164175
752.397	0.0163046
752.475	0.0160931
752.553	0.0159181
752.631	0.0156519
752.709	0.0155083
752.788	0.0154539
752.866	0.0153004
752.944	0.0151273
753.022	0.0150103
753.100	0.0149222
753.178	0.0147750
753.256	0.0147273
753.334	0.0146627
753.413	0.0146978
753.491	0.0147531
753.569	0.0147880
753.647	0.0146145
753.725	0.0150148
753.803	0.0150027
753.881	0.0151888
753.959	0.0153548
754.038	0.0155234
754.116	0.0157372
754.194	0.0158160
754.272	0.0159682
754.350	0.0161975
754.428	0.0162360
754.506	0.0162852
754.584	0.0164060
754.663	0.0163581
754.741	0.0164597
754.819	0.0164446
754.897	0.0164331
754.975	0.0162255
755.053	0.0162218
755.131	0.0159676
755.209	0.0160568
755.288	0.0159584
755.366	0.0159215
755.444	0.0157314
755.522	0.0157220
755.600	0.0154994
755.678	0.0155028
755.756	0.0155237
755.834	0.0153458
755.913	0.0152103
755.991	0.0152284
756.069	0.0153568
756.147	0.0154482
756.225	0.0153603
756.303	0.0154877
756.381	0.0154148
756.459	0.0154038
756.538	0.0152692
756.616	0.0153625
756.694	0.0156217
756.772	0.0155532
756.850	0.0154848
756.928	0.0152973
757.006	0.0152303
757.084	0.0152859
757.163	0.0151611
757.241	0.0150296
757.319	0.0147939
757.397	0.0146201
757.475	0.0147102
757.553	0.0145203
757.631	0.0144137
757.709	0.0144035
757.788	0.0142826
757.866	0.0142773
757.944	0.0141702
758.022	0.0143948
758.100	0.0143845
758.178	0.0143596
758.256	0.0146255
758.334	0.0149437
758.413	0.0149223
758.491	0.0149853
758.569	0.0152297
758.647	0.0155646
758.725	0.0157569
758.803	0.0158192
758.881	0.0160373
758.959	0.0163364
759.038	0.0164639
759.116	0.0165160
759.194	0.0167564
759.272	0.0167846
759.350	0.0168414
759.428	0.0169303
759.506	0.0170352
759.584	0.0170997
759.663	0.0170650
759.741	0.0170102
759.819	0.0169122
759.897	0.0168875
759.975	0.0166985
760.053	0.0166325
760.131	0.0164197
760.209	0.0160587
760.288	0.0158804
760.366	0.0155830
760.444	0.0154630
760.522	0.0151747
760.600	0.0151035
760.678	0.0147434
760.756	0.0147909
760.834	0.0146393
760.913	0.0144876
760.991	0.0143381
761.069	0.0143974
761.147	0.0143666
761.225	0.0144314
761.303	0.0145380
761.381	0.0145904
761.459	0.0147998
761.538	0.0148248
761.616	0.0149284
761.694	0.0151398
761.772	0.0153691
761.850	0.0153667
761.928	0.0155252
762.006	0.0157587
762.084	0.0158091
762.163	0.0158913
762.241	0.0160493
762.319	0.0160744
762.397	0.0162770
762.475	0.0162346
762.553	0.0163097
762.631	0.0162440
762.709	0.0162027
762.788	0.0162214
762.866	0.0162197
762.944	0.0162695
763.022	0.0163071
763.100	0.0163956
763.178	0.0162956
763.256	0.0162128
763.334	0.0161648
763.413	0.0161246
763.491	0.0160664
763.569	0.0159028
763.647	0.0158897
763.725	0.0158436
763.803	0.0157668
763.881	0.0155931
763.959	0.0155665
764.038	0.0155697
764.116	0.0153783
764.194	0.0152718
764.272	0.0152929
764.350	0.0152245
764.428	0.0152122
764.506	0.0151540
764.584	0.0151517
764.663	0.0149249
764.741	0.0149200
764.819	0.0149593
764.897	0.0150764
764.975	0.0149489
765.053	0.0149939
765.131	0.0149516
765.209	0.0149638
765.288	0.0149506
765.366	0.0150395
765.444	0.0151804
765.522	0.0151727
765.600	0.0151414
765.678	0.0152363
765.756	0.0152874
765.834	0.0154363
765.913	0.0155699
765.991	0.0156276
766.069	0.0155908
766.147	0.0156329
766.225	0.0157993
766.303	0.0158884
766.381	0.0158624
766.459	0.0158013
766.538	0.0158245
766.616	0.0157996
766.694	0.0159234
766.772	0.0159379
766.850	0.0158925
766.928	0.0156349
767.006	0.0158361
767.084	0.0156382
767.163	0.0156071
767.241	0.0155334
767.319	0.0155738
767.397	0.0156322
767.475	0.0155753
767.553	0.0155377
767.631	0.0154569
767.709	0.0152960
767.788	0.0152983
767.866	0.0154379
767.944	0.0154156
768.022	0.0153474
768.100	0.0153008
768.178	0.0153297
768.256	0.0153869
768.334	0.0153653
768.413	0.0155899
768.491	0.0155277
768.569	0.0155660
768.647	0.0157830
768.725	0.0156353
768.803	0.0157467
768.881	0.0157600
768.959	0.0158530
769.038	0.0159000
769.116	0.0158138
769.194	0.0159289
769.272	0.0159196
769.350	0.0159059
769.428	0.0158201
769.506	0.0158051
769.584	0.0160057
769.663	0.0157011
769.741	0.0155753
769.819	0.0155527
769.897	0.0155029
769.975	0.0155882
770.053	0.0155452
770.131	0.0154386
770.209	0.0152789
770.288	0.0153046
770.366	0.0151500
770.444	0.0149828
770.522	0.0150699
770.600	0.0152422
770.678	0.0151572
770.756	0.0150752
770.834	0.0151043
770.913	0.0151053
770.991	0.0151427
771.069	0.0152094
771.147	0.0152510
771.225	0.0153241
771.303	0.0153633
771.381	0.0155039
771.459	0.0155699
771.538	0.0155691
771.616	0.0156543
771.694	0.0156236
771.772	0.0155624
771.850	0.0156282
771.928	0.0157160
772.006	0.0156778
772.084	0.0158329
772.163	0.0158070
772.241	0.0158005
772.319	0.0158647
772.397	0.0158444
772.475	0.0157508
772.553	0.0157829
772.631	0.0158658
772.709	0.0157820
772.788	0.0157156
772.866	0.0157548
772.944	0.0157294
773.022	0.0156240
773.100	0.0157512
773.178	0.0157349
773.256	0.0157632
773.334	0.0158092
773.413	0.0156348
773.491	0.0157155
773.569	0.0157037
773.647	0.0157304
773.725	0.0157056
773.803	0.0156929
773.881	0.0154915
773.959	0.0155918
774.038	0.0155612
774.116	0.0155620
774.194	0.0154400
774.272	0.0153284
774.350	0.0153802
774.428	0.0153456
774.506	0.0154242
774.584	0.0153503
774.663	0.0153363
774.741	0.0152548
774.819	0.0151926
774.897	0.0153026
774.975	0.0151411
775.053	0.0151897
775.131	0.0150846
775.209	0.0151103
775.288	0.0151725
775.366	0.0150519
775.444	0.0151721
775.522	0.0152029
775.600	0.0152214
775.678	0.0152814
775.756	0.0153318
775.834	0.0154028
775.913	0.0155148
775.991	0.0156989
776.069	0.0157285
776.147	0.0157752
776.225	0.0157590
776.303	0.0159538
776.381	0.0160901
776.459	0.0161381
776.538	0.0159188
776.616	0.0159836
776.694	0.0159819
776.772	0.0159740
776.850	0.0159946
776.928	0.0159869
777.006	0.0159148
777.084	0.0159200
777.163	0.0158437
777.241	0.0158749
777.319	0.0157891
777.397	0.0157234
777.475	0.0157821
777.553	0.0157366
777.631	0.0156084
777.709	0.0155888
777.788	0.0156458
777.866	0.0155411
777.944	0.0156059
778.022	0.0154272
778.100	0.0155310
778.178	0.0154856
778.256	0.0154414
778.334	0.0157174
778.413	0.0154428
778.491	0.0155364
778.569	0.0155799
778.647	0.0155572
778.725	0.0155515
778.803	0.0155737
778.881	0.0156748
778.959	0.0156165
779.038	0.0155751
779.116	0.0154403
779.194	0.0155556
779.272	0.0155167
779.350	0.0154506
779.428	0.0154977
779.506	0.0153837
779.584	0.0153888
779.663	0.0153642
779.741	0.0153349
779.819	0.0151810
779.897	0.0153040
779.975	0.0153488
780.053	0.0152454
780.131	0.0151885
780.209	0.0152663
780.288	0.0151772
780.366	0.0151591
780.444	0.0150677
780.522	0.0151396
780.600	0.0151319
780.678	0.0151087
780.756	0.0151748
780.834	0.0152686
780.913	0.0151278
780.991	0.0153046
781.069	0.0153029
781.147	0.0152528
781.225	0.0153745
781.303	0.0153521
781.381	0.0155233
781.459	0.0155108
781.538	0.0155975
781.616	0.0157057
781.694	0.0156982
781.772	0.0158013
781.850	0.0157745
781.928	0.0159161
782.006	0.0159288
782.084	0.0158985
782.163	0.0160352
782.241	0.0159711
782.319	0.0160843
782.397	0.0160708
782.475	0.0159335
782.553	0.0159895
782.631	0.0160365
782.709	0.0161972
782.788	0.0161054
782.866	0.0162032
782.944	0.0161256
783.022	0.0160729
783.100	0.0160444
783.178	0.0160181
783.256	0.0160493
783.334	0.0159399
783.413	0.0160698
783.491	0.0159026
783.569	0.0158787
783.647	0.0158171
783.725	0.0158713
783.803	0.0156449
783.881	0.0155204
783.959	0.0155984
784.038	0.0156421
784.116	0.0154816
784.194	0.0155470
784.272	0.0154857
784.350	0.0154942
784.428	0.0154942
784.506	0.0153624
784.584	0.0153165
784.663	0.0153280
784.741	0.0153833
784.819	0.0152657
784.897	0.0154353
784.975	0.0154301
785.053	0.0153954
785.131	0.0153326
785.209	0.0152174
785.288	0.0154906
785.366	0.0154243
785.444	0.0153639
785.522	0.0153402
785.600	0.0153734
785.678	0.0155724
785.756	0.0154717
785.834	0.0153872
785.913	0.0152841
785.991	0.0153734
786.069	0.0154873
786.147	0.0154293
786.225	0.0154271
786.303	0.0154131
786.381	0.0155435
786.459	0.0154814
786.538	0.0155175
786.616	0.0154182
786.694	0.0154773
786.772	0.0154581
786.850	0.0154987
786.928	0.0155329
787.006	0.0155956
787.084	0.0156179
787.163	0.0157285
787.241	0.0156556
787.319	0.0155525
787.397	0.0156194
787.475	0.0157234
787.553	0.0156973
787.631	0.0157372
787.709	0.0157533
787.788	0.0157175
787.866	0.0158437
787.944	0.0157085
788.022	0.0156567
788.100	0.0157378
788.178	0.0156818
788.256	0.0156531
788.334	0.0156183
788.413	0.0155269
788.491	0.0156324
788.569	0.0155811
788.647	0.0155279
788.725	0.0154038
788.803	0.0155157
788.881	0.0154073
788.959	0.0153688
789.038	0.0153963
789.116	0.0153236
789.194	0.0152840
789.272	0.0153926
789.350	0.0153596
789.428	0.0152579
789.506	0.0152925
789.584	0.0153615
789.663	0.0153114
789.741	0.0153260
789.819	0.0153738
789.897	0.0153015
789.975	0.0153657
790.053	0.0153255
790.131	0.0153082
790.209	0.0152756
790.288	0.0154062
790.366	0.0153400
790.444	0.0154567
790.522	0.0155493
790.600	0.0154407
790.678	0.0154864
790.756	0.0155456
790.834	0.0154774
790.913	0.0156040
790.991	0.0157020
791.069	0.0158340
791.147	0.0157810
791.225	0.0158231
791.303	0.0159694
791.381	0.0160830
791.459	0.0160804
791.538	0.0161104
791.616	0.0161472
791.694	0.0161872
791.772	0.0162320
791.850	0.0161605
791.928	0.0162537
792.006	0.0162628
792.084	0.0162784
792.163	0.0161977
792.241	0.0163057
792.319	0.0161716
792.397	0.0162399
792.475	0.0161784
792.553	0.0161195
792.631	0.0160664
792.709	0.0158695
792.788	0.0158985
792.866	0.0158813
792.944	0.0158801
793.022	0.0157161
793.100	0.0156966
793.178	0.0155415
793.256	0.0155740
793.334	0.0153281
793.413	0.0152666
793.491	0.0152689
793.569	0.0152753
793.647	0.0151263
793.725	0.0151355
793.803	0.0149917
793.881	0.0149941
793.959	0.0148893
794.038	0.0149263
794.116	0.0147921
794.194	0.0148261
794.272	0.0146936
794.350	0.0149335
794.428	0.0148975
794.506	0.0149596
794.584	0.0149354
794.663	0.0148711
794.741	0.0150864
794.819	0.0150334
794.897	0.0150447
794.975	0.0150855
795.053	0.0150983
795.131	0.0151471
795.209	0.0153216
795.288	0.0154524
795.366	0.0153652
795.444	0.0154926
795.522	0.0155409
795.600	0.0153806
795.678	0.0155576
795.756	0.0157521
795.834	0.0156017
795.913	0.0157909
795.991	0.0156654
796.069	0.0156872
796.147	0.0157948
796.225	0.0157697
796.303	0.0159195
796.381	0.0159326
796.459	0.0157586
796.538	0.0158926
796.616	0.0159582
796.694	0.0160964
796.772	0.0160090
796.850	0.0159017
796.928	0.0158511
797.006	0.0159366
797.084	0.0159315
797.163	0.0159023
797.241	0.0159914
797.319	0.0159074
797.397	0.0158480
797.475	0.0157508
797.553	0.0157860
797.631	0.0157700
797.709	0.0156258
797.788	0.0157330
797.866	0.0156100
797.944	0.0155347
798.022	0.0155429
798.100	0.0155238
798.178	0.0155684
798.256	0.0155853
798.334	0.0152515
798.413	0.0153421
798.491	0.0154850
798.569	0.0154974
798.647	0.0154146
798.725	0.0152907
798.803	0.0153288
798.881	0.0154405
798.959	0.0153339
799.038	0.0151785
799.116	0.0152934
799.194	0.0153247
799.272	0.0152682
799.350	0.0152908
799.428	0.0153658
799.506	0.0154101
799.584	0.0152858
799.663	0.0154027
799.741	0.0155296
799.819	0.0153819
799.897	0.0154869
799.975	0.0155077
800.053	0.0156537
800.131	0.0156458
800.209	0.0155771
800.288	0.0156599
800.366	0.0157323
800.444	0.0156767
800.522	0.0156322
800.600	0.0156133
800.678	0.0156351
800.756	0.0157480
800.834	0.0156687
800.913	0.0156874
800.991	0.0158053
801.069	0.0157983
801.147	0.0157436
801.225	0.0156865
801.303	0.0158164
801.381	0.0157730
801.459	0.0157523
801.538	0.0157813
801.616	0.0155785
801.694	0.0157377
801.772	0.0157386
801.850	0.0157571
801.928	0.0159039
802.006	0.0157038
802.084	0.0157642
802.163	0.0157526
802.241	0.0156277
802.319	0.0157942
802.397	0.0158384
802.475	0.0157796
802.553	0.0157730
802.631	0.0156114
802.709	0.0157175
802.788	0.0158130
802.866	0.0157983
802.944	0.0157421
803.022	0.0157746
803.100	0.0158343
803.178	0.0158134
803.256	0.0157298
803.334	0.0156557
803.413	0.0156553
803.491	0.0155712
803.569	0.0155376
803.647	0.0154304
803.725	0.0154613
803.803	0.0154550
803.881	0.0154728
803.959	0.0153879
804.038	0.0154471
804.116	0.0152943
804.194	0.0153663
804.272	0.0153578
804.350	0.0152825
804.428	0.0153772
804.506	0.0152137
804.584	0.0153331
804.663	0.0154084
804.741	0.0152793
804.819	0.0153041
804.897	0.0153159
804.975	0.0152920
805.053	0.0153296
805.131	0.0152266
805.209	0.0153586
805.288	0.0153118
805.366	0.0153808
805.444	0.0154111
805.522	0.0154472
805.600	0.0153289
805.678	0.0151868
805.756	0.0153269
805.834	0.0153360
805.913	0.0152398
805.991	0.0153260
806.069	0.0152033
806.147	0.0153038
806.225	0.0151817
806.303	0.0152906
806.381	0.0151846
806.459	0.0153178
806.538	0.0153055
806.616	0.0152545
806.694	0.0154362
806.772	0.0153793
806.850	0.0152921
806.928	0.0154873
807.006	0.0155541
807.084	0.0152903
807.163	0.0155730
807.241	0.0156178
807.319	0.0156978
807.397	0.0156399
807.475	0.0157003
807.553	0.0158096
807.631	0.0156332
807.709	0.0157808
807.788	0.0157818
807.866	0.0157610
807.944	0.0157944
808.022	0.0158484
808.100	0.0159225
808.178	0.0158040
808.256	0.0157627
808.334	0.0158639
808.413	0.0158570
808.491	0.0159925
808.569	0.0157301
808.647	0.0157920
808.725	0.0158292
808.803	0.0157852
808.881	0.0158395
808.959	0.0157063
809.038	0.0157935
809.116	0.0156777
809.194	0.0157791
809.272	0.0158129
809.350	0.0157156
809.428	0.0156503
809.506	0.0155692
809.584	0.0155874
809.663	0.0155315
809.741	0.0155401
809.819	0.0154624
809.897	0.0155534
809.975	0.0155740
810.053	0.0152950
810.131	0.0154263
810.209	0.0156104
810.288	0.0154661
810.366	0.0154383
810.444	0.0154196
810.522	0.0153983
810.600	0.0153888
810.678	0.0153001
810.756	0.0154497
810.834	0.0152921
810.913	0.0154671
810.991	0.0152848
811.069	0.0153719
811.147	0.0154153
811.225	0.0153928
811.303	0.0153907
811.381	0.0154175
811.459	0.0154795
811.538	0.0153883
811.616	0.0155589
811.694	0.0155968
811.772	0.0154383
811.850	0.0155085
811.928	0.0154159
812.006	0.0155750
812.084	0.0154955
812.163	0.0153920
812.241	0.0154300
812.319	0.0155750
812.397	0.0154523
812.475	0.0154790
812.553	0.0154967
812.631	0.0154160
812.709	0.0154596
812.788	0.0156175
812.866	0.0156432
812.944	0.0156246
813.022	0.0155486
813.100	0.0155510
813.178	0.0156276
813.256	0.0158413
813.334	0.0157881
813.413	0.0156851
813.491	0.0156872
813.569	0.0157581
813.647	0.0157919
813.725	0.0157419
813.803	0.0158102
813.881	0.0157715
813.959	0.0157790
814.038	0.0158547
814.116	0.0157100
814.194	0.0157828
814.272	0.0156735
814.350	0.0156071
814.428	0.0156451
814.506	0.0157504
814.584	0.0155956
814.663	0.0154487
814.741	0.0155466
814.819	0.0154184
814.897	0.0155231
814.975	0.0155988
815.053	0.0155327
815.131	0.0153756
815.209	0.0156535
815.288	0.0155391
815.366	0.0153572
815.444	0.0153473
815.522	0.0156245
815.600	0.0154487
815.678	0.0155173
815.756	0.0156073
815.834	0.0155423
815.913	0.0155929
815.991	0.0155283
816.069	0.0157692
816.147	0.0156969
816.225	0.0157205
816.303	0.0157000
816.381	0.0155207
816.459	0.0155408
816.538	0.0156204
816.616	0.0156303
816.694	0.0154858
816.772	0.0154575
816.850	0.0155635
816.928	0.0155797
817.006	0.0155595
817.084	0.0156046
817.163	0.0154989
817.241	0.0154451
817.319	0.0154436
817.397	0.0155164
817.475	0.0154933
817.553	0.0154078
817.631	0.0155294
817.709	0.0154290
817.788	0.0154847
817.866	0.0154785
817.944	0.0154929
818.022	0.0154741
818.100	0.0155235
818.178	0.0155687
818.256	0.0154773
818.334	0.0156614
818.413	0.0155557
818.491	0.0157229
818.569	0.0156165
818.647	0.0156686
818.725	0.0155312
818.803	0.0154695
818.881	0.0155415
818.959	0.0155940
819.038	0.0154373
819.116	0.0155273
819.194	0.0155227
819.272	0.0155138
819.350	0.0155076
819.428	0.0154408
819.506	0.0155164
819.584	0.0154694
819.663	0.0153728
819.741	0.0153063
819.819	0.0155556
819.897	0.0154926
819.975	0.0156354
820.053	0.0155343
820.131	0.0156033
820.209	0.0155032
820.288	0.0155843
820.366	0.0156662
820.444	0.0155791
820.522	0.0156684
820.600	0.0155714
820.678	0.0156699
820.756	0.0157756
820.834	0.0158335
820.913	0.0157687
820.991	0.0156618
821.069	0.0157413
821.147	0.0155839
821.225	0.0156685
821.303	0.0157401
821.381	0.0156116
821.459	0.0156382
821.538	0.0157844
821.616	0.0156809
821.694	0.0156007
821.772	0.0155481
821.850	0.0154803
821.928	0.0156999
822.006	0.0155378
822.084	0.0155845
822.163	0.0155937
822.241	0.0156931
822.319	0.0156368
822.397	0.0156717
822.475	0.0156026
822.553	0.0156189
822.631	0.0154887
822.709	0.0155254
822.788	0.0156675
822.866	0.0156271
822.944	0.0156678
823.022	0.0158059
823.100	0.0156007
823.178	0.0155991
823.256	0.0155592
823.334	0.0154970
823.413	0.0155805
823.491	0.0154841
823.569	0.0156944
823.647	0.0157671
823.725	0.0155112
823.803	0.0156294
823.881	0.0156477
823.959	0.0156541
824.038	0.0156518
824.116	0.0157324
824.194	0.0157063
824.272	0.0158309
824.350	0.0157418
824.428	0.0158000
824.506	0.0157532
824.584	0.0159031
824.663	0.0158645
824.741	0.0158750
824.819	0.0156883
824.897	0.0157555
824.975	0.0158173
825.053	0.0157922
825.131	0.0157713
825.209	0.0157729
825.288	0.0158836
825.366	0.0157343
825.444	0.0157683
825.522	0.0156417
825.600	0.0156518
825.678	0.0157644
825.756	0.0155656
825.834	0.0156318
825.913	0.0156553
825.991	0.0155578
826.069	0.0154955
826.147	0.0155782
826.225	0.0156181
826.303	0.0155899
826.381	0.0153371
826.459	0.0155453
826.538	0.0153699
826.616	0.0155238
826.694	0.0154243
826.772	0.0153650
826.850	0.0152670
826.928	0.0154723
827.006	0.0154824
827.084	0.0154359
827.163	0.0153603
827.241	0.0152519
827.319	0.0153862
827.397	0.0154611
827.475	0.0153534
827.553	0.0153434
827.631	0.0153915
827.709	0.0154646
827.788	0.0154546
827.866	0.0152837
827.944	0.0154278
828.022	0.0150890
828.100	0.0153008
828.178	0.0153236
828.256	0.0154130
828.334	0.0153457
828.413	0.0152617
828.491	0.0152374
828.569	0.0151746
828.647	0.0152102
828.725	0.0153623
828.803	0.0153954
828.881	0.0153526
828.959	0.0154047
829.038	0.0153472
829.116	0.0154333
829.194	0.0152858
829.272	0.0154015
829.350	0.0154805
829.428	0.0154536
829.506	0.0154749
829.584	0.0155498
829.663	0.0154232
829.741	0.0154594
829.819	0.0155708
829.897	0.0156831
829.975	0.0155379
830.053	0.0155073
830.131	0.0157027
830.209	0.0156236
830.288	0.0157106
830.366	0.0156470
830.444	0.0157344
830.522	0.0156216
830.600	0.0157178
830.678	0.0157761
830.756	0.0157317
830.834	0.0156142
830.913	0.0156516
830.991	0.0157630
831.069	0.0157502
831.147	0.0157584
831.225	0.0156337
831.303	0.0156279
831.381	0.0157541
831.459	0.0158048
831.538	0.0158199
831.616	0.0157577
831.694	0.0156874
831.772	0.0154958
831.850	0.0157506
831.928	0.0156830
832.006	0.0156754
832.084	0.0155985
832.163	0.0156507
832.241	0.0154369
832.319	0.0156334
832.397	0.0155878
832.475	0.0156229
832.553	0.0155554
832.631	0.0154316
832.709	0.0154038
832.788	0.0155637
832.866	0.0154908
832.944	0.0154160
833.022	0.0154253
833.100	0.0153796
833.178	0.0153957
833.256	0.0154955
833.334	0.0154116
833.413	0.0154890
833.491	0.0154164
833.569	0.0153907
833.647	0.0154074
833.725	0.0155540
833.803	0.0155788
833.881	0.0154965
833.959	0.0154732
834.038	0.0155596
834.116	0.0156260
834.194	0.0154330
834.272	0.0155711
834.350	0.0156508
834.428	0.0155707
834.506	0.0158164
834.584	0.0155572
834.663	0.0156420
834.741	0.0156244
834.819	0.0155647
834.897	0.0157559
834.975	0.0155493
835.053	0.0156374
835.131	0.0157604
835.209	0.0156454
835.288	0.0156073
835.366	0.0155457
835.444	0.0155710
835.522	0.0156274
835.600	0.0155685
835.678	0.0154283
835.756	0.0154812
835.834	0.0155665
835.913	0.0156404
835.991	0.0154647
836.069	0.0153370
836.147	0.0155710
836.225	0.0154907
836.303	0.0154794
836.381	0.0152789
836.459	0.0154570
836.538	0.0155060
836.616	0.0154488
836.694	0.0155373
836.772	0.0155762
836.850	0.0155642
836.928	0.0154903
837.006	0.0156140
837.084	0.0156438
837.163	0.0155338
837.241	0.0155120
837.319	0.0155865
837.397	0.0155981
837.475	0.0155386
837.553	0.0154430
837.631	0.0155466
837.709	0.0156098
837.788	0.0157602
837.866	0.0156131
837.944	0.0155090
838.022	0.0156026
838.100	0.0158024
838.178	0.0156499
838.256	0.0157853
838.334	0.0156620
838.413	0.0158118
838.491	0.0158617
838.569	0.0157128
838.647	0.0158524
838.725	0.0158877
838.803	0.0159473
838.881	0.0159612
838.959	0.0158358
839.038	0.0157727
839.116	0.0159354
839.194	0.0158932
839.272	0.0158083
839.350	0.0157731
839.428	0.0158430
839.506	0.0158179
839.584	0.0159148
839.663	0.0157021
839.741	0.0156758
839.819	0.0157642
839.897	0.0155884
839.975	0.0156387
840.053	0.0156135
840.131	0.0155538
840.209	0.0154679
840.288	0.0155691
840.366	0.0155253
840.444	0.0153686
840.522	0.0153624
840.600	0.0155487
840.678	0.0154977
840.756	0.0154910
840.834	0.0153839
840.913	0.0152622
840.991	0.0155972
841.069	0.0153899
841.147	0.0152563
841.225	0.0155215
841.303	0.0155264
841.381	0.0156489
841.459	0.0156134
841.538	0.0155403
841.616	0.0156817
841.694	0.0157216
841.772	0.0158021
841.850	0.0156776
841.928	0.0158290
842.006	0.0157130
842.084	0.0157681
842.163	0.0158502
842.241	0.0158733
842.319	0.0157600
842.397	0.0158665
842.475	0.0156529
842.553	0.0157921
842.631	0.0157011
842.709	0.0156571
842.788	0.0156405
842.866	0.0157139
842.944	0.0156784
843.022	0.0156121
843.100	0.0156194
843.178	0.0156374
843.256	0.0154116
843.334	0.0155952
843.413	0.0157098
843.491	0.0156721
843.569	0.0155979
843.647	0.0156351
843.725	0.0154800
843.803	0.0155980
843.881	0.0154996
843.959	0.0155679
844.038	0.0154700
844.116	0.0155843
844.194	0.0155922
844.272	0.0156953
844.350	0.0156355
844.428	0.0156007
844.506	0.0155645
844.584	0.0155659
844.663	0.0155945
844.741	0.0156604
844.819	0.0154880
844.897	0.0154257
844.975	0.0156040
845.053	0.0154573
845.131	0.0154945
845.209	0.0155589
845.288	0.0155983
845.366	0.0155933
845.444	0.0154826
845.522	0.0155356
845.600	0.0153893
845.678	0.0155054
845.756	0.0156199
845.834	0.0155495
845.913	0.0153635
845.991	0.0155072
846.069	0.0155956
846.147	0.0153687
846.225	0.0153407
846.303	0.0154660
846.381	0.0153972
846.459	0.0155592
846.538	0.0155235
846.616	0.0155834
846.694	0.0156043
846.772	0.0156602
846.850	0.0155795
846.928	0.0155098
847.006	0.0156609
847.084	0.0157204
847.163	0.0157227
847.241	0.0155671
847.319	0.0156313
847.397	0.0157965
847.475	0.0156735
847.553	0.0158508
847.631	0.0158449
847.709	0.0156419
847.788	0.0157742
847.866	0.0158925
847.944	0.0158660
848.022	0.0157901
848.100	0.0157446
848.178	0.0158273
848.256	0.0157976
848.334	0.0158125
848.413	0.0157858
848.491	0.0156832
848.569	0.0157111
848.647	0.0158101
848.725	0.0156241
848.803	0.0157877
848.881	0.0156833
848.959	0.0156858
849.038	0.0156393
849.116	0.0155492
849.194	0.0155241
849.272	0.0155659
849.350	0.0156281
849.428	0.0155883
849.506	0.0154901
849.584	0.0155077
849.663	0.0155016
849.741	0.0153854
849.819	0.0153853
849.897	0.0154839
849.975	0.0156650
850.053	0.0156480
850.131	0.0154388
850.209	0.0154433
850.288	0.0155283
850.366	0.0155534
850.444	0.0155382
850.522	0.0155211
850.600	0.0155293
850.678	0.0155153
850.756	0.0154435
850.834	0.0154050
850.913	0.0155087
850.991	0.0155519
851.069	0.0155872
851.147	0.0155502
851.225	0.0155208
851.303	0.0154762
851.381	0.0156497
851.459	0.0155453
851.538	0.0155482
851.616	0.0155540
851.694	0.0155450
851.772	0.0154821
851.850	0.0155033
851.928	0.0156258
852.006	0.0156342
852.084	0.0156058
852.163	0.0155309
852.241	0.0154636
852.319	0.0153889
852.397	0.0156219
852.475	0.0155899
852.553	0.0155553
852.631	0.0155120
852.709	0.0153183
852.788	0.0154763
852.866	0.0154449
852.944	0.0154280
853.022	0.0155174
853.100	0.0153817
853.178	0.0154911
853.256	0.0154588
853.334	0.0152982
853.413	0.0151432
853.491	0.0152888
853.569	0.0154054
853.647	0.0152645
853.725	0.0153267
853.803	0.0152869
853.881	0.0152869
853.959	0.0153244
854.038	0.0153933
854.116	0.0152860
854.194	0.0152551
854.272	0.0154173
854.350	0.0153166
854.428	0.0154255
854.506	0.0153307
854.584	0.0154131
854.663	0.0155137
854.741	0.0155322
854.819	0.0154731
854.897	0.0155210
854.975	0.0154653
855.053	0.0155805
855.131	0.0155979
855.209	0.0155395
855.288	0.0156434
855.366	0.0156947
855.444	0.0157475
855.522	0.0155407
855.600	0.0156914
855.678	0.0156944
855.756	0.0156805
855.834	0.0155723
855.913	0.0157440
855.991	0.0157668
856.069	0.0156408
856.147	0.0156479
856.225	0.0156281
856.303	0.0157239
856.381	0.0156654
856.459	0.0155914
856.538	0.0156265
856.616	0.0157873
856.694	0.0156570
856.772	0.0156232
856.850	0.0156778
856.928	0.0155556
857.006	0.0155125
857.084	0.0155224
857.163	0.0157460
857.241	0.0156284
857.319	0.0154769
857.397	0.0154507
857.475	0.0156343
857.553	0.0156581
857.631	0.0155518
857.709	0.0155555
857.788	0.0155681
857.866	0.0155703
857.944	0.0155806
858.022	0.0156429
858.100	0.0155912
858.178	0.0155849
858.256	0.0156498
858.334	0.0158081
858.413	0.0157154
858.491	0.0156498
858.569	0.0157625
858.647	0.0155363
858.725	0.0158190
858.803	0.0156716
858.881	0.0156985
858.959	0.0156944
859.038	0.0155989
859.116	0.0156365
859.194	0.0156172
859.272	0.0157124
859.350	0.0157165
859.428	0.0157444
859.506	0.0156836
859.584	0.0156706
859.663	0.0156223
859.741	0.0156398
859.819	0.0156443
859.897	0.0155564
859.975	0.0154184
860.053	0.0157441
860.131	0.0156782
860.209	0.0156947
860.288	0.0155685
860.366	0.0155071
860.444	0.0155438
860.522	0.0156233
860.600	0.0156664
860.678	0.0156385
860.756	0.0155422
860.834	0.0155975
860.913	0.0155499
860.991	0.0156198
861.069	0.0155842
861.147	0.0155594
861.225	0.0155795
861.303	0.0155738
861.381	0.0157630
861.459	0.0154540
861.538	0.0154493
861.616	0.0155273
861.694	0.0154146
861.772	0.0154311
861.850	0.0154253
861.928	0.0152810
862.006	0.0152418
862.084	0.0153441
862.163	0.0153545
862.241	0.0153210
862.319	0.0154055
862.397	0.0154531
862.475	0.0153915
862.553	0.0153519
862.631	0.0153862
862.709	0.0154466
862.788	0.0154991
862.866	0.0154755
862.944	0.0154079
863.022	0.0154395
863.100	0.0156555
863.178	0.0156344
863.256	0.0155052
863.334	0.0156857
863.413	0.0155208
863.491	0.0156657
863.569	0.0156677
863.647	0.0156228
863.725	0.0156931
863.803	0.0156212
863.881	0.0157128
863.959	0.0156554
864.038	0.0155635
864.116	0.0157466
864.194	0.0156608
864.272	0.0156845
864.350	0.0155952
864.428	0.0157105
864.506	0.0155647
864.584	0.0156574
864.663	0.0157453
864.741	0.0156779
864.819	0.0157956
864.897	0.0157181
864.975	0.0155934
865.053	0.0158134
865.131	0.0157414
865.209	0.0157395
865.288	0.0158162
865.366	0.0158028
865.444	0.0157167
865.522	0.0157516
865.600	0.0157112
865.678	0.0157303
865.756	0.0156717
865.834	0.0156342
865.913	0.0156828
865.991	0.0157434
866.069	0.0156242
866.147	0.0157009
866.225	0.0157907
866.303	0.0157557
866.381	0.0157401
866.459	0.0157429
866.538	0.0156824
866.616	0.0156895
866.694	0.0156184
866.772	0.0155557
866.850	0.0156342
866.928	0.0156490
867.006	0.0156475
867.084	0.0154514
867.163	0.0156760
867.241	0.0156638
867.319	0.0155621
867.397	0.0155283
867.475	0.0156218
867.553	0.0157641
867.631	0.0155676
867.709	0.0155058
867.788	0.0156105
867.866	0.0156068
867.944	0.0155625
868.022	0.0154125
868.100	0.0155827
868.178	0.0154732
868.256	0.0153832
868.334	0.0154597
868.413	0.0155231
868.491	0.0154285
868.569	0.0153735
868.647	0.0154889
868.725	0.0154468
868.803	0.0154163
868.881	0.0154137
868.959	0.0154055
869.038	0.0154474
869.116	0.0153859
869.194	0.0154503
869.272	0.0154151
869.350	0.0153432
869.428	0.0153986
869.506	0.0155093
869.584	0.0153059
869.663	0.0154043
869.741	0.0155872
869.819	0.0155177
869.897	0.0154881
869.975	0.0154657
870.053	0.0155114
870.131	0.0155927
870.209	0.0155025
870.288	0.0155224
870.366	0.0155378
870.444	0.0155932
870.522	0.0155625
870.600	0.0155663
870.678	0.0156230
870.756	0.0156128
870.834	0.0155342
870.913	0.0156316
870.991	0.0156516
871.069	0.0155930
871.147	0.0157968
871.225	0.0156747
871.303	0.0156319
871.381	0.0157112
871.459	0.0156273
871.538	0.0157008
871.616	0.0156425
871.694	0.0155427
871.772	0.0155820
871.850	0.0157261
871.928	0.0156598
872.006	0.0156705
872.084	0.0155314
872.163	0.0156310
872.241	0.0156155
872.319	0.0155252
872.397	0.0156415
872.475	0.0156039
872.553	0.0155868
872.631	0.0155534
872.709	0.0156768
872.788	0.0155418
872.866	0.0154832
872.944	0.0155112
873.022	0.0155010
873.100	0.0154816
873.178	0.0154805
873.256	0.0155591
873.334	0.0156693
873.413	0.0155466
873.491	0.0154202
873.569	0.0154472
873.647	0.0154829
873.725	0.0155184
873.803	0.0154699
873.881	0.0154165
873.959	0.0154977
874.038	0.0154593
874.116	0.0155048
874.194	0.0156971
874.272	0.0156023
874.350	0.0154037
874.428	0.0154533
874.506	0.0154885
874.584	0.0155220
874.663	0.0154813
874.741	0.0154873
874.819	0.0155901
874.897	0.0154924
874.975	0.0156594
875.053	0.0154987
875.131	0.0155504
875.209	0.0155575
875.288	0.0155412
875.366	0.0157311
875.444	0.0156664
875.522	0.0156666
875.600	0.0154533
875.678	0.0156432
875.756	0.0156239
875.834	0.0156158
875.913	0.0155308
875.991	0.0155433
876.069	0.0157030
876.147	0.0155693
876.225	0.0154669
876.303	0.0155257
876.381	0.0155543
876.459	0.0156303
876.538	0.0156126
876.616	0.0155701
876.694	0.0156107
876.772	0.0154633
876.850	0.0156194
876.928	0.0155049
877.006	0.0155037
877.084	0.0156091
877.163	0.0155003
877.241	0.0154860
877.319	0.0155363
877.397	0.0154510
877.475	0.0155386
877.553	0.0156370
877.631	0.0155439
877.709	0.0155736
877.788	0.0155042
877.866	0.0153040
877.944	0.0155489
878.022	0.0155257
878.100	0.0155132
878.178	0.0155223
878.256	0.0155788
878.334	0.0155940
878.413	0.0155930
878.491	0.0154755
878.569	0.0156252
878.647	0.0155135
878.725	0.0155518
878.803	0.0156042
878.881	0.0156552
878.959	0.0156930
879.038	0.0155734
879.116	0.0156599
879.194	0.0156642
879.272	0.0157187
879.350	0.0157698
879.428	0.0157710
879.506	0.0156560
879.584	0.0157094
879.663	0.0157727
879.741	0.0158995
879.819	0.0156992
879.897	0.0156801
879.975	0.0158444
880.053	0.0159277
880.131	0.0157394
880.209	0.0157530
880.288	0.0155802
880.366	0.0156316
880.444	0.0155803
880.522	0.0155954
880.600	0.0156808
880.678	0.0155707
880.756	0.0156289
880.834	0.0155971
880.913	0.0156172
880.991	0.0155245
881.069	0.0155630
881.147	0.0153948
881.225	0.0155537
881.303	0.0155087
881.381	0.0154757
881.459	0.0155505
881.538	0.0155322
881.616	0.0155819
881.694	0.0156425
881.772	0.0156339
881.850	0.0156439
881.928	0.0154980
882.006	0.0156197
882.084	0.0156242
882.163	0.0156442
882.241	0.0155738
882.319	0.0155988
882.397	0.0157210
882.475	0.0156918
882.553	0.0155983
882.631	0.0156937
882.709	0.0158749
882.788	0.0157690
882.866	0.0157160
882.944	0.0157374
883.022	0.0156615
883.100	0.0157141
883.178	0.0157071
883.256	0.0156887
883.334	0.0156955
883.413	0.0157134
883.491	0.0157314
883.569	0.0156821
883.647	0.0157716
883.725	0.0156560
883.803	0.0156391
883.881	0.0156522
883.959	0.0157169
884.038	0.0155460
884.116	0.0156116
884.194	0.0155594
884.272	0.0156984
884.350	0.0156554
884.428	0.0155550
884.506	0.0156508
884.584	0.0155879
884.663	0.0155965
884.741	0.0155680
884.819	0.0154690
884.897	0.0156672
884.975	0.0155695
885.053	0.0156397
885.131	0.0157003
885.209	0.0156168
885.288	0.0156017
885.366	0.0155300
885.444	0.0155816
885.522	0.0155617
885.600	0.0155048
885.678	0.0156494
885.756	0.0156194
885.834	0.0155432
885.913	0.0155992
885.991	0.0155411
886.069	0.0154555
886.147	0.0155370
886.225	0.0154888
886.303	0.0154830
886.381	0.0155617
886.459	0.0155064
886.538	0.0154786
886.616	0.0154778
886.694	0.0153868
886.772	0.0154491
886.850	0.0154102
886.928	0.0154121
887.006	0.0155624
887.084	0.0154777
887.163	0.0155727
887.241	0.0154999
887.319	0.0154713
887.397	0.0154706
887.475	0.0155637
887.553	0.0156973
887.631	0.0156103
887.709	0.0154339
887.788	0.0155999
887.866	0.0155239
887.944	0.0155724
888.022	0.0155326
888.100	0.0155971
888.178	0.0157050
888.256	0.0156002
888.334	0.0156335
888.413	0.0158514
888.491	0.0156063
888.569	0.0156747
888.647	0.0158086
888.725	0.0156802
888.803	0.0156230
888.881	0.0158830
888.959	0.0159035
889.038	0.0158955
889.116	0.0157577
889.194	0.0156918
889.272	0.0156985
889.350	0.0157948
889.428	0.0157988
889.506	0.0158024
889.584	0.0158724
889.663	0.0157468
889.741	0.0157128
889.819	0.0157408
889.897	0.0157596
889.975	0.0156761
890.053	0.0155105
890.131	0.0154478
890.209	0.0155898
890.288	0.0154468
890.366	0.0154890
890.444	0.0155805
890.522	0.0155608
890.600	0.0153426
890.678	0.0155370
890.756	0.0156244
890.834	0.0154143
890.913	0.0153387
890.991	0.0154562
891.069	0.0154333
891.147	0.0155667
891.225	0.0155549
891.303	0.0153690
891.381	0.0155821
891.459	0.0155532
891.538	0.0156064
891.616	0.0155765
891.694	0.0156605
891.772	0.0155986
891.850	0.0157647
891.928	0.0156586
892.006	0.0156902
892.084	0.0157328
892.163	0.0158237
892.241	0.0155610
892.319	0.0156688
892.397	0.0156905
892.475	0.0157681
892.553	0.0157481
892.631	0.0157720
892.709	0.0155331
892.788	0.0156798
892.866	0.0155966
892.944	0.0155576
893.022	0.0154324
893.100	0.0154243
893.178	0.0153620
893.256	0.0153907
893.334	0.0152709
893.413	0.0153623
893.491	0.0153516
893.569	0.0152586
893.647	0.0152644
893.725	0.0153840
893.803	0.0154124
893.881	0.0152792
893.959	0.0152696
894.038	0.0153507
894.116	0.0154176
894.194	0.0154494
894.272	0.0154630
894.350	0.0154464
894.428	0.0154913
894.506	0.0155278
894.584	0.0155402
894.663	0.0156609
894.741	0.0154299
894.819	0.0155004
894.897	0.0156290
894.975	0.0156057
895.053	0.0156538
895.131	0.0156840
895.209	0.0156128
895.288	0.0155405
895.366	0.0155983
895.444	0.0155360
895.522	0.0156870
895.600	0.0155854
895.678	0.0157146
895.756	0.0157696
895.834	0.0158045
895.913	0.0157669
895.991	0.0154683
896.069	0.0155281
896.147	0.0155237
896.225	0.0155611
896.303	0.0154808
896.381	0.0155456
896.459	0.0153813
896.538	0.0154978
896.616	0.0154580
896.694	0.0154028
896.772	0.0153961
896.850	0.0154457
896.928	0.0154798
897.006	0.0154568
897.084	0.0155022
897.163	0.0154581
897.241	0.0154324
897.319	0.0155912
897.397	0.0154639
897.475	0.0154401
897.553	0.0155404
897.631	0.0155256
897.709	0.0154742
897.788	0.0155399
897.866	0.0155761
897.944	0.0156052
898.022	0.0155622
898.100	0.0156011
898.178	0.0156934
898.256	0.0156557
898.334	0.0155104
898.413	0.0156853
898.491	0.0157310
898.569	0.0156590
898.647	0.0155543
898.725	0.0154574
898.803	0.0154578
898.881	0.0155910
898.959	0.0157050
899.038	0.0154917
899.116	0.0155511
899.194	0.0155329
899.272	0.0155206
899.350	0.0153546
899.428	0.0155212
899.506	0.0153693
899.584	0.0154897
899.663	0.0154762
899.741	0.0153713
899.819	0.0153811
899.897	0.0155405
899.975	0.0155154
900.053	0.0155337
900.131	0.0155285
900.209	0.0154132
900.288	0.0154205
900.366	0.0156259
900.444	0.0156258
900.522	0.0155445
900.600	0.0157037
900.678	0.0155692
900.756	0.0154810
900.834	0.0156025
900.913	0.0156073
900.991	0.0155849
901.069	0.0156316
901.147	0.0155824
901.225	0.0155384
901.303	0.0154747
901.381	0.0155748
901.459	0.0154708
901.538	0.0154884
901.616	0.0154528
901.694	0.0154516
901.772	0.0154294
901.850	0.0154785
901.928	0.0154243
902.006	0.0154279
902.084	0.0153191
902.163	0.0152546
902.241	0.0152316
902.319	0.0154612
902.397	0.0155640
902.475	0.0154334
902.553	0.0155156
902.631	0.0156209
902.709	0.0155593
902.788	0.0154848
902.866	0.0154450
902.944	0.0155098
903.022	0.0155569
903.100	0.0155601
903.178	0.0156212
903.256	0.0156989
903.334	0.0155847
903.413	0.0154733
903.491	0.0156315
903.569	0.0155882
903.647	0.0156806
903.725	0.0156958
903.803	0.0154619
903.881	0.0155390
903.959	0.0156522
904.038	0.0156804
904.116	0.0156229
904.194	0.0155145
904.272	0.0156609
904.350	0.0155730
904.428	0.0155600
904.506	0.0156410
904.584	0.0156904
904.663	0.0154879
904.741	0.0155740
904.819	0.0155529
904.897	0.0155447
904.975	0.0155619
905.053	0.0156452
905.131	0.0155584
905.209	0.0155543
905.288	0.0155711
905.366	0.0155247
905.444	0.0155907
905.522	0.0155611
905.600	0.0155988
905.678	0.0157442
905.756	0.0154736
905.834	0.0155652
905.913	0.0155995
905.991	0.0155725
906.069	0.0156432
906.147	0.0157430
906.225	0.0156709
906.303	0.0154636
906.381	0.0155637
906.459	0.0155598
906.538	0.0155896
906.616	0.0155438
906.694	0.0155278
906.772	0.0155872
906.850	0.0155293
906.928	0.0154942
907.006	0.0156415
907.084	0.0155916
907.163	0.0155132
907.241	0.0155552
907.319	0.0156642
907.397	0.0155756
907.475	0.0156497
907.553	0.0155996
907.631	0.0156995
907.709	0.0155753
907.788	0.0157349
907.866	0.0156740
907.944	0.0155804
908.022	0.0158187
908.100	0.0157637
908.178	0.0158182
908.256	0.0156866
908.334	0.0157573
908.413	0.0158720
908.491	0.0157965
908.569	0.0158381
908.647	0.0158321
908.725	0.0157530
908.803	0.0157737
908.881	0.0158485
908.959	0.0156915
909.038	0.0157735
909.116	0.0158279
909.194	0.0155708
909.272	0.0157207
909.350	0.0158001
909.428	0.0155808
909.506	0.0156306
909.584	0.0156456
909.663	0.0157361
909.741	0.0157614
909.819	0.0155938
909.897	0.0156921
909.975	0.0155853
910.053	0.0155497
910.131	0.0156626
910.209	0.0156364
910.288	0.0155278
910.366	0.0156844
910.444	0.0157022
910.522	0.0158189
910.600	0.0154859
910.678	0.0155934
910.756	0.0156934
910.834	0.0158239
910.913	0.0156713
910.991	0.0157162
911.069	0.0157868
911.147	0.0155542
911.225	0.0157177
911.303	0.0157996
911.381	0.0156855
911.459	0.0156283
911.538	0.0156900
911.616	0.0157372
911.694	0.0156537
911.772	0.0155974
911.850	0.0156719
911.928	0.0155771
912.006	0.0154435
912.084	0.0154517
912.163	0.0156432
912.241	0.0155822
912.319	0.0153816
912.397	0.0155052
912.475	0.0156118
912.553	0.0156330
912.631	0.0154736
912.709	0.0154366
912.788	0.0155614
912.866	0.0155183
912.944	0.0154806
913.022	0.0154694
913.100	0.0156077
913.178	0.0155942
913.256	0.0156631
913.334	0.0155247
913.413	0.0155643
913.491	0.0155116
913.569	0.0154757
913.647	0.0155525
913.725	0.0156328
913.803	0.0154970
913.881	0.0155679
913.959	0.0156136
914.038	0.0154943
914.116	0.0155009
914.194	0.0156059
914.272	0.0156766
914.350	0.0156278
914.428	0.0154923
914.506	0.0156087
914.584	0.0155525
914.663	0.0154990
914.741	0.0155795
914.819	0.0155723
914.897	0.0155449
914.975	0.0154553
915.053	0.0154913
915.131	0.0155853
915.209	0.0155332
915.288	0.0155387
915.366	0.0154844
915.444	0.0156281
915.522	0.0155618
915.600	0.0155583
915.678	0.0155311
915.756	0.0156969
915.834	0.0156738
915.913	0.0156549
915.991	0.0157220
916.069	0.0156513
916.147	0.0154886
916.225	0.0155727
916.303	0.0155703
916.381	0.0156058
916.459	0.0157703
916.538	0.0155817
916.616	0.0156310
916.694	0.0156473
916.772	0.0155116
916.850	0.0155859
916.928	0.0155023
917.006	0.0155179
917.084	0.0155805
917.163	0.0155181
917.241	0.0155117
917.319	0.0155753
917.397	0.0154559
917.475	0.0155431
917.553	0.0156427
917.631	0.0154965
917.709	0.0155816
917.788	0.0155626
917.866	0.0155288
917.944	0.0155767
918.022	0.0156666
918.100	0.0154368
918.178	0.0155144
918.256	0.0156335
918.334	0.0155967
918.413	0.0156031
918.491	0.0156255
918.569	0.0155780
918.647	0.0156945
918.725	0.0156359
918.803	0.0156685
918.881	0.0155917
918.959	0.0154514
919.038	0.0155669
919.116	0.0156425
919.194	0.0156583
919.272	0.0156889
919.350	0.0155608
919.428	0.0155985
919.506	0.0153889
919.584	0.0156206
919.663	0.0156310
919.741	0.0156740
919.819	0.0155833
919.897	0.0156441
