05/20/2022	21:28:09	Ver.	4.1	UNKNOWN
Optical Delay	599.975067	Delta X		0.078125	Sweeps	1	Scan Rate	0/0
Coordinates	Axis 1	NaN	Axis 2	NaN	Axis 3	NaN	Axis 4	NaN	Axis 5	NaN	Axis 6	0.000000
TX Power	0.000000	RX Power	0.000000

599.975	0.0154748
600.053	0.0154153
600.131	0.0155089
600.209	0.0155157
600.288	0.0155524
600.366	0.0153436
600.444	0.0154380
600.522	0.0154301
600.600	0.0153377
600.678	0.0153429
600.756	0.0154484
600.834	0.0154457
600.913	0.0153618
600.991	0.0155022
601.069	0.0154597
601.147	0.0153511
601.225	0.0153367
601.303	0.0154887
601.381	0.0154469
601.459	0.0155500
601.538	0.0155340
601.616	0.0154092
601.694	0.0153905
601.772	0.0154946
601.850	0.0153913
601.928	0.0153123
602.006	0.0153474
602.084	0.0153996
602.163	0.0154033
602.241	0.0153957
602.319	0.0154858
602.397	0.0153632
602.475	0.0154094
602.553	0.0154497
602.631	0.0155270
602.709	0.0153757
602.788	0.0155606
602.866	0.0153869
602.944	0.0154256
603.022	0.0154849
603.100	0.0153992
603.178	0.0154281
603.256	0.0154576
603.334	0.0154113
603.413	0.0154349
603.491	0.0153676
603.569	0.0155172
603.647	0.0154243
603.725	0.0154340
603.803	0.0154507
603.881	0.0155285
603.959	0.0153872
604.038	0.0155308
604.116	0.0155017
604.194	0.0154568
604.272	0.0153388
604.350	0.0155628
604.428	0.0154453
604.506	0.0153823
604.584	0.0154322
604.663	0.0155668
604.741	0.0155286
604.819	0.0154245
604.897	0.0155558
604.975	0.0155800
605.053	0.0154499
605.131	0.0156744
605.209	0.0154665
605.288	0.0154275
605.366	0.0154716
605.444	0.0154514
605.522	0.0154960
605.600	0.0153685
605.678	0.0154156
605.756	0.0154593
605.834	0.0154309
605.913	0.0152694
605.991	0.0153681
606.069	0.0154315
606.147	0.0154852
606.225	0.0155638
606.303	0.0154779
606.381	0.0153921
606.459	0.0155344
606.538	0.0155197
606.616	0.0155025
606.694	0.0153194
606.772	0.0154601
606.850	0.0154980
606.928	0.0153703
607.006	0.0155611
607.084	0.0154777
607.163	0.0155341
607.241	0.0155517
607.319	0.0155611
607.397	0.0154810
607.475	0.0153097
607.553	0.0152939
607.631	0.0155011
607.709	0.0155327
607.788	0.0154166
607.866	0.0153983
607.944	0.0153770
608.022	0.0153941
608.100	0.0154826
608.178	0.0154427
608.256	0.0154250
608.334	0.0153225
608.413	0.0154163
608.491	0.0154807
608.569	0.0154789
608.647	0.0153995
608.725	0.0153452
608.803	0.0152552
608.881	0.0154133
608.959	0.0153047
609.038	0.0153847
609.116	0.0154595
609.194	0.0153597
609.272	0.0153772
609.350	0.0153350
609.428	0.0153585
609.506	0.0154372
609.584	0.0154196
609.663	0.0153379
609.741	0.0153224
609.819	0.0153866
609.897	0.0153477
609.975	0.0153271
610.053	0.0153829
610.131	0.0153381
610.209	0.0154327
610.288	0.0152834
610.366	0.0153568
610.444	0.0154527
610.522	0.0153229
610.600	0.0155201
610.678	0.0154527
610.756	0.0154224
610.834	0.0153437
610.913	0.0154959
610.991	0.0153479
611.069	0.0154567
611.147	0.0154517
611.225	0.0153363
611.303	0.0154800
611.381	0.0154475
611.459	0.0151138
611.538	0.0153795
611.616	0.0153696
611.694	0.0154474
611.772	0.0153922
611.850	0.0154209
611.928	0.0152991
612.006	0.0153211
612.084	0.0153159
612.163	0.0155031
612.241	0.0153798
612.319	0.0152280
612.397	0.0152211
612.475	0.0154333
612.553	0.0153098
612.631	0.0152778
612.709	0.0152869
612.788	0.0152983
612.866	0.0153408
612.944	0.0154000
613.022	0.0154518
613.100	0.0153857
613.178	0.0154138
613.256	0.0153319
613.334	0.0153020
613.413	0.0153236
613.491	0.0153776
613.569	0.0155182
613.647	0.0152827
613.725	0.0154012
613.803	0.0152890
613.881	0.0154896
613.959	0.0154617
614.038	0.0152780
614.116	0.0153853
614.194	0.0152798
614.272	0.0154668
614.350	0.0154075
614.428	0.0153705
614.506	0.0154150
614.584	0.0153774
614.663	0.0154485
614.741	0.0153674
614.819	0.0153275
614.897	0.0154315
614.975	0.0154695
615.053	0.0154063
615.131	0.0154284
615.209	0.0153722
615.288	0.0153886
615.366	0.0153757
615.444	0.0153802
615.522	0.0154556
615.600	0.0153571
615.678	0.0154099
615.756	0.0152922
615.834	0.0154003
615.913	0.0153699
615.991	0.0153327
616.069	0.0153989
616.147	0.0155421
616.225	0.0154014
616.303	0.0153161
616.381	0.0154491
616.459	0.0155401
616.538	0.0154408
616.616	0.0154651
616.694	0.0154157
616.772	0.0154004
616.850	0.0152758
616.928	0.0153610
617.006	0.0153326
617.084	0.0153383
617.163	0.0153822
617.241	0.0154676
617.319	0.0154076
617.397	0.0153637
617.475	0.0154361
617.553	0.0152824
617.631	0.0153928
617.709	0.0153669
617.788	0.0154309
617.866	0.0153756
617.944	0.0153840
618.022	0.0153677
618.100	0.0154228
618.178	0.0153564
618.256	0.0153779
618.334	0.0153486
618.413	0.0154070
618.491	0.0153474
618.569	0.0153899
618.647	0.0152496
618.725	0.0153088
618.803	0.0153260
618.881	0.0153297
618.959	0.0153688
619.038	0.0154005
619.116	0.0153012
619.194	0.0153290
619.272	0.0153564
619.350	0.0153825
619.428	0.0153462
619.506	0.0154803
619.584	0.0153681
619.663	0.0153757
619.741	0.0153763
619.819	0.0153467
619.897	0.0154640
619.975	0.0153963
620.053	0.0153941
620.131	0.0153642
620.209	0.0155624
620.288	0.0153819
620.366	0.0154391
620.444	0.0153228
620.522	0.0153832
620.600	0.0153714
620.678	0.0153653
620.756	0.0154858
620.834	0.0154732
620.913	0.0153336
620.991	0.0154312
621.069	0.0154204
621.147	0.0155120
621.225	0.0154568
621.303	0.0155129
621.381	0.0153143
621.459	0.0154250
621.538	0.0153287
621.616	0.0154298
621.694	0.0153238
621.772	0.0153403
621.850	0.0153159
621.928	0.0153461
622.006	0.0153346
622.084	0.0154694
622.163	0.0154060
622.241	0.0154773
622.319	0.0155541
622.397	0.0155477
622.475	0.0154874
622.553	0.0155405
622.631	0.0155621
622.709	0.0154916
622.788	0.0155681
622.866	0.0154263
622.944	0.0154906
623.022	0.0154333
623.100	0.0154707
623.178	0.0155699
623.256	0.0155534
623.334	0.0153376
623.413	0.0153939
623.491	0.0154961
623.569	0.0154752
623.647	0.0155077
623.725	0.0152266
623.803	0.0155842
623.881	0.0155814
623.959	0.0153808
624.038	0.0154001
624.116	0.0154586
624.194	0.0155060
624.272	0.0153328
624.350	0.0154556
624.428	0.0154570
624.506	0.0154997
624.584	0.0155939
624.663	0.0155423
624.741	0.0155225
624.819	0.0153795
624.897	0.0154990
624.975	0.0153520
625.053	0.0156986
625.131	0.0155252
625.209	0.0154336
625.288	0.0156208
625.366	0.0154311
625.444	0.0154420
625.522	0.0155323
625.600	0.0154936
625.678	0.0153645
625.756	0.0154672
625.834	0.0153165
625.913	0.0155045
625.991	0.0155615
626.069	0.0154526
626.147	0.0153491
626.225	0.0154018
626.303	0.0154488
626.381	0.0151939
626.459	0.0152742
626.538	0.0153851
626.616	0.0153649
626.694	0.0152540
626.772	0.0154390
626.850	0.0154125
626.928	0.0153453
627.006	0.0154491
627.084	0.0154681
627.163	0.0153992
627.241	0.0151824
627.319	0.0153740
627.397	0.0154576
627.475	0.0153192
627.553	0.0152920
627.631	0.0154160
627.709	0.0152499
627.788	0.0153287
627.866	0.0153141
627.944	0.0153534
628.022	0.0153903
628.100	0.0153665
628.178	0.0154949
628.256	0.0152551
628.334	0.0153646
628.413	0.0154453
628.491	0.0154036
628.569	0.0153038
628.647	0.0154567
628.725	0.0154454
628.803	0.0153668
628.881	0.0154796
628.959	0.0154200
629.038	0.0154066
629.116	0.0154446
629.194	0.0154480
629.272	0.0154317
629.350	0.0154279
629.428	0.0153842
629.506	0.0154683
629.584	0.0154028
629.663	0.0155196
629.741	0.0154858
629.819	0.0156462
629.897	0.0154356
629.975	0.0153584
630.053	0.0155068
630.131	0.0155161
630.209	0.0154353
630.288	0.0154732
630.366	0.0154675
630.444	0.0154334
630.522	0.0155234
630.600	0.0155139
630.678	0.0155534
630.756	0.0154332
630.834	0.0154770
630.913	0.0154174
630.991	0.0154417
631.069	0.0153899
631.147	0.0154540
631.225	0.0154163
631.303	0.0153964
631.381	0.0154147
631.459	0.0155534
631.538	0.0155728
631.616	0.0154728
631.694	0.0154848
631.772	0.0154519
631.850	0.0154372
631.928	0.0154797
632.006	0.0154774
632.084	0.0154957
632.163	0.0155150
632.241	0.0156316
632.319	0.0155077
632.397	0.0154472
632.475	0.0155135
632.553	0.0155059
632.631	0.0156027
632.709	0.0156223
632.788	0.0155699
632.866	0.0154603
632.944	0.0156439
633.022	0.0154672
633.100	0.0154699
633.178	0.0154580
633.256	0.0154245
633.334	0.0155019
633.413	0.0155867
633.491	0.0152755
633.569	0.0154594
633.647	0.0156533
633.725	0.0155363
633.803	0.0154059
633.881	0.0155485
633.959	0.0154869
634.038	0.0154245
634.116	0.0155394
634.194	0.0155202
634.272	0.0155325
634.350	0.0154649
634.428	0.0155453
634.506	0.0155505
634.584	0.0153832
634.663	0.0155963
634.741	0.0154462
634.819	0.0154664
634.897	0.0153992
634.975	0.0154630
635.053	0.0155316
635.131	0.0154331
635.209	0.0155099
635.288	0.0152442
635.366	0.0153870
635.444	0.0154298
635.522	0.0155980
635.600	0.0155607
635.678	0.0152625
635.756	0.0154045
635.834	0.0155602
635.913	0.0154557
635.991	0.0153303
636.069	0.0153654
636.147	0.0153094
636.225	0.0154340
636.303	0.0154321
636.381	0.0153549
636.459	0.0153754
636.538	0.0154904
636.616	0.0153915
636.694	0.0154448
636.772	0.0155462
636.850	0.0154251
636.928	0.0155384
637.006	0.0153628
637.084	0.0154740
637.163	0.0154984
637.241	0.0155155
637.319	0.0154605
637.397	0.0154745
637.475	0.0155093
637.553	0.0154179
637.631	0.0154377
637.709	0.0155293
637.788	0.0155736
637.866	0.0154832
637.944	0.0155994
638.022	0.0154733
638.100	0.0155585
638.178	0.0154710
638.256	0.0152431
638.334	0.0154068
638.413	0.0156726
638.491	0.0155063
638.569	0.0154150
638.647	0.0154415
638.725	0.0153844
638.803	0.0153954
638.881	0.0154620
638.959	0.0154857
639.038	0.0154516
639.116	0.0154896
639.194	0.0154728
639.272	0.0154493
639.350	0.0154631
639.428	0.0152697
639.506	0.0155183
639.584	0.0153325
639.663	0.0154811
639.741	0.0153811
639.819	0.0154063
639.897	0.0153207
639.975	0.0153568
640.053	0.0154600
640.131	0.0153049
640.209	0.0153117
640.288	0.0153058
640.366	0.0153299
640.444	0.0153391
640.522	0.0153678
640.600	0.0153269
640.678	0.0153338
640.756	0.0154266
640.834	0.0154393
640.913	0.0154618
640.991	0.0154788
641.069	0.0152399
641.147	0.0152961
641.225	0.0151774
641.303	0.0155200
641.381	0.0153280
641.459	0.0152843
641.538	0.0153743
641.616	0.0152705
641.694	0.0153867
641.772	0.0153666
641.850	0.0152602
641.928	0.0153300
642.006	0.0154253
642.084	0.0154098
642.163	0.0154153
642.241	0.0152290
642.319	0.0154455
642.397	0.0153510
642.475	0.0153293
642.553	0.0154641
642.631	0.0153102
642.709	0.0152815
642.788	0.0153870
642.866	0.0153592
642.944	0.0152361
643.022	0.0154091
643.100	0.0153561
643.178	0.0153252
643.256	0.0153376
643.334	0.0153332
643.413	0.0153078
643.491	0.0152622
643.569	0.0152638
643.647	0.0152145
643.725	0.0153300
643.803	0.0152691
643.881	0.0153043
643.959	0.0152365
644.038	0.0151788
644.116	0.0153040
644.194	0.0153313
644.272	0.0152646
644.350	0.0152573
644.428	0.0152779
644.506	0.0153575
644.584	0.0153617
644.663	0.0153696
644.741	0.0153305
644.819	0.0155080
644.897	0.0153178
644.975	0.0152072
645.053	0.0151923
645.131	0.0153199
645.209	0.0153491
645.288	0.0153345
645.366	0.0153148
645.444	0.0154974
645.522	0.0153638
645.600	0.0153311
645.678	0.0152627
645.756	0.0152499
645.834	0.0154040
645.913	0.0154816
645.991	0.0153216
646.069	0.0153734
646.147	0.0154876
646.225	0.0153927
646.303	0.0155151
646.381	0.0153325
646.459	0.0154777
646.538	0.0154700
646.616	0.0155624
646.694	0.0154520
646.772	0.0154015
646.850	0.0156729
646.928	0.0155424
647.006	0.0154866
647.084	0.0155316
647.163	0.0154850
647.241	0.0154993
647.319	0.0155252
647.397	0.0155596
647.475	0.0156559
647.553	0.0155528
647.631	0.0154990
647.709	0.0156306
647.788	0.0153889
647.866	0.0154792
647.944	0.0154995
648.022	0.0155515
648.100	0.0154290
648.178	0.0154701
648.256	0.0155667
648.334	0.0154354
648.413	0.0155437
648.491	0.0157398
648.569	0.0155589
648.647	0.0155391
648.725	0.0156393
648.803	0.0155497
648.881	0.0156155
648.959	0.0156016
649.038	0.0154696
649.116	0.0153752
649.194	0.0154710
649.272	0.0155482
649.350	0.0154642
649.428	0.0154491
649.506	0.0156078
649.584	0.0153793
649.663	0.0152821
649.741	0.0154779
649.819	0.0154170
649.897	0.0154141
649.975	0.0152502
650.053	0.0153525
650.131	0.0154057
650.209	0.0153716
650.288	0.0153697
650.366	0.0154041
650.444	0.0152905
650.522	0.0153565
650.600	0.0153930
650.678	0.0154122
650.756	0.0154493
650.834	0.0154494
650.913	0.0153667
650.991	0.0154563
651.069	0.0153231
651.147	0.0154181
651.225	0.0154715
651.303	0.0154081
651.381	0.0154613
651.459	0.0153978
651.538	0.0154262
651.616	0.0153666
651.694	0.0153117
651.772	0.0154515
651.850	0.0154690
651.928	0.0155399
652.006	0.0155756
652.084	0.0155163
652.163	0.0156213
652.241	0.0156098
652.319	0.0156360
652.397	0.0155585
652.475	0.0155222
652.553	0.0155703
652.631	0.0156032
652.709	0.0154895
652.788	0.0155152
652.866	0.0155561
652.944	0.0155373
653.022	0.0154318
653.100	0.0155673
653.178	0.0154969
653.256	0.0155980
653.334	0.0154423
653.413	0.0154766
653.491	0.0154512
653.569	0.0153648
653.647	0.0154394
653.725	0.0153962
653.803	0.0154423
653.881	0.0154601
653.959	0.0153757
654.038	0.0154693
654.116	0.0154505
654.194	0.0153529
654.272	0.0153049
654.350	0.0155740
654.428	0.0154520
654.506	0.0155072
654.584	0.0155518
654.663	0.0155947
654.741	0.0156323
654.819	0.0154214
654.897	0.0154146
654.975	0.0155080
655.053	0.0154534
655.131	0.0153902
655.209	0.0154775
655.288	0.0153629
655.366	0.0153945
655.444	0.0154564
655.522	0.0153598
655.600	0.0152993
655.678	0.0153520
655.756	0.0154523
655.834	0.0153934
655.913	0.0155312
655.991	0.0153307
656.069	0.0154928
656.147	0.0155306
656.225	0.0154990
656.303	0.0153894
656.381	0.0156812
656.459	0.0155878
656.538	0.0156375
656.616	0.0156856
656.694	0.0158273
656.772	0.0157728
656.850	0.0157459
656.928	0.0156654
657.006	0.0155771
657.084	0.0156200
657.163	0.0155121
657.241	0.0153899
657.319	0.0155749
657.397	0.0155773
657.475	0.0155070
657.553	0.0154045
657.631	0.0152202
657.709	0.0153567
657.788	0.0154372
657.866	0.0151562
657.944	0.0151375
658.022	0.0151744
658.100	0.0153111
658.178	0.0151022
658.256	0.0151984
658.334	0.0151675
658.413	0.0151984
658.491	0.0152900
658.569	0.0153880
658.647	0.0155643
658.725	0.0154342
658.803	0.0154990
658.881	0.0155487
658.959	0.0155964
659.038	0.0156821
659.116	0.0156525
659.194	0.0156513
659.272	0.0156815
659.350	0.0156537
659.428	0.0157942
659.506	0.0156706
659.584	0.0157877
659.663	0.0156999
659.741	0.0156290
659.819	0.0156330
659.897	0.0156033
659.975	0.0153838
660.053	0.0152679
660.131	0.0154758
660.209	0.0152827
660.288	0.0151565
660.366	0.0150435
660.444	0.0148981
660.522	0.0149498
660.600	0.0148889
660.678	0.0147607
660.756	0.0148067
660.834	0.0147109
660.913	0.0145523
660.991	0.0147388
661.069	0.0148093
661.147	0.0149256
661.225	0.0147874
661.303	0.0150288
661.381	0.0150945
661.459	0.0151942
661.538	0.0153357
661.616	0.0152316
661.694	0.0153242
661.772	0.0156203
661.850	0.0156852
661.928	0.0158204
662.006	0.0158546
662.084	0.0161344
662.163	0.0160877
662.241	0.0162888
662.319	0.0161801
662.397	0.0160577
662.475	0.0162777
662.553	0.0162204
662.631	0.0162409
662.709	0.0160070
662.788	0.0160341
662.866	0.0158714
662.944	0.0158428
663.022	0.0156776
663.100	0.0157278
663.178	0.0155226
663.256	0.0153162
663.334	0.0151970
663.413	0.0152135
663.491	0.0150607
663.569	0.0150421
663.647	0.0149700
663.725	0.0147926
663.803	0.0147749
663.881	0.0146875
663.959	0.0145927
664.038	0.0144381
664.116	0.0144721
664.194	0.0145550
664.272	0.0145653
664.350	0.0145616
664.428	0.0145795
664.506	0.0145364
664.584	0.0146427
664.663	0.0147275
664.741	0.0147681
664.819	0.0148477
664.897	0.0151049
664.975	0.0151354
665.053	0.0153402
665.131	0.0152686
665.209	0.0154395
665.288	0.0155517
665.366	0.0154736
665.444	0.0156350
665.522	0.0155139
665.600	0.0157542
665.678	0.0157835
665.756	0.0157397
665.834	0.0156655
665.913	0.0157179
665.991	0.0156079
666.069	0.0157860
666.147	0.0157919
666.225	0.0157095
666.303	0.0157113
666.381	0.0158007
666.459	0.0158959
666.538	0.0157101
666.616	0.0157565
666.694	0.0158148
666.772	0.0158889
666.850	0.0158190
666.928	0.0157100
667.006	0.0158547
667.084	0.0159640
667.163	0.0158663
667.241	0.0158324
667.319	0.0157713
667.397	0.0159122
667.475	0.0158354
667.553	0.0158488
667.631	0.0159791
667.709	0.0158499
667.788	0.0156611
667.866	0.0157547
667.944	0.0156481
668.022	0.0156416
668.100	0.0155673
668.178	0.0155869
668.256	0.0154288
668.334	0.0153219
668.413	0.0152386
668.491	0.0151814
668.569	0.0149819
668.647	0.0149078
668.725	0.0148209
668.803	0.0146447
668.881	0.0145924
668.959	0.0144026
669.038	0.0142586
669.116	0.0142770
669.194	0.0141396
669.272	0.0141763
669.350	0.0140895
669.428	0.0140665
669.506	0.0141575
669.584	0.0142654
669.663	0.0142466
669.741	0.0142380
669.819	0.0144505
669.897	0.0145403
669.975	0.0145629
670.053	0.0147337
670.131	0.0149276
670.209	0.0152348
670.288	0.0152702
670.366	0.0152328
670.444	0.0155193
670.522	0.0156256
670.600	0.0157488
670.678	0.0158027
670.756	0.0157399
670.834	0.0160023
670.913	0.0159986
670.991	0.0159750
671.069	0.0162199
671.147	0.0160889
671.225	0.0161344
671.303	0.0160799
671.381	0.0160997
671.459	0.0161040
671.538	0.0160773
671.616	0.0160596
671.694	0.0161275
671.772	0.0159401
671.850	0.0160661
671.928	0.0159264
672.006	0.0160111
672.084	0.0159843
672.163	0.0159938
672.241	0.0159456
672.319	0.0158079
672.397	0.0159216
672.475	0.0159144
672.553	0.0156898
672.631	0.0157301
672.709	0.0157055
672.788	0.0157745
672.866	0.0157127
672.944	0.0156137
673.022	0.0155029
673.100	0.0155197
673.178	0.0153852
673.256	0.0153618
673.334	0.0154453
673.413	0.0153423
673.491	0.0152090
673.569	0.0151061
673.647	0.0150515
673.725	0.0148938
673.803	0.0147910
673.881	0.0147789
673.959	0.0145590
674.038	0.0146737
674.116	0.0145908
674.194	0.0144114
674.272	0.0143790
674.350	0.0143947
674.428	0.0144212
674.506	0.0143541
674.584	0.0141751
674.663	0.0141572
674.741	0.0142367
674.819	0.0140852
674.897	0.0141463
674.975	0.0142621
675.053	0.0144781
675.131	0.0143142
675.209	0.0145670
675.288	0.0146538
675.366	0.0147340
675.444	0.0148869
675.522	0.0148708
675.600	0.0150188
675.678	0.0153542
675.756	0.0154771
675.834	0.0155029
675.913	0.0157069
675.991	0.0158712
676.069	0.0159544
676.147	0.0160966
676.225	0.0162290
676.303	0.0164960
676.381	0.0166758
676.459	0.0168926
676.538	0.0169379
676.616	0.0169344
676.694	0.0172153
676.772	0.0171918
676.850	0.0172537
676.928	0.0173698
677.006	0.0172064
677.084	0.0173390
677.163	0.0173514
677.241	0.0170755
677.319	0.0170789
677.397	0.0170467
677.475	0.0167667
677.553	0.0166799
677.631	0.0165889
677.709	0.0163407
677.788	0.0163606
677.866	0.0160642
677.944	0.0158500
678.022	0.0154808
678.100	0.0153317
678.178	0.0151903
678.256	0.0149741
678.334	0.0147201
678.413	0.0144614
678.491	0.0143223
678.569	0.0141658
678.647	0.0140109
678.725	0.0138200
678.803	0.0136393
678.881	0.0135023
678.959	0.0135522
679.038	0.0134003
679.116	0.0133741
679.194	0.0134389
679.272	0.0135845
679.350	0.0134265
679.428	0.0135739
679.506	0.0136115
679.584	0.0137410
679.663	0.0139025
679.741	0.0143243
679.819	0.0142702
679.897	0.0144818
679.975	0.0146494
680.053	0.0148362
680.131	0.0151694
680.209	0.0153075
680.288	0.0154118
680.366	0.0156668
680.444	0.0159266
680.522	0.0161751
680.600	0.0164188
680.678	0.0164281
680.756	0.0166893
680.834	0.0169061
680.913	0.0169923
680.991	0.0170535
681.069	0.0171923
681.147	0.0172122
681.225	0.0172189
681.303	0.0172372
681.381	0.0171152
681.459	0.0170735
681.538	0.0169830
681.616	0.0167875
681.694	0.0166677
681.772	0.0166428
681.850	0.0165735
681.928	0.0161618
682.006	0.0161429
682.084	0.0160034
682.163	0.0158332
682.241	0.0156148
682.319	0.0154168
682.397	0.0154671
682.475	0.0152879
682.553	0.0151107
682.631	0.0149669
682.709	0.0149673
682.788	0.0148860
682.866	0.0147641
682.944	0.0147088
683.022	0.0146952
683.100	0.0145987
683.178	0.0145277
683.256	0.0146047
683.334	0.0145662
683.413	0.0146072
683.491	0.0145427
683.569	0.0145298
683.647	0.0146321
683.725	0.0146106
683.803	0.0145831
683.881	0.0145833
683.959	0.0148274
684.038	0.0148969
684.116	0.0149693
684.194	0.0148653
684.272	0.0150717
684.350	0.0151937
684.428	0.0151453
684.506	0.0153643
684.584	0.0154124
684.663	0.0156511
684.741	0.0155058
684.819	0.0154395
684.897	0.0156409
684.975	0.0155626
685.053	0.0155358
685.131	0.0157021
685.209	0.0155337
685.288	0.0156416
685.366	0.0155241
685.444	0.0155635
685.522	0.0155407
685.600	0.0156121
685.678	0.0154894
685.756	0.0156107
685.834	0.0155482
685.913	0.0153640
685.991	0.0154462
686.069	0.0155607
686.147	0.0153726
686.225	0.0153883
686.303	0.0153232
686.381	0.0153384
686.459	0.0153263
686.538	0.0151199
686.616	0.0151352
686.694	0.0151548
686.772	0.0150674
686.850	0.0149558
686.928	0.0149004
687.006	0.0148380
687.084	0.0147642
687.163	0.0147848
687.241	0.0146233
687.319	0.0147432
687.397	0.0147644
687.475	0.0148840
687.553	0.0149068
687.631	0.0149802
687.709	0.0150670
687.788	0.0148756
687.866	0.0150555
687.944	0.0151397
688.022	0.0150658
688.100	0.0150946
688.178	0.0151144
688.256	0.0151891
688.334	0.0151512
688.413	0.0152720
688.491	0.0151395
688.569	0.0152631
688.647	0.0154945
688.725	0.0155962
688.803	0.0154977
688.881	0.0156783
688.959	0.0159022
689.038	0.0159663
689.116	0.0160084
689.194	0.0160256
689.272	0.0161053
689.350	0.0161304
689.428	0.0162375
689.506	0.0162445
689.584	0.0162027
689.663	0.0161733
689.741	0.0160914
689.819	0.0161662
689.897	0.0160783
689.975	0.0159609
690.053	0.0159721
690.131	0.0160158
690.209	0.0159240
690.288	0.0158926
690.366	0.0158669
690.444	0.0158053
690.522	0.0158209
690.600	0.0157552
690.678	0.0155658
690.756	0.0156461
690.834	0.0155780
690.913	0.0155626
690.991	0.0154303
691.069	0.0151952
691.147	0.0151849
691.225	0.0151887
691.303	0.0149162
691.381	0.0148550
691.459	0.0148088
691.538	0.0147913
691.616	0.0147276
691.694	0.0147798
691.772	0.0148067
691.850	0.0147070
691.928	0.0147660
692.006	0.0147092
692.084	0.0148412
692.163	0.0148720
692.241	0.0151037
692.319	0.0151690
692.397	0.0151120
692.475	0.0150787
692.553	0.0152096
692.631	0.0154117
692.709	0.0154190
692.788	0.0152724
692.866	0.0153187
692.944	0.0155020
693.022	0.0154864
693.100	0.0155282
693.178	0.0153793
693.256	0.0154919
693.334	0.0153986
693.413	0.0154852
693.491	0.0155511
693.569	0.0152847
693.647	0.0150824
693.725	0.0150957
693.803	0.0149388
693.881	0.0148936
693.959	0.0147637
694.038	0.0144849
694.116	0.0143398
694.194	0.0142353
694.272	0.0142162
694.350	0.0141495
694.428	0.0141083
694.506	0.0140382
694.584	0.0140894
694.663	0.0140485
694.741	0.0142513
694.819	0.0144106
694.897	0.0146400
694.975	0.0147483
695.053	0.0149437
695.131	0.0150363
695.209	0.0153347
695.288	0.0154157
695.366	0.0156066
695.444	0.0158958
695.522	0.0159847
695.600	0.0161066
695.678	0.0164863
695.756	0.0166174
695.834	0.0166491
695.913	0.0167871
695.991	0.0171403
696.069	0.0170468
696.147	0.0171674
696.225	0.0173514
696.303	0.0173706
696.381	0.0173849
696.459	0.0174967
696.538	0.0173037
696.616	0.0172538
696.694	0.0172202
696.772	0.0170824
696.850	0.0168295
696.928	0.0168396
697.006	0.0166854
697.084	0.0164854
697.163	0.0162898
697.241	0.0160287
697.319	0.0158614
697.397	0.0156046
697.475	0.0153205
697.553	0.0153669
697.631	0.0151006
697.709	0.0148431
697.788	0.0146725
697.866	0.0144382
697.944	0.0143211
698.022	0.0141934
698.100	0.0138953
698.178	0.0136710
698.256	0.0135905
698.334	0.0134025
698.413	0.0134229
698.491	0.0133356
698.569	0.0132705
698.647	0.0130106
698.725	0.0129906
698.803	0.0131740
698.881	0.0132360
698.959	0.0131317
699.038	0.0132281
699.116	0.0132492
699.194	0.0134142
699.272	0.0134223
699.350	0.0134635
699.428	0.0136998
699.506	0.0139696
699.584	0.0140565
699.663	0.0141172
699.741	0.0143575
699.819	0.0147179
699.897	0.0145805
699.975	0.0147130
700.053	0.0150956
700.131	0.0153166
700.209	0.0154502
700.288	0.0156454
700.366	0.0160355
700.444	0.0162891
700.522	0.0165099
700.600	0.0166302
700.678	0.0168739
700.756	0.0171436
700.834	0.0173136
700.913	0.0175865
700.991	0.0176497
701.069	0.0177819
701.147	0.0178719
701.225	0.0180087
701.303	0.0181527
701.381	0.0183149
701.459	0.0180603
701.538	0.0182775
701.616	0.0182074
701.694	0.0180726
701.772	0.0178952
701.850	0.0178955
701.928	0.0175995
702.006	0.0174741
702.084	0.0173283
702.163	0.0170608
702.241	0.0166194
702.319	0.0164344
702.397	0.0161312
702.475	0.0157024
702.553	0.0154449
702.631	0.0151918
702.709	0.0148698
702.788	0.0147083
702.866	0.0142525
702.944	0.0138989
703.022	0.0135676
703.100	0.0134142
703.178	0.0131118
703.256	0.0129800
703.334	0.0126599
703.413	0.0128100
703.491	0.0126974
703.569	0.0125443
703.647	0.0125468
703.725	0.0126855
703.803	0.0126672
703.881	0.0130138
703.959	0.0132182
704.038	0.0133569
704.116	0.0136779
704.194	0.0138744
704.272	0.0142361
704.350	0.0145194
704.428	0.0147665
704.506	0.0151051
704.584	0.0154197
704.663	0.0158231
704.741	0.0158646
704.819	0.0161782
704.897	0.0163847
704.975	0.0162459
705.053	0.0165652
705.131	0.0167271
705.209	0.0167843
705.288	0.0166240
705.366	0.0168116
705.444	0.0166597
705.522	0.0166417
705.600	0.0165765
705.678	0.0162737
705.756	0.0162433
705.834	0.0161638
705.913	0.0161104
705.991	0.0160799
706.069	0.0159325
706.147	0.0157023
706.225	0.0156868
706.303	0.0156118
706.381	0.0156742
706.459	0.0155209
706.538	0.0156817
706.616	0.0155493
706.694	0.0153346
706.772	0.0154283
706.850	0.0155481
706.928	0.0156841
707.006	0.0158678
707.084	0.0156272
707.163	0.0156841
707.241	0.0158237
707.319	0.0157693
707.397	0.0158186
707.475	0.0157784
707.553	0.0157501
707.631	0.0157354
707.709	0.0156480
707.788	0.0155039
707.866	0.0156304
707.944	0.0154971
708.022	0.0153662
708.100	0.0153633
708.178	0.0153036
708.256	0.0153342
708.334	0.0150361
708.413	0.0150266
708.491	0.0150772
708.569	0.0151073
708.647	0.0149261
708.725	0.0147662
708.803	0.0148995
708.881	0.0148297
708.959	0.0149057
709.038	0.0149654
709.116	0.0150852
709.194	0.0151232
709.272	0.0151118
709.350	0.0151905
709.428	0.0154469
709.506	0.0155166
709.584	0.0155351
709.663	0.0157348
709.741	0.0158289
709.819	0.0159393
709.897	0.0159472
709.975	0.0158966
710.053	0.0159814
710.131	0.0161183
710.209	0.0161551
710.288	0.0160450
710.366	0.0160383
710.444	0.0160258
710.522	0.0158831
710.600	0.0158625
710.678	0.0157518
710.756	0.0157532
710.834	0.0156532
710.913	0.0155235
710.991	0.0154664
711.069	0.0152807
711.147	0.0152353
711.225	0.0151517
711.303	0.0150232
711.381	0.0149432
711.459	0.0149266
711.538	0.0148444
711.616	0.0148944
711.694	0.0146875
711.772	0.0148366
711.850	0.0149737
711.928	0.0149596
712.006	0.0149825
712.084	0.0152580
712.163	0.0153221
712.241	0.0152890
712.319	0.0154147
712.397	0.0155469
712.475	0.0156692
712.553	0.0156559
712.631	0.0157571
712.709	0.0159475
712.788	0.0158875
712.866	0.0158506
712.944	0.0159612
713.022	0.0158875
713.100	0.0158543
713.178	0.0158900
713.256	0.0158197
713.334	0.0158455
713.413	0.0156849
713.491	0.0157574
713.569	0.0155056
713.647	0.0153098
713.725	0.0153776
713.803	0.0153548
713.881	0.0152787
713.959	0.0152080
714.038	0.0151599
714.116	0.0151847
714.194	0.0150429
714.272	0.0151107
714.350	0.0150669
714.428	0.0151711
714.506	0.0151030
714.584	0.0150756
714.663	0.0151712
714.741	0.0153136
714.819	0.0152900
714.897	0.0154324
714.975	0.0155218
715.053	0.0155924
715.131	0.0156900
715.209	0.0156154
715.288	0.0158339
715.366	0.0159194
715.444	0.0160366
715.522	0.0159559
715.600	0.0159965
715.678	0.0160889
715.756	0.0160122
715.834	0.0158721
715.913	0.0158102
715.991	0.0157209
716.069	0.0157849
716.147	0.0156661
716.225	0.0154115
716.303	0.0154326
716.381	0.0152629
716.459	0.0150995
716.538	0.0150939
716.616	0.0148755
716.694	0.0150161
716.772	0.0149478
716.850	0.0149046
716.928	0.0149540
717.006	0.0149609
717.084	0.0149963
717.163	0.0149722
717.241	0.0150760
717.319	0.0151200
717.397	0.0151064
717.475	0.0152343
717.553	0.0154098
717.631	0.0154342
717.709	0.0155479
717.788	0.0156363
717.866	0.0155846
717.944	0.0157775
718.022	0.0158170
718.100	0.0157565
718.178	0.0157816
718.256	0.0157829
718.334	0.0158398
718.413	0.0157330
718.491	0.0156269
718.569	0.0156227
718.647	0.0156857
718.725	0.0154589
718.803	0.0154103
718.881	0.0153363
718.959	0.0153191
719.038	0.0152752
719.116	0.0151503
719.194	0.0151305
719.272	0.0150926
719.350	0.0152493
719.428	0.0151693
719.506	0.0150376
719.584	0.0151527
719.663	0.0151493
719.741	0.0152273
719.819	0.0153353
719.897	0.0154008
719.975	0.0154769
720.053	0.0154920
720.131	0.0155501
720.209	0.0156854
720.288	0.0155824
720.366	0.0157889
720.444	0.0157542
720.522	0.0157117
720.600	0.0157000
720.678	0.0157761
720.756	0.0156581
720.834	0.0155389
720.913	0.0156033
720.991	0.0156967
721.069	0.0156729
721.147	0.0155000
721.225	0.0153220
721.303	0.0152572
721.381	0.0153482
721.459	0.0151353
721.538	0.0151592
721.616	0.0150313
721.694	0.0150327
721.772	0.0149451
721.850	0.0149413
721.928	0.0147986
722.006	0.0147382
722.084	0.0146529
722.163	0.0148593
722.241	0.0147075
722.319	0.0147463
722.397	0.0148864
722.475	0.0150063
722.553	0.0150494
722.631	0.0150914
722.709	0.0149834
722.788	0.0150672
722.866	0.0152011
722.944	0.0153589
723.022	0.0154340
723.100	0.0154668
723.178	0.0155177
723.256	0.0156613
723.334	0.0157124
723.413	0.0158097
723.491	0.0157369
723.569	0.0159016
723.647	0.0158060
723.725	0.0159491
723.803	0.0159266
723.881	0.0159238
723.959	0.0159983
724.038	0.0161008
724.116	0.0158779
724.194	0.0160532
724.272	0.0161485
724.350	0.0160396
724.428	0.0160727
724.506	0.0161010
724.584	0.0162588
724.663	0.0160818
724.741	0.0161898
724.819	0.0160495
724.897	0.0162022
724.975	0.0160423
725.053	0.0161688
725.131	0.0161813
725.209	0.0161669
725.288	0.0161044
725.366	0.0160016
725.444	0.0160904
725.522	0.0160210
725.600	0.0159552
725.678	0.0158229
725.756	0.0157185
725.834	0.0155110
725.913	0.0153662
725.991	0.0151030
726.069	0.0151589
726.147	0.0149701
726.225	0.0149824
726.303	0.0148466
726.381	0.0146107
726.459	0.0145014
726.538	0.0144532
726.616	0.0142388
726.694	0.0142751
726.772	0.0141618
726.850	0.0141479
726.928	0.0141956
727.006	0.0142654
727.084	0.0141292
727.163	0.0141946
727.241	0.0142712
727.319	0.0142752
727.397	0.0143565
727.475	0.0142891
727.553	0.0144759
727.631	0.0145281
727.709	0.0145470
727.788	0.0146133
727.866	0.0146915
727.944	0.0147485
728.022	0.0148560
728.100	0.0149178
728.178	0.0149400
728.256	0.0150722
728.334	0.0151028
728.413	0.0153278
728.491	0.0154038
728.569	0.0153481
728.647	0.0154172
728.725	0.0157259
728.803	0.0159174
728.881	0.0159887
728.959	0.0161179
729.038	0.0162235
729.116	0.0163297
729.194	0.0165437
729.272	0.0166043
729.350	0.0164526
729.428	0.0167289
729.506	0.0167780
729.584	0.0168252
729.663	0.0168015
729.741	0.0167165
729.819	0.0168401
729.897	0.0167803
729.975	0.0166937
730.053	0.0166973
730.131	0.0164199
730.209	0.0164039
730.288	0.0164107
730.366	0.0161932
730.444	0.0159333
730.522	0.0158186
730.600	0.0157230
730.678	0.0154872
730.756	0.0152946
730.834	0.0151803
730.913	0.0149955
730.991	0.0149060
731.069	0.0148396
731.147	0.0146909
731.225	0.0147283
731.303	0.0146468
731.381	0.0146259
731.459	0.0145952
731.538	0.0146551
731.616	0.0147130
731.694	0.0148143
731.772	0.0148757
731.850	0.0149378
731.928	0.0149928
732.006	0.0151391
732.084	0.0153399
732.163	0.0152356
732.241	0.0152228
732.319	0.0152430
732.397	0.0152879
732.475	0.0154960
732.553	0.0154996
732.631	0.0155021
732.709	0.0155117
732.788	0.0154758
732.866	0.0155303
732.944	0.0156641
733.022	0.0157137
733.100	0.0154394
733.178	0.0155914
733.256	0.0154846
733.334	0.0154797
733.413	0.0154185
733.491	0.0155064
733.569	0.0155917
733.647	0.0154537
733.725	0.0154536
733.803	0.0155252
733.881	0.0156243
733.959	0.0155122
734.038	0.0154791
734.116	0.0155952
734.194	0.0154967
734.272	0.0154317
734.350	0.0155912
734.428	0.0154809
734.506	0.0155586
734.584	0.0154594
734.663	0.0155184
734.741	0.0153078
734.819	0.0155521
734.897	0.0155447
734.975	0.0153823
735.053	0.0155441
735.131	0.0154976
735.209	0.0154387
735.288	0.0153450
735.366	0.0150889
735.444	0.0152138
735.522	0.0153129
735.600	0.0154288
735.678	0.0152441
735.756	0.0151794
735.834	0.0153050
735.913	0.0152402
735.991	0.0153092
736.069	0.0152662
736.147	0.0154897
736.225	0.0154530
736.303	0.0153960
736.381	0.0153916
736.459	0.0155798
736.538	0.0155120
736.616	0.0155623
736.694	0.0154472
736.772	0.0154623
736.850	0.0155434
736.928	0.0155266
737.006	0.0153667
737.084	0.0152808
737.163	0.0152305
737.241	0.0153036
737.319	0.0151694
737.397	0.0152291
737.475	0.0149332
737.553	0.0149393
737.631	0.0147834
737.709	0.0147791
737.788	0.0149561
737.866	0.0148547
737.944	0.0149046
738.022	0.0147699
738.100	0.0148884
738.178	0.0149977
738.256	0.0151153
738.334	0.0151192
738.413	0.0152020
738.491	0.0153789
738.569	0.0153965
738.647	0.0156064
738.725	0.0155803
738.803	0.0158170
738.881	0.0160141
738.959	0.0162577
739.038	0.0163033
739.116	0.0164052
739.194	0.0164993
739.272	0.0165612
739.350	0.0166833
739.428	0.0166063
739.506	0.0167516
739.584	0.0166800
739.663	0.0166811
739.741	0.0165773
739.819	0.0166605
739.897	0.0165321
739.975	0.0164098
740.053	0.0163898
740.131	0.0161967
740.209	0.0160104
740.288	0.0158307
740.366	0.0157056
740.444	0.0153749
740.522	0.0154646
740.600	0.0153684
740.678	0.0152127
740.756	0.0149706
740.834	0.0149170
740.913	0.0148508
740.991	0.0147331
741.069	0.0145071
741.147	0.0144138
741.225	0.0143106
741.303	0.0141682
741.381	0.0143191
741.459	0.0142468
741.538	0.0141857
741.616	0.0141904
741.694	0.0142150
741.772	0.0142408
741.850	0.0141766
741.928	0.0143443
742.006	0.0143758
742.084	0.0143508
742.163	0.0144724
742.241	0.0146652
742.319	0.0147270
742.397	0.0147539
742.475	0.0147294
742.553	0.0150346
742.631	0.0151172
742.709	0.0152432
742.788	0.0155222
742.866	0.0154974
742.944	0.0156170
743.022	0.0156728
743.100	0.0158513
743.178	0.0160256
743.256	0.0161732
743.334	0.0163502
743.413	0.0163425
743.491	0.0164801
743.569	0.0167432
743.647	0.0165304
743.725	0.0165439
743.803	0.0167712
743.881	0.0168862
743.959	0.0167530
744.038	0.0167950
744.116	0.0166368
744.194	0.0165906
744.272	0.0165597
744.350	0.0164098
744.428	0.0163126
744.506	0.0162118
744.584	0.0161392
744.663	0.0158555
744.741	0.0157717
744.819	0.0157455
744.897	0.0155591
744.975	0.0153542
745.053	0.0152139
745.131	0.0151780
745.209	0.0149615
745.288	0.0147453
745.366	0.0147124
745.444	0.0147344
745.522	0.0146809
745.600	0.0145385
745.678	0.0143880
745.756	0.0145413
745.834	0.0145359
745.913	0.0144481
745.991	0.0144231
746.069	0.0146725
746.147	0.0145750
746.225	0.0146883
746.303	0.0146986
746.381	0.0147719
746.459	0.0149455
746.538	0.0150409
746.616	0.0152187
746.694	0.0150437
746.772	0.0150202
746.850	0.0153122
746.928	0.0154984
747.006	0.0153722
747.084	0.0153571
747.163	0.0154166
747.241	0.0154513
747.319	0.0154655
747.397	0.0155820
747.475	0.0157219
747.553	0.0156973
747.631	0.0156120
747.709	0.0155701
747.788	0.0155463
747.866	0.0156787
747.944	0.0156794
748.022	0.0157143
748.100	0.0155410
748.178	0.0157778
748.256	0.0156224
748.334	0.0156178
748.413	0.0156960
748.491	0.0153167
748.569	0.0155741
748.647	0.0156392
748.725	0.0156523
748.803	0.0156626
748.881	0.0157468
748.959	0.0155836
749.038	0.0156224
749.116	0.0157133
749.194	0.0157642
749.272	0.0157597
749.350	0.0155438
749.428	0.0158245
749.506	0.0158086
749.584	0.0156273
749.663	0.0157214
749.741	0.0156837
749.819	0.0155186
749.897	0.0155146
749.975	0.0154722
750.053	0.0155196
750.131	0.0154292
750.209	0.0151960
750.288	0.0152011
750.366	0.0152516
750.444	0.0151604
750.522	0.0151395
750.600	0.0150636
750.678	0.0149841
750.756	0.0148245
750.834	0.0149591
750.913	0.0149375
750.991	0.0149225
751.069	0.0147554
751.147	0.0148080
751.225	0.0149741
751.303	0.0149179
751.381	0.0149310
751.459	0.0147991
751.538	0.0148353
751.616	0.0148524
751.694	0.0148666
751.772	0.0148967
751.850	0.0149969
751.928	0.0150979
752.006	0.0151462
752.084	0.0152608
752.163	0.0153881
752.241	0.0154638
752.319	0.0155727
752.397	0.0155894
752.475	0.0159088
752.553	0.0157683
752.631	0.0160004
752.709	0.0162704
752.788	0.0163526
752.866	0.0164603
752.944	0.0165982
753.022	0.0166479
753.100	0.0167040
753.178	0.0167168
753.256	0.0166777
753.334	0.0167576
753.413	0.0166686
753.491	0.0166046
753.569	0.0163831
753.647	0.0162830
753.725	0.0160800
753.803	0.0158396
753.881	0.0155623
753.959	0.0154269
754.038	0.0152820
754.116	0.0149127
754.194	0.0146950
754.272	0.0146666
754.350	0.0144722
754.428	0.0144949
754.506	0.0142896
754.584	0.0141882
754.663	0.0142736
754.741	0.0142942
754.819	0.0142906
754.897	0.0145121
754.975	0.0145065
755.053	0.0146227
755.131	0.0148381
755.209	0.0149326
755.288	0.0151550
755.366	0.0152868
755.444	0.0156646
755.522	0.0157118
755.600	0.0158047
755.678	0.0161048
755.756	0.0160059
755.834	0.0161221
755.913	0.0162117
755.991	0.0161373
756.069	0.0160457
756.147	0.0160605
756.225	0.0160375
756.303	0.0158598
756.381	0.0159052
756.459	0.0156303
756.538	0.0155979
756.616	0.0155463
756.694	0.0152350
756.772	0.0153646
756.850	0.0152778
756.928	0.0152227
757.006	0.0152342
757.084	0.0151045
757.163	0.0152327
757.241	0.0152550
757.319	0.0150555
757.397	0.0152900
757.475	0.0152270
757.553	0.0152392
757.631	0.0153400
757.709	0.0153749
757.788	0.0154922
757.866	0.0153639
757.944	0.0155188
758.022	0.0155293
758.100	0.0154205
758.178	0.0155326
758.256	0.0155780
758.334	0.0153561
758.413	0.0154800
758.491	0.0154160
758.569	0.0150311
758.647	0.0151283
758.725	0.0149287
758.803	0.0148539
758.881	0.0146900
758.959	0.0146369
759.038	0.0146545
759.116	0.0146509
759.194	0.0145189
759.272	0.0145625
759.350	0.0144317
759.428	0.0145031
759.506	0.0144501
759.584	0.0145788
759.663	0.0147154
759.741	0.0148569
759.819	0.0149292
759.897	0.0151461
759.975	0.0152919
760.053	0.0153819
760.131	0.0155563
760.209	0.0158281
760.288	0.0160660
760.366	0.0162170
760.444	0.0163176
760.522	0.0165138
760.600	0.0165741
760.678	0.0166135
760.756	0.0167720
760.834	0.0167217
760.913	0.0167321
760.991	0.0169248
761.069	0.0165946
761.147	0.0165311
761.225	0.0164433
761.303	0.0163690
761.381	0.0162337
761.459	0.0159218
761.538	0.0160107
761.616	0.0157463
761.694	0.0156770
761.772	0.0154659
761.850	0.0151655
761.928	0.0150259
762.006	0.0148405
762.084	0.0146894
762.163	0.0146574
762.241	0.0146690
762.319	0.0145184
762.397	0.0146245
762.475	0.0144804
762.553	0.0144863
762.631	0.0145889
762.709	0.0147074
762.788	0.0147424
762.866	0.0146655
762.944	0.0148488
763.022	0.0149328
763.100	0.0151105
763.178	0.0150883
763.256	0.0151776
763.334	0.0152579
763.413	0.0152688
763.491	0.0154813
763.569	0.0154132
763.647	0.0155592
763.725	0.0157044
763.803	0.0157888
763.881	0.0157703
763.959	0.0159196
764.038	0.0159560
764.116	0.0159300
764.194	0.0159097
764.272	0.0159660
764.350	0.0160784
764.428	0.0160168
764.506	0.0159129
764.584	0.0159486
764.663	0.0158337
764.741	0.0159879
764.819	0.0157703
764.897	0.0155995
764.975	0.0155715
765.053	0.0156728
765.131	0.0155892
765.209	0.0154816
765.288	0.0153357
765.366	0.0153342
765.444	0.0150941
765.522	0.0152210
765.600	0.0150568
765.678	0.0148724
765.756	0.0148873
765.834	0.0149596
765.913	0.0147468
765.991	0.0147391
766.069	0.0148243
766.147	0.0147141
766.225	0.0147753
766.303	0.0146630
766.381	0.0147694
766.459	0.0146886
766.538	0.0147395
766.616	0.0147138
766.694	0.0149561
766.772	0.0149419
766.850	0.0150484
766.928	0.0151377
767.006	0.0150556
767.084	0.0153763
767.163	0.0154072
767.241	0.0155379
767.319	0.0155668
767.397	0.0157656
767.475	0.0157096
767.553	0.0158877
767.631	0.0159682
767.709	0.0158918
767.788	0.0157676
767.866	0.0159421
767.944	0.0159339
768.022	0.0159382
768.100	0.0158514
768.178	0.0158179
768.256	0.0158784
768.334	0.0158108
768.413	0.0156342
768.491	0.0156633
768.569	0.0156075
768.647	0.0153916
768.725	0.0154547
768.803	0.0154284
768.881	0.0152029
768.959	0.0151062
769.038	0.0150285
769.116	0.0150954
769.194	0.0150586
769.272	0.0151228
769.350	0.0150597
769.428	0.0150673
769.506	0.0151199
769.584	0.0150817
769.663	0.0151521
769.741	0.0152470
769.819	0.0153069
769.897	0.0154910
769.975	0.0154976
770.053	0.0155411
770.131	0.0156909
770.209	0.0158152
770.288	0.0159001
770.366	0.0158167
770.444	0.0159299
770.522	0.0160111
770.600	0.0159877
770.678	0.0160045
770.756	0.0161861
770.834	0.0159514
770.913	0.0159064
770.991	0.0158125
771.069	0.0159057
771.147	0.0158667
771.225	0.0156110
771.303	0.0154839
771.381	0.0153616
771.459	0.0153358
771.538	0.0153628
771.616	0.0151208
771.694	0.0150246
771.772	0.0149586
771.850	0.0150295
771.928	0.0149606
772.006	0.0149373
772.084	0.0146629
772.163	0.0148492
772.241	0.0149682
772.319	0.0147512
772.397	0.0148955
772.475	0.0149454
772.553	0.0151067
772.631	0.0151152
772.709	0.0150889
772.788	0.0150436
772.866	0.0152738
772.944	0.0150877
773.022	0.0153508
773.100	0.0153539
773.178	0.0153113
773.256	0.0153049
773.334	0.0154756
773.413	0.0154454
773.491	0.0153339
773.569	0.0154483
773.647	0.0153162
773.725	0.0153748
773.803	0.0155802
773.881	0.0155309
773.959	0.0154163
774.038	0.0155309
774.116	0.0155561
774.194	0.0155427
774.272	0.0154986
774.350	0.0154481
774.428	0.0154494
774.506	0.0154459
774.584	0.0155156
774.663	0.0155262
774.741	0.0153614
774.819	0.0154995
774.897	0.0154214
774.975	0.0153687
775.053	0.0155051
775.131	0.0154945
775.209	0.0154646
775.288	0.0152637
775.366	0.0153915
775.444	0.0153849
775.522	0.0152921
775.600	0.0151564
775.678	0.0151584
775.756	0.0153007
775.834	0.0153030
775.913	0.0152341
775.991	0.0150759
776.069	0.0151053
776.147	0.0151400
776.225	0.0153628
776.303	0.0152451
776.381	0.0151362
776.459	0.0152145
776.538	0.0151637
776.616	0.0152249
776.694	0.0153186
776.772	0.0153285
776.850	0.0154243
776.928	0.0154506
777.006	0.0155209
777.084	0.0155814
777.163	0.0154741
777.241	0.0154848
777.319	0.0156012
777.397	0.0156590
777.475	0.0155860
777.553	0.0156479
777.631	0.0157450
777.709	0.0157468
777.788	0.0156900
777.866	0.0157145
777.944	0.0156599
778.022	0.0158542
778.100	0.0157355
778.178	0.0158305
778.256	0.0157825
778.334	0.0156634
778.413	0.0157108
778.491	0.0157445
778.569	0.0157550
778.647	0.0157005
778.725	0.0155752
778.803	0.0156705
778.881	0.0156620
778.959	0.0157544
779.038	0.0155148
779.116	0.0156057
779.194	0.0156514
779.272	0.0154858
779.350	0.0154214
779.428	0.0156427
779.506	0.0154941
779.584	0.0154601
779.663	0.0154436
779.741	0.0155600
779.819	0.0155496
779.897	0.0154537
779.975	0.0154479
780.053	0.0153647
780.131	0.0152608
780.209	0.0155341
780.288	0.0153492
780.366	0.0152262
780.444	0.0153106
780.522	0.0152589
780.600	0.0152880
780.678	0.0153183
780.756	0.0152129
780.834	0.0152650
780.913	0.0150588
780.991	0.0152282
781.069	0.0152134
781.147	0.0152399
781.225	0.0151080
781.303	0.0149583
781.381	0.0150465
781.459	0.0150433
781.538	0.0150595
781.616	0.0151172
781.694	0.0148682
781.772	0.0149801
781.850	0.0150349
781.928	0.0148828
782.006	0.0149383
782.084	0.0149907
782.163	0.0149381
782.241	0.0151044
782.319	0.0149202
782.397	0.0148831
782.475	0.0150040
782.553	0.0149825
782.631	0.0151719
782.709	0.0151006
782.788	0.0150951
782.866	0.0153134
782.944	0.0154792
783.022	0.0153975
783.100	0.0154817
783.178	0.0154955
783.256	0.0154802
783.334	0.0155392
783.413	0.0156840
783.491	0.0157035
783.569	0.0155105
783.647	0.0158405
783.725	0.0157143
783.803	0.0156654
783.881	0.0158526
783.959	0.0158511
784.038	0.0157110
784.116	0.0157809
784.194	0.0155877
784.272	0.0156644
784.350	0.0158252
784.428	0.0156805
784.506	0.0156351
784.584	0.0157331
784.663	0.0155817
784.741	0.0156938
784.819	0.0155331
784.897	0.0154831
784.975	0.0156221
785.053	0.0155157
785.131	0.0155114
785.209	0.0155858
785.288	0.0153622
785.366	0.0153655
785.444	0.0155186
785.522	0.0154920
785.600	0.0152958
785.678	0.0152619
785.756	0.0153356
785.834	0.0152780
785.913	0.0153850
785.991	0.0152303
786.069	0.0153026
786.147	0.0154106
786.225	0.0152342
786.303	0.0152575
786.381	0.0151374
786.459	0.0152094
786.538	0.0152776
786.616	0.0152670
786.694	0.0151988
786.772	0.0151641
786.850	0.0153489
786.928	0.0152586
787.006	0.0151682
787.084	0.0151418
787.163	0.0152328
787.241	0.0152090
787.319	0.0150811
787.397	0.0150214
787.475	0.0150806
787.553	0.0151161
787.631	0.0149825
787.709	0.0150660
787.788	0.0151693
787.866	0.0152592
787.944	0.0151434
788.022	0.0151598
788.100	0.0151533
788.178	0.0152715
788.256	0.0153915
788.334	0.0155145
788.413	0.0153778
788.491	0.0153579
788.569	0.0154979
788.647	0.0156463
788.725	0.0156380
788.803	0.0156871
788.881	0.0157149
788.959	0.0158595
789.038	0.0158701
789.116	0.0157816
789.194	0.0157200
789.272	0.0157088
789.350	0.0158377
789.428	0.0157125
789.506	0.0156763
789.584	0.0156474
789.663	0.0156442
789.741	0.0157364
789.819	0.0156041
789.897	0.0154944
789.975	0.0155631
790.053	0.0154335
790.131	0.0153712
790.209	0.0154034
790.288	0.0152003
790.366	0.0151978
790.444	0.0151942
790.522	0.0151749
790.600	0.0151510
790.678	0.0152065
790.756	0.0150486
790.834	0.0150233
790.913	0.0150909
790.991	0.0150882
791.069	0.0151073
791.147	0.0151566
791.225	0.0151937
791.303	0.0152534
791.381	0.0150681
791.459	0.0151585
791.538	0.0151540
791.616	0.0151043
791.694	0.0152196
791.772	0.0151147
791.850	0.0151312
791.928	0.0153850
792.006	0.0153252
792.084	0.0154523
792.163	0.0153368
792.241	0.0155740
792.319	0.0154874
792.397	0.0156184
792.475	0.0155331
792.553	0.0157310
792.631	0.0158690
792.709	0.0159272
792.788	0.0157893
792.866	0.0158909
792.944	0.0159184
793.022	0.0158228
793.100	0.0158201
793.178	0.0161012
793.256	0.0158630
793.334	0.0158971
793.413	0.0160553
793.491	0.0159538
793.569	0.0159174
793.647	0.0158989
793.725	0.0159424
793.803	0.0157891
793.881	0.0156559
793.959	0.0157223
794.038	0.0156577
794.116	0.0155855
794.194	0.0152690
794.272	0.0153677
794.350	0.0153844
794.428	0.0152587
794.506	0.0150557
794.584	0.0150850
794.663	0.0150560
794.741	0.0149036
794.819	0.0148479
794.897	0.0148194
794.975	0.0149018
795.053	0.0148994
795.131	0.0147838
795.209	0.0146072
795.288	0.0146088
795.366	0.0146000
795.444	0.0145567
795.522	0.0145541
795.600	0.0146147
795.678	0.0146004
795.756	0.0146146
795.834	0.0146722
795.913	0.0147840
795.991	0.0148398
796.069	0.0148928
796.147	0.0149368
796.225	0.0151472
796.303	0.0152280
796.381	0.0152222
796.459	0.0152054
796.538	0.0153377
796.616	0.0154524
796.694	0.0154359
796.772	0.0154327
796.850	0.0154272
796.928	0.0156046
797.006	0.0155669
797.084	0.0156793
797.163	0.0157049
797.241	0.0157137
797.319	0.0159368
797.397	0.0158792
797.475	0.0158257
797.553	0.0158706
797.631	0.0159753
797.709	0.0158739
797.788	0.0158753
797.866	0.0159164
797.944	0.0158894
798.022	0.0159361
798.100	0.0158484
798.178	0.0157960
798.256	0.0158465
798.334	0.0158431
798.413	0.0158916
798.491	0.0157112
798.569	0.0158289
798.647	0.0158041
798.725	0.0157189
798.803	0.0155973
798.881	0.0154522
798.959	0.0156469
799.038	0.0155212
799.116	0.0155257
799.194	0.0154932
799.272	0.0153072
799.350	0.0153922
799.428	0.0152164
799.506	0.0150859
799.584	0.0151530
799.663	0.0151179
799.741	0.0150516
799.819	0.0149876
799.897	0.0149992
799.975	0.0150188
800.053	0.0150361
800.131	0.0150388
800.209	0.0150001
800.288	0.0148750
800.366	0.0150079
800.444	0.0151192
800.522	0.0149604
800.600	0.0150323
800.678	0.0152810
800.756	0.0149700
800.834	0.0150908
800.913	0.0153930
800.991	0.0151977
801.069	0.0152745
801.147	0.0152989
801.225	0.0153798
801.303	0.0152054
801.381	0.0153470
801.459	0.0154124
801.538	0.0154626
801.616	0.0153767
801.694	0.0154240
801.772	0.0155156
801.850	0.0156210
801.928	0.0155690
802.006	0.0154265
802.084	0.0156278
802.163	0.0156170
802.241	0.0155424
802.319	0.0155867
802.397	0.0155664
802.475	0.0157144
802.553	0.0155315
802.631	0.0155970
802.709	0.0157030
802.788	0.0155535
802.866	0.0155054
802.944	0.0153902
803.022	0.0155222
803.100	0.0155355
803.178	0.0154699
803.256	0.0154543
803.334	0.0154614
803.413	0.0154075
803.491	0.0152923
803.569	0.0155019
803.647	0.0152765
803.725	0.0152370
803.803	0.0152513
803.881	0.0152667
803.959	0.0152867
804.038	0.0155173
804.116	0.0152552
804.194	0.0152511
804.272	0.0152905
804.350	0.0153539
804.428	0.0153649
804.506	0.0153831
804.584	0.0153120
804.663	0.0152798
804.741	0.0152730
804.819	0.0152647
804.897	0.0151903
804.975	0.0153970
805.053	0.0151739
805.131	0.0152018
805.209	0.0151369
805.288	0.0151881
805.366	0.0151070
805.444	0.0152576
805.522	0.0150336
805.600	0.0151904
805.678	0.0153003
805.756	0.0152464
805.834	0.0152663
805.913	0.0153578
805.991	0.0153895
806.069	0.0152522
806.147	0.0152205
806.225	0.0152364
806.303	0.0153122
806.381	0.0153351
806.459	0.0153137
806.538	0.0153173
806.616	0.0153293
806.694	0.0153017
806.772	0.0153786
806.850	0.0153267
806.928	0.0152858
807.006	0.0153165
807.084	0.0154048
807.163	0.0154273
807.241	0.0153344
807.319	0.0153046
807.397	0.0153106
807.475	0.0152623
807.553	0.0152896
807.631	0.0153409
807.709	0.0153690
807.788	0.0154978
807.866	0.0154936
807.944	0.0155605
808.022	0.0154122
808.100	0.0153299
808.178	0.0153969
808.256	0.0154532
808.334	0.0154604
808.413	0.0154645
808.491	0.0154663
808.569	0.0155713
808.647	0.0155196
808.725	0.0155857
808.803	0.0156855
808.881	0.0157154
808.959	0.0154910
809.038	0.0156230
809.116	0.0156879
809.194	0.0156967
809.272	0.0158082
809.350	0.0157542
809.428	0.0157259
809.506	0.0155465
809.584	0.0156551
809.663	0.0156337
809.741	0.0156393
809.819	0.0156083
809.897	0.0156059
809.975	0.0156033
810.053	0.0155809
810.131	0.0154628
810.209	0.0153832
810.288	0.0154725
810.366	0.0154108
810.444	0.0153685
810.522	0.0152853
810.600	0.0153807
810.678	0.0151252
810.756	0.0151541
810.834	0.0152802
810.913	0.0152238
810.991	0.0153516
811.069	0.0151450
811.147	0.0151953
811.225	0.0153036
811.303	0.0152063
811.381	0.0151308
811.459	0.0151849
811.538	0.0150836
811.616	0.0151882
811.694	0.0152012
811.772	0.0151597
811.850	0.0152174
811.928	0.0152419
812.006	0.0152600
812.084	0.0152047
812.163	0.0152136
812.241	0.0152358
812.319	0.0151580
812.397	0.0153428
812.475	0.0153108
812.553	0.0153053
812.631	0.0153073
812.709	0.0152040
812.788	0.0152966
812.866	0.0153306
812.944	0.0153681
813.022	0.0152389
813.100	0.0154408
813.178	0.0153970
813.256	0.0154314
813.334	0.0156326
813.413	0.0156286
813.491	0.0155375
813.569	0.0154581
813.647	0.0155453
813.725	0.0155056
813.803	0.0155352
813.881	0.0156670
813.959	0.0156578
814.038	0.0156839
814.116	0.0155260
814.194	0.0157109
814.272	0.0156573
814.350	0.0157146
814.428	0.0156470
814.506	0.0156787
814.584	0.0155862
814.663	0.0156947
814.741	0.0156913
814.819	0.0158252
814.897	0.0157101
814.975	0.0156325
815.053	0.0155583
815.131	0.0155460
815.209	0.0156123
815.288	0.0156580
815.366	0.0156237
815.444	0.0155980
815.522	0.0153417
815.600	0.0155760
815.678	0.0154913
815.756	0.0154241
815.834	0.0155034
815.913	0.0153494
815.991	0.0153082
816.069	0.0153552
816.147	0.0153254
816.225	0.0153448
816.303	0.0152662
816.381	0.0153511
816.459	0.0152451
816.538	0.0152338
816.616	0.0151775
816.694	0.0151272
816.772	0.0153261
816.850	0.0152682
816.928	0.0152512
817.006	0.0152580
817.084	0.0153032
817.163	0.0152993
817.241	0.0150606
817.319	0.0152895
817.397	0.0154010
817.475	0.0151490
817.553	0.0151733
817.631	0.0153952
817.709	0.0153010
817.788	0.0152666
817.866	0.0152559
817.944	0.0152718
818.022	0.0154172
818.100	0.0152756
818.178	0.0153731
818.256	0.0153075
818.334	0.0153030
818.413	0.0154085
818.491	0.0153315
818.569	0.0155306
818.647	0.0152525
818.725	0.0153861
818.803	0.0151678
818.881	0.0152954
818.959	0.0153979
819.038	0.0153779
819.116	0.0153931
819.194	0.0152991
819.272	0.0153630
819.350	0.0154288
819.428	0.0153301
819.506	0.0153990
819.584	0.0156187
819.663	0.0155996
819.741	0.0155261
819.819	0.0155503
819.897	0.0155110
819.975	0.0155054
820.053	0.0155780
820.131	0.0156086
820.209	0.0156799
820.288	0.0155346
820.366	0.0157508
820.444	0.0157071
820.522	0.0156174
820.600	0.0155433
820.678	0.0155299
820.756	0.0155972
820.834	0.0157385
820.913	0.0157227
820.991	0.0154234
821.069	0.0155571
821.147	0.0156201
821.225	0.0156016
821.303	0.0154401
821.381	0.0154636
821.459	0.0154488
821.538	0.0154502
821.616	0.0155388
821.694	0.0154948
821.772	0.0154074
821.850	0.0156378
821.928	0.0154646
822.006	0.0153848
822.084	0.0153590
822.163	0.0154757
822.241	0.0155270
822.319	0.0155423
822.397	0.0154343
822.475	0.0153757
822.553	0.0153863
822.631	0.0153831
822.709	0.0153679
822.788	0.0153853
822.866	0.0153513
822.944	0.0152103
823.022	0.0153168
823.100	0.0152431
823.178	0.0151116
823.256	0.0152470
823.334	0.0154533
823.413	0.0151826
823.491	0.0151192
823.569	0.0153223
823.647	0.0153111
823.725	0.0151643
823.803	0.0152850
823.881	0.0151213
823.959	0.0151871
824.038	0.0151349
824.116	0.0150936
824.194	0.0152460
824.272	0.0152834
824.350	0.0152255
824.428	0.0151699
824.506	0.0152666
824.584	0.0153268
824.663	0.0153953
824.741	0.0151649
824.819	0.0152717
824.897	0.0153436
824.975	0.0153294
825.053	0.0154394
825.131	0.0154018
825.209	0.0154586
825.288	0.0153301
825.366	0.0153098
825.444	0.0155760
825.522	0.0153869
825.600	0.0155022
825.678	0.0156300
825.756	0.0155974
825.834	0.0153990
825.913	0.0154034
825.991	0.0154835
826.069	0.0154726
826.147	0.0153637
826.225	0.0153196
826.303	0.0153812
826.381	0.0153340
826.459	0.0152957
826.538	0.0152889
826.616	0.0155338
826.694	0.0153646
826.772	0.0154147
826.850	0.0153733
826.928	0.0153300
827.006	0.0153031
827.084	0.0153957
827.163	0.0152843
827.241	0.0154582
827.319	0.0153258
827.397	0.0153517
827.475	0.0154318
827.553	0.0154704
827.631	0.0151886
827.709	0.0153501
827.788	0.0154385
827.866	0.0153483
827.944	0.0152830
828.022	0.0152959
828.100	0.0152312
828.178	0.0152085
828.256	0.0153381
828.334	0.0153892
828.413	0.0153139
828.491	0.0153848
828.569	0.0153358
828.647	0.0153588
828.725	0.0153376
828.803	0.0153985
828.881	0.0153719
828.959	0.0153761
829.038	0.0154005
829.116	0.0155066
829.194	0.0153732
829.272	0.0153384
829.350	0.0155119
829.428	0.0153420
829.506	0.0154798
829.584	0.0153812
829.663	0.0153342
829.741	0.0153773
829.819	0.0153963
829.897	0.0153618
829.975	0.0155106
830.053	0.0154449
830.131	0.0153008
830.209	0.0155146
830.288	0.0153900
830.366	0.0153010
830.444	0.0153844
830.522	0.0154286
830.600	0.0154395
830.678	0.0153730
830.756	0.0154664
830.834	0.0154335
830.913	0.0153303
830.991	0.0154703
831.069	0.0153644
831.147	0.0153963
831.225	0.0152759
831.303	0.0154236
831.381	0.0153790
831.459	0.0154813
831.538	0.0154738
831.616	0.0153773
831.694	0.0154369
831.772	0.0153850
831.850	0.0154771
831.928	0.0153471
832.006	0.0153722
832.084	0.0154329
832.163	0.0154305
832.241	0.0153284
832.319	0.0153248
832.397	0.0154531
832.475	0.0152650
832.553	0.0153777
832.631	0.0154392
832.709	0.0154830
832.788	0.0154207
832.866	0.0153989
832.944	0.0153742
833.022	0.0154149
833.100	0.0152023
833.178	0.0152667
833.256	0.0154033
833.334	0.0153824
833.413	0.0154153
833.491	0.0153731
833.569	0.0152824
833.647	0.0153155
833.725	0.0154362
833.803	0.0154292
833.881	0.0154960
833.959	0.0154533
834.038	0.0152750
834.116	0.0153539
834.194	0.0151847
834.272	0.0154810
834.350	0.0154771
834.428	0.0152773
834.506	0.0154208
834.584	0.0154273
834.663	0.0155493
834.741	0.0153348
834.819	0.0155154
834.897	0.0154856
834.975	0.0154726
835.053	0.0154887
835.131	0.0155442
835.209	0.0154900
835.288	0.0154354
835.366	0.0155399
835.444	0.0154252
835.522	0.0153629
835.600	0.0155282
835.678	0.0155231
835.756	0.0153973
835.834	0.0153123
835.913	0.0155376
835.991	0.0155677
836.069	0.0155516
836.147	0.0154854
836.225	0.0154394
836.303	0.0154920
836.381	0.0156382
836.459	0.0155950
836.538	0.0154585
836.616	0.0153414
836.694	0.0153294
836.772	0.0154605
836.850	0.0155309
836.928	0.0154838
837.006	0.0153710
837.084	0.0153143
837.163	0.0154463
837.241	0.0153111
837.319	0.0153414
837.397	0.0153454
837.475	0.0152572
837.553	0.0152675
837.631	0.0152498
837.709	0.0154178
837.788	0.0153595
837.866	0.0153300
837.944	0.0152789
838.022	0.0153551
838.100	0.0153352
838.178	0.0152007
838.256	0.0153653
838.334	0.0153483
838.413	0.0154624
838.491	0.0153941
838.569	0.0154633
838.647	0.0154040
838.725	0.0153452
838.803	0.0155684
838.881	0.0154858
838.959	0.0155184
839.038	0.0155161
839.116	0.0155860
839.194	0.0156149
839.272	0.0157415
839.350	0.0155802
839.428	0.0156029
839.506	0.0157123
839.584	0.0158049
839.663	0.0156993
839.741	0.0157137
839.819	0.0158122
839.897	0.0156660
839.975	0.0158003
840.053	0.0158181
840.131	0.0157143
840.209	0.0157471
840.288	0.0157169
840.366	0.0156913
840.444	0.0155207
840.522	0.0155330
840.600	0.0154408
840.678	0.0155393
840.756	0.0155656
840.834	0.0155113
840.913	0.0153472
840.991	0.0153071
841.069	0.0154919
841.147	0.0154486
841.225	0.0154010
841.303	0.0152062
841.381	0.0152029
841.459	0.0152980
841.538	0.0151900
841.616	0.0151669
841.694	0.0151348
841.772	0.0150634
841.850	0.0151683
841.928	0.0151949
842.006	0.0151208
842.084	0.0152186
842.163	0.0151841
842.241	0.0152516
842.319	0.0152274
842.397	0.0151928
842.475	0.0153241
842.553	0.0153053
842.631	0.0154945
842.709	0.0154115
842.788	0.0155051
842.866	0.0153871
842.944	0.0154006
843.022	0.0155490
843.100	0.0154474
843.178	0.0154483
843.256	0.0155245
843.334	0.0155725
843.413	0.0155138
843.491	0.0155076
843.569	0.0154484
843.647	0.0155666
843.725	0.0156738
843.803	0.0155544
843.881	0.0154724
843.959	0.0157274
844.038	0.0157417
844.116	0.0153209
844.194	0.0153954
844.272	0.0154967
844.350	0.0155174
844.428	0.0154050
844.506	0.0155824
844.584	0.0155749
844.663	0.0154919
844.741	0.0155769
844.819	0.0155585
844.897	0.0153025
844.975	0.0154535
845.053	0.0154509
845.131	0.0154804
845.209	0.0154843
845.288	0.0155382
845.366	0.0154330
845.444	0.0154012
845.522	0.0153697
845.600	0.0153600
845.678	0.0154097
845.756	0.0154208
845.834	0.0155090
845.913	0.0153466
845.991	0.0152266
846.069	0.0153475
846.147	0.0154089
846.225	0.0154790
846.303	0.0154273
846.381	0.0153087
846.459	0.0153197
846.538	0.0153453
846.616	0.0153503
846.694	0.0152579
846.772	0.0152428
846.850	0.0151540
846.928	0.0152174
847.006	0.0153864
847.084	0.0150337
847.163	0.0153381
847.241	0.0152048
847.319	0.0152153
847.397	0.0152576
847.475	0.0153854
847.553	0.0153042
847.631	0.0152847
847.709	0.0151843
847.788	0.0154086
847.866	0.0154477
847.944	0.0154281
848.022	0.0154366
848.100	0.0153750
848.178	0.0155262
848.256	0.0153661
848.334	0.0153709
848.413	0.0153773
848.491	0.0153463
848.569	0.0154607
848.647	0.0154402
848.725	0.0155202
848.803	0.0156030
848.881	0.0155794
848.959	0.0155371
849.038	0.0154240
849.116	0.0155507
849.194	0.0154372
849.272	0.0155600
849.350	0.0155674
849.428	0.0154781
849.506	0.0156044
849.584	0.0154042
849.663	0.0154338
849.741	0.0154774
849.819	0.0154128
849.897	0.0153685
849.975	0.0151910
850.053	0.0154006
850.131	0.0153691
850.209	0.0151608
850.288	0.0151878
850.366	0.0152206
850.444	0.0152264
850.522	0.0151714
850.600	0.0151148
850.678	0.0150787
850.756	0.0153046
850.834	0.0151749
850.913	0.0151824
850.991	0.0151882
851.069	0.0149701
851.147	0.0151733
851.225	0.0151390
851.303	0.0151413
851.381	0.0150514
851.459	0.0153012
851.538	0.0152463
851.616	0.0150759
851.694	0.0151875
851.772	0.0153216
851.850	0.0152590
851.928	0.0153863
852.006	0.0153444
852.084	0.0152522
852.163	0.0152944
852.241	0.0152950
852.319	0.0153997
852.397	0.0152640
852.475	0.0151775
852.553	0.0152530
852.631	0.0154087
852.709	0.0154445
852.788	0.0154097
852.866	0.0153369
852.944	0.0154522
853.022	0.0152316
853.100	0.0153464
853.178	0.0154612
853.256	0.0152911
853.334	0.0153448
853.413	0.0153780
853.491	0.0153548
853.569	0.0153916
853.647	0.0154328
853.725	0.0153838
853.803	0.0153945
853.881	0.0154323
853.959	0.0155205
854.038	0.0156226
854.116	0.0155247
854.194	0.0154829
854.272	0.0154246
854.350	0.0155210
854.428	0.0154105
854.506	0.0155640
854.584	0.0154228
854.663	0.0154881
854.741	0.0153679
854.819	0.0154190
854.897	0.0153934
854.975	0.0153503
855.053	0.0153774
855.131	0.0153661
855.209	0.0152409
855.288	0.0151849
855.366	0.0152672
855.444	0.0154656
855.522	0.0153807
855.600	0.0154505
855.678	0.0154292
855.756	0.0154464
855.834	0.0153685
855.913	0.0152440
855.991	0.0154843
856.069	0.0154669
856.147	0.0154949
856.225	0.0155990
856.303	0.0154939
856.381	0.0156566
856.459	0.0156124
856.538	0.0156151
856.616	0.0155759
856.694	0.0157427
856.772	0.0158015
856.850	0.0156136
856.928	0.0157245
857.006	0.0157823
857.084	0.0157188
857.163	0.0157628
857.241	0.0156631
857.319	0.0157153
857.397	0.0156219
857.475	0.0157814
857.553	0.0156436
857.631	0.0155975
857.709	0.0156629
857.788	0.0156204
857.866	0.0154211
857.944	0.0155572
858.022	0.0154945
858.100	0.0155601
858.178	0.0155389
858.256	0.0154039
858.334	0.0154889
858.413	0.0154977
858.491	0.0154312
858.569	0.0153840
858.647	0.0153361
858.725	0.0154030
858.803	0.0153274
858.881	0.0152793
858.959	0.0152623
859.038	0.0153118
859.116	0.0153788
859.194	0.0153471
859.272	0.0152088
859.350	0.0151960
859.428	0.0152011
859.506	0.0150871
859.584	0.0153111
859.663	0.0152605
859.741	0.0153231
859.819	0.0151943
859.897	0.0151910
859.975	0.0152782
860.053	0.0151387
860.131	0.0150665
860.209	0.0152808
860.288	0.0151276
860.366	0.0150645
860.444	0.0151740
860.522	0.0151478
860.600	0.0151811
860.678	0.0152612
860.756	0.0152637
860.834	0.0153297
860.913	0.0153273
860.991	0.0152814
861.069	0.0152609
861.147	0.0153219
861.225	0.0153413
861.303	0.0152340
861.381	0.0152224
861.459	0.0153687
861.538	0.0154786
861.616	0.0153920
861.694	0.0153708
861.772	0.0152789
861.850	0.0154192
861.928	0.0155299
862.006	0.0154858
862.084	0.0154803
862.163	0.0153838
862.241	0.0153988
862.319	0.0155343
862.397	0.0153366
862.475	0.0154252
862.553	0.0154723
862.631	0.0153252
862.709	0.0154521
862.788	0.0155276
862.866	0.0154804
862.944	0.0153526
863.022	0.0154518
863.100	0.0155872
863.178	0.0155553
863.256	0.0155159
863.334	0.0154802
863.413	0.0155805
863.491	0.0155415
863.569	0.0155605
863.647	0.0154250
863.725	0.0153524
863.803	0.0154977
863.881	0.0155291
863.959	0.0153794
864.038	0.0153978
864.116	0.0154791
864.194	0.0155371
864.272	0.0154057
864.350	0.0153256
864.428	0.0154263
864.506	0.0155021
864.584	0.0155091
864.663	0.0154192
864.741	0.0153185
864.819	0.0154131
864.897	0.0154630
864.975	0.0153506
865.053	0.0153820
865.131	0.0154298
865.209	0.0153687
865.288	0.0153396
865.366	0.0153790
865.444	0.0154689
865.522	0.0154240
865.600	0.0153490
865.678	0.0153258
865.756	0.0153019
865.834	0.0153603
865.913	0.0154693
865.991	0.0153403
866.069	0.0153096
866.147	0.0154301
866.225	0.0153988
866.303	0.0154608
866.381	0.0155133
866.459	0.0154456
866.538	0.0154681
866.616	0.0154459
866.694	0.0154016
866.772	0.0154459
866.850	0.0154678
866.928	0.0154561
867.006	0.0155084
867.084	0.0155372
867.163	0.0155981
867.241	0.0156136
867.319	0.0155463
867.397	0.0154810
867.475	0.0154954
867.553	0.0155861
867.631	0.0156989
867.709	0.0156793
867.788	0.0156260
867.866	0.0154121
867.944	0.0156007
868.022	0.0155248
868.100	0.0155882
868.178	0.0154943
868.256	0.0153883
868.334	0.0154585
868.413	0.0155177
868.491	0.0154860
868.569	0.0154755
868.647	0.0153703
868.725	0.0153873
868.803	0.0153003
868.881	0.0152605
868.959	0.0154271
869.038	0.0152734
869.116	0.0153221
869.194	0.0152460
869.272	0.0154169
869.350	0.0153688
869.428	0.0154333
869.506	0.0152948
869.584	0.0151983
869.663	0.0152811
869.741	0.0152064
869.819	0.0151852
869.897	0.0153610
869.975	0.0152251
870.053	0.0153737
870.131	0.0152850
870.209	0.0151501
870.288	0.0152292
870.366	0.0152839
870.444	0.0151385
870.522	0.0152206
870.600	0.0152253
870.678	0.0151407
870.756	0.0153582
870.834	0.0152358
870.913	0.0153682
870.991	0.0153010
871.069	0.0152544
871.147	0.0153945
871.225	0.0152338
871.303	0.0153575
871.381	0.0152850
871.459	0.0154606
871.538	0.0153552
871.616	0.0154662
871.694	0.0154188
871.772	0.0155252
871.850	0.0154440
871.928	0.0155128
872.006	0.0155708
872.084	0.0155392
872.163	0.0154140
872.241	0.0154338
872.319	0.0153575
872.397	0.0154854
872.475	0.0154387
872.553	0.0153284
872.631	0.0154878
872.709	0.0154343
872.788	0.0154913
872.866	0.0154908
872.944	0.0153834
873.022	0.0154017
873.100	0.0154295
873.178	0.0154190
873.256	0.0153887
873.334	0.0154745
873.413	0.0154561
873.491	0.0155006
873.569	0.0153487
873.647	0.0153617
873.725	0.0154987
873.803	0.0153781
873.881	0.0155125
873.959	0.0154369
874.038	0.0155291
874.116	0.0154887
874.194	0.0155135
874.272	0.0155415
874.350	0.0153388
874.428	0.0153268
874.506	0.0154591
874.584	0.0155579
874.663	0.0154585
874.741	0.0154960
874.819	0.0153748
874.897	0.0154012
874.975	0.0154553
875.053	0.0154785
875.131	0.0154155
875.209	0.0153617
875.288	0.0155006
875.366	0.0154668
875.444	0.0154240
875.522	0.0154738
875.600	0.0153973
875.678	0.0155209
875.756	0.0154612
875.834	0.0154442
875.913	0.0154240
875.991	0.0155487
876.069	0.0154718
876.147	0.0153634
876.225	0.0155222
876.303	0.0154752
876.381	0.0155965
876.459	0.0154485
876.538	0.0153249
876.616	0.0155148
876.694	0.0155379
876.772	0.0153769
876.850	0.0154578
876.928	0.0154015
877.006	0.0155095
877.084	0.0154170
877.163	0.0154594
877.241	0.0154512
877.319	0.0154149
877.397	0.0154028
877.475	0.0153824
877.553	0.0153853
877.631	0.0155331
877.709	0.0154111
877.788	0.0154093
877.866	0.0153876
877.944	0.0153555
878.022	0.0152249
878.100	0.0153893
878.178	0.0153664
878.256	0.0153741
878.334	0.0152995
878.413	0.0152959
878.491	0.0153431
878.569	0.0152767
878.647	0.0151888
878.725	0.0152745
878.803	0.0153327
878.881	0.0154309
878.959	0.0151927
879.038	0.0153336
879.116	0.0153281
879.194	0.0153397
879.272	0.0153440
879.350	0.0153954
879.428	0.0154126
879.506	0.0154185
879.584	0.0155971
879.663	0.0154479
879.741	0.0154983
879.819	0.0154664
879.897	0.0154865
879.975	0.0154353
880.053	0.0155827
880.131	0.0156228
880.209	0.0155540
880.288	0.0155591
880.366	0.0156990
880.444	0.0156703
880.522	0.0156849
880.600	0.0157217
880.678	0.0156550
880.756	0.0155659
880.834	0.0155414
880.913	0.0156562
880.991	0.0155095
881.069	0.0156309
881.147	0.0155817
881.225	0.0154879
881.303	0.0154768
881.381	0.0154816
881.459	0.0154237
881.538	0.0155278
881.616	0.0154076
881.694	0.0153304
881.772	0.0153242
881.850	0.0154440
881.928	0.0153542
882.006	0.0154490
882.084	0.0153632
882.163	0.0154005
882.241	0.0153919
882.319	0.0154919
882.397	0.0153859
882.475	0.0153078
882.553	0.0154102
882.631	0.0154410
882.709	0.0153320
882.788	0.0153486
882.866	0.0154111
882.944	0.0153500
883.022	0.0153086
883.100	0.0153231
883.178	0.0153956
883.256	0.0152900
883.334	0.0153140
883.413	0.0154367
883.491	0.0153141
883.569	0.0153241
883.647	0.0153455
883.725	0.0155624
883.803	0.0153735
883.881	0.0153629
883.959	0.0155276
884.038	0.0154879
884.116	0.0153780
884.194	0.0154021
884.272	0.0154504
884.350	0.0154446
884.428	0.0153117
884.506	0.0153545
884.584	0.0153853
884.663	0.0154389
884.741	0.0154595
884.819	0.0154321
884.897	0.0153989
884.975	0.0154279
885.053	0.0155535
885.131	0.0153772
885.209	0.0154221
885.288	0.0153759
885.366	0.0153458
885.444	0.0152720
885.522	0.0154224
885.600	0.0154262
885.678	0.0153831
885.756	0.0152565
885.834	0.0154211
885.913	0.0154255
885.991	0.0153951
886.069	0.0154021
886.147	0.0152708
886.225	0.0154142
886.303	0.0155097
886.381	0.0154356
886.459	0.0154231
886.538	0.0153805
886.616	0.0154762
886.694	0.0154921
886.772	0.0153979
886.850	0.0154408
886.928	0.0155957
887.006	0.0154384
887.084	0.0154600
887.163	0.0153836
887.241	0.0153530
887.319	0.0153856
887.397	0.0155111
887.475	0.0153842
887.553	0.0153735
887.631	0.0153578
887.709	0.0153264
887.788	0.0154367
887.866	0.0154876
887.944	0.0153185
888.022	0.0151842
888.100	0.0153237
888.178	0.0154569
888.256	0.0153442
888.334	0.0153238
888.413	0.0152743
888.491	0.0152000
888.569	0.0154234
888.647	0.0154048
888.725	0.0153461
888.803	0.0153045
888.881	0.0153048
888.959	0.0154385
889.038	0.0154251
889.116	0.0154050
889.194	0.0154624
889.272	0.0155759
889.350	0.0155723
889.428	0.0154134
889.506	0.0155325
889.584	0.0155183
889.663	0.0156084
889.741	0.0154133
889.819	0.0155249
889.897	0.0154332
889.975	0.0155164
890.053	0.0153169
890.131	0.0154710
890.209	0.0156297
890.288	0.0155831
890.366	0.0153847
890.444	0.0154507
890.522	0.0155612
890.600	0.0154676
890.678	0.0153925
890.756	0.0154743
890.834	0.0155228
890.913	0.0154802
890.991	0.0153568
891.069	0.0153065
891.147	0.0153986
891.225	0.0154011
891.303	0.0153963
891.381	0.0153670
891.459	0.0154293
891.538	0.0152215
891.616	0.0152217
891.694	0.0153244
891.772	0.0153258
891.850	0.0152617
891.928	0.0151620
892.006	0.0152426
892.084	0.0152359
892.163	0.0151348
892.241	0.0151644
892.319	0.0154323
892.397	0.0153572
892.475	0.0152247
892.553	0.0152022
892.631	0.0152540
892.709	0.0152264
892.788	0.0153582
892.866	0.0153040
892.944	0.0155083
893.022	0.0154271
893.100	0.0153300
893.178	0.0154766
893.256	0.0153379
893.334	0.0152363
893.413	0.0154001
893.491	0.0154517
893.569	0.0154697
893.647	0.0153832
893.725	0.0153926
893.803	0.0153653
893.881	0.0152708
893.959	0.0152792
894.038	0.0153812
894.116	0.0152501
894.194	0.0151571
894.272	0.0153002
894.350	0.0151263
894.428	0.0152133
894.506	0.0151765
894.584	0.0151726
894.663	0.0152122
894.741	0.0152516
894.819	0.0150926
894.897	0.0152682
894.975	0.0152669
895.053	0.0152821
895.131	0.0151879
895.209	0.0152214
895.288	0.0153599
895.366	0.0153366
895.444	0.0153516
895.522	0.0153430
895.600	0.0154400
895.678	0.0154625
895.756	0.0153384
895.834	0.0153773
895.913	0.0153832
895.991	0.0154542
896.069	0.0154205
896.147	0.0154495
896.225	0.0155017
896.303	0.0154680
896.381	0.0154638
896.459	0.0154809
896.538	0.0154953
896.616	0.0155820
896.694	0.0153888
896.772	0.0153888
896.850	0.0154737
896.928	0.0154114
897.006	0.0154229
897.084	0.0153700
897.163	0.0153685
897.241	0.0154486
897.319	0.0154156
897.397	0.0151604
897.475	0.0152843
897.553	0.0153294
897.631	0.0152354
897.709	0.0152821
897.788	0.0151556
897.866	0.0151025
897.944	0.0152674
898.022	0.0153914
898.100	0.0151843
898.178	0.0152660
898.256	0.0153123
898.334	0.0152865
898.413	0.0152813
898.491	0.0152225
898.569	0.0153488
898.647	0.0153896
898.725	0.0152469
898.803	0.0152483
898.881	0.0151481
898.959	0.0153770
899.038	0.0153817
899.116	0.0153563
899.194	0.0154253
899.272	0.0154128
899.350	0.0153272
899.428	0.0153348
899.506	0.0153333
899.584	0.0154182
899.663	0.0154758
899.741	0.0155842
899.819	0.0153430
899.897	0.0155609
899.975	0.0155841
900.053	0.0153870
900.131	0.0155289
900.209	0.0155074
900.288	0.0154350
900.366	0.0156293
900.444	0.0155032
900.522	0.0153726
900.600	0.0155560
900.678	0.0155493
900.756	0.0155502
900.834	0.0154189
900.913	0.0154648
900.991	0.0153374
901.069	0.0156602
901.147	0.0155209
901.225	0.0153701
901.303	0.0154082
901.381	0.0154649
901.459	0.0154502
901.538	0.0154231
901.616	0.0155331
901.694	0.0154230
901.772	0.0154196
901.850	0.0154586
901.928	0.0154075
902.006	0.0154543
902.084	0.0151150
902.163	0.0153376
902.241	0.0153617
902.319	0.0153593
902.397	0.0154196
902.475	0.0152802
902.553	0.0151964
902.631	0.0152656
902.709	0.0153442
902.788	0.0152263
902.866	0.0153076
902.944	0.0153704
903.022	0.0153651
903.100	0.0152949
903.178	0.0152387
903.256	0.0153355
903.334	0.0154816
903.413	0.0154709
903.491	0.0153619
903.569	0.0152906
903.647	0.0155564
903.725	0.0154270
903.803	0.0153946
903.881	0.0154659
903.959	0.0154545
904.038	0.0154370
904.116	0.0154053
904.194	0.0155424
904.272	0.0154564
904.350	0.0155106
904.428	0.0155914
904.506	0.0154400
904.584	0.0155575
904.663	0.0155493
904.741	0.0154840
904.819	0.0153851
904.897	0.0154658
904.975	0.0153606
905.053	0.0155194
905.131	0.0154196
905.209	0.0154726
905.288	0.0156059
905.366	0.0154440
905.444	0.0154767
905.522	0.0154201
905.600	0.0155525
905.678	0.0155895
905.756	0.0155678
905.834	0.0155175
905.913	0.0155212
905.991	0.0156168
906.069	0.0156375
906.147	0.0155459
906.225	0.0154371
906.303	0.0155448
906.381	0.0156821
906.459	0.0154974
906.538	0.0155078
906.616	0.0154484
906.694	0.0155469
906.772	0.0153671
906.850	0.0152921
906.928	0.0154422
907.006	0.0154634
907.084	0.0154057
907.163	0.0154500
907.241	0.0154037
907.319	0.0154500
907.397	0.0153819
907.475	0.0152806
907.553	0.0152451
907.631	0.0154221
907.709	0.0153584
907.788	0.0153223
907.866	0.0153537
907.944	0.0152776
908.022	0.0153072
908.100	0.0152503
908.178	0.0153088
908.256	0.0154189
908.334	0.0153493
908.413	0.0153232
908.491	0.0153039
908.569	0.0153857
908.647	0.0154214
908.725	0.0154387
908.803	0.0154916
908.881	0.0154269
908.959	0.0153576
909.038	0.0154242
909.116	0.0153621
909.194	0.0155373
909.272	0.0154841
909.350	0.0153426
909.428	0.0155159
909.506	0.0155155
909.584	0.0154685
909.663	0.0155356
909.741	0.0154414
909.819	0.0153710
909.897	0.0154773
909.975	0.0153178
910.053	0.0153635
910.131	0.0153079
910.209	0.0153487
910.288	0.0152527
910.366	0.0152037
910.444	0.0152730
910.522	0.0152336
910.600	0.0153170
910.678	0.0151965
910.756	0.0153323
910.834	0.0152745
910.913	0.0152868
910.991	0.0153192
911.069	0.0153361
911.147	0.0153333
911.225	0.0151982
911.303	0.0154141
911.381	0.0155115
911.459	0.0153040
911.538	0.0153284
911.616	0.0154070
911.694	0.0154357
911.772	0.0155910
911.850	0.0154960
911.928	0.0155966
912.006	0.0155476
912.084	0.0155650
912.163	0.0154779
912.241	0.0155441
912.319	0.0155221
912.397	0.0155829
912.475	0.0153108
912.553	0.0154282
912.631	0.0155812
912.709	0.0154272
912.788	0.0152325
912.866	0.0153932
912.944	0.0153444
913.022	0.0153664
913.100	0.0153752
913.178	0.0153954
913.256	0.0151842
913.334	0.0152660
913.413	0.0152544
913.491	0.0152790
913.569	0.0152869
913.647	0.0152499
913.725	0.0153961
913.803	0.0152715
913.881	0.0151989
913.959	0.0153780
914.038	0.0153997
914.116	0.0152920
914.194	0.0155091
914.272	0.0155209
914.350	0.0153737
914.428	0.0153621
914.506	0.0154245
914.584	0.0153572
914.663	0.0154547
914.741	0.0153989
914.819	0.0155037
914.897	0.0153818
914.975	0.0154810
915.053	0.0152917
915.131	0.0154826
915.209	0.0153820
915.288	0.0154216
915.366	0.0153721
915.444	0.0154645
915.522	0.0154261
915.600	0.0155085
915.678	0.0154549
915.756	0.0155199
915.834	0.0154716
915.913	0.0154467
915.991	0.0154782
916.069	0.0154634
916.147	0.0153535
916.225	0.0154630
916.303	0.0154800
916.381	0.0154827
916.459	0.0155114
916.538	0.0154929
916.616	0.0154141
916.694	0.0155765
916.772	0.0154387
916.850	0.0153290
916.928	0.0154499
917.006	0.0155869
917.084	0.0156348
917.163	0.0155042
917.241	0.0154958
917.319	0.0155450
917.397	0.0154498
917.475	0.0154462
917.553	0.0154896
917.631	0.0154376
917.709	0.0155031
917.788	0.0154873
917.866	0.0154948
917.944	0.0154697
918.022	0.0154780
918.100	0.0154349
918.178	0.0153996
918.256	0.0154021
918.334	0.0152720
918.413	0.0154085
918.491	0.0154746
918.569	0.0153441
918.647	0.0153973
918.725	0.0153391
918.803	0.0153812
918.881	0.0153554
918.959	0.0153038
919.038	0.0153063
919.116	0.0151651
919.194	0.0151701
919.272	0.0152958
919.350	0.0152260
919.428	0.0153120
919.506	0.0153976
919.584	0.0154054
919.663	0.0152258
919.741	0.0153120
919.819	0.0153452
919.897	0.0153152
