05/20/2022	21:28:29	Ver.	4.1	UNKNOWN
Optical Delay	599.975067	Delta X		0.078125	Sweeps	1	Scan Rate	0/0
Coordinates	Axis 1	NaN	Axis 2	NaN	Axis 3	NaN	Axis 4	NaN	Axis 5	NaN	Axis 6	0.000000
TX Power	0.000000	RX Power	0.000000

599.975	0.0155248
600.053	0.0156453
600.131	0.0155792
600.209	0.0155415
600.288	0.0154446
600.366	0.0155450
600.444	0.0156175
600.522	0.0156586
600.600	0.0154896
600.678	0.0156242
600.756	0.0155695
600.834	0.0155248
600.913	0.0155958
600.991	0.0154273
601.069	0.0155956
601.147	0.0156224
601.225	0.0156537
601.303	0.0155128
601.381	0.0154478
601.459	0.0155524
601.538	0.0154322
601.616	0.0154428
601.694	0.0155292
601.772	0.0157242
601.850	0.0155862
601.928	0.0154976
602.006	0.0155023
602.084	0.0155820
602.163	0.0155861
602.241	0.0154463
602.319	0.0154876
602.397	0.0155530
602.475	0.0154438
602.553	0.0154877
602.631	0.0154825
602.709	0.0155836
602.788	0.0155171
602.866	0.0156387
602.944	0.0154635
603.022	0.0154997
603.100	0.0154639
603.178	0.0155837
603.256	0.0155408
603.334	0.0154848
603.413	0.0155358
603.491	0.0154971
603.569	0.0153986
603.647	0.0154202
603.725	0.0155634
603.803	0.0154581
603.881	0.0154688
603.959	0.0154839
604.038	0.0155875
604.116	0.0153475
604.194	0.0155772
604.272	0.0155262
604.350	0.0155106
604.428	0.0155411
604.506	0.0152919
604.584	0.0154700
604.663	0.0154539
604.741	0.0156017
604.819	0.0155245
604.897	0.0154487
604.975	0.0154317
605.053	0.0155621
605.131	0.0156091
605.209	0.0155457
605.288	0.0153824
605.366	0.0155679
605.444	0.0153390
605.522	0.0154563
605.600	0.0154417
605.678	0.0154781
605.756	0.0154784
605.834	0.0154339
605.913	0.0153468
605.991	0.0154153
606.069	0.0154441
606.147	0.0154007
606.225	0.0154661
606.303	0.0154119
606.381	0.0153461
606.459	0.0153770
606.538	0.0154402
606.616	0.0155239
606.694	0.0153422
606.772	0.0152962
606.850	0.0154288
606.928	0.0152998
607.006	0.0153946
607.084	0.0155633
607.163	0.0154580
607.241	0.0153086
607.319	0.0154507
607.397	0.0155284
607.475	0.0152873
607.553	0.0153722
607.631	0.0155202
607.709	0.0155001
607.788	0.0154478
607.866	0.0154269
607.944	0.0154185
608.022	0.0155005
608.100	0.0155238
608.178	0.0154105
608.256	0.0154405
608.334	0.0153383
608.413	0.0154891
608.491	0.0154935
608.569	0.0152843
608.647	0.0154151
608.725	0.0153960
608.803	0.0153504
608.881	0.0154430
608.959	0.0153629
609.038	0.0155022
609.116	0.0154731
609.194	0.0154637
609.272	0.0153574
609.350	0.0154214
609.428	0.0153416
609.506	0.0154984
609.584	0.0154154
609.663	0.0154029
609.741	0.0154737
609.819	0.0154639
609.897	0.0154093
609.975	0.0152486
610.053	0.0153825
610.131	0.0154397
610.209	0.0154165
610.288	0.0154168
610.366	0.0154156
610.444	0.0155754
610.522	0.0155316
610.600	0.0153564
610.678	0.0153777
610.756	0.0155039
610.834	0.0155238
610.913	0.0154877
610.991	0.0154132
611.069	0.0155183
611.147	0.0154665
611.225	0.0154665
611.303	0.0156011
611.381	0.0155492
611.459	0.0155977
611.538	0.0155344
611.616	0.0155858
611.694	0.0157076
611.772	0.0154642
611.850	0.0154495
611.928	0.0156675
612.006	0.0155345
612.084	0.0155140
612.163	0.0155154
612.241	0.0154009
612.319	0.0154897
612.397	0.0155428
612.475	0.0154934
612.553	0.0153542
612.631	0.0154224
612.709	0.0153172
612.788	0.0154700
612.866	0.0153952
612.944	0.0154636
613.022	0.0154464
613.100	0.0154848
613.178	0.0153546
613.256	0.0153984
613.334	0.0153606
613.413	0.0155771
613.491	0.0155010
613.569	0.0154371
613.647	0.0153594
613.725	0.0153317
613.803	0.0153185
613.881	0.0155231
613.959	0.0153252
614.038	0.0154758
614.116	0.0154272
614.194	0.0154662
614.272	0.0154539
614.350	0.0154607
614.428	0.0153711
614.506	0.0154522
614.584	0.0154857
614.663	0.0155061
614.741	0.0154136
614.819	0.0154054
614.897	0.0154101
614.975	0.0153944
615.053	0.0155272
615.131	0.0152917
615.209	0.0153091
615.288	0.0154459
615.366	0.0154761
615.444	0.0155705
615.522	0.0154249
615.600	0.0154894
615.678	0.0154492
615.756	0.0154857
615.834	0.0154848
615.913	0.0154728
615.991	0.0154866
616.069	0.0153568
616.147	0.0154089
616.225	0.0155044
616.303	0.0154390
616.381	0.0155287
616.459	0.0155694
616.538	0.0155074
616.616	0.0156111
616.694	0.0155311
616.772	0.0154102
616.850	0.0155718
616.928	0.0155695
617.006	0.0155938
617.084	0.0154457
617.163	0.0155548
617.241	0.0155296
617.319	0.0155215
617.397	0.0154426
617.475	0.0155093
617.553	0.0154738
617.631	0.0155292
617.709	0.0155782
617.788	0.0154211
617.866	0.0152771
617.944	0.0154999
618.022	0.0155634
618.100	0.0155623
618.178	0.0154884
618.256	0.0154797
618.334	0.0153443
618.413	0.0154202
618.491	0.0153986
618.569	0.0155253
618.647	0.0154788
618.725	0.0155568
618.803	0.0153455
618.881	0.0153792
618.959	0.0153780
619.038	0.0155753
619.116	0.0156148
619.194	0.0154488
619.272	0.0154478
619.350	0.0155769
619.428	0.0154802
619.506	0.0155971
619.584	0.0155614
619.663	0.0155618
619.741	0.0156161
619.819	0.0157070
619.897	0.0155587
619.975	0.0155833
620.053	0.0154861
620.131	0.0154201
620.209	0.0155214
620.288	0.0156020
620.366	0.0154602
620.444	0.0155937
620.522	0.0154496
620.600	0.0154387
620.678	0.0155714
620.756	0.0155690
620.834	0.0154227
620.913	0.0154678
620.991	0.0155505
621.069	0.0154532
621.147	0.0155767
621.225	0.0156309
621.303	0.0154955
621.381	0.0155045
621.459	0.0155383
621.538	0.0157052
621.616	0.0156841
621.694	0.0155498
621.772	0.0155363
621.850	0.0154543
621.928	0.0154607
622.006	0.0155658
622.084	0.0154024
622.163	0.0154978
622.241	0.0155852
622.319	0.0155328
622.397	0.0153902
622.475	0.0154810
622.553	0.0155706
622.631	0.0155399
622.709	0.0154041
622.788	0.0154500
622.866	0.0155196
622.944	0.0154593
623.022	0.0154117
623.100	0.0154253
623.178	0.0154963
623.256	0.0154422
623.334	0.0154959
623.413	0.0154912
623.491	0.0154231
623.569	0.0155228
623.647	0.0155270
623.725	0.0154350
623.803	0.0155453
623.881	0.0156450
623.959	0.0155646
624.038	0.0155536
624.116	0.0155017
624.194	0.0155141
624.272	0.0155311
624.350	0.0156278
624.428	0.0153835
624.506	0.0153745
624.584	0.0154832
624.663	0.0154729
624.741	0.0156010
624.819	0.0155315
624.897	0.0155254
624.975	0.0155586
625.053	0.0155209
625.131	0.0155665
625.209	0.0154619
625.288	0.0154599
625.366	0.0155500
625.444	0.0155080
625.522	0.0155176
625.600	0.0155254
625.678	0.0153745
625.756	0.0154493
625.834	0.0156540
625.913	0.0155943
625.991	0.0154801
626.069	0.0155714
626.147	0.0155917
626.225	0.0154049
626.303	0.0154990
626.381	0.0155196
626.459	0.0153039
626.538	0.0155441
626.616	0.0155907
626.694	0.0157128
626.772	0.0155984
626.850	0.0153989
626.928	0.0155318
627.006	0.0156353
627.084	0.0154487
627.163	0.0154981
627.241	0.0155592
627.319	0.0155096
627.397	0.0155216
627.475	0.0154642
627.553	0.0156042
627.631	0.0153901
627.709	0.0156903
627.788	0.0155244
627.866	0.0154384
627.944	0.0156142
628.022	0.0156208
628.100	0.0155907
628.178	0.0155453
628.256	0.0156615
628.334	0.0157250
628.413	0.0154809
628.491	0.0155047
628.569	0.0154212
628.647	0.0155878
628.725	0.0155772
628.803	0.0155164
628.881	0.0157087
628.959	0.0156490
629.038	0.0155604
629.116	0.0155209
629.194	0.0155363
629.272	0.0155772
629.350	0.0154774
629.428	0.0155873
629.506	0.0155316
629.584	0.0157227
629.663	0.0155493
629.741	0.0155258
629.819	0.0155201
629.897	0.0155209
629.975	0.0156115
630.053	0.0154976
630.131	0.0155141
630.209	0.0154408
630.288	0.0156132
630.366	0.0156345
630.444	0.0157577
630.522	0.0155861
630.600	0.0154572
630.678	0.0155833
630.756	0.0155177
630.834	0.0155499
630.913	0.0156107
630.991	0.0155975
631.069	0.0155240
631.147	0.0155566
631.225	0.0155193
631.303	0.0156744
631.381	0.0155431
631.459	0.0156429
631.538	0.0155576
631.616	0.0155396
631.694	0.0154839
631.772	0.0155330
631.850	0.0154893
631.928	0.0154665
632.006	0.0154809
632.084	0.0155331
632.163	0.0155038
632.241	0.0155697
632.319	0.0155730
632.397	0.0155940
632.475	0.0155520
632.553	0.0156356
632.631	0.0155386
632.709	0.0155251
632.788	0.0155956
632.866	0.0155229
632.944	0.0155553
633.022	0.0155093
633.100	0.0155953
633.178	0.0155644
633.256	0.0153452
633.334	0.0154536
633.413	0.0155549
633.491	0.0155133
633.569	0.0155373
633.647	0.0155284
633.725	0.0153979
633.803	0.0154650
633.881	0.0155350
633.959	0.0155136
634.038	0.0154847
634.116	0.0155171
634.194	0.0155291
634.272	0.0155149
634.350	0.0153025
634.428	0.0155243
634.506	0.0157271
634.584	0.0155133
634.663	0.0153964
634.741	0.0155058
634.819	0.0155766
634.897	0.0156631
634.975	0.0156017
635.053	0.0155625
635.131	0.0155402
635.209	0.0155328
635.288	0.0156516
635.366	0.0155604
635.444	0.0155709
635.522	0.0154879
635.600	0.0154726
635.678	0.0154700
635.756	0.0155723
635.834	0.0154948
635.913	0.0156458
635.991	0.0155780
636.069	0.0157574
636.147	0.0156870
636.225	0.0154491
636.303	0.0154891
636.381	0.0155319
636.459	0.0155511
636.538	0.0155271
636.616	0.0155547
636.694	0.0155035
636.772	0.0153342
636.850	0.0154058
636.928	0.0155558
637.006	0.0155930
637.084	0.0154984
637.163	0.0155193
637.241	0.0154379
637.319	0.0154922
637.397	0.0154378
637.475	0.0154778
637.553	0.0154429
637.631	0.0155701
637.709	0.0154598
637.788	0.0154868
637.866	0.0155104
637.944	0.0154752
638.022	0.0154018
638.100	0.0154678
638.178	0.0154090
638.256	0.0154141
638.334	0.0153523
638.413	0.0154993
638.491	0.0154882
638.569	0.0155009
638.647	0.0154431
638.725	0.0153365
638.803	0.0153613
638.881	0.0154332
638.959	0.0153898
639.038	0.0153746
639.116	0.0153373
639.194	0.0154472
639.272	0.0153780
639.350	0.0152391
639.428	0.0153944
639.506	0.0153576
639.584	0.0153162
639.663	0.0153515
639.741	0.0154140
639.819	0.0153527
639.897	0.0154988
639.975	0.0153402
640.053	0.0153339
640.131	0.0154432
640.209	0.0153540
640.288	0.0155329
640.366	0.0154023
640.444	0.0152883
640.522	0.0153606
640.600	0.0154057
640.678	0.0154292
640.756	0.0152178
640.834	0.0154368
640.913	0.0154668
640.991	0.0155211
641.069	0.0153639
641.147	0.0153094
641.225	0.0154627
641.303	0.0153735
641.381	0.0155441
641.459	0.0154446
641.538	0.0154701
641.616	0.0154216
641.694	0.0154893
641.772	0.0154798
641.850	0.0154412
641.928	0.0155122
642.006	0.0154867
642.084	0.0155726
642.163	0.0154397
642.241	0.0155255
642.319	0.0155438
642.397	0.0154741
642.475	0.0154935
642.553	0.0154919
642.631	0.0154824
642.709	0.0155331
642.788	0.0154439
642.866	0.0156045
642.944	0.0156759
643.022	0.0156435
643.100	0.0155386
643.178	0.0156126
643.256	0.0155136
643.334	0.0156199
643.413	0.0155109
643.491	0.0156580
643.569	0.0156570
643.647	0.0155639
643.725	0.0155934
643.803	0.0156916
643.881	0.0156344
643.959	0.0157249
644.038	0.0157047
644.116	0.0155781
644.194	0.0155386
644.272	0.0155012
644.350	0.0156465
644.428	0.0157112
644.506	0.0156133
644.584	0.0155681
644.663	0.0156863
644.741	0.0154907
644.819	0.0154011
644.897	0.0155525
644.975	0.0156181
645.053	0.0155420
645.131	0.0156824
645.209	0.0155573
645.288	0.0157076
645.366	0.0157413
645.444	0.0157240
645.522	0.0155781
645.600	0.0155244
645.678	0.0156300
645.756	0.0155691
645.834	0.0155193
645.913	0.0155205
645.991	0.0155566
646.069	0.0156432
646.147	0.0155865
646.225	0.0156054
646.303	0.0154718
646.381	0.0156042
646.459	0.0155265
646.538	0.0156641
646.616	0.0155964
646.694	0.0156738
646.772	0.0155150
646.850	0.0155246
646.928	0.0155166
647.006	0.0156332
647.084	0.0154607
647.163	0.0155500
647.241	0.0155428
647.319	0.0155608
647.397	0.0155260
647.475	0.0154936
647.553	0.0155059
647.631	0.0154572
647.709	0.0156272
647.788	0.0154008
647.866	0.0154560
647.944	0.0155828
648.022	0.0154951
648.100	0.0155222
648.178	0.0153652
648.256	0.0154789
648.334	0.0154683
648.413	0.0155210
648.491	0.0155499
648.569	0.0155033
648.647	0.0154345
648.725	0.0155013
648.803	0.0153804
648.881	0.0155294
648.959	0.0155434
649.038	0.0155684
649.116	0.0156483
649.194	0.0155169
649.272	0.0157692
649.350	0.0155830
649.428	0.0156033
649.506	0.0156286
649.584	0.0155592
649.663	0.0155553
649.741	0.0156182
649.819	0.0155403
649.897	0.0156720
649.975	0.0155989
650.053	0.0156750
650.131	0.0155595
650.209	0.0157717
650.288	0.0156544
650.366	0.0156220
650.444	0.0156835
650.522	0.0157273
650.600	0.0156507
650.678	0.0156870
650.756	0.0157057
650.834	0.0158417
650.913	0.0156619
650.991	0.0156239
651.069	0.0156161
651.147	0.0156973
651.225	0.0155647
651.303	0.0155402
651.381	0.0156635
651.459	0.0155631
651.538	0.0155330
651.616	0.0156612
651.694	0.0156676
651.772	0.0154151
651.850	0.0154690
651.928	0.0156244
652.006	0.0155433
652.084	0.0153904
652.163	0.0155870
652.241	0.0154794
652.319	0.0154494
652.397	0.0154880
652.475	0.0154369
652.553	0.0154369
652.631	0.0155270
652.709	0.0154967
652.788	0.0155419
652.866	0.0156179
652.944	0.0156156
653.022	0.0156152
653.100	0.0155940
653.178	0.0155585
653.256	0.0156866
653.334	0.0156807
653.413	0.0155228
653.491	0.0155808
653.569	0.0154966
653.647	0.0155773
653.725	0.0156142
653.803	0.0155331
653.881	0.0155434
653.959	0.0153732
654.038	0.0154707
654.116	0.0154800
654.194	0.0155214
654.272	0.0154003
654.350	0.0154375
654.428	0.0154453
654.506	0.0154888
654.584	0.0155577
654.663	0.0154951
654.741	0.0156065
654.819	0.0157986
654.897	0.0156699
654.975	0.0156142
655.053	0.0158417
655.131	0.0157942
655.209	0.0156834
655.288	0.0157295
655.366	0.0158382
655.444	0.0157186
655.522	0.0157549
655.600	0.0157545
655.678	0.0156995
655.756	0.0155950
655.834	0.0154839
655.913	0.0155003
655.991	0.0155145
656.069	0.0154336
656.147	0.0154364
656.225	0.0153103
656.303	0.0154523
656.381	0.0153583
656.459	0.0151711
656.538	0.0152213
656.616	0.0152651
656.694	0.0153159
656.772	0.0151908
656.850	0.0152419
656.928	0.0153091
657.006	0.0153505
657.084	0.0155301
657.163	0.0153703
657.241	0.0155614
657.319	0.0155132
657.397	0.0156651
657.475	0.0155795
657.553	0.0157753
657.631	0.0158915
657.709	0.0157050
657.788	0.0158237
657.866	0.0157105
657.944	0.0157979
658.022	0.0156905
658.100	0.0155908
658.178	0.0158435
658.256	0.0156676
658.334	0.0156225
658.413	0.0154967
658.491	0.0154867
658.569	0.0154762
658.647	0.0153129
658.725	0.0152489
658.803	0.0151431
658.881	0.0149744
658.959	0.0151166
659.038	0.0151755
659.116	0.0149266
659.194	0.0148147
659.272	0.0148797
659.350	0.0149576
659.428	0.0147476
659.506	0.0148812
659.584	0.0148738
659.663	0.0149229
659.741	0.0150863
659.819	0.0151231
659.897	0.0150565
659.975	0.0152538
660.053	0.0154295
660.131	0.0155138
660.209	0.0155312
660.288	0.0156783
660.366	0.0158576
660.444	0.0159165
660.522	0.0158405
660.600	0.0160461
660.678	0.0161625
660.756	0.0160220
660.834	0.0160497
660.913	0.0161996
660.991	0.0161636
661.069	0.0161948
661.147	0.0162781
661.225	0.0160991
661.303	0.0160740
661.381	0.0160558
661.459	0.0159976
661.538	0.0157288
661.616	0.0156116
661.694	0.0156281
661.772	0.0156165
661.850	0.0155234
661.928	0.0152522
662.006	0.0151295
662.084	0.0150173
662.163	0.0150897
662.241	0.0149475
662.319	0.0149223
662.397	0.0149759
662.475	0.0148745
662.553	0.0147987
662.631	0.0147877
662.709	0.0147049
662.788	0.0148213
662.866	0.0149321
662.944	0.0149477
663.022	0.0148055
663.100	0.0150581
663.178	0.0149255
663.256	0.0151829
663.334	0.0153406
663.413	0.0155166
663.491	0.0154431
663.569	0.0155199
663.647	0.0157119
663.725	0.0157931
663.803	0.0158906
663.881	0.0157546
663.959	0.0159226
664.038	0.0157491
664.116	0.0157461
664.194	0.0157594
664.272	0.0157027
664.350	0.0157207
664.428	0.0156684
664.506	0.0157518
664.584	0.0156656
664.663	0.0157571
664.741	0.0157015
664.819	0.0158287
664.897	0.0156055
664.975	0.0156963
665.053	0.0156328
665.131	0.0156593
665.209	0.0156664
665.288	0.0157668
665.366	0.0157787
665.444	0.0156938
665.522	0.0158599
665.600	0.0158797
665.678	0.0157597
665.756	0.0158178
665.834	0.0158907
665.913	0.0156953
665.991	0.0156559
666.069	0.0157687
666.147	0.0157835
666.225	0.0156981
666.303	0.0155935
666.381	0.0156060
666.459	0.0156133
666.538	0.0156849
666.616	0.0155425
666.694	0.0156217
666.772	0.0155659
666.850	0.0153972
666.928	0.0153865
667.006	0.0151777
667.084	0.0151762
667.163	0.0152140
667.241	0.0149467
667.319	0.0148398
667.397	0.0148253
667.475	0.0146724
667.553	0.0146232
667.631	0.0145859
667.709	0.0143893
667.788	0.0143974
667.866	0.0143787
667.944	0.0145258
668.022	0.0143913
668.100	0.0144430
668.178	0.0144325
668.256	0.0146763
668.334	0.0148106
668.413	0.0148487
668.491	0.0150392
668.569	0.0150519
668.647	0.0152512
668.725	0.0153320
668.803	0.0155090
668.881	0.0157024
668.959	0.0159616
669.038	0.0159365
669.116	0.0160087
669.194	0.0160506
669.272	0.0162025
669.350	0.0161674
669.428	0.0163745
669.506	0.0164447
669.584	0.0161907
669.663	0.0162729
669.741	0.0162999
669.819	0.0162820
669.897	0.0163625
669.975	0.0160920
670.053	0.0161353
670.131	0.0162476
670.209	0.0163359
670.288	0.0160496
670.366	0.0161862
670.444	0.0161418
670.522	0.0160983
670.600	0.0160353
670.678	0.0162010
670.756	0.0160231
670.834	0.0160671
670.913	0.0159667
670.991	0.0159827
671.069	0.0159796
671.147	0.0159505
671.225	0.0159423
671.303	0.0157529
671.381	0.0157265
671.459	0.0157761
671.538	0.0156577
671.616	0.0155583
671.694	0.0155041
671.772	0.0155006
671.850	0.0154330
671.928	0.0152410
672.006	0.0151044
672.084	0.0152817
672.163	0.0151277
672.241	0.0149308
672.319	0.0148852
672.397	0.0148958
672.475	0.0147124
672.553	0.0145760
672.631	0.0147163
672.709	0.0146392
672.788	0.0145036
672.866	0.0146311
672.944	0.0145429
673.022	0.0145609
673.100	0.0145490
673.178	0.0144124
673.256	0.0144757
673.334	0.0144182
673.413	0.0145080
673.491	0.0145000
673.569	0.0145026
673.647	0.0147406
673.725	0.0147130
673.803	0.0149202
673.881	0.0151443
673.959	0.0149289
674.038	0.0151765
674.116	0.0153836
674.194	0.0154318
674.272	0.0154343
674.350	0.0157644
674.428	0.0158215
674.506	0.0158926
674.584	0.0160546
674.663	0.0162547
674.741	0.0164742
674.819	0.0165152
674.897	0.0166170
674.975	0.0167731
675.053	0.0168291
675.131	0.0170765
675.209	0.0170595
675.288	0.0170982
675.366	0.0171820
675.444	0.0171886
675.522	0.0173611
675.600	0.0172675
675.678	0.0173469
675.756	0.0172924
675.834	0.0172813
675.913	0.0170466
675.991	0.0169308
676.069	0.0169460
676.147	0.0167700
676.225	0.0167051
676.303	0.0164139
676.381	0.0161635
676.459	0.0160902
676.538	0.0157917
676.616	0.0156400
676.694	0.0153945
676.772	0.0152529
676.850	0.0150235
676.928	0.0147422
677.006	0.0144599
677.084	0.0143146
677.163	0.0141580
677.241	0.0140023
677.319	0.0138825
677.397	0.0138052
677.475	0.0135387
677.553	0.0134438
677.631	0.0135973
677.709	0.0135286
677.788	0.0135003
677.866	0.0136481
677.944	0.0136117
678.022	0.0136370
678.100	0.0138188
678.178	0.0139421
678.256	0.0141599
678.334	0.0141982
678.413	0.0145058
678.491	0.0145564
678.569	0.0147736
678.647	0.0150616
678.725	0.0153294
678.803	0.0153230
678.881	0.0156802
678.959	0.0160068
679.038	0.0162104
679.116	0.0165553
679.194	0.0166077
679.272	0.0166905
679.350	0.0170168
679.428	0.0170619
679.506	0.0173097
679.584	0.0169897
679.663	0.0173345
679.741	0.0172548
679.819	0.0171726
679.897	0.0172279
679.975	0.0170894
680.053	0.0169814
680.131	0.0168584
680.209	0.0168338
680.288	0.0165735
680.366	0.0164733
680.444	0.0163692
680.522	0.0162284
680.600	0.0160058
680.678	0.0158489
680.756	0.0157360
680.834	0.0156021
680.913	0.0154636
680.991	0.0153178
681.069	0.0151242
681.147	0.0150661
681.225	0.0149816
681.303	0.0149041
681.381	0.0147413
681.459	0.0148174
681.538	0.0145675
681.616	0.0146149
681.694	0.0146291
681.772	0.0145644
681.850	0.0144302
681.928	0.0145065
682.006	0.0145374
682.084	0.0145985
682.163	0.0147052
682.241	0.0146889
682.319	0.0146471
682.397	0.0147433
682.475	0.0147433
682.553	0.0147017
682.631	0.0148650
682.709	0.0149846
682.788	0.0150730
682.866	0.0150900
682.944	0.0152214
683.022	0.0152523
683.100	0.0152839
683.178	0.0154203
683.256	0.0155914
683.334	0.0155557
683.413	0.0156181
683.491	0.0156924
683.569	0.0156959
683.647	0.0157483
683.725	0.0156284
683.803	0.0156084
683.881	0.0156517
683.959	0.0156992
684.038	0.0158224
684.116	0.0155785
684.194	0.0156463
684.272	0.0156161
684.350	0.0156674
684.428	0.0156180
684.506	0.0156691
684.584	0.0156944
684.663	0.0156378
684.741	0.0156598
684.819	0.0157076
684.897	0.0155973
684.975	0.0155199
685.053	0.0155195
685.131	0.0154440
685.209	0.0153947
685.288	0.0155928
685.366	0.0153637
685.444	0.0151637
685.522	0.0152508
685.600	0.0151180
685.678	0.0150690
685.756	0.0149058
685.834	0.0149664
685.913	0.0151489
685.991	0.0149810
686.069	0.0150333
686.147	0.0151400
686.225	0.0152067
686.303	0.0151524
686.381	0.0152290
686.459	0.0151812
686.538	0.0151334
686.616	0.0151225
686.694	0.0152511
686.772	0.0151405
686.850	0.0152221
686.928	0.0153249
687.006	0.0153903
687.084	0.0154633
687.163	0.0155482
687.241	0.0156078
687.319	0.0156455
687.397	0.0158144
687.475	0.0159605
687.553	0.0159621
687.631	0.0159632
687.709	0.0161680
687.788	0.0162444
687.866	0.0162502
687.944	0.0163682
688.022	0.0164355
688.100	0.0162246
688.178	0.0162308
688.256	0.0162156
688.334	0.0162944
688.413	0.0162624
688.491	0.0160101
688.569	0.0159966
688.647	0.0160173
688.725	0.0160368
688.803	0.0159312
688.881	0.0158666
688.959	0.0157889
689.038	0.0157397
689.116	0.0157500
689.194	0.0156659
689.272	0.0155711
689.350	0.0154923
689.428	0.0153780
689.506	0.0152938
689.584	0.0153301
689.663	0.0152290
689.741	0.0151534
689.819	0.0149590
689.897	0.0149213
689.975	0.0146935
690.053	0.0145784
690.131	0.0147691
690.209	0.0146978
690.288	0.0145795
690.366	0.0146281
690.444	0.0146384
690.522	0.0147774
690.600	0.0146711
690.678	0.0147620
690.756	0.0148051
690.834	0.0148575
690.913	0.0150149
690.991	0.0150217
691.069	0.0153654
691.147	0.0152664
691.225	0.0154179
691.303	0.0154283
691.381	0.0155175
691.459	0.0156941
691.538	0.0156731
691.616	0.0157358
691.694	0.0157192
691.772	0.0157632
691.850	0.0159132
691.928	0.0158848
692.006	0.0157603
692.084	0.0156532
692.163	0.0156563
692.241	0.0154309
692.319	0.0153676
692.397	0.0152453
692.475	0.0151740
692.553	0.0149062
692.631	0.0146696
692.709	0.0145023
692.788	0.0146012
692.866	0.0144854
692.944	0.0142462
693.022	0.0143509
693.100	0.0143492
693.178	0.0144221
693.256	0.0145344
693.334	0.0145866
693.413	0.0145352
693.491	0.0148235
693.569	0.0149850
693.647	0.0150831
693.725	0.0152940
693.803	0.0154053
693.881	0.0155000
693.959	0.0156851
694.038	0.0159524
694.116	0.0160208
694.194	0.0162928
694.272	0.0163683
694.350	0.0165462
694.428	0.0166389
694.506	0.0169023
694.584	0.0170010
694.663	0.0171820
694.741	0.0172891
694.819	0.0170909
694.897	0.0172334
694.975	0.0173457
695.053	0.0173936
695.131	0.0173432
695.209	0.0172575
695.288	0.0172484
695.366	0.0172054
695.444	0.0171158
695.522	0.0170596
695.600	0.0168796
695.678	0.0165887
695.756	0.0163786
695.834	0.0163158
695.913	0.0160479
695.991	0.0158755
696.069	0.0156921
696.147	0.0153867
696.225	0.0152005
696.303	0.0151550
696.381	0.0148801
696.459	0.0148241
696.538	0.0142651
696.616	0.0142741
696.694	0.0140740
696.772	0.0138315
696.850	0.0137004
696.928	0.0136330
697.006	0.0135361
697.084	0.0132645
697.163	0.0132597
697.241	0.0131987
697.319	0.0130959
697.397	0.0131451
697.475	0.0131552
697.553	0.0130895
697.631	0.0133375
697.709	0.0134537
697.788	0.0134691
697.866	0.0137062
697.944	0.0138632
698.022	0.0139832
698.100	0.0140836
698.178	0.0142572
698.256	0.0143678
698.334	0.0145499
698.413	0.0147266
698.491	0.0148855
698.569	0.0150473
698.647	0.0154005
698.725	0.0154251
698.803	0.0157631
698.881	0.0157883
698.959	0.0160077
699.038	0.0163667
699.116	0.0164492
699.194	0.0168081
699.272	0.0168957
699.350	0.0171384
699.428	0.0173691
699.506	0.0175475
699.584	0.0176806
699.663	0.0178413
699.741	0.0179955
699.819	0.0179977
699.897	0.0181229
699.975	0.0181562
700.053	0.0181961
700.131	0.0182617
700.209	0.0181760
700.288	0.0180576
700.366	0.0179621
700.444	0.0179005
700.522	0.0177356
700.600	0.0174382
700.678	0.0173645
700.756	0.0171998
700.834	0.0170677
700.913	0.0166706
700.991	0.0164108
701.069	0.0160768
701.147	0.0158636
701.225	0.0155766
701.303	0.0152560
701.381	0.0148975
701.459	0.0144854
701.538	0.0142391
701.616	0.0139762
701.694	0.0136364
701.772	0.0135250
701.850	0.0132240
701.928	0.0129590
702.006	0.0129709
702.084	0.0125891
702.163	0.0124576
702.241	0.0127263
702.319	0.0126044
702.397	0.0125346
702.475	0.0128372
702.553	0.0129723
702.631	0.0131558
702.709	0.0133394
702.788	0.0135744
702.866	0.0139152
702.944	0.0141646
703.022	0.0143520
703.100	0.0149181
703.178	0.0152374
703.256	0.0154378
703.334	0.0157347
703.413	0.0158813
703.491	0.0161931
703.569	0.0164225
703.647	0.0165343
703.725	0.0165076
703.803	0.0167879
703.881	0.0169498
703.959	0.0168965
704.038	0.0167754
704.116	0.0168652
704.194	0.0166516
704.272	0.0164277
704.350	0.0165244
704.428	0.0164691
704.506	0.0164468
704.584	0.0161846
704.663	0.0160186
704.741	0.0160645
704.819	0.0159035
704.897	0.0157102
704.975	0.0156712
705.053	0.0156161
705.131	0.0156152
705.209	0.0155058
705.288	0.0154619
705.366	0.0156563
705.444	0.0155978
705.522	0.0155103
705.600	0.0156066
705.678	0.0158519
705.756	0.0156705
705.834	0.0157631
705.913	0.0158328
705.991	0.0157677
706.069	0.0157726
706.147	0.0157703
706.225	0.0157230
706.303	0.0158263
706.381	0.0158277
706.459	0.0157606
706.538	0.0158507
706.616	0.0155440
706.694	0.0155370
706.772	0.0155115
706.850	0.0153101
706.928	0.0154214
707.006	0.0154266
707.084	0.0153869
707.163	0.0152195
707.241	0.0153373
707.319	0.0152610
707.397	0.0152906
707.475	0.0152065
707.553	0.0151068
707.631	0.0151116
707.709	0.0151363
707.788	0.0149533
707.866	0.0151426
707.944	0.0152839
708.022	0.0153473
708.100	0.0152478
708.178	0.0154951
708.256	0.0156055
708.334	0.0156173
708.413	0.0156398
708.491	0.0157388
708.569	0.0157720
708.647	0.0159232
708.725	0.0159339
708.803	0.0160136
708.881	0.0159225
708.959	0.0158628
709.038	0.0157866
709.116	0.0160251
709.194	0.0159270
709.272	0.0159055
709.350	0.0157830
709.428	0.0156985
709.506	0.0155204
709.584	0.0154091
709.663	0.0155185
709.741	0.0154962
709.819	0.0153483
709.897	0.0152184
709.975	0.0151722
710.053	0.0151443
710.131	0.0151595
710.209	0.0150916
710.288	0.0149922
710.366	0.0149562
710.444	0.0150743
710.522	0.0150067
710.600	0.0150740
710.678	0.0152867
710.756	0.0154207
710.834	0.0152055
710.913	0.0153883
710.991	0.0155475
711.069	0.0157394
711.147	0.0156414
711.225	0.0156899
711.303	0.0159601
711.381	0.0159612
711.459	0.0159123
711.538	0.0159266
711.616	0.0159478
711.694	0.0159146
711.772	0.0157770
711.850	0.0157855
711.928	0.0159493
712.006	0.0157056
712.084	0.0156520
712.163	0.0154186
712.241	0.0153619
712.319	0.0153614
712.397	0.0153351
712.475	0.0151303
712.553	0.0151797
712.631	0.0152354
712.709	0.0151268
712.788	0.0150923
712.866	0.0150829
712.944	0.0151560
713.022	0.0150565
713.100	0.0151540
713.178	0.0152073
713.256	0.0153378
713.334	0.0153584
713.413	0.0152197
713.491	0.0153457
713.569	0.0155541
713.647	0.0157362
713.725	0.0157011
713.803	0.0158068
713.881	0.0159767
713.959	0.0160368
714.038	0.0158921
714.116	0.0161919
714.194	0.0163239
714.272	0.0161440
714.350	0.0159687
714.428	0.0161612
714.506	0.0160945
714.584	0.0158898
714.663	0.0158797
714.741	0.0159268
714.819	0.0156637
714.897	0.0155006
714.975	0.0154508
715.053	0.0154187
715.131	0.0152665
715.209	0.0152882
715.288	0.0150814
715.366	0.0152134
715.444	0.0151514
715.522	0.0149757
715.600	0.0149373
715.678	0.0149863
715.756	0.0149809
715.834	0.0151453
715.913	0.0151519
715.991	0.0151199
716.069	0.0149532
716.147	0.0152219
716.225	0.0152124
716.303	0.0153891
716.381	0.0154518
716.459	0.0156075
716.538	0.0156534
716.616	0.0156400
716.694	0.0157109
716.772	0.0157701
716.850	0.0157412
716.928	0.0157751
717.006	0.0157201
717.084	0.0157451
717.163	0.0155472
717.241	0.0156083
717.319	0.0155006
717.397	0.0156329
717.475	0.0155244
717.553	0.0155140
717.631	0.0155299
717.709	0.0153145
717.788	0.0154153
717.866	0.0154626
717.944	0.0154013
718.022	0.0153206
718.100	0.0152647
718.178	0.0153003
718.256	0.0154058
718.334	0.0152862
718.413	0.0151790
718.491	0.0155394
718.569	0.0154825
718.647	0.0155724
718.725	0.0156143
718.803	0.0157371
718.881	0.0154526
718.959	0.0156377
719.038	0.0158799
719.116	0.0157191
719.194	0.0158070
719.272	0.0157650
719.350	0.0157954
719.428	0.0157722
719.506	0.0158129
719.584	0.0156850
719.663	0.0157299
719.741	0.0157590
719.819	0.0154528
719.897	0.0153790
719.975	0.0155605
720.053	0.0153835
720.131	0.0153493
720.209	0.0152197
720.288	0.0151469
720.366	0.0152484
720.444	0.0151579
720.522	0.0151587
720.600	0.0149876
720.678	0.0149964
720.756	0.0148888
720.834	0.0151153
720.913	0.0149474
720.991	0.0149316
721.069	0.0149562
721.147	0.0151853
721.225	0.0150901
721.303	0.0151664
721.381	0.0152525
721.459	0.0152286
721.538	0.0151617
721.616	0.0152581
721.694	0.0154125
721.772	0.0154945
721.850	0.0155539
721.928	0.0158249
722.006	0.0156943
722.084	0.0156968
722.163	0.0158044
722.241	0.0158263
722.319	0.0158801
722.397	0.0160032
722.475	0.0160062
722.553	0.0160413
722.631	0.0161440
722.709	0.0161737
722.788	0.0160909
722.866	0.0163367
722.944	0.0162199
723.022	0.0162318
723.100	0.0161850
723.178	0.0162545
723.256	0.0162649
723.334	0.0161802
723.413	0.0161217
723.491	0.0161889
723.569	0.0162193
723.647	0.0162629
723.725	0.0160749
723.803	0.0160255
723.881	0.0159485
723.959	0.0160104
724.038	0.0160918
724.116	0.0160130
724.194	0.0158765
724.272	0.0158574
724.350	0.0158193
724.428	0.0157416
724.506	0.0155321
724.584	0.0154897
724.663	0.0155315
724.741	0.0151775
724.819	0.0150574
724.897	0.0150780
724.975	0.0149897
725.053	0.0148595
725.131	0.0148865
725.209	0.0146555
725.288	0.0145064
725.366	0.0145841
725.444	0.0147056
725.522	0.0146206
725.600	0.0145396
725.678	0.0146979
725.756	0.0146338
725.834	0.0146004
725.913	0.0146735
725.991	0.0147049
726.069	0.0147111
726.147	0.0149606
726.225	0.0147842
726.303	0.0148573
726.381	0.0148170
726.459	0.0146984
726.538	0.0149097
726.616	0.0150478
726.694	0.0150774
726.772	0.0151273
726.850	0.0151466
726.928	0.0150400
727.006	0.0152184
727.084	0.0152039
727.163	0.0153494
727.241	0.0154304
727.319	0.0156359
727.397	0.0157515
727.475	0.0157690
727.553	0.0159522
727.631	0.0160309
727.709	0.0161155
727.788	0.0162617
727.866	0.0164334
727.944	0.0166306
728.022	0.0166930
728.100	0.0167496
728.178	0.0166924
728.256	0.0168842
728.334	0.0168756
728.413	0.0168838
728.491	0.0168790
728.569	0.0167565
728.647	0.0167479
728.725	0.0166183
728.803	0.0164884
728.881	0.0164397
728.959	0.0163200
729.038	0.0161091
729.116	0.0160838
729.194	0.0159981
729.272	0.0158810
729.350	0.0157413
729.428	0.0156005
729.506	0.0155469
729.584	0.0154156
729.663	0.0152762
729.741	0.0151547
729.819	0.0149334
729.897	0.0148532
729.975	0.0148430
730.053	0.0148132
730.131	0.0147468
730.209	0.0148676
730.288	0.0148861
730.366	0.0148201
730.444	0.0148643
730.522	0.0150789
730.600	0.0149857
730.678	0.0148727
730.756	0.0148499
730.834	0.0150266
730.913	0.0150192
730.991	0.0151542
731.069	0.0151807
731.147	0.0153263
731.225	0.0152798
731.303	0.0154050
731.381	0.0154220
731.459	0.0154764
731.538	0.0155464
731.616	0.0154909
731.694	0.0155294
731.772	0.0155380
731.850	0.0154799
731.928	0.0156203
732.006	0.0155950
732.084	0.0155762
732.163	0.0154391
732.241	0.0154636
732.319	0.0155515
732.397	0.0155672
732.475	0.0155221
732.553	0.0157230
732.631	0.0156539
732.709	0.0155994
732.788	0.0157968
732.866	0.0157479
732.944	0.0156372
733.022	0.0156380
733.100	0.0157085
733.178	0.0155880
733.256	0.0155721
733.334	0.0156436
733.413	0.0156186
733.491	0.0156917
733.569	0.0155678
733.647	0.0156388
733.725	0.0154587
733.803	0.0153326
733.881	0.0154063
733.959	0.0154305
734.038	0.0153661
734.116	0.0154245
734.194	0.0154422
734.272	0.0152589
734.350	0.0153315
734.428	0.0153075
734.506	0.0152877
734.584	0.0153846
734.663	0.0153378
734.741	0.0153187
734.819	0.0153638
734.897	0.0153226
734.975	0.0154384
735.053	0.0153983
735.131	0.0156592
735.209	0.0155399
735.288	0.0155475
735.366	0.0156690
735.444	0.0157102
735.522	0.0157336
735.600	0.0156976
735.678	0.0157038
735.756	0.0155541
735.834	0.0155979
735.913	0.0154562
735.991	0.0154893
736.069	0.0154339
736.147	0.0154267
736.225	0.0151960
736.303	0.0152621
736.381	0.0152409
736.459	0.0151351
736.538	0.0152016
736.616	0.0151636
736.694	0.0151488
736.772	0.0150255
736.850	0.0150459
736.928	0.0151485
737.006	0.0151859
737.084	0.0152143
737.163	0.0152291
737.241	0.0154750
737.319	0.0156480
737.397	0.0155746
737.475	0.0156412
737.553	0.0160210
737.631	0.0158846
737.709	0.0160768
737.788	0.0160914
737.866	0.0161367
737.944	0.0163625
738.022	0.0165384
738.100	0.0164959
738.178	0.0165241
738.256	0.0166204
738.334	0.0167353
738.413	0.0166455
738.491	0.0165463
738.569	0.0164454
738.647	0.0164752
738.725	0.0163464
738.803	0.0163734
738.881	0.0161855
738.959	0.0159773
739.038	0.0158150
739.116	0.0157107
739.194	0.0156012
739.272	0.0155285
739.350	0.0153255
739.428	0.0151439
739.506	0.0151405
739.584	0.0150963
739.663	0.0147768
739.741	0.0146831
739.819	0.0146299
739.897	0.0144933
739.975	0.0144518
740.053	0.0142982
740.131	0.0142610
740.209	0.0143947
740.288	0.0142183
740.366	0.0140457
740.444	0.0140321
740.522	0.0142545
740.600	0.0141490
740.678	0.0143335
740.756	0.0143939
740.834	0.0143157
740.913	0.0144526
740.991	0.0146191
741.069	0.0148046
741.147	0.0147932
741.225	0.0150921
741.303	0.0150832
741.381	0.0150963
741.459	0.0153857
741.538	0.0154317
741.616	0.0155849
741.694	0.0156924
741.772	0.0158788
741.850	0.0159290
741.928	0.0160912
742.006	0.0163322
742.084	0.0163278
742.163	0.0165282
742.241	0.0164510
742.319	0.0165247
742.397	0.0165911
742.475	0.0167001
742.553	0.0166094
742.631	0.0166093
742.709	0.0165804
742.788	0.0165872
742.866	0.0164783
742.944	0.0165607
743.022	0.0163593
743.100	0.0163631
743.178	0.0161908
743.256	0.0160899
743.334	0.0160857
743.413	0.0159068
743.491	0.0156467
743.569	0.0157211
743.647	0.0155766
743.725	0.0155723
743.803	0.0153409
743.881	0.0153175
743.959	0.0154013
744.038	0.0152320
744.116	0.0151008
744.194	0.0149194
744.272	0.0149568
744.350	0.0148904
744.428	0.0149878
744.506	0.0149278
744.584	0.0148717
744.663	0.0147644
744.741	0.0148485
744.819	0.0148042
744.897	0.0148802
744.975	0.0148363
745.053	0.0148972
745.131	0.0149464
745.209	0.0147836
745.288	0.0148732
745.366	0.0150244
745.444	0.0149809
745.522	0.0148900
745.600	0.0150779
745.678	0.0150373
745.756	0.0151220
745.834	0.0152162
745.913	0.0153469
745.991	0.0154745
746.069	0.0156236
746.147	0.0154993
746.225	0.0156510
746.303	0.0158277
746.381	0.0157734
746.459	0.0156856
746.538	0.0159306
746.616	0.0160302
746.694	0.0159304
746.772	0.0158966
746.850	0.0160421
746.928	0.0160631
747.006	0.0159586
747.084	0.0159729
747.163	0.0158411
747.241	0.0157516
747.319	0.0157713
747.397	0.0158283
747.475	0.0157513
747.553	0.0157639
747.631	0.0156556
747.709	0.0156959
747.788	0.0157693
747.866	0.0157230
747.944	0.0157233
748.022	0.0158099
748.100	0.0157148
748.178	0.0157123
748.256	0.0156142
748.334	0.0156825
748.413	0.0156012
748.491	0.0158015
748.569	0.0157520
748.647	0.0157644
748.725	0.0157218
748.803	0.0157053
748.881	0.0156889
748.959	0.0157095
749.038	0.0155843
749.116	0.0156669
749.194	0.0156076
749.272	0.0155077
749.350	0.0154540
749.428	0.0153416
749.506	0.0152689
749.584	0.0153287
749.663	0.0150640
749.741	0.0149403
749.819	0.0150925
749.897	0.0149687
749.975	0.0149554
750.053	0.0148692
750.131	0.0149023
750.209	0.0150352
750.288	0.0148528
750.366	0.0148002
750.444	0.0149849
750.522	0.0150430
750.600	0.0151345
750.678	0.0150583
750.756	0.0151456
750.834	0.0152142
750.913	0.0153337
750.991	0.0154726
751.069	0.0155268
751.147	0.0153889
751.225	0.0156449
751.303	0.0158667
751.381	0.0160142
751.459	0.0161930
751.538	0.0161971
751.616	0.0164225
751.694	0.0165596
751.772	0.0165561
751.850	0.0166376
751.928	0.0167088
752.006	0.0166828
752.084	0.0166013
752.163	0.0166199
752.241	0.0166046
752.319	0.0164238
752.397	0.0165039
752.475	0.0163151
752.553	0.0159842
752.631	0.0157297
752.709	0.0155296
752.788	0.0153712
752.866	0.0151288
752.944	0.0149265
753.022	0.0146011
753.100	0.0145258
753.178	0.0144805
753.256	0.0143044
753.334	0.0141308
753.413	0.0142594
753.491	0.0142276
753.569	0.0141309
753.647	0.0142065
753.725	0.0143300
753.803	0.0145081
753.881	0.0147617
753.959	0.0147565
754.038	0.0148394
754.116	0.0151907
754.194	0.0153355
754.272	0.0153526
754.350	0.0156580
754.428	0.0156776
754.506	0.0158517
754.584	0.0159430
754.663	0.0160803
754.741	0.0160706
754.819	0.0159666
754.897	0.0161441
754.975	0.0161772
755.053	0.0161374
755.131	0.0159042
755.209	0.0159872
755.288	0.0158290
755.366	0.0155756
755.444	0.0156548
755.522	0.0157128
755.600	0.0155209
755.678	0.0154390
755.756	0.0152989
755.834	0.0153700
755.913	0.0152457
755.991	0.0152489
756.069	0.0152238
756.147	0.0153214
756.225	0.0153741
756.303	0.0152901
756.381	0.0154363
756.459	0.0154997
756.538	0.0155333
756.616	0.0155554
756.694	0.0156713
756.772	0.0157953
756.850	0.0156861
756.928	0.0157142
757.006	0.0156913
757.084	0.0157032
757.163	0.0155605
757.241	0.0155360
757.319	0.0153847
757.397	0.0154582
757.475	0.0153058
757.553	0.0152911
757.631	0.0150721
757.709	0.0150195
757.788	0.0149779
757.866	0.0147810
757.944	0.0147985
758.022	0.0146748
758.100	0.0146078
758.178	0.0145370
758.256	0.0145956
758.334	0.0145351
758.413	0.0146661
758.491	0.0147509
758.569	0.0148103
758.647	0.0147651
758.725	0.0151034
758.803	0.0152086
758.881	0.0154168
758.959	0.0156881
759.038	0.0156919
759.116	0.0159472
759.194	0.0160638
759.272	0.0161171
759.350	0.0163008
759.428	0.0164822
759.506	0.0164543
759.584	0.0166147
759.663	0.0166654
759.741	0.0166489
759.819	0.0167313
759.897	0.0165723
759.975	0.0165195
760.053	0.0165498
760.131	0.0163906
760.209	0.0162386
760.288	0.0164002
760.366	0.0161974
760.444	0.0160196
760.522	0.0159395
760.600	0.0157975
760.678	0.0157322
760.756	0.0155390
760.834	0.0153560
760.913	0.0153054
760.991	0.0152685
761.069	0.0152380
761.147	0.0150404
761.225	0.0150609
761.303	0.0149996
761.381	0.0150082
761.459	0.0150096
761.538	0.0148886
761.616	0.0147973
761.694	0.0148129
761.772	0.0147560
761.850	0.0147933
761.928	0.0149177
762.006	0.0149705
762.084	0.0151066
762.163	0.0150479
762.241	0.0151112
762.319	0.0150831
762.397	0.0151807
762.475	0.0153471
762.553	0.0153528
762.631	0.0153176
762.709	0.0155053
762.788	0.0156988
762.866	0.0157454
762.944	0.0158375
763.022	0.0159277
763.100	0.0157385
763.178	0.0157969
763.256	0.0158960
763.334	0.0158492
763.413	0.0160011
763.491	0.0159879
763.569	0.0159988
763.647	0.0159241
763.725	0.0159830
763.803	0.0158147
763.881	0.0157975
763.959	0.0156757
764.038	0.0156207
764.116	0.0156071
764.194	0.0155296
764.272	0.0154115
764.350	0.0152765
764.428	0.0152338
764.506	0.0150744
764.584	0.0151769
764.663	0.0151073
764.741	0.0149336
764.819	0.0148861
764.897	0.0148445
764.975	0.0148933
765.053	0.0148194
765.131	0.0149520
765.209	0.0149236
765.288	0.0150410
765.366	0.0149322
765.444	0.0149133
765.522	0.0149855
765.600	0.0150705
765.678	0.0152695
765.756	0.0151881
765.834	0.0153044
765.913	0.0155254
765.991	0.0154842
766.069	0.0156080
766.147	0.0157465
766.225	0.0157403
766.303	0.0159490
766.381	0.0159547
766.459	0.0160574
766.538	0.0159343
766.616	0.0161031
766.694	0.0161807
766.772	0.0161696
766.850	0.0161731
766.928	0.0162148
767.006	0.0160313
767.084	0.0160120
767.163	0.0160432
767.241	0.0160310
767.319	0.0159305
767.397	0.0157345
767.475	0.0154809
767.553	0.0154192
767.631	0.0153981
767.709	0.0152496
767.788	0.0153084
767.866	0.0150439
767.944	0.0150336
768.022	0.0150741
768.100	0.0148960
768.178	0.0149853
768.256	0.0148940
768.334	0.0149289
768.413	0.0150601
768.491	0.0151740
768.569	0.0150805
768.647	0.0151812
768.725	0.0152143
768.803	0.0153150
768.881	0.0155402
768.959	0.0154800
769.038	0.0156429
769.116	0.0158701
769.194	0.0160072
769.272	0.0158752
769.350	0.0159798
769.428	0.0161787
769.506	0.0161935
769.584	0.0160947
769.663	0.0160219
769.741	0.0159535
769.819	0.0160423
769.897	0.0160468
769.975	0.0159808
770.053	0.0159179
770.131	0.0157410
770.209	0.0156732
770.288	0.0156370
770.366	0.0155099
770.444	0.0154630
770.522	0.0154172
770.600	0.0152391
770.678	0.0152763
770.756	0.0151486
770.834	0.0150211
770.913	0.0150495
770.991	0.0150605
771.069	0.0149755
771.147	0.0150645
771.225	0.0149731
771.303	0.0150464
771.381	0.0150077
771.459	0.0150877
771.538	0.0150438
771.616	0.0150744
771.694	0.0150143
771.772	0.0150892
771.850	0.0150924
771.928	0.0151335
772.006	0.0150674
772.084	0.0152245
772.163	0.0152567
772.241	0.0153282
772.319	0.0153230
772.397	0.0153529
772.475	0.0153804
772.553	0.0155213
772.631	0.0155924
772.709	0.0155837
772.788	0.0156332
772.866	0.0156260
772.944	0.0156058
773.022	0.0157200
773.100	0.0157268
773.178	0.0156805
773.256	0.0156732
773.334	0.0158463
773.413	0.0158492
773.491	0.0159527
773.569	0.0158412
773.647	0.0158172
773.725	0.0157943
773.803	0.0156898
773.881	0.0157483
773.959	0.0157124
774.038	0.0156159
774.116	0.0157731
774.194	0.0156422
774.272	0.0154587
774.350	0.0154558
774.428	0.0154138
774.506	0.0153236
774.584	0.0153997
774.663	0.0154438
774.741	0.0153423
774.819	0.0153394
774.897	0.0153347
774.975	0.0153815
775.053	0.0155206
775.131	0.0153471
775.209	0.0153629
775.288	0.0153311
775.366	0.0154439
775.444	0.0154868
775.522	0.0156651
775.600	0.0156742
775.678	0.0155635
775.756	0.0156052
775.834	0.0156414
775.913	0.0155819
775.991	0.0156323
776.069	0.0155728
776.147	0.0155093
776.225	0.0156767
776.303	0.0155993
776.381	0.0155176
776.459	0.0156696
776.538	0.0156068
776.616	0.0155869
776.694	0.0157159
776.772	0.0156490
776.850	0.0157563
776.928	0.0157629
777.006	0.0156761
777.084	0.0156687
777.163	0.0157057
777.241	0.0156969
777.319	0.0156965
777.397	0.0156862
777.475	0.0155811
777.553	0.0156109
777.631	0.0157670
777.709	0.0156647
777.788	0.0156504
777.866	0.0154466
777.944	0.0155065
778.022	0.0156387
778.100	0.0155716
778.178	0.0153422
778.256	0.0154372
778.334	0.0154211
778.413	0.0153554
778.491	0.0153411
778.569	0.0153812
778.647	0.0153164
778.725	0.0153608
778.803	0.0153892
778.881	0.0153905
778.959	0.0153294
779.038	0.0152930
779.116	0.0152792
779.194	0.0153014
779.272	0.0153374
779.350	0.0153616
779.428	0.0153641
779.506	0.0153825
779.584	0.0153468
779.663	0.0151253
779.741	0.0151143
779.819	0.0151543
779.897	0.0152551
779.975	0.0151387
780.053	0.0150548
780.131	0.0149832
780.209	0.0149005
780.288	0.0149218
780.366	0.0150455
780.444	0.0149703
780.522	0.0150003
780.600	0.0148907
780.678	0.0150046
780.756	0.0149482
780.834	0.0150548
780.913	0.0150153
780.991	0.0150795
781.069	0.0149319
781.147	0.0149908
781.225	0.0150617
781.303	0.0151751
781.381	0.0151340
781.459	0.0151852
781.538	0.0153398
781.616	0.0153614
781.694	0.0155247
781.772	0.0155858
781.850	0.0155828
781.928	0.0156686
782.006	0.0157079
782.084	0.0157418
782.163	0.0158559
782.241	0.0157899
782.319	0.0159824
782.397	0.0159747
782.475	0.0157512
782.553	0.0158789
782.631	0.0159386
782.709	0.0160174
782.788	0.0160509
782.866	0.0159248
782.944	0.0159316
783.022	0.0159538
783.100	0.0158981
783.178	0.0160091
783.256	0.0159666
783.334	0.0158639
783.413	0.0158456
783.491	0.0156885
783.569	0.0157940
783.647	0.0157282
783.725	0.0157503
783.803	0.0155933
783.881	0.0155930
783.959	0.0154468
784.038	0.0154212
784.116	0.0155235
784.194	0.0154272
784.272	0.0155528
784.350	0.0154768
784.428	0.0154008
784.506	0.0155332
784.584	0.0155106
784.663	0.0154724
784.741	0.0155879
784.819	0.0154007
784.897	0.0153530
784.975	0.0155572
785.053	0.0155532
785.131	0.0155094
785.209	0.0155038
785.288	0.0154356
785.366	0.0154545
785.444	0.0155608
785.522	0.0153481
785.600	0.0154939
785.678	0.0155047
785.756	0.0153929
785.834	0.0153299
785.913	0.0153529
785.991	0.0152368
786.069	0.0151719
786.147	0.0153331
786.225	0.0151885
786.303	0.0151351
786.381	0.0149964
786.459	0.0151528
786.538	0.0149776
786.616	0.0150252
786.694	0.0150800
786.772	0.0150565
786.850	0.0151582
786.928	0.0150455
787.006	0.0152275
787.084	0.0151570
787.163	0.0152927
787.241	0.0154081
787.319	0.0152933
787.397	0.0153782
787.475	0.0156281
787.553	0.0156863
787.631	0.0158174
787.709	0.0158443
787.788	0.0158395
787.866	0.0157668
787.944	0.0159338
788.022	0.0160487
788.100	0.0159820
788.178	0.0157815
788.256	0.0159170
788.334	0.0159659
788.413	0.0157541
788.491	0.0157558
788.569	0.0157958
788.647	0.0156750
788.725	0.0156170
788.803	0.0156084
788.881	0.0155106
788.959	0.0155727
789.038	0.0154860
789.116	0.0153821
789.194	0.0152653
789.272	0.0152292
789.350	0.0153033
789.428	0.0150894
789.506	0.0151117
789.584	0.0151991
789.663	0.0151237
789.741	0.0150513
789.819	0.0152774
789.897	0.0152174
789.975	0.0151989
790.053	0.0151324
790.131	0.0152576
790.209	0.0152789
790.288	0.0152222
790.366	0.0152730
790.444	0.0153067
790.522	0.0153376
790.600	0.0153290
790.678	0.0154538
790.756	0.0154879
790.834	0.0154465
790.913	0.0154928
790.991	0.0155952
791.069	0.0157347
791.147	0.0158219
791.225	0.0157887
791.303	0.0158271
791.381	0.0158313
791.459	0.0160233
791.538	0.0159229
791.616	0.0160903
791.694	0.0160971
791.772	0.0161150
791.850	0.0160540
791.928	0.0159463
792.006	0.0159584
792.084	0.0159907
792.163	0.0159800
792.241	0.0159621
792.319	0.0160538
792.397	0.0158298
792.475	0.0157404
792.553	0.0156276
792.631	0.0156190
792.709	0.0154603
792.788	0.0153739
792.866	0.0152560
792.944	0.0154050
793.022	0.0152779
793.100	0.0152263
793.178	0.0151529
793.256	0.0152143
793.334	0.0151657
793.413	0.0149117
793.491	0.0149273
793.569	0.0148965
793.647	0.0149044
793.725	0.0149862
793.803	0.0148975
793.881	0.0148877
793.959	0.0149249
794.038	0.0149551
794.116	0.0148484
794.194	0.0147483
794.272	0.0147991
794.350	0.0148807
794.428	0.0151005
794.506	0.0150199
794.584	0.0149089
794.663	0.0150784
794.741	0.0150343
794.819	0.0149937
794.897	0.0150124
794.975	0.0150076
795.053	0.0152242
795.131	0.0151587
795.209	0.0153464
795.288	0.0154176
795.366	0.0152652
795.444	0.0155125
795.522	0.0155499
795.600	0.0156494
795.678	0.0157446
795.756	0.0157199
795.834	0.0157774
795.913	0.0158479
795.991	0.0158530
796.069	0.0159575
796.147	0.0159457
796.225	0.0159819
796.303	0.0160249
796.381	0.0160571
796.459	0.0161624
796.538	0.0160815
796.616	0.0160736
796.694	0.0160241
796.772	0.0161312
796.850	0.0160784
796.928	0.0162157
797.006	0.0159783
797.084	0.0158409
797.163	0.0158730
797.241	0.0159261
797.319	0.0158475
797.397	0.0160207
797.475	0.0158089
797.553	0.0158619
797.631	0.0156529
797.709	0.0157959
797.788	0.0155457
797.866	0.0155199
797.944	0.0154684
798.022	0.0154739
798.100	0.0153637
798.178	0.0154452
798.256	0.0152287
798.334	0.0151939
798.413	0.0151134
798.491	0.0149864
798.569	0.0149985
798.647	0.0150113
798.725	0.0148591
798.803	0.0148046
798.881	0.0148191
798.959	0.0148704
799.038	0.0149210
799.116	0.0148009
799.194	0.0148318
799.272	0.0148991
799.350	0.0148840
799.428	0.0149104
799.506	0.0150133
799.584	0.0150951
799.663	0.0150717
799.741	0.0151213
799.819	0.0152281
799.897	0.0152661
799.975	0.0152868
800.053	0.0153825
800.131	0.0154817
800.209	0.0154333
800.288	0.0154559
800.366	0.0155051
800.444	0.0155301
800.522	0.0156072
800.600	0.0157201
800.678	0.0158711
800.756	0.0157736
800.834	0.0156335
800.913	0.0158254
800.991	0.0157668
801.069	0.0157235
801.147	0.0158989
801.225	0.0158696
801.303	0.0157780
801.381	0.0158569
801.459	0.0157275
801.538	0.0158250
801.616	0.0157382
801.694	0.0158054
801.772	0.0156899
801.850	0.0157027
801.928	0.0156075
802.006	0.0155113
802.084	0.0156136
802.163	0.0153902
802.241	0.0154104
802.319	0.0155795
802.397	0.0154852
802.475	0.0155214
802.553	0.0154337
802.631	0.0154237
802.709	0.0154440
802.788	0.0153603
802.866	0.0154041
802.944	0.0154852
803.022	0.0153092
803.100	0.0153077
803.178	0.0153261
803.256	0.0152986
803.334	0.0152551
803.413	0.0153810
803.491	0.0153293
803.569	0.0153703
803.647	0.0154443
803.725	0.0153622
803.803	0.0153056
803.881	0.0154353
803.959	0.0154851
804.038	0.0153963
804.116	0.0154503
804.194	0.0153712
804.272	0.0154053
804.350	0.0155171
804.428	0.0152332
804.506	0.0152961
804.584	0.0153687
804.663	0.0152014
804.741	0.0152583
804.819	0.0153825
804.897	0.0154986
804.975	0.0153036
805.053	0.0153303
805.131	0.0154092
805.209	0.0153116
805.288	0.0153685
805.366	0.0153717
805.444	0.0154265
805.522	0.0154539
805.600	0.0152399
805.678	0.0153753
805.756	0.0154707
805.834	0.0153251
805.913	0.0155674
805.991	0.0152988
806.069	0.0154758
806.147	0.0154797
806.225	0.0154628
806.303	0.0154099
806.381	0.0153456
806.459	0.0155976
806.538	0.0155553
806.616	0.0153846
806.694	0.0154370
806.772	0.0155419
806.850	0.0154891
806.928	0.0154722
807.006	0.0155225
807.084	0.0155854
807.163	0.0155888
807.241	0.0156297
807.319	0.0156026
807.397	0.0157130
807.475	0.0156081
807.553	0.0156767
807.631	0.0157955
807.709	0.0156974
807.788	0.0156776
807.866	0.0158297
807.944	0.0157278
808.022	0.0157825
808.100	0.0157472
808.178	0.0157017
808.256	0.0158938
808.334	0.0158625
808.413	0.0158919
808.491	0.0157668
808.569	0.0158805
808.647	0.0157318
808.725	0.0156792
808.803	0.0156752
808.881	0.0156731
808.959	0.0154274
809.038	0.0155231
809.116	0.0155962
809.194	0.0154903
809.272	0.0155392
809.350	0.0154652
809.428	0.0154133
809.506	0.0152793
809.584	0.0154289
809.663	0.0155423
809.741	0.0153192
809.819	0.0154321
809.897	0.0154059
809.975	0.0154042
810.053	0.0154866
810.131	0.0155852
810.209	0.0155417
810.288	0.0154745
810.366	0.0154596
810.444	0.0154821
810.522	0.0155769
810.600	0.0154261
810.678	0.0153764
810.756	0.0156389
810.834	0.0155420
810.913	0.0154631
810.991	0.0153381
811.069	0.0153841
811.147	0.0154062
811.225	0.0154206
811.303	0.0154962
811.381	0.0154205
811.459	0.0153582
811.538	0.0153088
811.616	0.0155080
811.694	0.0154266
811.772	0.0154430
811.850	0.0154993
811.928	0.0155325
812.006	0.0153264
812.084	0.0154897
812.163	0.0154996
812.241	0.0153897
812.319	0.0154356
812.397	0.0154898
812.475	0.0156392
812.553	0.0155356
812.631	0.0154928
812.709	0.0156532
812.788	0.0156960
812.866	0.0156866
812.944	0.0157246
813.022	0.0157417
813.100	0.0156374
813.178	0.0156025
813.256	0.0156756
813.334	0.0156286
813.413	0.0155823
813.491	0.0156061
813.569	0.0156641
813.647	0.0156386
813.725	0.0156453
813.803	0.0154661
813.881	0.0154926
813.959	0.0155447
814.038	0.0154572
814.116	0.0155517
814.194	0.0154830
814.272	0.0152739
814.350	0.0154433
814.428	0.0153088
814.506	0.0153237
814.584	0.0154235
814.663	0.0155605
814.741	0.0153006
814.819	0.0154765
814.897	0.0153762
814.975	0.0153578
815.053	0.0152896
815.131	0.0152593
815.209	0.0152753
815.288	0.0153947
815.366	0.0154064
815.444	0.0154444
815.522	0.0154381
815.600	0.0153007
815.678	0.0154641
815.756	0.0154852
815.834	0.0154566
815.913	0.0155266
815.991	0.0155476
816.069	0.0155788
816.147	0.0155114
816.225	0.0154607
816.303	0.0155460
816.381	0.0155476
816.459	0.0155629
816.538	0.0154925
816.616	0.0155683
816.694	0.0155515
816.772	0.0155943
816.850	0.0156326
816.928	0.0154974
817.006	0.0155581
817.084	0.0157064
817.163	0.0154435
817.241	0.0154379
817.319	0.0154698
817.397	0.0154782
817.475	0.0154987
817.553	0.0154311
817.631	0.0155987
817.709	0.0154754
817.788	0.0154408
817.866	0.0153895
817.944	0.0154594
818.022	0.0154950
818.100	0.0155000
818.178	0.0155601
818.256	0.0154643
818.334	0.0152957
818.413	0.0153996
818.491	0.0153815
818.569	0.0154985
818.647	0.0154300
818.725	0.0154404
818.803	0.0154744
818.881	0.0155340
818.959	0.0154893
819.038	0.0155277
819.116	0.0154632
819.194	0.0155941
819.272	0.0156942
819.350	0.0155184
819.428	0.0155528
819.506	0.0156445
819.584	0.0155865
819.663	0.0155774
819.741	0.0154847
819.819	0.0156162
819.897	0.0157298
819.975	0.0155626
820.053	0.0157143
820.131	0.0154939
820.209	0.0155476
820.288	0.0155161
820.366	0.0156799
820.444	0.0156236
820.522	0.0155270
820.600	0.0155535
820.678	0.0155977
820.756	0.0155402
820.834	0.0154454
820.913	0.0154941
820.991	0.0154973
821.069	0.0155910
821.147	0.0155132
821.225	0.0155149
821.303	0.0155296
821.381	0.0154526
821.459	0.0153471
821.538	0.0154839
821.616	0.0153828
821.694	0.0153196
821.772	0.0151131
821.850	0.0154006
821.928	0.0153938
822.006	0.0153928
822.084	0.0153116
822.163	0.0152578
822.241	0.0154269
822.319	0.0153577
822.397	0.0152139
822.475	0.0152821
822.553	0.0153674
822.631	0.0152243
822.709	0.0152871
822.788	0.0153464
822.866	0.0152092
822.944	0.0152715
823.022	0.0153452
823.100	0.0152883
823.178	0.0152289
823.256	0.0154794
823.334	0.0153763
823.413	0.0153344
823.491	0.0154658
823.569	0.0152929
823.647	0.0152829
823.725	0.0155295
823.803	0.0154424
823.881	0.0154438
823.959	0.0155103
824.038	0.0154739
824.116	0.0155028
824.194	0.0155667
824.272	0.0156774
824.350	0.0155785
824.428	0.0155580
824.506	0.0156995
824.584	0.0155953
824.663	0.0156486
824.741	0.0155528
824.819	0.0155813
824.897	0.0156540
824.975	0.0157103
825.053	0.0154840
825.131	0.0156242
825.209	0.0155661
825.288	0.0156461
825.366	0.0158463
825.444	0.0156333
825.522	0.0156318
825.600	0.0156492
825.678	0.0156596
825.756	0.0156892
825.834	0.0157244
825.913	0.0156013
825.991	0.0156349
826.069	0.0156017
826.147	0.0156322
826.225	0.0156502
826.303	0.0155712
826.381	0.0155808
826.459	0.0155589
826.538	0.0154388
826.616	0.0156470
826.694	0.0155956
826.772	0.0155182
826.850	0.0153748
826.928	0.0154393
827.006	0.0154323
827.084	0.0153509
827.163	0.0152539
827.241	0.0153186
827.319	0.0152786
827.397	0.0152349
827.475	0.0153209
827.553	0.0153104
827.631	0.0152873
827.709	0.0153473
827.788	0.0152354
827.866	0.0153935
827.944	0.0153677
828.022	0.0152815
828.100	0.0152478
828.178	0.0152772
828.256	0.0153134
828.334	0.0153319
828.413	0.0155228
828.491	0.0153046
828.569	0.0153387
828.647	0.0154845
828.725	0.0155078
828.803	0.0155257
828.881	0.0154317
828.959	0.0154417
829.038	0.0155518
829.116	0.0154484
829.194	0.0155727
829.272	0.0153647
829.350	0.0153975
829.428	0.0153688
829.506	0.0154476
829.584	0.0155045
829.663	0.0152829
829.741	0.0155782
829.819	0.0154858
829.897	0.0154997
829.975	0.0154792
830.053	0.0154097
830.131	0.0155139
830.209	0.0154722
830.288	0.0154871
830.366	0.0155753
830.444	0.0155586
830.522	0.0154990
830.600	0.0155693
830.678	0.0155176
830.756	0.0155650
830.834	0.0156467
830.913	0.0156211
830.991	0.0156655
831.069	0.0156357
831.147	0.0156196
831.225	0.0155271
831.303	0.0156171
831.381	0.0155038
831.459	0.0156190
831.538	0.0154904
831.616	0.0156383
831.694	0.0156007
831.772	0.0156466
831.850	0.0154514
831.928	0.0155315
832.006	0.0156658
832.084	0.0157169
832.163	0.0156534
832.241	0.0156541
832.319	0.0155089
832.397	0.0156107
832.475	0.0155904
832.553	0.0154604
832.631	0.0154846
832.709	0.0156028
832.788	0.0154758
832.866	0.0154134
832.944	0.0155846
833.022	0.0156371
833.100	0.0154371
833.178	0.0154725
833.256	0.0153523
833.334	0.0155464
833.413	0.0156415
833.491	0.0154915
833.569	0.0154198
833.647	0.0155695
833.725	0.0155718
833.803	0.0156330
833.881	0.0155555
833.959	0.0155570
834.038	0.0155988
834.116	0.0156520
834.194	0.0156491
834.272	0.0155083
834.350	0.0156261
834.428	0.0156637
834.506	0.0154826
834.584	0.0155775
834.663	0.0156154
834.741	0.0154678
834.819	0.0156170
834.897	0.0155402
834.975	0.0156098
835.053	0.0156224
835.131	0.0156054
835.209	0.0156436
835.288	0.0156045
835.366	0.0155852
835.444	0.0154637
835.522	0.0156339
835.600	0.0153909
835.678	0.0154915
835.756	0.0155150
835.834	0.0155906
835.913	0.0155277
835.991	0.0153706
836.069	0.0153255
836.147	0.0154176
836.225	0.0155267
836.303	0.0155085
836.381	0.0155090
836.459	0.0154353
836.538	0.0154122
836.616	0.0154826
836.694	0.0154970
836.772	0.0155311
836.850	0.0153823
836.928	0.0155129
837.006	0.0157240
837.084	0.0154842
837.163	0.0156123
837.241	0.0154865
837.319	0.0154281
837.397	0.0155305
837.475	0.0155045
837.553	0.0156615
837.631	0.0156480
837.709	0.0156075
837.788	0.0156199
837.866	0.0156508
837.944	0.0155975
838.022	0.0155862
838.100	0.0156335
838.178	0.0156804
838.256	0.0157919
838.334	0.0157293
838.413	0.0156970
838.491	0.0156397
838.569	0.0156215
838.647	0.0156708
838.725	0.0156778
838.803	0.0156680
838.881	0.0158253
838.959	0.0156960
839.038	0.0156647
839.116	0.0157014
839.194	0.0156252
839.272	0.0155480
839.350	0.0156975
839.428	0.0156069
839.506	0.0154568
839.584	0.0154806
839.663	0.0154667
839.741	0.0154436
839.819	0.0153920
839.897	0.0153848
839.975	0.0154707
840.053	0.0152493
840.131	0.0153275
840.209	0.0152657
840.288	0.0152220
840.366	0.0151857
840.444	0.0153460
840.522	0.0151754
840.600	0.0153004
840.678	0.0152546
840.756	0.0154434
840.834	0.0153876
840.913	0.0154202
840.991	0.0154460
841.069	0.0155086
841.147	0.0154227
841.225	0.0155193
841.303	0.0155455
841.381	0.0154113
841.459	0.0155118
841.538	0.0155092
841.616	0.0153429
841.694	0.0155515
841.772	0.0155412
841.850	0.0154776
841.928	0.0155767
842.006	0.0154091
842.084	0.0154964
842.163	0.0157299
842.241	0.0155202
842.319	0.0155695
842.397	0.0156324
842.475	0.0156668
842.553	0.0155547
842.631	0.0155146
842.709	0.0156554
842.788	0.0155927
842.866	0.0155623
842.944	0.0154659
843.022	0.0156683
843.100	0.0156029
843.178	0.0156523
843.256	0.0155492
843.334	0.0155629
843.413	0.0154933
843.491	0.0156718
843.569	0.0154390
843.647	0.0154826
843.725	0.0154360
843.803	0.0154943
843.881	0.0154123
843.959	0.0154577
844.038	0.0154676
844.116	0.0154149
844.194	0.0153538
844.272	0.0154713
844.350	0.0153779
844.428	0.0154250
844.506	0.0154636
844.584	0.0154190
844.663	0.0155016
844.741	0.0154092
844.819	0.0153318
844.897	0.0152703
844.975	0.0152763
845.053	0.0153595
845.131	0.0153413
845.209	0.0154469
845.288	0.0154533
845.366	0.0154010
845.444	0.0153928
845.522	0.0153769
845.600	0.0152874
845.678	0.0154686
845.756	0.0153268
845.834	0.0154080
845.913	0.0153942
845.991	0.0154301
846.069	0.0154374
846.147	0.0153967
846.225	0.0155209
846.303	0.0154269
846.381	0.0153701
846.459	0.0153389
846.538	0.0155219
846.616	0.0153134
846.694	0.0154934
846.772	0.0154510
846.850	0.0154289
846.928	0.0153516
847.006	0.0154314
847.084	0.0155988
847.163	0.0153455
847.241	0.0155440
847.319	0.0155904
847.397	0.0153963
847.475	0.0153616
847.553	0.0156100
847.631	0.0155460
847.709	0.0155254
847.788	0.0155932
847.866	0.0153746
847.944	0.0155243
848.022	0.0155280
848.100	0.0155116
848.178	0.0155004
848.256	0.0154070
848.334	0.0154617
848.413	0.0154141
848.491	0.0154498
848.569	0.0153831
848.647	0.0153838
848.725	0.0154176
848.803	0.0154409
848.881	0.0154048
848.959	0.0154261
849.038	0.0155590
849.116	0.0153342
849.194	0.0153952
849.272	0.0152804
849.350	0.0152682
849.428	0.0152875
849.506	0.0152366
849.584	0.0153864
849.663	0.0153985
849.741	0.0153607
849.819	0.0153321
849.897	0.0152531
849.975	0.0153992
850.053	0.0153949
850.131	0.0154335
850.209	0.0156194
850.288	0.0154776
850.366	0.0155241
850.444	0.0156084
850.522	0.0156675
850.600	0.0154426
850.678	0.0155978
850.756	0.0155698
850.834	0.0156826
850.913	0.0154475
850.991	0.0154514
851.069	0.0155169
851.147	0.0156454
851.225	0.0155946
851.303	0.0155792
851.381	0.0156271
851.459	0.0156701
851.538	0.0156655
851.616	0.0156992
851.694	0.0155824
851.772	0.0156603
851.850	0.0157386
851.928	0.0156983
852.006	0.0156119
852.084	0.0157133
852.163	0.0156252
852.241	0.0156950
852.319	0.0157820
852.397	0.0157394
852.475	0.0157417
852.553	0.0156385
852.631	0.0156741
852.709	0.0157712
852.788	0.0158309
852.866	0.0156992
852.944	0.0156155
853.022	0.0156276
853.100	0.0156010
853.178	0.0156960
853.256	0.0156280
853.334	0.0156200
853.413	0.0156538
853.491	0.0155670
853.569	0.0155655
853.647	0.0155317
853.725	0.0156215
853.803	0.0154166
853.881	0.0155372
853.959	0.0156640
854.038	0.0154898
854.116	0.0153532
854.194	0.0153257
854.272	0.0153972
854.350	0.0154846
854.428	0.0152727
854.506	0.0153409
854.584	0.0152998
854.663	0.0153666
854.741	0.0154220
854.819	0.0154771
854.897	0.0154755
854.975	0.0153936
855.053	0.0154514
855.131	0.0153375
855.209	0.0153946
855.288	0.0155485
855.366	0.0154012
855.444	0.0156710
855.522	0.0155493
855.600	0.0155254
855.678	0.0153918
855.756	0.0155115
855.834	0.0156103
855.913	0.0155023
855.991	0.0155232
856.069	0.0156135
856.147	0.0154597
856.225	0.0156400
856.303	0.0157102
856.381	0.0154847
856.459	0.0154532
856.538	0.0156185
856.616	0.0156470
856.694	0.0156168
856.772	0.0155753
856.850	0.0154417
856.928	0.0155305
857.006	0.0154632
857.084	0.0153701
857.163	0.0153501
857.241	0.0153472
857.319	0.0154424
857.397	0.0153758
857.475	0.0153316
857.553	0.0154340
857.631	0.0153262
857.709	0.0153177
857.788	0.0152486
857.866	0.0152969
857.944	0.0152020
858.022	0.0152995
858.100	0.0153741
858.178	0.0154209
858.256	0.0153580
858.334	0.0153351
858.413	0.0153942
858.491	0.0153169
858.569	0.0151360
858.647	0.0153509
858.725	0.0153847
858.803	0.0153693
858.881	0.0153333
858.959	0.0152845
859.038	0.0154231
859.116	0.0155488
859.194	0.0154747
859.272	0.0153262
859.350	0.0154911
859.428	0.0155446
859.506	0.0154453
859.584	0.0154822
859.663	0.0155541
859.741	0.0155551
859.819	0.0155952
859.897	0.0156695
859.975	0.0156596
860.053	0.0156092
860.131	0.0156293
860.209	0.0156189
860.288	0.0156985
860.366	0.0156079
860.444	0.0157130
860.522	0.0156850
860.600	0.0156516
860.678	0.0156413
860.756	0.0156914
860.834	0.0156130
860.913	0.0157512
860.991	0.0156495
861.069	0.0157147
861.147	0.0157378
861.225	0.0155576
861.303	0.0155437
861.381	0.0155436
861.459	0.0155562
861.538	0.0154877
861.616	0.0155550
861.694	0.0154439
861.772	0.0154999
861.850	0.0154417
861.928	0.0155300
862.006	0.0155258
862.084	0.0156174
862.163	0.0155171
862.241	0.0154308
862.319	0.0155252
862.397	0.0155169
862.475	0.0155103
862.553	0.0154485
862.631	0.0155276
862.709	0.0155105
862.788	0.0154630
862.866	0.0155248
862.944	0.0154868
863.022	0.0155501
863.100	0.0155199
863.178	0.0155299
863.256	0.0155050
863.334	0.0154292
863.413	0.0154666
863.491	0.0153356
863.569	0.0153899
863.647	0.0153890
863.725	0.0154329
863.803	0.0154602
863.881	0.0154745
863.959	0.0154343
864.038	0.0154456
864.116	0.0154411
864.194	0.0152618
864.272	0.0153294
864.350	0.0154841
864.428	0.0154200
864.506	0.0154208
864.584	0.0155540
864.663	0.0155199
864.741	0.0153979
864.819	0.0154617
864.897	0.0154488
864.975	0.0154485
865.053	0.0155817
865.131	0.0155213
865.209	0.0155592
865.288	0.0156727
865.366	0.0157165
865.444	0.0156335
865.522	0.0156181
865.600	0.0155702
865.678	0.0155752
865.756	0.0156079
865.834	0.0155032
865.913	0.0155522
865.991	0.0155541
866.069	0.0155547
866.147	0.0156286
866.225	0.0154139
866.303	0.0156147
866.381	0.0156100
866.459	0.0156822
866.538	0.0157124
866.616	0.0156078
866.694	0.0155225
866.772	0.0154919
866.850	0.0156271
866.928	0.0154267
867.006	0.0154466
867.084	0.0154029
867.163	0.0153061
867.241	0.0153838
867.319	0.0153824
867.397	0.0153595
867.475	0.0154405
867.553	0.0154118
867.631	0.0152752
867.709	0.0153956
867.788	0.0153513
867.866	0.0154181
867.944	0.0153204
868.022	0.0152451
868.100	0.0152725
868.178	0.0152342
868.256	0.0151562
868.334	0.0153247
868.413	0.0152922
868.491	0.0152689
868.569	0.0153480
868.647	0.0153648
868.725	0.0153333
868.803	0.0153397
868.881	0.0151950
868.959	0.0153384
869.038	0.0152928
869.116	0.0153513
869.194	0.0154314
869.272	0.0153907
869.350	0.0154714
869.428	0.0153954
869.506	0.0154678
869.584	0.0153657
869.663	0.0154660
869.741	0.0154099
869.819	0.0154364
869.897	0.0155579
869.975	0.0156491
870.053	0.0154413
870.131	0.0155725
870.209	0.0157151
870.288	0.0154851
870.366	0.0155455
870.444	0.0156319
870.522	0.0156715
870.600	0.0156011
870.678	0.0156653
870.756	0.0157416
870.834	0.0157398
870.913	0.0157288
870.991	0.0157594
871.069	0.0156818
871.147	0.0156215
871.225	0.0155346
871.303	0.0157291
871.381	0.0156051
871.459	0.0156516
871.538	0.0155833
871.616	0.0155871
871.694	0.0155679
871.772	0.0154996
871.850	0.0154610
871.928	0.0154853
872.006	0.0154514
872.084	0.0154846
872.163	0.0155521
872.241	0.0155419
872.319	0.0153963
872.397	0.0154003
872.475	0.0153523
872.553	0.0154183
872.631	0.0154510
872.709	0.0153585
872.788	0.0153732
872.866	0.0154539
872.944	0.0155882
873.022	0.0154935
873.100	0.0154486
873.178	0.0155129
873.256	0.0153225
873.334	0.0154480
873.413	0.0154610
873.491	0.0154624
873.569	0.0154962
873.647	0.0154486
873.725	0.0155331
873.803	0.0155789
873.881	0.0154974
873.959	0.0156622
874.038	0.0155581
874.116	0.0155563
874.194	0.0153809
874.272	0.0155962
874.350	0.0156419
874.428	0.0155650
874.506	0.0155621
874.584	0.0155891
874.663	0.0154427
874.741	0.0156973
874.819	0.0156343
874.897	0.0154437
874.975	0.0154452
875.053	0.0155431
875.131	0.0155674
875.209	0.0154793
875.288	0.0154184
875.366	0.0155189
875.444	0.0154527
875.522	0.0155247
875.600	0.0155120
875.678	0.0155062
875.756	0.0155422
875.834	0.0155317
875.913	0.0154803
875.991	0.0155254
876.069	0.0155236
876.147	0.0155054
876.225	0.0155750
876.303	0.0153696
876.381	0.0155169
876.459	0.0154613
876.538	0.0154601
876.616	0.0155418
876.694	0.0155219
876.772	0.0155239
876.850	0.0154755
876.928	0.0153978
877.006	0.0155032
877.084	0.0153968
877.163	0.0153178
877.241	0.0154385
877.319	0.0152261
877.397	0.0154484
877.475	0.0154295
877.553	0.0154794
877.631	0.0155326
877.709	0.0154111
877.788	0.0153125
877.866	0.0152083
877.944	0.0153095
878.022	0.0155567
878.100	0.0153800
878.178	0.0155655
878.256	0.0155338
878.334	0.0154178
878.413	0.0155601
878.491	0.0154547
878.569	0.0154572
878.647	0.0154697
878.725	0.0155052
878.803	0.0155467
878.881	0.0155791
878.959	0.0156829
879.038	0.0156407
879.116	0.0156617
879.194	0.0156216
879.272	0.0155018
879.350	0.0157220
879.428	0.0156721
879.506	0.0157516
879.584	0.0156406
879.663	0.0156699
879.741	0.0157166
879.819	0.0155898
879.897	0.0155601
879.975	0.0156077
880.053	0.0157230
880.131	0.0155205
880.209	0.0155672
880.288	0.0153682
880.366	0.0155956
880.444	0.0154397
880.522	0.0154704
880.600	0.0156464
880.678	0.0155115
880.756	0.0153271
880.834	0.0153833
880.913	0.0153806
880.991	0.0155330
881.069	0.0154790
881.147	0.0153969
881.225	0.0154784
881.303	0.0154123
881.381	0.0153175
881.459	0.0154671
881.538	0.0154583
881.616	0.0153024
881.694	0.0154876
881.772	0.0154105
881.850	0.0153870
881.928	0.0155016
882.006	0.0154407
882.084	0.0154441
882.163	0.0153857
882.241	0.0154141
882.319	0.0154261
882.397	0.0153452
882.475	0.0154877
882.553	0.0154817
882.631	0.0153588
882.709	0.0153998
882.788	0.0153989
882.866	0.0154472
882.944	0.0154491
883.022	0.0153417
883.100	0.0155102
883.178	0.0154372
883.256	0.0154174
883.334	0.0154984
883.413	0.0155457
883.491	0.0154530
883.569	0.0154587
883.647	0.0154472
883.725	0.0152528
883.803	0.0155344
883.881	0.0154512
883.959	0.0153493
884.038	0.0155467
884.116	0.0155479
884.194	0.0154208
884.272	0.0155670
884.350	0.0154359
884.428	0.0155640
884.506	0.0154878
884.584	0.0156419
884.663	0.0155707
884.741	0.0154786
884.819	0.0155247
884.897	0.0156161
884.975	0.0154522
885.053	0.0154642
885.131	0.0155956
885.209	0.0156638
885.288	0.0156516
885.366	0.0154982
885.444	0.0155111
885.522	0.0156057
885.600	0.0154620
885.678	0.0156528
885.756	0.0156210
885.834	0.0153690
885.913	0.0154200
885.991	0.0155265
886.069	0.0153453
886.147	0.0154075
886.225	0.0154411
886.303	0.0153712
886.381	0.0155101
886.459	0.0154299
886.538	0.0151891
886.616	0.0153736
886.694	0.0154387
886.772	0.0153865
886.850	0.0153454
886.928	0.0153611
887.006	0.0153414
887.084	0.0154099
887.163	0.0154022
887.241	0.0155150
887.319	0.0154577
887.397	0.0156008
887.475	0.0154853
887.553	0.0154965
887.631	0.0156080
887.709	0.0154323
887.788	0.0154812
887.866	0.0156037
887.944	0.0155634
888.022	0.0154469
888.100	0.0154236
888.178	0.0155831
888.256	0.0155730
888.334	0.0155267
888.413	0.0155092
888.491	0.0154334
888.569	0.0154855
888.647	0.0154434
888.725	0.0154647
888.803	0.0154531
888.881	0.0154847
888.959	0.0154994
889.038	0.0155131
889.116	0.0152950
889.194	0.0154408
889.272	0.0153352
889.350	0.0154459
889.428	0.0154388
889.506	0.0155615
889.584	0.0154689
889.663	0.0153216
889.741	0.0154207
889.819	0.0153836
889.897	0.0155587
889.975	0.0154383
890.053	0.0154311
890.131	0.0154006
890.209	0.0153393
890.288	0.0153547
890.366	0.0153841
890.444	0.0153489
890.522	0.0152511
890.600	0.0154076
890.678	0.0154031
890.756	0.0152476
890.834	0.0154270
890.913	0.0152934
890.991	0.0153583
891.069	0.0154075
891.147	0.0153342
891.225	0.0153042
891.303	0.0154601
891.381	0.0154801
891.459	0.0154322
891.538	0.0154228
891.616	0.0154208
891.694	0.0154103
891.772	0.0154995
891.850	0.0155223
891.928	0.0155307
892.006	0.0156252
892.084	0.0154231
892.163	0.0154102
892.241	0.0155111
892.319	0.0155688
892.397	0.0155717
892.475	0.0154526
892.553	0.0155727
892.631	0.0155252
892.709	0.0155159
892.788	0.0152996
892.866	0.0154636
892.944	0.0154225
893.022	0.0154415
893.100	0.0154705
893.178	0.0152846
893.256	0.0152914
893.334	0.0153664
893.413	0.0154533
893.491	0.0153704
893.569	0.0153838
893.647	0.0155069
893.725	0.0154057
893.803	0.0153365
893.881	0.0155026
893.959	0.0153956
894.038	0.0154161
894.116	0.0154343
894.194	0.0154964
894.272	0.0155477
894.350	0.0154845
894.428	0.0155400
894.506	0.0156597
894.584	0.0154477
894.663	0.0155163
894.741	0.0156203
894.819	0.0156631
894.897	0.0156329
894.975	0.0157084
895.053	0.0156598
895.131	0.0158074
895.209	0.0157001
895.288	0.0157266
895.366	0.0156802
895.444	0.0157641
895.522	0.0156957
895.600	0.0157197
895.678	0.0155741
895.756	0.0154889
895.834	0.0154092
895.913	0.0155405
895.991	0.0154467
896.069	0.0155209
896.147	0.0153400
896.225	0.0155086
896.303	0.0154266
896.381	0.0152257
896.459	0.0153491
896.538	0.0153910
896.616	0.0154589
896.694	0.0152011
896.772	0.0154295
896.850	0.0153893
896.928	0.0154972
897.006	0.0153585
897.084	0.0154942
897.163	0.0153419
897.241	0.0154558
897.319	0.0153625
897.397	0.0154082
897.475	0.0155582
897.553	0.0154011
897.631	0.0155004
897.709	0.0154218
897.788	0.0154449
897.866	0.0156723
897.944	0.0154400
898.022	0.0157395
898.100	0.0156391
898.178	0.0155763
898.256	0.0158215
898.334	0.0155476
898.413	0.0154410
898.491	0.0156579
898.569	0.0157116
898.647	0.0155292
898.725	0.0156346
898.803	0.0156489
898.881	0.0154532
898.959	0.0156618
899.038	0.0156522
899.116	0.0155660
899.194	0.0156342
899.272	0.0156017
899.350	0.0154659
899.428	0.0155542
899.506	0.0155298
899.584	0.0156939
899.663	0.0155743
899.741	0.0155216
899.819	0.0155456
899.897	0.0154950
899.975	0.0155267
900.053	0.0155717
900.131	0.0155098
900.209	0.0154350
900.288	0.0154186
900.366	0.0154898
900.444	0.0156297
900.522	0.0155119
900.600	0.0153359
900.678	0.0155591
900.756	0.0154439
900.834	0.0153555
900.913	0.0154736
900.991	0.0155837
901.069	0.0155190
901.147	0.0154886
901.225	0.0155794
901.303	0.0153984
901.381	0.0154228
901.459	0.0155524
901.538	0.0155886
901.616	0.0153983
901.694	0.0154531
901.772	0.0154128
901.850	0.0155089
901.928	0.0154913
902.006	0.0155833
902.084	0.0153979
902.163	0.0154758
902.241	0.0154376
902.319	0.0155239
902.397	0.0153831
902.475	0.0155112
902.553	0.0153939
902.631	0.0156249
902.709	0.0156017
902.788	0.0156474
902.866	0.0156231
902.944	0.0156078
903.022	0.0155973
903.100	0.0156364
903.178	0.0156006
903.256	0.0154800
903.334	0.0155453
903.413	0.0155468
903.491	0.0155013
903.569	0.0155990
903.647	0.0156055
903.725	0.0155481
903.803	0.0155849
903.881	0.0157674
903.959	0.0156247
904.038	0.0155780
904.116	0.0155361
904.194	0.0155433
904.272	0.0156022
904.350	0.0155581
904.428	0.0156441
904.506	0.0156628
904.584	0.0155967
904.663	0.0155901
904.741	0.0156136
904.819	0.0154566
904.897	0.0155503
904.975	0.0155441
905.053	0.0155708
905.131	0.0155522
905.209	0.0154568
905.288	0.0154629
905.366	0.0155603
905.444	0.0155032
905.522	0.0154425
905.600	0.0154424
905.678	0.0154166
905.756	0.0153972
905.834	0.0152994
905.913	0.0152921
905.991	0.0154578
906.069	0.0155582
906.147	0.0153758
906.225	0.0153496
906.303	0.0152794
906.381	0.0154150
906.459	0.0153655
906.538	0.0153815
906.616	0.0153209
906.694	0.0154086
906.772	0.0153558
906.850	0.0153474
906.928	0.0152174
907.006	0.0152662
907.084	0.0154736
907.163	0.0153955
907.241	0.0153130
907.319	0.0154286
907.397	0.0153876
907.475	0.0153210
907.553	0.0154819
907.631	0.0154420
907.709	0.0154142
907.788	0.0154964
907.866	0.0155984
907.944	0.0155988
908.022	0.0155857
908.100	0.0154253
908.178	0.0155041
908.256	0.0155711
908.334	0.0154315
908.413	0.0156733
908.491	0.0155637
908.569	0.0155467
908.647	0.0155234
908.725	0.0154249
908.803	0.0154237
908.881	0.0153065
908.959	0.0154247
909.038	0.0153812
909.116	0.0152559
909.194	0.0153203
909.272	0.0154601
909.350	0.0152790
909.428	0.0154155
909.506	0.0154192
909.584	0.0153533
909.663	0.0153686
909.741	0.0154710
909.819	0.0154062
909.897	0.0154661
909.975	0.0155187
910.053	0.0155447
910.131	0.0155779
910.209	0.0155318
910.288	0.0155167
910.366	0.0155485
910.444	0.0157383
910.522	0.0157360
910.600	0.0157700
910.678	0.0157833
910.756	0.0157129
910.834	0.0156221
910.913	0.0159347
910.991	0.0157996
911.069	0.0157175
911.147	0.0156296
911.225	0.0156000
911.303	0.0155848
911.381	0.0156479
911.459	0.0154540
911.538	0.0156507
911.616	0.0155116
911.694	0.0155840
911.772	0.0154784
911.850	0.0155558
911.928	0.0155019
912.006	0.0154409
912.084	0.0154001
912.163	0.0154025
912.241	0.0154885
912.319	0.0154816
912.397	0.0153838
912.475	0.0155795
912.553	0.0154961
912.631	0.0154193
912.709	0.0154159
912.788	0.0153378
912.866	0.0153759
912.944	0.0154942
913.022	0.0154860
913.100	0.0155155
913.178	0.0154256
913.256	0.0154627
913.334	0.0154711
913.413	0.0153133
913.491	0.0154888
913.569	0.0155892
913.647	0.0155242
913.725	0.0156664
913.803	0.0155931
913.881	0.0153999
913.959	0.0156679
914.038	0.0154855
914.116	0.0155489
914.194	0.0155949
914.272	0.0155099
914.350	0.0155470
914.428	0.0156779
914.506	0.0155969
914.584	0.0155502
914.663	0.0154949
914.741	0.0154549
914.819	0.0154580
914.897	0.0155798
914.975	0.0155785
915.053	0.0156968
915.131	0.0155103
915.209	0.0154813
915.288	0.0155261
915.366	0.0154980
915.444	0.0156006
915.522	0.0155895
915.600	0.0155318
915.678	0.0153602
915.756	0.0153899
915.834	0.0156081
915.913	0.0154488
915.991	0.0155771
916.069	0.0155376
916.147	0.0153458
916.225	0.0155313
916.303	0.0154380
916.381	0.0154989
916.459	0.0153898
916.538	0.0154604
916.616	0.0154303
916.694	0.0154382
916.772	0.0155634
916.850	0.0153821
916.928	0.0153517
917.006	0.0154012
917.084	0.0154129
917.163	0.0154332
917.241	0.0154434
917.319	0.0154350
917.397	0.0152776
917.475	0.0155305
917.553	0.0153427
917.631	0.0152718
917.709	0.0153282
917.788	0.0153777
917.866	0.0153667
917.944	0.0154427
918.022	0.0154243
918.100	0.0153285
918.178	0.0154550
918.256	0.0152822
918.334	0.0152949
918.413	0.0153536
918.491	0.0153845
918.569	0.0154557
918.647	0.0153905
918.725	0.0152464
918.803	0.0153534
918.881	0.0153266
918.959	0.0153561
919.038	0.0152847
919.116	0.0154398
919.194	0.0154134
919.272	0.0152972
919.350	0.0154191
919.428	0.0154002
919.506	0.0153549
919.584	0.0154810
919.663	0.0153643
919.741	0.0154485
919.819	0.0154985
919.897	0.0155019
