05/20/2022	20:37:52	Ver.	4.1	UNKNOWN
Optical Delay	599.981738	Delta X		0.078125	Sweeps	1	Scan Rate	0/0
Coordinates	Axis 1	NaN	Axis 2	NaN	Axis 3	NaN	Axis 4	NaN	Axis 5	NaN	Axis 6	0.000000
TX Power	0.000000	RX Power	0.000000

599.982	0.0154292
600.060	0.0153206
600.138	0.0154658
600.216	0.0154810
600.294	0.0156147
600.372	0.0154517
600.450	0.0153597
600.529	0.0154865
600.607	0.0153767
600.685	0.0153417
600.763	0.0154231
600.841	0.0153987
600.919	0.0153238
600.997	0.0152866
601.075	0.0154500
601.154	0.0154067
601.232	0.0154795
601.310	0.0154959
601.388	0.0153149
601.466	0.0153443
601.544	0.0153537
601.622	0.0154079
601.700	0.0154913
601.779	0.0156202
601.857	0.0154787
601.935	0.0154488
602.013	0.0153504
602.091	0.0154586
602.169	0.0156095
602.247	0.0154892
602.325	0.0154624
602.404	0.0154712
602.482	0.0153530
602.560	0.0154762
602.638	0.0153717
602.716	0.0153584
602.794	0.0154855
602.872	0.0154850
602.950	0.0154135
603.029	0.0154472
603.107	0.0153653
603.185	0.0154567
603.263	0.0154555
603.341	0.0154787
603.419	0.0154755
603.497	0.0155418
603.575	0.0155788
603.654	0.0155237
603.732	0.0155105
603.810	0.0154572
603.888	0.0154689
603.966	0.0154230
604.044	0.0155151
604.122	0.0153468
604.200	0.0154658
604.279	0.0153796
604.357	0.0154391
604.435	0.0154621
604.513	0.0154729
604.591	0.0154239
604.669	0.0154159
604.747	0.0153361
604.825	0.0155072
604.904	0.0154279
604.982	0.0154710
605.060	0.0153476
605.138	0.0154360
605.216	0.0153731
605.294	0.0154012
605.372	0.0155392
605.450	0.0155538
605.529	0.0154810
605.607	0.0154028
605.685	0.0154605
605.763	0.0154695
605.841	0.0153014
605.919	0.0154301
605.997	0.0154940
606.075	0.0153487
606.154	0.0154975
606.232	0.0154591
606.310	0.0154630
606.388	0.0155330
606.466	0.0155100
606.544	0.0154165
606.622	0.0153311
606.700	0.0153181
606.779	0.0154060
606.857	0.0153898
606.935	0.0154723
607.013	0.0155161
607.091	0.0154668
607.169	0.0153886
607.247	0.0154398
607.325	0.0154918
607.404	0.0154704
607.482	0.0154437
607.560	0.0154246
607.638	0.0153261
607.716	0.0154637
607.794	0.0154286
607.872	0.0154892
607.950	0.0152878
608.029	0.0154520
608.107	0.0155196
608.185	0.0154271
608.263	0.0155615
608.341	0.0155303
608.419	0.0154658
608.497	0.0154312
608.575	0.0154380
608.654	0.0154073
608.732	0.0153537
608.810	0.0154899
608.888	0.0154310
608.966	0.0154241
609.044	0.0154536
609.122	0.0154292
609.200	0.0153664
609.279	0.0154083
609.357	0.0153774
609.435	0.0153913
609.513	0.0154871
609.591	0.0154052
609.669	0.0154736
609.747	0.0154021
609.825	0.0154217
609.904	0.0153902
609.982	0.0153693
610.060	0.0156234
610.138	0.0153860
610.216	0.0153362
610.294	0.0154427
610.372	0.0153896
610.450	0.0154960
610.529	0.0154619
610.607	0.0154525
610.685	0.0153989
610.763	0.0154892
610.841	0.0155258
610.919	0.0155222
610.997	0.0155093
611.075	0.0154573
611.154	0.0154543
611.232	0.0154192
611.310	0.0154376
611.388	0.0153442
611.466	0.0153699
611.544	0.0153595
611.622	0.0154295
611.700	0.0154127
611.779	0.0154518
611.857	0.0153226
611.935	0.0154214
612.013	0.0153342
612.091	0.0153790
612.169	0.0155660
612.247	0.0153975
612.325	0.0153942
612.404	0.0155822
612.482	0.0154701
612.560	0.0152482
612.638	0.0154739
612.716	0.0155131
612.794	0.0155040
612.872	0.0155299
612.950	0.0156047
613.029	0.0154592
613.107	0.0154502
613.185	0.0152959
613.263	0.0155868
613.341	0.0155315
613.419	0.0154414
613.497	0.0154604
613.575	0.0155244
613.654	0.0154816
613.732	0.0152655
613.810	0.0152919
613.888	0.0153638
613.966	0.0153565
614.044	0.0153476
614.122	0.0153571
614.200	0.0153766
614.279	0.0153013
614.357	0.0153938
614.435	0.0154146
614.513	0.0153332
614.591	0.0154431
614.669	0.0153994
614.747	0.0155235
614.825	0.0155410
614.904	0.0154679
614.982	0.0155372
615.060	0.0154945
615.138	0.0154134
615.216	0.0154597
615.294	0.0155850
615.372	0.0154177
615.450	0.0155402
615.529	0.0156149
615.607	0.0154198
615.685	0.0154675
615.763	0.0154481
615.841	0.0154980
615.919	0.0154211
615.997	0.0154000
616.075	0.0155311
616.154	0.0154513
616.232	0.0154169
616.310	0.0154872
616.388	0.0154478
616.466	0.0154139
616.544	0.0153328
616.622	0.0153812
616.700	0.0153198
616.779	0.0153928
616.857	0.0153274
616.935	0.0154053
617.013	0.0154395
617.091	0.0152560
617.169	0.0154508
617.247	0.0154604
617.325	0.0154436
617.404	0.0154344
617.482	0.0154319
617.560	0.0153718
617.638	0.0156261
617.716	0.0153797
617.794	0.0153967
617.872	0.0153490
617.950	0.0155541
618.029	0.0155950
618.107	0.0153081
618.185	0.0155191
618.263	0.0154864
618.341	0.0154185
618.419	0.0153271
618.497	0.0155482
618.575	0.0154289
618.654	0.0154174
618.732	0.0153435
618.810	0.0155411
618.888	0.0154706
618.966	0.0154029
619.044	0.0153455
619.122	0.0155030
619.200	0.0155376
619.279	0.0152504
619.357	0.0153713
619.435	0.0153703
619.513	0.0154324
619.591	0.0153640
619.669	0.0154989
619.747	0.0153558
619.825	0.0154709
619.904	0.0154173
619.982	0.0153921
620.060	0.0154543
620.138	0.0153278
620.216	0.0154681
620.294	0.0154980
620.372	0.0155264
620.450	0.0153133
620.529	0.0154163
620.607	0.0153761
620.685	0.0154322
620.763	0.0153754
620.841	0.0154356
620.919	0.0153770
620.997	0.0155292
621.075	0.0154801
621.154	0.0154810
621.232	0.0154552
621.310	0.0154079
621.388	0.0155428
621.466	0.0155223
621.544	0.0156235
621.622	0.0155894
621.700	0.0155377
621.779	0.0154878
621.857	0.0154276
621.935	0.0155995
622.013	0.0155345
622.091	0.0154390
622.169	0.0155215
622.247	0.0154817
622.325	0.0154733
622.404	0.0154749
622.482	0.0155222
622.560	0.0154472
622.638	0.0154030
622.716	0.0155678
622.794	0.0155168
622.872	0.0154448
622.950	0.0154768
623.029	0.0154832
623.107	0.0154284
623.185	0.0155354
623.263	0.0154016
623.341	0.0154676
623.419	0.0154128
623.497	0.0153835
623.575	0.0155975
623.654	0.0155016
623.732	0.0153735
623.810	0.0155692
623.888	0.0154541
623.966	0.0154059
624.044	0.0155013
624.122	0.0153432
624.200	0.0153353
624.279	0.0154716
624.357	0.0153886
624.435	0.0154105
624.513	0.0153600
624.591	0.0154046
624.669	0.0154832
624.747	0.0153878
624.825	0.0154577
624.904	0.0154012
624.982	0.0153932
625.060	0.0153366
625.138	0.0153575
625.216	0.0154411
625.294	0.0156211
625.372	0.0154292
625.450	0.0154636
625.529	0.0154944
625.607	0.0154664
625.685	0.0154899
625.763	0.0154584
625.841	0.0153699
625.919	0.0153920
625.997	0.0154266
626.075	0.0154099
626.154	0.0154172
626.232	0.0154960
626.310	0.0154939
626.388	0.0154771
626.466	0.0154780
626.544	0.0155318
626.622	0.0153254
626.700	0.0153655
626.779	0.0153087
626.857	0.0155032
626.935	0.0154988
627.013	0.0153996
627.091	0.0152427
627.169	0.0154572
627.247	0.0153500
627.325	0.0153845
627.404	0.0154538
627.482	0.0153873
627.560	0.0152402
627.638	0.0154091
627.716	0.0154063
627.794	0.0154398
627.872	0.0153070
627.950	0.0154668
628.029	0.0155095
628.107	0.0154050
628.185	0.0153489
628.263	0.0152666
628.341	0.0154743
628.419	0.0154618
628.497	0.0154795
628.575	0.0153911
628.654	0.0153887
628.732	0.0154617
628.810	0.0154816
628.888	0.0154605
628.966	0.0152818
629.044	0.0152900
629.122	0.0154365
629.200	0.0154500
629.279	0.0154614
629.357	0.0153857
629.435	0.0154331
629.513	0.0155051
629.591	0.0155252
629.669	0.0154164
629.747	0.0154525
629.825	0.0153873
629.904	0.0155146
629.982	0.0155508
630.060	0.0154548
630.138	0.0154688
630.216	0.0154400
630.294	0.0154951
630.372	0.0153937
630.450	0.0153113
630.529	0.0154324
630.607	0.0154578
630.685	0.0153970
630.763	0.0153718
630.841	0.0153735
630.919	0.0153915
630.997	0.0154649
631.075	0.0155389
631.154	0.0153583
631.232	0.0152019
631.310	0.0153579
631.388	0.0154392
631.466	0.0154127
631.544	0.0155098
631.622	0.0154850
631.700	0.0154588
631.779	0.0154444
631.857	0.0154767
631.935	0.0155119
632.013	0.0153969
632.091	0.0154508
632.169	0.0154270
632.247	0.0154061
632.325	0.0154945
632.404	0.0154911
632.482	0.0154272
632.560	0.0154494
632.638	0.0155090
632.716	0.0153953
632.794	0.0154955
632.872	0.0154558
632.950	0.0154644
633.029	0.0154291
633.107	0.0154669
633.185	0.0154976
633.263	0.0155418
633.341	0.0156139
633.419	0.0154102
633.497	0.0153992
633.575	0.0153547
633.654	0.0153857
633.732	0.0155730
633.810	0.0154944
633.888	0.0154171
633.966	0.0154777
634.044	0.0155167
634.122	0.0154958
634.200	0.0151891
634.279	0.0154556
634.357	0.0153733
634.435	0.0152600
634.513	0.0153519
634.591	0.0155126
634.669	0.0154681
634.747	0.0155244
634.825	0.0154447
634.904	0.0154082
634.982	0.0153532
635.060	0.0153706
635.138	0.0153516
635.216	0.0154391
635.294	0.0154836
635.372	0.0153596
635.450	0.0155014
635.529	0.0154478
635.607	0.0153593
635.685	0.0154593
635.763	0.0154673
635.841	0.0154993
635.919	0.0154534
635.997	0.0153614
636.075	0.0154125
636.154	0.0153439
636.232	0.0154646
636.310	0.0153964
636.388	0.0154514
636.466	0.0155959
636.544	0.0153190
636.622	0.0152931
636.700	0.0153737
636.779	0.0153539
636.857	0.0154333
636.935	0.0154261
637.013	0.0154073
637.091	0.0153658
637.169	0.0153835
637.247	0.0153112
637.325	0.0153918
637.404	0.0153557
637.482	0.0152863
637.560	0.0153432
637.638	0.0153693
637.716	0.0152828
637.794	0.0154781
637.872	0.0154808
637.950	0.0153655
638.029	0.0154771
638.107	0.0154560
638.185	0.0153629
638.263	0.0153897
638.341	0.0153937
638.419	0.0154350
638.497	0.0154539
638.575	0.0154122
638.654	0.0153857
638.732	0.0153959
638.810	0.0153680
638.888	0.0154043
638.966	0.0154307
639.044	0.0154334
639.122	0.0153823
639.200	0.0154048
639.279	0.0155145
639.357	0.0154672
639.435	0.0153871
639.513	0.0154169
639.591	0.0155252
639.669	0.0155162
639.747	0.0153979
639.825	0.0152267
639.904	0.0153858
639.982	0.0155836
640.060	0.0155856
640.138	0.0154269
640.216	0.0154006
640.294	0.0153596
640.372	0.0155054
640.450	0.0153914
640.529	0.0154636
640.607	0.0155335
640.685	0.0153458
640.763	0.0154496
640.841	0.0154389
640.919	0.0155729
640.997	0.0153265
641.075	0.0154023
641.154	0.0155214
641.232	0.0153816
641.310	0.0154631
641.388	0.0154225
641.466	0.0153882
641.544	0.0152322
641.622	0.0154197
641.700	0.0153937
641.779	0.0153911
641.857	0.0154219
641.935	0.0154695
642.013	0.0154427
642.091	0.0154153
642.169	0.0154365
642.247	0.0153654
642.325	0.0155483
642.404	0.0155192
642.482	0.0153609
642.560	0.0153362
642.638	0.0154238
642.716	0.0155814
642.794	0.0154716
642.872	0.0154670
642.950	0.0153809
643.029	0.0155646
643.107	0.0153637
643.185	0.0154806
643.263	0.0153107
643.341	0.0154587
643.419	0.0155168
643.497	0.0154071
643.575	0.0154365
643.654	0.0153352
643.732	0.0152525
643.810	0.0153781
643.888	0.0154325
643.966	0.0153909
644.044	0.0153603
644.122	0.0154009
644.200	0.0153677
644.279	0.0153520
644.357	0.0154729
644.435	0.0153536
644.513	0.0153316
644.591	0.0154384
644.669	0.0153439
644.747	0.0153123
644.825	0.0153299
644.904	0.0153957
644.982	0.0152475
645.060	0.0154640
645.138	0.0155234
645.216	0.0154105
645.294	0.0153466
645.372	0.0153671
645.450	0.0152779
645.529	0.0153887
645.607	0.0154251
645.685	0.0153629
645.763	0.0153497
645.841	0.0151762
645.919	0.0154170
645.997	0.0153874
646.075	0.0153696
646.154	0.0155686
646.232	0.0154286
646.310	0.0153619
646.388	0.0153316
646.466	0.0154022
646.544	0.0155328
646.622	0.0153521
646.700	0.0154433
646.779	0.0155617
646.857	0.0154030
646.935	0.0155379
647.013	0.0156105
647.091	0.0152287
647.169	0.0154624
647.247	0.0155656
647.325	0.0153723
647.404	0.0153276
647.482	0.0153528
647.560	0.0154510
647.638	0.0153889
647.716	0.0155341
647.794	0.0154277
647.872	0.0153871
647.950	0.0154424
648.029	0.0153825
648.107	0.0154502
648.185	0.0155033
648.263	0.0154788
648.341	0.0154829
648.419	0.0154977
648.497	0.0153338
648.575	0.0155031
648.654	0.0153151
648.732	0.0155377
648.810	0.0154700
648.888	0.0154841
648.966	0.0153231
649.044	0.0152406
649.122	0.0153252
649.200	0.0155071
649.279	0.0154779
649.357	0.0154922
649.435	0.0154579
649.513	0.0153856
649.591	0.0154147
649.669	0.0154862
649.747	0.0153690
649.825	0.0153899
649.904	0.0155759
649.982	0.0154298
650.060	0.0153712
650.138	0.0153973
650.216	0.0154597
650.294	0.0153098
650.372	0.0154823
650.450	0.0154637
650.529	0.0153162
650.607	0.0154116
650.685	0.0154152
650.763	0.0154321
650.841	0.0154140
650.919	0.0154678
650.997	0.0154519
651.075	0.0155112
651.154	0.0155006
651.232	0.0153913
651.310	0.0153091
651.388	0.0153587
651.466	0.0154454
651.544	0.0154284
651.622	0.0152577
651.700	0.0153400
651.779	0.0155643
651.857	0.0155307
651.935	0.0153275
652.013	0.0154183
652.091	0.0154330
652.169	0.0153925
652.247	0.0154337
652.325	0.0155370
652.404	0.0154440
652.482	0.0153404
652.560	0.0153566
652.638	0.0153593
652.716	0.0154970
652.794	0.0153343
652.872	0.0155280
652.950	0.0154194
653.029	0.0153446
653.107	0.0154744
653.185	0.0154207
653.263	0.0153403
653.341	0.0154546
653.419	0.0154707
653.497	0.0154225
653.575	0.0153594
653.654	0.0153273
653.732	0.0154446
653.810	0.0154921
653.888	0.0154488
653.966	0.0152830
654.044	0.0153096
654.122	0.0155982
654.200	0.0154579
654.279	0.0154124
654.357	0.0154011
654.435	0.0153522
654.513	0.0153696
654.591	0.0154004
654.669	0.0154306
654.747	0.0154359
654.825	0.0153236
654.904	0.0152814
654.982	0.0155748
655.060	0.0154693
655.138	0.0154341
655.216	0.0153155
655.294	0.0154519
655.372	0.0153541
655.450	0.0153695
655.529	0.0154948
655.607	0.0154961
655.685	0.0154331
655.763	0.0155618
655.841	0.0153818
655.919	0.0153076
655.997	0.0154355
656.075	0.0154423
656.154	0.0154298
656.232	0.0152938
656.310	0.0152770
656.388	0.0154211
656.466	0.0155193
656.544	0.0155128
656.622	0.0155189
656.700	0.0154202
656.779	0.0154131
656.857	0.0153122
656.935	0.0153426
657.013	0.0153933
657.091	0.0155157
657.169	0.0154470
657.247	0.0153676
657.325	0.0154260
657.404	0.0153716
657.482	0.0153976
657.560	0.0153683
657.638	0.0153786
657.716	0.0155122
657.794	0.0154886
657.872	0.0154968
657.950	0.0153642
658.029	0.0154816
658.107	0.0155502
658.185	0.0154453
658.263	0.0153902
658.341	0.0153770
658.419	0.0154982
658.497	0.0153308
658.575	0.0154109
658.654	0.0154057
658.732	0.0155428
658.810	0.0153817
658.888	0.0153412
658.966	0.0155597
659.044	0.0154005
659.122	0.0153064
659.200	0.0154995
659.279	0.0154606
659.357	0.0153564
659.435	0.0154887
659.513	0.0154729
659.591	0.0154420
659.669	0.0154724
659.747	0.0154926
659.825	0.0154286
659.904	0.0154319
659.982	0.0153478
660.060	0.0155267
660.138	0.0156071
660.216	0.0154806
660.294	0.0153169
660.372	0.0154886
660.450	0.0154980
660.529	0.0152729
660.607	0.0154797
660.685	0.0153896
660.763	0.0154305
660.841	0.0155451
660.919	0.0153454
660.997	0.0152342
661.075	0.0153905
661.154	0.0156498
661.232	0.0154372
661.310	0.0153513
661.388	0.0154500
661.466	0.0154254
661.544	0.0154791
661.622	0.0154050
661.700	0.0153947
661.779	0.0154340
661.857	0.0154205
661.935	0.0153821
662.013	0.0153907
662.091	0.0155771
662.169	0.0155376
662.247	0.0153957
662.325	0.0154340
662.404	0.0153747
662.482	0.0154185
662.560	0.0154828
662.638	0.0153592
662.716	0.0154883
662.794	0.0154434
662.872	0.0154945
662.950	0.0155302
663.029	0.0153247
663.107	0.0155654
663.185	0.0153496
663.263	0.0153642
663.341	0.0155461
663.419	0.0155529
663.497	0.0154328
663.575	0.0155244
663.654	0.0153664
663.732	0.0153962
663.810	0.0154279
663.888	0.0154041
663.966	0.0155585
664.044	0.0154104
664.122	0.0155392
664.200	0.0154278
664.279	0.0155202
664.357	0.0154781
664.435	0.0155190
664.513	0.0155141
664.591	0.0153669
664.669	0.0153405
664.747	0.0153882
664.825	0.0154387
664.904	0.0154002
664.982	0.0153772
665.060	0.0154322
665.138	0.0153845
665.216	0.0154265
665.294	0.0154704
665.372	0.0154454
665.450	0.0154267
665.529	0.0154243
665.607	0.0155148
665.685	0.0154271
665.763	0.0155226
665.841	0.0155901
665.919	0.0154028
665.997	0.0154530
666.075	0.0153873
666.154	0.0155368
666.232	0.0154159
666.310	0.0153490
666.388	0.0154488
666.466	0.0154709
666.544	0.0152536
666.622	0.0153291
666.700	0.0155033
666.779	0.0152029
666.857	0.0155341
666.935	0.0154861
667.013	0.0153751
667.091	0.0153700
667.169	0.0153393
667.247	0.0153488
667.325	0.0155016
667.404	0.0153841
667.482	0.0153455
667.560	0.0154691
667.638	0.0153667
667.716	0.0153682
667.794	0.0153252
667.872	0.0154646
667.950	0.0154944
668.029	0.0154665
668.107	0.0153687
668.185	0.0153212
668.263	0.0154558
668.341	0.0154860
668.419	0.0153902
668.497	0.0153968
668.575	0.0153847
668.654	0.0155058
668.732	0.0153677
668.810	0.0153661
668.888	0.0153529
668.966	0.0153650
669.044	0.0154518
669.122	0.0153537
669.200	0.0152966
669.279	0.0153786
669.357	0.0153962
669.435	0.0153531
669.513	0.0152419
669.591	0.0154166
669.669	0.0153442
669.747	0.0154013
669.825	0.0153957
669.904	0.0154046
669.982	0.0153634
670.060	0.0153268
670.138	0.0153778
670.216	0.0154062
670.294	0.0153418
670.372	0.0154055
670.450	0.0153635
670.529	0.0152306
670.607	0.0153742
670.685	0.0153442
670.763	0.0153152
670.841	0.0153154
670.919	0.0152325
670.997	0.0153387
671.075	0.0154158
671.154	0.0152085
671.232	0.0153545
671.310	0.0154065
671.388	0.0154691
671.466	0.0154086
671.544	0.0154076
671.622	0.0154186
671.700	0.0154520
671.779	0.0154179
671.857	0.0154766
671.935	0.0153239
672.013	0.0153770
672.091	0.0153679
672.169	0.0154151
672.247	0.0153658
672.325	0.0153349
672.404	0.0153164
672.482	0.0154501
672.560	0.0154067
672.638	0.0153426
672.716	0.0154887
672.794	0.0154830
672.872	0.0154006
672.950	0.0154119
673.029	0.0154947
673.107	0.0154262
673.185	0.0152944
673.263	0.0155271
673.341	0.0154472
673.419	0.0153120
673.497	0.0154348
673.575	0.0155660
673.654	0.0155029
673.732	0.0153748
673.810	0.0153989
673.888	0.0154601
673.966	0.0154877
674.044	0.0155310
674.122	0.0156088
674.200	0.0153188
674.279	0.0154492
674.357	0.0154615
674.435	0.0154910
674.513	0.0154147
674.591	0.0154092
674.669	0.0155164
674.747	0.0155634
674.825	0.0155608
674.904	0.0154538
674.982	0.0156947
675.060	0.0156050
675.138	0.0155002
675.216	0.0155098
675.294	0.0154556
675.372	0.0154320
675.450	0.0155083
675.529	0.0155813
675.607	0.0154263
675.685	0.0154638
675.763	0.0156036
675.841	0.0154836
675.919	0.0155179
675.997	0.0156130
676.075	0.0154929
676.154	0.0154868
676.232	0.0156185
676.310	0.0155558
676.388	0.0155691
676.466	0.0155145
676.544	0.0154750
676.622	0.0155196
676.700	0.0156971
676.779	0.0155779
676.857	0.0154765
676.935	0.0156435
677.013	0.0155806
677.091	0.0154333
677.169	0.0154119
677.247	0.0155191
677.325	0.0154612
677.404	0.0154269
677.482	0.0155647
677.560	0.0154765
677.638	0.0154513
677.716	0.0154169
677.794	0.0154696
677.872	0.0154823
677.950	0.0152793
678.029	0.0155122
678.107	0.0154426
678.185	0.0153188
678.263	0.0153702
678.341	0.0154636
678.419	0.0155752
678.497	0.0153823
678.575	0.0154382
678.654	0.0154948
678.732	0.0155444
678.810	0.0153646
678.888	0.0154266
678.966	0.0153807
679.044	0.0154080
679.122	0.0153232
679.200	0.0154089
679.279	0.0152964
679.357	0.0153011
679.435	0.0154276
679.513	0.0153895
679.591	0.0153345
679.669	0.0154717
679.747	0.0155449
679.825	0.0153865
679.904	0.0153463
679.982	0.0154011
680.060	0.0153158
680.138	0.0153264
680.216	0.0154704
680.294	0.0153470
680.372	0.0153555
680.450	0.0153740
680.529	0.0153481
680.607	0.0152796
680.685	0.0153835
680.763	0.0154172
680.841	0.0153104
680.919	0.0153980
680.997	0.0154034
681.075	0.0152564
681.154	0.0153866
681.232	0.0153780
681.310	0.0152509
681.388	0.0151953
681.466	0.0152635
681.544	0.0153384
681.622	0.0152505
681.700	0.0152911
681.779	0.0153206
681.857	0.0153690
681.935	0.0152294
682.013	0.0152908
682.091	0.0152447
682.169	0.0153447
682.247	0.0153951
682.325	0.0152942
682.404	0.0153053
682.482	0.0152959
682.560	0.0154307
682.638	0.0153484
682.716	0.0154636
682.794	0.0154671
682.872	0.0153359
682.950	0.0152613
683.029	0.0152370
683.107	0.0151805
683.185	0.0152938
683.263	0.0152924
683.341	0.0154946
683.419	0.0152893
683.497	0.0152851
683.575	0.0153683
683.654	0.0153473
683.732	0.0151862
683.810	0.0152770
683.888	0.0152446
683.966	0.0155040
684.044	0.0153206
684.122	0.0153331
684.200	0.0152477
684.279	0.0153575
684.357	0.0152866
684.435	0.0153036
684.513	0.0155244
684.591	0.0152540
684.669	0.0153712
684.747	0.0153517
684.825	0.0153353
684.904	0.0153852
684.982	0.0152979
685.060	0.0152760
685.138	0.0154012
685.216	0.0154643
685.294	0.0154518
685.372	0.0153699
685.450	0.0152230
685.529	0.0153456
685.607	0.0153654
685.685	0.0155634
685.763	0.0154395
685.841	0.0155099
685.919	0.0154686
685.997	0.0154729
686.075	0.0155093
686.154	0.0155614
686.232	0.0154585
686.310	0.0153645
686.388	0.0154794
686.466	0.0154400
686.544	0.0152940
686.622	0.0155271
686.700	0.0153709
686.779	0.0154551
686.857	0.0154111
686.935	0.0153754
687.013	0.0153245
687.091	0.0154475
687.169	0.0154497
687.247	0.0154234
687.325	0.0154021
687.404	0.0153497
687.482	0.0154284
687.560	0.0153600
687.638	0.0154301
687.716	0.0153342
687.794	0.0153490
687.872	0.0154006
687.950	0.0154753
688.029	0.0154604
688.107	0.0153629
688.185	0.0153787
688.263	0.0153654
688.341	0.0154971
688.419	0.0154731
688.497	0.0156792
688.575	0.0155452
688.654	0.0156041
688.732	0.0154890
688.810	0.0155145
688.888	0.0153632
688.966	0.0152177
689.044	0.0151295
689.122	0.0149648
689.200	0.0147319
689.279	0.0146152
689.357	0.0146451
689.435	0.0147038
689.513	0.0148502
689.591	0.0152090
689.669	0.0155109
689.747	0.0159704
689.825	0.0163605
689.904	0.0168233
689.982	0.0173544
690.060	0.0174511
690.138	0.0177496
690.216	0.0178147
690.294	0.0176268
690.372	0.0171980
690.450	0.0166396
690.529	0.0158859
690.607	0.0150473
690.685	0.0142024
690.763	0.0131510
690.841	0.0121652
690.919	0.0112502
690.997	0.0104662
691.075	0.0100589
691.154	0.00986786
691.232	0.0102543
691.310	0.0107912
691.388	0.0117574
691.466	0.0133646
691.544	0.0149628
691.622	0.0166999
691.700	0.0186731
691.779	0.0204440
691.857	0.0221548
691.935	0.0233240
692.013	0.0241536
692.091	0.0244956
692.169	0.0242397
692.247	0.0237204
692.325	0.0225786
692.404	0.0209402
692.482	0.0192135
692.560	0.0172460
692.638	0.0151205
692.716	0.0129057
692.794	0.0109025
692.872	0.00905212
692.950	0.00758492
693.029	0.00629234
693.107	0.00522949
693.185	0.00487289
693.263	0.00468185
693.341	0.00493927
693.419	0.00565765
693.497	0.00656219
693.575	0.00779533
693.654	0.00942184
693.732	0.0112053
693.810	0.0132697
693.888	0.0154321
693.966	0.0176930
694.044	0.0199198
694.122	0.0220676
694.200	0.0238598
694.279	0.0256379
694.357	0.0269572
694.435	0.0278846
694.513	0.0281000
694.591	0.0279613
694.669	0.0274647
694.747	0.0264219
694.825	0.0250155
694.904	0.0233891
694.982	0.0212940
695.060	0.0191918
695.138	0.0170895
695.216	0.0148380
695.294	0.0126470
695.372	0.0105980
695.450	0.00892204
695.529	0.00729607
695.607	0.00597656
695.685	0.00482964
695.763	0.00413368
695.841	0.00398216
695.919	0.00409317
695.997	0.00429718
696.075	0.00506508
696.154	0.00598770
696.232	0.00727036
696.310	0.00855064
696.388	0.0100651
696.466	0.0113463
696.544	0.0129641
696.622	0.0144444
696.700	0.0159001
696.779	0.0172309
696.857	0.0186603
696.935	0.0197475
697.013	0.0206188
697.091	0.0217548
697.169	0.0224944
697.247	0.0230711
697.325	0.0234456
697.404	0.0238604
697.482	0.0236431
697.560	0.0237067
697.638	0.0232656
697.716	0.0227197
697.794	0.0221254
697.872	0.0213437
697.950	0.0203605
698.029	0.0193361
698.107	0.0183042
698.185	0.0174017
698.263	0.0162884
698.341	0.0152154
698.419	0.0143420
698.497	0.0134614
698.575	0.0128278
698.654	0.0121909
698.732	0.0115018
698.810	0.0108155
698.888	0.0106655
698.966	0.0102946
699.044	0.00997009
699.122	0.00980896
699.200	0.00959061
699.279	0.00937874
699.357	0.00941071
699.435	0.00953545
699.513	0.00972191
699.591	0.0102461
699.669	0.0106398
699.747	0.0111477
699.825	0.0121430
699.904	0.0129334
699.982	0.0137345
700.060	0.0147784
700.138	0.0156463
700.216	0.0166303
700.294	0.0176395
700.372	0.0182268
700.450	0.0187625
700.529	0.0193251
700.607	0.0193671
700.685	0.0195010
700.763	0.0194866
700.841	0.0193063
700.919	0.0191786
700.997	0.0186991
701.075	0.0184614
701.154	0.0181345
701.232	0.0177200
701.310	0.0174398
701.388	0.0170737
701.466	0.0168135
701.544	0.0165472
701.622	0.0161488
701.700	0.0160327
701.779	0.0159087
701.857	0.0155766
701.935	0.0154858
702.013	0.0156772
702.091	0.0153707
702.169	0.0154547
702.247	0.0156184
702.325	0.0156361
702.404	0.0157938
702.482	0.0160220
702.560	0.0163012
702.638	0.0162529
702.716	0.0163210
702.794	0.0164000
702.872	0.0163400
702.950	0.0161617
703.029	0.0160710
703.107	0.0158087
703.185	0.0153510
703.263	0.0148226
703.341	0.0143506
703.419	0.0138341
703.497	0.0134029
703.575	0.0129438
703.654	0.0125941
703.732	0.0121159
703.810	0.0120323
703.888	0.0119926
703.966	0.0117487
704.044	0.0118706
704.122	0.0119653
704.200	0.0122351
704.279	0.0125074
704.357	0.0126708
704.435	0.0130568
704.513	0.0136335
704.591	0.0142597
704.669	0.0145732
704.747	0.0152397
704.825	0.0159910
704.904	0.0164954
704.982	0.0169824
705.060	0.0175664
705.138	0.0182642
705.216	0.0185377
705.294	0.0187762
705.372	0.0189520
705.450	0.0190768
705.529	0.0190189
705.607	0.0189280
705.685	0.0186220
705.763	0.0185169
705.841	0.0179208
705.919	0.0175730
705.997	0.0169333
706.075	0.0163330
706.154	0.0158514
706.232	0.0153709
706.310	0.0147858
706.388	0.0143864
706.466	0.0139726
706.544	0.0136933
706.622	0.0135931
706.700	0.0136063
706.779	0.0136811
706.857	0.0139249
706.935	0.0141444
707.013	0.0142995
707.091	0.0147243
707.169	0.0151041
707.247	0.0155280
707.325	0.0157736
707.404	0.0161642
707.482	0.0164822
707.560	0.0165668
707.638	0.0166132
707.716	0.0166083
707.794	0.0165839
707.872	0.0163121
707.950	0.0162331
708.029	0.0160310
708.107	0.0155822
708.185	0.0153765
708.263	0.0149502
708.341	0.0147594
708.419	0.0143906
708.497	0.0140923
708.575	0.0139017
708.654	0.0136176
708.732	0.0136104
708.810	0.0133422
708.888	0.0134824
708.966	0.0133540
709.044	0.0136160
709.122	0.0140234
709.200	0.0142039
709.279	0.0144808
709.357	0.0147514
709.435	0.0150095
709.513	0.0153517
709.591	0.0156882
709.669	0.0159341
709.747	0.0162437
709.825	0.0163559
709.904	0.0163873
709.982	0.0165865
710.060	0.0167240
710.138	0.0167999
710.216	0.0167745
710.294	0.0168197
710.372	0.0167821
710.450	0.0168789
710.529	0.0168857
710.607	0.0166833
710.685	0.0165215
710.763	0.0163613
710.841	0.0161742
710.919	0.0159212
710.997	0.0157085
711.075	0.0154227
711.154	0.0150980
711.232	0.0146879
711.310	0.0145424
711.388	0.0144176
711.466	0.0142995
711.544	0.0140632
711.622	0.0141708
711.700	0.0141628
711.779	0.0143085
711.857	0.0143521
711.935	0.0148035
712.013	0.0150045
712.091	0.0153420
712.169	0.0156438
712.247	0.0159391
712.325	0.0162253
712.404	0.0163653
712.482	0.0164248
712.560	0.0165031
712.638	0.0166113
712.716	0.0164517
712.794	0.0162890
712.872	0.0162355
712.950	0.0160915
713.029	0.0156827
713.107	0.0158018
713.185	0.0156991
713.263	0.0156026
713.341	0.0156508
713.419	0.0156191
713.497	0.0154790
713.575	0.0156435
713.654	0.0155789
713.732	0.0154868
713.810	0.0153575
713.888	0.0154266
713.966	0.0152694
714.044	0.0151212
714.122	0.0149213
714.200	0.0146747
714.279	0.0146335
714.357	0.0145428
714.435	0.0145135
714.513	0.0143565
714.591	0.0145208
714.669	0.0145326
714.747	0.0145577
714.825	0.0145154
714.904	0.0148194
714.982	0.0149009
715.060	0.0149260
715.138	0.0151791
715.216	0.0152625
715.294	0.0153756
715.372	0.0155532
715.450	0.0156186
715.529	0.0157993
715.607	0.0159024
715.685	0.0159808
715.763	0.0160561
715.841	0.0160053
715.919	0.0163002
715.997	0.0161948
716.075	0.0163277
716.154	0.0164619
716.232	0.0163764
716.310	0.0162319
716.388	0.0161729
716.466	0.0161816
716.544	0.0159764
716.622	0.0156525
716.700	0.0155635
716.779	0.0153905
716.857	0.0150682
716.935	0.0149188
717.013	0.0147185
717.091	0.0145006
717.169	0.0143907
717.247	0.0143256
717.325	0.0144208
717.404	0.0143545
717.482	0.0143543
717.560	0.0146886
717.638	0.0147348
717.716	0.0148849
717.794	0.0149895
717.872	0.0152692
717.950	0.0153279
718.029	0.0154914
718.107	0.0154365
718.185	0.0158406
718.263	0.0159313
718.341	0.0157757
718.419	0.0158768
718.497	0.0158376
718.575	0.0158159
718.654	0.0158656
718.732	0.0157289
718.810	0.0157263
718.888	0.0157648
718.966	0.0155586
719.044	0.0155093
719.122	0.0154882
719.200	0.0156068
719.279	0.0154308
719.357	0.0155531
719.435	0.0157290
719.513	0.0157635
719.591	0.0158074
719.669	0.0157944
719.747	0.0159521
719.825	0.0159163
719.904	0.0159232
719.982	0.0160584
720.060	0.0160949
720.138	0.0159549
720.216	0.0157056
720.294	0.0157749
720.372	0.0155598
720.450	0.0155103
720.529	0.0153330
720.607	0.0151289
720.685	0.0148970
720.763	0.0148074
720.841	0.0148821
720.919	0.0147318
720.997	0.0148317
721.075	0.0147517
721.154	0.0146799
721.232	0.0146816
721.310	0.0149925
721.388	0.0150320
721.466	0.0152271
721.544	0.0153404
721.622	0.0153745
721.700	0.0154438
721.779	0.0156195
721.857	0.0156006
721.935	0.0156270
722.013	0.0157986
722.091	0.0156661
722.169	0.0156934
722.247	0.0157076
722.325	0.0155668
722.404	0.0154556
722.482	0.0153622
722.560	0.0151915
722.638	0.0150674
722.716	0.0148571
722.794	0.0147323
722.872	0.0147031
722.950	0.0144083
723.029	0.0142844
723.107	0.0144793
723.185	0.0142861
723.263	0.0142924
723.341	0.0144880
723.419	0.0144418
723.497	0.0144630
723.575	0.0146660
723.654	0.0147965
723.732	0.0148441
723.810	0.0149677
723.888	0.0150475
723.966	0.0153703
724.044	0.0153280
724.122	0.0154195
724.200	0.0155048
724.279	0.0156307
724.357	0.0158001
724.435	0.0158493
724.513	0.0159177
724.591	0.0160901
724.669	0.0161801
724.747	0.0164042
724.825	0.0166166
724.904	0.0166914
724.982	0.0166203
725.060	0.0168972
725.138	0.0169546
725.216	0.0169264
725.294	0.0169129
725.372	0.0169104
725.450	0.0166216
725.529	0.0164603
725.607	0.0164098
725.685	0.0160685
725.763	0.0160368
725.841	0.0158972
725.919	0.0155676
725.997	0.0157092
726.075	0.0155479
726.154	0.0154313
726.232	0.0153973
726.310	0.0153249
726.388	0.0153153
726.466	0.0152639
726.544	0.0152063
726.622	0.0149413
726.700	0.0149503
726.779	0.0149902
726.857	0.0148947
726.935	0.0147714
727.013	0.0148923
727.091	0.0149461
727.169	0.0149971
727.247	0.0149477
727.325	0.0150780
727.404	0.0152219
727.482	0.0150005
727.560	0.0152170
727.638	0.0151529
727.716	0.0151216
727.794	0.0151514
727.872	0.0150682
727.950	0.0149030
728.029	0.0147979
728.107	0.0148853
728.185	0.0147368
728.263	0.0147838
728.341	0.0149783
728.419	0.0149158
728.497	0.0148804
728.575	0.0148769
728.654	0.0151065
728.732	0.0149025
728.810	0.0149673
728.888	0.0149284
728.966	0.0150174
729.044	0.0149324
729.122	0.0146156
729.200	0.0146193
729.279	0.0148083
729.357	0.0148330
729.435	0.0148548
729.513	0.0148698
729.591	0.0147784
729.669	0.0148121
729.747	0.0149458
729.825	0.0150551
729.904	0.0152662
729.982	0.0154322
730.060	0.0156282
730.138	0.0156281
730.216	0.0157831
730.294	0.0159184
730.372	0.0161650
730.450	0.0163349
730.529	0.0164831
730.607	0.0166257
730.685	0.0166534
730.763	0.0168185
730.841	0.0168552
730.919	0.0167963
730.997	0.0168658
731.075	0.0167287
731.154	0.0163766
731.232	0.0164875
731.310	0.0164691
731.388	0.0160271
731.466	0.0159300
731.544	0.0156865
731.622	0.0154699
731.700	0.0154138
731.779	0.0153525
731.857	0.0152269
731.935	0.0150236
732.013	0.0151572
732.091	0.0150919
732.169	0.0151572
732.247	0.0152443
732.325	0.0153527
732.404	0.0153381
732.482	0.0155199
732.560	0.0154852
732.638	0.0156076
732.716	0.0155473
732.794	0.0156436
732.872	0.0155341
732.950	0.0155479
733.029	0.0155075
733.107	0.0154156
733.185	0.0151962
733.263	0.0151652
733.341	0.0151212
733.419	0.0149299
733.497	0.0147398
733.575	0.0145131
733.654	0.0145361
733.732	0.0145912
733.810	0.0145038
733.888	0.0145084
733.966	0.0143553
734.044	0.0143356
734.122	0.0144104
734.200	0.0146709
734.279	0.0147378
734.357	0.0146629
734.435	0.0149054
734.513	0.0149191
734.591	0.0149001
734.669	0.0151305
734.747	0.0152370
734.825	0.0151530
734.904	0.0152942
734.982	0.0152894
735.060	0.0154761
735.138	0.0156441
735.216	0.0156934
735.294	0.0156955
735.372	0.0158218
735.450	0.0157105
735.529	0.0159377
735.607	0.0159913
735.685	0.0160561
735.763	0.0159438
735.841	0.0160738
735.919	0.0158820
735.997	0.0160351
736.075	0.0159235
736.154	0.0157630
736.232	0.0158008
736.310	0.0157440
736.388	0.0155614
736.466	0.0154371
736.544	0.0154241
736.622	0.0152930
736.700	0.0153404
736.779	0.0151525
736.857	0.0153539
736.935	0.0153773
737.013	0.0153056
737.091	0.0153275
737.169	0.0154651
737.247	0.0153619
737.325	0.0154140
737.404	0.0154144
737.482	0.0153830
737.560	0.0153720
737.638	0.0155708
737.716	0.0154456
737.794	0.0153548
737.872	0.0155836
737.950	0.0156700
738.029	0.0155975
738.107	0.0156464
738.185	0.0157417
738.263	0.0159689
738.341	0.0159337
738.419	0.0158131
738.497	0.0159445
738.575	0.0159846
738.654	0.0160825
738.732	0.0160583
738.810	0.0158666
738.888	0.0158414
738.966	0.0158833
739.044	0.0157774
739.122	0.0154842
739.200	0.0153495
739.279	0.0151532
739.357	0.0151568
739.435	0.0151839
739.513	0.0149344
739.591	0.0148441
739.669	0.0148754
739.747	0.0148196
739.825	0.0149027
739.904	0.0148271
739.982	0.0148166
740.060	0.0149812
740.138	0.0149833
740.216	0.0151550
740.294	0.0151519
740.372	0.0152656
740.450	0.0154290
740.529	0.0155141
740.607	0.0154813
740.685	0.0155525
740.763	0.0157242
740.841	0.0157219
740.919	0.0157136
740.997	0.0156385
741.075	0.0158117
741.154	0.0156475
741.232	0.0156000
741.310	0.0157125
741.388	0.0156450
741.466	0.0154814
741.544	0.0154425
741.622	0.0152734
741.700	0.0152745
741.779	0.0152451
741.857	0.0150088
741.935	0.0149797
742.013	0.0150270
742.091	0.0149530
742.169	0.0149335
742.247	0.0148666
742.325	0.0150146
742.404	0.0150932
742.482	0.0150870
742.560	0.0150583
742.638	0.0152076
742.716	0.0152202
742.794	0.0152433
742.872	0.0153572
742.950	0.0154414
743.029	0.0154704
743.107	0.0157123
743.185	0.0157174
743.263	0.0159177
743.341	0.0157217
743.419	0.0157509
743.497	0.0157502
743.575	0.0157638
743.654	0.0156098
743.732	0.0156098
743.810	0.0154603
743.888	0.0155770
743.966	0.0154537
744.044	0.0152965
744.122	0.0152851
744.200	0.0152235
744.279	0.0153461
744.357	0.0152962
744.435	0.0153187
744.513	0.0154122
744.591	0.0155051
744.669	0.0153680
744.747	0.0154140
744.825	0.0154654
744.904	0.0154829
744.982	0.0155812
745.060	0.0154470
745.138	0.0153707
745.216	0.0154751
745.294	0.0154626
745.372	0.0153133
745.450	0.0153365
745.529	0.0153189
745.607	0.0151653
745.685	0.0152348
745.763	0.0152777
745.841	0.0153419
745.919	0.0155084
745.997	0.0155547
746.075	0.0155705
746.154	0.0156882
746.232	0.0158994
746.310	0.0160851
746.388	0.0161034
746.466	0.0160892
746.544	0.0161432
746.622	0.0161745
746.700	0.0160168
746.779	0.0160582
746.857	0.0157711
746.935	0.0158428
747.013	0.0156250
747.091	0.0155521
747.169	0.0153116
747.247	0.0153427
747.325	0.0150495
747.404	0.0150045
747.482	0.0150089
747.560	0.0148271
747.638	0.0149734
747.716	0.0148177
747.794	0.0147168
747.872	0.0147137
747.950	0.0146754
748.029	0.0148856
748.107	0.0149294
748.185	0.0149506
748.263	0.0149144
748.341	0.0151067
748.419	0.0152409
748.497	0.0151033
748.575	0.0151228
748.654	0.0152504
748.732	0.0154820
748.810	0.0152225
748.888	0.0154975
748.966	0.0154997
749.044	0.0154032
749.122	0.0154926
749.200	0.0154990
749.279	0.0154733
749.357	0.0153447
749.435	0.0152316
749.513	0.0152930
749.591	0.0152962
749.669	0.0153780
749.747	0.0152608
749.825	0.0152133
749.904	0.0152341
749.982	0.0153957
750.060	0.0152608
750.138	0.0153252
750.216	0.0152760
750.294	0.0154344
750.372	0.0154605
750.450	0.0155426
750.529	0.0155495
750.607	0.0156386
750.685	0.0157003
750.763	0.0156892
750.841	0.0157234
750.919	0.0156441
750.997	0.0157427
751.075	0.0156840
751.154	0.0155503
751.232	0.0157594
751.310	0.0158609
751.388	0.0157070
751.466	0.0155022
751.544	0.0157648
751.622	0.0156949
751.700	0.0156608
751.779	0.0154713
751.857	0.0155325
751.935	0.0154956
752.013	0.0155070
752.091	0.0154892
752.169	0.0154932
752.247	0.0154126
752.325	0.0153584
752.404	0.0155329
752.482	0.0153995
752.560	0.0154037
752.638	0.0154150
752.716	0.0154418
752.794	0.0153172
752.872	0.0153638
752.950	0.0153846
753.029	0.0151972
753.107	0.0153429
753.185	0.0152986
753.263	0.0152271
753.341	0.0153231
753.419	0.0152631
753.497	0.0152461
753.575	0.0154158
753.654	0.0155518
753.732	0.0153442
753.810	0.0157206
753.888	0.0157934
753.966	0.0158505
754.044	0.0159167
754.122	0.0159961
754.200	0.0161071
754.279	0.0161136
754.357	0.0160435
754.435	0.0159866
754.513	0.0160158
754.591	0.0160331
754.669	0.0157658
754.747	0.0157465
754.825	0.0157216
754.904	0.0156870
754.982	0.0153770
755.060	0.0152350
755.138	0.0151283
755.216	0.0150181
755.294	0.0149908
755.372	0.0148755
755.450	0.0147556
755.529	0.0147233
755.607	0.0146968
755.685	0.0147206
755.763	0.0146732
755.841	0.0146134
755.919	0.0147972
755.997	0.0146040
756.075	0.0146319
756.154	0.0149841
756.232	0.0149824
756.310	0.0150474
756.388	0.0150638
756.466	0.0152048
756.544	0.0153407
756.622	0.0153086
756.700	0.0153407
756.779	0.0153168
756.857	0.0154155
756.935	0.0153930
757.013	0.0155502
757.091	0.0157445
757.169	0.0157146
757.247	0.0158344
757.325	0.0157417
757.404	0.0158343
757.482	0.0157149
757.560	0.0157710
757.638	0.0157435
757.716	0.0157651
757.794	0.0156084
757.872	0.0156261
757.950	0.0155348
758.029	0.0152746
758.107	0.0153049
758.185	0.0152963
758.263	0.0151183
758.341	0.0150027
758.419	0.0149755
758.497	0.0150016
758.575	0.0151125
758.654	0.0148902
758.732	0.0148854
758.810	0.0150491
758.888	0.0150501
758.966	0.0152498
759.044	0.0153838
759.122	0.0154716
759.200	0.0155929
759.279	0.0156573
759.357	0.0157309
759.435	0.0157447
759.513	0.0157844
759.591	0.0159013
759.669	0.0159194
759.747	0.0160303
759.825	0.0160025
759.904	0.0159757
759.982	0.0160989
760.060	0.0161181
760.138	0.0161275
760.216	0.0161271
760.294	0.0159660
760.372	0.0158846
760.450	0.0158637
760.529	0.0160212
760.607	0.0159471
760.685	0.0156480
760.763	0.0155556
760.841	0.0156390
760.919	0.0156119
760.997	0.0155230
761.075	0.0155289
761.154	0.0152452
761.232	0.0152850
761.310	0.0152575
761.388	0.0151789
761.466	0.0151278
761.544	0.0151070
761.622	0.0151061
761.700	0.0150271
761.779	0.0150491
761.857	0.0151437
761.935	0.0151141
762.013	0.0151320
762.091	0.0152030
762.169	0.0152440
762.247	0.0152531
762.325	0.0152065
762.404	0.0152995
762.482	0.0153673
762.560	0.0151698
762.638	0.0150957
762.716	0.0151125
762.794	0.0152528
762.872	0.0150738
762.950	0.0150810
763.029	0.0150844
763.107	0.0150975
763.185	0.0150644
763.263	0.0152272
763.341	0.0152248
763.419	0.0151015
763.497	0.0152375
763.575	0.0150285
763.654	0.0151388
763.732	0.0152065
763.810	0.0151833
763.888	0.0153063
763.966	0.0153101
764.044	0.0153056
764.122	0.0153253
764.200	0.0155365
764.279	0.0155827
764.357	0.0154943
764.435	0.0155455
764.513	0.0155535
764.591	0.0156570
764.669	0.0156956
764.747	0.0156046
764.825	0.0156898
764.904	0.0155622
764.982	0.0156721
765.060	0.0157166
765.138	0.0155540
765.216	0.0155304
765.294	0.0156895
765.372	0.0154456
765.450	0.0155743
765.529	0.0155958
765.607	0.0153590
765.685	0.0154115
765.763	0.0154073
765.841	0.0153157
765.919	0.0153635
765.997	0.0150733
766.075	0.0150600
766.154	0.0153156
766.232	0.0152417
766.310	0.0150568
766.388	0.0151811
766.466	0.0151538
766.544	0.0150763
766.622	0.0152476
766.700	0.0151530
766.779	0.0152972
766.857	0.0152527
766.935	0.0154562
767.013	0.0152479
767.091	0.0155018
767.169	0.0155413
767.247	0.0155480
767.325	0.0154301
767.404	0.0155463
767.482	0.0154976
767.560	0.0156232
767.638	0.0155869
767.716	0.0155948
767.794	0.0154318
767.872	0.0154239
767.950	0.0155560
768.029	0.0154451
768.107	0.0154278
768.185	0.0154797
768.263	0.0154638
768.341	0.0154598
768.419	0.0154025
768.497	0.0154044
768.575	0.0153556
768.654	0.0152889
768.732	0.0153937
768.810	0.0152929
768.888	0.0153100
768.966	0.0153928
769.044	0.0153239
769.122	0.0152988
769.200	0.0152241
769.279	0.0154962
769.357	0.0154049
769.435	0.0153003
769.513	0.0153872
769.591	0.0155305
769.669	0.0155816
769.747	0.0154932
769.825	0.0155189
769.904	0.0156412
769.982	0.0157019
770.060	0.0157287
770.138	0.0157093
770.216	0.0156597
770.294	0.0157510
770.372	0.0155829
770.450	0.0156568
770.529	0.0157204
770.607	0.0158511
770.685	0.0157902
770.763	0.0158015
770.841	0.0157661
770.919	0.0156808
770.997	0.0155146
771.075	0.0155616
771.154	0.0153809
771.232	0.0153395
771.310	0.0154772
771.388	0.0152829
771.466	0.0152089
771.544	0.0151305
771.622	0.0150690
771.700	0.0149477
771.779	0.0148698
771.857	0.0150188
771.935	0.0149466
772.013	0.0150282
772.091	0.0150724
772.169	0.0148488
772.247	0.0149595
772.325	0.0149419
772.404	0.0152238
772.482	0.0151857
772.560	0.0150918
772.638	0.0151406
772.716	0.0151488
772.794	0.0152772
772.872	0.0151957
772.950	0.0152354
773.029	0.0153118
773.107	0.0153542
773.185	0.0153645
773.263	0.0154848
773.341	0.0155150
773.419	0.0155405
773.497	0.0157714
773.575	0.0157881
773.654	0.0158049
773.732	0.0157104
773.810	0.0159173
773.888	0.0159293
773.966	0.0158061
774.044	0.0159669
774.122	0.0159721
774.200	0.0159451
774.279	0.0156686
774.357	0.0156555
774.435	0.0156521
774.513	0.0156527
774.591	0.0156313
774.669	0.0155247
774.747	0.0154588
774.825	0.0155015
774.904	0.0153458
774.982	0.0152955
775.060	0.0153503
775.138	0.0153898
775.216	0.0153683
775.294	0.0153291
775.372	0.0153706
775.450	0.0152802
775.529	0.0152376
775.607	0.0154034
775.685	0.0152477
775.763	0.0153799
775.841	0.0155146
775.919	0.0155713
775.997	0.0154610
776.075	0.0154831
776.154	0.0156419
776.232	0.0156316
776.310	0.0157188
776.388	0.0156994
776.466	0.0159377
776.544	0.0156451
776.622	0.0156985
776.700	0.0157291
776.779	0.0156662
776.857	0.0155828
776.935	0.0155629
777.013	0.0154662
777.091	0.0154568
777.169	0.0152795
777.247	0.0153322
777.325	0.0152772
777.404	0.0153100
777.482	0.0153432
777.560	0.0152780
777.638	0.0150823
777.716	0.0151997
777.794	0.0151386
777.872	0.0152272
777.950	0.0150332
778.029	0.0151920
778.107	0.0151934
778.185	0.0150794
778.263	0.0150787
778.341	0.0151385
778.419	0.0151904
778.497	0.0151121
778.575	0.0149467
778.654	0.0150340
778.732	0.0150118
778.810	0.0151221
778.888	0.0152555
778.966	0.0152905
779.044	0.0153763
779.122	0.0154546
779.200	0.0155207
779.279	0.0155998
779.357	0.0155466
779.435	0.0155255
779.513	0.0156577
779.591	0.0155254
779.669	0.0155401
779.747	0.0154341
779.825	0.0155097
779.904	0.0155617
779.982	0.0154784
780.060	0.0153102
780.138	0.0153066
780.216	0.0151536
780.294	0.0153629
780.372	0.0153590
780.450	0.0152962
780.529	0.0151446
780.607	0.0151980
780.685	0.0152750
780.763	0.0153693
780.841	0.0154141
780.919	0.0153944
780.997	0.0155079
781.075	0.0153964
781.154	0.0155927
781.232	0.0155256
781.310	0.0154731
781.388	0.0156408
781.466	0.0154383
781.544	0.0156673
781.622	0.0157313
781.700	0.0156549
781.779	0.0155127
781.857	0.0156090
781.935	0.0156033
782.013	0.0157703
782.091	0.0155891
782.169	0.0156147
782.247	0.0156326
782.325	0.0155556
782.404	0.0155352
782.482	0.0155087
782.560	0.0155862
782.638	0.0156622
782.716	0.0157074
782.794	0.0155599
782.872	0.0154561
782.950	0.0154877
783.029	0.0154825
783.107	0.0154138
783.185	0.0152685
783.263	0.0152662
783.341	0.0152191
783.419	0.0152328
783.497	0.0153706
783.575	0.0152346
783.654	0.0151742
783.732	0.0152129
783.810	0.0153309
783.888	0.0152894
783.966	0.0151031
784.044	0.0152196
784.122	0.0152797
784.200	0.0152467
784.279	0.0152638
784.357	0.0154533
784.435	0.0151973
784.513	0.0154090
784.591	0.0154291
784.669	0.0153654
784.747	0.0152631
784.825	0.0153378
784.904	0.0154175
784.982	0.0154953
785.060	0.0154973
785.138	0.0154683
785.216	0.0154307
785.294	0.0155282
785.372	0.0154724
785.450	0.0154878
785.529	0.0153425
785.607	0.0155426
785.685	0.0154226
785.763	0.0155252
785.841	0.0153155
785.919	0.0155742
785.997	0.0155233
786.075	0.0154203
786.154	0.0155847
786.232	0.0156213
786.310	0.0156505
786.388	0.0156364
786.466	0.0155447
786.544	0.0155191
786.622	0.0157217
786.700	0.0156615
786.779	0.0153432
786.857	0.0153636
786.935	0.0155328
787.013	0.0153845
787.091	0.0151217
787.169	0.0150101
787.247	0.0153314
787.325	0.0151582
787.404	0.0150967
787.482	0.0150450
787.560	0.0149652
787.638	0.0150775
787.716	0.0152106
787.794	0.0152335
787.872	0.0153963
787.950	0.0153578
788.029	0.0156540
788.107	0.0157307
788.185	0.0159338
788.263	0.0158115
788.341	0.0160524
788.419	0.0160036
788.497	0.0160730
788.575	0.0160259
788.654	0.0158085
788.732	0.0157049
788.810	0.0155241
788.888	0.0153959
788.966	0.0152515
789.044	0.0151962
789.122	0.0149924
789.200	0.0147434
789.279	0.0147850
789.357	0.0146649
789.435	0.0145979
789.513	0.0145329
789.591	0.0144083
789.669	0.0142951
789.747	0.0142874
789.825	0.0144117
789.904	0.0143575
789.982	0.0145464
790.060	0.0146463
790.138	0.0147536
790.216	0.0149902
790.294	0.0151745
790.372	0.0153582
790.450	0.0156630
790.529	0.0158205
790.607	0.0160522
790.685	0.0164617
790.763	0.0165644
790.841	0.0165180
790.919	0.0168066
790.997	0.0167883
791.075	0.0168063
791.154	0.0169220
791.232	0.0169567
791.310	0.0168787
791.388	0.0166828
791.466	0.0165264
791.544	0.0164159
791.622	0.0162666
791.700	0.0158670
791.779	0.0157223
791.857	0.0156515
791.935	0.0152454
792.013	0.0152317
792.091	0.0149715
792.169	0.0147237
792.247	0.0145387
792.325	0.0145074
792.404	0.0143784
792.482	0.0142944
792.560	0.0140858
792.638	0.0142816
792.716	0.0142147
792.794	0.0143520
792.872	0.0144315
792.950	0.0145180
793.029	0.0146295
793.107	0.0148026
793.185	0.0150284
793.263	0.0150990
793.341	0.0153824
793.419	0.0156304
793.497	0.0157804
793.575	0.0157845
793.654	0.0159227
793.732	0.0159982
793.810	0.0160746
793.888	0.0160311
793.966	0.0159998
794.044	0.0159843
794.122	0.0160432
794.200	0.0160337
794.279	0.0159513
794.357	0.0158772
794.435	0.0157851
794.513	0.0156882
794.591	0.0157487
794.669	0.0156380
794.747	0.0155508
794.825	0.0156186
794.904	0.0155402
794.982	0.0153819
795.060	0.0153828
795.138	0.0152779
795.216	0.0152363
795.294	0.0152014
795.372	0.0151334
795.450	0.0150663
795.529	0.0150565
795.607	0.0148962
795.685	0.0147928
795.763	0.0147471
795.841	0.0147212
795.919	0.0147243
795.997	0.0147585
796.075	0.0147074
796.154	0.0147102
796.232	0.0146226
796.310	0.0148270
796.388	0.0149213
796.466	0.0149543
796.544	0.0150613
796.622	0.0150417
796.700	0.0153186
796.779	0.0154105
796.857	0.0153838
796.935	0.0154793
797.013	0.0158481
797.091	0.0158583
797.169	0.0158131
797.247	0.0159245
797.325	0.0159126
797.404	0.0160677
797.482	0.0161355
797.560	0.0161057
797.638	0.0160550
797.716	0.0161137
797.794	0.0162253
797.872	0.0161888
797.950	0.0161786
798.029	0.0162758
798.107	0.0160749
798.185	0.0159816
798.263	0.0159956
798.341	0.0161177
798.419	0.0157439
798.497	0.0156425
798.575	0.0157981
798.654	0.0155435
798.732	0.0155607
798.810	0.0156663
798.888	0.0154576
798.966	0.0152907
799.044	0.0152206
799.122	0.0152090
799.200	0.0151879
799.279	0.0151015
799.357	0.0152066
799.435	0.0151042
799.513	0.0150521
799.591	0.0150117
799.669	0.0148559
799.747	0.0149569
799.825	0.0150899
799.904	0.0150826
799.982	0.0149381
800.060	0.0148487
800.138	0.0149958
800.216	0.0151164
800.294	0.0151882
800.372	0.0150526
800.450	0.0151163
800.529	0.0150492
800.607	0.0151342
800.685	0.0152383
800.763	0.0150304
800.841	0.0151463
800.919	0.0152007
800.997	0.0152676
801.075	0.0152899
801.154	0.0153548
801.232	0.0151987
801.310	0.0153004
801.388	0.0153941
801.466	0.0155143
801.544	0.0155029
801.622	0.0155682
801.700	0.0155388
801.779	0.0156456
801.857	0.0156459
801.935	0.0156473
802.013	0.0156668
802.091	0.0156487
802.169	0.0156630
802.247	0.0156081
802.325	0.0155811
802.404	0.0155350
802.482	0.0155342
802.560	0.0155151
802.638	0.0154760
802.716	0.0153514
802.794	0.0154171
802.872	0.0155499
802.950	0.0154979
803.029	0.0151772
803.107	0.0153516
803.185	0.0154832
803.263	0.0155357
803.341	0.0152949
803.419	0.0154096
803.497	0.0154218
803.575	0.0155217
803.654	0.0154965
803.732	0.0154826
803.810	0.0155798
803.888	0.0157917
803.966	0.0155565
804.044	0.0156060
804.122	0.0156361
804.200	0.0156879
804.279	0.0157678
804.357	0.0156470
804.435	0.0155760
804.513	0.0155129
804.591	0.0154984
804.669	0.0153977
804.747	0.0153243
804.825	0.0152715
804.904	0.0151282
804.982	0.0151642
805.060	0.0151686
805.138	0.0150665
805.216	0.0150390
805.294	0.0150933
805.372	0.0149880
805.450	0.0149311
805.529	0.0149265
805.607	0.0150186
805.685	0.0150946
805.763	0.0149994
805.841	0.0150594
805.919	0.0151169
805.997	0.0151660
806.075	0.0152526
806.154	0.0151237
806.232	0.0153121
806.310	0.0152844
806.388	0.0153069
806.466	0.0154988
806.544	0.0155647
806.622	0.0155659
806.700	0.0157058
806.779	0.0157104
806.857	0.0157318
806.935	0.0156814
807.013	0.0159206
807.091	0.0157799
807.169	0.0156937
807.247	0.0157917
807.325	0.0157889
807.404	0.0157169
807.482	0.0156186
807.560	0.0155708
807.638	0.0154758
807.716	0.0155074
807.794	0.0155000
807.872	0.0153500
807.950	0.0154036
808.029	0.0153281
808.107	0.0154079
808.185	0.0152592
808.263	0.0152577
808.341	0.0154409
808.419	0.0152330
808.497	0.0153777
808.575	0.0155251
808.654	0.0155067
808.732	0.0155368
808.810	0.0155637
808.888	0.0156246
808.966	0.0157879
809.044	0.0157451
809.122	0.0158127
809.200	0.0158234
809.279	0.0156626
809.357	0.0156506
809.435	0.0156891
809.513	0.0157423
809.591	0.0154987
809.669	0.0153468
809.747	0.0151979
809.825	0.0152969
809.904	0.0153752
809.982	0.0151928
810.060	0.0151493
810.138	0.0149670
810.216	0.0150558
810.294	0.0149924
810.372	0.0148557
810.450	0.0147923
810.529	0.0148537
810.607	0.0148997
810.685	0.0148396
810.763	0.0148052
810.841	0.0150024
810.919	0.0150062
810.997	0.0151028
811.075	0.0152083
811.154	0.0153546
811.232	0.0153076
811.310	0.0154107
811.388	0.0154134
811.466	0.0155042
811.544	0.0153822
811.622	0.0154421
811.700	0.0155891
811.779	0.0156295
811.857	0.0157082
811.935	0.0155323
812.013	0.0157652
812.091	0.0154712
812.169	0.0156039
812.247	0.0156923
812.325	0.0157008
812.404	0.0156196
812.482	0.0155099
812.560	0.0155061
812.638	0.0154483
812.716	0.0155118
812.794	0.0155727
812.872	0.0155662
812.950	0.0155041
813.029	0.0154359
813.107	0.0154674
813.185	0.0152530
813.263	0.0153535
813.341	0.0153727
813.419	0.0153391
813.497	0.0153080
813.575	0.0152465
813.654	0.0152605
813.732	0.0152425
813.810	0.0153319
813.888	0.0153259
813.966	0.0153796
814.044	0.0153783
814.122	0.0155083
814.200	0.0154556
814.279	0.0154187
814.357	0.0152943
814.435	0.0156464
814.513	0.0154997
814.591	0.0155143
814.669	0.0155161
814.747	0.0156404
814.825	0.0156992
814.904	0.0157233
814.982	0.0155066
815.060	0.0155655
815.138	0.0155975
815.216	0.0156755
815.294	0.0155300
815.372	0.0155273
815.450	0.0154166
815.529	0.0154552
815.607	0.0154482
815.685	0.0153654
815.763	0.0154886
815.841	0.0154925
815.919	0.0151990
815.997	0.0153582
816.075	0.0153590
816.154	0.0152399
816.232	0.0151780
816.310	0.0152503
816.388	0.0152173
816.466	0.0150935
816.544	0.0152856
816.622	0.0151246
816.700	0.0150760
816.779	0.0149030
816.857	0.0149396
816.935	0.0150463
817.013	0.0150392
817.091	0.0150481
817.169	0.0150909
817.247	0.0151052
817.325	0.0151973
817.404	0.0151627
817.482	0.0151324
817.560	0.0152368
817.638	0.0154296
817.716	0.0153266
817.794	0.0155012
817.872	0.0154569
817.950	0.0155434
818.029	0.0155406
818.107	0.0155825
818.185	0.0154475
818.263	0.0155424
818.341	0.0158058
818.419	0.0156905
818.497	0.0156468
818.575	0.0156760
818.654	0.0157568
818.732	0.0156362
818.810	0.0155785
818.888	0.0156982
818.966	0.0157422
819.044	0.0154971
819.122	0.0155573
819.200	0.0156278
819.279	0.0154327
819.357	0.0155266
819.435	0.0154208
819.513	0.0153821
819.591	0.0154233
819.669	0.0153384
819.747	0.0153210
819.825	0.0152770
819.904	0.0151835
819.982	0.0153060
820.060	0.0153271
820.138	0.0151386
820.216	0.0151859
820.294	0.0152631
820.372	0.0151956
820.450	0.0153771
820.529	0.0153690
820.607	0.0151968
820.685	0.0153326
820.763	0.0154048
820.841	0.0153316
820.919	0.0153580
820.997	0.0154520
821.075	0.0154579
821.154	0.0154681
821.232	0.0154340
821.310	0.0153565
821.388	0.0154697
821.466	0.0155740
821.544	0.0154755
821.622	0.0154513
821.700	0.0153590
821.779	0.0154183
821.857	0.0153895
821.935	0.0154190
822.013	0.0153391
822.091	0.0153743
822.169	0.0153829
822.247	0.0153851
822.325	0.0154972
822.404	0.0154739
822.482	0.0152923
822.560	0.0153513
822.638	0.0154600
822.716	0.0155874
822.794	0.0153024
822.872	0.0153680
822.950	0.0153757
823.029	0.0154753
823.107	0.0155016
823.185	0.0153673
823.263	0.0154317
823.341	0.0154278
823.419	0.0154390
823.497	0.0153929
823.575	0.0155142
823.654	0.0156828
823.732	0.0156874
823.810	0.0155625
823.888	0.0155390
823.966	0.0155856
824.044	0.0156837
824.122	0.0157345
824.200	0.0156058
824.279	0.0156032
824.357	0.0156033
824.435	0.0156261
824.513	0.0157319
824.591	0.0155869
824.669	0.0155518
824.747	0.0155933
824.825	0.0155601
824.904	0.0157257
824.982	0.0154996
825.060	0.0154720
825.138	0.0155054
825.216	0.0154478
825.294	0.0154287
825.372	0.0154507
825.450	0.0154602
825.529	0.0152789
825.607	0.0152899
825.685	0.0152860
825.763	0.0152684
825.841	0.0151387
825.919	0.0150295
825.997	0.0150880
826.075	0.0152534
826.154	0.0151838
826.232	0.0152558
826.310	0.0152134
826.388	0.0153318
826.466	0.0151327
826.544	0.0151718
826.622	0.0152199
826.700	0.0153973
826.779	0.0154358
826.857	0.0153073
826.935	0.0154897
827.013	0.0154262
827.091	0.0153455
827.169	0.0154039
827.247	0.0154691
827.325	0.0155466
827.404	0.0156986
827.482	0.0156451
827.560	0.0156462
827.638	0.0156759
827.716	0.0156697
827.794	0.0156149
827.872	0.0155817
827.950	0.0155440
828.029	0.0156094
828.107	0.0155314
828.185	0.0155608
828.263	0.0154797
828.341	0.0154439
828.419	0.0154263
828.497	0.0154021
828.575	0.0153075
828.654	0.0153056
828.732	0.0152833
828.810	0.0153821
828.888	0.0153181
828.966	0.0152761
829.044	0.0152320
829.122	0.0153122
829.200	0.0153944
829.279	0.0153716
829.357	0.0152900
829.435	0.0151705
829.513	0.0154143
829.591	0.0153054
829.669	0.0153166
829.747	0.0153228
829.825	0.0152886
829.904	0.0153148
829.982	0.0152617
830.060	0.0153059
830.138	0.0152969
830.216	0.0153751
830.294	0.0154467
830.372	0.0153574
830.450	0.0154056
830.529	0.0154234
830.607	0.0155170
830.685	0.0154899
830.763	0.0154576
830.841	0.0156057
830.919	0.0157523
830.997	0.0157029
831.075	0.0156789
831.154	0.0158448
831.232	0.0159493
831.310	0.0158846
831.388	0.0158770
831.466	0.0159660
831.544	0.0159639
831.622	0.0159537
831.700	0.0157780
831.779	0.0156383
831.857	0.0157124
831.935	0.0156159
832.013	0.0156916
832.091	0.0157246
832.169	0.0155942
832.247	0.0156043
832.325	0.0155000
832.404	0.0155415
832.482	0.0155602
832.560	0.0153013
832.638	0.0152901
832.716	0.0154081
832.794	0.0152762
832.872	0.0152073
832.950	0.0151315
833.029	0.0151273
833.107	0.0151291
833.185	0.0150982
833.263	0.0150076
833.341	0.0150819
833.419	0.0150535
833.497	0.0149369
833.575	0.0150282
833.654	0.0151815
833.732	0.0150362
833.810	0.0150160
833.888	0.0149686
833.966	0.0149857
834.044	0.0151625
834.122	0.0150892
834.200	0.0151360
834.279	0.0150715
834.357	0.0153194
834.435	0.0153154
834.513	0.0152082
834.591	0.0153770
834.669	0.0153667
834.747	0.0153716
834.825	0.0155287
834.904	0.0155231
834.982	0.0156493
835.060	0.0158907
835.138	0.0158100
835.216	0.0157823
835.294	0.0158374
835.372	0.0159435
835.450	0.0158749
835.529	0.0158640
835.607	0.0159223
835.685	0.0159560
835.763	0.0159803
835.841	0.0158495
835.919	0.0157764
835.997	0.0156656
836.075	0.0157523
836.154	0.0155605
836.232	0.0154853
836.310	0.0156615
836.388	0.0154227
836.466	0.0153453
836.544	0.0156194
836.622	0.0153866
836.700	0.0152823
836.779	0.0153276
836.857	0.0153590
836.935	0.0152922
837.013	0.0153467
837.091	0.0152579
837.169	0.0151150
837.247	0.0153332
837.325	0.0153703
837.404	0.0152613
837.482	0.0152905
837.560	0.0151074
837.638	0.0152419
837.716	0.0153574
837.794	0.0151424
837.872	0.0152060
837.950	0.0152792
838.029	0.0153536
838.107	0.0153901
838.185	0.0153211
838.263	0.0154471
838.341	0.0154801
838.419	0.0154414
838.497	0.0154427
838.575	0.0155289
838.654	0.0154661
838.732	0.0154761
838.810	0.0153732
838.888	0.0155407
838.966	0.0154476
839.044	0.0153985
839.122	0.0153920
839.200	0.0155373
839.279	0.0155479
839.357	0.0153847
839.435	0.0154420
839.513	0.0154202
839.591	0.0153233
839.669	0.0153631
839.747	0.0152985
839.825	0.0155184
839.904	0.0155014
839.982	0.0154395
840.060	0.0155692
840.138	0.0154901
840.216	0.0154440
840.294	0.0155835
840.372	0.0154333
840.450	0.0156358
840.529	0.0156905
840.607	0.0156431
840.685	0.0156783
840.763	0.0155901
840.841	0.0156108
840.919	0.0156111
840.997	0.0156467
841.075	0.0157240
841.154	0.0157298
841.232	0.0156052
841.310	0.0155170
841.388	0.0156087
841.466	0.0154453
841.544	0.0153087
841.622	0.0153699
841.700	0.0153812
841.779	0.0153133
841.857	0.0151379
841.935	0.0152445
842.013	0.0152344
842.091	0.0151433
842.169	0.0150875
842.247	0.0150054
842.325	0.0150541
842.404	0.0149783
842.482	0.0150394
842.560	0.0150291
842.638	0.0151342
842.716	0.0150108
842.794	0.0150364
842.872	0.0151480
842.950	0.0152129
843.029	0.0153575
843.107	0.0152229
843.185	0.0152834
843.263	0.0151772
843.341	0.0152882
843.419	0.0154147
843.497	0.0153464
843.575	0.0154612
843.654	0.0154687
843.732	0.0153613
843.810	0.0155122
843.888	0.0154855
843.966	0.0154961
844.044	0.0155065
844.122	0.0156708
844.200	0.0156147
844.279	0.0156579
844.357	0.0156341
844.435	0.0158379
844.513	0.0157011
844.591	0.0157772
844.669	0.0158294
844.747	0.0157609
844.825	0.0157994
844.904	0.0159023
844.982	0.0158245
845.060	0.0157791
845.138	0.0158620
845.216	0.0158452
845.294	0.0157317
845.372	0.0158391
845.450	0.0157946
845.529	0.0156632
845.607	0.0156249
845.685	0.0156065
845.763	0.0155637
845.841	0.0157184
845.919	0.0156332
845.997	0.0154012
846.075	0.0154786
846.154	0.0154943
846.232	0.0154099
846.310	0.0155481
846.388	0.0154696
846.466	0.0153464
846.544	0.0153996
846.622	0.0152069
846.700	0.0154874
846.779	0.0153570
846.857	0.0154247
846.935	0.0152495
847.013	0.0153892
847.091	0.0154562
847.169	0.0153154
847.247	0.0153233
847.325	0.0153599
847.404	0.0153670
847.482	0.0152184
847.560	0.0151727
847.638	0.0152631
847.716	0.0151193
847.794	0.0152488
847.872	0.0152058
847.950	0.0152476
848.029	0.0150558
848.107	0.0150469
848.185	0.0152853
848.263	0.0151772
848.341	0.0153065
848.419	0.0151810
848.497	0.0153044
848.575	0.0152808
848.654	0.0152305
848.732	0.0152151
848.810	0.0154092
848.888	0.0153973
848.966	0.0154315
849.044	0.0153448
849.122	0.0153455
849.200	0.0153986
849.279	0.0153630
849.357	0.0155799
849.435	0.0154887
849.513	0.0152075
849.591	0.0153773
849.669	0.0154630
849.747	0.0153394
849.825	0.0154106
849.904	0.0154855
849.982	0.0155421
850.060	0.0153299
850.138	0.0154070
850.216	0.0154220
850.294	0.0154869
850.372	0.0155877
850.450	0.0156161
850.529	0.0156116
850.607	0.0156898
850.685	0.0156656
850.763	0.0156627
850.841	0.0158146
850.919	0.0157382
850.997	0.0157357
851.075	0.0158121
851.154	0.0158442
851.232	0.0159503
851.310	0.0160954
851.388	0.0159230
851.466	0.0159592
851.544	0.0159138
851.622	0.0158624
851.700	0.0158955
851.779	0.0160230
851.857	0.0158629
851.935	0.0158829
852.013	0.0158447
852.091	0.0156366
852.169	0.0157288
852.247	0.0156411
852.325	0.0155745
852.404	0.0154924
852.482	0.0156091
852.560	0.0155018
852.638	0.0154601
852.716	0.0155324
852.794	0.0155035
852.872	0.0153748
852.950	0.0154346
853.029	0.0153967
853.107	0.0154706
853.185	0.0154416
853.263	0.0154646
853.341	0.0153000
853.419	0.0153821
853.497	0.0154034
853.575	0.0153262
853.654	0.0154069
853.732	0.0154971
853.810	0.0154134
853.888	0.0153264
853.966	0.0152679
854.044	0.0151705
854.122	0.0152846
854.200	0.0151804
854.279	0.0150368
854.357	0.0149821
854.435	0.0149442
854.513	0.0149500
854.591	0.0149420
854.669	0.0150064
854.747	0.0150042
854.825	0.0149829
854.904	0.0149045
854.982	0.0151208
855.060	0.0149209
855.138	0.0149727
855.216	0.0151185
855.294	0.0149693
855.372	0.0150842
855.450	0.0151267
855.529	0.0151936
855.607	0.0152105
855.685	0.0152205
855.763	0.0153004
855.841	0.0153274
855.919	0.0153902
855.997	0.0154582
856.075	0.0153600
856.154	0.0156094
856.232	0.0155672
856.310	0.0156350
856.388	0.0156980
856.466	0.0156836
856.544	0.0156290
856.622	0.0157819
856.700	0.0157128
856.779	0.0157101
856.857	0.0157446
856.935	0.0156861
857.013	0.0158596
857.091	0.0157945
857.169	0.0158916
857.247	0.0158784
857.325	0.0158221
857.404	0.0159568
857.482	0.0158807
857.560	0.0160663
857.638	0.0160703
857.716	0.0160252
857.794	0.0160871
857.872	0.0161434
857.950	0.0161217
858.029	0.0161024
858.107	0.0161304
858.185	0.0161306
858.263	0.0160311
858.341	0.0160872
858.419	0.0160316
858.497	0.0160466
858.575	0.0160068
858.654	0.0158031
858.732	0.0157702
858.810	0.0156957
858.888	0.0157117
858.966	0.0155617
859.044	0.0156036
859.122	0.0155548
859.200	0.0153516
859.279	0.0153424
859.357	0.0152859
859.435	0.0153268
859.513	0.0152419
859.591	0.0151836
859.669	0.0151817
859.747	0.0148681
859.825	0.0149996
859.904	0.0151971
859.982	0.0150763
860.060	0.0149487
860.138	0.0149815
860.216	0.0149177
860.294	0.0149165
860.372	0.0148656
860.450	0.0148824
860.529	0.0147774
860.607	0.0148463
860.685	0.0147552
860.763	0.0147604
860.841	0.0146952
860.919	0.0147504
860.997	0.0148470
861.075	0.0146064
861.154	0.0146429
861.232	0.0146914
861.310	0.0147745
861.388	0.0147689
861.466	0.0147395
861.544	0.0148686
861.622	0.0149541
861.700	0.0151495
861.779	0.0151605
861.857	0.0152805
861.935	0.0153867
862.013	0.0154483
862.091	0.0155373
862.169	0.0156197
862.247	0.0157500
862.325	0.0158688
862.404	0.0159179
862.482	0.0160181
862.560	0.0160522
862.638	0.0160544
862.716	0.0161060
862.794	0.0161968
862.872	0.0161045
862.950	0.0160413
863.029	0.0160608
863.107	0.0161176
863.185	0.0160581
863.263	0.0158964
863.341	0.0160254
863.419	0.0160535
863.497	0.0156469
863.575	0.0158503
863.654	0.0156420
863.732	0.0156883
863.810	0.0155323
863.888	0.0156171
863.966	0.0156122
864.044	0.0156004
864.122	0.0154979
864.200	0.0153602
864.279	0.0154838
864.357	0.0154662
864.435	0.0155107
864.513	0.0154446
864.591	0.0155998
864.669	0.0156434
864.747	0.0155157
864.825	0.0155312
864.904	0.0155678
864.982	0.0154603
865.060	0.0155650
865.138	0.0155297
865.216	0.0157497
865.294	0.0155894
865.372	0.0155397
865.450	0.0157179
865.529	0.0155612
865.607	0.0154999
865.685	0.0155106
865.763	0.0153947
865.841	0.0154817
865.919	0.0154356
865.997	0.0153439
866.075	0.0153105
866.154	0.0151377
866.232	0.0150910
866.310	0.0151740
866.388	0.0150755
866.466	0.0149522
866.544	0.0149736
866.622	0.0150095
866.700	0.0150411
866.779	0.0150739
866.857	0.0148619
866.935	0.0150982
867.013	0.0151363
867.091	0.0151590
867.169	0.0150941
867.247	0.0151824
867.325	0.0152264
867.404	0.0152552
867.482	0.0152815
867.560	0.0152689
867.638	0.0152400
867.716	0.0155104
867.794	0.0153748
867.872	0.0153098
867.950	0.0154432
868.029	0.0153739
868.107	0.0154279
868.185	0.0154961
868.263	0.0155611
868.341	0.0155175
868.419	0.0154111
868.497	0.0154321
868.575	0.0155955
868.654	0.0155169
868.732	0.0154736
868.810	0.0154889
868.888	0.0154768
868.966	0.0154756
869.044	0.0155248
869.122	0.0156464
869.200	0.0154560
869.279	0.0154500
869.357	0.0155251
869.435	0.0154841
869.513	0.0154809
869.591	0.0155687
869.669	0.0155048
869.747	0.0156618
869.825	0.0156306
869.904	0.0156140
869.982	0.0157001
870.060	0.0156554
870.138	0.0157870
870.216	0.0159026
870.294	0.0158432
870.372	0.0157517
870.450	0.0158587
870.529	0.0157762
870.607	0.0157076
870.685	0.0156744
870.763	0.0156647
870.841	0.0155399
870.919	0.0155841
870.997	0.0154295
871.075	0.0154757
871.154	0.0154128
871.232	0.0153766
871.310	0.0153042
871.388	0.0152000
871.466	0.0152573
871.544	0.0152817
871.622	0.0151711
871.700	0.0151692
871.779	0.0152092
871.857	0.0152040
871.935	0.0152189
872.013	0.0151886
872.091	0.0151749
872.169	0.0151794
872.247	0.0152940
872.325	0.0152584
872.404	0.0152616
872.482	0.0153384
872.560	0.0154837
872.638	0.0155674
872.716	0.0156586
872.794	0.0154820
872.872	0.0157238
872.950	0.0156882
873.029	0.0157345
873.107	0.0156558
873.185	0.0156939
873.263	0.0158152
873.341	0.0158288
873.419	0.0156958
873.497	0.0159003
873.575	0.0156567
873.654	0.0156072
873.732	0.0156528
873.810	0.0155797
873.888	0.0154709
873.966	0.0154829
874.044	0.0154576
874.122	0.0154288
874.200	0.0151766
874.279	0.0151115
874.357	0.0151670
874.435	0.0151502
874.513	0.0150823
874.591	0.0150014
874.669	0.0151277
874.747	0.0151249
874.825	0.0150735
874.904	0.0151725
874.982	0.0151694
875.060	0.0150306
875.138	0.0152398
875.216	0.0152887
875.294	0.0151953
875.372	0.0150543
875.450	0.0151515
875.529	0.0151127
875.607	0.0152640
875.685	0.0154215
875.763	0.0154457
875.841	0.0153631
875.919	0.0155991
875.997	0.0154580
876.075	0.0154366
876.154	0.0156020
876.232	0.0155697
876.310	0.0155550
876.388	0.0155524
876.466	0.0156615
876.544	0.0155054
876.622	0.0154233
876.700	0.0155114
876.779	0.0156564
876.857	0.0155997
876.935	0.0156108
877.013	0.0155539
877.091	0.0155270
877.169	0.0155431
877.247	0.0154868
877.325	0.0154495
877.404	0.0155125
877.482	0.0154569
877.560	0.0154308
877.638	0.0155163
877.716	0.0155627
877.794	0.0154990
877.872	0.0154776
877.950	0.0155130
878.029	0.0153583
878.107	0.0153844
878.185	0.0153857
878.263	0.0155258
878.341	0.0155421
878.419	0.0155479
878.497	0.0154777
878.575	0.0154292
878.654	0.0154711
878.732	0.0154873
878.810	0.0154458
878.888	0.0153474
878.966	0.0155979
879.044	0.0154623
879.122	0.0155178
879.200	0.0155058
879.279	0.0154903
879.357	0.0156042
879.435	0.0156430
879.513	0.0155865
879.591	0.0154333
879.669	0.0153686
879.747	0.0154430
879.825	0.0155261
879.904	0.0155445
879.982	0.0153142
880.060	0.0153490
880.138	0.0154087
880.216	0.0153885
880.294	0.0152051
880.372	0.0152465
880.450	0.0151402
880.529	0.0151558
880.607	0.0152779
880.685	0.0152040
880.763	0.0152387
880.841	0.0151812
880.919	0.0151866
880.997	0.0152480
881.075	0.0152797
881.154	0.0153181
881.232	0.0151775
881.310	0.0153664
881.388	0.0154422
881.466	0.0154370
881.544	0.0155586
881.622	0.0154343
881.700	0.0154691
881.779	0.0155146
881.857	0.0155322
881.935	0.0157272
882.013	0.0156443
882.091	0.0155644
882.169	0.0155354
882.247	0.0154932
882.325	0.0155422
882.404	0.0151853
882.482	0.0151582
882.560	0.0149139
882.638	0.0150875
882.716	0.0149672
882.794	0.0149837
882.872	0.0151490
882.950	0.0150121
883.029	0.0151904
883.107	0.0153703
883.185	0.0154133
883.263	0.0155904
883.341	0.0159684
883.419	0.0161802
883.497	0.0163105
883.575	0.0164329
883.654	0.0165161
883.732	0.0166922
883.810	0.0166251
883.888	0.0164830
883.966	0.0162036
884.044	0.0159284
884.122	0.0157781
884.200	0.0155128
884.279	0.0152778
884.357	0.0149817
884.435	0.0147364
884.513	0.0145354
884.591	0.0143668
884.669	0.0141858
884.747	0.0140090
884.825	0.0140301
884.904	0.0139893
884.982	0.0142511
885.060	0.0145081
885.138	0.0145272
885.216	0.0147701
885.294	0.0150247
885.372	0.0151066
885.450	0.0153379
885.529	0.0155318
885.607	0.0157626
885.685	0.0159728
885.763	0.0161372
885.841	0.0163618
885.919	0.0164649
885.997	0.0165053
886.075	0.0164555
886.154	0.0164065
886.232	0.0163908
886.310	0.0161115
886.388	0.0159035
886.466	0.0156718
886.544	0.0154838
886.622	0.0153194
886.700	0.0150518
886.779	0.0147793
886.857	0.0146064
886.935	0.0144839
887.013	0.0144524
887.091	0.0143864
887.169	0.0142037
887.247	0.0142515
887.325	0.0142905
887.404	0.0143095
887.482	0.0144364
887.560	0.0145780
887.638	0.0147697
887.716	0.0148864
887.794	0.0150818
887.872	0.0152293
887.950	0.0156120
888.029	0.0156305
888.107	0.0158836
888.185	0.0161047
888.263	0.0162649
888.341	0.0162006
888.419	0.0162968
888.497	0.0164691
888.575	0.0164421
888.654	0.0164217
888.732	0.0163253
888.810	0.0162208
888.888	0.0162421
888.966	0.0160902
889.044	0.0159462
889.122	0.0159202
889.200	0.0158534
889.279	0.0158034
889.357	0.0156258
889.435	0.0155769
889.513	0.0154232
889.591	0.0153289
889.669	0.0152991
889.747	0.0152498
889.825	0.0151308
889.904	0.0150246
889.982	0.0151270
890.060	0.0150153
890.138	0.0150134
890.216	0.0151166
890.294	0.0151069
890.372	0.0151488
890.450	0.0151689
890.529	0.0152195
890.607	0.0152956
890.685	0.0152921
890.763	0.0152755
890.841	0.0152341
890.919	0.0153946
890.997	0.0152300
891.075	0.0153013
891.154	0.0152798
891.232	0.0153173
891.310	0.0152235
891.388	0.0153493
891.466	0.0152771
891.544	0.0152468
891.622	0.0152962
891.700	0.0153366
891.779	0.0153831
891.857	0.0152232
891.935	0.0152157
892.013	0.0152011
892.091	0.0153025
892.169	0.0152243
892.247	0.0150489
892.325	0.0150930
892.404	0.0151620
892.482	0.0151517
892.560	0.0151856
892.638	0.0149587
892.716	0.0150247
892.794	0.0151364
892.872	0.0151332
892.950	0.0151128
893.029	0.0150689
893.107	0.0152198
893.185	0.0152152
893.263	0.0151429
893.341	0.0153250
893.419	0.0153327
893.497	0.0154012
893.575	0.0153842
893.654	0.0153959
893.732	0.0155020
893.810	0.0155920
893.888	0.0155166
893.966	0.0156747
894.044	0.0156359
894.122	0.0156430
894.200	0.0155441
894.279	0.0157006
894.357	0.0156280
894.435	0.0156295
894.513	0.0155808
894.591	0.0154869
894.669	0.0156155
894.747	0.0156284
894.825	0.0155697
894.904	0.0154663
894.982	0.0153627
895.060	0.0154500
895.138	0.0153403
895.216	0.0153853
895.294	0.0154321
895.372	0.0154160
895.450	0.0152636
895.529	0.0151994
895.607	0.0153204
895.685	0.0154081
895.763	0.0152611
895.841	0.0155289
895.919	0.0154101
895.997	0.0154466
896.075	0.0155364
896.154	0.0152938
896.232	0.0154549
896.310	0.0157188
896.388	0.0155820
896.466	0.0156652
896.544	0.0155998
896.622	0.0154922
896.700	0.0154831
896.779	0.0154494
896.857	0.0153924
896.935	0.0154157
897.013	0.0153360
897.091	0.0153860
897.169	0.0153032
897.247	0.0152503
897.325	0.0152707
897.404	0.0152398
897.482	0.0150998
897.560	0.0151534
897.638	0.0151211
897.716	0.0151419
897.794	0.0151179
897.872	0.0150211
897.950	0.0149843
898.029	0.0150183
898.107	0.0151508
898.185	0.0152058
898.263	0.0152195
898.341	0.0151697
898.419	0.0152136
898.497	0.0153545
898.575	0.0154493
898.654	0.0154776
898.732	0.0155353
898.810	0.0156191
898.888	0.0156933
898.966	0.0156972
899.044	0.0157970
899.122	0.0159267
899.200	0.0158759
899.279	0.0157423
899.357	0.0156423
899.435	0.0156657
899.513	0.0155228
899.591	0.0154181
899.669	0.0154516
899.747	0.0153607
899.825	0.0152884
899.904	0.0151813
899.982	0.0150741
900.060	0.0150078
900.138	0.0149492
900.216	0.0150519
900.294	0.0150507
900.372	0.0149396
900.450	0.0148213
900.529	0.0149868
900.607	0.0151107
900.685	0.0150152
900.763	0.0151488
900.841	0.0153136
900.919	0.0153363
900.997	0.0152925
901.075	0.0154076
901.154	0.0155786
901.232	0.0155965
901.310	0.0154755
901.388	0.0156892
901.466	0.0155579
901.544	0.0155990
901.622	0.0155689
901.700	0.0155374
901.779	0.0156362
901.857	0.0157404
901.935	0.0156832
902.013	0.0156409
902.091	0.0157216
902.169	0.0157877
902.247	0.0157555
902.325	0.0155336
902.404	0.0154095
902.482	0.0154927
902.560	0.0153918
902.638	0.0154015
902.716	0.0153709
902.794	0.0153198
902.872	0.0153155
902.950	0.0152486
903.029	0.0151818
903.107	0.0151392
903.185	0.0151501
903.263	0.0151279
903.341	0.0152028
903.419	0.0151569
903.497	0.0151727
903.575	0.0151792
903.654	0.0153943
903.732	0.0154726
903.810	0.0154788
903.888	0.0153324
903.966	0.0154739
904.044	0.0155076
904.122	0.0155435
904.200	0.0156403
904.279	0.0155743
904.357	0.0158304
904.435	0.0158839
904.513	0.0158090
904.591	0.0158561
904.669	0.0157001
904.747	0.0157760
904.825	0.0158553
904.904	0.0156890
904.982	0.0156769
905.060	0.0155948
905.138	0.0156804
905.216	0.0155978
905.294	0.0156209
905.372	0.0156461
905.450	0.0154634
905.529	0.0153961
905.607	0.0154029
905.685	0.0154607
905.763	0.0152985
905.841	0.0152766
905.919	0.0153742
905.997	0.0153258
906.075	0.0152622
906.154	0.0152483
906.232	0.0153388
906.310	0.0151984
906.388	0.0153045
906.466	0.0152036
906.544	0.0153825
906.622	0.0153734
906.700	0.0152800
906.779	0.0153730
906.857	0.0154630
906.935	0.0154990
907.013	0.0153764
907.091	0.0152969
907.169	0.0152732
907.247	0.0152525
907.325	0.0153004
907.404	0.0154000
907.482	0.0153072
907.560	0.0153036
907.638	0.0151772
907.716	0.0152454
907.794	0.0152895
907.872	0.0153742
907.950	0.0152945
908.029	0.0151801
908.107	0.0152533
908.185	0.0151791
908.263	0.0151816
908.341	0.0152315
908.419	0.0151223
908.497	0.0152090
908.575	0.0153829
908.654	0.0152338
908.732	0.0153574
908.810	0.0153327
908.888	0.0153189
908.966	0.0153845
909.044	0.0154343
909.122	0.0155655
909.200	0.0155790
909.279	0.0155151
909.357	0.0156101
909.435	0.0156886
909.513	0.0157142
909.591	0.0158231
909.669	0.0158859
909.747	0.0159249
909.825	0.0157974
909.904	0.0158634
909.982	0.0158332
910.060	0.0158371
910.138	0.0157896
910.216	0.0157441
910.294	0.0157285
910.372	0.0156152
910.450	0.0155231
910.529	0.0155627
910.607	0.0155075
910.685	0.0154181
910.763	0.0153341
910.841	0.0153009
910.919	0.0153175
910.997	0.0151585
911.075	0.0152651
911.154	0.0152898
911.232	0.0152123
911.310	0.0151237
911.388	0.0150303
911.466	0.0152716
911.544	0.0151515
911.622	0.0151560
911.700	0.0151250
911.779	0.0151735
911.857	0.0150909
911.935	0.0151315
912.013	0.0151269
912.091	0.0153912
912.169	0.0152769
912.247	0.0152030
912.325	0.0152431
912.404	0.0152228
912.482	0.0154441
912.560	0.0155297
912.638	0.0154318
912.716	0.0155496
912.794	0.0156667
912.872	0.0155292
912.950	0.0156179
913.029	0.0157764
913.107	0.0156849
913.185	0.0156089
913.263	0.0155969
913.341	0.0155904
913.419	0.0155431
913.497	0.0155985
913.575	0.0155463
913.654	0.0155992
913.732	0.0155251
913.810	0.0154686
913.888	0.0154446
913.966	0.0153079
914.044	0.0153266
914.122	0.0153117
914.200	0.0154791
914.279	0.0153694
914.357	0.0151205
914.435	0.0150981
914.513	0.0151676
914.591	0.0153633
914.669	0.0152989
914.747	0.0151831
914.825	0.0152178
914.904	0.0153426
914.982	0.0152969
915.060	0.0153278
915.138	0.0153265
915.216	0.0153706
915.294	0.0153523
915.372	0.0152792
915.450	0.0153214
915.529	0.0154055
915.607	0.0153538
915.685	0.0155919
915.763	0.0153392
915.841	0.0152138
915.919	0.0153459
915.997	0.0154377
916.075	0.0152502
916.154	0.0152361
916.232	0.0153518
916.310	0.0153529
916.388	0.0153644
916.466	0.0153629
916.544	0.0153230
916.622	0.0153359
916.700	0.0153066
916.779	0.0154034
916.857	0.0154571
916.935	0.0153982
917.013	0.0155798
917.091	0.0154767
917.169	0.0154614
917.247	0.0156060
917.325	0.0155913
917.404	0.0153796
917.482	0.0154450
917.560	0.0156796
917.638	0.0154887
917.716	0.0155688
917.794	0.0156441
917.872	0.0155832
917.950	0.0154199
918.029	0.0155167
918.107	0.0155064
918.185	0.0155235
918.263	0.0154804
918.341	0.0155045
918.419	0.0156251
918.497	0.0154613
918.575	0.0153324
918.654	0.0154436
918.732	0.0154082
918.810	0.0153787
918.888	0.0154572
918.966	0.0154220
919.044	0.0154578
919.122	0.0154709
919.200	0.0153210
919.279	0.0153734
919.357	0.0154017
919.435	0.0152740
919.513	0.0153124
919.591	0.0154432
919.669	0.0153829
919.747	0.0155109
919.825	0.0154547
919.904	0.0153800
