05/20/2022	21:29:04	Ver.	4.1	UNKNOWN
Optical Delay	599.975067	Delta X		0.078125	Sweeps	1	Scan Rate	0/0
Coordinates	Axis 1	NaN	Axis 2	NaN	Axis 3	NaN	Axis 4	NaN	Axis 5	NaN	Axis 6	0.000000
TX Power	0.000000	RX Power	0.000000

599.975	0.0160356
600.053	0.0159478
600.131	0.0157387
600.209	0.0158843
600.288	0.0159936
600.366	0.0160026
600.444	0.0158660
600.522	0.0159673
600.600	0.0160616
600.678	0.0159363
600.756	0.0158771
600.834	0.0159518
600.913	0.0159369
600.991	0.0159564
601.069	0.0158713
601.147	0.0159327
601.225	0.0158960
601.303	0.0159189
601.381	0.0160253
601.459	0.0159010
601.538	0.0160049
601.616	0.0158602
601.694	0.0158849
601.772	0.0158099
601.850	0.0159108
601.928	0.0159808
602.006	0.0158762
602.084	0.0161014
602.163	0.0160450
602.241	0.0159283
602.319	0.0157764
602.397	0.0158642
602.475	0.0159309
602.553	0.0158543
602.631	0.0159028
602.709	0.0160088
602.788	0.0159508
602.866	0.0159981
602.944	0.0159373
603.022	0.0159798
603.100	0.0159880
603.178	0.0160912
603.256	0.0158337
603.334	0.0159734
603.413	0.0161050
603.491	0.0159689
603.569	0.0160606
603.647	0.0160435
603.725	0.0159021
603.803	0.0159615
603.881	0.0160075
603.959	0.0160903
604.038	0.0160583
604.116	0.0160706
604.194	0.0160903
604.272	0.0161481
604.350	0.0159904
604.428	0.0159841
604.506	0.0160793
604.584	0.0161061
604.663	0.0159410
604.741	0.0159174
604.819	0.0160741
604.897	0.0158928
604.975	0.0159806
605.053	0.0158924
605.131	0.0161329
605.209	0.0161205
605.288	0.0159354
605.366	0.0160042
605.444	0.0158662
605.522	0.0159373
605.600	0.0160146
605.678	0.0158370
605.756	0.0158982
605.834	0.0160406
605.913	0.0158961
605.991	0.0160335
606.069	0.0159593
606.147	0.0158544
606.225	0.0157735
606.303	0.0159588
606.381	0.0157653
606.459	0.0157934
606.538	0.0159366
606.616	0.0159641
606.694	0.0158593
606.772	0.0158799
606.850	0.0159588
606.928	0.0159312
607.006	0.0158559
607.084	0.0158372
607.163	0.0157764
607.241	0.0160065
607.319	0.0159244
607.397	0.0158260
607.475	0.0159788
607.553	0.0158495
607.631	0.0159413
607.709	0.0159364
607.788	0.0158453
607.866	0.0157815
607.944	0.0158629
608.022	0.0159545
608.100	0.0157749
608.178	0.0159266
608.256	0.0158678
608.334	0.0159283
608.413	0.0158556
608.491	0.0158291
608.569	0.0159930
608.647	0.0159355
608.725	0.0159229
608.803	0.0158341
608.881	0.0158195
608.959	0.0158791
609.038	0.0159686
609.116	0.0159519
609.194	0.0158040
609.272	0.0159286
609.350	0.0158342
609.428	0.0160233
609.506	0.0159329
609.584	0.0158324
609.663	0.0159000
609.741	0.0160040
609.819	0.0160636
609.897	0.0159147
609.975	0.0158871
610.053	0.0159317
610.131	0.0159805
610.209	0.0160501
610.288	0.0160177
610.366	0.0160166
610.444	0.0158545
610.522	0.0159470
610.600	0.0159002
610.678	0.0160182
610.756	0.0159376
610.834	0.0160004
610.913	0.0158828
610.991	0.0159702
611.069	0.0160910
611.147	0.0160498
611.225	0.0158923
611.303	0.0158916
611.381	0.0159242
611.459	0.0160564
611.538	0.0160712
611.616	0.0159958
611.694	0.0158256
611.772	0.0162096
611.850	0.0160140
611.928	0.0160181
612.006	0.0160248
612.084	0.0160525
612.163	0.0160522
612.241	0.0160180
612.319	0.0160817
612.397	0.0159608
612.475	0.0160678
612.553	0.0160480
612.631	0.0161271
612.709	0.0160850
612.788	0.0160164
612.866	0.0161483
612.944	0.0160498
613.022	0.0161578
613.100	0.0161538
613.178	0.0160065
613.256	0.0160497
613.334	0.0162108
613.413	0.0161220
613.491	0.0160368
613.569	0.0159057
613.647	0.0159486
613.725	0.0160264
613.803	0.0160977
613.881	0.0159072
613.959	0.0159023
614.038	0.0159540
614.116	0.0159932
614.194	0.0159518
614.272	0.0158919
614.350	0.0159384
614.428	0.0160379
614.506	0.0160490
614.584	0.0157066
614.663	0.0158311
614.741	0.0158626
614.819	0.0158940
614.897	0.0159648
614.975	0.0158990
615.053	0.0159057
615.131	0.0160087
615.209	0.0158786
615.288	0.0158900
615.366	0.0159490
615.444	0.0160128
615.522	0.0159996
615.600	0.0159953
615.678	0.0160343
615.756	0.0158555
615.834	0.0158958
615.913	0.0160717
615.991	0.0158762
616.069	0.0160374
616.147	0.0160764
616.225	0.0160286
616.303	0.0159344
616.381	0.0160979
616.459	0.0160240
616.538	0.0159958
616.616	0.0159004
616.694	0.0160391
616.772	0.0159538
616.850	0.0159094
616.928	0.0160279
617.006	0.0161068
617.084	0.0159775
617.163	0.0159908
617.241	0.0160204
617.319	0.0161658
617.397	0.0160017
617.475	0.0160334
617.553	0.0160497
617.631	0.0161408
617.709	0.0160719
617.788	0.0160995
617.866	0.0161166
617.944	0.0160278
618.022	0.0159315
618.100	0.0160423
618.178	0.0160229
618.256	0.0159277
618.334	0.0159373
618.413	0.0160065
618.491	0.0159934
618.569	0.0159666
618.647	0.0158385
618.725	0.0160697
618.803	0.0161560
618.881	0.0159633
618.959	0.0158344
619.038	0.0159337
619.116	0.0160394
619.194	0.0160780
619.272	0.0161011
619.350	0.0160516
619.428	0.0161279
619.506	0.0161613
619.584	0.0160169
619.663	0.0160730
619.741	0.0159856
619.819	0.0161014
619.897	0.0161115
619.975	0.0160583
620.053	0.0160952
620.131	0.0160720
620.209	0.0159263
620.288	0.0161105
620.366	0.0161459
620.444	0.0159918
620.522	0.0159857
620.600	0.0160818
620.678	0.0160370
620.756	0.0160628
620.834	0.0160635
620.913	0.0160123
620.991	0.0160312
621.069	0.0160687
621.147	0.0162492
621.225	0.0162244
621.303	0.0160284
621.381	0.0161714
621.459	0.0159460
621.538	0.0160629
621.616	0.0161036
621.694	0.0160555
621.772	0.0160985
621.850	0.0161086
621.928	0.0160352
622.006	0.0161044
622.084	0.0160047
622.163	0.0161686
622.241	0.0162437
622.319	0.0158956
622.397	0.0159701
622.475	0.0160896
622.553	0.0161898
622.631	0.0160316
622.709	0.0161614
622.788	0.0161720
622.866	0.0161021
622.944	0.0161900
623.022	0.0160850
623.100	0.0160914
623.178	0.0159570
623.256	0.0160624
623.334	0.0160068
623.413	0.0161588
623.491	0.0160253
623.569	0.0160538
623.647	0.0161150
623.725	0.0162527
623.803	0.0160136
623.881	0.0161106
623.959	0.0161803
624.038	0.0160044
624.116	0.0159795
624.194	0.0160279
624.272	0.0161943
624.350	0.0161329
624.428	0.0160075
624.506	0.0161211
624.584	0.0161549
624.663	0.0160303
624.741	0.0158926
624.819	0.0160445
624.897	0.0160004
624.975	0.0161665
625.053	0.0161932
625.131	0.0160809
625.209	0.0159560
625.288	0.0161701
625.366	0.0160594
625.444	0.0159764
625.522	0.0160681
625.600	0.0160554
625.678	0.0162430
625.756	0.0160004
625.834	0.0161125
625.913	0.0161651
625.991	0.0160546
626.069	0.0160270
626.147	0.0159992
626.225	0.0160203
626.303	0.0160616
626.381	0.0160696
626.459	0.0160535
626.538	0.0161119
626.616	0.0159586
626.694	0.0159566
626.772	0.0159545
626.850	0.0160058
626.928	0.0159779
627.006	0.0160233
627.084	0.0160130
627.163	0.0159986
627.241	0.0160505
627.319	0.0159833
627.397	0.0160725
627.475	0.0160767
627.553	0.0160928
627.631	0.0158829
627.709	0.0160703
627.788	0.0162048
627.866	0.0160104
627.944	0.0159654
628.022	0.0160860
628.100	0.0160417
628.178	0.0159777
628.256	0.0160126
628.334	0.0159727
628.413	0.0160805
628.491	0.0160261
628.569	0.0160101
628.647	0.0159740
628.725	0.0160171
628.803	0.0160126
628.881	0.0159779
628.959	0.0160111
629.038	0.0159990
629.116	0.0158991
629.194	0.0159256
629.272	0.0158272
629.350	0.0160931
629.428	0.0162024
629.506	0.0161052
629.584	0.0158947
629.663	0.0159567
629.741	0.0159026
629.819	0.0158990
629.897	0.0159862
629.975	0.0159151
630.053	0.0160999
630.131	0.0158870
630.209	0.0158018
630.288	0.0160043
630.366	0.0160957
630.444	0.0160323
630.522	0.0159337
630.600	0.0159863
630.678	0.0160686
630.756	0.0158523
630.834	0.0159602
630.913	0.0159570
630.991	0.0159447
631.069	0.0158622
631.147	0.0159651
631.225	0.0159892
631.303	0.0159438
631.381	0.0159520
631.459	0.0159565
631.538	0.0159567
631.616	0.0158266
631.694	0.0158596
631.772	0.0160179
631.850	0.0160011
631.928	0.0160442
632.006	0.0159571
632.084	0.0159635
632.163	0.0160011
632.241	0.0160002
632.319	0.0160551
632.397	0.0160252
632.475	0.0159402
632.553	0.0159380
632.631	0.0160136
632.709	0.0159653
632.788	0.0161377
632.866	0.0159310
632.944	0.0159867
633.022	0.0161973
633.100	0.0161072
633.178	0.0159502
633.256	0.0161281
633.334	0.0159708
633.413	0.0160275
633.491	0.0159372
633.569	0.0159985
633.647	0.0158945
633.725	0.0160159
633.803	0.0159721
633.881	0.0159914
633.959	0.0160386
634.038	0.0158916
634.116	0.0160519
634.194	0.0160140
634.272	0.0159547
634.350	0.0159777
634.428	0.0159002
634.506	0.0159562
634.584	0.0160714
634.663	0.0160106
634.741	0.0160297
634.819	0.0157885
634.897	0.0160287
634.975	0.0159168
635.053	0.0159349
635.131	0.0159469
635.209	0.0159511
635.288	0.0160609
635.366	0.0160426
635.444	0.0159568
635.522	0.0158817
635.600	0.0159471
635.678	0.0159688
635.756	0.0159652
635.834	0.0158693
635.913	0.0158340
635.991	0.0158916
636.069	0.0159751
636.147	0.0160268
636.225	0.0158859
636.303	0.0160207
636.381	0.0159039
636.459	0.0158609
636.538	0.0160195
636.616	0.0160589
636.694	0.0159131
636.772	0.0158751
636.850	0.0160532
636.928	0.0158741
637.006	0.0159766
637.084	0.0160065
637.163	0.0159873
637.241	0.0161206
637.319	0.0160027
637.397	0.0158994
637.475	0.0160744
637.553	0.0160679
637.631	0.0160365
637.709	0.0160474
637.788	0.0160202
637.866	0.0160627
637.944	0.0159282
638.022	0.0159830
638.100	0.0160519
638.178	0.0160565
638.256	0.0160942
638.334	0.0159962
638.413	0.0160364
638.491	0.0160085
638.569	0.0161221
638.647	0.0160006
638.725	0.0160579
638.803	0.0160026
638.881	0.0160699
638.959	0.0160148
639.038	0.0160250
639.116	0.0161051
639.194	0.0160196
639.272	0.0160529
639.350	0.0160938
639.428	0.0162215
639.506	0.0161957
639.584	0.0160218
639.663	0.0160586
639.741	0.0162192
639.819	0.0161510
639.897	0.0160942
639.975	0.0161154
640.053	0.0160323
640.131	0.0160464
640.209	0.0160381
640.288	0.0160664
640.366	0.0160859
640.444	0.0159836
640.522	0.0160246
640.600	0.0161320
640.678	0.0159296
640.756	0.0159781
640.834	0.0160284
640.913	0.0160339
640.991	0.0160345
641.069	0.0160637
641.147	0.0159231
641.225	0.0159460
641.303	0.0159817
641.381	0.0161434
641.459	0.0159928
641.538	0.0159924
641.616	0.0161072
641.694	0.0160518
641.772	0.0160306
641.850	0.0160825
641.928	0.0160530
642.006	0.0159588
642.084	0.0159471
642.163	0.0159203
642.241	0.0160131
642.319	0.0158880
642.397	0.0160812
642.475	0.0160010
642.553	0.0160111
642.631	0.0161128
642.709	0.0158244
642.788	0.0160265
642.866	0.0160876
642.944	0.0159114
643.022	0.0158347
643.100	0.0158511
643.178	0.0158456
643.256	0.0159641
643.334	0.0159072
643.413	0.0158768
643.491	0.0160194
643.569	0.0159361
643.647	0.0159612
643.725	0.0159845
643.803	0.0159976
643.881	0.0159302
643.959	0.0158208
644.038	0.0159213
644.116	0.0159296
644.194	0.0160593
644.272	0.0160004
644.350	0.0158814
644.428	0.0160081
644.506	0.0158716
644.584	0.0159635
644.663	0.0159525
644.741	0.0160304
644.819	0.0159792
644.897	0.0158540
644.975	0.0159317
645.053	0.0160336
645.131	0.0161724
645.209	0.0159928
645.288	0.0160468
645.366	0.0160332
645.444	0.0160788
645.522	0.0160294
645.600	0.0159966
645.678	0.0159447
645.756	0.0160457
645.834	0.0160217
645.913	0.0160459
645.991	0.0159855
646.069	0.0160520
646.147	0.0159358
646.225	0.0160413
646.303	0.0161441
646.381	0.0159938
646.459	0.0160041
646.538	0.0160258
646.616	0.0159698
646.694	0.0160260
646.772	0.0161829
646.850	0.0161259
646.928	0.0160641
647.006	0.0159936
647.084	0.0159806
647.163	0.0161366
647.241	0.0159333
647.319	0.0160159
647.397	0.0160100
647.475	0.0161916
647.553	0.0162041
647.631	0.0160208
647.709	0.0161134
647.788	0.0161356
647.866	0.0159460
647.944	0.0159930
648.022	0.0160760
648.100	0.0161924
648.178	0.0160254
648.256	0.0160532
648.334	0.0159842
648.413	0.0160692
648.491	0.0160368
648.569	0.0161279
648.647	0.0159622
648.725	0.0160487
648.803	0.0161720
648.881	0.0160835
648.959	0.0160368
649.038	0.0160554
649.116	0.0162073
649.194	0.0161003
649.272	0.0159872
649.350	0.0159476
649.428	0.0160293
649.506	0.0160402
649.584	0.0159736
649.663	0.0160858
649.741	0.0160184
649.819	0.0160983
649.897	0.0159716
649.975	0.0160449
650.053	0.0160957
650.131	0.0161655
650.209	0.0159660
650.288	0.0161501
650.366	0.0161865
650.444	0.0159522
650.522	0.0160336
650.600	0.0161437
650.678	0.0160258
650.756	0.0160509
650.834	0.0160458
650.913	0.0161107
650.991	0.0159449
651.069	0.0160006
651.147	0.0159813
651.225	0.0159056
651.303	0.0159360
651.381	0.0158554
651.459	0.0158919
651.538	0.0157610
651.616	0.0157670
651.694	0.0158311
651.772	0.0157526
651.850	0.0157943
651.928	0.0158809
652.006	0.0157822
652.084	0.0158548
652.163	0.0158301
652.241	0.0158698
652.319	0.0158735
652.397	0.0158507
652.475	0.0159077
652.553	0.0160006
652.631	0.0159051
652.709	0.0158160
652.788	0.0158665
652.866	0.0159438
652.944	0.0159216
653.022	0.0160406
653.100	0.0159196
653.178	0.0159665
653.256	0.0159538
653.334	0.0159614
653.413	0.0158748
653.491	0.0159506
653.569	0.0157864
653.647	0.0157314
653.725	0.0158224
653.803	0.0158609
653.881	0.0158179
653.959	0.0158517
654.038	0.0158390
654.116	0.0157820
654.194	0.0158816
654.272	0.0159549
654.350	0.0159357
654.428	0.0159025
654.506	0.0160566
654.584	0.0160935
654.663	0.0158752
654.741	0.0160492
654.819	0.0162607
654.897	0.0162275
654.975	0.0159911
655.053	0.0160762
655.131	0.0163384
655.209	0.0161622
655.288	0.0160753
655.366	0.0160033
655.444	0.0158846
655.522	0.0159969
655.600	0.0159127
655.678	0.0157929
655.756	0.0157009
655.834	0.0157646
655.913	0.0158059
655.991	0.0158304
656.069	0.0157148
656.147	0.0157657
656.225	0.0155788
656.303	0.0157472
656.381	0.0157471
656.459	0.0157315
656.538	0.0157531
656.616	0.0158011
656.694	0.0159052
656.772	0.0160049
656.850	0.0159460
656.928	0.0159077
657.006	0.0160439
657.084	0.0162492
657.163	0.0161194
657.241	0.0163808
657.319	0.0163290
657.397	0.0162653
657.475	0.0162901
657.553	0.0164075
657.631	0.0163073
657.709	0.0162748
657.788	0.0163143
657.866	0.0161163
657.944	0.0162000
658.022	0.0161049
658.100	0.0159542
658.178	0.0159879
658.256	0.0160083
658.334	0.0158113
658.413	0.0158183
658.491	0.0156783
658.569	0.0157235
658.647	0.0156393
658.725	0.0153800
658.803	0.0156428
658.881	0.0156149
658.959	0.0154936
659.038	0.0156408
659.116	0.0156242
659.194	0.0155386
659.272	0.0154600
659.350	0.0156509
659.428	0.0156639
659.506	0.0157368
659.584	0.0157398
659.663	0.0158215
659.741	0.0160347
659.819	0.0160587
659.897	0.0162349
659.975	0.0162978
660.053	0.0164310
660.131	0.0166022
660.209	0.0167229
660.288	0.0166566
660.366	0.0168536
660.444	0.0167765
660.522	0.0167783
660.600	0.0167738
660.678	0.0168135
660.756	0.0168608
660.834	0.0167609
660.913	0.0166782
660.991	0.0165603
661.069	0.0164384
661.147	0.0163825
661.225	0.0162577
661.303	0.0161919
661.381	0.0160786
661.459	0.0160120
661.538	0.0157816
661.616	0.0156771
661.694	0.0155527
661.772	0.0154755
661.850	0.0153309
661.928	0.0153271
662.006	0.0153034
662.084	0.0152151
662.163	0.0152074
662.241	0.0152915
662.319	0.0151804
662.397	0.0152435
662.475	0.0151069
662.553	0.0152371
662.631	0.0152541
662.709	0.0153013
662.788	0.0154173
662.866	0.0155257
662.944	0.0156074
663.022	0.0156728
663.100	0.0157281
663.178	0.0159438
663.256	0.0158567
663.334	0.0160910
663.413	0.0161854
663.491	0.0160872
663.569	0.0163269
663.647	0.0163927
663.725	0.0163138
663.803	0.0161615
663.881	0.0163030
663.959	0.0162046
664.038	0.0162038
664.116	0.0162505
664.194	0.0164123
664.272	0.0162174
664.350	0.0162199
664.428	0.0163400
664.506	0.0162598
664.584	0.0163804
664.663	0.0162873
664.741	0.0162564
664.819	0.0162481
664.897	0.0162492
664.975	0.0161060
665.053	0.0161835
665.131	0.0163040
665.209	0.0162206
665.288	0.0164024
665.366	0.0163511
665.444	0.0163763
665.522	0.0163200
665.600	0.0161709
665.678	0.0162965
665.756	0.0162799
665.834	0.0163183
665.913	0.0163399
665.991	0.0162394
666.069	0.0162561
666.147	0.0162711
666.225	0.0162191
666.303	0.0161375
666.381	0.0159796
666.459	0.0161044
666.538	0.0160111
666.616	0.0159158
666.694	0.0158611
666.772	0.0158318
666.850	0.0156222
666.928	0.0155947
667.006	0.0155656
667.084	0.0153485
667.163	0.0153926
667.241	0.0152356
667.319	0.0150661
667.397	0.0151790
667.475	0.0151420
667.553	0.0151613
667.631	0.0151112
667.709	0.0150546
667.788	0.0151818
667.866	0.0152773
667.944	0.0153819
668.022	0.0153504
668.100	0.0154720
668.178	0.0155303
668.256	0.0156442
668.334	0.0157448
668.413	0.0158627
668.491	0.0158283
668.569	0.0161124
668.647	0.0163093
668.725	0.0162611
668.803	0.0165150
668.881	0.0163413
668.959	0.0165679
669.038	0.0165550
669.116	0.0164651
669.194	0.0168195
669.272	0.0167992
669.350	0.0165256
669.428	0.0165290
669.506	0.0166174
669.584	0.0165549
669.663	0.0166213
669.741	0.0164836
669.819	0.0165081
669.897	0.0166788
669.975	0.0166402
670.053	0.0165965
670.131	0.0164238
670.209	0.0164998
670.288	0.0166303
670.366	0.0164719
670.444	0.0165215
670.522	0.0165304
670.600	0.0163368
670.678	0.0164162
670.756	0.0164087
670.834	0.0162566
670.913	0.0162198
670.991	0.0161826
671.069	0.0162678
671.147	0.0162000
671.225	0.0160729
671.303	0.0157759
671.381	0.0157515
671.459	0.0158204
671.538	0.0156993
671.616	0.0157442
671.694	0.0156875
671.772	0.0156425
671.850	0.0154687
671.928	0.0154715
672.006	0.0154346
672.084	0.0152662
672.163	0.0153064
672.241	0.0153985
672.319	0.0151974
672.397	0.0151488
672.475	0.0151061
672.553	0.0151282
672.631	0.0150761
672.709	0.0150347
672.788	0.0150549
672.866	0.0150388
672.944	0.0150798
673.022	0.0150547
673.100	0.0152298
673.178	0.0152666
673.256	0.0151395
673.334	0.0152422
673.413	0.0153966
673.491	0.0153859
673.569	0.0154652
673.647	0.0156741
673.725	0.0156628
673.803	0.0158324
673.881	0.0157835
673.959	0.0161135
674.038	0.0161678
674.116	0.0161700
674.194	0.0164182
674.272	0.0163581
674.350	0.0163531
674.428	0.0166217
674.506	0.0166989
674.584	0.0168063
674.663	0.0168581
674.741	0.0168645
674.819	0.0170060
674.897	0.0171460
674.975	0.0172655
675.053	0.0172636
675.131	0.0172396
675.209	0.0174612
675.288	0.0174349
675.366	0.0173520
675.444	0.0173706
675.522	0.0172370
675.600	0.0172456
675.678	0.0172655
675.756	0.0171923
675.834	0.0170821
675.913	0.0170284
675.991	0.0167867
676.069	0.0166885
676.147	0.0165921
676.225	0.0163311
676.303	0.0161652
676.381	0.0159858
676.459	0.0155927
676.538	0.0154578
676.616	0.0151414
676.694	0.0150761
676.772	0.0148515
676.850	0.0146686
676.928	0.0144604
677.006	0.0142569
677.084	0.0141694
677.163	0.0140776
677.241	0.0139374
677.319	0.0138195
677.397	0.0138511
677.475	0.0138069
677.553	0.0138042
677.631	0.0138000
677.709	0.0139163
677.788	0.0140233
677.866	0.0140762
677.944	0.0141279
678.022	0.0141518
678.100	0.0145322
678.178	0.0146098
678.256	0.0148766
678.334	0.0151085
678.413	0.0153526
678.491	0.0155145
678.569	0.0159427
678.647	0.0161062
678.725	0.0163409
678.803	0.0165579
678.881	0.0168703
678.959	0.0171823
679.038	0.0172676
679.116	0.0174561
679.194	0.0176683
679.272	0.0179118
679.350	0.0178744
679.428	0.0178812
679.506	0.0178419
679.584	0.0180019
679.663	0.0178879
679.741	0.0177767
679.819	0.0177357
679.897	0.0175277
679.975	0.0173392
680.053	0.0173735
680.131	0.0170555
680.209	0.0168217
680.288	0.0166949
680.366	0.0164272
680.444	0.0162016
680.522	0.0162129
680.600	0.0161158
680.678	0.0158650
680.756	0.0157175
680.834	0.0156920
680.913	0.0153936
680.991	0.0153655
681.069	0.0154255
681.147	0.0152438
681.225	0.0152293
681.303	0.0150938
681.381	0.0151340
681.459	0.0149321
681.538	0.0148841
681.616	0.0150254
681.694	0.0149683
681.772	0.0149377
681.850	0.0150195
681.928	0.0149120
682.006	0.0149854
682.084	0.0151804
682.163	0.0150616
682.241	0.0151560
682.319	0.0153414
682.397	0.0153011
682.475	0.0154522
682.553	0.0157538
682.631	0.0157323
682.709	0.0158068
682.788	0.0157573
682.866	0.0160825
682.944	0.0160661
683.022	0.0161972
683.100	0.0162085
683.178	0.0162564
683.256	0.0161328
683.334	0.0162904
683.413	0.0163423
683.491	0.0161771
683.569	0.0162460
683.647	0.0163245
683.725	0.0163769
683.803	0.0162119
683.881	0.0163528
683.959	0.0164089
684.038	0.0162733
684.116	0.0163248
684.194	0.0164503
684.272	0.0163264
684.350	0.0163464
684.428	0.0163734
684.506	0.0163332
684.584	0.0162670
684.663	0.0163607
684.741	0.0163328
684.819	0.0162915
684.897	0.0162757
684.975	0.0161708
685.053	0.0161270
685.131	0.0161071
685.209	0.0160387
685.288	0.0158356
685.366	0.0157809
685.444	0.0158313
685.522	0.0156769
685.600	0.0155021
685.678	0.0154509
685.756	0.0155254
685.834	0.0154387
685.913	0.0154111
685.991	0.0153245
686.069	0.0152930
686.147	0.0153360
686.225	0.0153760
686.303	0.0153924
686.381	0.0154452
686.459	0.0155022
686.538	0.0155882
686.616	0.0155265
686.694	0.0155591
686.772	0.0157183
686.850	0.0156979
686.928	0.0157046
687.006	0.0158627
687.084	0.0159375
687.163	0.0160656
687.241	0.0163657
687.319	0.0162412
687.397	0.0163238
687.475	0.0165826
687.553	0.0166539
687.631	0.0167797
687.709	0.0167654
687.788	0.0168030
687.866	0.0167471
687.944	0.0167213
688.022	0.0168365
688.100	0.0167583
688.178	0.0167204
688.256	0.0166077
688.334	0.0166618
688.413	0.0166253
688.491	0.0165795
688.569	0.0164762
688.647	0.0164033
688.725	0.0164542
688.803	0.0164135
688.881	0.0163194
688.959	0.0163174
689.038	0.0162386
689.116	0.0163251
689.194	0.0160255
689.272	0.0159194
689.350	0.0159151
689.428	0.0158409
689.506	0.0156653
689.584	0.0155398
689.663	0.0153233
689.741	0.0152380
689.819	0.0151566
689.897	0.0151096
689.975	0.0148393
690.053	0.0149455
690.131	0.0148915
690.209	0.0148646
690.288	0.0148395
690.366	0.0151534
690.444	0.0151338
690.522	0.0151480
690.600	0.0152605
690.678	0.0154305
690.756	0.0154748
690.834	0.0156423
690.913	0.0157630
690.991	0.0158360
691.069	0.0160435
691.147	0.0162045
691.225	0.0163229
691.303	0.0162595
691.381	0.0163605
691.459	0.0165067
691.538	0.0166183
691.616	0.0165710
691.694	0.0165110
691.772	0.0165987
691.850	0.0166278
691.928	0.0166409
692.006	0.0164529
692.084	0.0163557
692.163	0.0162404
692.241	0.0160294
692.319	0.0160255
692.397	0.0157523
692.475	0.0156931
692.553	0.0154797
692.631	0.0152785
692.709	0.0151688
692.788	0.0152336
692.866	0.0149357
692.944	0.0150031
693.022	0.0150292
693.100	0.0150188
693.178	0.0149177
693.256	0.0150476
693.334	0.0151079
693.413	0.0153541
693.491	0.0152911
693.569	0.0152959
693.647	0.0155335
693.725	0.0157325
693.803	0.0158191
693.881	0.0159535
693.959	0.0161226
694.038	0.0163338
694.116	0.0165125
694.194	0.0165974
694.272	0.0167068
694.350	0.0167961
694.428	0.0169295
694.506	0.0171046
694.584	0.0171578
694.663	0.0172330
694.741	0.0171925
694.819	0.0171545
694.897	0.0173591
694.975	0.0173795
695.053	0.0174047
695.131	0.0173750
695.209	0.0174267
695.288	0.0174729
695.366	0.0173441
695.444	0.0173306
695.522	0.0172085
695.600	0.0172237
695.678	0.0170547
695.756	0.0168723
695.834	0.0167655
695.913	0.0167178
695.991	0.0164642
696.069	0.0163792
696.147	0.0160421
696.225	0.0158750
696.303	0.0156389
696.381	0.0154015
696.459	0.0151865
696.538	0.0149977
696.616	0.0145119
696.694	0.0145226
696.772	0.0142332
696.850	0.0139194
696.928	0.0138146
697.006	0.0137878
697.084	0.0135946
697.163	0.0133796
697.241	0.0134429
697.319	0.0134882
697.397	0.0134609
697.475	0.0135549
697.553	0.0137072
697.631	0.0138422
697.709	0.0138985
697.788	0.0141076
697.866	0.0141793
697.944	0.0144496
698.022	0.0146526
698.100	0.0149171
698.178	0.0150716
698.256	0.0152780
698.334	0.0153604
698.413	0.0156252
698.491	0.0158588
698.569	0.0160447
698.647	0.0160787
698.725	0.0162971
698.803	0.0164807
698.881	0.0166347
698.959	0.0168293
699.038	0.0169318
699.116	0.0170625
699.194	0.0173385
699.272	0.0173186
699.350	0.0176823
699.428	0.0179383
699.506	0.0180141
699.584	0.0180760
699.663	0.0183300
699.741	0.0181853
699.819	0.0183813
699.897	0.0184933
699.975	0.0185589
700.053	0.0187649
700.131	0.0186935
700.209	0.0186494
700.288	0.0185765
700.366	0.0182047
700.444	0.0183289
700.522	0.0181958
700.600	0.0180300
700.678	0.0178210
700.756	0.0176623
700.834	0.0173692
700.913	0.0171755
700.991	0.0168426
701.069	0.0165954
701.147	0.0163740
701.225	0.0160686
701.303	0.0158638
701.381	0.0154819
701.459	0.0152680
701.538	0.0150484
701.616	0.0146334
701.694	0.0143822
701.772	0.0142451
701.850	0.0138695
701.928	0.0134364
702.006	0.0134184
702.084	0.0133554
702.163	0.0131382
702.241	0.0130557
702.319	0.0129628
702.397	0.0130782
702.475	0.0132434
702.553	0.0134702
702.631	0.0136154
702.709	0.0137729
702.788	0.0139958
702.866	0.0143208
702.944	0.0145953
703.022	0.0149007
703.100	0.0152905
703.178	0.0155444
703.256	0.0159218
703.334	0.0163306
703.413	0.0165430
703.491	0.0165730
703.569	0.0169823
703.647	0.0173083
703.725	0.0173340
703.803	0.0174093
703.881	0.0175986
703.959	0.0175905
704.038	0.0175716
704.116	0.0176900
704.194	0.0175912
704.272	0.0173762
704.350	0.0173989
704.428	0.0172904
704.506	0.0172287
704.584	0.0169787
704.663	0.0169891
704.741	0.0167210
704.819	0.0165717
704.897	0.0164850
704.975	0.0164436
705.053	0.0163297
705.131	0.0162622
705.209	0.0161309
705.288	0.0161753
705.366	0.0162352
705.444	0.0161582
705.522	0.0160188
705.600	0.0160670
705.678	0.0161542
705.756	0.0161952
705.834	0.0161877
705.913	0.0162249
705.991	0.0161945
706.069	0.0162233
706.147	0.0161266
706.225	0.0160660
706.303	0.0161050
706.381	0.0161864
706.459	0.0160573
706.538	0.0160150
706.616	0.0160438
706.694	0.0160835
706.772	0.0159919
706.850	0.0159158
706.928	0.0160077
707.006	0.0160585
707.084	0.0159860
707.163	0.0158979
707.241	0.0157349
707.319	0.0159740
707.397	0.0157861
707.475	0.0156546
707.553	0.0157133
707.631	0.0156948
707.709	0.0155689
707.788	0.0154305
707.866	0.0153503
707.944	0.0154194
708.022	0.0153118
708.100	0.0154564
708.178	0.0154810
708.256	0.0155935
708.334	0.0154049
708.413	0.0155502
708.491	0.0156394
708.569	0.0157478
708.647	0.0158874
708.725	0.0160148
708.803	0.0159882
708.881	0.0158907
708.959	0.0160087
709.038	0.0160094
709.116	0.0160216
709.194	0.0160633
709.272	0.0159802
709.350	0.0160564
709.428	0.0160819
709.506	0.0160102
709.584	0.0160213
709.663	0.0160095
709.741	0.0160239
709.819	0.0159545
709.897	0.0159290
709.975	0.0159328
710.053	0.0159822
710.131	0.0157819
710.209	0.0159270
710.288	0.0159819
710.366	0.0158730
710.444	0.0158378
710.522	0.0160057
710.600	0.0160432
710.678	0.0160632
710.756	0.0160692
710.834	0.0160955
710.913	0.0162750
710.991	0.0164121
711.069	0.0162351
711.147	0.0162901
711.225	0.0164168
711.303	0.0164249
711.381	0.0163698
711.459	0.0163435
711.538	0.0163721
711.616	0.0163708
711.694	0.0163401
711.772	0.0162743
711.850	0.0162477
711.928	0.0162545
712.006	0.0159589
712.084	0.0159569
712.163	0.0159975
712.241	0.0158310
712.319	0.0158583
712.397	0.0157277
712.475	0.0157984
712.553	0.0155801
712.631	0.0155239
712.709	0.0155370
712.788	0.0155733
712.866	0.0156630
712.944	0.0156354
713.022	0.0155882
713.100	0.0157129
713.178	0.0158014
713.256	0.0158651
713.334	0.0157540
713.413	0.0158941
713.491	0.0158855
713.569	0.0160675
713.647	0.0162463
713.725	0.0162613
713.803	0.0162413
713.881	0.0164509
713.959	0.0164216
714.038	0.0164300
714.116	0.0167801
714.194	0.0166278
714.272	0.0166092
714.350	0.0165626
714.428	0.0166534
714.506	0.0165141
714.584	0.0162830
714.663	0.0162768
714.741	0.0162145
714.819	0.0161831
714.897	0.0160989
714.975	0.0160230
715.053	0.0161212
715.131	0.0158649
715.209	0.0157867
715.288	0.0156849
715.366	0.0158235
715.444	0.0155923
715.522	0.0156628
715.600	0.0156517
715.678	0.0154890
715.756	0.0155801
715.834	0.0156315
715.913	0.0153788
715.991	0.0155187
716.069	0.0155552
716.147	0.0157167
716.225	0.0155249
716.303	0.0155362
716.381	0.0156146
716.459	0.0158669
716.538	0.0158971
716.616	0.0158593
716.694	0.0160043
716.772	0.0162319
716.850	0.0160209
716.928	0.0158955
717.006	0.0162800
717.084	0.0161409
717.163	0.0161190
717.241	0.0162349
717.319	0.0160650
717.397	0.0160786
717.475	0.0160860
717.553	0.0162041
717.631	0.0160188
717.709	0.0160549
717.788	0.0161270
717.866	0.0160429
717.944	0.0160423
718.022	0.0160199
718.100	0.0161419
718.178	0.0162385
718.256	0.0161526
718.334	0.0163051
718.413	0.0162772
718.491	0.0161095
718.569	0.0163156
718.647	0.0162603
718.725	0.0163828
718.803	0.0165679
718.881	0.0164654
718.959	0.0165877
719.038	0.0166754
719.116	0.0164698
719.194	0.0165038
719.272	0.0166384
719.350	0.0163601
719.428	0.0165041
719.506	0.0164633
719.584	0.0163194
719.663	0.0162373
719.741	0.0163132
719.819	0.0163103
719.897	0.0161575
719.975	0.0159327
720.053	0.0158346
720.131	0.0158978
720.209	0.0157888
720.288	0.0156739
720.366	0.0154565
720.444	0.0154521
720.522	0.0155596
720.600	0.0153843
720.678	0.0152294
720.756	0.0152529
720.834	0.0151885
720.913	0.0152397
720.991	0.0151220
721.069	0.0151862
721.147	0.0151410
721.225	0.0151661
721.303	0.0150911
721.381	0.0152061
721.459	0.0153357
721.538	0.0152750
721.616	0.0154468
721.694	0.0155447
721.772	0.0155099
721.850	0.0157352
721.928	0.0157977
722.006	0.0159107
722.084	0.0159428
722.163	0.0160545
722.241	0.0161298
722.319	0.0161651
722.397	0.0164349
722.475	0.0165453
722.553	0.0166050
722.631	0.0166165
722.709	0.0169111
722.788	0.0170405
722.866	0.0170767
722.944	0.0170468
723.022	0.0170416
723.100	0.0171833
723.178	0.0172086
723.256	0.0170949
723.334	0.0170265
723.413	0.0170535
723.491	0.0169838
723.569	0.0167976
723.647	0.0165769
723.725	0.0166691
723.803	0.0166364
723.881	0.0164636
723.959	0.0162899
724.038	0.0163307
724.116	0.0162344
724.194	0.0161460
724.272	0.0161083
724.350	0.0160696
724.428	0.0161335
724.506	0.0159549
724.584	0.0159483
724.663	0.0158646
724.741	0.0159418
724.819	0.0158816
724.897	0.0158755
724.975	0.0157145
725.053	0.0156823
725.131	0.0157307
725.209	0.0156969
725.288	0.0156084
725.366	0.0157731
725.444	0.0157287
725.522	0.0156349
725.600	0.0156550
725.678	0.0156219
725.756	0.0154941
725.834	0.0154147
725.913	0.0155287
725.991	0.0154116
726.069	0.0155795
726.147	0.0155181
726.225	0.0153407
726.303	0.0153587
726.381	0.0153136
726.459	0.0153898
726.538	0.0153601
726.616	0.0154532
726.694	0.0153980
726.772	0.0155294
726.850	0.0154950
726.928	0.0154884
727.006	0.0155263
727.084	0.0156953
727.163	0.0158041
727.241	0.0158823
727.319	0.0158764
727.397	0.0160822
727.475	0.0159431
727.553	0.0160271
727.631	0.0160983
727.709	0.0162400
727.788	0.0161951
727.866	0.0163105
727.944	0.0163718
728.022	0.0164687
728.100	0.0165503
728.178	0.0165382
728.256	0.0165887
728.334	0.0165062
728.413	0.0166838
728.491	0.0166342
728.569	0.0166539
728.647	0.0167886
728.725	0.0165452
728.803	0.0166906
728.881	0.0167007
728.959	0.0165702
729.038	0.0168124
729.116	0.0167272
729.194	0.0167301
729.272	0.0165596
729.350	0.0165996
729.428	0.0168262
729.506	0.0165866
729.584	0.0165412
729.663	0.0165577
729.741	0.0163887
729.819	0.0163783
729.897	0.0162389
729.975	0.0160133
730.053	0.0160083
730.131	0.0161584
730.209	0.0159046
730.288	0.0158083
730.366	0.0157575
730.444	0.0157246
730.522	0.0154166
730.600	0.0154818
730.678	0.0154162
730.756	0.0153600
730.834	0.0151830
730.913	0.0152082
730.991	0.0152546
731.069	0.0151653
731.147	0.0151403
731.225	0.0151331
731.303	0.0151021
731.381	0.0152415
731.459	0.0152207
731.538	0.0151093
731.616	0.0153048
731.694	0.0155030
731.772	0.0155190
731.850	0.0153967
731.928	0.0155958
732.006	0.0157317
732.084	0.0157018
732.163	0.0158231
732.241	0.0159296
732.319	0.0159647
732.397	0.0161411
732.475	0.0162470
732.553	0.0163847
732.631	0.0163655
732.709	0.0164470
732.788	0.0165229
732.866	0.0164851
732.944	0.0166357
733.022	0.0165114
733.100	0.0166013
733.178	0.0164971
733.256	0.0165050
733.334	0.0162933
733.413	0.0164171
733.491	0.0164416
733.569	0.0162804
733.647	0.0162312
733.725	0.0160463
733.803	0.0161514
733.881	0.0160602
733.959	0.0157705
734.038	0.0158454
734.116	0.0157804
734.194	0.0157533
734.272	0.0157161
734.350	0.0156694
734.428	0.0157478
734.506	0.0156494
734.584	0.0155994
734.663	0.0158411
734.741	0.0156665
734.819	0.0156368
734.897	0.0156921
734.975	0.0157552
735.053	0.0158652
735.131	0.0158991
735.209	0.0158361
735.288	0.0159756
735.366	0.0161336
735.444	0.0162009
735.522	0.0160799
735.600	0.0161726
735.678	0.0162814
735.756	0.0163729
735.834	0.0163288
735.913	0.0163477
735.991	0.0162234
736.069	0.0162976
736.147	0.0163344
736.225	0.0162843
736.303	0.0162810
736.381	0.0161599
736.459	0.0159910
736.538	0.0160109
736.616	0.0158836
736.694	0.0158138
736.772	0.0157825
736.850	0.0158298
736.928	0.0158150
737.006	0.0156873
737.084	0.0156125
737.163	0.0156367
737.241	0.0157279
737.319	0.0157478
737.397	0.0157401
737.475	0.0156492
737.553	0.0157348
737.631	0.0158836
737.709	0.0160216
737.788	0.0160620
737.866	0.0160755
737.944	0.0161967
738.022	0.0160329
738.100	0.0161462
738.178	0.0163304
738.256	0.0163332
738.334	0.0165115
738.413	0.0165372
738.491	0.0165179
738.569	0.0166724
738.647	0.0165622
738.725	0.0165137
738.803	0.0165676
738.881	0.0163606
738.959	0.0162991
739.038	0.0163734
739.116	0.0162441
739.194	0.0160680
739.272	0.0162306
739.350	0.0160253
739.428	0.0159421
739.506	0.0158417
739.584	0.0155949
739.663	0.0155404
739.741	0.0154713
739.819	0.0152948
739.897	0.0153436
739.975	0.0152789
740.053	0.0152886
740.131	0.0151762
740.209	0.0150352
740.288	0.0150109
740.366	0.0150323
740.444	0.0149558
740.522	0.0149478
740.600	0.0149496
740.678	0.0149048
740.756	0.0148843
740.834	0.0150057
740.913	0.0149083
740.991	0.0149534
741.069	0.0150774
741.147	0.0150704
741.225	0.0154300
741.303	0.0154529
741.381	0.0155235
741.459	0.0156413
741.538	0.0155224
741.616	0.0158972
741.694	0.0160214
741.772	0.0160116
741.850	0.0161817
741.928	0.0163894
742.006	0.0164752
742.084	0.0164997
742.163	0.0166774
742.241	0.0167454
742.319	0.0168849
742.397	0.0169027
742.475	0.0171236
742.553	0.0170876
742.631	0.0170995
742.709	0.0171363
742.788	0.0171699
742.866	0.0172334
742.944	0.0172041
743.022	0.0171017
743.100	0.0170560
743.178	0.0170245
743.256	0.0168218
743.334	0.0169186
743.413	0.0167522
743.491	0.0166995
743.569	0.0165016
743.647	0.0165470
743.725	0.0163692
743.803	0.0162601
743.881	0.0160835
743.959	0.0161215
744.038	0.0161023
744.116	0.0160189
744.194	0.0158568
744.272	0.0159777
744.350	0.0159025
744.428	0.0159527
744.506	0.0159948
744.584	0.0157661
744.663	0.0159235
744.741	0.0158645
744.819	0.0157549
744.897	0.0157726
744.975	0.0157931
745.053	0.0157422
745.131	0.0157253
745.209	0.0155578
745.288	0.0154897
745.366	0.0153540
745.444	0.0154194
745.522	0.0152328
745.600	0.0151479
745.678	0.0151984
745.756	0.0151917
745.834	0.0149924
745.913	0.0150526
745.991	0.0150540
746.069	0.0152724
746.147	0.0153130
746.225	0.0153690
746.303	0.0154476
746.381	0.0154983
746.459	0.0156074
746.538	0.0157233
746.616	0.0159519
746.694	0.0161359
746.772	0.0162470
746.850	0.0164845
746.928	0.0162614
747.006	0.0165588
747.084	0.0165557
747.163	0.0165847
747.241	0.0166833
747.319	0.0167270
747.397	0.0166487
747.475	0.0166152
747.553	0.0167518
747.631	0.0166844
747.709	0.0163956
747.788	0.0163465
747.866	0.0162772
747.944	0.0163420
748.022	0.0159317
748.100	0.0159742
748.178	0.0158765
748.256	0.0159713
748.334	0.0157640
748.413	0.0156588
748.491	0.0158425
748.569	0.0158424
748.647	0.0156804
748.725	0.0157142
748.803	0.0157610
748.881	0.0158372
748.959	0.0158378
749.038	0.0157806
749.116	0.0158317
749.194	0.0158604
749.272	0.0159615
749.350	0.0156645
749.428	0.0158663
749.506	0.0158428
749.584	0.0158522
749.663	0.0157631
749.741	0.0156354
749.819	0.0155941
749.897	0.0156392
749.975	0.0156007
750.053	0.0155397
750.131	0.0155058
750.209	0.0155692
750.288	0.0153886
750.366	0.0154220
750.444	0.0154574
750.522	0.0154556
750.600	0.0154615
750.678	0.0155079
750.756	0.0155578
750.834	0.0155452
750.913	0.0156065
750.991	0.0157188
751.069	0.0158283
751.147	0.0157139
751.225	0.0160181
751.303	0.0160022
751.381	0.0159412
751.459	0.0161042
751.538	0.0162775
751.616	0.0162696
751.694	0.0162688
751.772	0.0163817
751.850	0.0164954
751.928	0.0164913
752.006	0.0164948
752.084	0.0167480
752.163	0.0166310
752.241	0.0165916
752.319	0.0166672
752.397	0.0166610
752.475	0.0165015
752.553	0.0166515
752.631	0.0164941
752.709	0.0165150
752.788	0.0165211
752.866	0.0163995
752.944	0.0162723
753.022	0.0161420
753.100	0.0160071
753.178	0.0161071
753.256	0.0159784
753.334	0.0157690
753.413	0.0158583
753.491	0.0157739
753.569	0.0153922
753.647	0.0155577
753.725	0.0154510
753.803	0.0152349
753.881	0.0152294
753.959	0.0152423
754.038	0.0153908
754.116	0.0152806
754.194	0.0152048
754.272	0.0152783
754.350	0.0152294
754.428	0.0153520
754.506	0.0154772
754.584	0.0154217
754.663	0.0155374
754.741	0.0156690
754.819	0.0157011
754.897	0.0158393
754.975	0.0158711
755.053	0.0158543
755.131	0.0161491
755.209	0.0163884
755.288	0.0163464
755.366	0.0163192
755.444	0.0165937
755.522	0.0167255
755.600	0.0166530
755.678	0.0166111
755.756	0.0167482
755.834	0.0166757
755.913	0.0164444
755.991	0.0166325
756.069	0.0166285
756.147	0.0164838
756.225	0.0165215
756.303	0.0165018
756.381	0.0165257
756.459	0.0164588
756.538	0.0162786
756.616	0.0163612
756.694	0.0164372
756.772	0.0163448
756.850	0.0162788
756.928	0.0162924
757.006	0.0163284
757.084	0.0162102
757.163	0.0163015
757.241	0.0162974
757.319	0.0161948
757.397	0.0161006
757.475	0.0161050
757.553	0.0160036
757.631	0.0159125
757.709	0.0158070
757.788	0.0157014
757.866	0.0156450
757.944	0.0153528
758.022	0.0154691
758.100	0.0154453
758.178	0.0154010
758.256	0.0152358
758.334	0.0152025
758.413	0.0151989
758.491	0.0151403
758.569	0.0152089
758.647	0.0151787
758.725	0.0152190
758.803	0.0153146
758.881	0.0152464
758.959	0.0152901
759.038	0.0153638
759.116	0.0154305
759.194	0.0156065
759.272	0.0157452
759.350	0.0157754
759.428	0.0156727
759.506	0.0158090
759.584	0.0159965
759.663	0.0160679
759.741	0.0161282
759.819	0.0162213
759.897	0.0161718
759.975	0.0161132
760.053	0.0163508
760.131	0.0164736
760.209	0.0163634
760.288	0.0164463
760.366	0.0164083
760.444	0.0163766
760.522	0.0164539
760.600	0.0164127
760.678	0.0164533
760.756	0.0164961
760.834	0.0164808
760.913	0.0164109
760.991	0.0165773
761.069	0.0166309
761.147	0.0164697
761.225	0.0165156
761.303	0.0165034
761.381	0.0164989
761.459	0.0164142
761.538	0.0164087
761.616	0.0163577
761.694	0.0162969
761.772	0.0162303
761.850	0.0160252
761.928	0.0159254
762.006	0.0159302
762.084	0.0157280
762.163	0.0156913
762.241	0.0155737
762.319	0.0153794
762.397	0.0153066
762.475	0.0153667
762.553	0.0150460
762.631	0.0153854
762.709	0.0154239
762.788	0.0152116
762.866	0.0151989
762.944	0.0151810
763.022	0.0153828
763.100	0.0154111
763.178	0.0155943
763.256	0.0155811
763.334	0.0155350
763.413	0.0156473
763.491	0.0157639
763.569	0.0159653
763.647	0.0159175
763.725	0.0161382
763.803	0.0162513
763.881	0.0163304
763.959	0.0162496
764.038	0.0165148
764.116	0.0164027
764.194	0.0165421
764.272	0.0164593
764.350	0.0164224
764.428	0.0164931
764.506	0.0164863
764.584	0.0164917
764.663	0.0165192
764.741	0.0163145
764.819	0.0163698
764.897	0.0162630
764.975	0.0162823
765.053	0.0160867
765.131	0.0161743
765.209	0.0159177
765.288	0.0158402
765.366	0.0158413
765.444	0.0157455
765.522	0.0157123
765.600	0.0157197
765.678	0.0156881
765.756	0.0154597
765.834	0.0154222
765.913	0.0155894
765.991	0.0153682
766.069	0.0156994
766.147	0.0156740
766.225	0.0156384
766.303	0.0157630
766.381	0.0158198
766.459	0.0157744
766.538	0.0159980
766.616	0.0159013
766.694	0.0160251
766.772	0.0162302
766.850	0.0162380
766.928	0.0160993
767.006	0.0163064
767.084	0.0162632
767.163	0.0163892
767.241	0.0163429
767.319	0.0163614
767.397	0.0164452
767.475	0.0163393
767.553	0.0164189
767.631	0.0163190
767.709	0.0162424
767.788	0.0162395
767.866	0.0161694
767.944	0.0160663
768.022	0.0159984
768.100	0.0158303
768.178	0.0157533
768.256	0.0156078
768.334	0.0156593
768.413	0.0156114
768.491	0.0156089
768.569	0.0156557
768.647	0.0155292
768.725	0.0153464
768.803	0.0155219
768.881	0.0154810
768.959	0.0156760
769.038	0.0155997
769.116	0.0157439
769.194	0.0157468
769.272	0.0158710
769.350	0.0159679
769.428	0.0159309
769.506	0.0160854
769.584	0.0160413
769.663	0.0160785
769.741	0.0161801
769.819	0.0162742
769.897	0.0163438
769.975	0.0162807
770.053	0.0163756
770.131	0.0164240
770.209	0.0164708
770.288	0.0164422
770.366	0.0165788
770.444	0.0165185
770.522	0.0166391
770.600	0.0166507
770.678	0.0165806
770.756	0.0165552
770.834	0.0164109
770.913	0.0163573
770.991	0.0163709
771.069	0.0162811
771.147	0.0162482
771.225	0.0160816
771.303	0.0160619
771.381	0.0157803
771.459	0.0157410
771.538	0.0155209
771.616	0.0154684
771.694	0.0155070
771.772	0.0153320
771.850	0.0152734
771.928	0.0151836
772.006	0.0151534
772.084	0.0151289
772.163	0.0150658
772.241	0.0151854
772.319	0.0152109
772.397	0.0151272
772.475	0.0151403
772.553	0.0153169
772.631	0.0154149
772.709	0.0153658
772.788	0.0155315
772.866	0.0154932
772.944	0.0155995
773.022	0.0157907
773.100	0.0158311
773.178	0.0159442
773.256	0.0159462
773.334	0.0160687
773.413	0.0161060
773.491	0.0164207
773.569	0.0162458
773.647	0.0162727
773.725	0.0163841
773.803	0.0163541
773.881	0.0163702
773.959	0.0165792
774.038	0.0165324
774.116	0.0162391
774.194	0.0164017
774.272	0.0163197
774.350	0.0163808
774.428	0.0162326
774.506	0.0161071
774.584	0.0162093
774.663	0.0161057
774.741	0.0161190
774.819	0.0159592
774.897	0.0159954
774.975	0.0160088
775.053	0.0158121
775.131	0.0158605
775.209	0.0159260
775.288	0.0159476
775.366	0.0157509
775.444	0.0158336
775.522	0.0158759
775.600	0.0158429
775.678	0.0158511
775.756	0.0160015
775.834	0.0160653
775.913	0.0160597
775.991	0.0160609
776.069	0.0160845
776.147	0.0160037
776.225	0.0160089
776.303	0.0160235
776.381	0.0162227
776.459	0.0161752
776.538	0.0159062
776.616	0.0161199
776.694	0.0160241
776.772	0.0159632
776.850	0.0159142
776.928	0.0158819
777.006	0.0159770
777.084	0.0158117
777.163	0.0159061
777.241	0.0158995
777.319	0.0157713
777.397	0.0158486
777.475	0.0158582
777.553	0.0158961
777.631	0.0158376
777.709	0.0157733
777.788	0.0157991
777.866	0.0158012
777.944	0.0158725
778.022	0.0157597
778.100	0.0157635
778.178	0.0157368
778.256	0.0158444
778.334	0.0156933
778.413	0.0158196
778.491	0.0157037
778.569	0.0157186
778.647	0.0158832
778.725	0.0157693
778.803	0.0157610
778.881	0.0160025
778.959	0.0160004
779.038	0.0160636
779.116	0.0158857
779.194	0.0158326
779.272	0.0158966
779.350	0.0161774
779.428	0.0160892
779.506	0.0160390
779.584	0.0160860
779.663	0.0162062
779.741	0.0161658
779.819	0.0162746
779.897	0.0161361
779.975	0.0162439
780.053	0.0162003
780.131	0.0161228
780.209	0.0160745
780.288	0.0159220
780.366	0.0160091
780.444	0.0158418
780.522	0.0158168
780.600	0.0157404
780.678	0.0157351
780.756	0.0155910
780.834	0.0155704
780.913	0.0155464
780.991	0.0155721
781.069	0.0155660
781.147	0.0153394
781.225	0.0154684
781.303	0.0154871
781.381	0.0154623
781.459	0.0155100
781.538	0.0155694
781.616	0.0155859
781.694	0.0155779
781.772	0.0155492
781.850	0.0157923
781.928	0.0160436
782.006	0.0159991
782.084	0.0159572
782.163	0.0161727
782.241	0.0159623
782.319	0.0162984
782.397	0.0162691
782.475	0.0162441
782.553	0.0163502
782.631	0.0165023
782.709	0.0164076
782.788	0.0165080
782.866	0.0164924
782.944	0.0165226
783.022	0.0165889
783.100	0.0166287
783.178	0.0163827
783.256	0.0165589
783.334	0.0165627
783.413	0.0164259
783.491	0.0164904
783.569	0.0165150
783.647	0.0162295
783.725	0.0162543
783.803	0.0162284
783.881	0.0162383
783.959	0.0163456
784.038	0.0161444
784.116	0.0160468
784.194	0.0158923
784.272	0.0160928
784.350	0.0161339
784.428	0.0160519
784.506	0.0159956
784.584	0.0160751
784.663	0.0159660
784.741	0.0160986
784.819	0.0162061
784.897	0.0161371
784.975	0.0160802
785.053	0.0160328
785.131	0.0160308
785.209	0.0160961
785.288	0.0161117
785.366	0.0162354
785.444	0.0161174
785.522	0.0159230
785.600	0.0159302
785.678	0.0158224
785.756	0.0158814
785.834	0.0158501
785.913	0.0157929
785.991	0.0157961
786.069	0.0158462
786.147	0.0156693
786.225	0.0157189
786.303	0.0154393
786.381	0.0155228
786.459	0.0154256
786.538	0.0154559
786.616	0.0154694
786.694	0.0153690
786.772	0.0154829
786.850	0.0153860
786.928	0.0153392
787.006	0.0153503
787.084	0.0154443
787.163	0.0155603
787.241	0.0155535
787.319	0.0155244
787.397	0.0156099
787.475	0.0155440
787.553	0.0156871
787.631	0.0157107
787.709	0.0157603
787.788	0.0157817
787.866	0.0158237
787.944	0.0160318
788.022	0.0160821
788.100	0.0160934
788.178	0.0162925
788.256	0.0163189
788.334	0.0162410
788.413	0.0163198
788.491	0.0163876
788.569	0.0164561
788.647	0.0164816
788.725	0.0165512
788.803	0.0165388
788.881	0.0165391
788.959	0.0165495
789.038	0.0163725
789.116	0.0163403
789.194	0.0164051
789.272	0.0162455
789.350	0.0163395
789.428	0.0161677
789.506	0.0161656
789.584	0.0160970
789.663	0.0159384
789.741	0.0159283
789.819	0.0158016
789.897	0.0157275
789.975	0.0157542
790.053	0.0157290
790.131	0.0155886
790.209	0.0156555
790.288	0.0155435
790.366	0.0154672
790.444	0.0156142
790.522	0.0156601
790.600	0.0156415
790.678	0.0155035
790.756	0.0156961
790.834	0.0159109
790.913	0.0158238
790.991	0.0158344
791.069	0.0158657
791.147	0.0159980
791.225	0.0159919
791.303	0.0160397
791.381	0.0161306
791.459	0.0161533
791.538	0.0161712
791.616	0.0161859
791.694	0.0163940
791.772	0.0164780
791.850	0.0163111
791.928	0.0164257
792.006	0.0164566
792.084	0.0164024
792.163	0.0164225
792.241	0.0164368
792.319	0.0163740
792.397	0.0163670
792.475	0.0164312
792.553	0.0161596
792.631	0.0161624
792.709	0.0161555
792.788	0.0161723
792.866	0.0159563
792.944	0.0158866
793.022	0.0159181
793.100	0.0158212
793.178	0.0157059
793.256	0.0156618
793.334	0.0155538
793.413	0.0156834
793.491	0.0155878
793.569	0.0156781
793.647	0.0155582
793.725	0.0155618
793.803	0.0156061
793.881	0.0155151
793.959	0.0156054
794.038	0.0157153
794.116	0.0157578
794.194	0.0157299
794.272	0.0156390
794.350	0.0155865
794.428	0.0156854
794.506	0.0158280
794.584	0.0158640
794.663	0.0157178
794.741	0.0156704
794.819	0.0157223
794.897	0.0157122
794.975	0.0157521
795.053	0.0157755
795.131	0.0156329
795.209	0.0156782
795.288	0.0156947
795.366	0.0157461
795.444	0.0157005
795.522	0.0158235
795.600	0.0158806
795.678	0.0158540
795.756	0.0159440
795.834	0.0159297
795.913	0.0161259
795.991	0.0160054
796.069	0.0162589
796.147	0.0161539
796.225	0.0161717
796.303	0.0163329
796.381	0.0162154
796.459	0.0162169
796.538	0.0162611
796.616	0.0164076
796.694	0.0163520
796.772	0.0165409
796.850	0.0164153
796.928	0.0164796
797.006	0.0166151
797.084	0.0164672
797.163	0.0164528
797.241	0.0164994
797.319	0.0165173
797.397	0.0162863
797.475	0.0163712
797.553	0.0164068
797.631	0.0162936
797.709	0.0162311
797.788	0.0161578
797.866	0.0161772
797.944	0.0161072
798.022	0.0160014
798.100	0.0161319
798.178	0.0160067
798.256	0.0159238
798.334	0.0156641
798.413	0.0157131
798.491	0.0155627
798.569	0.0156081
798.647	0.0155448
798.725	0.0154528
798.803	0.0153946
798.881	0.0154394
798.959	0.0153083
799.038	0.0153162
799.116	0.0152040
799.194	0.0152174
799.272	0.0153357
799.350	0.0152930
799.428	0.0153044
799.506	0.0155409
799.584	0.0153423
799.663	0.0155252
799.741	0.0156123
799.819	0.0157050
799.897	0.0157662
799.975	0.0158482
800.053	0.0157806
800.131	0.0159394
800.209	0.0160053
800.288	0.0161756
800.366	0.0161581
800.444	0.0161874
800.522	0.0163199
800.600	0.0161951
800.678	0.0164169
800.756	0.0163720
800.834	0.0166124
800.913	0.0165394
800.991	0.0165128
801.069	0.0164938
801.147	0.0163498
801.225	0.0164629
801.303	0.0165144
801.381	0.0163882
801.459	0.0163396
801.538	0.0164809
801.616	0.0165001
801.694	0.0164745
801.772	0.0163148
801.850	0.0162801
801.928	0.0162321
802.006	0.0160641
802.084	0.0161700
802.163	0.0163230
802.241	0.0162227
802.319	0.0160648
802.397	0.0160937
802.475	0.0160366
802.553	0.0161194
802.631	0.0161703
802.709	0.0160712
802.788	0.0159886
802.866	0.0159956
802.944	0.0159462
803.022	0.0158299
803.100	0.0157489
803.178	0.0157807
803.256	0.0158366
803.334	0.0155737
803.413	0.0158062
803.491	0.0157648
803.569	0.0157207
803.647	0.0157028
803.725	0.0156845
803.803	0.0158420
803.881	0.0156921
803.959	0.0157090
804.038	0.0157291
804.116	0.0158300
804.194	0.0158385
804.272	0.0158970
804.350	0.0157747
804.428	0.0158396
804.506	0.0158369
804.584	0.0158698
804.663	0.0158590
804.741	0.0158633
804.819	0.0158028
804.897	0.0158303
804.975	0.0156493
805.053	0.0157417
805.131	0.0157864
805.209	0.0155598
805.288	0.0158160
805.366	0.0157536
805.444	0.0155955
805.522	0.0157207
805.600	0.0158750
805.678	0.0157874
805.756	0.0158361
805.834	0.0159109
805.913	0.0159238
805.991	0.0160823
806.069	0.0161099
806.147	0.0160913
806.225	0.0161127
806.303	0.0162000
806.381	0.0162029
806.459	0.0162527
806.538	0.0162632
806.616	0.0163908
806.694	0.0162396
806.772	0.0162136
806.850	0.0164189
806.928	0.0163274
807.006	0.0163432
807.084	0.0162494
807.163	0.0162636
807.241	0.0162963
807.319	0.0162093
807.397	0.0162971
807.475	0.0162626
807.553	0.0163301
807.631	0.0162134
807.709	0.0162373
807.788	0.0161990
807.866	0.0163000
807.944	0.0162771
808.022	0.0162197
808.100	0.0161339
808.178	0.0162798
808.256	0.0162143
808.334	0.0161261
808.413	0.0161256
808.491	0.0161349
808.569	0.0161457
808.647	0.0160226
808.725	0.0159611
808.803	0.0161144
808.881	0.0160300
808.959	0.0160385
809.038	0.0160514
809.116	0.0160344
809.194	0.0160568
809.272	0.0159082
809.350	0.0158097
809.428	0.0158511
809.506	0.0158175
809.584	0.0157906
809.663	0.0158755
809.741	0.0159016
809.819	0.0158480
809.897	0.0158099
809.975	0.0158311
810.053	0.0157010
810.131	0.0156726
810.209	0.0158576
810.288	0.0157889
810.366	0.0158634
810.444	0.0157673
810.522	0.0158061
810.600	0.0157861
810.678	0.0158599
810.756	0.0157758
810.834	0.0159299
810.913	0.0159011
810.991	0.0158930
811.069	0.0158695
811.147	0.0159010
811.225	0.0158778
811.303	0.0158248
811.381	0.0159462
811.459	0.0158071
811.538	0.0158405
811.616	0.0156692
811.694	0.0156807
811.772	0.0159385
811.850	0.0158760
811.928	0.0159632
812.006	0.0158621
812.084	0.0160191
812.163	0.0160249
812.241	0.0160091
812.319	0.0159342
812.397	0.0160226
812.475	0.0160193
812.553	0.0160364
812.631	0.0160493
812.709	0.0161196
812.788	0.0160913
812.866	0.0161032
812.944	0.0161327
813.022	0.0162375
813.100	0.0163078
813.178	0.0162239
813.256	0.0161701
813.334	0.0162708
813.413	0.0163006
813.491	0.0163017
813.569	0.0162392
813.647	0.0162724
813.725	0.0161996
813.803	0.0162107
813.881	0.0163127
813.959	0.0162440
814.038	0.0162014
814.116	0.0161420
814.194	0.0161578
814.272	0.0161089
814.350	0.0159901
814.428	0.0160847
814.506	0.0159943
814.584	0.0160732
814.663	0.0160408
814.741	0.0159109
814.819	0.0160126
814.897	0.0160582
814.975	0.0159429
815.053	0.0158976
815.131	0.0160489
815.209	0.0160854
815.288	0.0158939
815.366	0.0159015
815.444	0.0159753
815.522	0.0159846
815.600	0.0160085
815.678	0.0158436
815.756	0.0160124
815.834	0.0160204
815.913	0.0160406
815.991	0.0159455
816.069	0.0159650
816.147	0.0159721
816.225	0.0160888
816.303	0.0158652
816.381	0.0159985
816.459	0.0160722
816.538	0.0159467
816.616	0.0159938
816.694	0.0160320
816.772	0.0159111
816.850	0.0158842
816.928	0.0158861
817.006	0.0158555
817.084	0.0158054
817.163	0.0158268
817.241	0.0159655
817.319	0.0157689
817.397	0.0158180
817.475	0.0159556
817.553	0.0158549
817.631	0.0157364
817.709	0.0157700
817.788	0.0158935
817.866	0.0157683
817.944	0.0156807
818.022	0.0158176
818.100	0.0158408
818.178	0.0159048
818.256	0.0157236
818.334	0.0157331
818.413	0.0158752
818.491	0.0157898
818.569	0.0158228
818.647	0.0157086
818.725	0.0158724
818.803	0.0158170
818.881	0.0158797
818.959	0.0158736
819.038	0.0158950
819.116	0.0159555
819.194	0.0159357
819.272	0.0159146
819.350	0.0159943
819.428	0.0159618
819.506	0.0160070
819.584	0.0159678
819.663	0.0158907
819.741	0.0159347
819.819	0.0159731
819.897	0.0160315
819.975	0.0159837
820.053	0.0160078
820.131	0.0162270
820.209	0.0160657
820.288	0.0160750
820.366	0.0160284
820.444	0.0160209
820.522	0.0159753
820.600	0.0158604
820.678	0.0160651
820.756	0.0160838
820.834	0.0160545
820.913	0.0159293
820.991	0.0160368
821.069	0.0158764
821.147	0.0158891
821.225	0.0160016
821.303	0.0159380
821.381	0.0159811
821.459	0.0160896
821.538	0.0160036
821.616	0.0159512
821.694	0.0159365
821.772	0.0159788
821.850	0.0160179
821.928	0.0159866
822.006	0.0159591
822.084	0.0160328
822.163	0.0160254
822.241	0.0159771
822.319	0.0159242
822.397	0.0159087
822.475	0.0159354
822.553	0.0159869
822.631	0.0159100
822.709	0.0158649
822.788	0.0157027
822.866	0.0157974
822.944	0.0159219
823.022	0.0158935
823.100	0.0157870
823.178	0.0156127
823.256	0.0157322
823.334	0.0158143
823.413	0.0156874
823.491	0.0157505
823.569	0.0156992
823.647	0.0157126
823.725	0.0157764
823.803	0.0157024
823.881	0.0158186
823.959	0.0158284
824.038	0.0158556
824.116	0.0158249
824.194	0.0158965
824.272	0.0160441
824.350	0.0158124
824.428	0.0159343
824.506	0.0160023
824.584	0.0158867
824.663	0.0160146
824.741	0.0161244
824.819	0.0161237
824.897	0.0161150
824.975	0.0161237
825.053	0.0160866
825.131	0.0161647
825.209	0.0160885
825.288	0.0162610
825.366	0.0160754
825.444	0.0160327
825.522	0.0161421
825.600	0.0161939
825.678	0.0160834
825.756	0.0161124
825.834	0.0161716
825.913	0.0159785
825.991	0.0159792
826.069	0.0160992
826.147	0.0160703
826.225	0.0161102
826.303	0.0160850
826.381	0.0159825
826.459	0.0160892
826.538	0.0159073
826.616	0.0160077
826.694	0.0158881
826.772	0.0159058
826.850	0.0159058
826.928	0.0159878
827.006	0.0159679
827.084	0.0159230
827.163	0.0157859
827.241	0.0158509
827.319	0.0158340
827.397	0.0156739
827.475	0.0157146
827.553	0.0157496
827.631	0.0157950
827.709	0.0159358
827.788	0.0157419
827.866	0.0158312
827.944	0.0157981
828.022	0.0157549
828.100	0.0159007
828.178	0.0159043
828.256	0.0160444
828.334	0.0158407
828.413	0.0158589
828.491	0.0160029
828.569	0.0160030
828.647	0.0159572
828.725	0.0160505
828.803	0.0161707
828.881	0.0160683
828.959	0.0160991
829.038	0.0160545
829.116	0.0160481
829.194	0.0160777
829.272	0.0160820
829.350	0.0160448
829.428	0.0160871
829.506	0.0159497
829.584	0.0160487
829.663	0.0160917
829.741	0.0160314
829.819	0.0160668
829.897	0.0160728
829.975	0.0161369
830.053	0.0161202
830.131	0.0160683
830.209	0.0160970
830.288	0.0161372
830.366	0.0161250
830.444	0.0160669
830.522	0.0162670
830.600	0.0161573
830.678	0.0160807
830.756	0.0160471
830.834	0.0160110
830.913	0.0161062
830.991	0.0160442
831.069	0.0162597
831.147	0.0161797
831.225	0.0160425
831.303	0.0161892
831.381	0.0160358
831.459	0.0161449
831.538	0.0161058
831.616	0.0161069
831.694	0.0160496
831.772	0.0160722
831.850	0.0160415
831.928	0.0159191
832.006	0.0159245
832.084	0.0160551
832.163	0.0160791
832.241	0.0160780
832.319	0.0162275
832.397	0.0160606
832.475	0.0159322
832.553	0.0160491
832.631	0.0161241
832.709	0.0161418
832.788	0.0162041
832.866	0.0160781
832.944	0.0160934
833.022	0.0161092
833.100	0.0161226
833.178	0.0160791
833.256	0.0159544
833.334	0.0160073
833.413	0.0160580
833.491	0.0160852
833.569	0.0159602
833.647	0.0159549
833.725	0.0159347
833.803	0.0160132
833.881	0.0158929
833.959	0.0159808
834.038	0.0159224
834.116	0.0159526
834.194	0.0159074
834.272	0.0158765
834.350	0.0158048
834.428	0.0158981
834.506	0.0158710
834.584	0.0158891
834.663	0.0159612
834.741	0.0159090
834.819	0.0159200
834.897	0.0159074
834.975	0.0159988
835.053	0.0158988
835.131	0.0160779
835.209	0.0160076
835.288	0.0157606
835.366	0.0159502
835.444	0.0159406
835.522	0.0159863
835.600	0.0158953
835.678	0.0159814
835.756	0.0159045
835.834	0.0158515
835.913	0.0160279
835.991	0.0159969
836.069	0.0159644
836.147	0.0159720
836.225	0.0159239
836.303	0.0158586
836.381	0.0159033
836.459	0.0159232
836.538	0.0159121
836.616	0.0158006
836.694	0.0158252
836.772	0.0159443
836.850	0.0158241
836.928	0.0158332
837.006	0.0159224
837.084	0.0158673
837.163	0.0159209
837.241	0.0159700
837.319	0.0159190
837.397	0.0159603
837.475	0.0159539
837.553	0.0160148
837.631	0.0159692
837.709	0.0160209
837.788	0.0161106
837.866	0.0160059
837.944	0.0160774
838.022	0.0159579
838.100	0.0160010
838.178	0.0160148
838.256	0.0159389
838.334	0.0160764
838.413	0.0160476
838.491	0.0160605
838.569	0.0161010
838.647	0.0161196
838.725	0.0161800
838.803	0.0160724
838.881	0.0161552
838.959	0.0161182
839.038	0.0161436
839.116	0.0163648
839.194	0.0162062
839.272	0.0160789
839.350	0.0161172
839.428	0.0160304
839.506	0.0159748
839.584	0.0160088
839.663	0.0159697
839.741	0.0160274
839.819	0.0159274
839.897	0.0159113
839.975	0.0159956
840.053	0.0159569
840.131	0.0158893
840.209	0.0158439
840.288	0.0159075
840.366	0.0156986
840.444	0.0157323
840.522	0.0157507
840.600	0.0157497
840.678	0.0158173
840.756	0.0158652
840.834	0.0158776
840.913	0.0158942
840.991	0.0160070
841.069	0.0158665
841.147	0.0158799
841.225	0.0158374
841.303	0.0158675
841.381	0.0159982
841.459	0.0160391
841.538	0.0160583
841.616	0.0158765
841.694	0.0159656
841.772	0.0157724
841.850	0.0159831
841.928	0.0159113
842.006	0.0158405
842.084	0.0159808
842.163	0.0159204
842.241	0.0159618
842.319	0.0159422
842.397	0.0159528
842.475	0.0159125
842.553	0.0159863
842.631	0.0160062
842.709	0.0157764
842.788	0.0159169
842.866	0.0159743
842.944	0.0158492
843.022	0.0159477
843.100	0.0160484
843.178	0.0158613
843.256	0.0159137
843.334	0.0159575
843.413	0.0159782
843.491	0.0159636
843.569	0.0159210
843.647	0.0158763
843.725	0.0159219
843.803	0.0160625
843.881	0.0160472
843.959	0.0160539
844.038	0.0159937
844.116	0.0160641
844.194	0.0161411
844.272	0.0159062
844.350	0.0159301
844.428	0.0159937
844.506	0.0158265
844.584	0.0159416
844.663	0.0159943
844.741	0.0158898
844.819	0.0159589
844.897	0.0159235
844.975	0.0158253
845.053	0.0157211
845.131	0.0158738
845.209	0.0158939
845.288	0.0158094
845.366	0.0158802
845.444	0.0159592
845.522	0.0157930
845.600	0.0159725
845.678	0.0160378
845.756	0.0159428
845.834	0.0159929
845.913	0.0159045
845.991	0.0158669
846.069	0.0159022
846.147	0.0159390
846.225	0.0159637
846.303	0.0159336
846.381	0.0159367
846.459	0.0160413
846.538	0.0159782
846.616	0.0160470
846.694	0.0159990
846.772	0.0159046
846.850	0.0159914
846.928	0.0159863
847.006	0.0159828
847.084	0.0160868
847.163	0.0161633
847.241	0.0160195
847.319	0.0160892
847.397	0.0161893
847.475	0.0161188
847.553	0.0159869
847.631	0.0161178
847.709	0.0159602
847.788	0.0161222
847.866	0.0160875
847.944	0.0160693
848.022	0.0160451
848.100	0.0160469
848.178	0.0159718
848.256	0.0159644
848.334	0.0161727
848.413	0.0159848
848.491	0.0160650
848.569	0.0160001
848.647	0.0159686
848.725	0.0161053
848.803	0.0159007
848.881	0.0159864
848.959	0.0160453
849.038	0.0160208
849.116	0.0160424
849.194	0.0161336
849.272	0.0161343
849.350	0.0159457
849.428	0.0159763
849.506	0.0159439
849.584	0.0160136
849.663	0.0160069
849.741	0.0159649
849.819	0.0159565
849.897	0.0157841
849.975	0.0159347
850.053	0.0159332
850.131	0.0159485
850.209	0.0159238
850.288	0.0158876
850.366	0.0159219
850.444	0.0158421
850.522	0.0158564
850.600	0.0159938
850.678	0.0160301
850.756	0.0159012
850.834	0.0159351
850.913	0.0158268
850.991	0.0159666
851.069	0.0159935
851.147	0.0159064
851.225	0.0159526
851.303	0.0160079
851.381	0.0159620
851.459	0.0159960
851.538	0.0160632
851.616	0.0160503
851.694	0.0160340
851.772	0.0160233
851.850	0.0160906
851.928	0.0160773
852.006	0.0160417
852.084	0.0160473
852.163	0.0161262
852.241	0.0160551
852.319	0.0161739
852.397	0.0160885
852.475	0.0161616
852.553	0.0161776
852.631	0.0160368
852.709	0.0160526
852.788	0.0159881
852.866	0.0160579
852.944	0.0160760
853.022	0.0159674
853.100	0.0160378
853.178	0.0158479
853.256	0.0159572
853.334	0.0160449
853.413	0.0160468
853.491	0.0159887
853.569	0.0159567
853.647	0.0159598
853.725	0.0160765
853.803	0.0159770
853.881	0.0159390
853.959	0.0159777
854.038	0.0159335
854.116	0.0158377
854.194	0.0158264
854.272	0.0158148
854.350	0.0157642
854.428	0.0157407
854.506	0.0157463
854.584	0.0157186
854.663	0.0157520
854.741	0.0157472
854.819	0.0157470
854.897	0.0156975
854.975	0.0157252
855.053	0.0158373
855.131	0.0159608
855.209	0.0157869
855.288	0.0159715
855.366	0.0159294
855.444	0.0159972
855.522	0.0159998
855.600	0.0160709
855.678	0.0161530
855.756	0.0161166
855.834	0.0161053
855.913	0.0162470
855.991	0.0161307
856.069	0.0162375
856.147	0.0162556
856.225	0.0160511
856.303	0.0161427
856.381	0.0162960
856.459	0.0161459
856.538	0.0161755
856.616	0.0162653
856.694	0.0162682
856.772	0.0162278
856.850	0.0161691
856.928	0.0162537
857.006	0.0162934
857.084	0.0162277
857.163	0.0160184
857.241	0.0162139
857.319	0.0160933
857.397	0.0161089
857.475	0.0161735
857.553	0.0160578
857.631	0.0160172
857.709	0.0160488
857.788	0.0161530
857.866	0.0159424
857.944	0.0159981
858.022	0.0159866
858.100	0.0160567
858.178	0.0160503
858.256	0.0160432
858.334	0.0160501
858.413	0.0159258
858.491	0.0159641
858.569	0.0160390
858.647	0.0159719
858.725	0.0158564
858.803	0.0158150
858.881	0.0157723
858.959	0.0158733
859.038	0.0159270
859.116	0.0159415
859.194	0.0159065
859.272	0.0157978
859.350	0.0159077
859.428	0.0159630
859.506	0.0159731
859.584	0.0159807
859.663	0.0158548
859.741	0.0159348
859.819	0.0159713
859.897	0.0160396
859.975	0.0160459
860.053	0.0159914
860.131	0.0159914
860.209	0.0160780
860.288	0.0159344
860.366	0.0159603
860.444	0.0160233
860.522	0.0159328
860.600	0.0159293
860.678	0.0159361
860.756	0.0161130
860.834	0.0159721
860.913	0.0159542
860.991	0.0159866
861.069	0.0159374
861.147	0.0159229
861.225	0.0159558
861.303	0.0160786
861.381	0.0160264
861.459	0.0162842
861.538	0.0161290
861.616	0.0161052
861.694	0.0161530
861.772	0.0161768
861.850	0.0160655
861.928	0.0160381
862.006	0.0161099
862.084	0.0160922
862.163	0.0160123
862.241	0.0159885
862.319	0.0160345
862.397	0.0161439
862.475	0.0161932
862.553	0.0160722
862.631	0.0160481
862.709	0.0160968
862.788	0.0160368
862.866	0.0160872
862.944	0.0160081
863.022	0.0159251
863.100	0.0160574
863.178	0.0159730
863.256	0.0159162
863.334	0.0160528
863.413	0.0159554
863.491	0.0160744
863.569	0.0159043
863.647	0.0159723
863.725	0.0158445
863.803	0.0158829
863.881	0.0158972
863.959	0.0159286
864.038	0.0159414
864.116	0.0158073
864.194	0.0159064
864.272	0.0158923
864.350	0.0158700
864.428	0.0158307
864.506	0.0158009
864.584	0.0159863
864.663	0.0159863
864.741	0.0157549
864.819	0.0159924
864.897	0.0158530
864.975	0.0159216
865.053	0.0159884
865.131	0.0159294
865.209	0.0160143
865.288	0.0160236
865.366	0.0160276
865.444	0.0159637
865.522	0.0160535
865.600	0.0160485
865.678	0.0160534
865.756	0.0161039
865.834	0.0160674
865.913	0.0161549
865.991	0.0160591
866.069	0.0160612
866.147	0.0162395
866.225	0.0160978
866.303	0.0161064
866.381	0.0160962
866.459	0.0161221
866.538	0.0161963
866.616	0.0162038
866.694	0.0161515
866.772	0.0160603
866.850	0.0160633
866.928	0.0160507
867.006	0.0160656
867.084	0.0161883
867.163	0.0161219
867.241	0.0161059
867.319	0.0158423
867.397	0.0159098
867.475	0.0160657
867.553	0.0158934
867.631	0.0159286
867.709	0.0159208
867.788	0.0159097
867.866	0.0158417
867.944	0.0158909
868.022	0.0158550
868.100	0.0158350
868.178	0.0158783
868.256	0.0159010
868.334	0.0158825
868.413	0.0157731
868.491	0.0158868
868.569	0.0158080
868.647	0.0157442
868.725	0.0159434
868.803	0.0157259
868.881	0.0159008
868.959	0.0158880
869.038	0.0158380
869.116	0.0158141
869.194	0.0158081
869.272	0.0158304
869.350	0.0158881
869.428	0.0159416
869.506	0.0160473
869.584	0.0159560
869.663	0.0160062
869.741	0.0159816
869.819	0.0159164
869.897	0.0159727
869.975	0.0160468
870.053	0.0159252
870.131	0.0158770
870.209	0.0159635
870.288	0.0160629
870.366	0.0160088
870.444	0.0159324
870.522	0.0161204
870.600	0.0162277
870.678	0.0160780
870.756	0.0160464
870.834	0.0160611
870.913	0.0161475
870.991	0.0161701
871.069	0.0161475
871.147	0.0160757
871.225	0.0161514
871.303	0.0161058
871.381	0.0161642
871.459	0.0161181
871.538	0.0161217
871.616	0.0160753
871.694	0.0159609
871.772	0.0160435
871.850	0.0160089
871.928	0.0160314
872.006	0.0160252
872.084	0.0160905
872.163	0.0160098
872.241	0.0159148
872.319	0.0159262
872.397	0.0159315
872.475	0.0158675
872.553	0.0158592
872.631	0.0159473
872.709	0.0159686
872.788	0.0157716
872.866	0.0159347
872.944	0.0160461
873.022	0.0159185
873.100	0.0159026
873.178	0.0159009
873.256	0.0158909
873.334	0.0158765
873.413	0.0159311
873.491	0.0159200
873.569	0.0159867
873.647	0.0159449
873.725	0.0160100
873.803	0.0159562
873.881	0.0159702
873.959	0.0160023
874.038	0.0158954
874.116	0.0159507
874.194	0.0159679
874.272	0.0160470
874.350	0.0160744
874.428	0.0160635
874.506	0.0159374
874.584	0.0161377
874.663	0.0159690
874.741	0.0160515
874.819	0.0161139
874.897	0.0160675
874.975	0.0158328
875.053	0.0159716
875.131	0.0159554
875.209	0.0159335
875.288	0.0159397
875.366	0.0160127
875.444	0.0161240
875.522	0.0159949
875.600	0.0160743
875.678	0.0159865
875.756	0.0158692
875.834	0.0159193
875.913	0.0160343
875.991	0.0160842
876.069	0.0160425
876.147	0.0160085
876.225	0.0159735
876.303	0.0160249
876.381	0.0160300
876.459	0.0159216
876.538	0.0159438
876.616	0.0159264
876.694	0.0159536
876.772	0.0160288
876.850	0.0158139
876.928	0.0158504
877.006	0.0158949
877.084	0.0157653
877.163	0.0157055
877.241	0.0157019
877.319	0.0159821
877.397	0.0158033
877.475	0.0158376
877.553	0.0157926
877.631	0.0159195
877.709	0.0158171
877.788	0.0160235
877.866	0.0160101
877.944	0.0159440
878.022	0.0159535
878.100	0.0159892
878.178	0.0157878
878.256	0.0159050
878.334	0.0158998
878.413	0.0158903
878.491	0.0159566
878.569	0.0157919
878.647	0.0159315
878.725	0.0160683
878.803	0.0160717
878.881	0.0159548
878.959	0.0158740
879.038	0.0160538
879.116	0.0159704
879.194	0.0160303
879.272	0.0160719
879.350	0.0159779
879.428	0.0161689
879.506	0.0160576
879.584	0.0161181
879.663	0.0161623
879.741	0.0160602
879.819	0.0160374
879.897	0.0160857
879.975	0.0162754
880.053	0.0160286
880.131	0.0160541
880.209	0.0160706
880.288	0.0161327
880.366	0.0160342
880.444	0.0159460
880.522	0.0160148
880.600	0.0160332
880.678	0.0161706
880.756	0.0160631
880.834	0.0158893
880.913	0.0159499
880.991	0.0158665
881.069	0.0159304
881.147	0.0158688
881.225	0.0159467
881.303	0.0158946
881.381	0.0159927
881.459	0.0158910
881.538	0.0158520
881.616	0.0160161
881.694	0.0159930
881.772	0.0158637
881.850	0.0158182
881.928	0.0158398
882.006	0.0159640
882.084	0.0160239
882.163	0.0159666
882.241	0.0159856
882.319	0.0160852
882.397	0.0160074
882.475	0.0159720
882.553	0.0161012
882.631	0.0160587
882.709	0.0159676
882.788	0.0157985
882.866	0.0160471
882.944	0.0159574
883.022	0.0158216
883.100	0.0158688
883.178	0.0160036
883.256	0.0158591
883.334	0.0158282
883.413	0.0159844
883.491	0.0157213
883.569	0.0157998
883.647	0.0157755
883.725	0.0158185
883.803	0.0158385
883.881	0.0159082
883.959	0.0157356
884.038	0.0159004
884.116	0.0157613
884.194	0.0158226
884.272	0.0158793
884.350	0.0157302
884.428	0.0157279
884.506	0.0158378
884.584	0.0158573
884.663	0.0158784
884.741	0.0158399
884.819	0.0158531
884.897	0.0158575
884.975	0.0159057
885.053	0.0158808
885.131	0.0158085
885.209	0.0159482
885.288	0.0159665
885.366	0.0159213
885.444	0.0161062
885.522	0.0161707
885.600	0.0159682
885.678	0.0158525
885.756	0.0158434
885.834	0.0160351
885.913	0.0160670
885.991	0.0161323
886.069	0.0159573
886.147	0.0160123
886.225	0.0159855
886.303	0.0161216
886.381	0.0161169
886.459	0.0159497
886.538	0.0158743
886.616	0.0161279
886.694	0.0160610
886.772	0.0160175
886.850	0.0159302
886.928	0.0161051
887.006	0.0159640
887.084	0.0160694
887.163	0.0160036
887.241	0.0160345
887.319	0.0160853
887.397	0.0160937
887.475	0.0160272
887.553	0.0160642
887.631	0.0160233
887.709	0.0159868
887.788	0.0159884
887.866	0.0161699
887.944	0.0160105
888.022	0.0160523
888.100	0.0159480
888.178	0.0159903
888.256	0.0161931
888.334	0.0159923
888.413	0.0159905
888.491	0.0159559
888.569	0.0161250
888.647	0.0160250
888.725	0.0160435
888.803	0.0160905
888.881	0.0161586
888.959	0.0161391
889.038	0.0159843
889.116	0.0160163
889.194	0.0160290
889.272	0.0160213
889.350	0.0161190
889.428	0.0161314
889.506	0.0161479
889.584	0.0162090
889.663	0.0159579
889.741	0.0159988
889.819	0.0162015
889.897	0.0161270
889.975	0.0159612
890.053	0.0161395
890.131	0.0159409
890.209	0.0160782
890.288	0.0160155
890.366	0.0161233
890.444	0.0159654
890.522	0.0159313
890.600	0.0160130
890.678	0.0159848
890.756	0.0158684
890.834	0.0160162
890.913	0.0160268
890.991	0.0160372
891.069	0.0160878
891.147	0.0159934
891.225	0.0159836
891.303	0.0160408
891.381	0.0160977
891.459	0.0159862
891.538	0.0160270
891.616	0.0159227
891.694	0.0159776
891.772	0.0158471
891.850	0.0159267
891.928	0.0160026
892.006	0.0160492
892.084	0.0159473
892.163	0.0160429
892.241	0.0158825
892.319	0.0159317
892.397	0.0158967
892.475	0.0157549
892.553	0.0158900
892.631	0.0160175
892.709	0.0160622
892.788	0.0158988
892.866	0.0159702
892.944	0.0157774
893.022	0.0159539
893.100	0.0158610
893.178	0.0160041
893.256	0.0159937
893.334	0.0159510
893.413	0.0160501
893.491	0.0159713
893.569	0.0159879
893.647	0.0159772
893.725	0.0159540
893.803	0.0158030
893.881	0.0159740
893.959	0.0159977
894.038	0.0160927
894.116	0.0159336
894.194	0.0160688
894.272	0.0159464
894.350	0.0162032
894.428	0.0160497
894.506	0.0158910
894.584	0.0160636
894.663	0.0161599
894.741	0.0160633
894.819	0.0160714
894.897	0.0160116
894.975	0.0160434
895.053	0.0161231
895.131	0.0160730
895.209	0.0160628
895.288	0.0160546
895.366	0.0161668
895.444	0.0162198
895.522	0.0162188
895.600	0.0159348
895.678	0.0160441
895.756	0.0160429
895.834	0.0160885
895.913	0.0159468
895.991	0.0159046
896.069	0.0160020
896.147	0.0158128
896.225	0.0158430
896.303	0.0159528
896.381	0.0158958
896.459	0.0158314
896.538	0.0158339
896.616	0.0159836
896.694	0.0158397
896.772	0.0158717
896.850	0.0159343
896.928	0.0159624
897.006	0.0159212
897.084	0.0158663
897.163	0.0159244
897.241	0.0158298
897.319	0.0159654
897.397	0.0159657
897.475	0.0159365
897.553	0.0159824
897.631	0.0159227
897.709	0.0159021
897.788	0.0159032
897.866	0.0159609
897.944	0.0158662
898.022	0.0160184
898.100	0.0160621
898.178	0.0160250
898.256	0.0158892
898.334	0.0162873
898.413	0.0161008
898.491	0.0162384
898.569	0.0161343
898.647	0.0161349
898.725	0.0161582
898.803	0.0161935
898.881	0.0162749
898.959	0.0160674
899.038	0.0162170
899.116	0.0161093
899.194	0.0160683
899.272	0.0162943
899.350	0.0161820
899.428	0.0162483
899.506	0.0162004
899.584	0.0160922
899.663	0.0160910
899.741	0.0161963
899.819	0.0162623
899.897	0.0161295
899.975	0.0160607
900.053	0.0160879
900.131	0.0161861
900.209	0.0161299
900.288	0.0160321
900.366	0.0159219
900.444	0.0159987
900.522	0.0160582
900.600	0.0161647
900.678	0.0160061
900.756	0.0159196
900.834	0.0159098
900.913	0.0159696
900.991	0.0159665
901.069	0.0158987
901.147	0.0160229
901.225	0.0159113
901.303	0.0160294
901.381	0.0159661
901.459	0.0158437
901.538	0.0159583
901.616	0.0159683
901.694	0.0159540
901.772	0.0158722
901.850	0.0158946
901.928	0.0158154
902.006	0.0159341
902.084	0.0159837
902.163	0.0159418
902.241	0.0160183
902.319	0.0160043
902.397	0.0159764
902.475	0.0159906
902.553	0.0160111
902.631	0.0159486
902.709	0.0159834
902.788	0.0160284
902.866	0.0161074
902.944	0.0160484
903.022	0.0159586
903.100	0.0159710
903.178	0.0158926
903.256	0.0159715
903.334	0.0159448
903.413	0.0160591
903.491	0.0160310
903.569	0.0159763
903.647	0.0159228
903.725	0.0160413
903.803	0.0159250
903.881	0.0160258
903.959	0.0159718
904.038	0.0161341
904.116	0.0159947
904.194	0.0160341
904.272	0.0160574
904.350	0.0160398
904.428	0.0161118
904.506	0.0161906
904.584	0.0162679
904.663	0.0162008
904.741	0.0160244
904.819	0.0161192
904.897	0.0160036
904.975	0.0161071
905.053	0.0161406
905.131	0.0159663
905.209	0.0161312
905.288	0.0161686
905.366	0.0162008
905.444	0.0158522
905.522	0.0161627
905.600	0.0160887
905.678	0.0160353
905.756	0.0160272
905.834	0.0161008
905.913	0.0159821
905.991	0.0159914
906.069	0.0158716
906.147	0.0159673
906.225	0.0159072
906.303	0.0158343
906.381	0.0158749
906.459	0.0159593
906.538	0.0157936
906.616	0.0159370
906.694	0.0159849
906.772	0.0159986
906.850	0.0159667
906.928	0.0160308
907.006	0.0160015
907.084	0.0160483
907.163	0.0159927
907.241	0.0158535
907.319	0.0161143
907.397	0.0160929
907.475	0.0160126
907.553	0.0160243
907.631	0.0159721
907.709	0.0160426
907.788	0.0160871
907.866	0.0161736
907.944	0.0160963
908.022	0.0159708
908.100	0.0160258
908.178	0.0160876
908.256	0.0160947
908.334	0.0161043
908.413	0.0159863
908.491	0.0161892
908.569	0.0159547
908.647	0.0159095
908.725	0.0159808
908.803	0.0159412
908.881	0.0160468
908.959	0.0159772
909.038	0.0158714
909.116	0.0159116
909.194	0.0158157
909.272	0.0158772
909.350	0.0158568
909.428	0.0158760
909.506	0.0159064
909.584	0.0158707
909.663	0.0159412
909.741	0.0159392
909.819	0.0158169
909.897	0.0159850
909.975	0.0158683
910.053	0.0159526
910.131	0.0159345
910.209	0.0160744
910.288	0.0158468
910.366	0.0160142
910.444	0.0160886
910.522	0.0160181
910.600	0.0161954
910.678	0.0160711
910.756	0.0160972
910.834	0.0161234
910.913	0.0161863
910.991	0.0161687
911.069	0.0161565
911.147	0.0161281
911.225	0.0160324
911.303	0.0161069
911.381	0.0160346
911.459	0.0159850
911.538	0.0160707
911.616	0.0161205
911.694	0.0160093
911.772	0.0159116
911.850	0.0158436
911.928	0.0158807
912.006	0.0158059
912.084	0.0158089
912.163	0.0158965
912.241	0.0158463
912.319	0.0156829
912.397	0.0158261
912.475	0.0159963
912.553	0.0158800
912.631	0.0158002
912.709	0.0158305
912.788	0.0157764
912.866	0.0160137
912.944	0.0158498
913.022	0.0158791
913.100	0.0159674
913.178	0.0160001
913.256	0.0159036
913.334	0.0159167
913.413	0.0158868
913.491	0.0160277
913.569	0.0159894
913.647	0.0160138
913.725	0.0160794
913.803	0.0159332
913.881	0.0159757
913.959	0.0160031
914.038	0.0160131
914.116	0.0157226
914.194	0.0158961
914.272	0.0159554
914.350	0.0160390
914.428	0.0160143
914.506	0.0158521
914.584	0.0159741
914.663	0.0160193
914.741	0.0159823
914.819	0.0159813
914.897	0.0160489
914.975	0.0159109
915.053	0.0158739
915.131	0.0159425
915.209	0.0158751
915.288	0.0158786
915.366	0.0158946
915.444	0.0157872
915.522	0.0158659
915.600	0.0158600
915.678	0.0159538
915.756	0.0158650
915.834	0.0159077
915.913	0.0159515
915.991	0.0159182
916.069	0.0160150
916.147	0.0159438
916.225	0.0160416
916.303	0.0159667
916.381	0.0159215
916.459	0.0160780
916.538	0.0160696
916.616	0.0160842
916.694	0.0160709
916.772	0.0160977
916.850	0.0161614
916.928	0.0159508
917.006	0.0160896
917.084	0.0159001
917.163	0.0159879
917.241	0.0160223
917.319	0.0159888
917.397	0.0159446
917.475	0.0159153
917.553	0.0158691
917.631	0.0158931
917.709	0.0157393
917.788	0.0158494
917.866	0.0158578
917.944	0.0158856
918.022	0.0157802
918.100	0.0160051
918.178	0.0158751
918.256	0.0158643
918.334	0.0158698
918.413	0.0157431
918.491	0.0159121
918.569	0.0158305
918.647	0.0159604
918.725	0.0159762
918.803	0.0159185
918.881	0.0157931
918.959	0.0160410
919.038	0.0158671
919.116	0.0158653
919.194	0.0158450
919.272	0.0158508
919.350	0.0159376
919.428	0.0158918
919.506	0.0158978
919.584	0.0158955
919.663	0.0158878
919.741	0.0159372
919.819	0.0159285
919.897	0.0160375
