05/20/2022	21:29:49	Ver.	4.1	UNKNOWN
Optical Delay	599.975067	Delta X		0.078125	Sweeps	1	Scan Rate	0/0
Coordinates	Axis 1	NaN	Axis 2	NaN	Axis 3	NaN	Axis 4	NaN	Axis 5	NaN	Axis 6	0.000000
TX Power	0.000000	RX Power	0.000000

599.975	0.0154259
600.053	0.0154472
600.131	0.0154911
600.209	0.0154900
600.288	0.0153986
600.366	0.0153772
600.444	0.0154961
600.522	0.0155119
600.600	0.0155021
600.678	0.0154567
600.756	0.0155019
600.834	0.0154374
600.913	0.0154749
600.991	0.0154945
601.069	0.0153648
601.147	0.0154626
601.225	0.0154065
601.303	0.0155249
601.381	0.0153522
601.459	0.0153706
601.538	0.0155364
601.616	0.0154300
601.694	0.0153915
601.772	0.0155917
601.850	0.0153391
601.928	0.0154485
602.006	0.0155064
602.084	0.0153268
602.163	0.0153947
602.241	0.0154754
602.319	0.0154130
602.397	0.0153548
602.475	0.0155527
602.553	0.0153837
602.631	0.0153090
602.709	0.0155576
602.788	0.0154014
602.866	0.0154634
602.944	0.0155172
603.022	0.0154542
603.100	0.0153708
603.178	0.0153438
603.256	0.0153108
603.334	0.0154456
603.413	0.0154623
603.491	0.0154576
603.569	0.0154414
603.647	0.0155522
603.725	0.0153954
603.803	0.0153510
603.881	0.0154873
603.959	0.0155191
604.038	0.0154166
604.116	0.0154627
604.194	0.0153884
604.272	0.0154462
604.350	0.0153748
604.428	0.0154912
604.506	0.0154510
604.584	0.0154798
604.663	0.0155222
604.741	0.0155299
604.819	0.0153870
604.897	0.0154377
604.975	0.0154675
605.053	0.0153524
605.131	0.0154005
605.209	0.0154430
605.288	0.0155224
605.366	0.0154321
605.444	0.0152683
605.522	0.0154691
605.600	0.0154116
605.678	0.0154806
605.756	0.0153217
605.834	0.0152718
605.913	0.0153318
605.991	0.0154015
606.069	0.0153384
606.147	0.0154173
606.225	0.0153304
606.303	0.0153761
606.381	0.0154019
606.459	0.0153734
606.538	0.0154816
606.616	0.0153894
606.694	0.0152966
606.772	0.0154263
606.850	0.0155273
606.928	0.0155590
607.006	0.0154101
607.084	0.0154881
607.163	0.0154270
607.241	0.0154000
607.319	0.0153541
607.397	0.0154625
607.475	0.0155460
607.553	0.0154443
607.631	0.0153436
607.709	0.0154668
607.788	0.0154681
607.866	0.0155048
607.944	0.0156213
608.022	0.0155711
608.100	0.0154420
608.178	0.0154108
608.256	0.0154256
608.334	0.0154596
608.413	0.0155563
608.491	0.0155282
608.569	0.0153879
608.647	0.0155176
608.725	0.0156497
608.803	0.0155321
608.881	0.0154688
608.959	0.0154454
609.038	0.0156800
609.116	0.0155019
609.194	0.0154276
609.272	0.0154259
609.350	0.0156693
609.428	0.0155585
609.506	0.0153796
609.584	0.0155097
609.663	0.0156268
609.741	0.0154771
609.819	0.0155782
609.897	0.0155137
609.975	0.0155048
610.053	0.0155770
610.131	0.0155016
610.209	0.0156361
610.288	0.0155486
610.366	0.0154842
610.444	0.0155769
610.522	0.0155769
610.600	0.0155849
610.678	0.0154311
610.756	0.0153829
610.834	0.0154695
610.913	0.0155161
610.991	0.0155698
611.069	0.0156242
611.147	0.0155886
611.225	0.0153494
611.303	0.0154890
611.381	0.0155653
611.459	0.0155546
611.538	0.0155299
611.616	0.0155560
611.694	0.0155779
611.772	0.0154978
611.850	0.0155630
611.928	0.0156462
612.006	0.0154877
612.084	0.0155886
612.163	0.0156191
612.241	0.0153615
612.319	0.0156058
612.397	0.0156329
612.475	0.0155490
612.553	0.0154914
612.631	0.0154822
612.709	0.0153738
612.788	0.0155258
612.866	0.0156441
612.944	0.0155313
613.022	0.0154974
613.100	0.0154707
613.178	0.0155477
613.256	0.0155528
613.334	0.0155903
613.413	0.0156013
613.491	0.0155650
613.569	0.0154975
613.647	0.0154571
613.725	0.0154850
613.803	0.0154854
613.881	0.0155881
613.959	0.0155299
614.038	0.0153761
614.116	0.0154604
614.194	0.0154397
614.272	0.0155206
614.350	0.0154527
614.428	0.0154478
614.506	0.0153902
614.584	0.0155132
614.663	0.0154961
614.741	0.0152288
614.819	0.0154160
614.897	0.0155390
614.975	0.0155552
615.053	0.0154525
615.131	0.0155408
615.209	0.0156569
615.288	0.0155695
615.366	0.0155450
615.444	0.0156255
615.522	0.0156586
615.600	0.0154413
615.678	0.0155369
615.756	0.0156776
615.834	0.0156232
615.913	0.0155762
615.991	0.0156104
616.069	0.0155925
616.147	0.0155126
616.225	0.0155334
616.303	0.0156276
616.381	0.0155109
616.459	0.0156624
616.538	0.0156904
616.616	0.0155389
616.694	0.0155862
616.772	0.0155665
616.850	0.0155854
616.928	0.0156483
617.006	0.0157672
617.084	0.0156449
617.163	0.0154821
617.241	0.0155972
617.319	0.0155087
617.397	0.0153818
617.475	0.0154907
617.553	0.0156089
617.631	0.0156651
617.709	0.0155792
617.788	0.0155858
617.866	0.0155737
617.944	0.0154765
618.022	0.0156358
618.100	0.0155976
618.178	0.0155372
618.256	0.0155367
618.334	0.0155535
618.413	0.0154524
618.491	0.0156051
618.569	0.0156511
618.647	0.0154955
618.725	0.0154223
618.803	0.0155269
618.881	0.0156335
618.959	0.0155944
619.038	0.0155561
619.116	0.0155226
619.194	0.0155918
619.272	0.0154731
619.350	0.0155560
619.428	0.0154996
619.506	0.0155795
619.584	0.0155899
619.663	0.0155004
619.741	0.0155435
619.819	0.0155566
619.897	0.0155518
619.975	0.0153830
620.053	0.0155864
620.131	0.0155441
620.209	0.0155393
620.288	0.0155374
620.366	0.0155535
620.444	0.0155376
620.522	0.0155489
620.600	0.0154868
620.678	0.0156085
620.756	0.0156580
620.834	0.0156459
620.913	0.0155788
620.991	0.0155260
621.069	0.0154993
621.147	0.0155257
621.225	0.0154460
621.303	0.0154903
621.381	0.0156997
621.459	0.0154762
621.538	0.0155707
621.616	0.0154868
621.694	0.0155291
621.772	0.0156193
621.850	0.0155467
621.928	0.0153610
622.006	0.0155890
622.084	0.0155308
622.163	0.0154265
622.241	0.0154974
622.319	0.0155051
622.397	0.0153983
622.475	0.0155952
622.553	0.0156165
622.631	0.0154573
622.709	0.0154905
622.788	0.0155122
622.866	0.0154751
622.944	0.0155063
623.022	0.0154597
623.100	0.0155054
623.178	0.0154991
623.256	0.0154756
623.334	0.0155939
623.413	0.0152771
623.491	0.0153143
623.569	0.0155695
623.647	0.0154692
623.725	0.0155606
623.803	0.0154811
623.881	0.0156114
623.959	0.0154724
624.038	0.0155256
624.116	0.0154561
624.194	0.0156576
624.272	0.0156159
624.350	0.0154243
624.428	0.0154012
624.506	0.0155357
624.584	0.0156071
624.663	0.0155755
624.741	0.0154124
624.819	0.0154142
624.897	0.0155430
624.975	0.0152742
625.053	0.0155139
625.131	0.0154069
625.209	0.0153880
625.288	0.0154881
625.366	0.0154951
625.444	0.0155008
625.522	0.0155206
625.600	0.0154111
625.678	0.0155146
625.756	0.0153553
625.834	0.0154690
625.913	0.0154656
625.991	0.0154536
626.069	0.0154587
626.147	0.0155499
626.225	0.0155873
626.303	0.0155446
626.381	0.0155508
626.459	0.0155165
626.538	0.0155129
626.616	0.0155380
626.694	0.0154612
626.772	0.0155592
626.850	0.0154373
626.928	0.0154479
627.006	0.0156104
627.084	0.0155815
627.163	0.0154225
627.241	0.0154926
627.319	0.0155398
627.397	0.0155400
627.475	0.0154372
627.553	0.0155257
627.631	0.0156274
627.709	0.0155621
627.788	0.0154471
627.866	0.0155203
627.944	0.0155186
628.022	0.0156229
628.100	0.0155450
628.178	0.0154523
628.256	0.0156042
628.334	0.0154575
628.413	0.0155727
628.491	0.0154877
628.569	0.0155820
628.647	0.0155578
628.725	0.0154554
628.803	0.0154205
628.881	0.0155749
628.959	0.0154784
629.038	0.0154643
629.116	0.0155373
629.194	0.0155133
629.272	0.0154766
629.350	0.0154265
629.428	0.0156577
629.506	0.0155808
629.584	0.0155170
629.663	0.0155769
629.741	0.0154291
629.819	0.0153853
629.897	0.0153857
629.975	0.0155427
630.053	0.0153928
630.131	0.0155991
630.209	0.0155755
630.288	0.0154062
630.366	0.0154919
630.444	0.0155865
630.522	0.0155313
630.600	0.0154369
630.678	0.0154607
630.756	0.0154606
630.834	0.0156171
630.913	0.0156076
630.991	0.0155811
631.069	0.0154487
631.147	0.0155324
631.225	0.0153976
631.303	0.0155298
631.381	0.0155237
631.459	0.0155528
631.538	0.0154873
631.616	0.0154453
631.694	0.0154662
631.772	0.0155922
631.850	0.0155132
631.928	0.0155170
632.006	0.0155278
632.084	0.0154966
632.163	0.0156313
632.241	0.0155092
632.319	0.0155046
632.397	0.0154215
632.475	0.0154517
632.553	0.0155283
632.631	0.0155112
632.709	0.0153834
632.788	0.0156297
632.866	0.0156351
632.944	0.0154568
633.022	0.0154551
633.100	0.0156045
633.178	0.0154831
633.256	0.0154308
633.334	0.0156049
633.413	0.0154375
633.491	0.0155283
633.569	0.0154664
633.647	0.0155080
633.725	0.0155627
633.803	0.0154810
633.881	0.0154816
633.959	0.0154502
634.038	0.0155213
634.116	0.0156082
634.194	0.0155677
634.272	0.0155338
634.350	0.0154181
634.428	0.0154992
634.506	0.0153577
634.584	0.0154863
634.663	0.0155440
634.741	0.0154147
634.819	0.0154674
634.897	0.0153915
634.975	0.0155861
635.053	0.0153885
635.131	0.0155431
635.209	0.0155790
635.288	0.0156071
635.366	0.0155188
635.444	0.0156252
635.522	0.0155015
635.600	0.0153582
635.678	0.0156982
635.756	0.0157342
635.834	0.0155556
635.913	0.0155059
635.991	0.0154844
636.069	0.0155944
636.147	0.0155050
636.225	0.0155153
636.303	0.0154291
636.381	0.0154549
636.459	0.0154523
636.538	0.0155587
636.616	0.0155026
636.694	0.0154124
636.772	0.0155000
636.850	0.0155180
636.928	0.0155041
637.006	0.0156660
637.084	0.0154836
637.163	0.0154657
637.241	0.0154279
637.319	0.0154151
637.397	0.0155548
637.475	0.0155936
637.553	0.0154234
637.631	0.0154152
637.709	0.0155161
637.788	0.0154777
637.866	0.0156168
637.944	0.0154146
638.022	0.0154767
638.100	0.0154430
638.178	0.0155828
638.256	0.0155453
638.334	0.0154153
638.413	0.0153909
638.491	0.0154842
638.569	0.0155721
638.647	0.0154598
638.725	0.0153807
638.803	0.0155683
638.881	0.0156094
638.959	0.0154346
639.038	0.0155234
639.116	0.0154576
639.194	0.0155120
639.272	0.0154202
639.350	0.0153999
639.428	0.0155398
639.506	0.0154613
639.584	0.0153411
639.663	0.0155311
639.741	0.0153863
639.819	0.0153441
639.897	0.0153428
639.975	0.0154135
640.053	0.0154168
640.131	0.0153511
640.209	0.0155277
640.288	0.0154557
640.366	0.0152883
640.444	0.0153172
640.522	0.0155125
640.600	0.0154768
640.678	0.0155133
640.756	0.0154913
640.834	0.0153922
640.913	0.0154559
640.991	0.0154400
641.069	0.0154943
641.147	0.0154586
641.225	0.0156039
641.303	0.0154130
641.381	0.0154973
641.459	0.0153120
641.538	0.0155581
641.616	0.0155572
641.694	0.0154134
641.772	0.0154764
641.850	0.0155919
641.928	0.0154964
642.006	0.0155754
642.084	0.0153638
642.163	0.0155408
642.241	0.0154401
642.319	0.0154742
642.397	0.0154400
642.475	0.0154826
642.553	0.0156434
642.631	0.0155119
642.709	0.0155080
642.788	0.0155712
642.866	0.0155943
642.944	0.0155876
643.022	0.0155365
643.100	0.0155342
643.178	0.0154932
643.256	0.0155679
643.334	0.0155747
643.413	0.0153712
643.491	0.0154703
643.569	0.0154294
643.647	0.0154562
643.725	0.0155177
643.803	0.0155014
643.881	0.0155413
643.959	0.0154987
644.038	0.0155444
644.116	0.0155034
644.194	0.0154424
644.272	0.0154603
644.350	0.0154852
644.428	0.0154899
644.506	0.0153838
644.584	0.0154380
644.663	0.0153928
644.741	0.0154581
644.819	0.0155447
644.897	0.0154533
644.975	0.0154542
645.053	0.0156679
645.131	0.0154794
645.209	0.0155167
645.288	0.0155805
645.366	0.0155417
645.444	0.0155200
645.522	0.0154491
645.600	0.0155680
645.678	0.0155650
645.756	0.0155844
645.834	0.0154843
645.913	0.0154796
645.991	0.0155775
646.069	0.0156309
646.147	0.0156388
646.225	0.0156046
646.303	0.0155440
646.381	0.0155543
646.459	0.0155029
646.538	0.0155077
646.616	0.0155103
646.694	0.0154810
646.772	0.0155836
646.850	0.0154589
646.928	0.0153914
647.006	0.0155480
647.084	0.0154262
647.163	0.0155547
647.241	0.0154694
647.319	0.0154634
647.397	0.0154755
647.475	0.0156355
647.553	0.0153794
647.631	0.0154207
647.709	0.0154165
647.788	0.0154270
647.866	0.0153590
647.944	0.0154755
648.022	0.0155024
648.100	0.0153263
648.178	0.0152428
648.256	0.0153781
648.334	0.0154628
648.413	0.0154810
648.491	0.0154940
648.569	0.0154610
648.647	0.0153323
648.725	0.0153506
648.803	0.0156331
648.881	0.0156397
648.959	0.0154607
649.038	0.0154367
649.116	0.0154946
649.194	0.0154037
649.272	0.0154971
649.350	0.0153014
649.428	0.0154540
649.506	0.0154388
649.584	0.0153558
649.663	0.0153299
649.741	0.0154974
649.819	0.0153441
649.897	0.0153828
649.975	0.0154404
650.053	0.0154147
650.131	0.0152811
650.209	0.0153767
650.288	0.0154648
650.366	0.0154159
650.444	0.0154603
650.522	0.0154628
650.600	0.0155600
650.678	0.0154942
650.756	0.0154620
650.834	0.0154546
650.913	0.0154851
650.991	0.0154668
651.069	0.0153337
651.147	0.0154610
651.225	0.0154224
651.303	0.0154132
651.381	0.0154001
651.459	0.0151978
651.538	0.0153477
651.616	0.0155135
651.694	0.0153671
651.772	0.0152936
651.850	0.0152681
651.928	0.0153915
652.006	0.0153020
652.084	0.0152984
652.163	0.0155309
652.241	0.0153927
652.319	0.0153450
652.397	0.0154570
652.475	0.0154564
652.553	0.0154108
652.631	0.0154507
652.709	0.0154581
652.788	0.0154571
652.866	0.0155785
652.944	0.0156168
653.022	0.0155032
653.100	0.0155170
653.178	0.0154170
653.256	0.0154745
653.334	0.0153333
653.413	0.0155106
653.491	0.0155189
653.569	0.0153526
653.647	0.0154275
653.725	0.0155494
653.803	0.0154449
653.881	0.0153886
653.959	0.0154812
654.038	0.0154201
654.116	0.0154639
654.194	0.0154868
654.272	0.0153949
654.350	0.0153481
654.428	0.0156635
654.506	0.0155728
654.584	0.0154745
654.663	0.0156490
654.741	0.0155879
654.819	0.0156034
654.897	0.0158215
654.975	0.0158013
655.053	0.0157352
655.131	0.0156664
655.209	0.0156435
655.288	0.0157223
655.366	0.0154704
655.444	0.0154916
655.522	0.0156062
655.600	0.0155684
655.678	0.0154543
655.756	0.0153857
655.834	0.0154229
655.913	0.0154229
655.991	0.0153107
656.069	0.0152522
656.147	0.0152728
656.225	0.0152648
656.303	0.0153123
656.381	0.0154163
656.459	0.0153474
656.538	0.0151974
656.616	0.0152464
656.694	0.0153918
656.772	0.0153030
656.850	0.0154237
656.928	0.0154103
657.006	0.0154530
657.084	0.0155897
657.163	0.0155335
657.241	0.0156538
657.319	0.0158089
657.397	0.0158033
657.475	0.0157514
657.553	0.0157825
657.631	0.0159399
657.709	0.0160025
657.788	0.0158027
657.866	0.0157387
657.944	0.0156898
658.022	0.0156274
658.100	0.0154736
658.178	0.0156573
658.256	0.0155851
658.334	0.0153717
658.413	0.0154495
658.491	0.0154976
658.569	0.0154249
658.647	0.0152577
658.725	0.0151662
658.803	0.0151318
658.881	0.0149186
658.959	0.0149770
659.038	0.0149932
659.116	0.0148104
659.194	0.0149752
659.272	0.0148941
659.350	0.0149644
659.428	0.0150843
659.506	0.0150692
659.584	0.0151307
659.663	0.0151968
659.741	0.0151453
659.819	0.0153812
659.897	0.0153996
659.975	0.0154992
660.053	0.0156607
660.131	0.0157342
660.209	0.0159091
660.288	0.0158683
660.366	0.0159914
660.444	0.0160550
660.522	0.0160109
660.600	0.0162525
660.678	0.0162666
660.756	0.0162064
660.834	0.0163397
660.913	0.0162128
660.991	0.0162099
661.069	0.0161245
661.147	0.0159962
661.225	0.0160971
661.303	0.0158749
661.381	0.0157952
661.459	0.0157372
661.538	0.0156053
661.616	0.0153220
661.694	0.0151031
661.772	0.0150956
661.850	0.0151245
661.928	0.0149866
662.006	0.0149262
662.084	0.0148083
662.163	0.0147339
662.241	0.0147343
662.319	0.0146641
662.397	0.0148034
662.475	0.0147368
662.553	0.0146913
662.631	0.0147665
662.709	0.0148193
662.788	0.0148431
662.866	0.0148592
662.944	0.0150446
663.022	0.0151404
663.100	0.0151967
663.178	0.0152201
663.256	0.0153239
663.334	0.0153690
663.413	0.0155944
663.491	0.0154880
663.569	0.0156245
663.647	0.0157702
663.725	0.0158181
663.803	0.0158388
663.881	0.0158986
663.959	0.0158684
664.038	0.0157742
664.116	0.0159183
664.194	0.0158462
664.272	0.0158523
664.350	0.0158029
664.428	0.0158865
664.506	0.0159070
664.584	0.0157517
664.663	0.0156940
664.741	0.0157621
664.819	0.0157240
664.897	0.0155745
664.975	0.0156361
665.053	0.0154695
665.131	0.0155064
665.209	0.0155484
665.288	0.0155232
665.366	0.0154845
665.444	0.0155064
665.522	0.0156693
665.600	0.0155383
665.678	0.0154890
665.756	0.0155138
665.834	0.0155592
665.913	0.0156139
665.991	0.0155556
666.069	0.0156438
666.147	0.0156034
666.225	0.0155481
666.303	0.0154729
666.381	0.0154440
666.459	0.0155914
666.538	0.0155045
666.616	0.0153977
666.694	0.0155119
666.772	0.0153850
666.850	0.0152625
666.928	0.0153049
667.006	0.0150719
667.084	0.0151255
667.163	0.0151123
667.241	0.0149258
667.319	0.0149413
667.397	0.0147942
667.475	0.0148846
667.553	0.0147840
667.631	0.0146288
667.709	0.0147091
667.788	0.0146984
667.866	0.0146079
667.944	0.0147883
668.022	0.0147807
668.100	0.0148722
668.178	0.0150282
668.256	0.0149435
668.334	0.0149856
668.413	0.0152751
668.491	0.0153523
668.569	0.0154059
668.647	0.0155266
668.725	0.0155746
668.803	0.0155615
668.881	0.0157236
668.959	0.0158231
669.038	0.0158304
669.116	0.0157966
669.194	0.0159013
669.272	0.0158493
669.350	0.0159710
669.428	0.0159022
669.506	0.0159936
669.584	0.0160023
669.663	0.0159226
669.741	0.0160144
669.819	0.0159924
669.897	0.0158714
669.975	0.0160781
670.053	0.0161040
670.131	0.0160215
670.209	0.0159438
670.288	0.0159233
670.366	0.0159673
670.444	0.0160188
670.522	0.0160815
670.600	0.0159194
670.678	0.0159309
670.756	0.0158022
670.834	0.0159032
670.913	0.0158935
670.991	0.0157454
671.069	0.0157314
671.147	0.0156342
671.225	0.0156406
671.303	0.0155328
671.381	0.0155444
671.459	0.0153336
671.538	0.0153152
671.616	0.0152315
671.694	0.0151782
671.772	0.0151463
671.850	0.0151186
671.928	0.0148618
672.006	0.0148068
672.084	0.0147793
672.163	0.0147613
672.241	0.0147797
672.319	0.0147429
672.397	0.0146597
672.475	0.0146674
672.553	0.0146455
672.631	0.0145607
672.709	0.0145947
672.788	0.0145811
672.866	0.0147035
672.944	0.0146181
673.022	0.0146015
673.100	0.0146744
673.178	0.0147570
673.256	0.0147170
673.334	0.0149048
673.413	0.0149014
673.491	0.0148331
673.569	0.0148522
673.647	0.0151379
673.725	0.0150960
673.803	0.0152597
673.881	0.0152453
673.959	0.0153515
674.038	0.0153362
674.116	0.0155003
674.194	0.0155373
674.272	0.0154613
674.350	0.0155218
674.428	0.0157294
674.506	0.0157839
674.584	0.0158221
674.663	0.0159656
674.741	0.0161472
674.819	0.0160448
674.897	0.0162170
674.975	0.0161369
675.053	0.0162923
675.131	0.0164314
675.209	0.0163373
675.288	0.0165180
675.366	0.0164607
675.444	0.0165874
675.522	0.0166960
675.600	0.0167738
675.678	0.0169264
675.756	0.0167474
675.834	0.0166505
675.913	0.0166483
675.991	0.0165558
676.069	0.0165506
676.147	0.0165077
676.225	0.0164939
676.303	0.0162261
676.381	0.0160992
676.459	0.0158778
676.538	0.0156068
676.616	0.0155217
676.694	0.0153980
676.772	0.0151772
676.850	0.0149547
676.928	0.0147775
677.006	0.0146079
677.084	0.0142699
677.163	0.0142505
677.241	0.0141508
677.319	0.0139159
677.397	0.0139078
677.475	0.0139101
677.553	0.0135700
677.631	0.0136144
677.709	0.0136970
677.788	0.0134781
677.866	0.0137749
677.944	0.0136958
678.022	0.0137939
678.100	0.0138228
678.178	0.0137862
678.256	0.0140419
678.334	0.0141388
678.413	0.0141638
678.491	0.0145427
678.569	0.0146427
678.647	0.0148866
678.725	0.0152525
678.803	0.0154099
678.881	0.0156164
678.959	0.0159834
679.038	0.0161329
679.116	0.0163285
679.194	0.0166048
679.272	0.0167231
679.350	0.0169957
679.428	0.0172222
679.506	0.0172803
679.584	0.0174400
679.663	0.0175356
679.741	0.0175451
679.819	0.0176441
679.897	0.0174473
679.975	0.0174637
680.053	0.0174314
680.131	0.0171292
680.209	0.0169849
680.288	0.0167664
680.366	0.0167361
680.444	0.0165519
680.522	0.0163295
680.600	0.0160604
680.678	0.0158568
680.756	0.0156272
680.834	0.0155075
680.913	0.0153062
680.991	0.0152252
681.069	0.0150951
681.147	0.0150883
681.225	0.0148772
681.303	0.0147613
681.381	0.0145847
681.459	0.0147124
681.538	0.0146407
681.616	0.0144839
681.694	0.0144723
681.772	0.0145519
681.850	0.0144281
681.928	0.0143414
682.006	0.0142420
682.084	0.0143510
682.163	0.0143301
682.241	0.0143877
682.319	0.0146204
682.397	0.0145007
682.475	0.0145890
682.553	0.0148933
682.631	0.0151034
682.709	0.0150479
682.788	0.0151340
682.866	0.0152441
682.944	0.0153162
683.022	0.0152930
683.100	0.0155209
683.178	0.0155292
683.256	0.0156373
683.334	0.0156601
683.413	0.0158044
683.491	0.0157099
683.569	0.0156532
683.647	0.0158717
683.725	0.0159351
683.803	0.0157923
683.881	0.0159156
683.959	0.0159455
684.038	0.0157905
684.116	0.0158377
684.194	0.0159451
684.272	0.0159510
684.350	0.0159489
684.428	0.0160453
684.506	0.0161080
684.584	0.0160431
684.663	0.0159428
684.741	0.0160170
684.819	0.0161423
684.897	0.0159974
684.975	0.0159837
685.053	0.0158852
685.131	0.0159532
685.209	0.0159750
685.288	0.0158188
685.366	0.0155983
685.444	0.0156784
685.522	0.0156598
685.600	0.0156308
685.678	0.0153583
685.756	0.0153488
685.834	0.0153277
685.913	0.0151135
685.991	0.0152146
686.069	0.0150088
686.147	0.0148344
686.225	0.0147221
686.303	0.0147603
686.381	0.0147717
686.459	0.0145975
686.538	0.0146648
686.616	0.0146714
686.694	0.0147134
686.772	0.0146901
686.850	0.0148044
686.928	0.0147481
687.006	0.0149137
687.084	0.0150346
687.163	0.0149474
687.241	0.0152251
687.319	0.0151790
687.397	0.0153174
687.475	0.0154541
687.553	0.0154528
687.631	0.0156645
687.709	0.0158060
687.788	0.0158243
687.866	0.0159715
687.944	0.0160101
688.022	0.0161734
688.100	0.0161546
688.178	0.0161221
688.256	0.0162859
688.334	0.0161575
688.413	0.0160777
688.491	0.0164111
688.569	0.0160934
688.647	0.0161340
688.725	0.0159473
688.803	0.0160720
688.881	0.0159396
688.959	0.0158042
689.038	0.0156785
689.116	0.0159441
689.194	0.0155814
689.272	0.0155830
689.350	0.0155025
689.428	0.0154616
689.506	0.0154659
689.584	0.0153211
689.663	0.0152457
689.741	0.0149454
689.819	0.0150121
689.897	0.0148383
689.975	0.0146058
690.053	0.0146235
690.131	0.0144570
690.209	0.0142884
690.288	0.0143143
690.366	0.0142174
690.444	0.0141279
690.522	0.0140559
690.600	0.0141908
690.678	0.0142027
690.756	0.0143176
690.834	0.0144614
690.913	0.0146755
690.991	0.0149149
691.069	0.0149770
691.147	0.0150416
691.225	0.0152274
691.303	0.0155260
691.381	0.0155794
691.459	0.0157769
691.538	0.0159109
691.616	0.0158356
691.694	0.0160587
691.772	0.0160714
691.850	0.0162151
691.928	0.0162801
692.006	0.0162499
692.084	0.0163174
692.163	0.0163364
692.241	0.0162853
692.319	0.0162574
692.397	0.0160584
692.475	0.0161466
692.553	0.0159045
692.631	0.0157775
692.709	0.0156846
692.788	0.0155092
692.866	0.0152643
692.944	0.0152080
693.022	0.0152293
693.100	0.0149410
693.178	0.0148895
693.256	0.0148124
693.334	0.0148332
693.413	0.0146564
693.491	0.0146207
693.569	0.0145738
693.647	0.0147236
693.725	0.0146317
693.803	0.0146799
693.881	0.0147659
693.959	0.0148332
694.038	0.0149883
694.116	0.0150976
694.194	0.0151363
694.272	0.0153428
694.350	0.0156150
694.428	0.0157381
694.506	0.0158357
694.584	0.0158698
694.663	0.0161005
694.741	0.0163963
694.819	0.0163643
694.897	0.0164452
694.975	0.0166727
695.053	0.0166093
695.131	0.0166358
695.209	0.0166277
695.288	0.0167873
695.366	0.0169650
695.444	0.0168005
695.522	0.0169867
695.600	0.0169768
695.678	0.0170705
695.756	0.0169409
695.834	0.0168352
695.913	0.0169860
695.991	0.0169908
696.069	0.0167562
696.147	0.0166599
696.225	0.0168555
696.303	0.0165545
696.381	0.0163503
696.459	0.0162494
696.538	0.0160549
696.616	0.0157714
696.694	0.0154272
696.772	0.0152612
696.850	0.0150787
696.928	0.0149667
697.006	0.0144772
697.084	0.0143933
697.163	0.0140955
697.241	0.0138707
697.319	0.0135796
697.397	0.0135632
697.475	0.0133190
697.553	0.0132061
697.631	0.0131862
697.709	0.0131194
697.788	0.0130563
697.866	0.0131538
697.944	0.0132142
698.022	0.0133611
698.100	0.0135724
698.178	0.0136633
698.256	0.0137522
698.334	0.0140617
698.413	0.0142117
698.491	0.0144368
698.569	0.0145532
698.647	0.0148621
698.725	0.0151300
698.803	0.0150558
698.881	0.0154979
698.959	0.0156710
699.038	0.0157081
699.116	0.0158358
699.194	0.0160520
699.272	0.0160688
699.350	0.0162790
699.428	0.0165244
699.506	0.0166172
699.584	0.0167470
699.663	0.0168283
699.741	0.0170779
699.819	0.0170042
699.897	0.0170759
699.975	0.0172964
700.053	0.0172186
700.131	0.0173721
700.209	0.0172865
700.288	0.0174792
700.366	0.0175028
700.444	0.0176217
700.522	0.0175044
700.600	0.0175522
700.678	0.0176270
700.756	0.0176169
700.834	0.0176341
700.913	0.0174905
700.991	0.0174277
701.069	0.0172166
701.147	0.0171058
701.225	0.0169071
701.303	0.0166535
701.381	0.0163343
701.459	0.0160928
701.538	0.0159453
701.616	0.0156753
701.694	0.0153914
701.772	0.0151126
701.850	0.0149812
701.928	0.0147864
702.006	0.0144880
702.084	0.0142351
702.163	0.0140161
702.241	0.0137210
702.319	0.0134975
702.397	0.0134231
702.475	0.0131947
702.553	0.0131177
702.631	0.0129463
702.709	0.0127773
702.788	0.0126973
702.866	0.0127033
702.944	0.0128528
703.022	0.0129405
703.100	0.0128932
703.178	0.0131030
703.256	0.0131728
703.334	0.0135412
703.413	0.0138570
703.491	0.0140070
703.569	0.0141770
703.647	0.0145722
703.725	0.0148272
703.803	0.0151038
703.881	0.0153093
703.959	0.0156590
704.038	0.0160098
704.116	0.0162636
704.194	0.0163553
704.272	0.0166117
704.350	0.0167646
704.428	0.0170127
704.506	0.0171114
704.584	0.0172037
704.663	0.0171633
704.741	0.0171707
704.819	0.0173564
704.897	0.0171172
704.975	0.0171686
705.053	0.0169724
705.131	0.0167899
705.209	0.0169696
705.288	0.0167126
705.366	0.0165205
705.444	0.0162711
705.522	0.0162978
705.600	0.0161235
705.678	0.0161544
705.756	0.0159567
705.834	0.0158892
705.913	0.0159249
705.991	0.0156855
706.069	0.0156786
706.147	0.0157616
706.225	0.0155547
706.303	0.0155408
706.381	0.0155514
706.459	0.0154359
706.538	0.0153245
706.616	0.0153320
706.694	0.0153626
706.772	0.0153810
706.850	0.0154261
706.928	0.0153549
707.006	0.0154666
707.084	0.0155319
707.163	0.0153478
707.241	0.0155175
707.319	0.0155462
707.397	0.0156121
707.475	0.0153703
707.553	0.0154196
707.631	0.0155259
707.709	0.0155850
707.788	0.0153998
707.866	0.0154710
707.944	0.0153000
708.022	0.0152913
708.100	0.0152975
708.178	0.0153757
708.256	0.0152514
708.334	0.0151701
708.413	0.0152593
708.491	0.0151604
708.569	0.0151117
708.647	0.0150681
708.725	0.0150713
708.803	0.0148285
708.881	0.0148598
708.959	0.0149059
709.038	0.0149260
709.116	0.0151743
709.194	0.0150047
709.272	0.0150242
709.350	0.0151585
709.428	0.0151505
709.506	0.0150561
709.584	0.0152377
709.663	0.0152213
709.741	0.0153438
709.819	0.0152969
709.897	0.0152994
709.975	0.0152502
710.053	0.0153178
710.131	0.0154552
710.209	0.0154936
710.288	0.0155906
710.366	0.0155169
710.444	0.0155249
710.522	0.0156375
710.600	0.0158443
710.678	0.0157900
710.756	0.0158266
710.834	0.0158775
710.913	0.0158720
710.991	0.0159534
711.069	0.0159442
711.147	0.0159655
711.225	0.0160382
711.303	0.0159435
711.381	0.0160116
711.459	0.0159998
711.538	0.0160275
711.616	0.0159954
711.694	0.0159707
711.772	0.0158427
711.850	0.0159852
711.928	0.0159691
712.006	0.0160943
712.084	0.0159364
712.163	0.0158989
712.241	0.0157186
712.319	0.0157574
712.397	0.0155836
712.475	0.0155424
712.553	0.0156040
712.631	0.0152365
712.709	0.0151623
712.788	0.0152768
712.866	0.0151610
712.944	0.0151657
713.022	0.0151230
713.100	0.0149294
713.178	0.0148466
713.256	0.0148540
713.334	0.0149642
713.413	0.0149477
713.491	0.0149638
713.569	0.0149876
713.647	0.0150497
713.725	0.0151988
713.803	0.0151968
713.881	0.0153253
713.959	0.0154263
714.038	0.0156478
714.116	0.0156229
714.194	0.0157114
714.272	0.0158537
714.350	0.0158820
714.428	0.0159908
714.506	0.0160668
714.584	0.0161982
714.663	0.0161559
714.741	0.0162354
714.819	0.0161568
714.897	0.0163418
714.975	0.0161963
715.053	0.0163286
715.131	0.0160770
715.209	0.0162467
715.288	0.0161861
715.366	0.0160925
715.444	0.0160032
715.522	0.0158888
715.600	0.0160202
715.678	0.0157663
715.756	0.0156522
715.834	0.0154897
715.913	0.0155280
715.991	0.0154285
716.069	0.0153802
716.147	0.0152258
716.225	0.0150373
716.303	0.0148862
716.381	0.0149460
716.459	0.0145891
716.538	0.0148677
716.616	0.0146674
716.694	0.0146785
716.772	0.0147807
716.850	0.0146625
716.928	0.0147182
717.006	0.0148493
717.084	0.0148572
717.163	0.0148961
717.241	0.0150163
717.319	0.0151015
717.397	0.0152316
717.475	0.0153770
717.553	0.0153288
717.631	0.0153741
717.709	0.0155556
717.788	0.0155011
717.866	0.0156216
717.944	0.0157149
718.022	0.0157238
718.100	0.0156696
718.178	0.0156270
718.256	0.0156900
718.334	0.0158711
718.413	0.0157943
718.491	0.0157685
718.569	0.0158260
718.647	0.0159110
718.725	0.0157545
718.803	0.0159084
718.881	0.0159843
718.959	0.0158611
719.038	0.0160250
719.116	0.0160420
719.194	0.0160416
719.272	0.0159767
719.350	0.0161143
719.428	0.0159979
719.506	0.0160196
719.584	0.0161026
719.663	0.0160563
719.741	0.0160684
719.819	0.0159603
719.897	0.0160115
719.975	0.0157797
720.053	0.0159641
720.131	0.0159637
720.209	0.0158531
720.288	0.0158459
720.366	0.0158142
720.444	0.0157433
720.522	0.0156949
720.600	0.0155192
720.678	0.0155427
720.756	0.0153539
720.834	0.0153857
720.913	0.0152376
720.991	0.0152249
721.069	0.0149990
721.147	0.0149633
721.225	0.0148016
721.303	0.0145659
721.381	0.0145850
721.459	0.0146986
721.538	0.0145530
721.616	0.0142527
721.694	0.0145079
721.772	0.0142080
721.850	0.0143753
721.928	0.0143980
722.006	0.0143288
722.084	0.0146346
722.163	0.0145930
722.241	0.0145626
722.319	0.0149090
722.397	0.0148539
722.475	0.0149084
722.553	0.0150632
722.631	0.0152850
722.709	0.0154810
722.788	0.0156659
722.866	0.0157515
722.944	0.0159084
723.022	0.0159789
723.100	0.0162228
723.178	0.0162920
723.256	0.0164491
723.334	0.0165633
723.413	0.0166687
723.491	0.0167105
723.569	0.0167063
723.647	0.0167553
723.725	0.0167473
723.803	0.0167059
723.881	0.0166617
723.959	0.0166934
724.038	0.0167603
724.116	0.0164260
724.194	0.0161257
724.272	0.0162051
724.350	0.0161130
724.428	0.0160354
724.506	0.0158802
724.584	0.0157063
724.663	0.0155494
724.741	0.0155145
724.819	0.0154642
724.897	0.0153767
724.975	0.0152972
725.053	0.0151113
725.131	0.0151878
725.209	0.0151865
725.288	0.0151718
725.366	0.0152169
725.444	0.0152731
725.522	0.0153778
725.600	0.0153712
725.678	0.0154401
725.756	0.0154656
725.834	0.0154233
725.913	0.0154541
725.991	0.0154434
726.069	0.0156358
726.147	0.0154721
726.225	0.0154302
726.303	0.0153584
726.381	0.0153498
726.459	0.0152621
726.538	0.0152298
726.616	0.0151477
726.694	0.0151148
726.772	0.0147533
726.850	0.0148106
726.928	0.0148586
727.006	0.0148514
727.084	0.0149081
727.163	0.0147495
727.241	0.0147630
727.319	0.0148437
727.397	0.0149020
727.475	0.0148349
727.553	0.0149892
727.631	0.0150784
727.709	0.0151064
727.788	0.0150839
727.866	0.0153123
727.944	0.0152598
728.022	0.0153675
728.100	0.0153426
728.178	0.0154597
728.256	0.0155692
728.334	0.0154510
728.413	0.0154666
728.491	0.0155448
728.569	0.0154961
728.647	0.0156665
728.725	0.0156629
728.803	0.0156358
728.881	0.0155142
728.959	0.0155693
729.038	0.0156174
729.116	0.0156742
729.194	0.0156929
729.272	0.0156435
729.350	0.0156362
729.428	0.0157142
729.506	0.0156875
729.584	0.0157878
729.663	0.0159088
729.741	0.0160531
729.819	0.0160726
729.897	0.0161480
729.975	0.0162188
730.053	0.0163426
730.131	0.0163180
730.209	0.0164477
730.288	0.0164853
730.366	0.0167014
730.444	0.0166051
730.522	0.0165070
730.600	0.0166368
730.678	0.0162472
730.756	0.0162112
730.834	0.0161919
730.913	0.0160727
730.991	0.0158714
731.069	0.0157568
731.147	0.0155345
731.225	0.0153259
731.303	0.0150214
731.381	0.0149138
731.459	0.0147163
731.538	0.0146748
731.616	0.0144257
731.694	0.0141888
731.772	0.0141296
731.850	0.0140093
731.928	0.0138889
732.006	0.0139604
732.084	0.0139314
732.163	0.0138433
732.241	0.0138404
732.319	0.0139351
732.397	0.0141073
732.475	0.0140860
732.553	0.0141564
732.631	0.0143444
732.709	0.0144534
732.788	0.0147327
732.866	0.0150449
732.944	0.0149686
733.022	0.0152222
733.100	0.0156426
733.178	0.0155675
733.256	0.0159021
733.334	0.0160180
733.413	0.0162280
733.491	0.0162125
733.569	0.0162770
733.647	0.0163468
733.725	0.0164543
733.803	0.0163961
733.881	0.0164635
733.959	0.0164872
734.038	0.0161861
734.116	0.0161603
734.194	0.0161977
734.272	0.0161906
734.350	0.0159866
734.428	0.0159495
734.506	0.0158176
734.584	0.0158270
734.663	0.0158098
734.741	0.0156697
734.819	0.0156591
734.897	0.0155247
734.975	0.0154642
735.053	0.0154482
735.131	0.0153938
735.209	0.0154110
735.288	0.0154418
735.366	0.0152423
735.444	0.0152771
735.522	0.0152734
735.600	0.0154384
735.678	0.0153468
735.756	0.0156213
735.834	0.0155592
735.913	0.0156169
735.991	0.0156547
736.069	0.0157069
736.147	0.0156598
736.225	0.0159009
736.303	0.0158960
736.381	0.0159348
736.459	0.0158372
736.538	0.0157241
736.616	0.0157539
736.694	0.0157893
736.772	0.0158324
736.850	0.0159449
736.928	0.0157943
737.006	0.0158910
737.084	0.0158713
737.163	0.0156383
737.241	0.0157178
737.319	0.0156934
737.397	0.0155367
737.475	0.0153680
737.553	0.0153875
737.631	0.0152340
737.709	0.0152779
737.788	0.0155019
737.866	0.0152909
737.944	0.0152296
738.022	0.0152916
738.100	0.0152360
738.178	0.0153704
738.256	0.0154401
738.334	0.0153378
738.413	0.0152626
738.491	0.0154759
738.569	0.0155017
738.647	0.0153165
738.725	0.0152673
738.803	0.0155125
738.881	0.0154482
738.959	0.0153617
739.038	0.0153963
739.116	0.0153530
739.194	0.0155325
739.272	0.0153326
739.350	0.0154951
739.428	0.0154704
739.506	0.0154923
739.584	0.0155685
739.663	0.0155331
739.741	0.0154389
739.819	0.0155418
739.897	0.0154821
739.975	0.0154987
740.053	0.0154401
740.131	0.0152321
740.209	0.0152959
740.288	0.0154604
740.366	0.0153902
740.444	0.0154068
740.522	0.0153551
740.600	0.0152630
740.678	0.0151335
740.756	0.0152419
740.834	0.0151906
740.913	0.0150799
740.991	0.0150666
741.069	0.0149007
741.147	0.0148174
741.225	0.0149111
741.303	0.0147667
741.381	0.0148598
741.459	0.0148650
741.538	0.0146496
741.616	0.0146409
741.694	0.0146302
741.772	0.0147305
741.850	0.0147598
741.928	0.0148038
742.006	0.0148602
742.084	0.0148969
742.163	0.0150946
742.241	0.0150368
742.319	0.0150138
742.397	0.0152539
742.475	0.0153237
742.553	0.0153374
742.631	0.0154002
742.709	0.0154506
742.788	0.0157122
742.866	0.0157551
742.944	0.0158857
743.022	0.0160999
743.100	0.0160459
743.178	0.0161877
743.256	0.0160583
743.334	0.0162354
743.413	0.0162037
743.491	0.0163010
743.569	0.0161990
743.647	0.0163129
743.725	0.0163083
743.803	0.0162710
743.881	0.0161827
743.959	0.0161510
744.038	0.0160910
744.116	0.0160765
744.194	0.0160831
744.272	0.0159377
744.350	0.0159315
744.428	0.0159045
744.506	0.0157385
744.584	0.0158362
744.663	0.0157643
744.741	0.0156728
744.819	0.0155009
744.897	0.0155827
744.975	0.0155600
745.053	0.0155507
745.131	0.0153610
745.209	0.0152846
745.288	0.0153310
745.366	0.0153726
745.444	0.0155565
745.522	0.0153695
745.600	0.0153900
745.678	0.0155195
745.756	0.0153353
745.834	0.0152635
745.913	0.0152640
745.991	0.0152164
746.069	0.0151721
746.147	0.0149785
746.225	0.0148453
746.303	0.0148849
746.381	0.0148740
746.459	0.0148240
746.538	0.0147808
746.616	0.0145785
746.694	0.0146085
746.772	0.0147260
746.850	0.0145411
746.928	0.0145480
747.006	0.0145744
747.084	0.0145420
747.163	0.0145804
747.241	0.0146130
747.319	0.0148125
747.397	0.0150179
747.475	0.0151670
747.553	0.0152013
747.631	0.0154533
747.709	0.0154905
747.788	0.0156648
747.866	0.0157728
747.944	0.0160491
748.022	0.0161201
748.100	0.0161777
748.178	0.0163786
748.256	0.0163280
748.334	0.0164627
748.413	0.0165277
748.491	0.0164844
748.569	0.0166102
748.647	0.0165830
748.725	0.0164906
748.803	0.0163671
748.881	0.0162966
748.959	0.0161940
749.038	0.0160367
749.116	0.0159842
749.194	0.0157428
749.272	0.0157613
749.350	0.0155714
749.428	0.0153797
749.506	0.0152229
749.584	0.0153523
749.663	0.0151739
749.741	0.0151386
749.819	0.0150596
749.897	0.0150018
749.975	0.0151997
750.053	0.0151759
750.131	0.0150980
750.209	0.0152062
750.288	0.0152287
750.366	0.0152430
750.444	0.0153920
750.522	0.0154091
750.600	0.0154503
750.678	0.0153474
750.756	0.0156094
750.834	0.0155354
750.913	0.0154440
750.991	0.0155133
751.069	0.0157235
751.147	0.0155251
751.225	0.0154188
751.303	0.0156039
751.381	0.0154499
751.459	0.0154037
751.538	0.0154736
751.616	0.0154021
751.694	0.0154845
751.772	0.0154784
751.850	0.0156386
751.928	0.0155812
752.006	0.0155450
752.084	0.0155265
752.163	0.0156841
752.241	0.0158189
752.319	0.0156974
752.397	0.0156197
752.475	0.0156563
752.553	0.0157210
752.631	0.0157562
752.709	0.0157462
752.788	0.0156665
752.866	0.0156242
752.944	0.0156239
753.022	0.0155257
753.100	0.0156823
753.178	0.0155401
753.256	0.0156313
753.334	0.0153804
753.413	0.0155389
753.491	0.0152916
753.569	0.0152572
753.647	0.0153487
753.725	0.0154703
753.803	0.0152571
753.881	0.0152200
753.959	0.0152435
754.038	0.0153321
754.116	0.0153507
754.194	0.0153283
754.272	0.0154233
754.350	0.0154482
754.428	0.0154573
754.506	0.0153696
754.584	0.0154042
754.663	0.0154757
754.741	0.0154324
754.819	0.0152848
754.897	0.0152715
754.975	0.0152819
755.053	0.0152844
755.131	0.0151373
755.209	0.0149373
755.288	0.0150423
755.366	0.0151304
755.444	0.0150231
755.522	0.0150966
755.600	0.0149696
755.678	0.0149466
755.756	0.0149166
755.834	0.0148945
755.913	0.0150721
755.991	0.0151058
756.069	0.0152491
756.147	0.0150703
756.225	0.0153410
756.303	0.0155193
756.381	0.0154184
756.459	0.0156889
756.538	0.0158113
756.616	0.0158107
756.694	0.0159004
756.772	0.0160656
756.850	0.0161444
756.928	0.0160702
757.006	0.0162068
757.084	0.0164201
757.163	0.0163921
757.241	0.0163412
757.319	0.0163528
757.397	0.0163205
757.475	0.0163965
757.553	0.0164186
757.631	0.0162525
757.709	0.0161947
757.788	0.0160297
757.866	0.0159343
757.944	0.0157697
758.022	0.0157235
758.100	0.0157133
758.178	0.0154964
758.256	0.0152660
758.334	0.0151697
758.413	0.0151321
758.491	0.0151971
758.569	0.0150497
758.647	0.0148083
758.725	0.0149391
758.803	0.0147829
758.881	0.0148149
758.959	0.0147434
759.038	0.0147820
759.116	0.0148075
759.194	0.0147111
759.272	0.0148046
759.350	0.0147278
759.428	0.0147710
759.506	0.0150043
759.584	0.0148717
759.663	0.0150138
759.741	0.0150753
759.819	0.0151161
759.897	0.0151418
759.975	0.0153123
760.053	0.0152128
760.131	0.0152737
760.209	0.0152485
760.288	0.0153243
760.366	0.0155160
760.444	0.0155071
760.522	0.0156517
760.600	0.0155096
760.678	0.0154226
760.756	0.0155701
760.834	0.0155520
760.913	0.0155343
760.991	0.0155318
761.069	0.0155083
761.147	0.0154614
761.225	0.0157217
761.303	0.0155464
761.381	0.0156263
761.459	0.0156960
761.538	0.0156393
761.616	0.0157574
761.694	0.0157781
761.772	0.0158760
761.850	0.0159366
761.928	0.0159418
762.006	0.0160095
762.084	0.0158945
762.163	0.0160752
762.241	0.0160953
762.319	0.0162170
762.397	0.0161095
762.475	0.0159212
762.553	0.0161767
762.631	0.0162223
762.709	0.0159300
762.788	0.0160036
762.866	0.0159130
762.944	0.0157519
763.022	0.0156892
763.100	0.0156464
763.178	0.0153892
763.256	0.0151168
763.334	0.0151241
763.413	0.0149361
763.491	0.0149848
763.569	0.0147449
763.647	0.0147250
763.725	0.0145494
763.803	0.0146562
763.881	0.0146194
763.959	0.0144057
764.038	0.0144206
764.116	0.0145280
764.194	0.0146601
764.272	0.0146758
764.350	0.0147371
764.428	0.0148167
764.506	0.0149405
764.584	0.0149679
764.663	0.0149071
764.741	0.0151295
764.819	0.0151326
764.897	0.0151125
764.975	0.0154125
765.053	0.0153618
765.131	0.0155173
765.209	0.0155920
765.288	0.0156153
765.366	0.0158212
765.444	0.0157751
765.522	0.0160566
765.600	0.0160672
765.678	0.0159655
765.756	0.0160801
765.834	0.0163580
765.913	0.0164062
765.991	0.0161339
766.069	0.0161370
766.147	0.0162035
766.225	0.0161141
766.303	0.0160084
766.381	0.0159116
766.459	0.0157961
766.538	0.0157163
766.616	0.0157132
766.694	0.0155233
766.772	0.0154301
766.850	0.0153400
766.928	0.0153219
767.006	0.0152663
767.084	0.0151823
767.163	0.0149987
767.241	0.0150598
767.319	0.0149756
767.397	0.0149322
767.475	0.0149876
767.553	0.0150510
767.631	0.0149008
767.709	0.0150301
767.788	0.0150368
767.866	0.0150588
767.944	0.0151752
768.022	0.0152581
768.100	0.0153350
768.178	0.0152384
768.256	0.0153919
768.334	0.0154433
768.413	0.0157439
768.491	0.0157930
768.569	0.0157457
768.647	0.0158946
768.725	0.0160271
768.803	0.0159785
768.881	0.0157401
768.959	0.0158786
769.038	0.0158752
769.116	0.0158096
769.194	0.0157935
769.272	0.0157381
769.350	0.0159727
769.428	0.0158102
769.506	0.0156570
769.584	0.0155461
769.663	0.0154745
769.741	0.0155281
769.819	0.0155867
769.897	0.0155688
769.975	0.0153537
770.053	0.0153762
770.131	0.0153099
770.209	0.0154221
770.288	0.0153052
770.366	0.0152561
770.444	0.0152422
770.522	0.0153278
770.600	0.0151289
770.678	0.0152183
770.756	0.0153656
770.834	0.0153723
770.913	0.0154572
770.991	0.0154704
771.069	0.0154150
771.147	0.0156264
771.225	0.0157297
771.303	0.0158759
771.381	0.0158726
771.459	0.0158771
771.538	0.0160842
771.616	0.0161064
771.694	0.0162079
771.772	0.0160915
771.850	0.0162491
771.928	0.0161032
772.006	0.0160859
772.084	0.0159399
772.163	0.0157744
772.241	0.0156122
772.319	0.0156535
772.397	0.0155010
772.475	0.0152248
772.553	0.0151417
772.631	0.0150725
772.709	0.0148762
772.788	0.0148821
772.866	0.0147363
772.944	0.0146645
773.022	0.0144099
773.100	0.0144111
773.178	0.0143949
773.256	0.0145382
773.334	0.0143845
773.413	0.0144300
773.491	0.0144086
773.569	0.0145537
773.647	0.0146322
773.725	0.0147015
773.803	0.0148739
773.881	0.0150772
773.959	0.0150462
774.038	0.0152995
774.116	0.0152618
774.194	0.0154684
774.272	0.0157481
774.350	0.0158302
774.428	0.0158920
774.506	0.0161397
774.584	0.0160041
774.663	0.0161130
774.741	0.0161366
774.819	0.0161404
774.897	0.0162114
774.975	0.0162162
775.053	0.0161990
775.131	0.0161243
775.209	0.0162347
775.288	0.0160868
775.366	0.0160185
775.444	0.0158170
775.522	0.0158994
775.600	0.0159187
775.678	0.0160047
775.756	0.0158363
775.834	0.0158032
775.913	0.0156336
775.991	0.0155972
776.069	0.0155269
776.147	0.0155015
776.225	0.0154491
776.303	0.0155897
776.381	0.0156081
776.459	0.0153477
776.538	0.0155190
776.616	0.0155077
776.694	0.0154419
776.772	0.0155162
776.850	0.0155613
776.928	0.0155985
777.006	0.0156066
777.084	0.0155369
777.163	0.0156584
777.241	0.0157339
777.319	0.0158022
777.397	0.0157091
777.475	0.0158468
777.553	0.0158223
777.631	0.0157195
777.709	0.0156400
777.788	0.0156882
777.866	0.0154973
777.944	0.0154905
778.022	0.0154960
778.100	0.0153571
778.178	0.0152774
778.256	0.0151778
778.334	0.0151785
778.413	0.0151043
778.491	0.0150970
778.569	0.0149925
778.647	0.0150331
778.725	0.0150551
778.803	0.0149810
778.881	0.0151003
778.959	0.0152006
779.038	0.0150993
779.116	0.0151704
779.194	0.0151632
779.272	0.0153973
779.350	0.0153280
779.428	0.0154293
779.506	0.0155418
779.584	0.0156407
779.663	0.0156709
779.741	0.0156997
779.819	0.0155654
779.897	0.0156010
779.975	0.0156342
780.053	0.0158166
780.131	0.0157569
780.209	0.0156544
780.288	0.0157167
780.366	0.0157674
780.444	0.0157373
780.522	0.0161144
780.600	0.0159074
780.678	0.0159578
780.756	0.0158060
780.834	0.0158470
780.913	0.0157947
780.991	0.0157656
781.069	0.0157655
781.147	0.0157547
781.225	0.0156538
781.303	0.0154298
781.381	0.0154816
781.459	0.0154440
781.538	0.0153555
781.616	0.0154110
781.694	0.0153979
781.772	0.0152789
781.850	0.0152297
781.928	0.0151274
782.006	0.0150069
782.084	0.0148799
782.163	0.0148859
782.241	0.0148605
782.319	0.0147614
782.397	0.0148029
782.475	0.0149417
782.553	0.0149805
782.631	0.0149591
782.709	0.0149692
782.788	0.0151743
782.866	0.0151814
782.944	0.0152245
783.022	0.0153308
783.100	0.0154014
783.178	0.0154539
783.256	0.0154285
783.334	0.0156988
783.413	0.0155864
783.491	0.0157134
783.569	0.0156026
783.647	0.0158267
783.725	0.0156368
783.803	0.0157542
783.881	0.0158079
783.959	0.0157587
784.038	0.0158202
784.116	0.0158527
784.194	0.0157049
784.272	0.0155940
784.350	0.0157307
784.428	0.0157776
784.506	0.0157699
784.584	0.0156974
784.663	0.0158004
784.741	0.0158274
784.819	0.0156770
784.897	0.0155787
784.975	0.0156526
785.053	0.0156432
785.131	0.0156371
785.209	0.0156835
785.288	0.0155971
785.366	0.0156731
785.444	0.0157268
785.522	0.0157072
785.600	0.0158675
785.678	0.0157988
785.756	0.0157999
785.834	0.0157814
785.913	0.0158693
785.991	0.0157167
786.069	0.0157726
786.147	0.0156471
786.225	0.0156937
786.303	0.0156398
786.381	0.0156636
786.459	0.0154324
786.538	0.0153627
786.616	0.0155428
786.694	0.0155098
786.772	0.0152882
786.850	0.0153743
786.928	0.0153484
787.006	0.0152527
787.084	0.0153015
787.163	0.0150963
787.241	0.0150736
787.319	0.0149611
787.397	0.0149727
787.475	0.0149918
787.553	0.0148646
787.631	0.0147757
787.709	0.0147737
787.788	0.0148857
787.866	0.0148151
787.944	0.0149042
788.022	0.0148800
788.100	0.0147454
788.178	0.0150285
788.256	0.0149680
788.334	0.0150392
788.413	0.0150333
788.491	0.0151301
788.569	0.0152569
788.647	0.0152376
788.725	0.0152212
788.803	0.0153270
788.881	0.0154964
788.959	0.0154737
789.038	0.0156290
789.116	0.0156236
789.194	0.0158054
789.272	0.0157821
789.350	0.0159551
789.428	0.0159300
789.506	0.0157538
789.584	0.0159799
789.663	0.0159797
789.741	0.0158718
789.819	0.0159754
789.897	0.0160170
789.975	0.0159239
790.053	0.0160650
790.131	0.0159793
790.209	0.0157507
790.288	0.0158250
790.366	0.0158827
790.444	0.0157829
790.522	0.0157445
790.600	0.0155153
790.678	0.0155551
790.756	0.0156187
790.834	0.0153703
790.913	0.0152280
790.991	0.0153396
791.069	0.0152162
791.147	0.0153589
791.225	0.0153369
791.303	0.0152800
791.381	0.0152943
791.459	0.0151955
791.538	0.0152347
791.616	0.0152542
791.694	0.0153220
791.772	0.0154053
791.850	0.0154965
791.928	0.0155243
792.006	0.0154456
792.084	0.0156364
792.163	0.0155646
792.241	0.0156828
792.319	0.0156676
792.397	0.0157550
792.475	0.0157250
792.553	0.0156491
792.631	0.0156146
792.709	0.0157319
792.788	0.0157172
792.866	0.0157639
792.944	0.0156879
793.022	0.0156490
793.100	0.0155549
793.178	0.0154412
793.256	0.0154285
793.334	0.0155672
793.413	0.0154735
793.491	0.0153500
793.569	0.0154394
793.647	0.0152811
793.725	0.0152267
793.803	0.0152700
793.881	0.0152060
793.959	0.0150643
794.038	0.0151108
794.116	0.0151217
794.194	0.0152529
794.272	0.0151969
794.350	0.0152306
794.428	0.0151665
794.506	0.0153390
794.584	0.0151546
794.663	0.0151456
794.741	0.0153166
794.819	0.0154015
794.897	0.0154228
794.975	0.0153578
795.053	0.0155341
795.131	0.0154210
795.209	0.0154659
795.288	0.0154858
795.366	0.0154330
795.444	0.0155309
795.522	0.0154828
795.600	0.0154073
795.678	0.0154964
795.756	0.0154555
795.834	0.0155255
795.913	0.0155628
795.991	0.0154306
796.069	0.0155468
796.147	0.0155241
796.225	0.0155986
796.303	0.0153773
796.381	0.0154981
796.459	0.0154400
796.538	0.0153915
796.616	0.0153364
796.694	0.0155552
796.772	0.0154301
796.850	0.0155920
796.928	0.0155334
797.006	0.0156544
797.084	0.0157129
797.163	0.0156718
797.241	0.0156248
797.319	0.0157220
797.397	0.0158022
797.475	0.0159701
797.553	0.0159883
797.631	0.0160626
797.709	0.0158900
797.788	0.0159794
797.866	0.0158067
797.944	0.0158549
798.022	0.0159849
798.100	0.0160123
798.178	0.0158037
798.256	0.0158884
798.334	0.0157345
798.413	0.0157822
798.491	0.0157535
798.569	0.0157672
798.647	0.0157245
798.725	0.0155242
798.803	0.0155058
798.881	0.0154493
798.959	0.0153321
799.038	0.0153550
799.116	0.0152509
799.194	0.0151700
799.272	0.0152206
799.350	0.0150537
799.428	0.0148531
799.506	0.0148718
799.584	0.0150254
799.663	0.0149100
799.741	0.0148782
799.819	0.0149305
799.897	0.0148219
799.975	0.0147983
800.053	0.0148447
800.131	0.0148605
800.209	0.0148689
800.288	0.0150914
800.366	0.0150616
800.444	0.0150381
800.522	0.0152150
800.600	0.0150460
800.678	0.0151251
800.756	0.0153214
800.834	0.0153451
800.913	0.0154964
800.991	0.0154700
801.069	0.0154921
801.147	0.0156435
801.225	0.0156351
801.303	0.0157690
801.381	0.0158275
801.459	0.0160351
801.538	0.0158887
801.616	0.0159241
801.694	0.0161019
801.772	0.0159317
801.850	0.0159663
801.928	0.0159278
802.006	0.0160262
802.084	0.0160196
802.163	0.0158910
802.241	0.0159245
802.319	0.0158866
802.397	0.0158545
802.475	0.0158324
802.553	0.0158640
802.631	0.0157927
802.709	0.0158247
802.788	0.0157996
802.866	0.0158207
802.944	0.0155276
803.022	0.0156979
803.100	0.0156757
803.178	0.0155618
803.256	0.0156048
803.334	0.0156561
803.413	0.0155305
803.491	0.0154773
803.569	0.0156471
803.647	0.0153256
803.725	0.0153265
803.803	0.0155080
803.881	0.0154618
803.959	0.0154614
804.038	0.0153410
804.116	0.0153960
804.194	0.0152806
804.272	0.0154398
804.350	0.0153716
804.428	0.0154071
804.506	0.0152308
804.584	0.0152752
804.663	0.0151812
804.741	0.0153423
804.819	0.0153284
804.897	0.0153359
804.975	0.0153525
805.053	0.0153044
805.131	0.0152022
805.209	0.0153118
805.288	0.0153011
805.366	0.0153103
805.444	0.0152861
805.522	0.0152670
805.600	0.0151880
805.678	0.0152654
805.756	0.0153737
805.834	0.0152368
805.913	0.0151603
805.991	0.0151581
806.069	0.0152049
806.147	0.0152044
806.225	0.0151740
806.303	0.0152383
806.381	0.0152020
806.459	0.0152657
806.538	0.0151356
806.616	0.0153654
806.694	0.0154270
806.772	0.0153617
806.850	0.0154110
806.928	0.0153838
807.006	0.0155670
807.084	0.0157033
807.163	0.0156064
807.241	0.0158469
807.319	0.0159018
807.397	0.0157238
807.475	0.0158016
807.553	0.0158364
807.631	0.0159581
807.709	0.0158627
807.788	0.0159386
807.866	0.0159421
807.944	0.0159015
808.022	0.0159372
808.100	0.0157685
808.178	0.0158724
808.256	0.0157986
808.334	0.0156797
808.413	0.0157246
808.491	0.0156416
808.569	0.0156448
808.647	0.0156844
808.725	0.0156904
808.803	0.0155322
808.881	0.0155373
808.959	0.0155097
809.038	0.0153531
809.116	0.0154250
809.194	0.0154567
809.272	0.0155290
809.350	0.0154083
809.428	0.0151556
809.506	0.0154115
809.584	0.0153872
809.663	0.0152166
809.741	0.0153651
809.819	0.0155235
809.897	0.0154422
809.975	0.0153228
810.053	0.0153889
810.131	0.0154868
810.209	0.0154810
810.288	0.0153898
810.366	0.0154883
810.444	0.0155802
810.522	0.0154191
810.600	0.0155418
810.678	0.0154883
810.756	0.0154208
810.834	0.0155531
810.913	0.0156242
810.991	0.0154384
811.069	0.0153604
811.147	0.0153784
811.225	0.0154919
811.303	0.0152785
811.381	0.0153541
811.459	0.0154893
811.538	0.0154498
811.616	0.0152234
811.694	0.0153090
811.772	0.0152770
811.850	0.0152690
811.928	0.0153782
812.006	0.0153798
812.084	0.0153331
812.163	0.0153005
812.241	0.0153661
812.319	0.0153484
812.397	0.0154379
812.475	0.0153771
812.553	0.0153285
812.631	0.0153265
812.709	0.0153960
812.788	0.0155186
812.866	0.0152357
812.944	0.0153959
813.022	0.0154613
813.100	0.0154709
813.178	0.0155678
813.256	0.0153617
813.334	0.0154756
813.413	0.0155077
813.491	0.0155042
813.569	0.0153756
813.647	0.0153292
813.725	0.0154197
813.803	0.0153850
813.881	0.0156746
813.959	0.0156438
814.038	0.0157085
814.116	0.0155689
814.194	0.0157076
814.272	0.0157330
814.350	0.0155777
814.428	0.0155903
814.506	0.0155454
814.584	0.0155708
814.663	0.0156958
814.741	0.0157468
814.819	0.0156638
814.897	0.0154617
814.975	0.0156182
815.053	0.0153871
815.131	0.0153997
815.209	0.0157207
815.288	0.0154907
815.366	0.0153787
815.444	0.0154337
815.522	0.0154006
815.600	0.0154580
815.678	0.0153461
815.756	0.0153445
815.834	0.0154707
815.913	0.0153664
815.991	0.0153775
816.069	0.0153748
816.147	0.0154456
816.225	0.0154888
816.303	0.0155376
816.381	0.0155373
816.459	0.0155653
816.538	0.0155921
816.616	0.0156420
816.694	0.0155251
816.772	0.0157003
816.850	0.0156934
816.928	0.0156487
817.006	0.0155826
817.084	0.0156526
817.163	0.0156810
817.241	0.0156280
817.319	0.0155952
817.397	0.0155106
817.475	0.0156570
817.553	0.0154921
817.631	0.0155537
817.709	0.0154616
817.788	0.0154887
817.866	0.0155030
817.944	0.0152858
818.022	0.0152637
818.100	0.0153437
818.178	0.0152986
818.256	0.0152513
818.334	0.0152997
818.413	0.0151114
818.491	0.0153069
818.569	0.0152007
818.647	0.0152496
818.725	0.0151608
818.803	0.0152849
818.881	0.0152525
818.959	0.0151904
819.038	0.0152800
819.116	0.0153345
819.194	0.0154302
819.272	0.0153503
819.350	0.0152834
819.428	0.0154061
819.506	0.0154937
819.584	0.0154213
819.663	0.0154578
819.741	0.0155913
819.819	0.0154634
819.897	0.0154709
819.975	0.0154472
820.053	0.0154917
820.131	0.0156175
820.209	0.0155309
820.288	0.0153972
820.366	0.0154678
820.444	0.0156316
820.522	0.0155453
820.600	0.0155009
820.678	0.0155890
820.756	0.0155400
820.834	0.0155350
820.913	0.0155595
820.991	0.0155947
821.069	0.0156427
821.147	0.0155785
821.225	0.0157275
821.303	0.0155139
821.381	0.0155319
821.459	0.0157439
821.538	0.0156479
821.616	0.0155758
821.694	0.0155653
821.772	0.0156954
821.850	0.0156403
821.928	0.0155580
822.006	0.0155846
822.084	0.0155547
822.163	0.0154769
822.241	0.0155594
822.319	0.0155143
822.397	0.0156106
822.475	0.0154477
822.553	0.0154556
822.631	0.0154753
822.709	0.0156185
822.788	0.0154932
822.866	0.0155695
822.944	0.0154325
823.022	0.0154575
823.100	0.0154675
823.178	0.0154276
823.256	0.0154072
823.334	0.0153363
823.413	0.0155163
823.491	0.0154952
823.569	0.0153268
823.647	0.0154617
823.725	0.0154895
823.803	0.0153908
823.881	0.0154058
823.959	0.0153826
824.038	0.0154859
824.116	0.0154628
824.194	0.0154239
824.272	0.0153374
824.350	0.0153269
824.428	0.0153577
824.506	0.0153699
824.584	0.0153294
824.663	0.0153249
824.741	0.0153435
824.819	0.0154184
824.897	0.0154092
824.975	0.0154287
825.053	0.0153494
825.131	0.0154779
825.209	0.0154973
825.288	0.0155643
825.366	0.0155312
825.444	0.0155057
825.522	0.0154768
825.600	0.0155773
825.678	0.0156973
825.756	0.0156992
825.834	0.0156567
825.913	0.0155696
825.991	0.0156199
826.069	0.0155653
826.147	0.0156834
826.225	0.0156547
826.303	0.0156018
826.381	0.0156811
826.459	0.0157703
826.538	0.0156980
826.616	0.0155337
826.694	0.0156306
826.772	0.0155241
826.850	0.0156441
826.928	0.0155285
827.006	0.0155170
827.084	0.0154818
827.163	0.0155419
827.241	0.0154359
827.319	0.0154479
827.397	0.0154540
827.475	0.0153091
827.553	0.0153185
827.631	0.0153017
827.709	0.0152281
827.788	0.0153843
827.866	0.0152994
827.944	0.0152853
828.022	0.0153091
828.100	0.0153454
828.178	0.0152554
828.256	0.0153123
828.334	0.0151513
828.413	0.0152377
828.491	0.0152938
828.569	0.0152969
828.647	0.0152522
828.725	0.0153666
828.803	0.0153261
828.881	0.0152905
828.959	0.0153384
829.038	0.0153720
829.116	0.0153171
829.194	0.0153597
829.272	0.0154025
829.350	0.0155432
829.428	0.0155016
829.506	0.0154712
829.584	0.0155932
829.663	0.0156430
829.741	0.0154555
829.819	0.0153732
829.897	0.0154963
829.975	0.0156322
830.053	0.0155473
830.131	0.0156004
830.209	0.0156831
830.288	0.0155420
830.366	0.0155798
830.444	0.0156359
830.522	0.0157686
830.600	0.0154634
830.678	0.0155475
830.756	0.0155854
830.834	0.0155515
830.913	0.0155116
830.991	0.0155727
831.069	0.0156841
831.147	0.0156175
831.225	0.0155206
831.303	0.0155607
831.381	0.0155503
831.459	0.0155125
831.538	0.0155061
831.616	0.0155240
831.694	0.0154337
831.772	0.0154910
831.850	0.0154562
831.928	0.0154836
832.006	0.0154609
832.084	0.0154510
832.163	0.0155856
832.241	0.0154209
832.319	0.0154083
832.397	0.0154152
832.475	0.0155538
832.553	0.0155434
832.631	0.0153527
832.709	0.0154852
832.788	0.0155826
832.866	0.0154881
832.944	0.0155273
833.022	0.0154571
833.100	0.0155682
833.178	0.0155317
833.256	0.0155560
833.334	0.0154884
833.413	0.0154701
833.491	0.0155490
833.569	0.0155596
833.647	0.0155838
833.725	0.0156254
833.803	0.0155573
833.881	0.0154904
833.959	0.0156126
834.038	0.0155551
834.116	0.0155770
834.194	0.0154852
834.272	0.0154893
834.350	0.0155157
834.428	0.0154070
834.506	0.0154136
834.584	0.0155708
834.663	0.0154435
834.741	0.0155801
834.819	0.0154958
834.897	0.0153151
834.975	0.0155102
835.053	0.0154893
835.131	0.0153773
835.209	0.0155201
835.288	0.0153954
835.366	0.0153178
835.444	0.0154285
835.522	0.0153598
835.600	0.0154376
835.678	0.0152930
835.756	0.0153219
835.834	0.0154272
835.913	0.0155215
835.991	0.0153099
836.069	0.0153423
836.147	0.0153577
836.225	0.0154268
836.303	0.0154914
836.381	0.0155058
836.459	0.0154750
836.538	0.0154452
836.616	0.0155116
836.694	0.0154302
836.772	0.0156252
836.850	0.0155401
836.928	0.0154985
837.006	0.0155948
837.084	0.0155612
837.163	0.0155286
837.241	0.0156183
837.319	0.0158065
837.397	0.0156292
837.475	0.0156012
837.553	0.0156979
837.631	0.0155409
837.709	0.0154929
837.788	0.0156130
837.866	0.0156040
837.944	0.0154251
838.022	0.0154887
838.100	0.0153109
838.178	0.0154749
838.256	0.0153416
838.334	0.0153516
838.413	0.0154451
838.491	0.0153640
838.569	0.0154591
838.647	0.0152665
838.725	0.0154966
838.803	0.0153579
838.881	0.0153699
838.959	0.0153149
839.038	0.0152428
839.116	0.0154374
839.194	0.0152988
839.272	0.0152990
839.350	0.0153882
839.428	0.0153582
839.506	0.0153100
839.584	0.0153423
839.663	0.0153356
839.741	0.0153229
839.819	0.0151610
839.897	0.0152812
839.975	0.0153602
840.053	0.0152821
840.131	0.0153098
840.209	0.0152942
840.288	0.0152568
840.366	0.0152997
840.444	0.0154054
840.522	0.0153959
840.600	0.0155462
840.678	0.0153419
840.756	0.0153584
840.834	0.0153632
840.913	0.0154208
840.991	0.0153069
841.069	0.0154150
841.147	0.0154442
841.225	0.0153149
841.303	0.0153421
841.381	0.0155313
841.459	0.0154481
841.538	0.0153905
841.616	0.0155637
841.694	0.0152717
841.772	0.0152878
841.850	0.0153373
841.928	0.0155055
842.006	0.0154814
842.084	0.0154733
842.163	0.0155614
842.241	0.0154989
842.319	0.0154961
842.397	0.0154733
842.475	0.0155151
842.553	0.0154147
842.631	0.0154217
842.709	0.0154556
842.788	0.0155313
842.866	0.0154844
842.944	0.0155403
843.022	0.0153825
843.100	0.0154785
843.178	0.0154944
843.256	0.0154840
843.334	0.0153685
843.413	0.0153307
843.491	0.0154909
843.569	0.0155843
843.647	0.0156149
843.725	0.0153654
843.803	0.0154501
843.881	0.0154340
843.959	0.0155085
844.038	0.0155388
844.116	0.0155289
844.194	0.0155698
844.272	0.0155943
844.350	0.0154396
844.428	0.0155460
844.506	0.0155466
844.584	0.0154874
844.663	0.0155698
844.741	0.0156089
844.819	0.0155385
844.897	0.0155520
844.975	0.0155707
845.053	0.0155552
845.131	0.0155679
845.209	0.0157815
845.288	0.0155747
845.366	0.0155499
845.444	0.0155742
845.522	0.0153036
845.600	0.0156411
845.678	0.0154594
845.756	0.0155730
845.834	0.0155174
845.913	0.0152900
845.991	0.0154689
846.069	0.0155506
846.147	0.0154633
846.225	0.0156107
846.303	0.0154118
846.381	0.0154911
846.459	0.0155906
846.538	0.0155591
846.616	0.0154737
846.694	0.0154460
846.772	0.0155156
846.850	0.0156200
846.928	0.0156242
847.006	0.0155945
847.084	0.0155891
847.163	0.0154668
847.241	0.0155550
847.319	0.0155840
847.397	0.0155359
847.475	0.0154157
847.553	0.0154736
847.631	0.0155585
847.709	0.0154710
847.788	0.0155684
847.866	0.0155401
847.944	0.0152885
848.022	0.0154443
848.100	0.0154674
848.178	0.0154869
848.256	0.0154566
848.334	0.0154501
848.413	0.0155573
848.491	0.0155489
848.569	0.0154687
848.647	0.0154470
848.725	0.0153297
848.803	0.0154375
848.881	0.0155186
848.959	0.0154748
849.038	0.0153844
849.116	0.0154305
849.194	0.0155948
849.272	0.0154018
849.350	0.0153928
849.428	0.0155293
849.506	0.0153189
849.584	0.0153394
849.663	0.0155290
849.741	0.0153584
849.819	0.0152702
849.897	0.0153824
849.975	0.0153329
850.053	0.0154581
850.131	0.0154111
850.209	0.0153991
850.288	0.0154175
850.366	0.0153247
850.444	0.0154385
850.522	0.0154073
850.600	0.0154579
850.678	0.0153660
850.756	0.0153976
850.834	0.0155199
850.913	0.0155145
850.991	0.0154721
851.069	0.0154555
851.147	0.0155704
851.225	0.0153854
851.303	0.0154225
851.381	0.0154173
851.459	0.0154987
851.538	0.0154037
851.616	0.0154597
851.694	0.0154784
851.772	0.0154398
851.850	0.0155389
851.928	0.0156883
852.006	0.0154198
852.084	0.0154544
852.163	0.0154270
852.241	0.0155209
852.319	0.0154662
852.397	0.0154459
852.475	0.0155074
852.553	0.0155171
852.631	0.0156184
852.709	0.0154903
852.788	0.0153692
852.866	0.0155340
852.944	0.0154496
853.022	0.0156031
853.100	0.0155389
853.178	0.0155272
853.256	0.0154832
853.334	0.0154620
853.413	0.0154482
853.491	0.0156394
853.569	0.0156286
853.647	0.0154897
853.725	0.0154376
853.803	0.0155235
853.881	0.0156379
853.959	0.0155103
854.038	0.0154391
854.116	0.0154037
854.194	0.0155356
854.272	0.0154939
854.350	0.0155115
854.428	0.0155146
854.506	0.0154849
854.584	0.0154798
854.663	0.0155940
854.741	0.0156322
854.819	0.0155195
854.897	0.0155350
854.975	0.0153911
855.053	0.0155253
855.131	0.0155479
855.209	0.0155330
855.288	0.0153970
855.366	0.0156000
855.444	0.0155350
855.522	0.0154235
855.600	0.0155956
855.678	0.0155782
855.756	0.0156010
855.834	0.0155322
855.913	0.0154745
855.991	0.0153701
856.069	0.0155202
856.147	0.0154672
856.225	0.0156236
856.303	0.0156120
856.381	0.0155115
856.459	0.0155851
856.538	0.0156528
856.616	0.0155826
856.694	0.0156439
856.772	0.0157123
856.850	0.0155624
856.928	0.0156544
857.006	0.0155289
857.084	0.0154933
857.163	0.0156691
857.241	0.0155836
857.319	0.0154527
857.397	0.0157411
857.475	0.0156449
857.553	0.0155529
857.631	0.0154699
857.709	0.0155370
857.788	0.0154810
857.866	0.0155698
857.944	0.0155495
858.022	0.0154156
858.100	0.0154256
858.178	0.0156445
858.256	0.0155559
858.334	0.0154292
858.413	0.0154518
858.491	0.0154827
858.569	0.0154368
858.647	0.0155263
858.725	0.0155262
858.803	0.0154898
858.881	0.0154159
858.959	0.0155872
859.038	0.0152814
859.116	0.0153986
859.194	0.0155070
859.272	0.0154115
859.350	0.0153763
859.428	0.0154532
859.506	0.0154272
859.584	0.0153823
859.663	0.0154338
859.741	0.0152992
859.819	0.0153156
859.897	0.0153140
859.975	0.0153351
860.053	0.0154539
860.131	0.0153888
860.209	0.0153425
860.288	0.0154686
860.366	0.0155009
860.444	0.0152858
860.522	0.0154958
860.600	0.0154353
860.678	0.0153693
860.756	0.0153352
860.834	0.0154399
860.913	0.0153905
860.991	0.0155693
861.069	0.0154259
861.147	0.0154462
861.225	0.0154299
861.303	0.0154249
861.381	0.0154497
861.459	0.0154456
861.538	0.0154823
861.616	0.0155184
861.694	0.0154887
861.772	0.0154634
861.850	0.0153725
861.928	0.0155607
862.006	0.0155634
862.084	0.0154633
862.163	0.0154204
862.241	0.0154963
862.319	0.0155917
862.397	0.0154514
862.475	0.0154531
862.553	0.0154418
862.631	0.0155530
862.709	0.0154917
862.788	0.0155125
862.866	0.0154868
862.944	0.0153589
863.022	0.0154704
863.100	0.0155524
863.178	0.0154602
863.256	0.0156178
863.334	0.0156445
863.413	0.0153560
863.491	0.0154562
863.569	0.0154801
863.647	0.0155774
863.725	0.0154095
863.803	0.0155305
863.881	0.0154904
863.959	0.0154851
864.038	0.0155284
864.116	0.0152953
864.194	0.0153394
864.272	0.0153595
864.350	0.0153706
864.428	0.0153857
864.506	0.0152706
864.584	0.0153133
864.663	0.0154889
864.741	0.0152985
864.819	0.0152956
864.897	0.0153708
864.975	0.0153368
865.053	0.0153510
865.131	0.0154903
865.209	0.0155777
865.288	0.0155194
865.366	0.0155309
865.444	0.0154584
865.522	0.0154559
865.600	0.0154388
865.678	0.0154887
865.756	0.0155532
865.834	0.0155811
865.913	0.0155852
865.991	0.0155682
866.069	0.0156145
866.147	0.0156095
866.225	0.0156141
866.303	0.0155864
866.381	0.0155979
866.459	0.0156258
866.538	0.0156844
866.616	0.0156708
866.694	0.0157677
866.772	0.0156408
866.850	0.0158003
866.928	0.0156847
867.006	0.0157120
867.084	0.0157542
867.163	0.0157224
867.241	0.0156996
867.319	0.0155179
867.397	0.0156361
867.475	0.0156792
867.553	0.0156110
867.631	0.0154623
867.709	0.0154699
867.788	0.0154208
867.866	0.0154595
867.944	0.0154563
868.022	0.0154666
868.100	0.0154976
868.178	0.0155141
868.256	0.0153792
868.334	0.0154678
868.413	0.0153974
868.491	0.0154243
868.569	0.0154473
868.647	0.0153062
868.725	0.0152467
868.803	0.0154593
868.881	0.0153094
868.959	0.0154542
869.038	0.0155238
869.116	0.0153147
869.194	0.0153038
869.272	0.0153045
869.350	0.0153043
869.428	0.0153070
869.506	0.0154912
869.584	0.0154470
869.663	0.0152500
869.741	0.0153908
869.819	0.0154333
869.897	0.0154353
869.975	0.0153257
870.053	0.0153083
870.131	0.0154668
870.209	0.0154309
870.288	0.0153767
870.366	0.0154533
870.444	0.0154267
870.522	0.0156120
870.600	0.0155007
870.678	0.0155616
870.756	0.0155811
870.834	0.0154724
870.913	0.0156109
870.991	0.0156252
871.069	0.0157036
871.147	0.0156620
871.225	0.0156022
871.303	0.0157294
871.381	0.0156335
871.459	0.0155296
871.538	0.0155572
871.616	0.0157133
871.694	0.0156776
871.772	0.0155663
871.850	0.0156335
871.928	0.0156472
872.006	0.0155626
872.084	0.0154779
872.163	0.0154530
872.241	0.0156041
872.319	0.0155600
872.397	0.0154380
872.475	0.0153901
872.553	0.0154065
872.631	0.0155235
872.709	0.0154265
872.788	0.0152505
872.866	0.0152306
872.944	0.0154324
873.022	0.0153391
873.100	0.0153284
873.178	0.0153284
873.256	0.0153827
873.334	0.0152895
873.413	0.0153036
873.491	0.0153460
873.569	0.0152675
873.647	0.0152525
873.725	0.0153777
873.803	0.0153727
873.881	0.0154328
873.959	0.0151721
874.038	0.0152625
874.116	0.0153962
874.194	0.0153856
874.272	0.0154823
874.350	0.0154161
874.428	0.0154003
874.506	0.0155512
874.584	0.0154876
874.663	0.0154713
874.741	0.0154452
874.819	0.0153450
874.897	0.0154112
874.975	0.0155266
875.053	0.0155943
875.131	0.0155450
875.209	0.0154238
875.288	0.0156063
875.366	0.0154640
875.444	0.0155170
875.522	0.0155291
875.600	0.0154900
875.678	0.0155694
875.756	0.0154223
875.834	0.0154257
875.913	0.0154902
875.991	0.0156569
876.069	0.0153550
876.147	0.0154028
876.225	0.0154839
876.303	0.0154134
876.381	0.0154343
876.459	0.0154852
876.538	0.0153004
876.616	0.0154007
876.694	0.0155460
876.772	0.0155629
876.850	0.0153152
876.928	0.0155257
877.006	0.0155125
877.084	0.0154774
877.163	0.0154946
877.241	0.0154314
877.319	0.0154565
877.397	0.0154412
877.475	0.0154591
877.553	0.0155920
877.631	0.0154010
877.709	0.0154002
877.788	0.0153812
877.866	0.0155307
877.944	0.0153561
878.022	0.0154065
878.100	0.0154114
878.178	0.0154013
878.256	0.0153902
878.334	0.0153175
878.413	0.0155097
878.491	0.0153526
878.569	0.0155402
878.647	0.0153898
878.725	0.0154790
878.803	0.0153843
878.881	0.0154991
878.959	0.0156196
879.038	0.0153188
879.116	0.0153698
879.194	0.0155028
879.272	0.0154813
879.350	0.0154902
879.428	0.0154812
879.506	0.0154268
879.584	0.0155549
879.663	0.0154424
879.741	0.0155183
879.819	0.0155305
879.897	0.0155543
879.975	0.0156458
880.053	0.0155340
880.131	0.0154449
880.209	0.0154749
880.288	0.0155504
880.366	0.0154202
880.444	0.0156167
880.522	0.0155216
880.600	0.0156018
880.678	0.0155761
880.756	0.0155487
880.834	0.0157876
880.913	0.0156371
880.991	0.0155847
881.069	0.0156032
881.147	0.0157079
881.225	0.0154520
881.303	0.0156654
881.381	0.0156764
881.459	0.0154428
881.538	0.0153926
881.616	0.0155238
881.694	0.0155677
881.772	0.0154243
881.850	0.0155058
881.928	0.0154922
882.006	0.0153529
882.084	0.0154572
882.163	0.0154742
882.241	0.0154681
882.319	0.0153959
882.397	0.0154098
882.475	0.0155051
882.553	0.0154075
882.631	0.0154888
882.709	0.0154665
882.788	0.0156742
882.866	0.0156226
882.944	0.0156026
883.022	0.0156668
883.100	0.0155790
883.178	0.0155552
883.256	0.0155467
883.334	0.0155422
883.413	0.0154890
883.491	0.0155481
883.569	0.0154984
883.647	0.0156032
883.725	0.0154739
883.803	0.0154815
883.881	0.0154827
883.959	0.0154436
884.038	0.0155005
884.116	0.0154767
884.194	0.0153474
884.272	0.0153940
884.350	0.0152688
884.428	0.0153650
884.506	0.0153815
884.584	0.0153496
884.663	0.0152718
884.741	0.0153358
884.819	0.0152573
884.897	0.0153836
884.975	0.0153382
885.053	0.0152943
885.131	0.0152805
885.209	0.0153797
885.288	0.0152603
885.366	0.0153194
885.444	0.0153423
885.522	0.0153374
885.600	0.0152220
885.678	0.0154371
885.756	0.0153584
885.834	0.0154594
885.913	0.0154657
885.991	0.0154134
886.069	0.0155285
886.147	0.0155249
886.225	0.0155486
886.303	0.0155878
886.381	0.0155260
886.459	0.0154316
886.538	0.0155685
886.616	0.0156004
886.694	0.0156348
886.772	0.0156174
886.850	0.0156451
886.928	0.0155914
887.006	0.0156285
887.084	0.0156133
887.163	0.0154498
887.241	0.0154945
887.319	0.0156094
887.397	0.0155999
887.475	0.0155997
887.553	0.0155607
887.631	0.0155146
887.709	0.0155579
887.788	0.0155112
887.866	0.0155434
887.944	0.0155397
888.022	0.0153423
888.100	0.0154636
888.178	0.0154046
888.256	0.0155376
888.334	0.0153941
888.413	0.0154749
888.491	0.0155965
888.569	0.0154127
888.647	0.0154869
888.725	0.0155370
888.803	0.0153242
888.881	0.0153789
888.959	0.0155069
889.038	0.0155396
889.116	0.0154401
889.194	0.0154000
889.272	0.0154460
889.350	0.0154050
889.428	0.0155128
889.506	0.0155211
889.584	0.0154343
889.663	0.0153913
889.741	0.0155669
889.819	0.0154951
889.897	0.0154512
889.975	0.0155523
890.053	0.0156355
890.131	0.0155576
890.209	0.0155724
890.288	0.0156362
890.366	0.0155681
890.444	0.0156145
890.522	0.0155259
890.600	0.0155222
890.678	0.0156096
890.756	0.0156805
890.834	0.0156200
890.913	0.0155737
890.991	0.0156570
891.069	0.0154575
891.147	0.0154884
891.225	0.0154558
891.303	0.0155682
891.381	0.0155830
891.459	0.0155730
891.538	0.0155917
891.616	0.0155940
891.694	0.0156126
891.772	0.0154929
891.850	0.0156150
891.928	0.0156459
892.006	0.0156517
892.084	0.0155093
892.163	0.0155862
892.241	0.0157658
892.319	0.0158151
892.397	0.0157047
892.475	0.0157100
892.553	0.0156485
892.631	0.0155909
892.709	0.0156194
892.788	0.0155541
892.866	0.0154999
892.944	0.0155136
893.022	0.0154710
893.100	0.0155704
893.178	0.0156149
893.256	0.0155133
893.334	0.0154510
893.413	0.0155129
893.491	0.0156347
893.569	0.0154579
893.647	0.0154415
893.725	0.0154317
893.803	0.0155877
893.881	0.0155034
893.959	0.0155386
894.038	0.0154906
894.116	0.0155534
894.194	0.0155513
894.272	0.0155528
894.350	0.0155325
894.428	0.0155459
894.506	0.0154870
894.584	0.0156094
894.663	0.0156342
894.741	0.0154692
894.819	0.0156330
894.897	0.0157498
894.975	0.0156721
895.053	0.0156078
895.131	0.0157207
895.209	0.0156759
895.288	0.0156322
895.366	0.0156750
895.444	0.0157050
895.522	0.0156219
895.600	0.0155155
895.678	0.0155782
895.756	0.0157173
895.834	0.0156348
895.913	0.0156537
895.991	0.0156517
896.069	0.0156179
896.147	0.0154602
896.225	0.0155242
896.303	0.0156448
896.381	0.0153411
896.459	0.0153393
896.538	0.0154202
896.616	0.0154022
896.694	0.0154295
896.772	0.0152366
896.850	0.0153130
896.928	0.0151955
897.006	0.0151376
897.084	0.0151575
897.163	0.0152319
897.241	0.0152534
897.319	0.0152004
897.397	0.0150391
897.475	0.0152373
897.553	0.0153030
897.631	0.0151932
897.709	0.0152824
897.788	0.0153518
897.866	0.0152999
897.944	0.0152600
898.022	0.0152401
898.100	0.0153742
898.178	0.0153800
898.256	0.0154295
898.334	0.0154668
898.413	0.0154784
898.491	0.0155205
898.569	0.0155358
898.647	0.0155403
898.725	0.0154907
898.803	0.0155769
898.881	0.0156931
898.959	0.0155284
899.038	0.0155681
899.116	0.0155416
899.194	0.0156303
899.272	0.0154344
899.350	0.0154907
899.428	0.0156000
899.506	0.0155011
899.584	0.0154971
899.663	0.0155574
899.741	0.0155350
899.819	0.0155165
899.897	0.0154694
899.975	0.0155795
900.053	0.0153457
900.131	0.0154074
900.209	0.0155637
900.288	0.0154137
900.366	0.0152969
900.444	0.0154418
900.522	0.0153510
900.600	0.0154803
900.678	0.0154239
900.756	0.0155288
900.834	0.0154968
900.913	0.0154330
900.991	0.0153452
901.069	0.0154220
901.147	0.0154033
901.225	0.0153582
901.303	0.0153469
901.381	0.0152360
901.459	0.0152095
901.538	0.0154575
901.616	0.0153870
901.694	0.0152747
901.772	0.0154443
901.850	0.0153994
901.928	0.0153042
902.006	0.0152477
902.084	0.0153455
902.163	0.0153347
902.241	0.0152413
902.319	0.0153367
902.397	0.0152927
902.475	0.0152959
902.553	0.0153938
902.631	0.0153329
902.709	0.0153822
902.788	0.0153781
902.866	0.0155553
902.944	0.0153899
903.022	0.0153684
903.100	0.0154086
903.178	0.0153568
903.256	0.0153973
903.334	0.0154048
903.413	0.0154245
903.491	0.0154391
903.569	0.0154746
903.647	0.0153261
903.725	0.0155614
903.803	0.0155190
903.881	0.0155226
903.959	0.0154906
904.038	0.0156008
904.116	0.0153717
904.194	0.0154225
904.272	0.0155389
904.350	0.0154704
904.428	0.0155545
904.506	0.0156261
904.584	0.0154997
904.663	0.0153651
904.741	0.0153687
904.819	0.0156388
904.897	0.0155514
904.975	0.0154220
905.053	0.0154285
905.131	0.0155009
905.209	0.0154547
905.288	0.0155407
905.366	0.0155999
905.444	0.0155254
905.522	0.0155752
905.600	0.0155037
905.678	0.0154944
905.756	0.0155290
905.834	0.0154997
905.913	0.0155917
905.991	0.0154255
906.069	0.0154635
906.147	0.0153447
906.225	0.0154456
906.303	0.0154578
906.381	0.0154998
906.459	0.0154134
906.538	0.0153928
906.616	0.0153648
906.694	0.0153925
906.772	0.0155188
906.850	0.0154033
906.928	0.0154082
907.006	0.0153613
907.084	0.0154767
907.163	0.0154624
907.241	0.0153835
907.319	0.0156068
907.397	0.0153825
907.475	0.0153785
907.553	0.0154874
907.631	0.0155711
907.709	0.0155521
907.788	0.0153404
907.866	0.0154785
907.944	0.0154573
908.022	0.0154736
908.100	0.0155762
908.178	0.0155322
908.256	0.0155534
908.334	0.0155332
908.413	0.0155821
908.491	0.0156989
908.569	0.0156676
908.647	0.0155264
908.725	0.0155109
908.803	0.0154981
908.881	0.0155826
908.959	0.0156942
909.038	0.0155997
909.116	0.0154642
909.194	0.0154031
909.272	0.0154785
909.350	0.0154979
909.428	0.0154792
909.506	0.0153970
909.584	0.0153588
909.663	0.0153281
909.741	0.0152854
909.819	0.0154053
909.897	0.0153883
909.975	0.0154661
910.053	0.0153307
910.131	0.0153526
910.209	0.0153560
910.288	0.0152885
910.366	0.0154358
910.444	0.0155293
910.522	0.0154654
910.600	0.0153656
910.678	0.0154570
910.756	0.0154680
910.834	0.0155485
910.913	0.0155267
910.991	0.0155045
911.069	0.0156198
911.147	0.0156274
911.225	0.0156241
911.303	0.0154558
911.381	0.0155528
911.459	0.0156007
911.538	0.0157296
911.616	0.0156299
911.694	0.0156097
911.772	0.0155682
911.850	0.0155385
911.928	0.0155312
912.006	0.0155931
912.084	0.0154803
912.163	0.0154187
912.241	0.0154912
912.319	0.0155476
912.397	0.0154830
912.475	0.0154551
912.553	0.0154392
912.631	0.0154083
912.709	0.0152782
912.788	0.0153337
912.866	0.0153767
912.944	0.0153107
913.022	0.0154094
913.100	0.0154495
913.178	0.0153677
913.256	0.0154144
913.334	0.0154661
913.413	0.0154408
913.491	0.0153722
913.569	0.0153873
913.647	0.0153979
913.725	0.0155839
913.803	0.0154388
913.881	0.0153915
913.959	0.0155759
914.038	0.0155480
914.116	0.0154354
914.194	0.0155476
914.272	0.0155342
914.350	0.0154283
914.428	0.0153793
914.506	0.0154324
914.584	0.0155525
914.663	0.0154711
914.741	0.0155854
914.819	0.0154898
914.897	0.0153336
914.975	0.0156747
915.053	0.0155060
915.131	0.0154555
915.209	0.0154730
915.288	0.0154816
915.366	0.0154576
915.444	0.0153989
915.522	0.0152741
915.600	0.0152747
915.678	0.0153461
915.756	0.0152939
915.834	0.0153573
915.913	0.0153753
915.991	0.0154057
916.069	0.0152983
916.147	0.0154002
916.225	0.0153292
916.303	0.0154060
916.381	0.0154153
916.459	0.0152957
916.538	0.0155367
916.616	0.0155654
916.694	0.0153124
916.772	0.0154817
916.850	0.0155059
916.928	0.0155595
917.006	0.0155041
917.084	0.0154884
917.163	0.0155480
917.241	0.0156183
917.319	0.0154690
917.397	0.0154137
917.475	0.0155742
917.553	0.0154793
917.631	0.0155589
917.709	0.0156019
917.788	0.0154935
917.866	0.0156525
917.944	0.0155426
918.022	0.0154416
918.100	0.0153015
918.178	0.0153492
918.256	0.0153806
918.334	0.0153163
918.413	0.0153288
918.491	0.0153636
918.569	0.0152970
918.647	0.0153587
918.725	0.0152477
918.803	0.0152817
918.881	0.0153912
918.959	0.0152174
919.038	0.0152712
919.116	0.0154128
919.194	0.0154192
919.272	0.0153169
919.350	0.0153957
919.428	0.0152959
919.506	0.0152618
919.584	0.0152810
919.663	0.0154855
919.741	0.0154430
919.819	0.0154086
919.897	0.0152847
