05/20/2022	21:31:35	Ver.	4.1	UNKNOWN
Optical Delay	599.975067	Delta X		0.078125	Sweeps	1	Scan Rate	0/0
Coordinates	Axis 1	NaN	Axis 2	NaN	Axis 3	NaN	Axis 4	NaN	Axis 5	NaN	Axis 6	0.000000
TX Power	0.000000	RX Power	0.000000

599.975	0.0156409
600.053	0.0156706
600.131	0.0156519
600.209	0.0156270
600.288	0.0157607
600.366	0.0156136
600.444	0.0157269
600.522	0.0156789
600.600	0.0154525
600.678	0.0157046
600.756	0.0157826
600.834	0.0157506
600.913	0.0157513
600.991	0.0156421
601.069	0.0157473
601.147	0.0156813
601.225	0.0157737
601.303	0.0156731
601.381	0.0157410
601.459	0.0157886
601.538	0.0158424
601.616	0.0157911
601.694	0.0155689
601.772	0.0157997
601.850	0.0157288
601.928	0.0158565
602.006	0.0157127
602.084	0.0157906
602.163	0.0158098
602.241	0.0156772
602.319	0.0156059
602.397	0.0157612
602.475	0.0157203
602.553	0.0156219
602.631	0.0157069
602.709	0.0157520
602.788	0.0156106
602.866	0.0157030
602.944	0.0156335
603.022	0.0157448
603.100	0.0158163
603.178	0.0155466
603.256	0.0155825
603.334	0.0156535
603.413	0.0155502
603.491	0.0155630
603.569	0.0155714
603.647	0.0155517
603.725	0.0156455
603.803	0.0155448
603.881	0.0156142
603.959	0.0157527
604.038	0.0156879
604.116	0.0156899
604.194	0.0157297
604.272	0.0157455
604.350	0.0157912
604.428	0.0157163
604.506	0.0157484
604.584	0.0157800
604.663	0.0157572
604.741	0.0157204
604.819	0.0156388
604.897	0.0158705
604.975	0.0158053
605.053	0.0156756
605.131	0.0157367
605.209	0.0157124
605.288	0.0157873
605.366	0.0157242
605.444	0.0157970
605.522	0.0157903
605.600	0.0157265
605.678	0.0157134
605.756	0.0157203
605.834	0.0157114
605.913	0.0158270
605.991	0.0158358
606.069	0.0157565
606.147	0.0157315
606.225	0.0157082
606.303	0.0156380
606.381	0.0158316
606.459	0.0157344
606.538	0.0156784
606.616	0.0156235
606.694	0.0156166
606.772	0.0157324
606.850	0.0156774
606.928	0.0157701
607.006	0.0158273
607.084	0.0158719
607.163	0.0157127
607.241	0.0156598
607.319	0.0156406
607.397	0.0158035
607.475	0.0157835
607.553	0.0157385
607.631	0.0157024
607.709	0.0158082
607.788	0.0157776
607.866	0.0156937
607.944	0.0156240
608.022	0.0156779
608.100	0.0156905
608.178	0.0157058
608.256	0.0157707
608.334	0.0157743
608.413	0.0157602
608.491	0.0157843
608.569	0.0157413
608.647	0.0157645
608.725	0.0158534
608.803	0.0156541
608.881	0.0158040
608.959	0.0158492
609.038	0.0157940
609.116	0.0159831
609.194	0.0158807
609.272	0.0158057
609.350	0.0157552
609.428	0.0157530
609.506	0.0157925
609.584	0.0160023
609.663	0.0158018
609.741	0.0158210
609.819	0.0160203
609.897	0.0158167
609.975	0.0158927
610.053	0.0158235
610.131	0.0157619
610.209	0.0156007
610.288	0.0158812
610.366	0.0158939
610.444	0.0158385
610.522	0.0158895
610.600	0.0157545
610.678	0.0155744
610.756	0.0158938
610.834	0.0158543
610.913	0.0157609
610.991	0.0157849
611.069	0.0157958
611.147	0.0158904
611.225	0.0159188
611.303	0.0157145
611.381	0.0156387
611.459	0.0157659
611.538	0.0159011
611.616	0.0158235
611.694	0.0159397
611.772	0.0156706
611.850	0.0157378
611.928	0.0158708
612.006	0.0158807
612.084	0.0157915
612.163	0.0158118
612.241	0.0158418
612.319	0.0158099
612.397	0.0158241
612.475	0.0158551
612.553	0.0158321
612.631	0.0157307
612.709	0.0157549
612.788	0.0159082
612.866	0.0158125
612.944	0.0156549
613.022	0.0157513
613.100	0.0157265
613.178	0.0156499
613.256	0.0159029
613.334	0.0157690
613.413	0.0157542
613.491	0.0158681
613.569	0.0157476
613.647	0.0156835
613.725	0.0157325
613.803	0.0157813
613.881	0.0157950
613.959	0.0154959
614.038	0.0157088
614.116	0.0158767
614.194	0.0158073
614.272	0.0157491
614.350	0.0157522
614.428	0.0157198
614.506	0.0156712
614.584	0.0156339
614.663	0.0155302
614.741	0.0156584
614.819	0.0155952
614.897	0.0156137
614.975	0.0156944
615.053	0.0156750
615.131	0.0155869
615.209	0.0157248
615.288	0.0157288
615.366	0.0157116
615.444	0.0156677
615.522	0.0155875
615.600	0.0156706
615.678	0.0156441
615.756	0.0157992
615.834	0.0156908
615.913	0.0156700
615.991	0.0156129
616.069	0.0156216
616.147	0.0157043
616.225	0.0156901
616.303	0.0156438
616.381	0.0156453
616.459	0.0157128
616.538	0.0156165
616.616	0.0156511
616.694	0.0156540
616.772	0.0156784
616.850	0.0155890
616.928	0.0156040
617.006	0.0155773
617.084	0.0156582
617.163	0.0156092
617.241	0.0156850
617.319	0.0155521
617.397	0.0156539
617.475	0.0156728
617.553	0.0157526
617.631	0.0154940
617.709	0.0155975
617.788	0.0156824
617.866	0.0155577
617.944	0.0156416
618.022	0.0155565
618.100	0.0155656
618.178	0.0155452
618.256	0.0155859
618.334	0.0154755
618.413	0.0154562
618.491	0.0154764
618.569	0.0155453
618.647	0.0155600
618.725	0.0155764
618.803	0.0156183
618.881	0.0155846
618.959	0.0155135
619.038	0.0153781
619.116	0.0154568
619.194	0.0155096
619.272	0.0157160
619.350	0.0156146
619.428	0.0157504
619.506	0.0156612
619.584	0.0155975
619.663	0.0156071
619.741	0.0155241
619.819	0.0158009
619.897	0.0157067
619.975	0.0157600
620.053	0.0155170
620.131	0.0155311
620.209	0.0156624
620.288	0.0156832
620.366	0.0157647
620.444	0.0157281
620.522	0.0155689
620.600	0.0156683
620.678	0.0158936
620.756	0.0157719
620.834	0.0156716
620.913	0.0157647
620.991	0.0156998
621.069	0.0156543
621.147	0.0156892
621.225	0.0158308
621.303	0.0158657
621.381	0.0156787
621.459	0.0158241
621.538	0.0158374
621.616	0.0157735
621.694	0.0158099
621.772	0.0157645
621.850	0.0157920
621.928	0.0157455
622.006	0.0158278
622.084	0.0157079
622.163	0.0157578
622.241	0.0156798
622.319	0.0159544
622.397	0.0157832
622.475	0.0158364
622.553	0.0157764
622.631	0.0156963
622.709	0.0158390
622.788	0.0157235
622.866	0.0157211
622.944	0.0158664
623.022	0.0157017
623.100	0.0157729
623.178	0.0156538
623.256	0.0157251
623.334	0.0158215
623.413	0.0157693
623.491	0.0158537
623.569	0.0158160
623.647	0.0157657
623.725	0.0156957
623.803	0.0157588
623.881	0.0158430
623.959	0.0158314
624.038	0.0158018
624.116	0.0158521
624.194	0.0158688
624.272	0.0156477
624.350	0.0157536
624.428	0.0158017
624.506	0.0156573
624.584	0.0157528
624.663	0.0157491
624.741	0.0156140
624.819	0.0157459
624.897	0.0156364
624.975	0.0156326
625.053	0.0156004
625.131	0.0155841
625.209	0.0156474
625.288	0.0156540
625.366	0.0157315
625.444	0.0155463
625.522	0.0156090
625.600	0.0157944
625.678	0.0156978
625.756	0.0157767
625.834	0.0156814
625.913	0.0156445
625.991	0.0157487
626.069	0.0156501
626.147	0.0156408
626.225	0.0157398
626.303	0.0157195
626.381	0.0156133
626.459	0.0157735
626.538	0.0156138
626.616	0.0157131
626.694	0.0157522
626.772	0.0156296
626.850	0.0157395
626.928	0.0157374
627.006	0.0157845
627.084	0.0155750
627.163	0.0156564
627.241	0.0158478
627.319	0.0158614
627.397	0.0157031
627.475	0.0156800
627.553	0.0156321
627.631	0.0158598
627.709	0.0157532
627.788	0.0157514
627.866	0.0157222
627.944	0.0156934
628.022	0.0156348
628.100	0.0155949
628.178	0.0156974
628.256	0.0157185
628.334	0.0156132
628.413	0.0157003
628.491	0.0157991
628.569	0.0157762
628.647	0.0156491
628.725	0.0156721
628.803	0.0157422
628.881	0.0156365
628.959	0.0156723
629.038	0.0156828
629.116	0.0156770
629.194	0.0156462
629.272	0.0156562
629.350	0.0155436
629.428	0.0154856
629.506	0.0156848
629.584	0.0155885
629.663	0.0156398
629.741	0.0156674
629.819	0.0156330
629.897	0.0157430
629.975	0.0158185
630.053	0.0157185
630.131	0.0155210
630.209	0.0156492
630.288	0.0157377
630.366	0.0157172
630.444	0.0157825
630.522	0.0157980
630.600	0.0156805
630.678	0.0156323
630.756	0.0156214
630.834	0.0156074
630.913	0.0156725
630.991	0.0155481
631.069	0.0156324
631.147	0.0155367
631.225	0.0155278
631.303	0.0155123
631.381	0.0156054
631.459	0.0155676
631.538	0.0155465
631.616	0.0154382
631.694	0.0155368
631.772	0.0156971
631.850	0.0156788
631.928	0.0156799
632.006	0.0156646
632.084	0.0154620
632.163	0.0155589
632.241	0.0155948
632.319	0.0155976
632.397	0.0155592
632.475	0.0154951
632.553	0.0155712
632.631	0.0155613
632.709	0.0155613
632.788	0.0157396
632.866	0.0157735
632.944	0.0157312
633.022	0.0155918
633.100	0.0156866
633.178	0.0157178
633.256	0.0157533
633.334	0.0157829
633.413	0.0158770
633.491	0.0157698
633.569	0.0157967
633.647	0.0157833
633.725	0.0158260
633.803	0.0157359
633.881	0.0157904
633.959	0.0158978
634.038	0.0156580
634.116	0.0156378
634.194	0.0158000
634.272	0.0158259
634.350	0.0157069
634.428	0.0157530
634.506	0.0157323
634.584	0.0156611
634.663	0.0156976
634.741	0.0157634
634.819	0.0158097
634.897	0.0157509
634.975	0.0158305
635.053	0.0157947
635.131	0.0157714
635.209	0.0156918
635.288	0.0157837
635.366	0.0157677
635.444	0.0157627
635.522	0.0157821
635.600	0.0157545
635.678	0.0157788
635.756	0.0158213
635.834	0.0159105
635.913	0.0157754
635.991	0.0159135
636.069	0.0158478
636.147	0.0159315
636.225	0.0158315
636.303	0.0158314
636.381	0.0159579
636.459	0.0157877
636.538	0.0157829
636.616	0.0158032
636.694	0.0157581
636.772	0.0157906
636.850	0.0157279
636.928	0.0159317
637.006	0.0158192
637.084	0.0158054
637.163	0.0157300
637.241	0.0157807
637.319	0.0159101
637.397	0.0156914
637.475	0.0157138
637.553	0.0157626
637.631	0.0157301
637.709	0.0157688
637.788	0.0156243
637.866	0.0158129
637.944	0.0157137
638.022	0.0156807
638.100	0.0156775
638.178	0.0155434
638.256	0.0156725
638.334	0.0157560
638.413	0.0155875
638.491	0.0155989
638.569	0.0156615
638.647	0.0155546
638.725	0.0156956
638.803	0.0154884
638.881	0.0155097
638.959	0.0154559
639.038	0.0155478
639.116	0.0155149
639.194	0.0154922
639.272	0.0154471
639.350	0.0153550
639.428	0.0156213
639.506	0.0155407
639.584	0.0154665
639.663	0.0154324
639.741	0.0155354
639.819	0.0154804
639.897	0.0154369
639.975	0.0153557
640.053	0.0153209
640.131	0.0155298
640.209	0.0154126
640.288	0.0154301
640.366	0.0155054
640.444	0.0154685
640.522	0.0154733
640.600	0.0154546
640.678	0.0153862
640.756	0.0154198
640.834	0.0156050
640.913	0.0154974
640.991	0.0153899
641.069	0.0153593
641.147	0.0154323
641.225	0.0154296
641.303	0.0153995
641.381	0.0154194
641.459	0.0154382
641.538	0.0152795
641.616	0.0154820
641.694	0.0153963
641.772	0.0153996
641.850	0.0155162
641.928	0.0153557
642.006	0.0153954
642.084	0.0154543
642.163	0.0154298
642.241	0.0154740
642.319	0.0154648
642.397	0.0154324
642.475	0.0154239
642.553	0.0155605
642.631	0.0154353
642.709	0.0154101
642.788	0.0155007
642.866	0.0156326
642.944	0.0154602
643.022	0.0155247
643.100	0.0156762
643.178	0.0156149
643.256	0.0155547
643.334	0.0154778
643.413	0.0154745
643.491	0.0154868
643.569	0.0154517
643.647	0.0155968
643.725	0.0157570
643.803	0.0156268
643.881	0.0155261
643.959	0.0155777
644.038	0.0156555
644.116	0.0157975
644.194	0.0156549
644.272	0.0155950
644.350	0.0156801
644.428	0.0156596
644.506	0.0156718
644.584	0.0156605
644.663	0.0156678
644.741	0.0156255
644.819	0.0155938
644.897	0.0155756
644.975	0.0158091
645.053	0.0156367
645.131	0.0156940
645.209	0.0157455
645.288	0.0156150
645.366	0.0157265
645.444	0.0156456
645.522	0.0156023
645.600	0.0157146
645.678	0.0157641
645.756	0.0156540
645.834	0.0156226
645.913	0.0156100
645.991	0.0157440
646.069	0.0156263
646.147	0.0156171
646.225	0.0156358
646.303	0.0155457
646.381	0.0156683
646.459	0.0157602
646.538	0.0156347
646.616	0.0156677
646.694	0.0156605
646.772	0.0155737
646.850	0.0155152
646.928	0.0156342
647.006	0.0157040
647.084	0.0157050
647.163	0.0157370
647.241	0.0156358
647.319	0.0156157
647.397	0.0155768
647.475	0.0156410
647.553	0.0157774
647.631	0.0157425
647.709	0.0157442
647.788	0.0157710
647.866	0.0157809
647.944	0.0156577
648.022	0.0155722
648.100	0.0158008
648.178	0.0158412
648.256	0.0157191
648.334	0.0157351
648.413	0.0157722
648.491	0.0157465
648.569	0.0158428
648.647	0.0158125
648.725	0.0156802
648.803	0.0157798
648.881	0.0158787
648.959	0.0159167
649.038	0.0158149
649.116	0.0157252
649.194	0.0157985
649.272	0.0158652
649.350	0.0158726
649.428	0.0155932
649.506	0.0159077
649.584	0.0157919
649.663	0.0157322
649.741	0.0158097
649.819	0.0158339
649.897	0.0157025
649.975	0.0157458
650.053	0.0158167
650.131	0.0158029
650.209	0.0157652
650.288	0.0156750
650.366	0.0157578
650.444	0.0158030
650.522	0.0157121
650.600	0.0157735
650.678	0.0157029
650.756	0.0156243
650.834	0.0157104
650.913	0.0157393
650.991	0.0157367
651.069	0.0158399
651.147	0.0156926
651.225	0.0156126
651.303	0.0158788
651.381	0.0158231
651.459	0.0156695
651.538	0.0157892
651.616	0.0157304
651.694	0.0156377
651.772	0.0157089
651.850	0.0157153
651.928	0.0157993
652.006	0.0157407
652.084	0.0157125
652.163	0.0157029
652.241	0.0158092
652.319	0.0157301
652.397	0.0157173
652.475	0.0155937
652.553	0.0157303
652.631	0.0154124
652.709	0.0154422
652.788	0.0156230
652.866	0.0156976
652.944	0.0155732
653.022	0.0155770
653.100	0.0155875
653.178	0.0155659
653.256	0.0155595
653.334	0.0155995
653.413	0.0157188
653.491	0.0157290
653.569	0.0156661
653.647	0.0156162
653.725	0.0156297
653.803	0.0156796
653.881	0.0157404
653.959	0.0156538
654.038	0.0155453
654.116	0.0157341
654.194	0.0155293
654.272	0.0155564
654.350	0.0155492
654.428	0.0154602
654.506	0.0155025
654.584	0.0154516
654.663	0.0152962
654.741	0.0153954
654.819	0.0154839
654.897	0.0153386
654.975	0.0153455
655.053	0.0152902
655.131	0.0152860
655.209	0.0153993
655.288	0.0154643
655.366	0.0153024
655.444	0.0153899
655.522	0.0155437
655.600	0.0153074
655.678	0.0154147
655.756	0.0155102
655.834	0.0155897
655.913	0.0157542
655.991	0.0156947
656.069	0.0157421
656.147	0.0157689
656.225	0.0157330
656.303	0.0158264
656.381	0.0156767
656.459	0.0157854
656.538	0.0157697
656.616	0.0157428
656.694	0.0157314
656.772	0.0157525
656.850	0.0157887
656.928	0.0156178
657.006	0.0155949
657.084	0.0155829
657.163	0.0154771
657.241	0.0154662
657.319	0.0154387
657.397	0.0154226
657.475	0.0153873
657.553	0.0152441
657.631	0.0152679
657.709	0.0152170
657.788	0.0151856
657.866	0.0152351
657.944	0.0151385
658.022	0.0152248
658.100	0.0151566
658.178	0.0151921
658.256	0.0152242
658.334	0.0151550
658.413	0.0151836
658.491	0.0153392
658.569	0.0153811
658.647	0.0153788
658.725	0.0154298
658.803	0.0154787
658.881	0.0155181
658.959	0.0155841
659.038	0.0156896
659.116	0.0156860
659.194	0.0157333
659.272	0.0156891
659.350	0.0157938
659.428	0.0159704
659.506	0.0159763
659.584	0.0160148
659.663	0.0159994
659.741	0.0158749
659.819	0.0159905
659.897	0.0158138
659.975	0.0157722
660.053	0.0157848
660.131	0.0158237
660.209	0.0156580
660.288	0.0156077
660.366	0.0156416
660.444	0.0154250
660.522	0.0152846
660.600	0.0151952
660.678	0.0152843
660.756	0.0153299
660.834	0.0149712
660.913	0.0151712
660.991	0.0150950
661.069	0.0149462
661.147	0.0150446
661.225	0.0152406
661.303	0.0151482
661.381	0.0151501
661.459	0.0151879
661.538	0.0152995
661.616	0.0153009
661.694	0.0152242
661.772	0.0154079
661.850	0.0153337
661.928	0.0155634
662.006	0.0155574
662.084	0.0155642
662.163	0.0157285
662.241	0.0157948
662.319	0.0158035
662.397	0.0157919
662.475	0.0159449
662.553	0.0158929
662.631	0.0159164
662.709	0.0159062
662.788	0.0158453
662.866	0.0158893
662.944	0.0160586
663.022	0.0158608
663.100	0.0157948
663.178	0.0159851
663.256	0.0159897
663.334	0.0159704
663.413	0.0158655
663.491	0.0157033
663.569	0.0156413
663.647	0.0156939
663.725	0.0156147
663.803	0.0157513
663.881	0.0157098
663.959	0.0155769
664.038	0.0155421
664.116	0.0155928
664.194	0.0157230
664.272	0.0155587
664.350	0.0154446
664.428	0.0155274
664.506	0.0155708
664.584	0.0156147
664.663	0.0155590
664.741	0.0155523
664.819	0.0155439
664.897	0.0155858
664.975	0.0157073
665.053	0.0156522
665.131	0.0156273
665.209	0.0156869
665.288	0.0156840
665.366	0.0156884
665.444	0.0157804
665.522	0.0156427
665.600	0.0156347
665.678	0.0155061
665.756	0.0154634
665.834	0.0155016
665.913	0.0155830
665.991	0.0154230
666.069	0.0153289
666.147	0.0154951
666.225	0.0154820
666.303	0.0154603
666.381	0.0152232
666.459	0.0152596
666.538	0.0153274
666.616	0.0153179
666.694	0.0155013
666.772	0.0153855
666.850	0.0154281
666.928	0.0154111
667.006	0.0155066
667.084	0.0154797
667.163	0.0154778
667.241	0.0155544
667.319	0.0156679
667.397	0.0156337
667.475	0.0156705
667.553	0.0157260
667.631	0.0158203
667.709	0.0156863
667.788	0.0157040
667.866	0.0157150
667.944	0.0156141
668.022	0.0156403
668.100	0.0157635
668.178	0.0157167
668.256	0.0158931
668.334	0.0157291
668.413	0.0158097
668.491	0.0156800
668.569	0.0157146
668.647	0.0158009
668.725	0.0157658
668.803	0.0157837
668.881	0.0158364
668.959	0.0157806
669.038	0.0158324
669.116	0.0158380
669.194	0.0159097
669.272	0.0159842
669.350	0.0158012
669.428	0.0158846
669.506	0.0159198
669.584	0.0157990
669.663	0.0156989
669.741	0.0158066
669.819	0.0157097
669.897	0.0156804
669.975	0.0156821
670.053	0.0158237
670.131	0.0155439
670.209	0.0157465
670.288	0.0155609
670.366	0.0155767
670.444	0.0153902
670.522	0.0153180
670.600	0.0154408
670.678	0.0154027
670.756	0.0153369
670.834	0.0152885
670.913	0.0153261
670.991	0.0153322
671.069	0.0151314
671.147	0.0151788
671.225	0.0150989
671.303	0.0151779
671.381	0.0152111
671.459	0.0151654
671.538	0.0151126
671.616	0.0151947
671.694	0.0152583
671.772	0.0152472
671.850	0.0153461
671.928	0.0153469
672.006	0.0154793
672.084	0.0155260
672.163	0.0156539
672.241	0.0156076
672.319	0.0156062
672.397	0.0156843
672.475	0.0158103
672.553	0.0157459
672.631	0.0156522
672.709	0.0158424
672.788	0.0159206
672.866	0.0158355
672.944	0.0158817
673.022	0.0157359
673.100	0.0159309
673.178	0.0159078
673.256	0.0159060
673.334	0.0160073
673.413	0.0160059
673.491	0.0161801
673.569	0.0160567
673.647	0.0159778
673.725	0.0159106
673.803	0.0160288
673.881	0.0159600
673.959	0.0162307
674.038	0.0161764
674.116	0.0162032
674.194	0.0162218
674.272	0.0163156
674.350	0.0162939
674.428	0.0163759
674.506	0.0164056
674.584	0.0162909
674.663	0.0163915
674.741	0.0166882
674.819	0.0164467
674.897	0.0162836
674.975	0.0164434
675.053	0.0164206
675.131	0.0163823
675.209	0.0161229
675.288	0.0162285
675.366	0.0161610
675.444	0.0161252
675.522	0.0160255
675.600	0.0157893
675.678	0.0157350
675.756	0.0156104
675.834	0.0155969
675.913	0.0153648
675.991	0.0152244
676.069	0.0152380
676.147	0.0151354
676.225	0.0148756
676.303	0.0148435
676.381	0.0147626
676.459	0.0147320
676.538	0.0145953
676.616	0.0144959
676.694	0.0145466
676.772	0.0144117
676.850	0.0143952
676.928	0.0143295
677.006	0.0144279
677.084	0.0144483
677.163	0.0145269
677.241	0.0145184
677.319	0.0147390
677.397	0.0149092
677.475	0.0150047
677.553	0.0151865
677.631	0.0153426
677.709	0.0154585
677.788	0.0154539
677.866	0.0156818
677.944	0.0159798
678.022	0.0161137
678.100	0.0162300
678.178	0.0163208
678.256	0.0165231
678.334	0.0165015
678.413	0.0166114
678.491	0.0167728
678.569	0.0167002
678.647	0.0168813
678.725	0.0168933
678.803	0.0168154
678.881	0.0167995
678.959	0.0167057
679.038	0.0166524
679.116	0.0164597
679.194	0.0162971
679.272	0.0162686
679.350	0.0161916
679.428	0.0160038
679.506	0.0158310
679.584	0.0157954
679.663	0.0157097
679.741	0.0154590
679.819	0.0153771
679.897	0.0152283
679.975	0.0149968
680.053	0.0148307
680.131	0.0150124
680.209	0.0149377
680.288	0.0148846
680.366	0.0147467
680.444	0.0148001
680.522	0.0146889
680.600	0.0147936
680.678	0.0146947
680.756	0.0146717
680.834	0.0147141
680.913	0.0148148
680.991	0.0147478
681.069	0.0147820
681.147	0.0149707
681.225	0.0149236
681.303	0.0151524
681.381	0.0151163
681.459	0.0151153
681.538	0.0152417
681.616	0.0153124
681.694	0.0154682
681.772	0.0153745
681.850	0.0155607
681.928	0.0155466
682.006	0.0156229
682.084	0.0155560
682.163	0.0157518
682.241	0.0156860
682.319	0.0158128
682.397	0.0157474
682.475	0.0160543
682.553	0.0158427
682.631	0.0157407
682.709	0.0158538
682.788	0.0159504
682.866	0.0160017
682.944	0.0159921
683.022	0.0158179
683.100	0.0160058
683.178	0.0159058
683.256	0.0158060
683.334	0.0159709
683.413	0.0160938
683.491	0.0159972
683.569	0.0160018
683.647	0.0160667
683.725	0.0159156
683.803	0.0160695
683.881	0.0161551
683.959	0.0161192
684.038	0.0160075
684.116	0.0160155
684.194	0.0159108
684.272	0.0159506
684.350	0.0159550
684.428	0.0158925
684.506	0.0159039
684.584	0.0158650
684.663	0.0158071
684.741	0.0158376
684.819	0.0158417
684.897	0.0155797
684.975	0.0156232
685.053	0.0154100
685.131	0.0154010
685.209	0.0152623
685.288	0.0151256
685.366	0.0151516
685.444	0.0149720
685.522	0.0149582
685.600	0.0147923
685.678	0.0148853
685.756	0.0146001
685.834	0.0148856
685.913	0.0146162
685.991	0.0146989
686.069	0.0148546
686.147	0.0150224
686.225	0.0150101
686.303	0.0150517
686.381	0.0150539
686.459	0.0153716
686.538	0.0154636
686.616	0.0156736
686.694	0.0158259
686.772	0.0158588
686.850	0.0159089
686.928	0.0160674
687.006	0.0161140
687.084	0.0161115
687.163	0.0164893
687.241	0.0164291
687.319	0.0163351
687.397	0.0162105
687.475	0.0162673
687.553	0.0164308
687.631	0.0163358
687.709	0.0162291
687.788	0.0161621
687.866	0.0161954
687.944	0.0161897
688.022	0.0160743
688.100	0.0160965
688.178	0.0162206
688.256	0.0160379
688.334	0.0157861
688.413	0.0158809
688.491	0.0158492
688.569	0.0157182
688.647	0.0155546
688.725	0.0155162
688.803	0.0152309
688.881	0.0151582
688.959	0.0151970
689.038	0.0150171
689.116	0.0149931
689.194	0.0148176
689.272	0.0149511
689.350	0.0148770
689.428	0.0148608
689.506	0.0147050
689.584	0.0148807
689.663	0.0149023
689.741	0.0149213
689.819	0.0151823
689.897	0.0151385
689.975	0.0152027
690.053	0.0153936
690.131	0.0153906
690.209	0.0155007
690.288	0.0155827
690.366	0.0157139
690.444	0.0158435
690.522	0.0159615
690.600	0.0160267
690.678	0.0159946
690.756	0.0161140
690.834	0.0162400
690.913	0.0162195
690.991	0.0162148
691.069	0.0162968
691.147	0.0163715
691.225	0.0163534
691.303	0.0164009
691.381	0.0163999
691.459	0.0162031
691.538	0.0161288
691.616	0.0162115
691.694	0.0161716
691.772	0.0159795
691.850	0.0160152
691.928	0.0159747
692.006	0.0159201
692.084	0.0159115
692.163	0.0158118
692.241	0.0155173
692.319	0.0155249
692.397	0.0156026
692.475	0.0155222
692.553	0.0154881
692.631	0.0153957
692.709	0.0154884
692.788	0.0152779
692.866	0.0151786
692.944	0.0153162
693.022	0.0151937
693.100	0.0151090
693.178	0.0151899
693.256	0.0152322
693.334	0.0151711
693.413	0.0152671
693.491	0.0153759
693.569	0.0153939
693.647	0.0155243
693.725	0.0154599
693.803	0.0155474
693.881	0.0157867
693.959	0.0159282
694.038	0.0160574
694.116	0.0161314
694.194	0.0160627
694.272	0.0164413
694.350	0.0165011
694.428	0.0165102
694.506	0.0166898
694.584	0.0168001
694.663	0.0167473
694.741	0.0168674
694.819	0.0167802
694.897	0.0168707
694.975	0.0168935
695.053	0.0168733
695.131	0.0166859
695.209	0.0166743
695.288	0.0165623
695.366	0.0164977
695.444	0.0164476
695.522	0.0163116
695.600	0.0163017
695.678	0.0162999
695.756	0.0159284
695.834	0.0159470
695.913	0.0156947
695.991	0.0156283
696.069	0.0155879
696.147	0.0156419
696.225	0.0153730
696.303	0.0152513
696.381	0.0151084
696.459	0.0149610
696.538	0.0146780
696.616	0.0146857
696.694	0.0145575
696.772	0.0143961
696.850	0.0142748
696.928	0.0143149
697.006	0.0142833
697.084	0.0141711
697.163	0.0140894
697.241	0.0141232
697.319	0.0141450
697.397	0.0142548
697.475	0.0143431
697.553	0.0143420
697.631	0.0145478
697.709	0.0147914
697.788	0.0148711
697.866	0.0151371
697.944	0.0153158
698.022	0.0155647
698.100	0.0157051
698.178	0.0158384
698.256	0.0161300
698.334	0.0161816
698.413	0.0163513
698.491	0.0164502
698.569	0.0165778
698.647	0.0166431
698.725	0.0167411
698.803	0.0167879
698.881	0.0167882
698.959	0.0167937
699.038	0.0169939
699.116	0.0166679
699.194	0.0168491
699.272	0.0169524
699.350	0.0168921
699.428	0.0167965
699.506	0.0166514
699.584	0.0168561
699.663	0.0169056
699.741	0.0168837
699.819	0.0166593
699.897	0.0168176
699.975	0.0166982
700.053	0.0166090
700.131	0.0168093
700.209	0.0168213
700.288	0.0165723
700.366	0.0165564
700.444	0.0166292
700.522	0.0164108
700.600	0.0164746
700.678	0.0162149
700.756	0.0163937
700.834	0.0163195
700.913	0.0162010
700.991	0.0158246
701.069	0.0155897
701.147	0.0155848
701.225	0.0154440
701.303	0.0153887
701.381	0.0151351
701.459	0.0150969
701.538	0.0149905
701.616	0.0146765
701.694	0.0146178
701.772	0.0144851
701.850	0.0144598
701.928	0.0143092
702.006	0.0143645
702.084	0.0142104
702.163	0.0141260
702.241	0.0141225
702.319	0.0141340
702.397	0.0141653
702.475	0.0142048
702.553	0.0141040
702.631	0.0141851
702.709	0.0143099
702.788	0.0143771
702.866	0.0145419
702.944	0.0147248
703.022	0.0148195
703.100	0.0149634
703.178	0.0153421
703.256	0.0154324
703.334	0.0156518
703.413	0.0157896
703.491	0.0160548
703.569	0.0163495
703.647	0.0165294
703.725	0.0166198
703.803	0.0168368
703.881	0.0170892
703.959	0.0171958
704.038	0.0172633
704.116	0.0174348
704.194	0.0173288
704.272	0.0173756
704.350	0.0175101
704.428	0.0174641
704.506	0.0175433
704.584	0.0175504
704.663	0.0172896
704.741	0.0172933
704.819	0.0170567
704.897	0.0170469
704.975	0.0168485
705.053	0.0166029
705.131	0.0164718
705.209	0.0164564
705.288	0.0161266
705.366	0.0158486
705.444	0.0157530
705.522	0.0155587
705.600	0.0154382
705.678	0.0153745
705.756	0.0150782
705.834	0.0150069
705.913	0.0149118
705.991	0.0147493
706.069	0.0147535
706.147	0.0146635
706.225	0.0146224
706.303	0.0146234
706.381	0.0145999
706.459	0.0144553
706.538	0.0146332
706.616	0.0147445
706.694	0.0147370
706.772	0.0148620
706.850	0.0149183
706.928	0.0151290
707.006	0.0153179
707.084	0.0153020
707.163	0.0154559
707.241	0.0156251
707.319	0.0157076
707.397	0.0157213
707.475	0.0159187
707.553	0.0159690
707.631	0.0160751
707.709	0.0158085
707.788	0.0157845
707.866	0.0158246
707.944	0.0158306
708.022	0.0157464
708.100	0.0157074
708.178	0.0156226
708.256	0.0153532
708.334	0.0152194
708.413	0.0153358
708.491	0.0151984
708.569	0.0150498
708.647	0.0147816
708.725	0.0149506
708.803	0.0149895
708.881	0.0148458
708.959	0.0150518
709.038	0.0149699
709.116	0.0150420
709.194	0.0150453
709.272	0.0152577
709.350	0.0153031
709.428	0.0155038
709.506	0.0154499
709.584	0.0154934
709.663	0.0156990
709.741	0.0158199
709.819	0.0158858
709.897	0.0159025
709.975	0.0160347
710.053	0.0160764
710.131	0.0162350
710.209	0.0160915
710.288	0.0162665
710.366	0.0162756
710.444	0.0164446
710.522	0.0163634
710.600	0.0163589
710.678	0.0163335
710.756	0.0163363
710.834	0.0161914
710.913	0.0160284
710.991	0.0159879
711.069	0.0160367
711.147	0.0160454
711.225	0.0157799
711.303	0.0157739
711.381	0.0155918
711.459	0.0156926
711.538	0.0156313
711.616	0.0154651
711.694	0.0154378
711.772	0.0153763
711.850	0.0154320
711.928	0.0151334
712.006	0.0152847
712.084	0.0151326
712.163	0.0151149
712.241	0.0151167
712.319	0.0151781
712.397	0.0150122
712.475	0.0149036
712.553	0.0149612
712.631	0.0151167
712.709	0.0149855
712.788	0.0150362
712.866	0.0150996
712.944	0.0152300
713.022	0.0153604
713.100	0.0155099
713.178	0.0155083
713.256	0.0155080
713.334	0.0156581
713.413	0.0156746
713.491	0.0157650
713.569	0.0160574
713.647	0.0161125
713.725	0.0161848
713.803	0.0162217
713.881	0.0163803
713.959	0.0164975
714.038	0.0164787
714.116	0.0165768
714.194	0.0167754
714.272	0.0167137
714.350	0.0166959
714.428	0.0168243
714.506	0.0168288
714.584	0.0166689
714.663	0.0167692
714.741	0.0167725
714.819	0.0167901
714.897	0.0165491
714.975	0.0165333
715.053	0.0164828
715.131	0.0162681
715.209	0.0161916
715.288	0.0160531
715.366	0.0159431
715.444	0.0159093
715.522	0.0157740
715.600	0.0156606
715.678	0.0155550
715.756	0.0153874
715.834	0.0153149
715.913	0.0149400
715.991	0.0151336
716.069	0.0149474
716.147	0.0150632
716.225	0.0150713
716.303	0.0149851
716.381	0.0150425
716.459	0.0149857
716.538	0.0149128
716.616	0.0148647
716.694	0.0150196
716.772	0.0151919
716.850	0.0152967
716.928	0.0154924
717.006	0.0155164
717.084	0.0155347
717.163	0.0158250
717.241	0.0158463
717.319	0.0159105
717.397	0.0161927
717.475	0.0163117
717.553	0.0164248
717.631	0.0162115
717.709	0.0161657
717.788	0.0164393
717.866	0.0164762
717.944	0.0164896
718.022	0.0163633
718.100	0.0163981
718.178	0.0163876
718.256	0.0161989
718.334	0.0162497
718.413	0.0161066
718.491	0.0160951
718.569	0.0160437
718.647	0.0160507
718.725	0.0159280
718.803	0.0158640
718.881	0.0160838
718.959	0.0161304
719.038	0.0160407
719.116	0.0158881
719.194	0.0159322
719.272	0.0160533
719.350	0.0159755
719.428	0.0160593
719.506	0.0160976
719.584	0.0161082
719.663	0.0160084
719.741	0.0160248
719.819	0.0161134
719.897	0.0160652
719.975	0.0159428
720.053	0.0158217
720.131	0.0157382
720.209	0.0157809
720.288	0.0157159
720.366	0.0155266
720.444	0.0155100
720.522	0.0154139
720.600	0.0152127
720.678	0.0152867
720.756	0.0152882
720.834	0.0151008
720.913	0.0150443
720.991	0.0149606
721.069	0.0149273
721.147	0.0149031
721.225	0.0149467
721.303	0.0147767
721.381	0.0146901
721.459	0.0147211
721.538	0.0147609
721.616	0.0146024
721.694	0.0146896
721.772	0.0146161
721.850	0.0147165
721.928	0.0149110
722.006	0.0148076
722.084	0.0148411
722.163	0.0150716
722.241	0.0150250
722.319	0.0152673
722.397	0.0154004
722.475	0.0155037
722.553	0.0157128
722.631	0.0160014
722.709	0.0159379
722.788	0.0161348
722.866	0.0162733
722.944	0.0163838
723.022	0.0164558
723.100	0.0166013
723.178	0.0167667
723.256	0.0167144
723.334	0.0168299
723.413	0.0169348
723.491	0.0169192
723.569	0.0168240
723.647	0.0166931
723.725	0.0166978
723.803	0.0168022
723.881	0.0166716
723.959	0.0165359
724.038	0.0163782
724.116	0.0162168
724.194	0.0160698
724.272	0.0159411
724.350	0.0159531
724.428	0.0157308
724.506	0.0156558
724.584	0.0154803
724.663	0.0154489
724.741	0.0151668
724.819	0.0152100
724.897	0.0152227
724.975	0.0150446
725.053	0.0151131
725.131	0.0150813
725.209	0.0150801
725.288	0.0149897
725.366	0.0149315
725.444	0.0150127
725.522	0.0150706
725.600	0.0151495
725.678	0.0152116
725.756	0.0153511
725.834	0.0152824
725.913	0.0153432
725.991	0.0153837
726.069	0.0154434
726.147	0.0155264
726.225	0.0157164
726.303	0.0157241
726.381	0.0158164
726.459	0.0158118
726.538	0.0157732
726.616	0.0158356
726.694	0.0156505
726.772	0.0156915
726.850	0.0157098
726.928	0.0156944
727.006	0.0156020
727.084	0.0155705
727.163	0.0154939
727.241	0.0156164
727.319	0.0154374
727.397	0.0154438
727.475	0.0153215
727.553	0.0152821
727.631	0.0153554
727.709	0.0153576
727.788	0.0153941
727.866	0.0152592
727.944	0.0152500
728.022	0.0153014
728.100	0.0154345
728.178	0.0153516
728.256	0.0155108
728.334	0.0153462
728.413	0.0153962
728.491	0.0156386
728.569	0.0155336
728.647	0.0155292
728.725	0.0157648
728.803	0.0157158
728.881	0.0156768
728.959	0.0157188
729.038	0.0156670
729.116	0.0157565
729.194	0.0159184
729.272	0.0159709
729.350	0.0160732
729.428	0.0161792
729.506	0.0161245
729.584	0.0163669
729.663	0.0163300
729.741	0.0163534
729.819	0.0165865
729.897	0.0166069
729.975	0.0167738
730.053	0.0167522
730.131	0.0166836
730.209	0.0166989
730.288	0.0167347
730.366	0.0168372
730.444	0.0165508
730.522	0.0164127
730.600	0.0163661
730.678	0.0161969
730.756	0.0163150
730.834	0.0160401
730.913	0.0159464
730.991	0.0158768
731.069	0.0155980
731.147	0.0154708
731.225	0.0153127
731.303	0.0151377
731.381	0.0149062
731.459	0.0148228
731.538	0.0148521
731.616	0.0146268
731.694	0.0144921
731.772	0.0143506
731.850	0.0142204
731.928	0.0142201
732.006	0.0142892
732.084	0.0141243
732.163	0.0140080
732.241	0.0142490
732.319	0.0140677
732.397	0.0141667
732.475	0.0142349
732.553	0.0143657
732.631	0.0146398
732.709	0.0146230
732.788	0.0146844
732.866	0.0146571
732.944	0.0151003
733.022	0.0152449
733.100	0.0153393
733.178	0.0154945
733.256	0.0155727
733.334	0.0156820
733.413	0.0159462
733.491	0.0160927
733.569	0.0162195
733.647	0.0163671
733.725	0.0165675
733.803	0.0166989
733.881	0.0168197
733.959	0.0168390
734.038	0.0169038
734.116	0.0168967
734.194	0.0169355
734.272	0.0169042
734.350	0.0168546
734.428	0.0168920
734.506	0.0169289
734.584	0.0167044
734.663	0.0167078
734.741	0.0166186
734.819	0.0164321
734.897	0.0163316
734.975	0.0161156
735.053	0.0161349
735.131	0.0159333
735.209	0.0159407
735.288	0.0157357
735.366	0.0156454
735.444	0.0154271
735.522	0.0152602
735.600	0.0152853
735.678	0.0151833
735.756	0.0150335
735.834	0.0149323
735.913	0.0150041
735.991	0.0148076
736.069	0.0149563
736.147	0.0150120
736.225	0.0150175
736.303	0.0150684
736.381	0.0151556
736.459	0.0151482
736.538	0.0151823
736.616	0.0153010
736.694	0.0153407
736.772	0.0154868
736.850	0.0154796
736.928	0.0155237
737.006	0.0158062
737.084	0.0156882
737.163	0.0157825
737.241	0.0158523
737.319	0.0158965
737.397	0.0158923
737.475	0.0157756
737.553	0.0159119
737.631	0.0160120
737.709	0.0159303
737.788	0.0159176
737.866	0.0159132
737.944	0.0157359
738.022	0.0156551
738.100	0.0158738
738.178	0.0158599
738.256	0.0156577
738.334	0.0155859
738.413	0.0155132
738.491	0.0155225
738.569	0.0153924
738.647	0.0153650
738.725	0.0154030
738.803	0.0154661
738.881	0.0154092
738.959	0.0153596
739.038	0.0154361
739.116	0.0154170
739.194	0.0154346
739.272	0.0155351
739.350	0.0154757
739.428	0.0155238
739.506	0.0155501
739.584	0.0156548
739.663	0.0157217
739.741	0.0158173
739.819	0.0158655
739.897	0.0158798
739.975	0.0160265
740.053	0.0160481
740.131	0.0161785
740.209	0.0162597
740.288	0.0160502
740.366	0.0161195
740.444	0.0161508
740.522	0.0162544
740.600	0.0160948
740.678	0.0159901
740.756	0.0160392
740.834	0.0158858
740.913	0.0157675
740.991	0.0158208
741.069	0.0159390
741.147	0.0157229
741.225	0.0155807
741.303	0.0153983
741.381	0.0154834
741.459	0.0153449
741.538	0.0153138
741.616	0.0153452
741.694	0.0152149
741.772	0.0152953
741.850	0.0153867
741.928	0.0151776
742.006	0.0151070
742.084	0.0151891
742.163	0.0151710
742.241	0.0152867
742.319	0.0152871
742.397	0.0153563
742.475	0.0152943
742.553	0.0152891
742.631	0.0153094
742.709	0.0154855
742.788	0.0153294
742.866	0.0153843
742.944	0.0154700
743.022	0.0156726
743.100	0.0154698
743.178	0.0155959
743.256	0.0155626
743.334	0.0154933
743.413	0.0156898
743.491	0.0156728
743.569	0.0157317
743.647	0.0157323
743.725	0.0157584
743.803	0.0157044
743.881	0.0158040
743.959	0.0157996
744.038	0.0159445
744.116	0.0161111
744.194	0.0160099
744.272	0.0161069
744.350	0.0160651
744.428	0.0160765
744.506	0.0161446
744.584	0.0162460
744.663	0.0161356
744.741	0.0161309
744.819	0.0161034
744.897	0.0162414
744.975	0.0162356
745.053	0.0160614
745.131	0.0161363
745.209	0.0161813
745.288	0.0159760
745.366	0.0159154
745.444	0.0158906
745.522	0.0156872
745.600	0.0156129
745.678	0.0155889
745.756	0.0152843
745.834	0.0153127
745.913	0.0152016
745.991	0.0149883
746.069	0.0150259
746.147	0.0148325
746.225	0.0146214
746.303	0.0146127
746.381	0.0147607
746.459	0.0145963
746.538	0.0146276
746.616	0.0146240
746.694	0.0147847
746.772	0.0147388
746.850	0.0149669
746.928	0.0150807
747.006	0.0148998
747.084	0.0150856
747.163	0.0153326
747.241	0.0153796
747.319	0.0156162
747.397	0.0156306
747.475	0.0156625
747.553	0.0157947
747.631	0.0159382
747.709	0.0157420
747.788	0.0158489
747.866	0.0159389
747.944	0.0158086
748.022	0.0159666
748.100	0.0157296
748.178	0.0158789
748.256	0.0159409
748.334	0.0157393
748.413	0.0159680
748.491	0.0160704
748.569	0.0160584
748.647	0.0160654
748.725	0.0160818
748.803	0.0161732
748.881	0.0160397
748.959	0.0161600
749.038	0.0161214
749.116	0.0161922
749.194	0.0163658
749.272	0.0162899
749.350	0.0163607
749.428	0.0164066
749.506	0.0162773
749.584	0.0163100
749.663	0.0163623
749.741	0.0163766
749.819	0.0162914
749.897	0.0163944
749.975	0.0162389
750.053	0.0161201
750.131	0.0159592
750.209	0.0156991
750.288	0.0158842
750.366	0.0156987
750.444	0.0155861
750.522	0.0154866
750.600	0.0152383
750.678	0.0152594
750.756	0.0153032
750.834	0.0150780
750.913	0.0149370
750.991	0.0150839
751.069	0.0151262
751.147	0.0151954
751.225	0.0151515
751.303	0.0152434
751.381	0.0153406
751.459	0.0154886
751.538	0.0155190
751.616	0.0155953
751.694	0.0156111
751.772	0.0157424
751.850	0.0159890
751.928	0.0159903
752.006	0.0161182
752.084	0.0162363
752.163	0.0163504
752.241	0.0162962
752.319	0.0163300
752.397	0.0163287
752.475	0.0162798
752.553	0.0162947
752.631	0.0163005
752.709	0.0160571
752.788	0.0160027
752.866	0.0159174
752.944	0.0156554
753.022	0.0156369
753.100	0.0153587
753.178	0.0151486
753.256	0.0152724
753.334	0.0151122
753.413	0.0147695
753.491	0.0147121
753.569	0.0146947
753.647	0.0145992
753.725	0.0145317
753.803	0.0146942
753.881	0.0145866
753.959	0.0146102
754.038	0.0148158
754.116	0.0147819
754.194	0.0148960
754.272	0.0149582
754.350	0.0150634
754.428	0.0152510
754.506	0.0154205
754.584	0.0155108
754.663	0.0155974
754.741	0.0156519
754.819	0.0158968
754.897	0.0158247
754.975	0.0158784
755.053	0.0160711
755.131	0.0162006
755.209	0.0163272
755.288	0.0162189
755.366	0.0162589
755.444	0.0162415
755.522	0.0163088
755.600	0.0162723
755.678	0.0161872
755.756	0.0160642
755.834	0.0162484
755.913	0.0160763
755.991	0.0159280
756.069	0.0158143
756.147	0.0157008
756.225	0.0155996
756.303	0.0155127
756.381	0.0154715
756.459	0.0152415
756.538	0.0151389
756.616	0.0151472
756.694	0.0152779
756.772	0.0152362
756.850	0.0150784
756.928	0.0151098
757.006	0.0150967
757.084	0.0152541
757.163	0.0151685
757.241	0.0151533
757.319	0.0153366
757.397	0.0155168
757.475	0.0155199
757.553	0.0155549
757.631	0.0156588
757.709	0.0158832
757.788	0.0160020
757.866	0.0161627
757.944	0.0161832
758.022	0.0162569
758.100	0.0162987
758.178	0.0164342
758.256	0.0163714
758.334	0.0162486
758.413	0.0163551
758.491	0.0163203
758.569	0.0161938
758.647	0.0161337
758.725	0.0162082
758.803	0.0158620
758.881	0.0158778
758.959	0.0157416
759.038	0.0155710
759.116	0.0154189
759.194	0.0153890
759.272	0.0152959
759.350	0.0151539
759.428	0.0152055
759.506	0.0150986
759.584	0.0150836
759.663	0.0151056
759.741	0.0150488
759.819	0.0150470
759.897	0.0150665
759.975	0.0152220
760.053	0.0151469
760.131	0.0152625
760.209	0.0156443
760.288	0.0155786
760.366	0.0155671
760.444	0.0156062
760.522	0.0155179
760.600	0.0157484
760.678	0.0156491
760.756	0.0157996
760.834	0.0159367
760.913	0.0157819
760.991	0.0157705
761.069	0.0158135
761.147	0.0158884
761.225	0.0157127
761.303	0.0157310
761.381	0.0159686
761.459	0.0158442
761.538	0.0158566
761.616	0.0158430
761.694	0.0158714
761.772	0.0158217
761.850	0.0160876
761.928	0.0158923
762.006	0.0158028
762.084	0.0158298
762.163	0.0159932
762.241	0.0159386
762.319	0.0158678
762.397	0.0157542
762.475	0.0158621
762.553	0.0157594
762.631	0.0156370
762.709	0.0156043
762.788	0.0157488
762.866	0.0155389
762.944	0.0155321
763.022	0.0155295
763.100	0.0154914
763.178	0.0153666
763.256	0.0153774
763.334	0.0153886
763.413	0.0155595
763.491	0.0155440
763.569	0.0156492
763.647	0.0157535
763.725	0.0157505
763.803	0.0157610
763.881	0.0158733
763.959	0.0158806
764.038	0.0158946
764.116	0.0160760
764.194	0.0160822
764.272	0.0160686
764.350	0.0160957
764.428	0.0159598
764.506	0.0159085
764.584	0.0159796
764.663	0.0157518
764.741	0.0158253
764.819	0.0156915
764.897	0.0155328
764.975	0.0154493
765.053	0.0152731
765.131	0.0151591
765.209	0.0151062
765.288	0.0149142
765.366	0.0148030
765.444	0.0147489
765.522	0.0146735
765.600	0.0147102
765.678	0.0147785
765.756	0.0144921
765.834	0.0146572
765.913	0.0147869
765.991	0.0147650
766.069	0.0148287
766.147	0.0151418
766.225	0.0151596
766.303	0.0152661
766.381	0.0153782
766.459	0.0156164
766.538	0.0158735
766.616	0.0160247
766.694	0.0161777
766.772	0.0163063
766.850	0.0164625
766.928	0.0166582
767.006	0.0167223
767.084	0.0167243
767.163	0.0168105
767.241	0.0167838
767.319	0.0167044
767.397	0.0166245
767.475	0.0166434
767.553	0.0164529
767.631	0.0164316
767.709	0.0163663
767.788	0.0161572
767.866	0.0160284
767.944	0.0157578
768.022	0.0156135
768.100	0.0155525
768.178	0.0154503
768.256	0.0153230
768.334	0.0151408
768.413	0.0151082
768.491	0.0150229
768.569	0.0150182
768.647	0.0148895
768.725	0.0149142
768.803	0.0148608
768.881	0.0149219
768.959	0.0149518
769.038	0.0151731
769.116	0.0152261
769.194	0.0153296
769.272	0.0155491
769.350	0.0154719
769.428	0.0155682
769.506	0.0156843
769.584	0.0158878
769.663	0.0159757
769.741	0.0161768
769.819	0.0162527
769.897	0.0161954
769.975	0.0163878
770.053	0.0164622
770.131	0.0163636
770.209	0.0162959
770.288	0.0164444
770.366	0.0164951
770.444	0.0162779
770.522	0.0162390
770.600	0.0163203
770.678	0.0162497
770.756	0.0161791
770.834	0.0157840
770.913	0.0158082
770.991	0.0158280
771.069	0.0156388
771.147	0.0153889
771.225	0.0155808
771.303	0.0154582
771.381	0.0151372
771.459	0.0151251
771.538	0.0150752
771.616	0.0148672
771.694	0.0149520
771.772	0.0148408
771.850	0.0148407
771.928	0.0147128
772.006	0.0147816
772.084	0.0149159
772.163	0.0150590
772.241	0.0151176
772.319	0.0150987
772.397	0.0152103
772.475	0.0152735
772.553	0.0153192
772.631	0.0155356
772.709	0.0154652
772.788	0.0154875
772.866	0.0157628
772.944	0.0157784
773.022	0.0158318
773.100	0.0159306
773.178	0.0157800
773.256	0.0159961
773.334	0.0159651
773.413	0.0160450
773.491	0.0159866
773.569	0.0159459
773.647	0.0158121
773.725	0.0159193
773.803	0.0159451
773.881	0.0158276
773.959	0.0158915
774.038	0.0159342
774.116	0.0160003
774.194	0.0159524
774.272	0.0159006
774.350	0.0158728
774.428	0.0158794
774.506	0.0159204
774.584	0.0160526
774.663	0.0157771
774.741	0.0157001
774.819	0.0158829
774.897	0.0158691
774.975	0.0158344
775.053	0.0157871
775.131	0.0158215
775.209	0.0158140
775.288	0.0157777
775.366	0.0156065
775.444	0.0155726
775.522	0.0157870
775.600	0.0157207
775.678	0.0156678
775.756	0.0155571
775.834	0.0155679
775.913	0.0157692
775.991	0.0155382
776.069	0.0155724
776.147	0.0154883
776.225	0.0154423
776.303	0.0153773
776.381	0.0153661
776.459	0.0154263
776.538	0.0155453
776.616	0.0154348
776.694	0.0153864
776.772	0.0154462
776.850	0.0154587
776.928	0.0155975
777.006	0.0155678
777.084	0.0155698
777.163	0.0156260
777.241	0.0156081
777.319	0.0157529
777.397	0.0156348
777.475	0.0156232
777.553	0.0157159
777.631	0.0156982
777.709	0.0157545
777.788	0.0157559
777.866	0.0158549
777.944	0.0159830
778.022	0.0158904
778.100	0.0158086
778.178	0.0158002
778.256	0.0158324
778.334	0.0159025
778.413	0.0159442
778.491	0.0158669
778.569	0.0157949
778.647	0.0158070
778.725	0.0158997
778.803	0.0158181
778.881	0.0156714
778.959	0.0156103
779.038	0.0157074
779.116	0.0158189
779.194	0.0156635
779.272	0.0155963
779.350	0.0157172
779.428	0.0155620
779.506	0.0153886
779.584	0.0154996
779.663	0.0155495
779.741	0.0154070
779.819	0.0154376
779.897	0.0155006
779.975	0.0155158
780.053	0.0154886
780.131	0.0155561
780.209	0.0156918
780.288	0.0156245
780.366	0.0155782
780.444	0.0155580
780.522	0.0158097
780.600	0.0158062
780.678	0.0158390
780.756	0.0157238
780.834	0.0158726
780.913	0.0159365
780.991	0.0159048
781.069	0.0159213
781.147	0.0159692
781.225	0.0160030
781.303	0.0160070
781.381	0.0159168
781.459	0.0160664
781.538	0.0159488
781.616	0.0158411
781.694	0.0160435
781.772	0.0159684
781.850	0.0159032
781.928	0.0159779
782.006	0.0158621
782.084	0.0158805
782.163	0.0156673
782.241	0.0156060
782.319	0.0158111
782.397	0.0158227
782.475	0.0156727
782.553	0.0158073
782.631	0.0156914
782.709	0.0156463
782.788	0.0155556
782.866	0.0156728
782.944	0.0155123
783.022	0.0156351
783.100	0.0155976
783.178	0.0154723
783.256	0.0155986
783.334	0.0155480
783.413	0.0156078
783.491	0.0155940
783.569	0.0155187
783.647	0.0156458
783.725	0.0156482
783.803	0.0156397
783.881	0.0156669
783.959	0.0155787
784.038	0.0158123
784.116	0.0157746
784.194	0.0156867
784.272	0.0157875
784.350	0.0156847
784.428	0.0157134
784.506	0.0156731
784.584	0.0156477
784.663	0.0159315
784.741	0.0157523
784.819	0.0157629
784.897	0.0158415
784.975	0.0157544
785.053	0.0157640
785.131	0.0156732
785.209	0.0156977
785.288	0.0157502
785.366	0.0157641
785.444	0.0157105
785.522	0.0156401
785.600	0.0154314
785.678	0.0155254
785.756	0.0155164
785.834	0.0155594
785.913	0.0156441
785.991	0.0156350
786.069	0.0156697
786.147	0.0155349
786.225	0.0155556
786.303	0.0154878
786.381	0.0155795
786.459	0.0154719
786.538	0.0155508
786.616	0.0155659
786.694	0.0155431
786.772	0.0156922
786.850	0.0155759
786.928	0.0154997
787.006	0.0154871
787.084	0.0155536
787.163	0.0155488
787.241	0.0155692
787.319	0.0155073
787.397	0.0155973
787.475	0.0155650
787.553	0.0155227
787.631	0.0154350
787.709	0.0154354
787.788	0.0154403
787.866	0.0154977
787.944	0.0155284
788.022	0.0155669
788.100	0.0155061
788.178	0.0155683
788.256	0.0155676
788.334	0.0156049
788.413	0.0154795
788.491	0.0154240
788.569	0.0154461
788.647	0.0153736
788.725	0.0154536
788.803	0.0155457
788.881	0.0153979
788.959	0.0152614
789.038	0.0152447
789.116	0.0153100
789.194	0.0154095
789.272	0.0152777
789.350	0.0155264
789.428	0.0154874
789.506	0.0153535
789.584	0.0153658
789.663	0.0152059
789.741	0.0152118
789.819	0.0153171
789.897	0.0153799
789.975	0.0152932
790.053	0.0152870
790.131	0.0155326
790.209	0.0155189
790.288	0.0156232
790.366	0.0155762
790.444	0.0156229
790.522	0.0155903
790.600	0.0156573
790.678	0.0159351
790.756	0.0158658
790.834	0.0159163
790.913	0.0158284
790.991	0.0159570
791.069	0.0159814
791.147	0.0161067
791.225	0.0161269
791.303	0.0161421
791.381	0.0159864
791.459	0.0161181
791.538	0.0161150
791.616	0.0160632
791.694	0.0160848
791.772	0.0161225
791.850	0.0162495
791.928	0.0160503
792.006	0.0161568
792.084	0.0160649
792.163	0.0159824
792.241	0.0160034
792.319	0.0160056
792.397	0.0158427
792.475	0.0158418
792.553	0.0158895
792.631	0.0159533
792.709	0.0159530
792.788	0.0157359
792.866	0.0157456
792.944	0.0157628
793.022	0.0156628
793.100	0.0156604
793.178	0.0155594
793.256	0.0156848
793.334	0.0157585
793.413	0.0157302
793.491	0.0155613
793.569	0.0154716
793.647	0.0155947
793.725	0.0156577
793.803	0.0155276
793.881	0.0154887
793.959	0.0155167
794.038	0.0154524
794.116	0.0155106
794.194	0.0156428
794.272	0.0155229
794.350	0.0154547
794.428	0.0154430
794.506	0.0153374
794.584	0.0154903
794.663	0.0154664
794.741	0.0155272
794.819	0.0154154
794.897	0.0153594
794.975	0.0154990
795.053	0.0156184
795.131	0.0154989
795.209	0.0154073
795.288	0.0156003
795.366	0.0156330
795.444	0.0153895
795.522	0.0155099
795.600	0.0156861
795.678	0.0156014
795.756	0.0155679
795.834	0.0156286
795.913	0.0156809
795.991	0.0155938
796.069	0.0155209
796.147	0.0155026
796.225	0.0156310
796.303	0.0156360
796.381	0.0157181
796.459	0.0157856
796.538	0.0158122
796.616	0.0158272
796.694	0.0158406
796.772	0.0157574
796.850	0.0158078
796.928	0.0158471
797.006	0.0157817
797.084	0.0159132
797.163	0.0158914
797.241	0.0159068
797.319	0.0158093
797.397	0.0159905
797.475	0.0158450
797.553	0.0158005
797.631	0.0157459
797.709	0.0158970
797.788	0.0157812
797.866	0.0157319
797.944	0.0157423
798.022	0.0156254
798.100	0.0157680
798.178	0.0156697
798.256	0.0156213
798.334	0.0156391
798.413	0.0155763
798.491	0.0156763
798.569	0.0156098
798.647	0.0155704
798.725	0.0154858
798.803	0.0155705
798.881	0.0154881
798.959	0.0154756
799.038	0.0155193
799.116	0.0153035
799.194	0.0155325
799.272	0.0153686
799.350	0.0153850
799.428	0.0155000
799.506	0.0154411
799.584	0.0155006
799.663	0.0154472
799.741	0.0156856
799.819	0.0154893
799.897	0.0155948
799.975	0.0156177
800.053	0.0155216
800.131	0.0156672
800.209	0.0157077
800.288	0.0157042
800.366	0.0157303
800.444	0.0156731
800.522	0.0156366
800.600	0.0156966
800.678	0.0157325
800.756	0.0157177
800.834	0.0157284
800.913	0.0157807
800.991	0.0157956
801.069	0.0159631
801.147	0.0159306
801.225	0.0157683
801.303	0.0158415
801.381	0.0158319
801.459	0.0158437
801.538	0.0156923
801.616	0.0157133
801.694	0.0157524
801.772	0.0157433
801.850	0.0157842
801.928	0.0155658
802.006	0.0156557
802.084	0.0157327
802.163	0.0155621
802.241	0.0154308
802.319	0.0155111
802.397	0.0154174
802.475	0.0155696
802.553	0.0155942
802.631	0.0155663
802.709	0.0155373
802.788	0.0154877
802.866	0.0154898
802.944	0.0155310
803.022	0.0155408
803.100	0.0155325
803.178	0.0156340
803.256	0.0155182
803.334	0.0155213
803.413	0.0155890
803.491	0.0158147
803.569	0.0156804
803.647	0.0157879
803.725	0.0157258
803.803	0.0158359
803.881	0.0157819
803.959	0.0158314
804.038	0.0158447
804.116	0.0158815
804.194	0.0159024
804.272	0.0158289
804.350	0.0157779
804.428	0.0159136
804.506	0.0158680
804.584	0.0157368
804.663	0.0157060
804.741	0.0157413
804.819	0.0156422
804.897	0.0156157
804.975	0.0157510
805.053	0.0156213
805.131	0.0155079
805.209	0.0154401
805.288	0.0156616
805.366	0.0155533
805.444	0.0155552
805.522	0.0155217
805.600	0.0153855
805.678	0.0155311
805.756	0.0155553
805.834	0.0155811
805.913	0.0155244
805.991	0.0156347
806.069	0.0156351
806.147	0.0157303
806.225	0.0156717
806.303	0.0156709
806.381	0.0157281
806.459	0.0156924
806.538	0.0158142
806.616	0.0158677
806.694	0.0157642
806.772	0.0156539
806.850	0.0157679
806.928	0.0157700
807.006	0.0158391
807.084	0.0157076
807.163	0.0156630
807.241	0.0156834
807.319	0.0157966
807.397	0.0157161
807.475	0.0157001
807.553	0.0158670
807.631	0.0157905
807.709	0.0157623
807.788	0.0156487
807.866	0.0155991
807.944	0.0155608
808.022	0.0155548
808.100	0.0157951
808.178	0.0156893
808.256	0.0154905
808.334	0.0155293
808.413	0.0155692
808.491	0.0155812
808.569	0.0153545
808.647	0.0153893
808.725	0.0154942
808.803	0.0155314
808.881	0.0153491
808.959	0.0154874
809.038	0.0155873
809.116	0.0154290
809.194	0.0154672
809.272	0.0154749
809.350	0.0155142
809.428	0.0155228
809.506	0.0154208
809.584	0.0154689
809.663	0.0153716
809.741	0.0154749
809.819	0.0155118
809.897	0.0154771
809.975	0.0155340
810.053	0.0155348
810.131	0.0155675
810.209	0.0155244
810.288	0.0154629
810.366	0.0156704
810.444	0.0154227
810.522	0.0155341
810.600	0.0155920
810.678	0.0155022
810.756	0.0156245
810.834	0.0154575
810.913	0.0155109
810.991	0.0156149
811.069	0.0155503
811.147	0.0154251
811.225	0.0153888
811.303	0.0155350
811.381	0.0156805
811.459	0.0155244
811.538	0.0156023
811.616	0.0156266
811.694	0.0154984
811.772	0.0154994
811.850	0.0155131
811.928	0.0155959
812.006	0.0154948
812.084	0.0154922
812.163	0.0155161
812.241	0.0154399
812.319	0.0155756
812.397	0.0157119
812.475	0.0156714
812.553	0.0155364
812.631	0.0156435
812.709	0.0155503
812.788	0.0156562
812.866	0.0155972
812.944	0.0155160
813.022	0.0156192
813.100	0.0156486
813.178	0.0156834
813.256	0.0156926
813.334	0.0156557
813.413	0.0158251
813.491	0.0156419
813.569	0.0157657
813.647	0.0156560
813.725	0.0157275
813.803	0.0157774
813.881	0.0158216
813.959	0.0158395
814.038	0.0156022
814.116	0.0157302
814.194	0.0157611
814.272	0.0157076
814.350	0.0157928
814.428	0.0156206
814.506	0.0156845
814.584	0.0156303
814.663	0.0156622
814.741	0.0155711
814.819	0.0156625
814.897	0.0156380
814.975	0.0155946
815.053	0.0156733
815.131	0.0155114
815.209	0.0156155
815.288	0.0157128
815.366	0.0156773
815.444	0.0155843
815.522	0.0157703
815.600	0.0157778
815.678	0.0158137
815.756	0.0156560
815.834	0.0155994
815.913	0.0156808
815.991	0.0157578
816.069	0.0158353
816.147	0.0156788
816.225	0.0156870
816.303	0.0158428
816.381	0.0160101
816.459	0.0157736
816.538	0.0158293
816.616	0.0157473
816.694	0.0157084
816.772	0.0158419
816.850	0.0157286
816.928	0.0156932
817.006	0.0157748
817.084	0.0157039
817.163	0.0156114
817.241	0.0157112
817.319	0.0156136
817.397	0.0155516
817.475	0.0157417
817.553	0.0157117
817.631	0.0154958
817.709	0.0156878
817.788	0.0156357
817.866	0.0155226
817.944	0.0155531
818.022	0.0156774
818.100	0.0154149
818.178	0.0154791
818.256	0.0156090
818.334	0.0154991
818.413	0.0153625
818.491	0.0154131
818.569	0.0155560
818.647	0.0154740
818.725	0.0154929
818.803	0.0154723
818.881	0.0155014
818.959	0.0156300
819.038	0.0155244
819.116	0.0155373
819.194	0.0156368
819.272	0.0156919
819.350	0.0157093
819.428	0.0156372
819.506	0.0157291
819.584	0.0157269
819.663	0.0157436
819.741	0.0157488
819.819	0.0157088
819.897	0.0157584
819.975	0.0158657
820.053	0.0158731
820.131	0.0156883
820.209	0.0157791
820.288	0.0158218
820.366	0.0157419
820.444	0.0158073
820.522	0.0160107
820.600	0.0158517
820.678	0.0157716
820.756	0.0159306
820.834	0.0157294
820.913	0.0157031
820.991	0.0157924
821.069	0.0156871
821.147	0.0157685
821.225	0.0157735
821.303	0.0157678
821.381	0.0155727
821.459	0.0156696
821.538	0.0156194
821.616	0.0155473
821.694	0.0155892
821.772	0.0156393
821.850	0.0157162
821.928	0.0156506
822.006	0.0155717
822.084	0.0157426
822.163	0.0156452
822.241	0.0155660
822.319	0.0156213
822.397	0.0157458
822.475	0.0156046
822.553	0.0155827
822.631	0.0156636
822.709	0.0156586
822.788	0.0156136
822.866	0.0157809
822.944	0.0157367
823.022	0.0157610
823.100	0.0156785
823.178	0.0157103
823.256	0.0156437
823.334	0.0156686
823.413	0.0157372
823.491	0.0157168
823.569	0.0156856
823.647	0.0156072
823.725	0.0155379
823.803	0.0157046
823.881	0.0157034
823.959	0.0156063
824.038	0.0157760
824.116	0.0157178
824.194	0.0155856
824.272	0.0156647
824.350	0.0157454
824.428	0.0155634
824.506	0.0155640
824.584	0.0155645
824.663	0.0156194
824.741	0.0156392
824.819	0.0156282
824.897	0.0154939
824.975	0.0157558
825.053	0.0155728
825.131	0.0156839
825.209	0.0156886
825.288	0.0156002
825.366	0.0157184
825.444	0.0156168
825.522	0.0156009
825.600	0.0156412
825.678	0.0157281
825.756	0.0156199
825.834	0.0155366
825.913	0.0157479
825.991	0.0156779
826.069	0.0157476
826.147	0.0155264
826.225	0.0155812
826.303	0.0156229
826.381	0.0155869
826.459	0.0155285
826.538	0.0156303
826.616	0.0156770
826.694	0.0158214
826.772	0.0156375
826.850	0.0157001
826.928	0.0155561
827.006	0.0157195
827.084	0.0157430
827.163	0.0156577
827.241	0.0157518
827.319	0.0156658
827.397	0.0156842
827.475	0.0157172
827.553	0.0155707
827.631	0.0155459
827.709	0.0154390
827.788	0.0154873
827.866	0.0154739
827.944	0.0153892
828.022	0.0153811
828.100	0.0154363
828.178	0.0154747
828.256	0.0152598
828.334	0.0152578
828.413	0.0153315
828.491	0.0152470
828.569	0.0154697
828.647	0.0153398
828.725	0.0152319
828.803	0.0152658
828.881	0.0153021
828.959	0.0155159
829.038	0.0153748
829.116	0.0153919
829.194	0.0152596
829.272	0.0153639
829.350	0.0153191
829.428	0.0154425
829.506	0.0153840
829.584	0.0153941
829.663	0.0155434
829.741	0.0154482
829.819	0.0155420
829.897	0.0155701
829.975	0.0156323
830.053	0.0156160
830.131	0.0156495
830.209	0.0156792
830.288	0.0157277
830.366	0.0156644
830.444	0.0158087
830.522	0.0158375
830.600	0.0158984
830.678	0.0158102
830.756	0.0158163
830.834	0.0158246
830.913	0.0158808
830.991	0.0160076
831.069	0.0158994
831.147	0.0158521
831.225	0.0159566
831.303	0.0158049
831.381	0.0158923
831.459	0.0159055
831.538	0.0157425
831.616	0.0157845
831.694	0.0158336
831.772	0.0158648
831.850	0.0157999
831.928	0.0157542
832.006	0.0156605
832.084	0.0156594
832.163	0.0157494
832.241	0.0157648
832.319	0.0158443
832.397	0.0158582
832.475	0.0156027
832.553	0.0157707
832.631	0.0157039
832.709	0.0158151
832.788	0.0157368
832.866	0.0157824
832.944	0.0157129
833.022	0.0156669
833.100	0.0157230
833.178	0.0157473
833.256	0.0157944
833.334	0.0158472
833.413	0.0157644
833.491	0.0156589
833.569	0.0157610
833.647	0.0157957
833.725	0.0158582
833.803	0.0159351
833.881	0.0157937
833.959	0.0158803
834.038	0.0157836
834.116	0.0157525
834.194	0.0157787
834.272	0.0158327
834.350	0.0158167
834.428	0.0158208
834.506	0.0157764
834.584	0.0158557
834.663	0.0160205
834.741	0.0157766
834.819	0.0157661
834.897	0.0157322
834.975	0.0157435
835.053	0.0157870
835.131	0.0157581
835.209	0.0157803
835.288	0.0157638
835.366	0.0157118
835.444	0.0158318
835.522	0.0158566
835.600	0.0157697
835.678	0.0158292
835.756	0.0157430
835.834	0.0158119
835.913	0.0158020
835.991	0.0157394
836.069	0.0157872
836.147	0.0158902
836.225	0.0158875
836.303	0.0159175
836.381	0.0158199
836.459	0.0157552
836.538	0.0158878
836.616	0.0157559
836.694	0.0159434
836.772	0.0159184
836.850	0.0158656
836.928	0.0158987
837.006	0.0158401
837.084	0.0158952
837.163	0.0159106
837.241	0.0159978
837.319	0.0159630
837.397	0.0159344
837.475	0.0158849
837.553	0.0158584
837.631	0.0157809
837.709	0.0158061
837.788	0.0158674
837.866	0.0157969
837.944	0.0158102
838.022	0.0157787
838.100	0.0158050
838.178	0.0156836
838.256	0.0156765
838.334	0.0157805
838.413	0.0156117
838.491	0.0156963
838.569	0.0156342
838.647	0.0156831
838.725	0.0155738
838.803	0.0155191
838.881	0.0155077
838.959	0.0155203
839.038	0.0155413
839.116	0.0156226
839.194	0.0154826
839.272	0.0155267
839.350	0.0153846
839.428	0.0153851
839.506	0.0154919
839.584	0.0152825
839.663	0.0153453
839.741	0.0156271
839.819	0.0155161
839.897	0.0156207
839.975	0.0155312
840.053	0.0156467
840.131	0.0155073
840.209	0.0155123
840.288	0.0156535
840.366	0.0156921
840.444	0.0156641
840.522	0.0156750
840.600	0.0157614
840.678	0.0157658
840.756	0.0157075
840.834	0.0156948
840.913	0.0158035
840.991	0.0157106
841.069	0.0158301
841.147	0.0158642
841.225	0.0158852
841.303	0.0158983
841.381	0.0157941
841.459	0.0158286
841.538	0.0157681
841.616	0.0157496
841.694	0.0157439
841.772	0.0157194
841.850	0.0156528
841.928	0.0156139
842.006	0.0157010
842.084	0.0156969
842.163	0.0156867
842.241	0.0156882
842.319	0.0155453
842.397	0.0155054
842.475	0.0156100
842.553	0.0156384
842.631	0.0155817
842.709	0.0155534
842.788	0.0155162
842.866	0.0155511
842.944	0.0156740
843.022	0.0156847
843.100	0.0155399
843.178	0.0156122
843.256	0.0154887
843.334	0.0154679
843.413	0.0156364
843.491	0.0154684
843.569	0.0155403
843.647	0.0155517
843.725	0.0155627
843.803	0.0155884
843.881	0.0155096
843.959	0.0155278
844.038	0.0154726
844.116	0.0156488
844.194	0.0155739
844.272	0.0156371
844.350	0.0156406
844.428	0.0155271
844.506	0.0156847
844.584	0.0156676
844.663	0.0156144
844.741	0.0155190
844.819	0.0155838
844.897	0.0157529
844.975	0.0155609
845.053	0.0156997
845.131	0.0157370
845.209	0.0157443
845.288	0.0158269
845.366	0.0157773
845.444	0.0159121
845.522	0.0157492
845.600	0.0157541
845.678	0.0158109
845.756	0.0158454
845.834	0.0159891
845.913	0.0157457
845.991	0.0159132
846.069	0.0158856
846.147	0.0158849
846.225	0.0158916
846.303	0.0159241
846.381	0.0158342
846.459	0.0159229
846.538	0.0159001
846.616	0.0158751
846.694	0.0159395
846.772	0.0158900
846.850	0.0158306
846.928	0.0156786
847.006	0.0158630
847.084	0.0155780
847.163	0.0157686
847.241	0.0158374
847.319	0.0156394
847.397	0.0157729
847.475	0.0156914
847.553	0.0158234
847.631	0.0156516
847.709	0.0157999
847.788	0.0156549
847.866	0.0157796
847.944	0.0157707
848.022	0.0157935
848.100	0.0157075
848.178	0.0156538
848.256	0.0157127
848.334	0.0157259
848.413	0.0156782
848.491	0.0157805
848.569	0.0157122
848.647	0.0157478
848.725	0.0156528
848.803	0.0159286
848.881	0.0157914
848.959	0.0157555
849.038	0.0157227
849.116	0.0156981
849.194	0.0158015
849.272	0.0158495
849.350	0.0157301
849.428	0.0158018
849.506	0.0158124
849.584	0.0157497
849.663	0.0157766
849.741	0.0157066
849.819	0.0157124
849.897	0.0157134
849.975	0.0157055
850.053	0.0156854
850.131	0.0157557
850.209	0.0156109
850.288	0.0157132
850.366	0.0157527
850.444	0.0157458
850.522	0.0156747
850.600	0.0157816
850.678	0.0157719
850.756	0.0158653
850.834	0.0156210
850.913	0.0156751
850.991	0.0155731
851.069	0.0157555
851.147	0.0158292
851.225	0.0158017
851.303	0.0157327
851.381	0.0156241
851.459	0.0156043
851.538	0.0156846
851.616	0.0156936
851.694	0.0156467
851.772	0.0156422
851.850	0.0156676
851.928	0.0156026
852.006	0.0156306
852.084	0.0157233
852.163	0.0156780
852.241	0.0156573
852.319	0.0156822
852.397	0.0157261
852.475	0.0157010
852.553	0.0157726
852.631	0.0156703
852.709	0.0156190
852.788	0.0156416
852.866	0.0155776
852.944	0.0156946
853.022	0.0156676
853.100	0.0155497
853.178	0.0156537
853.256	0.0156541
853.334	0.0155704
853.413	0.0156302
853.491	0.0156911
853.569	0.0154720
853.647	0.0155826
853.725	0.0155513
853.803	0.0156729
853.881	0.0156589
853.959	0.0156691
854.038	0.0155614
854.116	0.0155299
854.194	0.0155222
854.272	0.0156723
854.350	0.0155878
854.428	0.0155743
854.506	0.0155292
854.584	0.0156073
854.663	0.0156135
854.741	0.0157742
854.819	0.0155505
854.897	0.0155032
854.975	0.0154626
855.053	0.0155569
855.131	0.0156587
855.209	0.0155758
855.288	0.0155772
855.366	0.0157027
855.444	0.0157018
855.522	0.0156686
855.600	0.0157489
855.678	0.0156418
855.756	0.0157282
855.834	0.0155765
855.913	0.0157550
855.991	0.0156433
856.069	0.0155502
856.147	0.0157047
856.225	0.0157097
856.303	0.0157253
856.381	0.0155888
856.459	0.0156184
856.538	0.0156982
856.616	0.0158688
856.694	0.0157460
856.772	0.0157128
856.850	0.0156333
856.928	0.0157027
857.006	0.0157578
857.084	0.0158932
857.163	0.0157069
857.241	0.0157127
857.319	0.0157585
857.397	0.0157370
857.475	0.0157489
857.553	0.0155883
857.631	0.0156599
857.709	0.0157822
857.788	0.0156715
857.866	0.0156218
857.944	0.0157607
858.022	0.0157252
858.100	0.0157181
858.178	0.0156699
858.256	0.0156777
858.334	0.0157420
858.413	0.0156577
858.491	0.0155772
858.569	0.0157251
858.647	0.0157175
858.725	0.0156905
858.803	0.0156398
858.881	0.0156747
858.959	0.0156428
859.038	0.0156036
859.116	0.0155764
859.194	0.0155199
859.272	0.0156517
859.350	0.0156364
859.428	0.0157050
859.506	0.0155115
859.584	0.0155241
859.663	0.0156014
859.741	0.0157719
859.819	0.0155897
859.897	0.0156297
859.975	0.0155805
860.053	0.0155927
860.131	0.0157832
860.209	0.0156637
860.288	0.0157529
860.366	0.0156010
860.444	0.0156049
860.522	0.0156126
860.600	0.0156564
860.678	0.0156305
860.756	0.0157954
860.834	0.0156480
860.913	0.0156509
860.991	0.0157117
861.069	0.0155815
861.147	0.0156652
861.225	0.0156353
861.303	0.0156342
861.381	0.0156528
861.459	0.0157109
861.538	0.0156609
861.616	0.0154605
861.694	0.0156424
861.772	0.0156901
861.850	0.0155766
861.928	0.0154436
862.006	0.0157439
862.084	0.0157600
862.163	0.0158028
862.241	0.0156503
862.319	0.0157293
862.397	0.0157110
862.475	0.0157774
862.553	0.0156783
862.631	0.0157752
862.709	0.0159115
862.788	0.0158018
862.866	0.0158447
862.944	0.0157375
863.022	0.0158646
863.100	0.0157738
863.178	0.0158589
863.256	0.0159185
863.334	0.0157413
863.413	0.0158542
863.491	0.0158844
863.569	0.0158053
863.647	0.0156828
863.725	0.0158186
863.803	0.0156497
863.881	0.0158379
863.959	0.0158966
864.038	0.0158480
864.116	0.0158987
864.194	0.0158178
864.272	0.0157885
864.350	0.0157388
864.428	0.0158101
864.506	0.0157987
864.584	0.0157832
864.663	0.0158923
864.741	0.0157525
864.819	0.0157938
864.897	0.0157320
864.975	0.0157583
865.053	0.0158627
865.131	0.0156667
865.209	0.0157347
865.288	0.0157470
865.366	0.0156593
865.444	0.0158064
865.522	0.0158054
865.600	0.0156513
865.678	0.0154210
865.756	0.0155614
865.834	0.0157127
865.913	0.0156831
865.991	0.0157262
866.069	0.0156353
866.147	0.0156251
866.225	0.0156752
866.303	0.0156516
866.381	0.0156548
866.459	0.0156175
866.538	0.0156968
866.616	0.0157447
866.694	0.0156289
866.772	0.0155247
866.850	0.0157053
866.928	0.0157305
867.006	0.0157020
867.084	0.0155963
867.163	0.0157163
867.241	0.0157376
867.319	0.0156783
867.397	0.0157068
867.475	0.0156762
867.553	0.0156504
867.631	0.0157828
867.709	0.0156593
867.788	0.0156739
867.866	0.0156686
867.944	0.0156962
868.022	0.0157333
868.100	0.0155653
868.178	0.0155996
868.256	0.0156041
868.334	0.0155973
868.413	0.0155057
868.491	0.0155621
868.569	0.0155803
868.647	0.0156040
868.725	0.0155442
868.803	0.0156020
868.881	0.0155754
868.959	0.0155387
869.038	0.0154994
869.116	0.0156192
869.194	0.0155546
869.272	0.0156553
869.350	0.0155267
869.428	0.0155869
869.506	0.0156421
869.584	0.0156828
869.663	0.0156628
869.741	0.0157636
869.819	0.0157256
869.897	0.0156969
869.975	0.0158172
870.053	0.0159489
870.131	0.0158489
870.209	0.0157427
870.288	0.0158804
870.366	0.0158478
870.444	0.0159013
870.522	0.0157707
870.600	0.0156790
870.678	0.0158584
870.756	0.0157446
870.834	0.0157314
870.913	0.0157688
870.991	0.0157908
871.069	0.0157401
871.147	0.0157896
871.225	0.0157632
871.303	0.0156443
871.381	0.0157673
871.459	0.0157541
871.538	0.0156892
871.616	0.0158452
871.694	0.0157926
871.772	0.0156010
871.850	0.0156810
871.928	0.0156535
872.006	0.0156522
872.084	0.0157142
872.163	0.0157906
872.241	0.0158614
872.319	0.0158971
872.397	0.0157508
872.475	0.0154329
872.553	0.0157338
872.631	0.0155873
872.709	0.0157503
872.788	0.0156397
872.866	0.0156556
872.944	0.0157202
873.022	0.0157423
873.100	0.0158138
873.178	0.0158463
873.256	0.0158739
873.334	0.0158086
873.413	0.0159253
873.491	0.0158486
873.569	0.0157867
873.647	0.0157041
873.725	0.0159082
873.803	0.0158276
873.881	0.0157553
873.959	0.0158473
874.038	0.0158339
874.116	0.0157283
874.194	0.0157588
874.272	0.0158126
874.350	0.0157603
874.428	0.0156800
874.506	0.0158497
874.584	0.0156892
874.663	0.0157985
874.741	0.0157025
874.819	0.0155530
874.897	0.0156467
874.975	0.0157602
875.053	0.0157292
875.131	0.0157513
875.209	0.0156401
875.288	0.0155917
875.366	0.0155935
875.444	0.0155142
875.522	0.0155934
875.600	0.0157552
875.678	0.0155750
875.756	0.0157212
875.834	0.0157275
875.913	0.0155316
875.991	0.0155640
876.069	0.0155437
876.147	0.0156181
876.225	0.0155489
876.303	0.0157023
876.381	0.0156853
876.459	0.0156776
876.538	0.0157897
876.616	0.0156949
876.694	0.0155991
876.772	0.0156274
876.850	0.0157444
876.928	0.0156867
877.006	0.0156252
877.084	0.0156666
877.163	0.0158436
877.241	0.0157706
877.319	0.0157377
877.397	0.0157569
877.475	0.0157628
877.553	0.0155683
877.631	0.0155133
877.709	0.0156638
877.788	0.0155648
877.866	0.0155379
877.944	0.0156448
878.022	0.0157095
878.100	0.0157983
878.178	0.0157440
878.256	0.0155814
878.334	0.0157787
878.413	0.0157218
878.491	0.0157157
878.569	0.0157819
878.647	0.0158517
878.725	0.0157247
878.803	0.0157507
878.881	0.0158710
878.959	0.0158161
879.038	0.0157338
879.116	0.0157099
879.194	0.0155751
879.272	0.0157104
879.350	0.0156454
879.428	0.0157648
879.506	0.0157391
879.584	0.0156882
879.663	0.0157143
879.741	0.0156158
879.819	0.0155154
879.897	0.0155914
879.975	0.0156933
880.053	0.0154628
880.131	0.0156448
880.209	0.0156591
880.288	0.0155329
880.366	0.0156004
880.444	0.0155867
880.522	0.0155140
880.600	0.0156093
880.678	0.0156890
880.756	0.0156956
880.834	0.0157070
880.913	0.0155804
880.991	0.0156995
881.069	0.0155815
881.147	0.0155106
881.225	0.0156491
881.303	0.0155399
881.381	0.0156201
881.459	0.0157412
881.538	0.0155202
881.616	0.0156769
881.694	0.0155566
881.772	0.0154692
881.850	0.0155737
881.928	0.0155782
882.006	0.0157319
882.084	0.0155915
882.163	0.0157082
882.241	0.0157105
882.319	0.0158092
882.397	0.0156706
882.475	0.0159721
882.553	0.0157940
882.631	0.0158409
882.709	0.0156902
882.788	0.0156361
882.866	0.0156908
882.944	0.0157879
883.022	0.0156853
883.100	0.0157421
883.178	0.0156796
883.256	0.0157335
883.334	0.0157775
883.413	0.0156874
883.491	0.0158071
883.569	0.0154964
883.647	0.0155862
883.725	0.0155914
883.803	0.0157339
883.881	0.0155643
883.959	0.0154127
884.038	0.0156414
884.116	0.0156594
884.194	0.0156166
884.272	0.0156455
884.350	0.0155658
884.428	0.0154293
884.506	0.0155611
884.584	0.0154663
884.663	0.0154753
884.741	0.0154380
884.819	0.0155484
884.897	0.0154865
884.975	0.0156619
885.053	0.0156149
885.131	0.0155113
885.209	0.0156418
885.288	0.0156548
885.366	0.0156093
885.444	0.0157800
885.522	0.0156371
885.600	0.0156376
885.678	0.0156097
885.756	0.0156473
885.834	0.0156139
885.913	0.0156815
885.991	0.0157356
886.069	0.0156310
886.147	0.0155010
886.225	0.0157935
886.303	0.0157755
886.381	0.0155833
886.459	0.0156516
886.538	0.0156898
886.616	0.0155677
886.694	0.0157664
886.772	0.0156630
886.850	0.0156806
886.928	0.0157033
887.006	0.0156079
887.084	0.0156252
887.163	0.0156885
887.241	0.0157047
887.319	0.0157945
887.397	0.0157546
887.475	0.0156921
887.553	0.0157574
887.631	0.0158459
887.709	0.0157587
887.788	0.0157779
887.866	0.0157412
887.944	0.0157327
888.022	0.0157559
888.100	0.0157195
888.178	0.0156580
888.256	0.0156413
888.334	0.0155860
888.413	0.0156081
888.491	0.0156274
888.569	0.0154989
888.647	0.0155207
888.725	0.0155328
888.803	0.0155249
888.881	0.0153574
888.959	0.0154267
889.038	0.0154060
889.116	0.0154613
889.194	0.0154793
889.272	0.0155274
889.350	0.0155402
889.428	0.0155962
889.506	0.0156396
889.584	0.0154873
889.663	0.0156700
889.741	0.0157726
889.819	0.0157817
889.897	0.0156321
889.975	0.0157175
890.053	0.0157201
890.131	0.0157743
890.209	0.0157927
890.288	0.0157835
890.366	0.0157788
890.444	0.0156952
890.522	0.0156078
890.600	0.0155544
890.678	0.0155632
890.756	0.0156644
890.834	0.0156339
890.913	0.0156622
890.991	0.0156211
891.069	0.0155580
891.147	0.0154506
891.225	0.0154940
891.303	0.0155836
891.381	0.0155858
891.459	0.0155589
891.538	0.0154904
891.616	0.0155029
891.694	0.0154582
891.772	0.0154804
891.850	0.0155923
891.928	0.0155649
892.006	0.0156152
892.084	0.0155449
892.163	0.0156142
892.241	0.0155973
892.319	0.0155320
892.397	0.0157600
892.475	0.0155772
892.553	0.0156088
892.631	0.0156257
892.709	0.0156625
892.788	0.0155750
892.866	0.0156310
892.944	0.0155674
893.022	0.0157075
893.100	0.0158035
893.178	0.0157939
893.256	0.0156056
893.334	0.0157942
893.413	0.0157894
893.491	0.0157172
893.569	0.0157484
893.647	0.0158327
893.725	0.0157178
893.803	0.0157350
893.881	0.0157507
893.959	0.0157933
894.038	0.0159189
894.116	0.0158709
894.194	0.0158934
894.272	0.0158147
894.350	0.0158942
894.428	0.0159134
894.506	0.0158214
894.584	0.0159514
894.663	0.0158843
894.741	0.0158986
894.819	0.0159270
894.897	0.0158434
894.975	0.0159344
895.053	0.0158441
895.131	0.0159420
895.209	0.0160163
895.288	0.0159118
895.366	0.0159119
895.444	0.0159670
895.522	0.0158083
895.600	0.0158922
895.678	0.0159587
895.756	0.0158701
895.834	0.0158550
895.913	0.0158296
895.991	0.0157281
896.069	0.0158424
896.147	0.0158425
896.225	0.0157204
896.303	0.0157271
896.381	0.0157140
896.459	0.0157724
896.538	0.0156261
896.616	0.0156220
896.694	0.0155311
896.772	0.0154873
896.850	0.0155753
896.928	0.0154915
897.006	0.0153884
897.084	0.0155980
897.163	0.0154259
897.241	0.0155045
897.319	0.0155923
897.397	0.0155325
897.475	0.0154849
897.553	0.0155195
897.631	0.0153669
897.709	0.0154712
897.788	0.0155230
897.866	0.0154454
897.944	0.0155997
898.022	0.0155260
898.100	0.0155974
898.178	0.0156525
898.256	0.0156355
898.334	0.0156590
898.413	0.0157392
898.491	0.0156844
898.569	0.0155866
898.647	0.0157772
898.725	0.0157012
898.803	0.0157103
898.881	0.0156862
898.959	0.0157572
899.038	0.0158730
899.116	0.0158501
899.194	0.0156973
899.272	0.0157806
899.350	0.0157853
899.428	0.0157573
899.506	0.0158528
899.584	0.0159000
899.663	0.0157014
899.741	0.0156741
899.819	0.0157061
899.897	0.0155690
899.975	0.0155927
900.053	0.0156257
900.131	0.0155193
900.209	0.0154678
900.288	0.0156228
900.366	0.0156257
900.444	0.0154649
900.522	0.0156567
900.600	0.0155666
900.678	0.0155460
900.756	0.0156310
900.834	0.0154651
900.913	0.0155288
900.991	0.0155874
901.069	0.0156787
901.147	0.0155938
901.225	0.0154877
901.303	0.0155914
901.381	0.0156537
901.459	0.0155071
901.538	0.0154670
901.616	0.0155436
901.694	0.0155361
901.772	0.0153761
901.850	0.0153801
901.928	0.0155566
902.006	0.0153587
902.084	0.0155311
902.163	0.0154667
902.241	0.0155450
902.319	0.0154095
902.397	0.0154322
902.475	0.0154996
902.553	0.0154347
902.631	0.0155092
902.709	0.0154526
902.788	0.0155439
902.866	0.0155320
902.944	0.0154881
903.022	0.0155106
903.100	0.0154666
903.178	0.0155917
903.256	0.0155254
903.334	0.0155002
903.413	0.0155608
903.491	0.0155736
903.569	0.0156467
903.647	0.0156010
903.725	0.0156944
903.803	0.0156352
903.881	0.0156981
903.959	0.0156754
904.038	0.0157448
904.116	0.0156134
904.194	0.0156561
904.272	0.0157259
904.350	0.0156732
904.428	0.0157478
904.506	0.0156580
904.584	0.0156956
904.663	0.0156828
904.741	0.0157115
904.819	0.0155914
904.897	0.0157444
904.975	0.0156179
905.053	0.0157499
905.131	0.0157097
905.209	0.0156556
905.288	0.0156072
905.366	0.0156032
905.444	0.0156072
905.522	0.0156852
905.600	0.0157256
905.678	0.0157866
905.756	0.0156516
905.834	0.0156211
905.913	0.0156541
905.991	0.0157183
906.069	0.0156398
906.147	0.0156820
906.225	0.0158099
906.303	0.0155983
906.381	0.0156691
906.459	0.0157614
906.538	0.0156958
906.616	0.0156612
906.694	0.0157591
906.772	0.0156130
906.850	0.0156227
906.928	0.0155634
907.006	0.0155775
907.084	0.0155527
907.163	0.0155883
907.241	0.0155746
907.319	0.0155350
907.397	0.0157012
907.475	0.0157458
907.553	0.0156165
907.631	0.0155973
907.709	0.0156425
907.788	0.0155508
907.866	0.0157481
907.944	0.0157231
908.022	0.0157595
908.100	0.0156229
908.178	0.0156283
908.256	0.0156721
908.334	0.0157652
908.413	0.0157142
908.491	0.0158093
908.569	0.0157430
908.647	0.0157632
908.725	0.0155254
908.803	0.0155319
908.881	0.0158067
908.959	0.0157122
909.038	0.0157489
909.116	0.0155900
909.194	0.0158140
909.272	0.0157846
909.350	0.0155997
909.428	0.0156847
909.506	0.0156128
909.584	0.0154347
909.663	0.0154942
909.741	0.0154745
909.819	0.0154371
909.897	0.0154992
909.975	0.0153819
910.053	0.0155692
910.131	0.0154908
910.209	0.0154427
910.288	0.0154568
910.366	0.0153903
910.444	0.0154045
910.522	0.0156220
910.600	0.0154404
910.678	0.0154243
910.756	0.0154171
910.834	0.0154030
910.913	0.0155236
910.991	0.0155676
911.069	0.0155115
911.147	0.0155894
911.225	0.0155486
911.303	0.0155956
911.381	0.0155513
911.459	0.0157355
911.538	0.0156227
911.616	0.0156673
911.694	0.0156599
911.772	0.0155993
911.850	0.0155910
911.928	0.0156538
912.006	0.0157359
912.084	0.0156844
912.163	0.0156946
912.241	0.0156326
912.319	0.0154792
912.397	0.0155237
912.475	0.0156561
912.553	0.0157192
912.631	0.0156287
912.709	0.0155700
912.788	0.0154714
912.866	0.0156625
912.944	0.0156933
913.022	0.0155876
913.100	0.0154690
913.178	0.0156742
913.256	0.0156850
913.334	0.0157116
913.413	0.0157551
913.491	0.0155756
913.569	0.0157238
913.647	0.0156705
913.725	0.0156250
913.803	0.0156973
913.881	0.0157455
913.959	0.0157386
914.038	0.0156560
914.116	0.0158229
914.194	0.0157246
914.272	0.0156733
914.350	0.0157695
914.428	0.0158475
914.506	0.0157259
914.584	0.0156299
914.663	0.0157194
914.741	0.0155472
914.819	0.0157104
914.897	0.0157491
914.975	0.0157259
915.053	0.0157843
915.131	0.0157085
915.209	0.0157061
915.288	0.0157018
915.366	0.0156667
915.444	0.0156264
915.522	0.0155445
915.600	0.0155621
915.678	0.0155920
915.756	0.0156711
915.834	0.0156707
915.913	0.0156029
915.991	0.0155659
916.069	0.0155013
916.147	0.0154745
916.225	0.0154682
916.303	0.0154903
916.381	0.0155020
916.459	0.0154626
916.538	0.0154753
916.616	0.0154182
916.694	0.0154977
916.772	0.0155469
916.850	0.0156584
916.928	0.0155248
917.006	0.0155467
917.084	0.0155981
917.163	0.0156248
917.241	0.0156837
917.319	0.0155357
917.397	0.0156824
917.475	0.0156904
917.553	0.0156313
917.631	0.0156207
917.709	0.0156812
917.788	0.0156431
917.866	0.0157440
917.944	0.0156537
918.022	0.0156761
918.100	0.0157137
918.178	0.0154929
918.256	0.0155264
918.334	0.0153832
918.413	0.0156930
918.491	0.0155989
918.569	0.0155052
918.647	0.0155431
918.725	0.0155931
918.803	0.0155441
918.881	0.0155083
918.959	0.0154534
919.038	0.0155103
919.116	0.0156020
919.194	0.0156173
919.272	0.0155650
919.350	0.0157092
919.428	0.0156057
919.506	0.0156103
919.584	0.0157054
919.663	0.0157095
919.741	0.0155531
919.819	0.0156301
919.897	0.0156082
