05/20/2022	21:31:55	Ver.	4.1	UNKNOWN
Optical Delay	599.975067	Delta X		0.078125	Sweeps	1	Scan Rate	0/0
Coordinates	Axis 1	NaN	Axis 2	NaN	Axis 3	NaN	Axis 4	NaN	Axis 5	NaN	Axis 6	0.000000
TX Power	0.000000	RX Power	0.000000

599.975	0.0163511
600.053	0.0163116
600.131	0.0162402
600.209	0.0162798
600.288	0.0162587
600.366	0.0162383
600.444	0.0162433
600.522	0.0162134
600.600	0.0161626
600.678	0.0160915
600.756	0.0161148
600.834	0.0162408
600.913	0.0161649
600.991	0.0162270
601.069	0.0161813
601.147	0.0162427
601.225	0.0162527
601.303	0.0161224
601.381	0.0161602
601.459	0.0161945
601.538	0.0161922
601.616	0.0162756
601.694	0.0162360
601.772	0.0160533
601.850	0.0162640
601.928	0.0160921
602.006	0.0161744
602.084	0.0163884
602.163	0.0163287
602.241	0.0161555
602.319	0.0162492
602.397	0.0163396
602.475	0.0162948
602.553	0.0162955
602.631	0.0163798
602.709	0.0163488
602.788	0.0163842
602.866	0.0163937
602.944	0.0163004
603.022	0.0162550
603.100	0.0162949
603.178	0.0163714
603.256	0.0164397
603.334	0.0162608
603.413	0.0163342
603.491	0.0162373
603.569	0.0162791
603.647	0.0165194
603.725	0.0164355
603.803	0.0162009
603.881	0.0163514
603.959	0.0163892
604.038	0.0162861
604.116	0.0163623
604.194	0.0162810
604.272	0.0163933
604.350	0.0164528
604.428	0.0163503
604.506	0.0164501
604.584	0.0162974
604.663	0.0162698
604.741	0.0163284
604.819	0.0164954
604.897	0.0165133
604.975	0.0162977
605.053	0.0163530
605.131	0.0163120
605.209	0.0164445
605.288	0.0163217
605.366	0.0162917
605.444	0.0163982
605.522	0.0163399
605.600	0.0163424
605.678	0.0163369
605.756	0.0164572
605.834	0.0163374
605.913	0.0164628
605.991	0.0165014
606.069	0.0163623
606.147	0.0164815
606.225	0.0163990
606.303	0.0163361
606.381	0.0163143
606.459	0.0164636
606.538	0.0165183
606.616	0.0164967
606.694	0.0164553
606.772	0.0165136
606.850	0.0163227
606.928	0.0165948
607.006	0.0164845
607.084	0.0164935
607.163	0.0163797
607.241	0.0166360
607.319	0.0166227
607.397	0.0163477
607.475	0.0165202
607.553	0.0167284
607.631	0.0166753
607.709	0.0164118
607.788	0.0165945
607.866	0.0164945
607.944	0.0166343
608.022	0.0164672
608.100	0.0165177
608.178	0.0165306
608.256	0.0163830
608.334	0.0164825
608.413	0.0165009
608.491	0.0163671
608.569	0.0164478
608.647	0.0163605
608.725	0.0164249
608.803	0.0163126
608.881	0.0163988
608.959	0.0164584
609.038	0.0163553
609.116	0.0162971
609.194	0.0163950
609.272	0.0164226
609.350	0.0164648
609.428	0.0163367
609.506	0.0164431
609.584	0.0165240
609.663	0.0164280
609.741	0.0163449
609.819	0.0162922
609.897	0.0163790
609.975	0.0163504
610.053	0.0163662
610.131	0.0162794
610.209	0.0162556
610.288	0.0162612
610.366	0.0163144
610.444	0.0164104
610.522	0.0162428
610.600	0.0162405
610.678	0.0163522
610.756	0.0162709
610.834	0.0163564
610.913	0.0164119
610.991	0.0162650
611.069	0.0163434
611.147	0.0165331
611.225	0.0163461
611.303	0.0163016
611.381	0.0164319
611.459	0.0162168
611.538	0.0163249
611.616	0.0162620
611.694	0.0163986
611.772	0.0162399
611.850	0.0162507
611.928	0.0164275
612.006	0.0164326
612.084	0.0162324
612.163	0.0161334
612.241	0.0162754
612.319	0.0162655
612.397	0.0162025
612.475	0.0162247
612.553	0.0163326
612.631	0.0163380
612.709	0.0163703
612.788	0.0163459
612.866	0.0162859
612.944	0.0163353
613.022	0.0163123
613.100	0.0162656
613.178	0.0162772
613.256	0.0162130
613.334	0.0163221
613.413	0.0162921
613.491	0.0162843
613.569	0.0163158
613.647	0.0161680
613.725	0.0162096
613.803	0.0161970
613.881	0.0161071
613.959	0.0161631
614.038	0.0162511
614.116	0.0163185
614.194	0.0162291
614.272	0.0160973
614.350	0.0162174
614.428	0.0162056
614.506	0.0161674
614.584	0.0162604
614.663	0.0162482
614.741	0.0162381
614.819	0.0163156
614.897	0.0162415
614.975	0.0162042
615.053	0.0163084
615.131	0.0161330
615.209	0.0161819
615.288	0.0163188
615.366	0.0162585
615.444	0.0161897
615.522	0.0162820
615.600	0.0161626
615.678	0.0161881
615.756	0.0163585
615.834	0.0161156
615.913	0.0162526
615.991	0.0163066
616.069	0.0161774
616.147	0.0162714
616.225	0.0162473
616.303	0.0161858
616.381	0.0162227
616.459	0.0162430
616.538	0.0161588
616.616	0.0162775
616.694	0.0162495
616.772	0.0161391
616.850	0.0164269
616.928	0.0163329
617.006	0.0163770
617.084	0.0161392
617.163	0.0163132
617.241	0.0162878
617.319	0.0163760
617.397	0.0163457
617.475	0.0163813
617.553	0.0162314
617.631	0.0163504
617.709	0.0164378
617.788	0.0164098
617.866	0.0163268
617.944	0.0163953
618.022	0.0162734
618.100	0.0164243
618.178	0.0164700
618.256	0.0163307
618.334	0.0162860
618.413	0.0164207
618.491	0.0164478
618.569	0.0163345
618.647	0.0164251
618.725	0.0164272
618.803	0.0164880
618.881	0.0165051
618.959	0.0164355
619.038	0.0163869
619.116	0.0164045
619.194	0.0164488
619.272	0.0163697
619.350	0.0164537
619.428	0.0164304
619.506	0.0164568
619.584	0.0164263
619.663	0.0165204
619.741	0.0165501
619.819	0.0164525
619.897	0.0163999
619.975	0.0163660
620.053	0.0165583
620.131	0.0163519
620.209	0.0164191
620.288	0.0163557
620.366	0.0163629
620.444	0.0164575
620.522	0.0164442
620.600	0.0162343
620.678	0.0163422
620.756	0.0163538
620.834	0.0163905
620.913	0.0163935
620.991	0.0163475
621.069	0.0164478
621.147	0.0164048
621.225	0.0163508
621.303	0.0164288
621.381	0.0164043
621.459	0.0163848
621.538	0.0164084
621.616	0.0163985
621.694	0.0163915
621.772	0.0163380
621.850	0.0164294
621.928	0.0162202
622.006	0.0163173
622.084	0.0162859
622.163	0.0163415
622.241	0.0163664
622.319	0.0164353
622.397	0.0163100
622.475	0.0164229
622.553	0.0164682
622.631	0.0163781
622.709	0.0163319
622.788	0.0164256
622.866	0.0163789
622.944	0.0163628
623.022	0.0162928
623.100	0.0163685
623.178	0.0162450
623.256	0.0163953
623.334	0.0163692
623.413	0.0163483
623.491	0.0163227
623.569	0.0163067
623.647	0.0163555
623.725	0.0162948
623.803	0.0162713
623.881	0.0162717
623.959	0.0162651
624.038	0.0163329
624.116	0.0164920
624.194	0.0162984
624.272	0.0163644
624.350	0.0163996
624.428	0.0162777
624.506	0.0162409
624.584	0.0164353
624.663	0.0163680
624.741	0.0163385
624.819	0.0163681
624.897	0.0162226
624.975	0.0163298
625.053	0.0163044
625.131	0.0162446
625.209	0.0163518
625.288	0.0162534
625.366	0.0161939
625.444	0.0162040
625.522	0.0162440
625.600	0.0162743
625.678	0.0163067
625.756	0.0162405
625.834	0.0164695
625.913	0.0163387
625.991	0.0163112
626.069	0.0162546
626.147	0.0165234
626.225	0.0164111
626.303	0.0162143
626.381	0.0164025
626.459	0.0163441
626.538	0.0162653
626.616	0.0163713
626.694	0.0163493
626.772	0.0163457
626.850	0.0164087
626.928	0.0163285
627.006	0.0162242
627.084	0.0163432
627.163	0.0163325
627.241	0.0162828
627.319	0.0162210
627.397	0.0162765
627.475	0.0163921
627.553	0.0163070
627.631	0.0163868
627.709	0.0162830
627.788	0.0161230
627.866	0.0163258
627.944	0.0163277
628.022	0.0162711
628.100	0.0163349
628.178	0.0163766
628.256	0.0165633
628.334	0.0164198
628.413	0.0163776
628.491	0.0163092
628.569	0.0163203
628.647	0.0162654
628.725	0.0162917
628.803	0.0162968
628.881	0.0162466
628.959	0.0162083
629.038	0.0162106
629.116	0.0162571
629.194	0.0162234
629.272	0.0161405
629.350	0.0162392
629.428	0.0163049
629.506	0.0160683
629.584	0.0162048
629.663	0.0163370
629.741	0.0162317
629.819	0.0161668
629.897	0.0161861
629.975	0.0160928
630.053	0.0161407
630.131	0.0163947
630.209	0.0163464
630.288	0.0162008
630.366	0.0162011
630.444	0.0162570
630.522	0.0163915
630.600	0.0162573
630.678	0.0163946
630.756	0.0162070
630.834	0.0163475
630.913	0.0164317
630.991	0.0163172
631.069	0.0162643
631.147	0.0162863
631.225	0.0163062
631.303	0.0162809
631.381	0.0163575
631.459	0.0163199
631.538	0.0163348
631.616	0.0163528
631.694	0.0164200
631.772	0.0165048
631.850	0.0163798
631.928	0.0163125
632.006	0.0163065
632.084	0.0164099
632.163	0.0163861
632.241	0.0164388
632.319	0.0163901
632.397	0.0162898
632.475	0.0162924
632.553	0.0163192
632.631	0.0163053
632.709	0.0163883
632.788	0.0164596
632.866	0.0163407
632.944	0.0163525
633.022	0.0161659
633.100	0.0163387
633.178	0.0163058
633.256	0.0161523
633.334	0.0163193
633.413	0.0163597
633.491	0.0162976
633.569	0.0162940
633.647	0.0163168
633.725	0.0163388
633.803	0.0161496
633.881	0.0164032
633.959	0.0164237
634.038	0.0163898
634.116	0.0163455
634.194	0.0163922
634.272	0.0165192
634.350	0.0163953
634.428	0.0164299
634.506	0.0163557
634.584	0.0163916
634.663	0.0163375
634.741	0.0163621
634.819	0.0164043
634.897	0.0163184
634.975	0.0164467
635.053	0.0164436
635.131	0.0163542
635.209	0.0163359
635.288	0.0164288
635.366	0.0162395
635.444	0.0163754
635.522	0.0163367
635.600	0.0162435
635.678	0.0162866
635.756	0.0161782
635.834	0.0162338
635.913	0.0162078
635.991	0.0163219
636.069	0.0161680
636.147	0.0161665
636.225	0.0162110
636.303	0.0162336
636.381	0.0161967
636.459	0.0162200
636.538	0.0161599
636.616	0.0161339
636.694	0.0161445
636.772	0.0161461
636.850	0.0161754
636.928	0.0161990
637.006	0.0161365
637.084	0.0161797
637.163	0.0161016
637.241	0.0159801
637.319	0.0162257
637.397	0.0161068
637.475	0.0161060
637.553	0.0160450
637.631	0.0160451
637.709	0.0161145
637.788	0.0161102
637.866	0.0160903
637.944	0.0160311
638.022	0.0161479
638.100	0.0161326
638.178	0.0161759
638.256	0.0161253
638.334	0.0161395
638.413	0.0161674
638.491	0.0161362
638.569	0.0161731
638.647	0.0161303
638.725	0.0160616
638.803	0.0162868
638.881	0.0161501
638.959	0.0159760
639.038	0.0160745
639.116	0.0160006
639.194	0.0160809
639.272	0.0161538
639.350	0.0161639
639.428	0.0162422
639.506	0.0160255
639.584	0.0162317
639.663	0.0163088
639.741	0.0161582
639.819	0.0161533
639.897	0.0161653
639.975	0.0161652
640.053	0.0162509
640.131	0.0162631
640.209	0.0162418
640.288	0.0163773
640.366	0.0162425
640.444	0.0162856
640.522	0.0162085
640.600	0.0161784
640.678	0.0162366
640.756	0.0162157
640.834	0.0162811
640.913	0.0162212
640.991	0.0162553
641.069	0.0162525
641.147	0.0163512
641.225	0.0161173
641.303	0.0161664
641.381	0.0161861
641.459	0.0161933
641.538	0.0161753
641.616	0.0162515
641.694	0.0161968
641.772	0.0160579
641.850	0.0161538
641.928	0.0162554
642.006	0.0164252
642.084	0.0163181
642.163	0.0163055
642.241	0.0162552
642.319	0.0163339
642.397	0.0164661
642.475	0.0164226
642.553	0.0162762
642.631	0.0163622
642.709	0.0164098
642.788	0.0164881
642.866	0.0163128
642.944	0.0164010
643.022	0.0162912
643.100	0.0163404
643.178	0.0163808
643.256	0.0164441
643.334	0.0164214
643.413	0.0163769
643.491	0.0163343
643.569	0.0163486
643.647	0.0163493
643.725	0.0162110
643.803	0.0161806
643.881	0.0164109
643.959	0.0163607
644.038	0.0162103
644.116	0.0162416
644.194	0.0162257
644.272	0.0162436
644.350	0.0162731
644.428	0.0162304
644.506	0.0163769
644.584	0.0162392
644.663	0.0162656
644.741	0.0162851
644.819	0.0162881
644.897	0.0163730
644.975	0.0163144
645.053	0.0162403
645.131	0.0164146
645.209	0.0166235
645.288	0.0164515
645.366	0.0162346
645.444	0.0162936
645.522	0.0164474
645.600	0.0164093
645.678	0.0163342
645.756	0.0162553
645.834	0.0163976
645.913	0.0164147
645.991	0.0163974
646.069	0.0164973
646.147	0.0164632
646.225	0.0165562
646.303	0.0162971
646.381	0.0163939
646.459	0.0165070
646.538	0.0164649
646.616	0.0164700
646.694	0.0162875
646.772	0.0164773
646.850	0.0163216
646.928	0.0163847
647.006	0.0164480
647.084	0.0164979
647.163	0.0166370
647.241	0.0165141
647.319	0.0165345
647.397	0.0163858
647.475	0.0163502
647.553	0.0164548
647.631	0.0163602
647.709	0.0164131
647.788	0.0164211
647.866	0.0163354
647.944	0.0164185
648.022	0.0163130
648.100	0.0164549
648.178	0.0165302
648.256	0.0162714
648.334	0.0162730
648.413	0.0163477
648.491	0.0163034
648.569	0.0162601
648.647	0.0162834
648.725	0.0164252
648.803	0.0163628
648.881	0.0163116
648.959	0.0161856
649.038	0.0161996
649.116	0.0161977
649.194	0.0161245
649.272	0.0161420
649.350	0.0162348
649.428	0.0161432
649.506	0.0161961
649.584	0.0161852
649.663	0.0161411
649.741	0.0161048
649.819	0.0161015
649.897	0.0161147
649.975	0.0161071
650.053	0.0162106
650.131	0.0160913
650.209	0.0160153
650.288	0.0160082
650.366	0.0160811
650.444	0.0159589
650.522	0.0160061
650.600	0.0160564
650.678	0.0160556
650.756	0.0159785
650.834	0.0159928
650.913	0.0160693
650.991	0.0160773
651.069	0.0161539
651.147	0.0160181
651.225	0.0160152
651.303	0.0160401
651.381	0.0159822
651.459	0.0160102
651.538	0.0161922
651.616	0.0160999
651.694	0.0159966
651.772	0.0161076
651.850	0.0162781
651.928	0.0160331
652.006	0.0161807
652.084	0.0160645
652.163	0.0162510
652.241	0.0162156
652.319	0.0161115
652.397	0.0162659
652.475	0.0163660
652.553	0.0161560
652.631	0.0161716
652.709	0.0161940
652.788	0.0161745
652.866	0.0160530
652.944	0.0160920
653.022	0.0160454
653.100	0.0160248
653.178	0.0160576
653.256	0.0159961
653.334	0.0159585
653.413	0.0160042
653.491	0.0160551
653.569	0.0160007
653.647	0.0160785
653.725	0.0159151
653.803	0.0160640
653.881	0.0160524
653.959	0.0159742
654.038	0.0160776
654.116	0.0161164
654.194	0.0161163
654.272	0.0161581
654.350	0.0162360
654.428	0.0161824
654.506	0.0161006
654.584	0.0162977
654.663	0.0164036
654.741	0.0162423
654.819	0.0162730
654.897	0.0163084
654.975	0.0164246
655.053	0.0163020
655.131	0.0162306
655.209	0.0161250
655.288	0.0161192
655.366	0.0161498
655.444	0.0161215
655.522	0.0159402
655.600	0.0160545
655.678	0.0159495
655.756	0.0159150
655.834	0.0158558
655.913	0.0159762
655.991	0.0158090
656.069	0.0156654
656.147	0.0157399
656.225	0.0157202
656.303	0.0157622
656.381	0.0158006
656.459	0.0158611
656.538	0.0158914
656.616	0.0158405
656.694	0.0158426
656.772	0.0158333
656.850	0.0160098
656.928	0.0160265
657.006	0.0161257
657.084	0.0160169
657.163	0.0161150
657.241	0.0162321
657.319	0.0162476
657.397	0.0163181
657.475	0.0161889
657.553	0.0164635
657.631	0.0163339
657.709	0.0164622
657.788	0.0164645
657.866	0.0164807
657.944	0.0165096
658.022	0.0166084
658.100	0.0165219
658.178	0.0165018
658.256	0.0164659
658.334	0.0165282
658.413	0.0164137
658.491	0.0163692
658.569	0.0164256
658.647	0.0163672
658.725	0.0162652
658.803	0.0163396
658.881	0.0162826
658.959	0.0160449
659.038	0.0160835
659.116	0.0159608
659.194	0.0160506
659.272	0.0159681
659.350	0.0159610
659.428	0.0159723
659.506	0.0158878
659.584	0.0159278
659.663	0.0159075
659.741	0.0159967
659.819	0.0158021
659.897	0.0158637
659.975	0.0158637
660.053	0.0157597
660.131	0.0160018
660.209	0.0159177
660.288	0.0159427
660.366	0.0159277
660.444	0.0160884
660.522	0.0160587
660.600	0.0161800
660.678	0.0161976
660.756	0.0161716
660.834	0.0162864
660.913	0.0163255
660.991	0.0163576
661.069	0.0163942
661.147	0.0164037
661.225	0.0164403
661.303	0.0165328
661.381	0.0164043
661.459	0.0166237
661.538	0.0166499
661.616	0.0164118
661.694	0.0163405
661.772	0.0164114
661.850	0.0162961
661.928	0.0163304
662.006	0.0162944
662.084	0.0163135
662.163	0.0162605
662.241	0.0161831
662.319	0.0162221
662.397	0.0161818
662.475	0.0161649
662.553	0.0161382
662.631	0.0161375
662.709	0.0160620
662.788	0.0161366
662.866	0.0161709
662.944	0.0161513
663.022	0.0163549
663.100	0.0161585
663.178	0.0160839
663.256	0.0161347
663.334	0.0161711
663.413	0.0162296
663.491	0.0162413
663.569	0.0164188
663.647	0.0163640
663.725	0.0163079
663.803	0.0163242
663.881	0.0163906
663.959	0.0164442
664.038	0.0163520
664.116	0.0163385
664.194	0.0162503
664.272	0.0163270
664.350	0.0162991
664.428	0.0163483
664.506	0.0162695
664.584	0.0160802
664.663	0.0162563
664.741	0.0161074
664.819	0.0161143
664.897	0.0162309
664.975	0.0160934
665.053	0.0160115
665.131	0.0160495
665.209	0.0160075
665.288	0.0160621
665.366	0.0160173
665.444	0.0158890
665.522	0.0159965
665.600	0.0159623
665.678	0.0160648
665.756	0.0160594
665.834	0.0160890
665.913	0.0160213
665.991	0.0159728
666.069	0.0161491
666.147	0.0162168
666.225	0.0161994
666.303	0.0161151
666.381	0.0162737
666.459	0.0161391
666.538	0.0162312
666.616	0.0162945
666.694	0.0163371
666.772	0.0163409
666.850	0.0162659
666.928	0.0163975
667.006	0.0162909
667.084	0.0163904
667.163	0.0164989
667.241	0.0164947
667.319	0.0163589
667.397	0.0163885
667.475	0.0164435
667.553	0.0164411
667.631	0.0165992
667.709	0.0165408
667.788	0.0163571
667.866	0.0164243
667.944	0.0164774
668.022	0.0164581
668.100	0.0163257
668.178	0.0163783
668.256	0.0164877
668.334	0.0163069
668.413	0.0162737
668.491	0.0163618
668.569	0.0162823
668.647	0.0162186
668.725	0.0163889
668.803	0.0162617
668.881	0.0161414
668.959	0.0162827
669.038	0.0161398
669.116	0.0161758
669.194	0.0160848
669.272	0.0160504
669.350	0.0161478
669.428	0.0161688
669.506	0.0159444
669.584	0.0159650
669.663	0.0160184
669.741	0.0158698
669.819	0.0157862
669.897	0.0158051
669.975	0.0160133
670.053	0.0158607
670.131	0.0158204
670.209	0.0159516
670.288	0.0160641
670.366	0.0160270
670.444	0.0161808
670.522	0.0161111
670.600	0.0161238
670.678	0.0161958
670.756	0.0162573
670.834	0.0163283
670.913	0.0163997
670.991	0.0164614
671.069	0.0163748
671.147	0.0164938
671.225	0.0165455
671.303	0.0163612
671.381	0.0165551
671.459	0.0166159
671.538	0.0166014
671.616	0.0165240
671.694	0.0166736
671.772	0.0165617
671.850	0.0166521
671.928	0.0166084
672.006	0.0166012
672.084	0.0165887
672.163	0.0167261
672.241	0.0167681
672.319	0.0166251
672.397	0.0166958
672.475	0.0166892
672.553	0.0166847
672.631	0.0167964
672.709	0.0166920
672.788	0.0166920
672.866	0.0167928
672.944	0.0168550
673.022	0.0169269
673.100	0.0169354
673.178	0.0168441
673.256	0.0169476
673.334	0.0170029
673.413	0.0168871
673.491	0.0169712
673.569	0.0168933
673.647	0.0167789
673.725	0.0166534
673.803	0.0166157
673.881	0.0167175
673.959	0.0165829
674.038	0.0165469
674.116	0.0163463
674.194	0.0163116
674.272	0.0160122
674.350	0.0158856
674.428	0.0159290
674.506	0.0158024
674.584	0.0157092
674.663	0.0154167
674.741	0.0155264
674.819	0.0154504
674.897	0.0151446
674.975	0.0152049
675.053	0.0151662
675.131	0.0151219
675.209	0.0151241
675.288	0.0150710
675.366	0.0150205
675.444	0.0148681
675.522	0.0149130
675.600	0.0150526
675.678	0.0151600
675.756	0.0150455
675.834	0.0150816
675.913	0.0153571
675.991	0.0154394
676.069	0.0156174
676.147	0.0155946
676.225	0.0158083
676.303	0.0159608
676.381	0.0161102
676.459	0.0163222
676.538	0.0163799
676.616	0.0166996
676.694	0.0167586
676.772	0.0167332
676.850	0.0168913
676.928	0.0171028
677.006	0.0172649
677.084	0.0171846
677.163	0.0171730
677.241	0.0172956
677.319	0.0172585
677.397	0.0172299
677.475	0.0171992
677.553	0.0171246
677.631	0.0172093
677.709	0.0171329
677.788	0.0169362
677.866	0.0168684
677.944	0.0167415
678.022	0.0165022
678.100	0.0164545
678.178	0.0165028
678.256	0.0163485
678.334	0.0162830
678.413	0.0159872
678.491	0.0159351
678.569	0.0158837
678.647	0.0157770
678.725	0.0157594
678.803	0.0157366
678.881	0.0156567
678.959	0.0156634
679.038	0.0155482
679.116	0.0154847
679.194	0.0155676
679.272	0.0153407
679.350	0.0153014
679.428	0.0154602
679.506	0.0155898
679.584	0.0155263
679.663	0.0156943
679.741	0.0156087
679.819	0.0156615
679.897	0.0157575
679.975	0.0157784
680.053	0.0159615
680.131	0.0159942
680.209	0.0160546
680.288	0.0160337
680.366	0.0161708
680.444	0.0160945
680.522	0.0162290
680.600	0.0162887
680.678	0.0163899
680.756	0.0163509
680.834	0.0165618
680.913	0.0164892
680.991	0.0163986
681.069	0.0164256
681.147	0.0165926
681.225	0.0167153
681.303	0.0164832
681.381	0.0164446
681.459	0.0164722
681.538	0.0165855
681.616	0.0167544
681.694	0.0166801
681.772	0.0165398
681.850	0.0167316
681.928	0.0165874
682.006	0.0166763
682.084	0.0166318
682.163	0.0166056
682.241	0.0165146
682.319	0.0165207
682.397	0.0165295
682.475	0.0166456
682.553	0.0165154
682.631	0.0166543
682.709	0.0165485
682.788	0.0163767
682.866	0.0163991
682.944	0.0164851
683.022	0.0164728
683.100	0.0162508
683.178	0.0163660
683.256	0.0163992
683.334	0.0162039
683.413	0.0161574
683.491	0.0161933
683.569	0.0161089
683.647	0.0158732
683.725	0.0158888
683.803	0.0158884
683.881	0.0157343
683.959	0.0156364
684.038	0.0155848
684.116	0.0155732
684.194	0.0155024
684.272	0.0156013
684.350	0.0154829
684.428	0.0154344
684.506	0.0154224
684.584	0.0155723
684.663	0.0156049
684.741	0.0156857
684.819	0.0158788
684.897	0.0158501
684.975	0.0160196
685.053	0.0161771
685.131	0.0161745
685.209	0.0164161
685.288	0.0164784
685.366	0.0168017
685.444	0.0167696
685.522	0.0167786
685.600	0.0169289
685.678	0.0169547
685.756	0.0169183
685.834	0.0168774
685.913	0.0169167
685.991	0.0168683
686.069	0.0169175
686.147	0.0169360
686.225	0.0168523
686.303	0.0167415
686.381	0.0169062
686.459	0.0166582
686.538	0.0166499
686.616	0.0166127
686.694	0.0165524
686.772	0.0166055
686.850	0.0165257
686.928	0.0165517
687.006	0.0164572
687.084	0.0163892
687.163	0.0162837
687.241	0.0164101
687.319	0.0162878
687.397	0.0160835
687.475	0.0160175
687.553	0.0158273
687.631	0.0158065
687.709	0.0158141
687.788	0.0157993
687.866	0.0158068
687.944	0.0156281
688.022	0.0155026
688.100	0.0158147
688.178	0.0159045
688.256	0.0158115
688.334	0.0158633
688.413	0.0160018
688.491	0.0159953
688.569	0.0160533
688.647	0.0161951
688.725	0.0163302
688.803	0.0162677
688.881	0.0163923
688.959	0.0164655
689.038	0.0164233
689.116	0.0165088
689.194	0.0166628
689.272	0.0167976
689.350	0.0167271
689.428	0.0168092
689.506	0.0168616
689.584	0.0169528
689.663	0.0170183
689.741	0.0170319
689.819	0.0170401
689.897	0.0168179
689.975	0.0169840
690.053	0.0170168
690.131	0.0167777
690.209	0.0168649
690.288	0.0167902
690.366	0.0167677
690.444	0.0166682
690.522	0.0166105
690.600	0.0164700
690.678	0.0162946
690.756	0.0163739
690.834	0.0163494
690.913	0.0162062
690.991	0.0161304
691.069	0.0160555
691.147	0.0159567
691.225	0.0159055
691.303	0.0159395
691.381	0.0159314
691.459	0.0159061
691.538	0.0157515
691.616	0.0158429
691.694	0.0158842
691.772	0.0158254
691.850	0.0159437
691.928	0.0161440
692.006	0.0159760
692.084	0.0157985
692.163	0.0160773
692.241	0.0162683
692.319	0.0161926
692.397	0.0163208
692.475	0.0163429
692.553	0.0163654
692.631	0.0164782
692.709	0.0165418
692.788	0.0168093
692.866	0.0167087
692.944	0.0167127
693.022	0.0169519
693.100	0.0170133
693.178	0.0171004
693.256	0.0170039
693.334	0.0171506
693.413	0.0171670
693.491	0.0171894
693.569	0.0171087
693.647	0.0170895
693.725	0.0170543
693.803	0.0168578
693.881	0.0169034
693.959	0.0169702
694.038	0.0168342
694.116	0.0165409
694.194	0.0167133
694.272	0.0165791
694.350	0.0163662
694.428	0.0164206
694.506	0.0163154
694.584	0.0160424
694.663	0.0162041
694.741	0.0160228
694.819	0.0158949
694.897	0.0158312
694.975	0.0156824
695.053	0.0155960
695.131	0.0155109
695.209	0.0154147
695.288	0.0152049
695.366	0.0151768
695.444	0.0151886
695.522	0.0149911
695.600	0.0151205
695.678	0.0149415
695.756	0.0149855
695.834	0.0150121
695.913	0.0149104
695.991	0.0149928
696.069	0.0149956
696.147	0.0151731
696.225	0.0152923
696.303	0.0154523
696.381	0.0155614
696.459	0.0155756
696.538	0.0159694
696.616	0.0159561
696.694	0.0162688
696.772	0.0163146
696.850	0.0166532
696.928	0.0168694
697.006	0.0169295
697.084	0.0169913
697.163	0.0171014
697.241	0.0170718
697.319	0.0172855
697.397	0.0173867
697.475	0.0173398
697.553	0.0173678
697.631	0.0173314
697.709	0.0174912
697.788	0.0174436
697.866	0.0172647
697.944	0.0174570
698.022	0.0174908
698.100	0.0173716
698.178	0.0172434
698.256	0.0173793
698.334	0.0173973
698.413	0.0171789
698.491	0.0172457
698.569	0.0173917
698.647	0.0173412
698.725	0.0173133
698.803	0.0171850
698.881	0.0170800
698.959	0.0171037
699.038	0.0171494
699.116	0.0171648
699.194	0.0169100
699.272	0.0169490
699.350	0.0168806
699.428	0.0168210
699.506	0.0167001
699.584	0.0166879
699.663	0.0164134
699.741	0.0163716
699.819	0.0161664
699.897	0.0160976
699.975	0.0160514
700.053	0.0158181
700.131	0.0157491
700.209	0.0156539
700.288	0.0154782
700.366	0.0154123
700.444	0.0152650
700.522	0.0153951
700.600	0.0153379
700.678	0.0151958
700.756	0.0151983
700.834	0.0149081
700.913	0.0150449
700.991	0.0150457
701.069	0.0149553
701.147	0.0149732
701.225	0.0149182
701.303	0.0151600
701.381	0.0150387
701.459	0.0151004
701.538	0.0153787
701.616	0.0153423
701.694	0.0155465
701.772	0.0156552
701.850	0.0157894
701.928	0.0161320
702.006	0.0161608
702.084	0.0162685
702.163	0.0165992
702.241	0.0167566
702.319	0.0169921
702.397	0.0169672
702.475	0.0171328
702.553	0.0173161
702.631	0.0174548
702.709	0.0175030
702.788	0.0176981
702.866	0.0176989
702.944	0.0177787
703.022	0.0178274
703.100	0.0177094
703.178	0.0177532
703.256	0.0177347
703.334	0.0176453
703.413	0.0174718
703.491	0.0173801
703.569	0.0172743
703.647	0.0170482
703.725	0.0168140
703.803	0.0169292
703.881	0.0166608
703.959	0.0164227
704.038	0.0162118
704.116	0.0160097
704.194	0.0160257
704.272	0.0157824
704.350	0.0155843
704.428	0.0155158
704.506	0.0152817
704.584	0.0151899
704.663	0.0152617
704.741	0.0151395
704.819	0.0150770
704.897	0.0151823
704.975	0.0152001
705.053	0.0150564
705.131	0.0151732
705.209	0.0152520
705.288	0.0153273
705.366	0.0153720
705.444	0.0156383
705.522	0.0157285
705.600	0.0158927
705.678	0.0160138
705.756	0.0160058
705.834	0.0163094
705.913	0.0163548
705.991	0.0164235
706.069	0.0163840
706.147	0.0164872
706.225	0.0166522
706.303	0.0165391
706.381	0.0165757
706.459	0.0165368
706.538	0.0164310
706.616	0.0164462
706.694	0.0164319
706.772	0.0164364
706.850	0.0161958
706.928	0.0161992
707.006	0.0161262
707.084	0.0160520
707.163	0.0159139
707.241	0.0158641
707.319	0.0158170
707.397	0.0157380
707.475	0.0157972
707.553	0.0158580
707.631	0.0158569
707.709	0.0158159
707.788	0.0159576
707.866	0.0159843
707.944	0.0160446
708.022	0.0162571
708.100	0.0162069
708.178	0.0162617
708.256	0.0166528
708.334	0.0165807
708.413	0.0165804
708.491	0.0168002
708.569	0.0168303
708.647	0.0168463
708.725	0.0169492
708.803	0.0169516
708.881	0.0170074
708.959	0.0169891
709.038	0.0171471
709.116	0.0171422
709.194	0.0169503
709.272	0.0170168
709.350	0.0170063
709.428	0.0169765
709.506	0.0168730
709.584	0.0167772
709.663	0.0167860
709.741	0.0167467
709.819	0.0168126
709.897	0.0165198
709.975	0.0166107
710.053	0.0165781
710.131	0.0164421
710.209	0.0163737
710.288	0.0163748
710.366	0.0163718
710.444	0.0162448
710.522	0.0161612
710.600	0.0160376
710.678	0.0160831
710.756	0.0160625
710.834	0.0158588
710.913	0.0157941
710.991	0.0158779
711.069	0.0158103
711.147	0.0158006
711.225	0.0159832
711.303	0.0160060
711.381	0.0158659
711.459	0.0159336
711.538	0.0161102
711.616	0.0160706
711.694	0.0160358
711.772	0.0161420
711.850	0.0162966
711.928	0.0162626
712.006	0.0163646
712.084	0.0164078
712.163	0.0163556
712.241	0.0164327
712.319	0.0166174
712.397	0.0166273
712.475	0.0169001
712.553	0.0168212
712.631	0.0168559
712.709	0.0169891
712.788	0.0170760
712.866	0.0171471
712.944	0.0170599
713.022	0.0171370
713.100	0.0171317
713.178	0.0171636
713.256	0.0172945
713.334	0.0172816
713.413	0.0171122
713.491	0.0170095
713.569	0.0169766
713.647	0.0169542
713.725	0.0168820
713.803	0.0167370
713.881	0.0165591
713.959	0.0164231
714.038	0.0163401
714.116	0.0162621
714.194	0.0161462
714.272	0.0159574
714.350	0.0159615
714.428	0.0157403
714.506	0.0158212
714.584	0.0157513
714.663	0.0156345
714.741	0.0155872
714.819	0.0154234
714.897	0.0155903
714.975	0.0153719
715.053	0.0154446
715.131	0.0153255
715.209	0.0153500
715.288	0.0155010
715.366	0.0155863
715.444	0.0156790
715.522	0.0157996
715.600	0.0158263
715.678	0.0158807
715.756	0.0160503
715.834	0.0162569
715.913	0.0162764
715.991	0.0164168
716.069	0.0165559
716.147	0.0164618
716.225	0.0166206
716.303	0.0167458
716.381	0.0168185
716.459	0.0166463
716.538	0.0168411
716.616	0.0168207
716.694	0.0167440
716.772	0.0165060
716.850	0.0167061
716.928	0.0166246
717.006	0.0165963
717.084	0.0164920
717.163	0.0166035
717.241	0.0166679
717.319	0.0164751
717.397	0.0165002
717.475	0.0164187
717.553	0.0165322
717.631	0.0166274
717.709	0.0163849
717.788	0.0164703
717.866	0.0165226
717.944	0.0166737
718.022	0.0165009
718.100	0.0165250
718.178	0.0166661
718.256	0.0166668
718.334	0.0165628
718.413	0.0164900
718.491	0.0164711
718.569	0.0164367
718.647	0.0164338
718.725	0.0163876
718.803	0.0164157
718.881	0.0163446
718.959	0.0162849
719.038	0.0160396
719.116	0.0160464
719.194	0.0161706
719.272	0.0160945
719.350	0.0158163
719.428	0.0157290
719.506	0.0159925
719.584	0.0157906
719.663	0.0156989
719.741	0.0155836
719.819	0.0156031
719.897	0.0155279
719.975	0.0153510
720.053	0.0153596
720.131	0.0153810
720.209	0.0153650
720.288	0.0154053
720.366	0.0154472
720.444	0.0154389
720.522	0.0154974
720.600	0.0154972
720.678	0.0155460
720.756	0.0155414
720.834	0.0156618
720.913	0.0157671
720.991	0.0158229
721.069	0.0159360
721.147	0.0161232
721.225	0.0162736
721.303	0.0162860
721.381	0.0164548
721.459	0.0167097
721.538	0.0168253
721.616	0.0169012
721.694	0.0170256
721.772	0.0171824
721.850	0.0172653
721.928	0.0172303
722.006	0.0172522
722.084	0.0174836
722.163	0.0174384
722.241	0.0174861
722.319	0.0175343
722.397	0.0173042
722.475	0.0172765
722.553	0.0171574
722.631	0.0171095
722.709	0.0169083
722.788	0.0169518
722.866	0.0168065
722.944	0.0166422
723.022	0.0165390
723.100	0.0164091
723.178	0.0160744
723.256	0.0160527
723.334	0.0159351
723.413	0.0158485
723.491	0.0157101
723.569	0.0158096
723.647	0.0157481
723.725	0.0156339
723.803	0.0157452
723.881	0.0155723
723.959	0.0156077
724.038	0.0155344
724.116	0.0158105
724.194	0.0158202
724.272	0.0157134
724.350	0.0158634
724.428	0.0158711
724.506	0.0159058
724.584	0.0159905
724.663	0.0160534
724.741	0.0162006
724.819	0.0162147
724.897	0.0161088
724.975	0.0162413
725.053	0.0163660
725.131	0.0162625
725.209	0.0162910
725.288	0.0164812
725.366	0.0163599
725.444	0.0163841
725.522	0.0163329
725.600	0.0163113
725.678	0.0162006
725.756	0.0162247
725.834	0.0161721
725.913	0.0160958
725.991	0.0160501
726.069	0.0159995
726.147	0.0158685
726.225	0.0157896
726.303	0.0158472
726.381	0.0158312
726.459	0.0158840
726.538	0.0156513
726.616	0.0156285
726.694	0.0156695
726.772	0.0157926
726.850	0.0157339
726.928	0.0157917
727.006	0.0158048
727.084	0.0158842
727.163	0.0159234
727.241	0.0160711
727.319	0.0161609
727.397	0.0163754
727.475	0.0163863
727.553	0.0162061
727.631	0.0164532
727.709	0.0165450
727.788	0.0165528
727.866	0.0166695
727.944	0.0166399
728.022	0.0167487
728.100	0.0166714
728.178	0.0168215
728.256	0.0167883
728.334	0.0167771
728.413	0.0169339
728.491	0.0169412
728.569	0.0171036
728.647	0.0170708
728.725	0.0170520
728.803	0.0171143
728.881	0.0169671
728.959	0.0171397
729.038	0.0170648
729.116	0.0168739
729.194	0.0168523
729.272	0.0169507
729.350	0.0167394
729.428	0.0168405
729.506	0.0167535
729.584	0.0165807
729.663	0.0164393
729.741	0.0162525
729.819	0.0161777
729.897	0.0160303
729.975	0.0158097
730.053	0.0157759
730.131	0.0156856
730.209	0.0154716
730.288	0.0154943
730.366	0.0154581
730.444	0.0152687
730.522	0.0151888
730.600	0.0151592
730.678	0.0149754
730.756	0.0150322
730.834	0.0149805
730.913	0.0150474
730.991	0.0150170
731.069	0.0150680
731.147	0.0151231
731.225	0.0153187
731.303	0.0152139
731.381	0.0154266
731.459	0.0154238
731.538	0.0154213
731.616	0.0156454
731.694	0.0158093
731.772	0.0158331
731.850	0.0159413
731.928	0.0161376
732.006	0.0162392
732.084	0.0163583
732.163	0.0165617
732.241	0.0167271
732.319	0.0169344
732.397	0.0170804
732.475	0.0171990
732.553	0.0173001
732.631	0.0173097
732.709	0.0173856
732.788	0.0174693
732.866	0.0175852
732.944	0.0175560
733.022	0.0176090
733.100	0.0176619
733.178	0.0176412
733.256	0.0175407
733.334	0.0173928
733.413	0.0172226
733.491	0.0171359
733.569	0.0170757
733.647	0.0169298
733.725	0.0167069
733.803	0.0165165
733.881	0.0163235
733.959	0.0163454
734.038	0.0160589
734.116	0.0160554
734.194	0.0158788
734.272	0.0157174
734.350	0.0155925
734.428	0.0155406
734.506	0.0155102
734.584	0.0153593
734.663	0.0154644
734.741	0.0154026
734.819	0.0156019
734.897	0.0155889
734.975	0.0155186
735.053	0.0156445
735.131	0.0158207
735.209	0.0157417
735.288	0.0160674
735.366	0.0160054
735.444	0.0160176
735.522	0.0162156
735.600	0.0164280
735.678	0.0162283
735.756	0.0162887
735.834	0.0163804
735.913	0.0164868
735.991	0.0164584
736.069	0.0165023
736.147	0.0164796
736.225	0.0163310
736.303	0.0164861
736.381	0.0165294
736.459	0.0163361
736.538	0.0165141
736.616	0.0163646
736.694	0.0163638
736.772	0.0161334
736.850	0.0163194
736.928	0.0162749
737.006	0.0161131
737.084	0.0161508
737.163	0.0160592
737.241	0.0160082
737.319	0.0161074
737.397	0.0160459
737.475	0.0161892
737.553	0.0160297
737.631	0.0159879
737.709	0.0160005
737.788	0.0160345
737.866	0.0159981
737.944	0.0160397
738.022	0.0160861
738.100	0.0161667
738.178	0.0161244
738.256	0.0161020
738.334	0.0161605
738.413	0.0163275
738.491	0.0163979
738.569	0.0163452
738.647	0.0164800
738.725	0.0163297
738.803	0.0163310
738.881	0.0166084
738.959	0.0164502
739.038	0.0165970
739.116	0.0165889
739.194	0.0165005
739.272	0.0166222
739.350	0.0164640
739.428	0.0165449
739.506	0.0165158
739.584	0.0162958
739.663	0.0164237
739.741	0.0163368
739.819	0.0163600
739.897	0.0162762
739.975	0.0161490
740.053	0.0160849
740.131	0.0161478
740.209	0.0160909
740.288	0.0160789
740.366	0.0160981
740.444	0.0160583
740.522	0.0159637
740.600	0.0160670
740.678	0.0159907
740.756	0.0158186
740.834	0.0159727
740.913	0.0158994
740.991	0.0160578
741.069	0.0159857
741.147	0.0159901
741.225	0.0159280
741.303	0.0160279
741.381	0.0161427
741.459	0.0160928
741.538	0.0160383
741.616	0.0162133
741.694	0.0161233
741.772	0.0162743
741.850	0.0161903
741.928	0.0161970
742.006	0.0163194
742.084	0.0163497
742.163	0.0163837
742.241	0.0162698
742.319	0.0163244
742.397	0.0164546
742.475	0.0165554
742.553	0.0163868
742.631	0.0164603
742.709	0.0165490
742.788	0.0166070
742.866	0.0166565
742.944	0.0165527
743.022	0.0167230
743.100	0.0167794
743.178	0.0166943
743.256	0.0167746
743.334	0.0167860
743.413	0.0168582
743.491	0.0168385
743.569	0.0168582
743.647	0.0168781
743.725	0.0168145
743.803	0.0167894
743.881	0.0167898
743.959	0.0166854
744.038	0.0167731
744.116	0.0166087
744.194	0.0165028
744.272	0.0162612
744.350	0.0161723
744.428	0.0160992
744.506	0.0160468
744.584	0.0159109
744.663	0.0158085
744.741	0.0154717
744.819	0.0155163
744.897	0.0152795
744.975	0.0152811
745.053	0.0152297
745.131	0.0153872
745.209	0.0152934
745.288	0.0151635
745.366	0.0152407
745.444	0.0153288
745.522	0.0154875
745.600	0.0156229
745.678	0.0156670
745.756	0.0157592
745.834	0.0159924
745.913	0.0160262
745.991	0.0162389
746.069	0.0163878
746.147	0.0163623
746.225	0.0164398
746.303	0.0165350
746.381	0.0165569
746.459	0.0166663
746.538	0.0165564
746.616	0.0167021
746.694	0.0166829
746.772	0.0165643
746.850	0.0165926
746.928	0.0165478
747.006	0.0163129
747.084	0.0163833
747.163	0.0164124
747.241	0.0163020
747.319	0.0163703
747.397	0.0162939
747.475	0.0163736
747.553	0.0163789
747.631	0.0164532
747.709	0.0164510
747.788	0.0165147
747.866	0.0165804
747.944	0.0166534
748.022	0.0166225
748.100	0.0167194
748.178	0.0167184
748.256	0.0167123
748.334	0.0167190
748.413	0.0166937
748.491	0.0167293
748.569	0.0167847
748.647	0.0166815
748.725	0.0166280
748.803	0.0167635
748.881	0.0165452
748.959	0.0166228
749.038	0.0164200
749.116	0.0163646
749.194	0.0161420
749.272	0.0160183
749.350	0.0160344
749.428	0.0160482
749.506	0.0157911
749.584	0.0156602
749.663	0.0156908
749.741	0.0153952
749.819	0.0156361
749.897	0.0156448
749.975	0.0156661
750.053	0.0155038
750.131	0.0155209
750.209	0.0156433
750.288	0.0158974
750.366	0.0159090
750.444	0.0160199
750.522	0.0162443
750.600	0.0162173
750.678	0.0164297
750.756	0.0166520
750.834	0.0165865
750.913	0.0167737
750.991	0.0169334
751.069	0.0169534
751.147	0.0169799
751.225	0.0169873
751.303	0.0169889
751.381	0.0168395
751.459	0.0166604
751.538	0.0167782
751.616	0.0165842
751.694	0.0163986
751.772	0.0162894
751.850	0.0161091
751.928	0.0160413
752.006	0.0158055
752.084	0.0157140
752.163	0.0154922
752.241	0.0154301
752.319	0.0154332
752.397	0.0154379
752.475	0.0152128
752.553	0.0152773
752.631	0.0152843
752.709	0.0152334
752.788	0.0154715
752.866	0.0155305
752.944	0.0156296
753.022	0.0157354
753.100	0.0156850
753.178	0.0156610
753.256	0.0160866
753.334	0.0163361
753.413	0.0164376
753.491	0.0164587
753.569	0.0166209
753.647	0.0167453
753.725	0.0167782
753.803	0.0168552
753.881	0.0167587
753.959	0.0170031
754.038	0.0168331
754.116	0.0169674
754.194	0.0170090
754.272	0.0169067
754.350	0.0168853
754.428	0.0170815
754.506	0.0168301
754.584	0.0167754
754.663	0.0167266
754.741	0.0166949
754.819	0.0166365
754.897	0.0166346
754.975	0.0164787
755.053	0.0163516
755.131	0.0161609
755.209	0.0163152
755.288	0.0163177
755.366	0.0160411
755.444	0.0159328
755.522	0.0158181
755.600	0.0159297
755.678	0.0157654
755.756	0.0158630
755.834	0.0156606
755.913	0.0157005
755.991	0.0159164
756.069	0.0157920
756.147	0.0157033
756.225	0.0159385
756.303	0.0158134
756.381	0.0158998
756.459	0.0160712
756.538	0.0162199
756.616	0.0160682
756.694	0.0162777
756.772	0.0165342
756.850	0.0164902
756.928	0.0166291
757.006	0.0166431
757.084	0.0167652
757.163	0.0168703
757.241	0.0167845
757.319	0.0168502
757.397	0.0168313
757.475	0.0167969
757.553	0.0166739
757.631	0.0167081
757.709	0.0167207
757.788	0.0165806
757.866	0.0163049
757.944	0.0162270
758.022	0.0163029
758.100	0.0160050
758.178	0.0159569
758.256	0.0156966
758.334	0.0158129
758.413	0.0158849
758.491	0.0155682
758.569	0.0157000
758.647	0.0155513
758.725	0.0156966
758.803	0.0158247
758.881	0.0156834
758.959	0.0158009
759.038	0.0158350
759.116	0.0157619
759.194	0.0160056
759.272	0.0160963
759.350	0.0161413
759.428	0.0162127
759.506	0.0162390
759.584	0.0162910
759.663	0.0163129
759.741	0.0164027
759.819	0.0164649
759.897	0.0164555
759.975	0.0164433
760.053	0.0165481
760.131	0.0165769
760.209	0.0166492
760.288	0.0164568
760.366	0.0164684
760.444	0.0165118
760.522	0.0165724
760.600	0.0165311
760.678	0.0164265
760.756	0.0164887
760.834	0.0166261
760.913	0.0163917
760.991	0.0164049
761.069	0.0163376
761.147	0.0163359
761.225	0.0163118
761.303	0.0162864
761.381	0.0162938
761.459	0.0161961
761.538	0.0162685
761.616	0.0162096
761.694	0.0160337
761.772	0.0161053
761.850	0.0161722
761.928	0.0162418
762.006	0.0162005
762.084	0.0162711
762.163	0.0162018
762.241	0.0163364
762.319	0.0162646
762.397	0.0163424
762.475	0.0164693
762.553	0.0165823
762.631	0.0163807
762.709	0.0165350
762.788	0.0165846
762.866	0.0166850
762.944	0.0167991
763.022	0.0168324
763.100	0.0166893
763.178	0.0167800
763.256	0.0168044
763.334	0.0168346
763.413	0.0167187
763.491	0.0166428
763.569	0.0165731
763.647	0.0165056
763.725	0.0163788
763.803	0.0164510
763.881	0.0161630
763.959	0.0160844
764.038	0.0159842
764.116	0.0157694
764.194	0.0157096
764.272	0.0156429
764.350	0.0155109
764.428	0.0153564
764.506	0.0153789
764.584	0.0152361
764.663	0.0152856
764.741	0.0153827
764.819	0.0152374
764.897	0.0153490
764.975	0.0155255
765.053	0.0154268
765.131	0.0156571
765.209	0.0158263
765.288	0.0160168
765.366	0.0162162
765.444	0.0165221
765.522	0.0166319
765.600	0.0168362
765.678	0.0168592
765.756	0.0171481
765.834	0.0171365
765.913	0.0173766
765.991	0.0174107
766.069	0.0173658
766.147	0.0174400
766.225	0.0174387
766.303	0.0174954
766.381	0.0174297
766.459	0.0171828
766.538	0.0171241
766.616	0.0168682
766.694	0.0167215
766.772	0.0166550
766.850	0.0165054
766.928	0.0163326
767.006	0.0161417
767.084	0.0159898
767.163	0.0159394
767.241	0.0157478
767.319	0.0157721
767.397	0.0155903
767.475	0.0153907
767.553	0.0154583
767.631	0.0153657
767.709	0.0152583
767.788	0.0153798
767.866	0.0155900
767.944	0.0155506
768.022	0.0155762
768.100	0.0157078
768.178	0.0158797
768.256	0.0157440
768.334	0.0160318
768.413	0.0159724
768.491	0.0162997
768.569	0.0164259
768.647	0.0164494
768.725	0.0166540
768.803	0.0166782
768.881	0.0167508
768.959	0.0170206
769.038	0.0170695
769.116	0.0170235
769.194	0.0170290
769.272	0.0171595
769.350	0.0170745
769.428	0.0171599
769.506	0.0170477
769.584	0.0170105
769.663	0.0169496
769.741	0.0167334
769.819	0.0166474
769.897	0.0166576
769.975	0.0164267
770.053	0.0162978
770.131	0.0162690
770.209	0.0159852
770.288	0.0158974
770.366	0.0157368
770.444	0.0155189
770.522	0.0156931
770.600	0.0156097
770.678	0.0153728
770.756	0.0152631
770.834	0.0153134
770.913	0.0154839
770.991	0.0154417
771.069	0.0154614
771.147	0.0154477
771.225	0.0156777
771.303	0.0156827
771.381	0.0156087
771.459	0.0157880
771.538	0.0160719
771.616	0.0161097
771.694	0.0161092
771.772	0.0163399
771.850	0.0165455
771.928	0.0165626
772.006	0.0166512
772.084	0.0167197
772.163	0.0166979
772.241	0.0168666
772.319	0.0168373
772.397	0.0167575
772.475	0.0169738
772.553	0.0170139
772.631	0.0168624
772.709	0.0167950
772.788	0.0167252
772.866	0.0167439
772.944	0.0167001
773.022	0.0165567
773.100	0.0166210
773.178	0.0165181
773.256	0.0164558
773.334	0.0163795
773.413	0.0163671
773.491	0.0162729
773.569	0.0162005
773.647	0.0161163
773.725	0.0161556
773.803	0.0160801
773.881	0.0161258
773.959	0.0160545
774.038	0.0161357
774.116	0.0161967
774.194	0.0161270
774.272	0.0162420
774.350	0.0161649
774.428	0.0161692
774.506	0.0161745
774.584	0.0161810
774.663	0.0161552
774.741	0.0162653
774.819	0.0160830
774.897	0.0161002
774.975	0.0160960
775.053	0.0160286
775.131	0.0162192
775.209	0.0160449
775.288	0.0159528
775.366	0.0159606
775.444	0.0158909
775.522	0.0160896
775.600	0.0162875
775.678	0.0161649
775.756	0.0160204
775.834	0.0161096
775.913	0.0163271
775.991	0.0163141
776.069	0.0162115
776.147	0.0162582
776.225	0.0161935
776.303	0.0162505
776.381	0.0162972
776.459	0.0163934
776.538	0.0164612
776.616	0.0163238
776.694	0.0165693
776.772	0.0164617
776.850	0.0165912
776.928	0.0165643
777.006	0.0166390
777.084	0.0165736
777.163	0.0165673
777.241	0.0166001
777.319	0.0165457
777.397	0.0165475
777.475	0.0166298
777.553	0.0166726
777.631	0.0167726
777.709	0.0165475
777.788	0.0166254
777.866	0.0165189
777.944	0.0164397
778.022	0.0163902
778.100	0.0162698
778.178	0.0162636
778.256	0.0163366
778.334	0.0161829
778.413	0.0161015
778.491	0.0161205
778.569	0.0162537
778.647	0.0160415
778.725	0.0160075
778.803	0.0159922
778.881	0.0161169
778.959	0.0161185
779.038	0.0161382
779.116	0.0162054
779.194	0.0161052
779.272	0.0160852
779.350	0.0162930
779.428	0.0161407
779.506	0.0162260
779.584	0.0163938
779.663	0.0163960
779.741	0.0163566
779.819	0.0164828
779.897	0.0164221
779.975	0.0162411
780.053	0.0164799
780.131	0.0164951
780.209	0.0165511
780.288	0.0165163
780.366	0.0165072
780.444	0.0164423
780.522	0.0162724
780.600	0.0164819
780.678	0.0163611
780.756	0.0164148
780.834	0.0163234
780.913	0.0164216
780.991	0.0163715
781.069	0.0164209
781.147	0.0163100
781.225	0.0162543
781.303	0.0162544
781.381	0.0164484
781.459	0.0165079
781.538	0.0164079
781.616	0.0162722
781.694	0.0163219
781.772	0.0162847
781.850	0.0163451
781.928	0.0161550
782.006	0.0164359
782.084	0.0162710
782.163	0.0162070
782.241	0.0162650
782.319	0.0162195
782.397	0.0162204
782.475	0.0162143
782.553	0.0162745
782.631	0.0162312
782.709	0.0162264
782.788	0.0163021
782.866	0.0163525
782.944	0.0163507
783.022	0.0162949
783.100	0.0161462
783.178	0.0162011
783.256	0.0162607
783.334	0.0163305
783.413	0.0161665
783.491	0.0163428
783.569	0.0162794
783.647	0.0161774
783.725	0.0163964
783.803	0.0162276
783.881	0.0161565
783.959	0.0161266
784.038	0.0161091
784.116	0.0161181
784.194	0.0160801
784.272	0.0159179
784.350	0.0159483
784.428	0.0158664
784.506	0.0160448
784.584	0.0159999
784.663	0.0159080
784.741	0.0158385
784.819	0.0159480
784.897	0.0160131
784.975	0.0160399
785.053	0.0160778
785.131	0.0160934
785.209	0.0161098
785.288	0.0161484
785.366	0.0161227
785.444	0.0161175
785.522	0.0162546
785.600	0.0161551
785.678	0.0161948
785.756	0.0162444
785.834	0.0162831
785.913	0.0163436
785.991	0.0163219
786.069	0.0163136
786.147	0.0163683
786.225	0.0162536
786.303	0.0161538
786.381	0.0162432
786.459	0.0163093
786.538	0.0161566
786.616	0.0161915
786.694	0.0163315
786.772	0.0162718
786.850	0.0162338
786.928	0.0161371
787.006	0.0161457
787.084	0.0160307
787.163	0.0160809
787.241	0.0162407
787.319	0.0162924
787.397	0.0159728
787.475	0.0160818
787.553	0.0161337
787.631	0.0160178
787.709	0.0160612
787.788	0.0160205
787.866	0.0160822
787.944	0.0160075
788.022	0.0161319
788.100	0.0160401
788.178	0.0160180
788.256	0.0160195
788.334	0.0159250
788.413	0.0160504
788.491	0.0160963
788.569	0.0159560
788.647	0.0160417
788.725	0.0160377
788.803	0.0161052
788.881	0.0162201
788.959	0.0162273
789.038	0.0162488
789.116	0.0165154
789.194	0.0164472
789.272	0.0163284
789.350	0.0163940
789.428	0.0164172
789.506	0.0165012
789.584	0.0163826
789.663	0.0164471
789.741	0.0165958
789.819	0.0166051
789.897	0.0166765
789.975	0.0165585
790.053	0.0165376
790.131	0.0167774
790.209	0.0166652
790.288	0.0166298
790.366	0.0168060
790.444	0.0167881
790.522	0.0167372
790.600	0.0165868
790.678	0.0167701
790.756	0.0166842
790.834	0.0167882
790.913	0.0165726
790.991	0.0166980
791.069	0.0166969
791.147	0.0165978
791.225	0.0164816
791.303	0.0163977
791.381	0.0165279
791.459	0.0165468
791.538	0.0164610
791.616	0.0163504
791.694	0.0162966
791.772	0.0163158
791.850	0.0163257
791.928	0.0161668
792.006	0.0161227
792.084	0.0160434
792.163	0.0161888
792.241	0.0162037
792.319	0.0161397
792.397	0.0162074
792.475	0.0161244
792.553	0.0161155
792.631	0.0160173
792.709	0.0161936
792.788	0.0162050
792.866	0.0162401
792.944	0.0161610
793.022	0.0160445
793.100	0.0160452
793.178	0.0162407
793.256	0.0160901
793.334	0.0159550
793.413	0.0160770
793.491	0.0160138
793.569	0.0161243
793.647	0.0161497
793.725	0.0161378
793.803	0.0161307
793.881	0.0160681
793.959	0.0159550
794.038	0.0159400
794.116	0.0160982
794.194	0.0160864
794.272	0.0161636
794.350	0.0160728
794.428	0.0160838
794.506	0.0162574
794.584	0.0162091
794.663	0.0161393
794.741	0.0161195
794.819	0.0162529
794.897	0.0161668
794.975	0.0163081
795.053	0.0162658
795.131	0.0163573
795.209	0.0162681
795.288	0.0163027
795.366	0.0163988
795.444	0.0164628
795.522	0.0163828
795.600	0.0163790
795.678	0.0164224
795.756	0.0164369
795.834	0.0164495
795.913	0.0164622
795.991	0.0165392
796.069	0.0165355
796.147	0.0165622
796.225	0.0165549
796.303	0.0165047
796.381	0.0164834
796.459	0.0163399
796.538	0.0166053
796.616	0.0166604
796.694	0.0166451
796.772	0.0165736
796.850	0.0165628
796.928	0.0164053
797.006	0.0164383
797.084	0.0164943
797.163	0.0165034
797.241	0.0164663
797.319	0.0164447
797.397	0.0164499
797.475	0.0163705
797.553	0.0162563
797.631	0.0163755
797.709	0.0162356
797.788	0.0162050
797.866	0.0162794
797.944	0.0162167
798.022	0.0160396
798.100	0.0162450
798.178	0.0162407
798.256	0.0159343
798.334	0.0162504
798.413	0.0161349
798.491	0.0162019
798.569	0.0162994
798.647	0.0161983
798.725	0.0163043
798.803	0.0163534
798.881	0.0161820
798.959	0.0161598
799.038	0.0161845
799.116	0.0163304
799.194	0.0161374
799.272	0.0162534
799.350	0.0164429
799.428	0.0163691
799.506	0.0162317
799.584	0.0163934
799.663	0.0163936
799.741	0.0164789
799.819	0.0164618
799.897	0.0164047
799.975	0.0163775
800.053	0.0162370
800.131	0.0164468
800.209	0.0163812
800.288	0.0164336
800.366	0.0163210
800.444	0.0163142
800.522	0.0164507
800.600	0.0163873
800.678	0.0164031
800.756	0.0163948
800.834	0.0163201
800.913	0.0163216
800.991	0.0163580
801.069	0.0163625
801.147	0.0161273
801.225	0.0162318
801.303	0.0162224
801.381	0.0164318
801.459	0.0162651
801.538	0.0160781
801.616	0.0162606
801.694	0.0163416
801.772	0.0165308
801.850	0.0163638
801.928	0.0163617
802.006	0.0163363
802.084	0.0163404
802.163	0.0163543
802.241	0.0164211
802.319	0.0164284
802.397	0.0165485
802.475	0.0164783
802.553	0.0166248
802.631	0.0165677
802.709	0.0165510
802.788	0.0165224
802.866	0.0165054
802.944	0.0165240
803.022	0.0167396
803.100	0.0165012
803.178	0.0165229
803.256	0.0164626
803.334	0.0164775
803.413	0.0163459
803.491	0.0164260
803.569	0.0163893
803.647	0.0161312
803.725	0.0160961
803.803	0.0163233
803.881	0.0161857
803.959	0.0161202
804.038	0.0162085
804.116	0.0160051
804.194	0.0160919
804.272	0.0161057
804.350	0.0160680
804.428	0.0159563
804.506	0.0160300
804.584	0.0161455
804.663	0.0160490
804.741	0.0161227
804.819	0.0159740
804.897	0.0161630
804.975	0.0162108
805.053	0.0163586
805.131	0.0161024
805.209	0.0161899
805.288	0.0162912
805.366	0.0161929
805.444	0.0161899
805.522	0.0163218
805.600	0.0164367
805.678	0.0162707
805.756	0.0162383
805.834	0.0163340
805.913	0.0162524
805.991	0.0162410
806.069	0.0162836
806.147	0.0162692
806.225	0.0162387
806.303	0.0162259
806.381	0.0162767
806.459	0.0161693
806.538	0.0162046
806.616	0.0162889
806.694	0.0161893
806.772	0.0161215
806.850	0.0161774
806.928	0.0161180
807.006	0.0162180
807.084	0.0162702
807.163	0.0162341
807.241	0.0162350
807.319	0.0161723
807.397	0.0160791
807.475	0.0161859
807.553	0.0163773
807.631	0.0161836
807.709	0.0162351
807.788	0.0164034
807.866	0.0162309
807.944	0.0161770
808.022	0.0162224
808.100	0.0161916
808.178	0.0161407
808.256	0.0162109
808.334	0.0162627
808.413	0.0163498
808.491	0.0162516
808.569	0.0161986
808.647	0.0163031
808.725	0.0163322
808.803	0.0162051
808.881	0.0162333
808.959	0.0162693
809.038	0.0162278
809.116	0.0162531
809.194	0.0164271
809.272	0.0162421
809.350	0.0162339
809.428	0.0163038
809.506	0.0163424
809.584	0.0163707
809.663	0.0162167
809.741	0.0161176
809.819	0.0162278
809.897	0.0163139
809.975	0.0163809
810.053	0.0163641
810.131	0.0162459
810.209	0.0165047
810.288	0.0162899
810.366	0.0162091
810.444	0.0162876
810.522	0.0164048
810.600	0.0163856
810.678	0.0162626
810.756	0.0163448
810.834	0.0163342
810.913	0.0162978
810.991	0.0162491
811.069	0.0162627
811.147	0.0162965
811.225	0.0163422
811.303	0.0163120
811.381	0.0163303
811.459	0.0163967
811.538	0.0163803
811.616	0.0162852
811.694	0.0164409
811.772	0.0163943
811.850	0.0164017
811.928	0.0163608
812.006	0.0163056
812.084	0.0164223
812.163	0.0163387
812.241	0.0162890
812.319	0.0165704
812.397	0.0165031
812.475	0.0164928
812.553	0.0164024
812.631	0.0163838
812.709	0.0164313
812.788	0.0162983
812.866	0.0162621
812.944	0.0163214
813.022	0.0161436
813.100	0.0160493
813.178	0.0163152
813.256	0.0161416
813.334	0.0162187
813.413	0.0161598
813.491	0.0160944
813.569	0.0160601
813.647	0.0160225
813.725	0.0160585
813.803	0.0160997
813.881	0.0161254
813.959	0.0159937
814.038	0.0161165
814.116	0.0161563
814.194	0.0161978
814.272	0.0161089
814.350	0.0161642
814.428	0.0162424
814.506	0.0161681
814.584	0.0163819
814.663	0.0162593
814.741	0.0162521
814.819	0.0164468
814.897	0.0163947
814.975	0.0164165
815.053	0.0164063
815.131	0.0164005
815.209	0.0165052
815.288	0.0163926
815.366	0.0164353
815.444	0.0164256
815.522	0.0163688
815.600	0.0161587
815.678	0.0162941
815.756	0.0163396
815.834	0.0162188
815.913	0.0162417
815.991	0.0162816
816.069	0.0162567
816.147	0.0162955
816.225	0.0162459
816.303	0.0161541
816.381	0.0160363
816.459	0.0160521
816.538	0.0162945
816.616	0.0163099
816.694	0.0161752
816.772	0.0161535
816.850	0.0164011
816.928	0.0163816
817.006	0.0163316
817.084	0.0161422
817.163	0.0162759
817.241	0.0162257
817.319	0.0163812
817.397	0.0163856
817.475	0.0161668
817.553	0.0162344
817.631	0.0163253
817.709	0.0160532
817.788	0.0162301
817.866	0.0163509
817.944	0.0162099
818.022	0.0163172
818.100	0.0162041
818.178	0.0162053
818.256	0.0162392
818.334	0.0164138
818.413	0.0165402
818.491	0.0163789
818.569	0.0163498
818.647	0.0164082
818.725	0.0165501
818.803	0.0165037
818.881	0.0166577
818.959	0.0166823
819.038	0.0166032
819.116	0.0165679
819.194	0.0166064
819.272	0.0166502
819.350	0.0166193
819.428	0.0166155
819.506	0.0165654
819.584	0.0167097
819.663	0.0166090
819.741	0.0166592
819.819	0.0166746
819.897	0.0164658
819.975	0.0164432
820.053	0.0164738
820.131	0.0163439
820.209	0.0165538
820.288	0.0163978
820.366	0.0163994
820.444	0.0163641
820.522	0.0163895
820.600	0.0162355
820.678	0.0162340
820.756	0.0161827
820.834	0.0163402
820.913	0.0162621
820.991	0.0163470
821.069	0.0162227
821.147	0.0162402
821.225	0.0161251
821.303	0.0161375
821.381	0.0162357
821.459	0.0161700
821.538	0.0162687
821.616	0.0161782
821.694	0.0161607
821.772	0.0163943
821.850	0.0162635
821.928	0.0161578
822.006	0.0162349
822.084	0.0161677
822.163	0.0161041
822.241	0.0161465
822.319	0.0161659
822.397	0.0160748
822.475	0.0161336
822.553	0.0160117
822.631	0.0160223
822.709	0.0161262
822.788	0.0161546
822.866	0.0159917
822.944	0.0159364
823.022	0.0160516
823.100	0.0161033
823.178	0.0160686
823.256	0.0159460
823.334	0.0160309
823.413	0.0159770
823.491	0.0160191
823.569	0.0160706
823.647	0.0160758
823.725	0.0160583
823.803	0.0161557
823.881	0.0161626
823.959	0.0162328
824.038	0.0160053
824.116	0.0160608
824.194	0.0161843
824.272	0.0163687
824.350	0.0161456
824.428	0.0162778
824.506	0.0163145
824.584	0.0161683
824.663	0.0163708
824.741	0.0162914
824.819	0.0162043
824.897	0.0162628
824.975	0.0162440
825.053	0.0162840
825.131	0.0164703
825.209	0.0162704
825.288	0.0162268
825.366	0.0161336
825.444	0.0162966
825.522	0.0163229
825.600	0.0162816
825.678	0.0163509
825.756	0.0162706
825.834	0.0161839
825.913	0.0163055
825.991	0.0162193
826.069	0.0162677
826.147	0.0161092
826.225	0.0160741
826.303	0.0161111
826.381	0.0161436
826.459	0.0160509
826.538	0.0160719
826.616	0.0161565
826.694	0.0162810
826.772	0.0160582
826.850	0.0160951
826.928	0.0161317
827.006	0.0161507
827.084	0.0161481
827.163	0.0161018
827.241	0.0160683
827.319	0.0161111
827.397	0.0161897
827.475	0.0160814
827.553	0.0159342
827.631	0.0160342
827.709	0.0163164
827.788	0.0161341
827.866	0.0161586
827.944	0.0160738
828.022	0.0161562
828.100	0.0161631
828.178	0.0161949
828.256	0.0162090
828.334	0.0162056
828.413	0.0162194
828.491	0.0163697
828.569	0.0162884
828.647	0.0163511
828.725	0.0165707
828.803	0.0165531
828.881	0.0166019
828.959	0.0165359
829.038	0.0166901
829.116	0.0167193
829.194	0.0165771
829.272	0.0167211
829.350	0.0167168
829.428	0.0167188
829.506	0.0167516
829.584	0.0166908
829.663	0.0167381
829.741	0.0167089
829.819	0.0166182
829.897	0.0166009
829.975	0.0165561
830.053	0.0165555
830.131	0.0164666
830.209	0.0163972
830.288	0.0165152
830.366	0.0163615
830.444	0.0164569
830.522	0.0164970
830.600	0.0164220
830.678	0.0163152
830.756	0.0163680
830.834	0.0162959
830.913	0.0163249
830.991	0.0164219
831.069	0.0163764
831.147	0.0163614
831.225	0.0164145
831.303	0.0162574
831.381	0.0164371
831.459	0.0163818
831.538	0.0162079
831.616	0.0164014
831.694	0.0163421
831.772	0.0162869
831.850	0.0161777
831.928	0.0164858
832.006	0.0163042
832.084	0.0163326
832.163	0.0162672
832.241	0.0164130
832.319	0.0164190
832.397	0.0162733
832.475	0.0163248
832.553	0.0163410
832.631	0.0162249
832.709	0.0163461
832.788	0.0162777
832.866	0.0164094
832.944	0.0163050
833.022	0.0161615
833.100	0.0163097
833.178	0.0164212
833.256	0.0162673
833.334	0.0163898
833.413	0.0163514
833.491	0.0162871
833.569	0.0161513
833.647	0.0162440
833.725	0.0162509
833.803	0.0162539
833.881	0.0162498
833.959	0.0162538
834.038	0.0164059
834.116	0.0163163
834.194	0.0162090
834.272	0.0162904
834.350	0.0164509
834.428	0.0163406
834.506	0.0163342
834.584	0.0162700
834.663	0.0163776
834.741	0.0163158
834.819	0.0162882
834.897	0.0164445
834.975	0.0163380
835.053	0.0165190
835.131	0.0162764
835.209	0.0163286
835.288	0.0164147
835.366	0.0163560
835.444	0.0164155
835.522	0.0164396
835.600	0.0162835
835.678	0.0163009
835.756	0.0163587
835.834	0.0164859
835.913	0.0162072
835.991	0.0164339
836.069	0.0164040
836.147	0.0162026
836.225	0.0162450
836.303	0.0162647
836.381	0.0162263
836.459	0.0161587
836.538	0.0162430
836.616	0.0163013
836.694	0.0163650
836.772	0.0162872
836.850	0.0160999
836.928	0.0161282
837.006	0.0161800
837.084	0.0161351
837.163	0.0160316
837.241	0.0161497
837.319	0.0160145
837.397	0.0160042
837.475	0.0160631
837.553	0.0161007
837.631	0.0160069
837.709	0.0160017
837.788	0.0160783
837.866	0.0161451
837.944	0.0160477
838.022	0.0161394
838.100	0.0162161
838.178	0.0160439
838.256	0.0160727
838.334	0.0161349
838.413	0.0161439
838.491	0.0160189
838.569	0.0160929
838.647	0.0162359
838.725	0.0161798
838.803	0.0161625
838.881	0.0161684
838.959	0.0161717
839.038	0.0162914
839.116	0.0163751
839.194	0.0163906
839.272	0.0163059
839.350	0.0163139
839.428	0.0164340
839.506	0.0164384
839.584	0.0163988
839.663	0.0164545
839.741	0.0164406
839.819	0.0164835
839.897	0.0163557
839.975	0.0164847
840.053	0.0164654
840.131	0.0164276
840.209	0.0163695
840.288	0.0163478
840.366	0.0164050
840.444	0.0163400
840.522	0.0163236
840.600	0.0164216
840.678	0.0162607
840.756	0.0162817
840.834	0.0163841
840.913	0.0163195
840.991	0.0162691
841.069	0.0162907
841.147	0.0162965
841.225	0.0163179
841.303	0.0161838
841.381	0.0161890
841.459	0.0162170
841.538	0.0161905
841.616	0.0161457
841.694	0.0160790
841.772	0.0163042
841.850	0.0162253
841.928	0.0160798
842.006	0.0162461
842.084	0.0161676
842.163	0.0160544
842.241	0.0163576
842.319	0.0162367
842.397	0.0161372
842.475	0.0161880
842.553	0.0162450
842.631	0.0161598
842.709	0.0161549
842.788	0.0162946
842.866	0.0163107
842.944	0.0163386
843.022	0.0161785
843.100	0.0162331
843.178	0.0162045
843.256	0.0162299
843.334	0.0162766
843.413	0.0162656
843.491	0.0163661
843.569	0.0162862
843.647	0.0163663
843.725	0.0163721
843.803	0.0162637
843.881	0.0163568
843.959	0.0164400
844.038	0.0163400
844.116	0.0165091
844.194	0.0164570
844.272	0.0163992
844.350	0.0165571
844.428	0.0164973
844.506	0.0165245
844.584	0.0165305
844.663	0.0165108
844.741	0.0165926
844.819	0.0165767
844.897	0.0166409
844.975	0.0165576
845.053	0.0164827
845.131	0.0165179
845.209	0.0165143
845.288	0.0163573
845.366	0.0164592
845.444	0.0164275
845.522	0.0164124
845.600	0.0163860
845.678	0.0162988
845.756	0.0162705
845.834	0.0163171
845.913	0.0164383
845.991	0.0162524
846.069	0.0161948
846.147	0.0163968
846.225	0.0161659
846.303	0.0161232
846.381	0.0162438
846.459	0.0161603
846.538	0.0160995
846.616	0.0162968
846.694	0.0161811
846.772	0.0161446
846.850	0.0161880
846.928	0.0163109
847.006	0.0162250
847.084	0.0161376
847.163	0.0161430
847.241	0.0162544
847.319	0.0162267
847.397	0.0162401
847.475	0.0161546
847.553	0.0162202
847.631	0.0162885
847.709	0.0161087
847.788	0.0162578
847.866	0.0163540
847.944	0.0162054
848.022	0.0163580
848.100	0.0162686
848.178	0.0161331
848.256	0.0162720
848.334	0.0162002
848.413	0.0162561
848.491	0.0160981
848.569	0.0162249
848.647	0.0161446
848.725	0.0161238
848.803	0.0161897
848.881	0.0162257
848.959	0.0160966
849.038	0.0161239
849.116	0.0161349
849.194	0.0160584
849.272	0.0160861
849.350	0.0160909
849.428	0.0160228
849.506	0.0161601
849.584	0.0161798
849.663	0.0162326
849.741	0.0160820
849.819	0.0162440
849.897	0.0162253
849.975	0.0160702
850.053	0.0160645
850.131	0.0161747
850.209	0.0162846
850.288	0.0159786
850.366	0.0161169
850.444	0.0162086
850.522	0.0162034
850.600	0.0162724
850.678	0.0161385
850.756	0.0162225
850.834	0.0161613
850.913	0.0162206
850.991	0.0161607
851.069	0.0161526
851.147	0.0163801
851.225	0.0162360
851.303	0.0161072
851.381	0.0162574
851.459	0.0162341
851.538	0.0162325
851.616	0.0162509
851.694	0.0162100
851.772	0.0162566
851.850	0.0160826
851.928	0.0162199
852.006	0.0160786
852.084	0.0160799
852.163	0.0162160
852.241	0.0161513
852.319	0.0160786
852.397	0.0162071
852.475	0.0161890
852.553	0.0161666
852.631	0.0161282
852.709	0.0161504
852.788	0.0162031
852.866	0.0162476
852.944	0.0163215
853.022	0.0162968
853.100	0.0163459
853.178	0.0161569
853.256	0.0162767
853.334	0.0164859
853.413	0.0162768
853.491	0.0164449
853.569	0.0164205
853.647	0.0162910
853.725	0.0164623
853.803	0.0164207
853.881	0.0164503
853.959	0.0164581
854.038	0.0163393
854.116	0.0163747
854.194	0.0164301
854.272	0.0164245
854.350	0.0163987
854.428	0.0162721
854.506	0.0163411
854.584	0.0163000
854.663	0.0162465
854.741	0.0162399
854.819	0.0162763
854.897	0.0163493
854.975	0.0163242
855.053	0.0162938
855.131	0.0161273
855.209	0.0161851
855.288	0.0161202
855.366	0.0161963
855.444	0.0162495
855.522	0.0161343
855.600	0.0161485
855.678	0.0161315
855.756	0.0160753
855.834	0.0161787
855.913	0.0162043
855.991	0.0161068
856.069	0.0161665
856.147	0.0160917
856.225	0.0162385
856.303	0.0163198
856.381	0.0162338
856.459	0.0161099
856.538	0.0161613
856.616	0.0162453
856.694	0.0161230
856.772	0.0161185
856.850	0.0161521
856.928	0.0162369
857.006	0.0163190
857.084	0.0163544
857.163	0.0162234
857.241	0.0162466
857.319	0.0162455
857.397	0.0161960
857.475	0.0161783
857.553	0.0162959
857.631	0.0162489
857.709	0.0163216
857.788	0.0163943
857.866	0.0163309
857.944	0.0163321
858.022	0.0164121
858.100	0.0164362
858.178	0.0163049
858.256	0.0161650
858.334	0.0162538
858.413	0.0163212
858.491	0.0163393
858.569	0.0163321
858.647	0.0162132
858.725	0.0162724
858.803	0.0163668
858.881	0.0163617
858.959	0.0162652
859.038	0.0163196
859.116	0.0162900
859.194	0.0162889
859.272	0.0163807
859.350	0.0162825
859.428	0.0163581
859.506	0.0163102
859.584	0.0162104
859.663	0.0164047
859.741	0.0164443
859.819	0.0164791
859.897	0.0163537
859.975	0.0164515
860.053	0.0164645
860.131	0.0164742
860.209	0.0165457
860.288	0.0164762
860.366	0.0164941
860.444	0.0165492
860.522	0.0164920
860.600	0.0164478
860.678	0.0164301
860.756	0.0164487
860.834	0.0163588
860.913	0.0162743
860.991	0.0162414
861.069	0.0163304
861.147	0.0165192
861.225	0.0162348
861.303	0.0162750
861.381	0.0163647
861.459	0.0163335
861.538	0.0161942
861.616	0.0164008
861.694	0.0162681
861.772	0.0162633
861.850	0.0162596
861.928	0.0162549
862.006	0.0163705
862.084	0.0162589
862.163	0.0164065
862.241	0.0164294
862.319	0.0164663
862.397	0.0164199
862.475	0.0164564
862.553	0.0164644
862.631	0.0162940
862.709	0.0165021
862.788	0.0163175
862.866	0.0163188
862.944	0.0163396
863.022	0.0163641
863.100	0.0163751
863.178	0.0163062
863.256	0.0162893
863.334	0.0163989
863.413	0.0163905
863.491	0.0162735
863.569	0.0163320
863.647	0.0164282
863.725	0.0163712
863.803	0.0160797
863.881	0.0162832
863.959	0.0163062
864.038	0.0162267
864.116	0.0162885
864.194	0.0162302
864.272	0.0162802
864.350	0.0161367
864.428	0.0162362
864.506	0.0163287
864.584	0.0160250
864.663	0.0162505
864.741	0.0164241
864.819	0.0163864
864.897	0.0162709
864.975	0.0162148
865.053	0.0164825
865.131	0.0163800
865.209	0.0163316
865.288	0.0162245
865.366	0.0163261
865.444	0.0162385
865.522	0.0163609
865.600	0.0162633
865.678	0.0162354
865.756	0.0163117
865.834	0.0163996
865.913	0.0164878
865.991	0.0163466
866.069	0.0163715
866.147	0.0162355
866.225	0.0162006
866.303	0.0162931
866.381	0.0162582
866.459	0.0162528
866.538	0.0163362
866.616	0.0161700
866.694	0.0162358
866.772	0.0161743
866.850	0.0162143
866.928	0.0162012
867.006	0.0161617
867.084	0.0163087
867.163	0.0162231
867.241	0.0161604
867.319	0.0162363
867.397	0.0160101
867.475	0.0161496
867.553	0.0162882
867.631	0.0162496
867.709	0.0162951
867.788	0.0162914
867.866	0.0163985
867.944	0.0163293
868.022	0.0162553
868.100	0.0163795
868.178	0.0164476
868.256	0.0162814
868.334	0.0165225
868.413	0.0163963
868.491	0.0163377
868.569	0.0163007
868.647	0.0163886
868.725	0.0163660
868.803	0.0163704
868.881	0.0163483
868.959	0.0163389
869.038	0.0163315
869.116	0.0164424
869.194	0.0164555
869.272	0.0163106
869.350	0.0162219
869.428	0.0163364
869.506	0.0164222
869.584	0.0163826
869.663	0.0164311
869.741	0.0163969
869.819	0.0164316
869.897	0.0162971
869.975	0.0164677
870.053	0.0164915
870.131	0.0163895
870.209	0.0165371
870.288	0.0165367
870.366	0.0165787
870.444	0.0164410
870.522	0.0165469
870.600	0.0164658
870.678	0.0162817
870.756	0.0163875
870.834	0.0164484
870.913	0.0165179
870.991	0.0163539
871.069	0.0163119
871.147	0.0164968
871.225	0.0162646
871.303	0.0162796
871.381	0.0162713
871.459	0.0164500
871.538	0.0164426
871.616	0.0164240
871.694	0.0164627
871.772	0.0163625
871.850	0.0163224
871.928	0.0163424
872.006	0.0162959
872.084	0.0162792
872.163	0.0162575
872.241	0.0164098
872.319	0.0163303
872.397	0.0162579
872.475	0.0162268
872.553	0.0163696
872.631	0.0163232
872.709	0.0162875
872.788	0.0162202
872.866	0.0163041
872.944	0.0162386
873.022	0.0163329
873.100	0.0163401
873.178	0.0164289
873.256	0.0162377
873.334	0.0161772
873.413	0.0163016
873.491	0.0163493
873.569	0.0161315
873.647	0.0162430
873.725	0.0162540
873.803	0.0162946
873.881	0.0161726
873.959	0.0163020
874.038	0.0160526
874.116	0.0163631
874.194	0.0164098
874.272	0.0162378
874.350	0.0162237
874.428	0.0162463
874.506	0.0163043
874.584	0.0162956
874.663	0.0162479
874.741	0.0163265
874.819	0.0162741
874.897	0.0162683
874.975	0.0163738
875.053	0.0162472
875.131	0.0162602
875.209	0.0162696
875.288	0.0162802
875.366	0.0163165
875.444	0.0162827
875.522	0.0162976
875.600	0.0163035
875.678	0.0161261
875.756	0.0164159
875.834	0.0162881
875.913	0.0161964
875.991	0.0162250
876.069	0.0161581
876.147	0.0161759
876.225	0.0161806
876.303	0.0161997
876.381	0.0161000
876.459	0.0160194
876.538	0.0161044
876.616	0.0162543
876.694	0.0161358
876.772	0.0161409
876.850	0.0161806
876.928	0.0162186
877.006	0.0161771
877.084	0.0161877
877.163	0.0161631
877.241	0.0160531
877.319	0.0162167
877.397	0.0160725
877.475	0.0160462
877.553	0.0161932
877.631	0.0160186
877.709	0.0160052
877.788	0.0161810
877.866	0.0162212
877.944	0.0161174
878.022	0.0161243
878.100	0.0161571
878.178	0.0161520
878.256	0.0162759
878.334	0.0161655
878.413	0.0162267
878.491	0.0161772
878.569	0.0161659
878.647	0.0161407
878.725	0.0161919
878.803	0.0162212
878.881	0.0160838
878.959	0.0161566
879.038	0.0161284
879.116	0.0162961
879.194	0.0161178
879.272	0.0162288
879.350	0.0161138
879.428	0.0162234
879.506	0.0161768
879.584	0.0161226
879.663	0.0162090
879.741	0.0161298
879.819	0.0160876
879.897	0.0162447
879.975	0.0161629
880.053	0.0161845
880.131	0.0161012
880.209	0.0162872
880.288	0.0161639
880.366	0.0162350
880.444	0.0162907
880.522	0.0161211
880.600	0.0162494
880.678	0.0163042
880.756	0.0163090
880.834	0.0163812
880.913	0.0163227
880.991	0.0165110
881.069	0.0163111
881.147	0.0164642
881.225	0.0164550
881.303	0.0164194
881.381	0.0163497
881.459	0.0163368
881.538	0.0162690
881.616	0.0164719
881.694	0.0164685
881.772	0.0164962
881.850	0.0163727
881.928	0.0163147
882.006	0.0163851
882.084	0.0163155
882.163	0.0164626
882.241	0.0163393
882.319	0.0163065
882.397	0.0162679
882.475	0.0162026
882.553	0.0161766
882.631	0.0162180
882.709	0.0160645
882.788	0.0160833
882.866	0.0161243
882.944	0.0162267
883.022	0.0160562
883.100	0.0161369
883.178	0.0160757
883.256	0.0160718
883.334	0.0161926
883.413	0.0161533
883.491	0.0161584
883.569	0.0160468
883.647	0.0161811
883.725	0.0161871
883.803	0.0162221
883.881	0.0163190
883.959	0.0162220
884.038	0.0161566
884.116	0.0162045
884.194	0.0161214
884.272	0.0162112
884.350	0.0162411
884.428	0.0162534
884.506	0.0163175
884.584	0.0162790
884.663	0.0162888
884.741	0.0163100
884.819	0.0163057
884.897	0.0162324
884.975	0.0163652
885.053	0.0163379
885.131	0.0162856
885.209	0.0162449
885.288	0.0163818
885.366	0.0164339
885.444	0.0163080
885.522	0.0163737
885.600	0.0162435
885.678	0.0163762
885.756	0.0162384
885.834	0.0164520
885.913	0.0163406
885.991	0.0164381
886.069	0.0163104
886.147	0.0163068
886.225	0.0164382
886.303	0.0163731
886.381	0.0162694
886.459	0.0163139
886.538	0.0164061
886.616	0.0163446
886.694	0.0163232
886.772	0.0162145
886.850	0.0162667
886.928	0.0162666
887.006	0.0162762
887.084	0.0162091
887.163	0.0161552
887.241	0.0162157
887.319	0.0160583
887.397	0.0161384
887.475	0.0161177
887.553	0.0161630
887.631	0.0160694
887.709	0.0162215
887.788	0.0161848
887.866	0.0160732
887.944	0.0161367
888.022	0.0161595
888.100	0.0162400
888.178	0.0160304
888.256	0.0161743
888.334	0.0162681
888.413	0.0161904
888.491	0.0161160
888.569	0.0161818
888.647	0.0161576
888.725	0.0164477
888.803	0.0163267
888.881	0.0162563
888.959	0.0161028
889.038	0.0164085
889.116	0.0163195
889.194	0.0162646
889.272	0.0163435
889.350	0.0162418
889.428	0.0161617
889.506	0.0164368
889.584	0.0163023
889.663	0.0162636
889.741	0.0161911
889.819	0.0163447
889.897	0.0162799
889.975	0.0162522
890.053	0.0162424
890.131	0.0162277
890.209	0.0162843
890.288	0.0162971
890.366	0.0163940
890.444	0.0161251
890.522	0.0162657
890.600	0.0162598
890.678	0.0164458
890.756	0.0163026
890.834	0.0161752
890.913	0.0161309
890.991	0.0162355
891.069	0.0162154
891.147	0.0163506
891.225	0.0163460
891.303	0.0163129
891.381	0.0163519
891.459	0.0163383
891.538	0.0162202
891.616	0.0162814
891.694	0.0162599
891.772	0.0163254
891.850	0.0163537
891.928	0.0162801
892.006	0.0163501
892.084	0.0164466
892.163	0.0163911
892.241	0.0163403
892.319	0.0163286
892.397	0.0163882
892.475	0.0162942
892.553	0.0162865
892.631	0.0164436
892.709	0.0164443
892.788	0.0165896
892.866	0.0164832
892.944	0.0162875
893.022	0.0163367
893.100	0.0164690
893.178	0.0164496
893.256	0.0164905
893.334	0.0165424
893.413	0.0163483
893.491	0.0163924
893.569	0.0163525
893.647	0.0164338
893.725	0.0164478
893.803	0.0163586
893.881	0.0162899
893.959	0.0165078
894.038	0.0164587
894.116	0.0164732
894.194	0.0164687
894.272	0.0164410
894.350	0.0162475
894.428	0.0164261
894.506	0.0164334
894.584	0.0164508
894.663	0.0163616
894.741	0.0164004
894.819	0.0162692
894.897	0.0161255
894.975	0.0162216
895.053	0.0163124
895.131	0.0162677
895.209	0.0162019
895.288	0.0161803
895.366	0.0161736
895.444	0.0162241
895.522	0.0161387
895.600	0.0160961
895.678	0.0161439
895.756	0.0161699
895.834	0.0161109
895.913	0.0161320
895.991	0.0162988
896.069	0.0161489
896.147	0.0161002
896.225	0.0160320
896.303	0.0162061
896.381	0.0161856
896.459	0.0162751
896.538	0.0161911
896.616	0.0162585
896.694	0.0162785
896.772	0.0162313
896.850	0.0162120
896.928	0.0161602
897.006	0.0162678
897.084	0.0162928
897.163	0.0161353
897.241	0.0161581
897.319	0.0163262
897.397	0.0162048
897.475	0.0161724
897.553	0.0163423
897.631	0.0162933
897.709	0.0161623
897.788	0.0161868
897.866	0.0161907
897.944	0.0162595
898.022	0.0162587
898.100	0.0163209
898.178	0.0163065
898.256	0.0161678
898.334	0.0162357
898.413	0.0161327
898.491	0.0162129
898.569	0.0161106
898.647	0.0161929
898.725	0.0161153
898.803	0.0162958
898.881	0.0162647
898.959	0.0162000
899.038	0.0162383
899.116	0.0162386
899.194	0.0161453
899.272	0.0160558
899.350	0.0161050
899.428	0.0161528
899.506	0.0160613
899.584	0.0161336
899.663	0.0159898
899.741	0.0161842
899.819	0.0160629
899.897	0.0161349
899.975	0.0161674
900.053	0.0160709
900.131	0.0160532
900.209	0.0161005
900.288	0.0159990
900.366	0.0160531
900.444	0.0159483
900.522	0.0159451
900.600	0.0159651
900.678	0.0160152
900.756	0.0159190
900.834	0.0161284
900.913	0.0160114
900.991	0.0160235
901.069	0.0160474
901.147	0.0160660
901.225	0.0159256
901.303	0.0160624
901.381	0.0162329
901.459	0.0160661
901.538	0.0161128
901.616	0.0160421
901.694	0.0161459
901.772	0.0160378
901.850	0.0163258
901.928	0.0160902
902.006	0.0162198
902.084	0.0162022
902.163	0.0161655
902.241	0.0160078
902.319	0.0161954
902.397	0.0162020
902.475	0.0161266
902.553	0.0161689
902.631	0.0161739
902.709	0.0160671
902.788	0.0160490
902.866	0.0162077
902.944	0.0162795
903.022	0.0161617
903.100	0.0162467
903.178	0.0162025
903.256	0.0162103
903.334	0.0162888
903.413	0.0161804
903.491	0.0163576
903.569	0.0162993
903.647	0.0163839
903.725	0.0164833
903.803	0.0164233
903.881	0.0164214
903.959	0.0164606
904.038	0.0163495
904.116	0.0163726
904.194	0.0164867
904.272	0.0163580
904.350	0.0163203
904.428	0.0162890
904.506	0.0163446
904.584	0.0162803
904.663	0.0162848
904.741	0.0164962
904.819	0.0163085
904.897	0.0163414
904.975	0.0161809
905.053	0.0162518
905.131	0.0163274
905.209	0.0161601
905.288	0.0162339
905.366	0.0162639
905.444	0.0161009
905.522	0.0161474
905.600	0.0160254
905.678	0.0161435
905.756	0.0162003
905.834	0.0162402
905.913	0.0161475
905.991	0.0160985
906.069	0.0162003
906.147	0.0163092
906.225	0.0164200
906.303	0.0161226
906.381	0.0162119
906.459	0.0161961
906.538	0.0163062
906.616	0.0162420
906.694	0.0162617
906.772	0.0163561
906.850	0.0162192
906.928	0.0163493
907.006	0.0163303
907.084	0.0163550
907.163	0.0163058
907.241	0.0161984
907.319	0.0163264
907.397	0.0162995
907.475	0.0162876
907.553	0.0162840
907.631	0.0160979
907.709	0.0161823
907.788	0.0161400
907.866	0.0162422
907.944	0.0161241
908.022	0.0160932
908.100	0.0161053
908.178	0.0161852
908.256	0.0161799
908.334	0.0161884
908.413	0.0161286
908.491	0.0159834
908.569	0.0160222
908.647	0.0159769
908.725	0.0161530
908.803	0.0162208
908.881	0.0159057
908.959	0.0159558
909.038	0.0160839
909.116	0.0161057
909.194	0.0160135
909.272	0.0162402
909.350	0.0162581
909.428	0.0161331
909.506	0.0161563
909.584	0.0160624
909.663	0.0161863
909.741	0.0162539
909.819	0.0162137
909.897	0.0161106
909.975	0.0162798
910.053	0.0162773
910.131	0.0163206
910.209	0.0162194
910.288	0.0162057
910.366	0.0161573
910.444	0.0161253
910.522	0.0162399
910.600	0.0161520
910.678	0.0161850
910.756	0.0162065
910.834	0.0162135
910.913	0.0161324
910.991	0.0161460
911.069	0.0162534
911.147	0.0162076
911.225	0.0163279
911.303	0.0164113
911.381	0.0162679
911.459	0.0161895
911.538	0.0162622
911.616	0.0163081
911.694	0.0162173
911.772	0.0163618
911.850	0.0163351
911.928	0.0162917
912.006	0.0162817
912.084	0.0161876
912.163	0.0161450
912.241	0.0161441
912.319	0.0162938
912.397	0.0161194
912.475	0.0160962
912.553	0.0162076
912.631	0.0161351
912.709	0.0159879
912.788	0.0161490
912.866	0.0160793
912.944	0.0161328
913.022	0.0159616
913.100	0.0161512
913.178	0.0162645
913.256	0.0161307
913.334	0.0161254
913.413	0.0161150
913.491	0.0161136
913.569	0.0160108
913.647	0.0160866
913.725	0.0161787
913.803	0.0161227
913.881	0.0161787
913.959	0.0162463
914.038	0.0161236
914.116	0.0160989
914.194	0.0161370
914.272	0.0160490
914.350	0.0159923
914.428	0.0160722
914.506	0.0160677
914.584	0.0160599
914.663	0.0159782
914.741	0.0160981
914.819	0.0161088
914.897	0.0162065
914.975	0.0161041
915.053	0.0161514
915.131	0.0162248
915.209	0.0163184
915.288	0.0161475
915.366	0.0162992
915.444	0.0163659
915.522	0.0164321
915.600	0.0163239
915.678	0.0162395
915.756	0.0164085
915.834	0.0165257
915.913	0.0163237
915.991	0.0164727
916.069	0.0164404
916.147	0.0163735
916.225	0.0164292
916.303	0.0164851
916.381	0.0163765
916.459	0.0163242
916.538	0.0164799
916.616	0.0163114
916.694	0.0165015
916.772	0.0164362
916.850	0.0162640
916.928	0.0162846
917.006	0.0163003
917.084	0.0161961
917.163	0.0162199
917.241	0.0162051
917.319	0.0161709
917.397	0.0163410
917.475	0.0163346
917.553	0.0162096
917.631	0.0160363
917.709	0.0160799
917.788	0.0161866
917.866	0.0162968
917.944	0.0162085
918.022	0.0162962
918.100	0.0161369
918.178	0.0161388
918.256	0.0161049
918.334	0.0161113
918.413	0.0163306
918.491	0.0162376
918.569	0.0162019
918.647	0.0161877
918.725	0.0161690
918.803	0.0162453
918.881	0.0162745
918.959	0.0163593
919.038	0.0162038
919.116	0.0162586
919.194	0.0163657
919.272	0.0163488
919.350	0.0162490
919.428	0.0161955
919.506	0.0162730
919.584	0.0161834
919.663	0.0161706
919.741	0.0161864
919.819	0.0161554
919.897	0.0161410
