05/20/2022	20:46:02	Ver.	4.1	UNKNOWN
Optical Delay	599.981738	Delta X		0.078125	Sweeps	1	Scan Rate	0/0
Coordinates	Axis 1	NaN	Axis 2	NaN	Axis 3	NaN	Axis 4	NaN	Axis 5	NaN	Axis 6	0.000000
TX Power	0.000000	RX Power	0.000000

599.982	0.0154968
600.060	0.0154633
600.138	0.0155511
600.216	0.0154163
600.294	0.0154498
600.372	0.0156431
600.450	0.0156004
600.529	0.0154426
600.607	0.0155614
600.685	0.0153589
600.763	0.0155817
600.841	0.0156653
600.919	0.0155337
600.997	0.0156020
601.075	0.0155785
601.154	0.0155369
601.232	0.0154999
601.310	0.0156598
601.388	0.0154906
601.466	0.0155541
601.544	0.0154562
601.622	0.0154123
601.700	0.0154884
601.779	0.0155704
601.857	0.0155383
601.935	0.0155283
602.013	0.0155949
602.091	0.0155157
602.169	0.0155725
602.247	0.0154633
602.325	0.0154501
602.404	0.0152897
602.482	0.0155936
602.560	0.0155273
602.638	0.0155287
602.716	0.0155000
602.794	0.0154115
602.872	0.0154568
602.950	0.0154871
603.029	0.0154959
603.107	0.0154640
603.185	0.0152724
603.263	0.0155303
603.341	0.0157070
603.419	0.0154689
603.497	0.0155260
603.575	0.0153901
603.654	0.0154932
603.732	0.0154726
603.810	0.0154617
603.888	0.0154290
603.966	0.0154600
604.044	0.0154517
604.122	0.0154639
604.200	0.0153474
604.279	0.0154937
604.357	0.0157383
604.435	0.0154919
604.513	0.0154766
604.591	0.0153796
604.669	0.0154675
604.747	0.0156125
604.825	0.0155536
604.904	0.0153780
604.982	0.0155092
605.060	0.0154152
605.138	0.0154556
605.216	0.0154752
605.294	0.0154417
605.372	0.0154239
605.450	0.0154359
605.529	0.0153263
605.607	0.0154451
605.685	0.0155452
605.763	0.0156677
605.841	0.0153520
605.919	0.0153047
605.997	0.0154334
606.075	0.0155019
606.154	0.0154875
606.232	0.0154452
606.310	0.0154623
606.388	0.0154649
606.466	0.0154553
606.544	0.0155782
606.622	0.0155268
606.700	0.0153774
606.779	0.0154690
606.857	0.0154520
606.935	0.0153187
607.013	0.0155319
607.091	0.0154715
607.169	0.0154166
607.247	0.0154195
607.325	0.0155273
607.404	0.0156518
607.482	0.0156122
607.560	0.0155286
607.638	0.0154721
607.716	0.0155535
607.794	0.0154836
607.872	0.0155867
607.950	0.0155762
608.029	0.0155570
608.107	0.0156787
608.185	0.0155030
608.263	0.0154691
608.341	0.0154497
608.419	0.0154691
608.497	0.0154798
608.575	0.0155292
608.654	0.0154524
608.732	0.0155330
608.810	0.0152760
608.888	0.0155061
608.966	0.0154112
609.044	0.0154595
609.122	0.0155373
609.200	0.0154245
609.279	0.0155090
609.357	0.0156145
609.435	0.0156189
609.513	0.0154444
609.591	0.0155041
609.669	0.0154939
609.747	0.0153862
609.825	0.0154079
609.904	0.0154275
609.982	0.0153533
610.060	0.0155386
610.138	0.0155337
610.216	0.0154967
610.294	0.0154485
610.372	0.0155022
610.450	0.0154030
610.529	0.0154734
610.607	0.0155564
610.685	0.0154684
610.763	0.0155786
610.841	0.0155547
610.919	0.0155190
610.997	0.0153356
611.075	0.0153103
611.154	0.0155429
611.232	0.0156014
611.310	0.0155666
611.388	0.0153739
611.466	0.0154042
611.544	0.0154539
611.622	0.0156031
611.700	0.0155635
611.779	0.0155043
611.857	0.0155029
611.935	0.0155459
612.013	0.0154524
612.091	0.0154345
612.169	0.0155054
612.247	0.0155996
612.325	0.0154110
612.404	0.0154765
612.482	0.0155263
612.560	0.0154258
612.638	0.0155106
612.716	0.0155721
612.794	0.0154648
612.872	0.0155335
612.950	0.0154572
613.029	0.0154539
613.107	0.0155634
613.185	0.0155117
613.263	0.0155110
613.341	0.0154395
613.419	0.0154506
613.497	0.0153489
613.575	0.0154895
613.654	0.0153892
613.732	0.0155071
613.810	0.0153793
613.888	0.0153342
613.966	0.0155135
614.044	0.0155560
614.122	0.0156519
614.200	0.0153823
614.279	0.0155620
614.357	0.0155612
614.435	0.0154428
614.513	0.0154716
614.591	0.0154808
614.669	0.0154890
614.747	0.0156081
614.825	0.0155864
614.904	0.0154240
614.982	0.0155701
615.060	0.0154870
615.138	0.0155376
615.216	0.0155452
615.294	0.0154948
615.372	0.0154102
615.450	0.0155923
615.529	0.0155936
615.607	0.0155971
615.685	0.0155096
615.763	0.0155298
615.841	0.0154946
615.919	0.0154987
615.997	0.0156282
616.075	0.0155843
616.154	0.0154593
616.232	0.0154227
616.310	0.0154531
616.388	0.0155186
616.466	0.0153836
616.544	0.0153926
616.622	0.0154835
616.700	0.0155502
616.779	0.0154610
616.857	0.0156397
616.935	0.0154148
617.013	0.0154043
617.091	0.0152989
617.169	0.0154052
617.247	0.0154786
617.325	0.0154794
617.404	0.0156059
617.482	0.0153667
617.560	0.0153961
617.638	0.0155657
617.716	0.0156292
617.794	0.0154693
617.872	0.0154830
617.950	0.0154108
618.029	0.0156038
618.107	0.0155274
618.185	0.0156116
618.263	0.0156528
618.341	0.0156007
618.419	0.0155568
618.497	0.0154548
618.575	0.0154317
618.654	0.0155076
618.732	0.0155466
618.810	0.0155321
618.888	0.0154849
618.966	0.0155344
619.044	0.0156435
619.122	0.0155197
619.200	0.0154357
619.279	0.0154758
619.357	0.0155399
619.435	0.0153642
619.513	0.0153088
619.591	0.0155293
619.669	0.0153222
619.747	0.0153666
619.825	0.0154359
619.904	0.0154211
619.982	0.0153998
620.060	0.0153343
620.138	0.0154059
620.216	0.0154487
620.294	0.0154262
620.372	0.0153783
620.450	0.0153234
620.529	0.0153320
620.607	0.0153784
620.685	0.0153699
620.763	0.0153954
620.841	0.0154514
620.919	0.0154649
620.997	0.0154427
621.075	0.0153722
621.154	0.0153645
621.232	0.0154421
621.310	0.0154946
621.388	0.0153983
621.466	0.0155153
621.544	0.0155188
621.622	0.0154768
621.700	0.0154462
621.779	0.0155753
621.857	0.0155806
621.935	0.0154715
622.013	0.0154865
622.091	0.0155141
622.169	0.0155503
622.247	0.0155572
622.325	0.0155676
622.404	0.0154868
622.482	0.0155773
622.560	0.0154494
622.638	0.0154520
622.716	0.0155415
622.794	0.0155257
622.872	0.0154171
622.950	0.0155610
623.029	0.0154733
623.107	0.0154515
623.185	0.0154332
623.263	0.0152917
623.341	0.0154298
623.419	0.0155425
623.497	0.0155557
623.575	0.0154118
623.654	0.0155744
623.732	0.0155018
623.810	0.0154850
623.888	0.0153932
623.966	0.0154083
624.044	0.0153609
624.122	0.0154775
624.200	0.0154422
624.279	0.0155171
624.357	0.0154573
624.435	0.0155322
624.513	0.0154436
624.591	0.0155131
624.669	0.0154604
624.747	0.0153855
624.825	0.0153612
624.904	0.0154395
624.982	0.0155207
625.060	0.0154240
625.138	0.0156743
625.216	0.0154667
625.294	0.0154167
625.372	0.0155878
625.450	0.0155259
625.529	0.0154439
625.607	0.0155447
625.685	0.0155350
625.763	0.0153881
625.841	0.0154603
625.919	0.0154336
625.997	0.0156389
626.075	0.0154984
626.154	0.0155835
626.232	0.0155405
626.310	0.0154622
626.388	0.0156278
626.466	0.0155698
626.544	0.0154346
626.622	0.0155167
626.700	0.0154358
626.779	0.0155665
626.857	0.0154745
626.935	0.0154649
627.013	0.0154751
627.091	0.0155136
627.169	0.0155325
627.247	0.0155964
627.325	0.0155592
627.404	0.0156120
627.482	0.0156722
627.560	0.0155516
627.638	0.0155086
627.716	0.0154608
627.794	0.0155418
627.872	0.0155827
627.950	0.0156375
628.029	0.0154816
628.107	0.0155868
628.185	0.0154504
628.263	0.0154858
628.341	0.0153638
628.419	0.0155035
628.497	0.0154317
628.575	0.0155158
628.654	0.0155592
628.732	0.0154352
628.810	0.0155077
628.888	0.0154536
628.966	0.0155325
629.044	0.0155552
629.122	0.0154787
629.200	0.0155927
629.279	0.0156636
629.357	0.0154012
629.435	0.0153714
629.513	0.0154373
629.591	0.0154992
629.669	0.0155009
629.747	0.0155102
629.825	0.0155058
629.904	0.0155407
629.982	0.0154890
630.060	0.0154698
630.138	0.0154024
630.216	0.0154403
630.294	0.0154791
630.372	0.0154464
630.450	0.0154949
630.529	0.0156125
630.607	0.0155321
630.685	0.0157224
630.763	0.0154482
630.841	0.0154282
630.919	0.0155106
630.997	0.0154591
631.075	0.0155031
631.154	0.0155650
631.232	0.0154913
631.310	0.0155440
631.388	0.0155600
631.466	0.0155272
631.544	0.0155827
631.622	0.0154457
631.700	0.0154952
631.779	0.0155058
631.857	0.0155479
631.935	0.0156627
632.013	0.0155649
632.091	0.0154370
632.169	0.0154816
632.247	0.0154553
632.325	0.0155581
632.404	0.0155463
632.482	0.0154716
632.560	0.0154922
632.638	0.0155534
632.716	0.0155914
632.794	0.0154230
632.872	0.0154415
632.950	0.0155132
633.029	0.0155469
633.107	0.0154405
633.185	0.0155392
633.263	0.0153746
633.341	0.0155469
633.419	0.0154749
633.497	0.0154256
633.575	0.0155225
633.654	0.0154980
633.732	0.0154496
633.810	0.0155852
633.888	0.0155492
633.966	0.0155688
634.044	0.0154819
634.122	0.0154144
634.200	0.0154098
634.279	0.0154181
634.357	0.0155249
634.435	0.0154900
634.513	0.0153623
634.591	0.0155183
634.669	0.0155188
634.747	0.0155072
634.825	0.0154642
634.904	0.0154157
634.982	0.0153515
635.060	0.0153790
635.138	0.0155206
635.216	0.0154595
635.294	0.0153420
635.372	0.0155747
635.450	0.0154551
635.529	0.0156335
635.607	0.0155444
635.685	0.0155390
635.763	0.0153872
635.841	0.0153984
635.919	0.0154804
635.997	0.0154657
636.075	0.0154507
636.154	0.0155470
636.232	0.0154567
636.310	0.0155073
636.388	0.0155936
636.466	0.0155064
636.544	0.0154454
636.622	0.0154742
636.700	0.0155357
636.779	0.0154601
636.857	0.0154458
636.935	0.0156026
637.013	0.0155660
637.091	0.0154720
637.169	0.0156308
637.247	0.0154571
637.325	0.0155348
637.404	0.0155587
637.482	0.0153517
637.560	0.0153940
637.638	0.0154902
637.716	0.0153923
637.794	0.0154702
637.872	0.0154137
637.950	0.0154230
638.029	0.0155467
638.107	0.0154820
638.185	0.0155184
638.263	0.0155206
638.341	0.0154961
638.419	0.0154466
638.497	0.0154662
638.575	0.0154755
638.654	0.0154398
638.732	0.0156747
638.810	0.0156297
638.888	0.0154195
638.966	0.0154508
639.044	0.0155057
639.122	0.0154874
639.200	0.0155602
639.279	0.0154455
639.357	0.0155204
639.435	0.0155654
639.513	0.0154528
639.591	0.0155427
639.669	0.0156113
639.747	0.0155089
639.825	0.0154977
639.904	0.0155587
639.982	0.0155303
640.060	0.0154458
640.138	0.0155065
640.216	0.0155705
640.294	0.0154550
640.372	0.0155136
640.450	0.0154881
640.529	0.0155589
640.607	0.0155737
640.685	0.0155424
640.763	0.0155638
640.841	0.0154448
640.919	0.0152938
640.997	0.0154463
641.075	0.0154858
641.154	0.0155453
641.232	0.0154855
641.310	0.0154134
641.388	0.0156136
641.466	0.0154648
641.544	0.0154386
641.622	0.0154907
641.700	0.0155510
641.779	0.0154440
641.857	0.0154009
641.935	0.0154153
642.013	0.0154508
642.091	0.0155354
642.169	0.0154587
642.247	0.0154504
642.325	0.0155465
642.404	0.0154088
642.482	0.0154464
642.560	0.0154329
642.638	0.0155358
642.716	0.0154521
642.794	0.0154878
642.872	0.0154462
642.950	0.0154645
643.029	0.0154393
643.107	0.0155457
643.185	0.0155001
643.263	0.0153883
643.341	0.0155425
643.419	0.0154059
643.497	0.0154468
643.575	0.0154247
643.654	0.0153754
643.732	0.0154610
643.810	0.0154122
643.888	0.0153712
643.966	0.0155925
644.044	0.0155285
644.122	0.0155095
644.200	0.0153976
644.279	0.0154908
644.357	0.0156062
644.435	0.0155900
644.513	0.0153065
644.591	0.0155070
644.669	0.0156361
644.747	0.0155531
644.825	0.0154389
644.904	0.0154252
644.982	0.0154962
645.060	0.0154641
645.138	0.0154742
645.216	0.0154580
645.294	0.0154706
645.372	0.0155859
645.450	0.0155241
645.529	0.0155948
645.607	0.0156291
645.685	0.0152399
645.763	0.0154278
645.841	0.0154984
645.919	0.0156268
645.997	0.0154742
646.075	0.0155054
646.154	0.0153947
646.232	0.0154434
646.310	0.0155494
646.388	0.0156142
646.466	0.0153940
646.544	0.0155508
646.622	0.0153974
646.700	0.0155176
646.779	0.0154781
646.857	0.0155136
646.935	0.0153941
647.013	0.0154663
647.091	0.0155611
647.169	0.0156704
647.247	0.0155341
647.325	0.0155284
647.404	0.0155747
647.482	0.0155287
647.560	0.0155096
647.638	0.0155319
647.716	0.0154994
647.794	0.0154087
647.872	0.0156161
647.950	0.0154169
648.029	0.0154636
648.107	0.0154297
648.185	0.0154238
648.263	0.0156306
648.341	0.0155354
648.419	0.0155274
648.497	0.0153436
648.575	0.0155086
648.654	0.0155545
648.732	0.0156098
648.810	0.0154960
648.888	0.0154684
648.966	0.0156075
649.044	0.0155482
649.122	0.0154145
649.200	0.0154604
649.279	0.0154349
649.357	0.0154742
649.435	0.0154949
649.513	0.0155872
649.591	0.0154601
649.669	0.0156077
649.747	0.0156020
649.825	0.0154565
649.904	0.0154343
649.982	0.0154948
650.060	0.0155667
650.138	0.0154853
650.216	0.0154095
650.294	0.0155797
650.372	0.0155916
650.450	0.0155379
650.529	0.0155424
650.607	0.0153664
650.685	0.0154655
650.763	0.0155779
650.841	0.0154097
650.919	0.0153947
650.997	0.0154220
651.075	0.0154749
651.154	0.0154400
651.232	0.0155529
651.310	0.0155316
651.388	0.0154102
651.466	0.0154169
651.544	0.0155609
651.622	0.0153331
651.700	0.0154417
651.779	0.0154093
651.857	0.0154367
651.935	0.0154464
652.013	0.0154105
652.091	0.0155498
652.169	0.0156801
652.247	0.0154224
652.325	0.0154359
652.404	0.0155489
652.482	0.0154864
652.560	0.0154088
652.638	0.0153828
652.716	0.0154069
652.794	0.0154837
652.872	0.0154826
652.950	0.0155451
653.029	0.0154904
653.107	0.0152147
653.185	0.0154215
653.263	0.0156893
653.341	0.0155134
653.419	0.0154789
653.497	0.0155022
653.575	0.0155452
653.654	0.0154549
653.732	0.0153930
653.810	0.0155602
653.888	0.0154623
653.966	0.0156211
654.044	0.0155704
654.122	0.0154199
654.200	0.0155093
654.279	0.0154247
654.357	0.0154452
654.435	0.0155672
654.513	0.0154285
654.591	0.0154565
654.669	0.0154951
654.747	0.0154673
654.825	0.0154925
654.904	0.0154283
654.982	0.0155923
655.060	0.0155199
655.138	0.0155025
655.216	0.0155618
655.294	0.0155711
655.372	0.0154779
655.450	0.0154960
655.529	0.0156417
655.607	0.0155898
655.685	0.0154588
655.763	0.0153780
655.841	0.0155508
655.919	0.0154280
655.997	0.0154881
656.075	0.0154530
656.154	0.0155621
656.232	0.0154755
656.310	0.0155346
656.388	0.0155408
656.466	0.0154318
656.544	0.0155564
656.622	0.0154125
656.700	0.0155936
656.779	0.0155885
656.857	0.0155779
656.935	0.0155064
657.013	0.0154543
657.091	0.0153296
657.169	0.0154444
657.247	0.0155687
657.325	0.0155255
657.404	0.0154057
657.482	0.0153991
657.560	0.0153809
657.638	0.0153595
657.716	0.0154944
657.794	0.0154830
657.872	0.0155528
657.950	0.0153418
658.029	0.0155820
658.107	0.0154047
658.185	0.0154646
658.263	0.0155042
658.341	0.0154646
658.419	0.0154742
658.497	0.0155507
658.575	0.0154198
658.654	0.0155666
658.732	0.0155183
658.810	0.0155743
658.888	0.0155359
658.966	0.0154981
659.044	0.0154375
659.122	0.0155438
659.200	0.0155618
659.279	0.0155615
659.357	0.0154935
659.435	0.0155868
659.513	0.0155362
659.591	0.0156343
659.669	0.0155080
659.747	0.0155466
659.825	0.0155035
659.904	0.0154227
659.982	0.0155515
660.060	0.0154787
660.138	0.0154086
660.216	0.0154356
660.294	0.0155238
660.372	0.0154932
660.450	0.0155080
660.529	0.0154801
660.607	0.0153857
660.685	0.0155514
660.763	0.0156907
660.841	0.0156390
660.919	0.0154013
660.997	0.0155779
661.075	0.0153503
661.154	0.0154446
661.232	0.0155592
661.310	0.0153931
661.388	0.0155804
661.466	0.0155534
661.544	0.0153471
661.622	0.0153397
661.700	0.0155499
661.779	0.0156751
661.857	0.0155168
661.935	0.0154999
662.013	0.0155997
662.091	0.0155064
662.169	0.0155797
662.247	0.0154299
662.325	0.0155563
662.404	0.0154473
662.482	0.0156210
662.560	0.0154741
662.638	0.0154791
662.716	0.0155635
662.794	0.0154638
662.872	0.0155873
662.950	0.0155402
663.029	0.0154916
663.107	0.0154197
663.185	0.0154554
663.263	0.0153738
663.341	0.0155014
663.419	0.0155724
663.497	0.0154591
663.575	0.0155272
663.654	0.0154107
663.732	0.0154491
663.810	0.0154172
663.888	0.0153851
663.966	0.0154210
664.044	0.0154401
664.122	0.0154922
664.200	0.0156311
664.279	0.0153738
664.357	0.0154452
664.435	0.0155376
664.513	0.0152889
664.591	0.0154356
664.669	0.0154647
664.747	0.0154379
664.825	0.0154916
664.904	0.0153944
664.982	0.0153703
665.060	0.0153719
665.138	0.0155148
665.216	0.0155730
665.294	0.0154005
665.372	0.0154494
665.450	0.0155396
665.529	0.0155613
665.607	0.0154089
665.685	0.0155680
665.763	0.0155356
665.841	0.0153143
665.919	0.0154647
665.997	0.0154514
666.075	0.0154173
666.154	0.0154311
666.232	0.0154158
666.310	0.0155116
666.388	0.0154897
666.466	0.0154544
666.544	0.0155047
666.622	0.0154121
666.700	0.0154648
666.779	0.0154926
666.857	0.0154200
666.935	0.0156030
667.013	0.0154043
667.091	0.0153406
667.169	0.0152592
667.247	0.0154440
667.325	0.0154336
667.404	0.0155019
667.482	0.0154993
667.560	0.0154678
667.638	0.0154447
667.716	0.0154333
667.794	0.0154948
667.872	0.0154066
667.950	0.0155449
668.029	0.0154209
668.107	0.0154234
668.185	0.0154519
668.263	0.0154251
668.341	0.0154559
668.419	0.0154636
668.497	0.0154838
668.575	0.0153984
668.654	0.0154197
668.732	0.0154988
668.810	0.0154935
668.888	0.0155274
668.966	0.0153737
669.044	0.0155096
669.122	0.0154372
669.200	0.0154581
669.279	0.0153876
669.357	0.0154418
669.435	0.0155284
669.513	0.0155192
669.591	0.0155382
669.669	0.0153505
669.747	0.0155525
669.825	0.0154836
669.904	0.0155099
669.982	0.0155116
670.060	0.0155019
670.138	0.0153918
670.216	0.0155164
670.294	0.0154221
670.372	0.0154278
670.450	0.0154570
670.529	0.0154173
670.607	0.0155041
670.685	0.0156319
670.763	0.0155822
670.841	0.0154191
670.919	0.0154170
670.997	0.0154369
671.075	0.0156426
671.154	0.0154643
671.232	0.0154917
671.310	0.0155515
671.388	0.0155443
671.466	0.0155314
671.544	0.0156239
671.622	0.0155950
671.700	0.0154483
671.779	0.0155641
671.857	0.0154121
671.935	0.0155051
672.013	0.0155212
672.091	0.0156328
672.169	0.0155397
672.247	0.0156176
672.325	0.0155630
672.404	0.0155533
672.482	0.0154695
672.560	0.0156466
672.638	0.0155651
672.716	0.0155087
672.794	0.0155334
672.872	0.0155309
672.950	0.0154681
673.029	0.0155382
673.107	0.0155934
673.185	0.0155575
673.263	0.0155293
673.341	0.0154053
673.419	0.0154496
673.497	0.0155700
673.575	0.0156337
673.654	0.0155222
673.732	0.0154886
673.810	0.0154964
673.888	0.0155982
673.966	0.0154050
674.044	0.0155426
674.122	0.0154819
674.200	0.0154295
674.279	0.0155100
674.357	0.0154884
674.435	0.0153473
674.513	0.0155408
674.591	0.0155995
674.669	0.0154102
674.747	0.0154690
674.825	0.0154433
674.904	0.0154988
674.982	0.0153829
675.060	0.0155051
675.138	0.0155508
675.216	0.0154714
675.294	0.0155219
675.372	0.0155271
675.450	0.0155672
675.529	0.0154713
675.607	0.0154964
675.685	0.0152660
675.763	0.0154930
675.841	0.0156159
675.919	0.0154592
675.997	0.0153799
676.075	0.0153793
676.154	0.0154811
676.232	0.0155110
676.310	0.0154902
676.388	0.0155335
676.466	0.0154254
676.544	0.0154810
676.622	0.0155300
676.700	0.0154615
676.779	0.0154842
676.857	0.0153752
676.935	0.0153820
677.013	0.0154613
677.091	0.0154533
677.169	0.0154819
677.247	0.0153654
677.325	0.0155355
677.404	0.0154662
677.482	0.0154507
677.560	0.0155344
677.638	0.0153591
677.716	0.0154491
677.794	0.0154388
677.872	0.0153863
677.950	0.0155192
678.029	0.0154478
678.107	0.0154817
678.185	0.0154768
678.263	0.0154964
678.341	0.0153683
678.419	0.0154640
678.497	0.0154902
678.575	0.0154229
678.654	0.0153312
678.732	0.0152924
678.810	0.0153564
678.888	0.0154810
678.966	0.0155409
679.044	0.0154127
679.122	0.0154403
679.200	0.0155823
679.279	0.0153508
679.357	0.0155813
679.435	0.0153018
679.513	0.0154649
679.591	0.0154369
679.669	0.0155547
679.747	0.0154726
679.825	0.0154857
679.904	0.0156110
679.982	0.0155601
680.060	0.0153837
680.138	0.0153562
680.216	0.0154154
680.294	0.0154485
680.372	0.0154350
680.450	0.0154591
680.529	0.0155144
680.607	0.0154344
680.685	0.0154967
680.763	0.0155064
680.841	0.0154047
680.919	0.0155133
680.997	0.0154408
681.075	0.0153689
681.154	0.0153722
681.232	0.0154985
681.310	0.0155132
681.388	0.0155183
681.466	0.0155148
681.544	0.0154490
681.622	0.0154388
681.700	0.0153806
681.779	0.0154470
681.857	0.0154216
681.935	0.0154960
682.013	0.0155437
682.091	0.0153409
682.169	0.0154162
682.247	0.0156391
682.325	0.0154988
682.404	0.0155213
682.482	0.0156190
682.560	0.0153776
682.638	0.0153018
682.716	0.0154517
682.794	0.0155274
682.872	0.0155061
682.950	0.0154755
683.029	0.0154661
683.107	0.0156345
683.185	0.0154762
683.263	0.0154858
683.341	0.0154269
683.419	0.0155476
683.497	0.0154639
683.575	0.0154514
683.654	0.0156264
683.732	0.0154638
683.810	0.0154558
683.888	0.0152804
683.966	0.0153853
684.044	0.0154462
684.122	0.0156754
684.200	0.0154502
684.279	0.0154826
684.357	0.0155480
684.435	0.0153995
684.513	0.0154607
684.591	0.0155537
684.669	0.0154495
684.747	0.0154903
684.825	0.0155820
684.904	0.0154646
684.982	0.0153180
685.060	0.0153728
685.138	0.0153529
685.216	0.0154036
685.294	0.0154813
685.372	0.0155412
685.450	0.0155267
685.529	0.0154913
685.607	0.0154858
685.685	0.0155148
685.763	0.0154517
685.841	0.0156039
685.919	0.0156675
685.997	0.0154435
686.075	0.0153674
686.154	0.0154707
686.232	0.0156273
686.310	0.0155852
686.388	0.0154687
686.466	0.0154889
686.544	0.0155584
686.622	0.0154941
686.700	0.0155015
686.779	0.0154299
686.857	0.0155214
686.935	0.0155320
687.013	0.0155602
687.091	0.0154066
687.169	0.0154446
687.247	0.0155632
687.325	0.0154713
687.404	0.0153656
687.482	0.0154537
687.560	0.0154223
687.638	0.0154230
687.716	0.0153880
687.794	0.0154667
687.872	0.0154808
687.950	0.0153676
688.029	0.0153970
688.107	0.0154581
688.185	0.0154146
688.263	0.0153586
688.341	0.0152877
688.419	0.0150854
688.497	0.0150694
688.575	0.0152151
688.654	0.0152156
688.732	0.0152506
688.810	0.0152931
688.888	0.0154623
688.966	0.0155455
689.044	0.0155823
689.122	0.0158730
689.200	0.0162919
689.279	0.0163210
689.357	0.0164025
689.435	0.0166186
689.513	0.0165350
689.591	0.0165445
689.669	0.0163235
689.747	0.0164101
689.825	0.0162485
689.904	0.0156480
689.982	0.0152676
690.060	0.0148080
690.138	0.0142414
690.216	0.0137968
690.294	0.0131507
690.372	0.0128513
690.450	0.0127183
690.529	0.0125375
690.607	0.0127481
690.685	0.0130614
690.763	0.0136164
690.841	0.0140202
690.919	0.0148064
690.997	0.0156290
691.075	0.0164601
691.154	0.0172405
691.232	0.0180023
691.310	0.0187413
691.388	0.0192323
691.466	0.0195158
691.544	0.0195927
691.622	0.0197373
691.700	0.0194586
691.779	0.0190607
691.857	0.0186369
691.935	0.0181419
692.013	0.0175282
692.091	0.0167973
692.169	0.0161855
692.247	0.0155304
692.325	0.0148627
692.404	0.0139933
692.482	0.0134406
692.560	0.0128412
692.638	0.0121639
692.716	0.0114220
692.794	0.0108442
692.872	0.0102868
692.950	0.00991966
693.029	0.00956215
693.107	0.00933578
693.185	0.00944183
693.263	0.00986229
693.341	0.0103494
693.419	0.0109753
693.497	0.0118629
693.575	0.0128448
693.654	0.0139539
693.732	0.0150095
693.810	0.0163750
693.888	0.0174906
693.966	0.0186936
694.044	0.0197427
694.122	0.0206553
694.200	0.0216817
694.279	0.0225670
694.357	0.0232708
694.435	0.0236773
694.513	0.0242366
694.591	0.0246376
694.669	0.0246123
694.747	0.0243652
694.825	0.0238270
694.904	0.0231951
694.982	0.0221362
695.060	0.0209863
695.138	0.0193668
695.216	0.0179120
695.294	0.0160013
695.372	0.0142884
695.450	0.0127255
695.529	0.0110605
695.607	0.00956436
695.685	0.00818657
695.763	0.00697372
695.841	0.00578423
695.919	0.00470245
695.997	0.00395905
696.075	0.00327728
696.154	0.00284782
696.232	0.00252037
696.310	0.00236809
696.388	0.00256264
696.466	0.00311485
696.544	0.00407509
696.622	0.00530891
696.700	0.00701797
696.779	0.00919632
696.857	0.0117612
696.935	0.0148892
697.013	0.0179137
697.091	0.0207572
697.169	0.0234767
697.247	0.0260292
697.325	0.0283679
697.404	0.0301353
697.482	0.0313345
697.560	0.0320116
697.638	0.0325009
697.716	0.0322532
697.794	0.0319235
697.872	0.0312048
697.950	0.0302835
698.029	0.0289616
698.107	0.0274370
698.185	0.0259711
698.263	0.0242242
698.341	0.0222291
698.419	0.0201369
698.497	0.0179934
698.575	0.0157272
698.654	0.0133793
698.732	0.0110846
698.810	0.00888969
698.888	0.00675262
698.966	0.00475517
699.044	0.00305817
699.122	0.00160133
699.200	0.000451355
699.279	-0.000240250
699.357	-0.000396805
699.435	-0.000326614
699.513	0.0000343323
699.591	0.000831070
699.669	0.00173546
699.747	0.00291298
699.825	0.00426659
699.904	0.00565231
699.982	0.00728233
700.060	0.00859268
700.138	0.0102084
700.216	0.0119301
700.294	0.0135178
700.372	0.0153022
700.450	0.0168848
700.529	0.0186305
700.607	0.0204424
700.685	0.0221389
700.763	0.0236198
700.841	0.0253143
700.919	0.0266389
700.997	0.0275428
701.075	0.0284099
701.154	0.0288967
701.232	0.0289208
701.310	0.0288432
701.388	0.0281872
701.466	0.0275327
701.544	0.0269037
701.622	0.0259700
701.700	0.0246854
701.779	0.0234180
701.857	0.0221087
701.935	0.0210775
702.013	0.0197655
702.091	0.0185901
702.169	0.0173840
702.247	0.0160587
702.325	0.0149596
702.404	0.0139560
702.482	0.0129403
702.560	0.0118649
702.638	0.0109531
702.716	0.00980232
702.794	0.00913345
702.872	0.00842491
702.950	0.00766609
703.029	0.00706009
703.107	0.00678223
703.185	0.00641510
703.263	0.00618996
703.341	0.00614914
703.419	0.00628754
703.497	0.00648659
703.575	0.00694283
703.654	0.00733749
703.732	0.00808441
703.810	0.00883690
703.888	0.00960533
703.966	0.0104271
704.044	0.0114793
704.122	0.0124645
704.200	0.0134918
704.279	0.0143944
704.357	0.0153548
704.435	0.0162769
704.513	0.0169756
704.591	0.0178098
704.669	0.0186626
704.747	0.0194211
704.825	0.0200134
704.904	0.0205950
704.982	0.0210328
705.060	0.0214858
705.138	0.0216335
705.216	0.0218180
705.294	0.0216171
705.372	0.0213439
705.450	0.0210355
705.529	0.0207217
705.607	0.0202635
705.685	0.0195226
705.763	0.0191193
705.841	0.0187454
705.919	0.0181322
705.997	0.0176773
706.075	0.0173804
706.154	0.0170159
706.232	0.0169759
706.310	0.0169936
706.388	0.0170798
706.466	0.0171436
706.544	0.0171716
706.622	0.0172927
706.700	0.0173206
706.779	0.0171988
706.857	0.0169509
706.935	0.0164687
707.013	0.0159867
707.091	0.0154697
707.169	0.0148090
707.247	0.0142362
707.325	0.0135604
707.404	0.0129728
707.482	0.0125616
707.560	0.0119511
707.638	0.0117023
707.716	0.0113567
707.794	0.0109950
707.872	0.0109573
707.950	0.0109381
708.029	0.0110249
708.107	0.0110170
708.185	0.0110795
708.263	0.0112232
708.341	0.0114485
708.419	0.0120298
708.497	0.0124084
708.575	0.0126936
708.654	0.0132561
708.732	0.0135521
708.810	0.0140280
708.888	0.0145067
708.966	0.0148312
709.044	0.0150341
709.122	0.0152872
709.200	0.0153613
709.279	0.0156126
709.357	0.0155585
709.435	0.0156642
709.513	0.0156192
709.591	0.0156736
709.669	0.0158871
709.747	0.0158725
709.825	0.0160128
709.904	0.0163490
709.982	0.0168293
710.060	0.0174013
710.138	0.0176598
710.216	0.0181947
710.294	0.0186892
710.372	0.0189409
710.450	0.0192278
710.529	0.0193819
710.607	0.0194869
710.685	0.0195693
710.763	0.0195156
710.841	0.0193814
710.919	0.0190265
710.997	0.0186678
711.075	0.0186248
711.154	0.0181200
711.232	0.0175647
711.310	0.0171407
711.388	0.0166484
711.466	0.0161263
711.544	0.0156276
711.622	0.0152422
711.700	0.0146767
711.779	0.0140982
711.857	0.0139682
711.935	0.0134890
712.013	0.0132364
712.091	0.0130463
712.169	0.0128707
712.247	0.0128746
712.325	0.0128467
712.404	0.0129408
712.482	0.0129923
712.560	0.0132059
712.638	0.0135364
712.716	0.0136440
712.794	0.0138924
712.872	0.0140913
712.950	0.0145030
713.029	0.0149261
713.107	0.0152747
713.185	0.0155970
713.263	0.0158989
713.341	0.0159775
713.419	0.0162204
713.497	0.0165173
713.575	0.0164738
713.654	0.0164919
713.732	0.0164492
713.810	0.0163126
713.888	0.0160444
713.966	0.0158712
714.044	0.0155121
714.122	0.0149820
714.200	0.0147319
714.279	0.0144455
714.357	0.0138885
714.435	0.0134385
714.513	0.0134079
714.591	0.0131638
714.669	0.0130534
714.747	0.0130324
714.825	0.0131562
714.904	0.0135715
714.982	0.0137711
715.060	0.0140833
715.138	0.0145435
715.216	0.0149168
715.294	0.0154311
715.372	0.0157896
715.450	0.0163286
715.529	0.0170472
715.607	0.0172163
715.685	0.0175196
715.763	0.0179936
715.841	0.0183028
715.919	0.0182908
715.997	0.0184505
716.075	0.0182523
716.154	0.0182175
716.232	0.0180982
716.310	0.0176772
716.388	0.0172649
716.466	0.0171259
716.544	0.0166409
716.622	0.0161931
716.700	0.0158804
716.779	0.0156069
716.857	0.0151878
716.935	0.0148512
717.013	0.0145852
717.091	0.0143412
717.169	0.0140652
717.247	0.0140669
717.325	0.0138144
717.404	0.0138258
717.482	0.0141064
717.560	0.0140027
717.638	0.0140290
717.716	0.0141496
717.794	0.0143542
717.872	0.0145919
717.950	0.0147422
718.029	0.0149540
718.107	0.0151523
718.185	0.0152692
718.263	0.0153989
718.341	0.0157257
718.419	0.0157526
718.497	0.0158876
718.575	0.0161202
718.654	0.0160420
718.732	0.0160838
718.810	0.0161858
718.888	0.0161635
718.966	0.0161693
719.044	0.0160686
719.122	0.0160468
719.200	0.0160079
719.279	0.0161507
719.357	0.0158876
719.435	0.0157975
719.513	0.0157724
719.591	0.0156313
719.669	0.0153608
719.747	0.0152738
719.825	0.0150413
719.904	0.0148930
719.982	0.0147131
720.060	0.0146882
720.138	0.0146076
720.216	0.0146224
720.294	0.0144631
720.372	0.0144350
720.450	0.0145519
720.529	0.0145425
720.607	0.0147582
720.685	0.0148351
720.763	0.0148174
720.841	0.0149268
720.919	0.0151820
720.997	0.0154634
721.075	0.0154612
721.154	0.0155791
721.232	0.0158364
721.310	0.0159341
721.388	0.0158352
721.466	0.0161256
721.544	0.0163142
721.622	0.0162405
721.700	0.0162621
721.779	0.0162000
721.857	0.0163616
721.935	0.0162404
722.013	0.0162089
722.091	0.0159443
722.169	0.0159740
722.247	0.0158237
722.325	0.0157740
722.404	0.0154725
722.482	0.0153989
722.560	0.0153492
722.638	0.0151233
722.716	0.0152175
722.794	0.0150587
722.872	0.0150473
722.950	0.0152209
723.029	0.0150909
723.107	0.0151265
723.185	0.0152422
723.263	0.0152100
723.341	0.0154185
723.419	0.0153304
723.497	0.0154268
723.575	0.0153175
723.654	0.0155345
723.732	0.0153625
723.810	0.0154915
723.888	0.0154239
723.966	0.0152788
724.044	0.0151615
724.122	0.0151509
724.200	0.0150845
724.279	0.0153253
724.357	0.0153012
724.435	0.0153873
724.513	0.0154485
724.591	0.0156468
724.669	0.0157568
724.747	0.0159135
724.825	0.0158877
724.904	0.0159788
724.982	0.0162769
725.060	0.0163046
725.138	0.0162708
725.216	0.0163406
725.294	0.0164526
725.372	0.0162611
725.450	0.0161537
725.529	0.0163158
725.607	0.0161511
725.685	0.0160529
725.763	0.0160403
725.841	0.0157830
725.919	0.0157738
725.997	0.0157221
726.075	0.0154340
726.154	0.0154713
726.232	0.0153736
726.310	0.0152032
726.388	0.0152972
726.466	0.0152371
726.544	0.0151511
726.622	0.0150613
726.700	0.0150459
726.779	0.0149989
726.857	0.0151108
726.935	0.0150378
727.013	0.0149567
727.091	0.0149848
727.169	0.0148763
727.247	0.0148238
727.325	0.0148885
727.404	0.0149523
727.482	0.0149877
727.560	0.0149162
727.638	0.0148778
727.716	0.0150368
727.794	0.0150414
727.872	0.0153204
727.950	0.0153981
728.029	0.0153979
728.107	0.0155864
728.185	0.0156454
728.263	0.0158044
728.341	0.0157442
728.419	0.0158705
728.497	0.0158910
728.575	0.0159451
728.654	0.0159732
728.732	0.0159317
728.810	0.0159857
728.888	0.0159701
728.966	0.0159624
729.044	0.0160832
729.122	0.0160693
729.200	0.0159988
729.279	0.0160670
729.357	0.0159892
729.435	0.0159600
729.513	0.0158379
729.591	0.0156724
729.669	0.0155106
729.747	0.0154288
729.825	0.0151865
729.904	0.0151600
729.982	0.0150166
730.060	0.0152209
730.138	0.0148335
730.216	0.0148153
730.294	0.0148898
730.372	0.0147781
730.450	0.0148180
730.529	0.0149429
730.607	0.0149082
730.685	0.0150864
730.763	0.0152405
730.841	0.0153304
730.919	0.0153699
730.997	0.0154405
731.075	0.0155362
731.154	0.0155589
731.232	0.0155075
731.310	0.0156728
731.388	0.0155721
731.466	0.0156187
731.544	0.0155602
731.622	0.0156686
731.700	0.0156327
731.779	0.0156101
731.857	0.0155426
731.935	0.0155070
732.013	0.0155891
732.091	0.0155575
732.169	0.0155893
732.247	0.0157099
732.325	0.0156223
732.404	0.0158326
732.482	0.0159139
732.560	0.0159543
732.638	0.0159951
732.716	0.0159940
732.794	0.0163219
732.872	0.0161519
732.950	0.0161227
733.029	0.0162107
733.107	0.0160371
733.185	0.0161361
733.263	0.0161901
733.341	0.0160275
733.419	0.0161236
733.497	0.0161455
733.575	0.0160053
733.654	0.0159277
733.732	0.0160203
733.810	0.0159431
733.888	0.0159628
733.966	0.0159720
734.044	0.0158389
734.122	0.0155860
734.200	0.0154938
734.279	0.0154140
734.357	0.0152122
734.435	0.0151334
734.513	0.0149946
734.591	0.0149643
734.669	0.0147865
734.747	0.0146919
734.825	0.0146301
734.904	0.0148267
734.982	0.0147628
735.060	0.0146846
735.138	0.0146198
735.216	0.0146862
735.294	0.0145373
735.372	0.0145744
735.450	0.0147900
735.529	0.0145808
735.607	0.0146346
735.685	0.0146645
735.763	0.0147437
735.841	0.0146712
735.919	0.0147514
735.997	0.0148324
736.075	0.0147768
736.154	0.0149630
736.232	0.0153215
736.310	0.0154002
736.388	0.0155351
736.466	0.0157395
736.544	0.0157125
736.622	0.0158713
736.700	0.0159661
736.779	0.0160355
736.857	0.0161539
736.935	0.0161731
737.013	0.0160086
737.091	0.0160683
737.169	0.0161573
737.247	0.0159492
737.325	0.0159616
737.404	0.0159505
737.482	0.0158524
737.560	0.0158220
737.638	0.0156797
737.716	0.0158003
737.794	0.0158193
737.872	0.0157169
737.950	0.0157726
738.029	0.0157914
738.107	0.0158839
738.185	0.0158141
738.263	0.0158974
738.341	0.0157961
738.419	0.0157773
738.497	0.0157011
738.575	0.0156629
738.654	0.0156290
738.732	0.0156229
738.810	0.0153239
738.888	0.0154120
738.966	0.0153334
739.044	0.0153100
739.122	0.0153731
739.200	0.0153238
739.279	0.0154873
739.357	0.0152943
739.435	0.0154816
739.513	0.0153931
739.591	0.0155003
739.669	0.0154636
739.747	0.0154990
739.825	0.0154417
739.904	0.0153595
739.982	0.0153540
740.060	0.0153233
740.138	0.0154226
740.216	0.0152518
740.294	0.0154227
740.372	0.0153844
740.450	0.0155047
740.529	0.0154739
740.607	0.0154921
740.685	0.0156171
740.763	0.0155613
740.841	0.0154475
740.919	0.0154998
740.997	0.0155013
741.075	0.0155560
741.154	0.0155088
741.232	0.0155288
741.310	0.0155864
741.388	0.0157107
741.466	0.0157677
741.544	0.0156361
741.622	0.0158578
741.700	0.0157934
741.779	0.0158093
741.857	0.0157555
741.935	0.0157471
742.013	0.0157274
742.091	0.0155576
742.169	0.0154694
742.247	0.0152536
742.325	0.0150761
742.404	0.0149040
742.482	0.0146796
742.560	0.0146154
742.638	0.0146764
742.716	0.0145411
742.794	0.0144884
742.872	0.0144066
742.950	0.0146442
743.029	0.0146275
743.107	0.0145220
743.185	0.0146360
743.263	0.0146628
743.341	0.0146148
743.419	0.0146009
743.497	0.0146763
743.575	0.0147674
743.654	0.0148617
743.732	0.0147887
743.810	0.0147695
743.888	0.0149007
743.966	0.0150931
744.044	0.0153302
744.122	0.0154701
744.200	0.0155810
744.279	0.0157593
744.357	0.0160741
744.435	0.0163589
744.513	0.0164314
744.591	0.0164613
744.669	0.0166431
744.747	0.0165901
744.825	0.0167432
744.904	0.0166708
744.982	0.0165633
745.060	0.0164649
745.138	0.0161916
745.216	0.0161010
745.294	0.0160774
745.372	0.0159619
745.450	0.0158083
745.529	0.0157744
745.607	0.0158376
745.685	0.0157695
745.763	0.0156444
745.841	0.0156107
745.919	0.0157023
745.997	0.0156529
746.075	0.0156052
746.154	0.0157054
746.232	0.0156192
746.310	0.0155891
746.388	0.0158169
746.466	0.0157569
746.544	0.0158247
746.622	0.0158197
746.700	0.0157842
746.779	0.0158109
746.857	0.0159615
746.935	0.0160659
747.013	0.0160276
747.091	0.0159976
747.169	0.0159648
747.247	0.0160028
747.325	0.0160715
747.404	0.0158157
747.482	0.0156944
747.560	0.0157002
747.638	0.0153665
747.716	0.0151907
747.794	0.0151381
747.872	0.0148768
747.950	0.0147836
748.029	0.0146763
748.107	0.0145528
748.185	0.0145422
748.263	0.0145821
748.341	0.0145166
748.419	0.0146113
748.497	0.0146159
748.575	0.0145805
748.654	0.0146689
748.732	0.0146608
748.810	0.0147697
748.888	0.0145885
748.966	0.0146973
749.044	0.0148196
749.122	0.0149002
749.200	0.0147794
749.279	0.0149486
749.357	0.0151340
749.435	0.0150987
749.513	0.0152341
749.591	0.0154033
749.669	0.0152578
749.747	0.0154945
749.825	0.0155498
749.904	0.0155907
749.982	0.0155450
750.060	0.0155030
750.138	0.0155827
750.216	0.0155733
750.294	0.0155636
750.372	0.0155467
750.450	0.0154665
750.529	0.0156551
750.607	0.0155846
750.685	0.0156574
750.763	0.0157378
750.841	0.0158553
750.919	0.0157957
750.997	0.0158129
751.075	0.0158779
751.154	0.0157887
751.232	0.0158226
751.310	0.0160099
751.388	0.0159975
751.466	0.0156845
751.544	0.0157600
751.622	0.0157804
751.700	0.0157165
751.779	0.0155630
751.857	0.0155645
751.935	0.0156593
752.013	0.0156358
752.091	0.0156240
752.169	0.0157373
752.247	0.0158160
752.325	0.0158847
752.404	0.0158459
752.482	0.0158055
752.560	0.0160075
752.638	0.0160062
752.716	0.0159069
752.794	0.0157740
752.872	0.0158645
752.950	0.0157899
753.029	0.0156894
753.107	0.0156990
753.185	0.0156576
753.263	0.0155896
753.341	0.0154419
753.419	0.0156045
753.497	0.0153456
753.575	0.0152011
753.654	0.0152231
753.732	0.0152718
753.810	0.0152174
753.888	0.0152662
753.966	0.0153439
754.044	0.0152598
754.122	0.0152689
754.200	0.0152705
754.279	0.0155161
754.357	0.0153190
754.435	0.0154623
754.513	0.0155558
754.591	0.0155355
754.669	0.0157130
754.747	0.0155548
754.825	0.0155578
754.904	0.0155769
754.982	0.0156635
755.060	0.0157187
755.138	0.0156204
755.216	0.0156519
755.294	0.0155359
755.372	0.0155470
755.450	0.0156222
755.529	0.0156669
755.607	0.0156742
755.685	0.0155851
755.763	0.0153440
755.841	0.0153320
755.919	0.0152253
755.997	0.0152575
756.075	0.0151814
756.154	0.0151398
756.232	0.0150956
756.310	0.0151175
756.388	0.0150743
756.466	0.0150306
756.544	0.0150050
756.622	0.0149929
756.700	0.0150573
756.779	0.0150397
756.857	0.0150967
756.935	0.0149705
757.013	0.0151954
757.091	0.0153503
757.169	0.0153793
757.247	0.0154349
757.325	0.0155445
757.404	0.0154800
757.482	0.0156546
757.560	0.0155360
757.638	0.0156097
757.716	0.0157790
757.794	0.0158831
757.872	0.0158847
757.950	0.0158585
758.029	0.0158038
758.107	0.0157794
758.185	0.0157413
758.263	0.0157101
758.341	0.0157734
758.419	0.0157413
758.497	0.0157965
758.575	0.0155847
758.654	0.0155683
758.732	0.0154678
758.810	0.0155937
758.888	0.0154955
758.966	0.0153363
759.044	0.0152975
759.122	0.0155238
759.200	0.0153728
759.279	0.0153958
759.357	0.0153981
759.435	0.0153281
759.513	0.0151611
759.591	0.0151559
759.669	0.0153564
759.747	0.0152335
759.825	0.0153288
759.904	0.0154353
759.982	0.0153580
760.060	0.0154312
760.138	0.0153941
760.216	0.0153249
760.294	0.0155773
760.372	0.0154789
760.450	0.0156132
760.529	0.0158327
760.607	0.0156835
760.685	0.0157656
760.763	0.0158244
760.841	0.0156889
760.919	0.0157944
760.997	0.0158038
761.075	0.0158614
761.154	0.0159232
761.232	0.0158782
761.310	0.0159758
761.388	0.0159711
761.466	0.0159184
761.544	0.0159942
761.622	0.0158752
761.700	0.0158135
761.779	0.0158904
761.857	0.0159057
761.935	0.0158631
762.013	0.0158105
762.091	0.0158418
762.169	0.0156976
762.247	0.0155580
762.325	0.0155009
762.404	0.0156535
762.482	0.0155676
762.560	0.0154829
762.638	0.0156564
762.716	0.0156850
762.794	0.0155819
762.872	0.0154487
762.950	0.0156345
763.029	0.0155031
763.107	0.0154774
763.185	0.0154265
763.263	0.0153967
763.341	0.0155402
763.419	0.0154465
763.497	0.0155050
763.575	0.0152216
763.654	0.0151659
763.732	0.0151156
763.810	0.0150464
763.888	0.0149994
763.966	0.0148495
764.044	0.0148772
764.122	0.0148046
764.200	0.0148857
764.279	0.0147960
764.357	0.0147696
764.435	0.0148050
764.513	0.0147134
764.591	0.0147856
764.669	0.0149228
764.747	0.0148333
764.825	0.0148742
764.904	0.0151195
764.982	0.0151164
765.060	0.0151605
765.138	0.0152385
765.216	0.0153134
765.294	0.0153915
765.372	0.0155119
765.450	0.0155371
765.529	0.0156613
765.607	0.0158076
765.685	0.0158157
765.763	0.0156700
765.841	0.0157224
765.919	0.0157954
765.997	0.0157828
766.075	0.0157716
766.154	0.0156801
766.232	0.0156143
766.310	0.0156380
766.388	0.0156757
766.466	0.0156810
766.544	0.0158691
766.622	0.0159351
766.700	0.0157522
766.779	0.0158784
766.857	0.0158751
766.935	0.0160495
767.013	0.0159479
767.091	0.0158592
767.169	0.0157015
767.247	0.0157269
767.325	0.0158578
767.404	0.0156940
767.482	0.0157211
767.560	0.0155010
767.638	0.0155868
767.716	0.0155852
767.794	0.0155291
767.872	0.0156253
767.950	0.0155551
768.029	0.0155444
768.107	0.0157313
768.185	0.0157400
768.263	0.0158434
768.341	0.0157052
768.419	0.0160014
768.497	0.0161107
768.575	0.0161045
768.654	0.0159313
768.732	0.0160143
768.810	0.0160513
768.888	0.0159688
768.966	0.0158768
769.044	0.0159707
769.122	0.0157205
769.200	0.0154065
769.279	0.0155559
769.357	0.0154362
769.435	0.0152740
769.513	0.0152106
769.591	0.0150394
769.669	0.0151991
769.747	0.0152094
769.825	0.0151258
769.904	0.0150970
769.982	0.0151006
770.060	0.0152592
770.138	0.0153278
770.216	0.0153362
770.294	0.0153716
770.372	0.0154888
770.450	0.0157340
770.529	0.0155939
770.607	0.0157264
770.685	0.0157214
770.763	0.0155916
770.841	0.0158079
770.919	0.0156898
770.997	0.0156027
771.075	0.0155912
771.154	0.0155316
771.232	0.0155511
771.310	0.0153897
771.388	0.0154049
771.466	0.0153796
771.544	0.0154586
771.622	0.0153022
771.700	0.0151981
771.779	0.0152079
771.857	0.0151530
771.935	0.0151110
772.013	0.0151383
772.091	0.0150980
772.169	0.0150575
772.247	0.0150881
772.325	0.0151070
772.404	0.0149975
772.482	0.0149757
772.560	0.0151284
772.638	0.0150864
772.716	0.0150460
772.794	0.0151255
772.872	0.0152129
772.950	0.0153757
773.029	0.0154300
773.107	0.0154343
773.185	0.0154642
773.263	0.0156012
773.341	0.0156160
773.419	0.0158215
773.497	0.0155240
773.575	0.0155480
773.654	0.0157301
773.732	0.0157889
773.810	0.0155531
773.888	0.0155786
773.966	0.0156116
774.044	0.0156541
774.122	0.0156660
774.200	0.0157024
774.279	0.0156055
774.357	0.0155308
774.435	0.0155063
774.513	0.0155287
774.591	0.0155630
774.669	0.0155194
774.747	0.0155244
774.825	0.0154917
774.904	0.0155520
774.982	0.0156120
775.060	0.0156929
775.138	0.0157302
775.216	0.0156513
775.294	0.0157324
775.372	0.0156786
775.450	0.0158701
775.529	0.0157245
775.607	0.0158451
775.685	0.0158688
775.763	0.0156935
775.841	0.0158832
775.919	0.0156798
775.997	0.0158295
776.075	0.0157719
776.154	0.0157893
776.232	0.0158288
776.310	0.0158265
776.388	0.0157145
776.466	0.0158566
776.544	0.0158286
776.622	0.0158651
776.700	0.0154719
776.779	0.0158487
776.857	0.0159144
776.935	0.0157334
777.013	0.0156059
777.091	0.0155624
777.169	0.0155594
777.247	0.0155673
777.325	0.0156133
777.404	0.0152812
777.482	0.0153592
777.560	0.0152084
777.638	0.0152086
777.716	0.0150823
777.794	0.0149382
777.872	0.0148656
777.950	0.0148872
778.029	0.0147236
778.107	0.0148086
778.185	0.0148554
778.263	0.0149538
778.341	0.0149691
778.419	0.0150075
778.497	0.0150417
778.575	0.0153208
778.654	0.0155222
778.732	0.0154723
778.810	0.0154998
778.888	0.0155642
778.966	0.0156892
779.044	0.0157758
779.122	0.0156310
779.200	0.0156200
779.279	0.0156541
779.357	0.0155473
779.435	0.0154597
779.513	0.0154659
779.591	0.0153513
779.669	0.0152916
779.747	0.0152576
779.825	0.0152441
779.904	0.0152950
779.982	0.0153474
780.060	0.0152351
780.138	0.0153489
780.216	0.0151533
780.294	0.0151938
780.372	0.0153396
780.450	0.0153252
780.529	0.0153184
780.607	0.0153139
780.685	0.0152882
780.763	0.0155643
780.841	0.0153632
780.919	0.0154480
780.997	0.0156071
781.075	0.0155055
781.154	0.0156325
781.232	0.0156248
781.310	0.0157015
781.388	0.0156355
781.466	0.0157114
781.544	0.0156960
781.622	0.0157702
781.700	0.0157216
781.779	0.0156865
781.857	0.0156303
781.935	0.0156336
782.013	0.0157626
782.091	0.0155981
782.169	0.0156291
782.247	0.0155523
782.325	0.0154991
782.404	0.0154794
782.482	0.0153313
782.560	0.0154845
782.638	0.0152749
782.716	0.0153443
782.794	0.0153422
782.872	0.0153577
782.950	0.0153589
783.029	0.0153896
783.107	0.0153830
783.185	0.0155144
783.263	0.0153604
783.341	0.0155585
783.419	0.0154900
783.497	0.0154575
783.575	0.0154906
783.654	0.0155567
783.732	0.0156458
783.810	0.0156297
783.888	0.0155209
783.966	0.0156313
784.044	0.0157559
784.122	0.0157072
784.200	0.0158212
784.279	0.0158581
784.357	0.0157567
784.435	0.0158778
784.513	0.0157964
784.591	0.0157763
784.669	0.0160235
784.747	0.0159169
784.825	0.0159119
784.904	0.0158773
784.982	0.0159000
785.060	0.0158393
785.138	0.0156731
785.216	0.0157680
785.294	0.0155963
785.372	0.0157008
785.450	0.0157587
785.529	0.0156090
785.607	0.0155338
785.685	0.0156561
785.763	0.0155725
785.841	0.0155350
785.919	0.0154034
785.997	0.0153228
786.075	0.0153091
786.154	0.0152885
786.232	0.0153357
786.310	0.0152251
786.388	0.0152251
786.466	0.0151724
786.544	0.0149747
786.622	0.0150043
786.700	0.0150732
786.779	0.0148652
786.857	0.0148664
786.935	0.0149448
787.013	0.0149586
787.091	0.0150913
787.169	0.0151763
787.247	0.0150771
787.325	0.0150105
787.404	0.0151807
787.482	0.0152162
787.560	0.0152415
787.638	0.0153027
787.716	0.0152245
787.794	0.0152742
787.872	0.0152397
787.950	0.0151926
788.029	0.0153226
788.107	0.0153300
788.185	0.0153514
788.263	0.0152599
788.341	0.0154228
788.419	0.0153700
788.497	0.0153508
788.575	0.0153385
788.654	0.0155643
788.732	0.0154906
788.810	0.0155692
788.888	0.0154168
788.966	0.0155240
789.044	0.0154664
789.122	0.0155536
789.200	0.0155506
789.279	0.0153362
789.357	0.0153867
789.435	0.0154037
789.513	0.0153344
789.591	0.0154334
789.669	0.0152580
789.747	0.0154380
789.825	0.0155715
789.904	0.0154644
789.982	0.0155058
790.060	0.0156725
790.138	0.0156984
790.216	0.0157513
790.294	0.0158952
790.372	0.0159654
790.450	0.0162954
790.529	0.0163452
790.607	0.0164709
790.685	0.0163356
790.763	0.0165709
790.841	0.0165659
790.919	0.0166424
790.997	0.0167151
791.075	0.0165285
791.154	0.0165815
791.232	0.0166338
791.310	0.0164906
791.388	0.0163499
791.466	0.0162968
791.544	0.0159153
791.622	0.0159201
791.700	0.0157245
791.779	0.0156028
791.857	0.0154276
791.935	0.0150622
792.013	0.0149395
792.091	0.0149065
792.169	0.0144474
792.247	0.0143382
792.325	0.0142164
792.404	0.0140022
792.482	0.0138065
792.560	0.0137179
792.638	0.0136511
792.716	0.0135678
792.794	0.0136755
792.872	0.0138599
792.950	0.0137267
793.029	0.0138115
793.107	0.0141411
793.185	0.0145043
793.263	0.0146155
793.341	0.0148225
793.419	0.0150875
793.497	0.0155089
793.575	0.0155888
793.654	0.0158419
793.732	0.0162300
793.810	0.0164160
793.888	0.0165496
793.966	0.0168210
794.044	0.0169553
794.122	0.0170041
794.200	0.0172593
794.279	0.0173927
794.357	0.0174635
794.435	0.0173843
794.513	0.0171624
794.591	0.0171852
794.669	0.0170869
794.747	0.0169609
794.825	0.0167090
794.904	0.0165709
794.982	0.0162627
795.060	0.0160814
795.138	0.0156248
795.216	0.0153262
795.294	0.0151547
795.372	0.0148215
795.450	0.0144398
795.529	0.0140697
795.607	0.0141843
795.685	0.0140440
795.763	0.0137868
795.841	0.0135657
795.919	0.0134716
795.997	0.0136494
796.075	0.0135762
796.154	0.0137305
796.232	0.0138397
796.310	0.0140038
796.388	0.0139583
796.466	0.0142435
796.544	0.0144498
796.622	0.0147948
796.700	0.0148782
796.779	0.0151253
796.857	0.0154361
796.935	0.0155888
797.013	0.0158130
797.091	0.0161800
797.169	0.0163753
797.247	0.0163792
797.325	0.0166852
797.404	0.0169194
797.482	0.0170439
797.560	0.0170887
797.638	0.0170957
797.716	0.0170424
797.794	0.0169662
797.872	0.0169995
797.950	0.0170444
798.029	0.0169535
798.107	0.0168279
798.185	0.0167104
798.263	0.0164451
798.341	0.0164539
798.419	0.0162842
798.497	0.0162499
798.575	0.0160558
798.654	0.0159724
798.732	0.0158765
798.810	0.0156821
798.888	0.0155692
798.966	0.0154506
799.044	0.0152676
799.122	0.0149701
799.200	0.0149950
799.279	0.0147432
799.357	0.0146846
799.435	0.0146117
799.513	0.0144592
799.591	0.0143840
799.669	0.0142445
799.747	0.0141116
799.825	0.0141718
799.904	0.0142157
799.982	0.0141977
800.060	0.0140769
800.138	0.0140343
800.216	0.0141625
800.294	0.0142291
800.372	0.0143758
800.450	0.0144893
800.529	0.0146947
800.607	0.0148499
800.685	0.0149113
800.763	0.0151978
800.841	0.0155048
800.919	0.0155836
800.997	0.0157513
801.075	0.0158212
801.154	0.0159447
801.232	0.0159058
801.310	0.0160959
801.388	0.0161749
801.466	0.0164312
801.544	0.0163311
801.622	0.0162708
801.700	0.0164237
801.779	0.0163169
801.857	0.0161401
801.935	0.0162271
802.013	0.0162727
802.091	0.0161480
802.169	0.0160571
802.247	0.0160053
802.325	0.0161986
802.404	0.0158999
802.482	0.0160145
802.560	0.0159116
802.638	0.0158846
802.716	0.0158784
802.794	0.0157785
802.872	0.0157433
802.950	0.0157893
803.029	0.0157773
803.107	0.0156602
803.185	0.0156178
803.263	0.0155369
803.341	0.0156273
803.419	0.0156161
803.497	0.0153513
803.575	0.0153010
803.654	0.0154880
803.732	0.0152541
803.810	0.0152020
803.888	0.0151995
803.966	0.0152059
804.044	0.0151494
804.122	0.0151010
804.200	0.0151664
804.279	0.0151514
804.357	0.0148685
804.435	0.0150357
804.513	0.0150728
804.591	0.0148195
804.669	0.0150031
804.747	0.0148784
804.825	0.0148265
804.904	0.0150241
804.982	0.0150128
805.060	0.0149789
805.138	0.0150650
805.216	0.0151904
805.294	0.0150854
805.372	0.0151565
805.450	0.0151314
805.529	0.0150737
805.607	0.0152039
805.685	0.0151196
805.763	0.0152107
805.841	0.0153030
805.919	0.0153925
805.997	0.0154153
806.075	0.0154850
806.154	0.0155340
806.232	0.0155220
806.310	0.0156728
806.388	0.0157966
806.466	0.0158524
806.544	0.0159898
806.622	0.0161109
806.700	0.0160828
806.779	0.0162916
806.857	0.0163375
806.935	0.0164672
807.013	0.0162908
807.091	0.0163047
807.169	0.0163184
807.247	0.0162415
807.325	0.0161913
807.404	0.0161947
807.482	0.0162262
807.560	0.0161205
807.638	0.0161424
807.716	0.0160028
807.794	0.0159094
807.872	0.0157216
807.950	0.0158331
808.029	0.0157366
808.107	0.0155236
808.185	0.0155152
808.263	0.0153693
808.341	0.0152496
808.419	0.0150904
808.497	0.0152027
808.575	0.0152228
808.654	0.0150794
808.732	0.0148829
808.810	0.0148621
808.888	0.0150575
808.966	0.0150231
809.044	0.0150034
809.122	0.0149571
809.200	0.0151002
809.279	0.0152109
809.357	0.0152448
809.435	0.0153558
809.513	0.0152372
809.591	0.0154057
809.669	0.0153947
809.747	0.0154976
809.825	0.0154335
809.904	0.0154798
809.982	0.0155325
810.060	0.0154477
810.138	0.0154173
810.216	0.0155112
810.294	0.0155690
810.372	0.0155112
810.450	0.0153025
810.529	0.0154400
810.607	0.0154736
810.685	0.0154471
810.763	0.0154306
810.841	0.0154446
810.919	0.0154673
810.997	0.0152705
811.075	0.0153898
811.154	0.0154194
811.232	0.0152522
811.310	0.0153137
811.388	0.0153444
811.466	0.0154337
811.544	0.0152686
811.622	0.0152650
811.700	0.0154490
811.779	0.0154375
811.857	0.0153487
811.935	0.0153929
812.013	0.0153731
812.091	0.0154353
812.169	0.0154978
812.247	0.0154715
812.325	0.0154401
812.404	0.0155481
812.482	0.0155627
812.560	0.0155314
812.638	0.0155642
812.716	0.0154944
812.794	0.0156238
812.872	0.0157134
812.950	0.0157041
813.029	0.0156094
813.107	0.0156545
813.185	0.0157445
813.263	0.0156364
813.341	0.0156322
813.419	0.0156427
813.497	0.0156896
813.575	0.0157524
813.654	0.0156805
813.732	0.0157085
813.810	0.0157605
813.888	0.0157127
813.966	0.0157927
814.044	0.0158895
814.122	0.0157512
814.200	0.0158388
814.279	0.0158703
814.357	0.0158044
814.435	0.0157158
814.513	0.0157475
814.591	0.0157968
814.669	0.0156417
814.747	0.0155209
814.825	0.0155017
814.904	0.0155376
814.982	0.0153129
815.060	0.0152731
815.138	0.0152860
815.216	0.0152345
815.294	0.0152323
815.372	0.0152275
815.450	0.0151391
815.529	0.0151211
815.607	0.0152991
815.685	0.0151626
815.763	0.0151774
815.841	0.0153069
815.919	0.0153270
815.997	0.0153745
816.075	0.0154908
816.154	0.0153307
816.232	0.0153897
816.310	0.0153888
816.388	0.0152600
816.466	0.0154066
816.544	0.0155222
816.622	0.0153886
816.700	0.0153420
816.779	0.0153371
816.857	0.0152770
816.935	0.0154436
817.013	0.0153616
817.091	0.0152898
817.169	0.0154568
817.247	0.0154844
817.325	0.0154511
817.404	0.0156545
817.482	0.0155908
817.560	0.0155572
817.638	0.0155959
817.716	0.0156065
817.794	0.0156242
817.872	0.0155440
817.950	0.0155588
818.029	0.0156932
818.107	0.0157257
818.185	0.0157162
818.263	0.0158495
818.341	0.0158960
818.419	0.0157468
818.497	0.0158332
818.575	0.0159538
818.654	0.0159140
818.732	0.0158070
818.810	0.0158140
818.888	0.0156578
818.966	0.0156559
819.044	0.0155972
819.122	0.0154989
819.200	0.0154125
819.279	0.0153788
819.357	0.0152380
819.435	0.0154063
819.513	0.0152637
819.591	0.0152291
819.669	0.0152394
819.747	0.0153117
819.825	0.0153452
819.904	0.0152246
819.982	0.0152409
820.060	0.0151452
820.138	0.0151197
820.216	0.0152489
820.294	0.0151710
820.372	0.0153583
820.450	0.0151171
820.529	0.0152968
820.607	0.0154065
820.685	0.0153075
820.763	0.0153819
820.841	0.0154588
820.919	0.0152809
820.997	0.0156565
821.075	0.0155586
821.154	0.0156773
821.232	0.0155991
821.310	0.0157125
821.388	0.0157761
821.466	0.0158418
821.544	0.0158109
821.622	0.0157621
821.700	0.0157436
821.779	0.0157241
821.857	0.0157489
821.935	0.0155553
822.013	0.0156089
822.091	0.0157608
822.169	0.0156642
822.247	0.0157489
822.325	0.0156728
822.404	0.0155274
822.482	0.0154846
822.560	0.0153876
822.638	0.0152570
822.716	0.0153589
822.794	0.0151359
822.872	0.0153183
822.950	0.0151579
823.029	0.0151145
823.107	0.0152307
823.185	0.0153569
823.263	0.0153050
823.341	0.0154389
823.419	0.0153764
823.497	0.0154620
823.575	0.0154557
823.654	0.0155257
823.732	0.0154960
823.810	0.0156987
823.888	0.0154861
823.966	0.0155456
824.044	0.0154770
824.122	0.0156613
824.200	0.0156668
824.279	0.0157751
824.357	0.0157384
824.435	0.0157107
824.513	0.0159496
824.591	0.0157860
824.669	0.0158840
824.747	0.0158226
824.825	0.0157407
824.904	0.0156711
824.982	0.0157318
825.060	0.0156458
825.138	0.0156698
825.216	0.0154218
825.294	0.0153868
825.372	0.0153689
825.450	0.0153345
825.529	0.0152322
825.607	0.0151900
825.685	0.0153532
825.763	0.0150678
825.841	0.0150596
825.919	0.0152466
825.997	0.0151852
826.075	0.0152697
826.154	0.0151853
826.232	0.0152397
826.310	0.0150883
826.388	0.0152862
826.466	0.0151227
826.544	0.0153488
826.622	0.0154862
826.700	0.0154793
826.779	0.0155735
826.857	0.0156263
826.935	0.0156413
827.013	0.0158141
827.091	0.0157379
827.169	0.0158684
827.247	0.0159525
827.325	0.0159000
827.404	0.0159393
827.482	0.0160395
827.560	0.0161276
827.638	0.0159809
827.716	0.0158902
827.794	0.0158837
827.872	0.0158955
827.950	0.0158145
828.029	0.0157343
828.107	0.0157383
828.185	0.0157605
828.263	0.0155304
828.341	0.0154518
828.419	0.0153745
828.497	0.0153651
828.575	0.0150620
828.654	0.0151167
828.732	0.0151521
828.810	0.0151123
828.888	0.0150687
828.966	0.0152435
829.044	0.0151350
829.122	0.0151401
829.200	0.0151534
829.279	0.0151643
829.357	0.0151471
829.435	0.0151951
829.513	0.0153741
829.591	0.0151459
829.669	0.0151674
829.747	0.0151929
829.825	0.0153621
829.904	0.0153203
829.982	0.0153967
830.060	0.0155417
830.138	0.0155492
830.216	0.0154313
830.294	0.0156446
830.372	0.0157231
830.450	0.0157714
830.529	0.0157707
830.607	0.0157549
830.685	0.0157660
830.763	0.0157153
830.841	0.0158157
830.919	0.0159187
830.997	0.0159510
831.075	0.0159032
831.154	0.0158847
831.232	0.0157065
831.310	0.0158671
831.388	0.0158781
831.466	0.0156452
831.544	0.0157512
831.622	0.0157763
831.700	0.0156179
831.779	0.0156026
831.857	0.0155176
831.935	0.0156540
832.013	0.0156488
832.091	0.0153945
832.169	0.0154605
832.247	0.0155777
832.325	0.0155222
832.404	0.0155269
832.482	0.0153576
832.560	0.0153842
832.638	0.0154034
832.716	0.0152927
832.794	0.0153039
832.872	0.0153477
832.950	0.0153690
833.029	0.0152737
833.107	0.0155069
833.185	0.0154579
833.263	0.0155088
833.341	0.0154408
833.419	0.0155711
833.497	0.0155576
833.575	0.0156570
833.654	0.0156765
833.732	0.0155372
833.810	0.0157177
833.888	0.0157486
833.966	0.0155936
834.044	0.0155840
834.122	0.0157152
834.200	0.0156441
834.279	0.0156568
834.357	0.0155627
834.435	0.0155939
834.513	0.0154794
834.591	0.0154630
834.669	0.0154755
834.747	0.0154403
834.825	0.0153925
834.904	0.0153855
834.982	0.0153638
835.060	0.0154217
835.138	0.0155348
835.216	0.0154481
835.294	0.0153967
835.372	0.0154839
835.450	0.0156075
835.529	0.0155049
835.607	0.0153797
835.685	0.0154346
835.763	0.0155029
835.841	0.0153613
835.919	0.0154884
835.997	0.0154526
836.075	0.0154375
836.154	0.0154282
836.232	0.0155528
836.310	0.0154096
836.388	0.0154488
836.466	0.0154723
836.544	0.0153484
836.622	0.0154064
836.700	0.0154877
836.779	0.0154931
836.857	0.0155028
836.935	0.0153851
837.013	0.0154359
837.091	0.0155684
837.169	0.0154746
837.247	0.0155788
837.325	0.0155627
837.404	0.0154855
837.482	0.0155105
837.560	0.0156692
837.638	0.0157394
837.716	0.0156461
837.794	0.0156920
837.872	0.0156169
837.950	0.0157145
838.029	0.0158392
838.107	0.0157874
838.185	0.0156497
838.263	0.0155585
838.341	0.0155410
838.419	0.0156192
838.497	0.0156657
838.575	0.0155873
838.654	0.0153313
838.732	0.0156208
838.810	0.0155222
838.888	0.0153793
838.966	0.0154301
839.044	0.0155159
839.122	0.0155600
839.200	0.0154369
839.279	0.0155153
839.357	0.0155031
839.435	0.0155199
839.513	0.0153197
839.591	0.0156817
839.669	0.0155796
839.747	0.0155972
839.825	0.0156078
839.904	0.0157109
839.982	0.0156332
840.060	0.0156525
840.138	0.0157065
840.216	0.0157673
840.294	0.0157502
840.372	0.0159140
840.450	0.0157924
840.529	0.0158236
840.607	0.0158184
840.685	0.0156937
840.763	0.0156935
840.841	0.0157548
840.919	0.0156608
840.997	0.0156658
841.075	0.0155462
841.154	0.0154998
841.232	0.0153038
841.310	0.0153938
841.388	0.0154320
841.466	0.0152018
841.544	0.0150766
841.622	0.0150144
841.700	0.0150320
841.779	0.0150246
841.857	0.0150007
841.935	0.0151399
842.013	0.0149990
842.091	0.0151037
842.169	0.0150914
842.247	0.0150262
842.325	0.0150858
842.404	0.0152161
842.482	0.0151811
842.560	0.0152299
842.638	0.0152755
842.716	0.0153886
842.794	0.0153981
842.872	0.0153317
842.950	0.0153615
843.029	0.0155367
843.107	0.0156257
843.185	0.0157230
843.263	0.0157507
843.341	0.0155884
843.419	0.0156272
843.497	0.0157191
843.575	0.0158150
843.654	0.0158147
843.732	0.0158121
843.810	0.0158385
843.888	0.0158578
843.966	0.0159028
844.044	0.0158839
844.122	0.0158574
844.200	0.0159068
844.279	0.0158957
844.357	0.0159112
844.435	0.0159238
844.513	0.0158398
844.591	0.0158230
844.669	0.0157106
844.747	0.0156693
844.825	0.0157111
844.904	0.0155334
844.982	0.0154676
845.060	0.0155936
845.138	0.0154881
845.216	0.0153068
845.294	0.0154247
845.372	0.0154542
845.450	0.0154186
845.529	0.0152647
845.607	0.0154247
845.685	0.0153702
845.763	0.0153073
845.841	0.0152806
845.919	0.0152321
845.997	0.0152280
846.075	0.0151385
846.154	0.0151404
846.232	0.0151528
846.310	0.0152036
846.388	0.0151769
846.466	0.0152916
846.544	0.0153033
846.622	0.0153395
846.700	0.0152789
846.779	0.0153251
846.857	0.0153262
846.935	0.0154022
847.013	0.0154738
847.091	0.0154259
847.169	0.0155073
847.247	0.0154698
847.325	0.0154125
847.404	0.0157420
847.482	0.0155565
847.560	0.0156066
847.638	0.0156555
847.716	0.0156261
847.794	0.0155993
847.872	0.0155547
847.950	0.0156808
848.029	0.0156734
848.107	0.0158344
848.185	0.0157970
848.263	0.0156631
848.341	0.0157590
848.419	0.0157950
848.497	0.0157562
848.575	0.0159034
848.654	0.0158541
848.732	0.0157287
848.810	0.0158251
848.888	0.0158444
848.966	0.0157420
849.044	0.0157586
849.122	0.0157887
849.200	0.0157327
849.279	0.0155535
849.357	0.0155095
849.435	0.0157003
849.513	0.0156644
849.591	0.0155498
849.669	0.0155586
849.747	0.0153989
849.825	0.0154194
849.904	0.0155343
849.982	0.0153637
850.060	0.0154134
850.138	0.0154438
850.216	0.0153668
850.294	0.0154745
850.372	0.0153473
850.450	0.0153550
850.529	0.0153551
850.607	0.0152865
850.685	0.0152278
850.763	0.0153862
850.841	0.0153260
850.919	0.0152236
850.997	0.0153092
851.075	0.0152759
851.154	0.0154739
851.232	0.0153165
851.310	0.0152966
851.388	0.0154522
851.466	0.0154877
851.544	0.0154825
851.622	0.0155035
851.700	0.0154886
851.779	0.0153860
851.857	0.0156774
851.935	0.0156081
852.013	0.0155572
852.091	0.0155061
852.169	0.0157176
852.247	0.0156666
852.325	0.0155077
852.404	0.0154191
852.482	0.0156475
852.560	0.0156780
852.638	0.0156287
852.716	0.0155846
852.794	0.0154843
852.872	0.0156288
852.950	0.0155972
853.029	0.0155200
853.107	0.0156240
853.185	0.0156606
853.263	0.0155454
853.341	0.0155502
853.419	0.0156725
853.497	0.0156610
853.575	0.0158120
853.654	0.0156986
853.732	0.0157365
853.810	0.0157555
853.888	0.0156947
853.966	0.0156706
854.044	0.0158067
854.122	0.0157924
854.200	0.0158543
854.279	0.0157358
854.357	0.0157341
854.435	0.0157058
854.513	0.0156494
854.591	0.0157246
854.669	0.0157905
854.747	0.0157014
854.825	0.0156269
854.904	0.0156201
854.982	0.0156031
855.060	0.0156253
855.138	0.0155618
855.216	0.0155737
855.294	0.0155635
855.372	0.0155228
855.450	0.0153908
855.529	0.0155804
855.607	0.0155191
855.685	0.0154602
855.763	0.0154330
855.841	0.0153905
855.919	0.0154778
855.997	0.0153362
856.075	0.0153976
856.154	0.0154127
856.232	0.0153309
856.310	0.0151855
856.388	0.0151585
856.466	0.0151534
856.544	0.0152197
856.622	0.0150965
856.700	0.0150038
856.779	0.0150269
856.857	0.0149530
856.935	0.0151654
857.013	0.0149692
857.091	0.0150218
857.169	0.0150977
857.247	0.0152122
857.325	0.0151467
857.404	0.0152552
857.482	0.0151576
857.560	0.0151770
857.638	0.0154184
857.716	0.0155305
857.794	0.0155627
857.872	0.0156083
857.950	0.0156320
858.029	0.0157874
858.107	0.0158727
858.185	0.0158089
858.263	0.0157879
858.341	0.0158088
858.419	0.0158665
858.497	0.0159222
858.575	0.0158430
858.654	0.0158066
858.732	0.0159556
858.810	0.0159724
858.888	0.0160179
858.966	0.0158446
859.044	0.0159732
859.122	0.0158972
859.200	0.0158644
859.279	0.0158251
859.357	0.0157077
859.435	0.0157390
859.513	0.0157437
859.591	0.0158932
859.669	0.0157600
859.747	0.0156380
859.825	0.0157510
859.904	0.0156335
859.982	0.0157998
860.060	0.0157323
860.138	0.0155953
860.216	0.0156680
860.294	0.0157146
860.372	0.0157281
860.450	0.0155607
860.529	0.0156957
860.607	0.0154490
860.685	0.0152312
860.763	0.0153981
860.841	0.0153635
860.919	0.0153139
860.997	0.0152812
861.075	0.0151608
861.154	0.0152637
861.232	0.0153687
861.310	0.0152326
861.388	0.0153390
861.466	0.0152298
861.544	0.0152403
861.622	0.0153128
861.700	0.0152552
861.779	0.0152651
861.857	0.0153699
861.935	0.0152858
862.013	0.0153983
862.091	0.0152966
862.169	0.0151388
862.247	0.0154526
862.325	0.0153983
862.404	0.0154471
862.482	0.0153301
862.560	0.0154362
862.638	0.0153976
862.716	0.0153446
862.794	0.0155106
862.872	0.0153479
862.950	0.0153754
863.029	0.0153509
863.107	0.0154276
863.185	0.0154008
863.263	0.0154372
863.341	0.0153446
863.419	0.0154884
863.497	0.0154358
863.575	0.0153759
863.654	0.0154347
863.732	0.0155154
863.810	0.0155112
863.888	0.0154893
863.966	0.0154353
864.044	0.0155676
864.122	0.0154741
864.200	0.0156393
864.279	0.0156176
864.357	0.0156013
864.435	0.0157540
864.513	0.0157063
864.591	0.0157137
864.669	0.0158743
864.747	0.0157733
864.825	0.0159142
864.904	0.0159275
864.982	0.0160587
865.060	0.0160259
865.138	0.0159206
865.216	0.0158722
865.294	0.0159344
865.372	0.0159966
865.450	0.0158723
865.529	0.0159230
865.607	0.0157984
865.685	0.0158339
865.763	0.0155911
865.841	0.0154621
865.919	0.0154658
865.997	0.0153564
866.075	0.0152888
866.154	0.0152953
866.232	0.0151375
866.310	0.0151319
866.388	0.0150929
866.466	0.0151921
866.544	0.0150403
866.622	0.0152280
866.700	0.0150736
866.779	0.0151717
866.857	0.0151699
866.935	0.0152376
867.013	0.0151785
867.091	0.0152479
867.169	0.0153265
867.247	0.0152451
867.325	0.0154102
867.404	0.0153794
867.482	0.0153195
867.560	0.0153651
867.638	0.0155587
867.716	0.0156155
867.794	0.0154282
867.872	0.0154338
867.950	0.0156148
868.029	0.0154762
868.107	0.0155610
868.185	0.0156651
868.263	0.0155608
868.341	0.0156033
868.419	0.0155865
868.497	0.0156927
868.575	0.0155422
868.654	0.0155210
868.732	0.0155190
868.810	0.0155413
868.888	0.0155474
868.966	0.0155038
869.044	0.0153447
869.122	0.0153674
869.200	0.0152898
869.279	0.0153734
869.357	0.0153003
869.435	0.0151895
869.513	0.0152625
869.591	0.0155031
869.669	0.0153834
869.747	0.0154779
869.825	0.0153871
869.904	0.0153662
869.982	0.0155898
870.060	0.0156756
870.138	0.0155730
870.216	0.0157058
870.294	0.0154755
870.372	0.0155989
870.450	0.0157149
870.529	0.0156451
870.607	0.0155692
870.685	0.0155200
870.763	0.0155077
870.841	0.0154280
870.919	0.0152958
870.997	0.0153428
871.075	0.0153841
871.154	0.0152712
871.232	0.0151244
871.310	0.0152406
871.388	0.0153746
871.466	0.0152925
871.544	0.0152163
871.622	0.0152590
871.700	0.0154131
871.779	0.0153389
871.857	0.0154134
871.935	0.0154884
872.013	0.0156236
872.091	0.0153216
872.169	0.0155271
872.247	0.0154834
872.325	0.0157439
872.404	0.0156361
872.482	0.0156245
872.560	0.0156211
872.638	0.0156492
872.716	0.0155393
872.794	0.0157079
872.872	0.0156422
872.950	0.0155527
873.029	0.0155925
873.107	0.0156795
873.185	0.0155886
873.263	0.0155263
873.341	0.0155914
873.419	0.0155250
873.497	0.0154790
873.575	0.0154645
873.654	0.0154436
873.732	0.0154948
873.810	0.0155296
873.888	0.0156071
873.966	0.0155527
874.044	0.0155618
874.122	0.0157569
874.200	0.0156110
874.279	0.0155840
874.357	0.0156488
874.435	0.0156108
874.513	0.0156610
874.591	0.0155762
874.669	0.0155264
874.747	0.0154799
874.825	0.0154117
874.904	0.0154861
874.982	0.0153423
875.060	0.0153632
875.138	0.0151575
875.216	0.0151643
875.294	0.0153073
875.372	0.0152486
875.450	0.0151240
875.529	0.0152836
875.607	0.0153257
875.685	0.0152299
875.763	0.0152547
875.841	0.0153502
875.919	0.0151875
875.997	0.0152673
876.075	0.0155338
876.154	0.0153773
876.232	0.0154361
876.310	0.0154539
876.388	0.0152882
876.466	0.0155707
876.544	0.0157068
876.622	0.0155508
876.700	0.0155624
876.779	0.0156233
876.857	0.0156466
876.935	0.0158675
877.013	0.0157260
877.091	0.0157022
877.169	0.0156770
877.247	0.0156088
877.325	0.0156857
877.404	0.0156685
877.482	0.0156252
877.560	0.0155975
877.638	0.0155800
877.716	0.0155342
877.794	0.0154758
877.872	0.0155599
877.950	0.0155682
878.029	0.0155476
878.107	0.0153345
878.185	0.0153843
878.263	0.0152871
878.341	0.0153564
878.419	0.0152730
878.497	0.0153603
878.575	0.0153713
878.654	0.0152946
878.732	0.0154552
878.810	0.0154698
878.888	0.0153838
878.966	0.0154217
879.044	0.0154475
879.122	0.0154103
879.200	0.0154323
879.279	0.0155479
879.357	0.0155579
879.435	0.0154720
879.513	0.0155457
879.591	0.0154581
879.669	0.0154979
879.747	0.0156788
879.825	0.0156131
879.904	0.0156159
879.982	0.0155929
880.060	0.0155170
880.138	0.0155189
880.216	0.0155718
880.294	0.0156526
880.372	0.0155563
880.450	0.0156315
880.529	0.0155299
880.607	0.0156635
880.685	0.0156290
880.763	0.0156824
880.841	0.0156395
880.919	0.0157288
880.997	0.0156920
881.075	0.0156774
881.154	0.0157008
881.232	0.0157120
881.310	0.0155824
881.388	0.0155069
881.466	0.0154953
881.544	0.0154236
881.622	0.0154800
881.700	0.0152533
881.779	0.0151812
881.857	0.0150858
881.935	0.0151579
882.013	0.0150179
882.091	0.0149655
882.169	0.0148069
882.247	0.0148673
882.325	0.0150725
882.404	0.0150420
882.482	0.0151015
882.560	0.0151785
882.638	0.0151690
882.716	0.0152644
882.794	0.0153737
882.872	0.0156081
882.950	0.0156721
883.029	0.0157710
883.107	0.0158253
883.185	0.0158962
883.263	0.0158742
883.341	0.0157948
883.419	0.0159138
883.497	0.0157501
883.575	0.0157297
883.654	0.0157040
883.732	0.0155933
883.810	0.0155516
883.888	0.0155457
883.966	0.0154451
884.044	0.0154360
884.122	0.0152890
884.200	0.0152333
884.279	0.0150809
884.357	0.0151572
884.435	0.0151682
884.513	0.0152348
884.591	0.0151231
884.669	0.0151603
884.747	0.0150942
884.825	0.0153203
884.904	0.0154039
884.982	0.0154684
885.060	0.0152976
885.138	0.0154498
885.216	0.0156396
885.294	0.0157615
885.372	0.0157404
885.450	0.0157490
885.529	0.0160312
885.607	0.0159663
885.685	0.0159224
885.763	0.0160401
885.841	0.0159856
885.919	0.0161793
885.997	0.0159772
886.075	0.0158806
886.154	0.0160177
886.232	0.0158478
886.310	0.0158998
886.388	0.0158102
886.466	0.0157999
886.544	0.0158118
886.622	0.0156023
886.700	0.0154010
886.779	0.0154451
886.857	0.0152887
886.935	0.0151815
887.013	0.0150682
887.091	0.0149601
887.169	0.0148711
887.247	0.0147626
887.325	0.0146500
887.404	0.0146214
887.482	0.0145284
887.560	0.0144691
887.638	0.0144536
887.716	0.0147179
887.794	0.0147441
887.872	0.0147503
887.950	0.0148347
888.029	0.0150002
888.107	0.0150912
888.185	0.0151218
888.263	0.0153397
888.341	0.0157174
888.419	0.0158586
888.497	0.0158791
888.575	0.0161126
888.654	0.0161702
888.732	0.0164565
888.810	0.0164278
888.888	0.0166171
888.966	0.0168404
889.044	0.0167725
889.122	0.0166405
889.200	0.0165858
889.279	0.0165186
889.357	0.0164139
889.435	0.0160078
889.513	0.0158698
889.591	0.0157418
889.669	0.0154763
889.747	0.0152968
889.825	0.0151801
889.904	0.0151916
889.982	0.0150081
890.060	0.0149155
890.138	0.0147924
890.216	0.0148814
890.294	0.0150126
890.372	0.0149572
890.450	0.0148786
890.529	0.0147395
890.607	0.0148312
890.685	0.0148775
890.763	0.0147603
890.841	0.0148953
890.919	0.0148594
890.997	0.0150280
891.075	0.0149282
891.154	0.0150858
891.232	0.0153795
891.310	0.0153532
891.388	0.0155560
891.466	0.0157604
891.544	0.0158959
891.622	0.0159649
891.700	0.0159706
891.779	0.0160645
891.857	0.0161741
891.935	0.0161131
892.013	0.0162472
892.091	0.0161447
892.169	0.0162572
892.247	0.0162811
892.325	0.0161613
892.404	0.0162102
892.482	0.0160984
892.560	0.0161230
892.638	0.0160125
892.716	0.0160404
892.794	0.0158693
892.872	0.0156721
892.950	0.0155426
893.029	0.0154589
893.107	0.0153698
893.185	0.0153753
893.263	0.0151951
893.341	0.0150255
893.419	0.0149794
893.497	0.0149607
893.575	0.0148550
893.654	0.0148670
893.732	0.0148112
893.810	0.0149205
893.888	0.0148312
893.966	0.0148895
894.044	0.0149340
894.122	0.0147778
894.200	0.0149712
894.279	0.0150060
894.357	0.0149222
894.435	0.0150802
894.513	0.0151204
894.591	0.0151534
894.669	0.0153267
894.747	0.0152782
894.825	0.0154549
894.904	0.0154099
894.982	0.0153552
895.060	0.0155153
895.138	0.0155899
895.216	0.0155479
895.294	0.0155968
895.372	0.0154930
895.450	0.0156017
895.529	0.0155987
895.607	0.0155959
895.685	0.0157813
895.763	0.0158978
895.841	0.0157545
895.919	0.0157257
895.997	0.0157918
896.075	0.0157702
896.154	0.0158315
896.232	0.0158411
896.310	0.0158581
896.388	0.0158398
896.466	0.0158320
896.544	0.0157334
896.622	0.0155968
896.700	0.0155576
896.779	0.0155403
896.857	0.0155213
896.935	0.0154161
897.013	0.0154869
897.091	0.0155698
897.169	0.0153744
897.247	0.0154747
897.325	0.0153897
897.404	0.0155109
897.482	0.0155158
897.560	0.0152431
897.638	0.0153125
897.716	0.0153699
897.794	0.0155105
897.872	0.0153848
897.950	0.0155127
898.029	0.0154868
898.107	0.0156235
898.185	0.0155439
898.263	0.0155814
898.341	0.0155628
898.419	0.0154530
898.497	0.0155399
898.575	0.0156620
898.654	0.0156274
898.732	0.0155423
898.810	0.0154480
898.888	0.0154679
898.966	0.0154732
899.044	0.0154269
899.122	0.0153109
899.200	0.0152384
899.279	0.0152965
899.357	0.0153823
899.435	0.0153240
899.513	0.0152085
899.591	0.0152444
899.669	0.0152654
899.747	0.0152789
899.825	0.0153867
899.904	0.0153326
899.982	0.0152893
900.060	0.0152632
900.138	0.0152263
900.216	0.0152921
900.294	0.0154073
900.372	0.0152927
900.450	0.0152899
900.529	0.0154033
900.607	0.0153717
900.685	0.0156053
900.763	0.0155553
900.841	0.0155770
900.919	0.0155178
900.997	0.0156831
901.075	0.0157875
901.154	0.0158520
901.232	0.0157334
901.310	0.0158284
901.388	0.0158600
901.466	0.0158408
901.544	0.0158636
901.622	0.0159495
901.700	0.0159544
901.779	0.0159742
901.857	0.0160707
901.935	0.0160251
902.013	0.0157951
902.091	0.0157870
902.169	0.0158456
902.247	0.0158028
902.325	0.0157449
902.404	0.0154951
902.482	0.0155505
902.560	0.0153523
902.638	0.0153275
902.716	0.0151927
902.794	0.0150013
902.872	0.0148917
902.950	0.0149968
903.029	0.0148420
903.107	0.0147814
903.185	0.0147554
903.263	0.0147365
903.341	0.0146978
903.419	0.0147191
903.497	0.0148275
903.575	0.0149290
903.654	0.0149198
903.732	0.0149301
903.810	0.0152490
903.888	0.0153568
903.966	0.0154268
904.044	0.0153619
904.122	0.0154537
904.200	0.0155737
904.279	0.0157990
904.357	0.0158749
904.435	0.0157954
904.513	0.0161163
904.591	0.0160760
904.669	0.0161485
904.747	0.0162350
904.825	0.0161408
904.904	0.0161974
904.982	0.0161463
905.060	0.0161671
905.138	0.0160894
905.216	0.0160495
905.294	0.0160195
905.372	0.0159021
905.450	0.0159541
905.529	0.0160119
905.607	0.0158067
905.685	0.0157468
905.763	0.0155797
905.841	0.0154953
905.919	0.0153273
905.997	0.0153223
906.075	0.0151531
906.154	0.0152398
906.232	0.0151393
906.310	0.0151147
906.388	0.0151252
906.466	0.0149876
906.544	0.0149990
906.622	0.0151651
906.700	0.0151141
906.779	0.0152564
906.857	0.0154079
906.935	0.0153825
907.013	0.0155889
907.091	0.0155797
907.169	0.0156399
907.247	0.0156184
907.325	0.0156354
907.404	0.0156616
907.482	0.0156740
907.560	0.0155960
907.638	0.0158335
907.716	0.0158047
907.794	0.0156434
907.872	0.0155402
907.950	0.0154445
908.029	0.0155597
908.107	0.0153372
908.185	0.0153890
908.263	0.0152363
908.341	0.0149760
908.419	0.0152638
908.497	0.0151639
908.575	0.0149342
908.654	0.0150830
908.732	0.0149464
908.810	0.0149858
908.888	0.0151658
908.966	0.0152241
909.044	0.0154128
909.122	0.0154394
909.200	0.0154107
909.279	0.0155904
909.357	0.0155744
909.435	0.0156640
909.513	0.0158441
909.591	0.0157725
909.669	0.0157471
909.747	0.0158190
909.825	0.0158790
909.904	0.0159122
909.982	0.0159641
910.060	0.0159757
910.138	0.0158230
910.216	0.0158089
910.294	0.0158247
910.372	0.0158221
910.450	0.0158091
910.529	0.0156951
910.607	0.0156078
910.685	0.0157629
910.763	0.0156210
910.841	0.0155268
910.919	0.0154252
910.997	0.0154483
911.075	0.0153645
911.154	0.0154276
911.232	0.0153705
911.310	0.0152380
911.388	0.0151259
911.466	0.0150109
911.544	0.0150974
911.622	0.0149493
911.700	0.0149864
911.779	0.0150179
911.857	0.0151344
911.935	0.0149696
912.013	0.0149883
912.091	0.0149951
912.169	0.0151004
912.247	0.0153010
912.325	0.0155117
912.404	0.0154052
912.482	0.0155064
912.560	0.0157350
912.638	0.0156492
912.716	0.0158755
912.794	0.0158233
912.872	0.0158056
912.950	0.0158962
913.029	0.0159198
913.107	0.0159372
913.185	0.0159078
913.263	0.0159566
913.341	0.0158677
913.419	0.0158685
913.497	0.0157588
913.575	0.0156391
913.654	0.0156614
913.732	0.0155127
913.810	0.0155516
913.888	0.0156021
913.966	0.0155089
914.044	0.0154998
914.122	0.0153439
914.200	0.0153118
914.279	0.0152867
914.357	0.0151073
914.435	0.0152483
914.513	0.0153361
914.591	0.0154189
914.669	0.0153329
914.747	0.0153341
914.825	0.0153959
914.904	0.0153187
914.982	0.0152490
915.060	0.0154568
915.138	0.0154317
915.216	0.0155552
915.294	0.0155809
915.372	0.0154873
915.450	0.0153940
915.529	0.0154410
915.607	0.0154054
915.685	0.0153471
915.763	0.0154829
915.841	0.0154027
915.919	0.0154824
915.997	0.0154123
916.075	0.0154478
916.154	0.0155125
916.232	0.0154735
916.310	0.0153831
916.388	0.0155035
916.466	0.0154699
916.544	0.0154482
916.622	0.0153638
916.700	0.0154832
916.779	0.0155675
916.857	0.0153694
916.935	0.0155064
917.013	0.0155621
917.091	0.0155544
917.169	0.0155203
917.247	0.0155029
917.325	0.0154620
917.404	0.0155677
917.482	0.0154091
917.560	0.0154854
917.638	0.0154401
917.716	0.0157098
917.794	0.0156179
917.872	0.0156153
917.950	0.0156503
918.029	0.0156480
918.107	0.0157001
918.185	0.0155325
918.263	0.0156662
918.341	0.0158884
918.419	0.0157348
918.497	0.0157513
918.575	0.0157193
918.654	0.0157623
918.732	0.0156593
918.810	0.0157841
918.888	0.0157405
918.966	0.0157001
919.044	0.0157075
919.122	0.0156626
919.200	0.0155136
919.279	0.0155753
919.357	0.0155534
919.435	0.0155610
919.513	0.0156170
919.591	0.0155647
919.669	0.0155694
919.747	0.0154465
919.825	0.0154523
919.904	0.0153949
