05/20/2022	20:48:42	Ver.	4.1	UNKNOWN
Optical Delay	599.981738	Delta X		0.078125	Sweeps	1	Scan Rate	0/0
Coordinates	Axis 1	NaN	Axis 2	NaN	Axis 3	NaN	Axis 4	NaN	Axis 5	NaN	Axis 6	0.000000
TX Power	0.000000	RX Power	0.000000

599.982	0.0161532
600.060	0.0161956
600.138	0.0161461
600.216	0.0160555
600.294	0.0162559
600.372	0.0162405
600.450	0.0160523
600.529	0.0161099
600.607	0.0162548
600.685	0.0161843
600.763	0.0161958
600.841	0.0161072
600.919	0.0160564
600.997	0.0161634
601.075	0.0161554
601.154	0.0161119
601.232	0.0161026
601.310	0.0162265
601.388	0.0161472
601.466	0.0161026
601.544	0.0161890
601.622	0.0161032
601.700	0.0162505
601.779	0.0162262
601.857	0.0161279
601.935	0.0160783
602.013	0.0161205
602.091	0.0161445
602.169	0.0162301
602.247	0.0161763
602.325	0.0162494
602.404	0.0161747
602.482	0.0161718
602.560	0.0160908
602.638	0.0161098
602.716	0.0161127
602.794	0.0161744
602.872	0.0160889
602.950	0.0161884
603.029	0.0161699
603.107	0.0161092
603.185	0.0161802
603.263	0.0162119
603.341	0.0162594
603.419	0.0161103
603.497	0.0162166
603.575	0.0160918
603.654	0.0160003
603.732	0.0162017
603.810	0.0162286
603.888	0.0160864
603.966	0.0162096
604.044	0.0161769
604.122	0.0161286
604.200	0.0161353
604.279	0.0160242
604.357	0.0161350
604.435	0.0160432
604.513	0.0162087
604.591	0.0162497
604.669	0.0161526
604.747	0.0161483
604.825	0.0161602
604.904	0.0161764
604.982	0.0163055
605.060	0.0161615
605.138	0.0160775
605.216	0.0160837
605.294	0.0162733
605.372	0.0159870
605.450	0.0161530
605.529	0.0160168
605.607	0.0161761
605.685	0.0161764
605.763	0.0161942
605.841	0.0160276
605.919	0.0161136
605.997	0.0161294
606.075	0.0161018
606.154	0.0162834
606.232	0.0162195
606.310	0.0161915
606.388	0.0160179
606.466	0.0161797
606.544	0.0162067
606.622	0.0162080
606.700	0.0160493
606.779	0.0163343
606.857	0.0161027
606.935	0.0161840
607.013	0.0161240
607.091	0.0161204
607.169	0.0162665
607.247	0.0161610
607.325	0.0161144
607.404	0.0160458
607.482	0.0161816
607.560	0.0162349
607.638	0.0162174
607.716	0.0160947
607.794	0.0160356
607.872	0.0161626
607.950	0.0162466
608.029	0.0161459
608.107	0.0161808
608.185	0.0161882
608.263	0.0159984
608.341	0.0162183
608.419	0.0162198
608.497	0.0162675
608.575	0.0160309
608.654	0.0162194
608.732	0.0161129
608.810	0.0161601
608.888	0.0161679
608.966	0.0161129
609.044	0.0162108
609.122	0.0161842
609.200	0.0161311
609.279	0.0162135
609.357	0.0162231
609.435	0.0161341
609.513	0.0163067
609.591	0.0162356
609.669	0.0161154
609.747	0.0162365
609.825	0.0162876
609.904	0.0162170
609.982	0.0160818
610.060	0.0162447
610.138	0.0160947
610.216	0.0160722
610.294	0.0160460
610.372	0.0161581
610.450	0.0161997
610.529	0.0161938
610.607	0.0160892
610.685	0.0160783
610.763	0.0161090
610.841	0.0162296
610.919	0.0161957
610.997	0.0162376
611.075	0.0162472
611.154	0.0161796
611.232	0.0161840
611.310	0.0162501
611.388	0.0161422
611.466	0.0162181
611.544	0.0161876
611.622	0.0162749
611.700	0.0162038
611.779	0.0160340
611.857	0.0161797
611.935	0.0162054
612.013	0.0161543
612.091	0.0161321
612.169	0.0163168
612.247	0.0161861
612.325	0.0162600
612.404	0.0161550
612.482	0.0161959
612.560	0.0162231
612.638	0.0160526
612.716	0.0160592
612.794	0.0160438
612.872	0.0161382
612.950	0.0162142
613.029	0.0162008
613.107	0.0160029
613.185	0.0161343
613.263	0.0160930
613.341	0.0162058
613.419	0.0161368
613.497	0.0160629
613.575	0.0162291
613.654	0.0160532
613.732	0.0162240
613.810	0.0161141
613.888	0.0161996
613.966	0.0161564
614.044	0.0160731
614.122	0.0162303
614.200	0.0162777
614.279	0.0161674
614.357	0.0160569
614.435	0.0162122
614.513	0.0162416
614.591	0.0161903
614.669	0.0160903
614.747	0.0161262
614.825	0.0161000
614.904	0.0162286
614.982	0.0161675
615.060	0.0161966
615.138	0.0161386
615.216	0.0162788
615.294	0.0163183
615.372	0.0161022
615.450	0.0161493
615.529	0.0160984
615.607	0.0161744
615.685	0.0160957
615.763	0.0162150
615.841	0.0163519
615.919	0.0161597
615.997	0.0160441
616.075	0.0160372
616.154	0.0163068
616.232	0.0160636
616.310	0.0160665
616.388	0.0162298
616.466	0.0162383
616.544	0.0163116
616.622	0.0160647
616.700	0.0160520
616.779	0.0160955
616.857	0.0161034
616.935	0.0161769
617.013	0.0161195
617.091	0.0160615
617.169	0.0160463
617.247	0.0161687
617.325	0.0160905
617.404	0.0161990
617.482	0.0160727
617.560	0.0159998
617.638	0.0162450
617.716	0.0161668
617.794	0.0162166
617.872	0.0161987
617.950	0.0161366
618.029	0.0161138
618.107	0.0161777
618.185	0.0161140
618.263	0.0162131
618.341	0.0162804
618.419	0.0163024
618.497	0.0161578
618.575	0.0161752
618.654	0.0161684
618.732	0.0161662
618.810	0.0161218
618.888	0.0160923
618.966	0.0162457
619.044	0.0162646
619.122	0.0160933
619.200	0.0161116
619.279	0.0161887
619.357	0.0162102
619.435	0.0162620
619.513	0.0161241
619.591	0.0160954
619.669	0.0161049
619.747	0.0162768
619.825	0.0159605
619.904	0.0160954
619.982	0.0161652
620.060	0.0161572
620.138	0.0161600
620.216	0.0161198
620.294	0.0160886
620.372	0.0161855
620.450	0.0160645
620.529	0.0161864
620.607	0.0160767
620.685	0.0161946
620.763	0.0160497
620.841	0.0160435
620.919	0.0161722
620.997	0.0161570
621.075	0.0162781
621.154	0.0162325
621.232	0.0160893
621.310	0.0161396
621.388	0.0161119
621.466	0.0160799
621.544	0.0160871
621.622	0.0160209
621.700	0.0160560
621.779	0.0161998
621.857	0.0161729
621.935	0.0161792
622.013	0.0161742
622.091	0.0161314
622.169	0.0162805
622.247	0.0162949
622.325	0.0161646
622.404	0.0162017
622.482	0.0162173
622.560	0.0161139
622.638	0.0161182
622.716	0.0161379
622.794	0.0161977
622.872	0.0162288
622.950	0.0163255
623.029	0.0162669
623.107	0.0161482
623.185	0.0160438
623.263	0.0160751
623.341	0.0162373
623.419	0.0160822
623.497	0.0161795
623.575	0.0161383
623.654	0.0160191
623.732	0.0160370
623.810	0.0162000
623.888	0.0161124
623.966	0.0161880
624.044	0.0160869
624.122	0.0159728
624.200	0.0159792
624.279	0.0160781
624.357	0.0162131
624.435	0.0161295
624.513	0.0160534
624.591	0.0160667
624.669	0.0160385
624.747	0.0160823
624.825	0.0161501
624.904	0.0160339
624.982	0.0160781
625.060	0.0161021
625.138	0.0159524
625.216	0.0162466
625.294	0.0162238
625.372	0.0160323
625.450	0.0161742
625.529	0.0160824
625.607	0.0161149
625.685	0.0161605
625.763	0.0160886
625.841	0.0160963
625.919	0.0160558
625.997	0.0162882
626.075	0.0160438
626.154	0.0160284
626.232	0.0161157
626.310	0.0160899
626.388	0.0161679
626.466	0.0162507
626.544	0.0161032
626.622	0.0161470
626.700	0.0160625
626.779	0.0160861
626.857	0.0161024
626.935	0.0162470
627.013	0.0162000
627.091	0.0161220
627.169	0.0162044
627.247	0.0160921
627.325	0.0162572
627.404	0.0163068
627.482	0.0162480
627.560	0.0164135
627.638	0.0161636
627.716	0.0162152
627.794	0.0162175
627.872	0.0161459
627.950	0.0161177
628.029	0.0161798
628.107	0.0161214
628.185	0.0161385
628.263	0.0161340
628.341	0.0162819
628.419	0.0161832
628.497	0.0160938
628.575	0.0159850
628.654	0.0161559
628.732	0.0159939
628.810	0.0161244
628.888	0.0162685
628.966	0.0161813
629.044	0.0160411
629.122	0.0159158
629.200	0.0160391
629.279	0.0160851
629.357	0.0160236
629.435	0.0161087
629.513	0.0161501
629.591	0.0161250
629.669	0.0161578
629.747	0.0161623
629.825	0.0161619
629.904	0.0162247
629.982	0.0161951
630.060	0.0162774
630.138	0.0158985
630.216	0.0161274
630.294	0.0162411
630.372	0.0160950
630.450	0.0163106
630.529	0.0162762
630.607	0.0161327
630.685	0.0162292
630.763	0.0161996
630.841	0.0160950
630.919	0.0161922
630.997	0.0162105
631.075	0.0161744
631.154	0.0161547
631.232	0.0163821
631.310	0.0161259
631.388	0.0160268
631.466	0.0160360
631.544	0.0161287
631.622	0.0163109
631.700	0.0161910
631.779	0.0160777
631.857	0.0161082
631.935	0.0161714
632.013	0.0162083
632.091	0.0162157
632.169	0.0161433
632.247	0.0162824
632.325	0.0161308
632.404	0.0161606
632.482	0.0161791
632.560	0.0162108
632.638	0.0162533
632.716	0.0162442
632.794	0.0162287
632.872	0.0160811
632.950	0.0162701
633.029	0.0161404
633.107	0.0160696
633.185	0.0162974
633.263	0.0161128
633.341	0.0161411
633.419	0.0162055
633.497	0.0162671
633.575	0.0161205
633.654	0.0161757
633.732	0.0160464
633.810	0.0160497
633.888	0.0160090
633.966	0.0162520
634.044	0.0161214
634.122	0.0160444
634.200	0.0161826
634.279	0.0160316
634.357	0.0160478
634.435	0.0161209
634.513	0.0161917
634.591	0.0161620
634.669	0.0161406
634.747	0.0162038
634.825	0.0161458
634.904	0.0160727
634.982	0.0161537
635.060	0.0162611
635.138	0.0161043
635.216	0.0161749
635.294	0.0161638
635.372	0.0160932
635.450	0.0161034
635.529	0.0161905
635.607	0.0161050
635.685	0.0161526
635.763	0.0161327
635.841	0.0161650
635.919	0.0162141
635.997	0.0161405
636.075	0.0162202
636.154	0.0161713
636.232	0.0161986
636.310	0.0162547
636.388	0.0160532
636.466	0.0161694
636.544	0.0162823
636.622	0.0161520
636.700	0.0161196
636.779	0.0161169
636.857	0.0162461
636.935	0.0161652
637.013	0.0161662
637.091	0.0161472
637.169	0.0160675
637.247	0.0163113
637.325	0.0163065
637.404	0.0162241
637.482	0.0160576
637.560	0.0160612
637.638	0.0161000
637.716	0.0161523
637.794	0.0161213
637.872	0.0161832
637.950	0.0160357
638.029	0.0160865
638.107	0.0162127
638.185	0.0161348
638.263	0.0161494
638.341	0.0162758
638.419	0.0160679
638.497	0.0161333
638.575	0.0161240
638.654	0.0161904
638.732	0.0161840
638.810	0.0162000
638.888	0.0161530
638.966	0.0162000
639.044	0.0160669
639.122	0.0161540
639.200	0.0160606
639.279	0.0161254
639.357	0.0160471
639.435	0.0161131
639.513	0.0161230
639.591	0.0160479
639.669	0.0161732
639.747	0.0160583
639.825	0.0161089
639.904	0.0160665
639.982	0.0160599
640.060	0.0160938
640.138	0.0160512
640.216	0.0160308
640.294	0.0159940
640.372	0.0161379
640.450	0.0161349
640.529	0.0160981
640.607	0.0160625
640.685	0.0161012
640.763	0.0162019
640.841	0.0161790
640.919	0.0160600
640.997	0.0160306
641.075	0.0161972
641.154	0.0162827
641.232	0.0161763
641.310	0.0161589
641.388	0.0161004
641.466	0.0162268
641.544	0.0161194
641.622	0.0160696
641.700	0.0161018
641.779	0.0162266
641.857	0.0161249
641.935	0.0161180
642.013	0.0161102
642.091	0.0163699
642.169	0.0162543
642.247	0.0161041
642.325	0.0160897
642.404	0.0161312
642.482	0.0161295
642.560	0.0161144
642.638	0.0161030
642.716	0.0160509
642.794	0.0161397
642.872	0.0161202
642.950	0.0160965
643.029	0.0161589
643.107	0.0162996
643.185	0.0161282
643.263	0.0160944
643.341	0.0163003
643.419	0.0160524
643.497	0.0162545
643.575	0.0161448
643.654	0.0162412
643.732	0.0162584
643.810	0.0161790
643.888	0.0161237
643.966	0.0163747
644.044	0.0162016
644.122	0.0161660
644.200	0.0161221
644.279	0.0161788
644.357	0.0160977
644.435	0.0163448
644.513	0.0161378
644.591	0.0160572
644.669	0.0161053
644.747	0.0161435
644.825	0.0160913
644.904	0.0161198
644.982	0.0161922
645.060	0.0160551
645.138	0.0163204
645.216	0.0162836
645.294	0.0162014
645.372	0.0162142
645.450	0.0161423
645.529	0.0160855
645.607	0.0160641
645.685	0.0161020
645.763	0.0162294
645.841	0.0162083
645.919	0.0161668
645.997	0.0162676
646.075	0.0161937
646.154	0.0161600
646.232	0.0161863
646.310	0.0162797
646.388	0.0161528
646.466	0.0161887
646.544	0.0161860
646.622	0.0161238
646.700	0.0159954
646.779	0.0161021
646.857	0.0160275
646.935	0.0161941
647.013	0.0160421
647.091	0.0160685
647.169	0.0162681
647.247	0.0162488
647.325	0.0161150
647.404	0.0161946
647.482	0.0163399
647.560	0.0162519
647.638	0.0162815
647.716	0.0161312
647.794	0.0160992
647.872	0.0162152
647.950	0.0162871
648.029	0.0162000
648.107	0.0160462
648.185	0.0160798
648.263	0.0161562
648.341	0.0161676
648.419	0.0161386
648.497	0.0162498
648.575	0.0161446
648.654	0.0162741
648.732	0.0160725
648.810	0.0160674
648.888	0.0161898
648.966	0.0160912
649.044	0.0161734
649.122	0.0162320
649.200	0.0160325
649.279	0.0161701
649.357	0.0160995
649.435	0.0161610
649.513	0.0161944
649.591	0.0160818
649.669	0.0162289
649.747	0.0161494
649.825	0.0161814
649.904	0.0162306
649.982	0.0162869
650.060	0.0161536
650.138	0.0161754
650.216	0.0162178
650.294	0.0161231
650.372	0.0161983
650.450	0.0162515
650.529	0.0161703
650.607	0.0162547
650.685	0.0161311
650.763	0.0162073
650.841	0.0161694
650.919	0.0161848
650.997	0.0161950
651.075	0.0161800
651.154	0.0161794
651.232	0.0162492
651.310	0.0162389
651.388	0.0161727
651.466	0.0161834
651.544	0.0160606
651.622	0.0159060
651.700	0.0161346
651.779	0.0161245
651.857	0.0161810
651.935	0.0162372
652.013	0.0161309
652.091	0.0160767
652.169	0.0161111
652.247	0.0161582
652.325	0.0161713
652.404	0.0160844
652.482	0.0162373
652.560	0.0159793
652.638	0.0160739
652.716	0.0161375
652.794	0.0160886
652.872	0.0161025
652.950	0.0161480
653.029	0.0160439
653.107	0.0161127
653.185	0.0162904
653.263	0.0162278
653.341	0.0161758
653.419	0.0160998
653.497	0.0162541
653.575	0.0161352
653.654	0.0161461
653.732	0.0161248
653.810	0.0161765
653.888	0.0162747
653.966	0.0160822
654.044	0.0160928
654.122	0.0161015
654.200	0.0161706
654.279	0.0163396
654.357	0.0161526
654.435	0.0161251
654.513	0.0162753
654.591	0.0161810
654.669	0.0161686
654.747	0.0161839
654.825	0.0162125
654.904	0.0161713
654.982	0.0162843
655.060	0.0161893
655.138	0.0161445
655.216	0.0160902
655.294	0.0161875
655.372	0.0162228
655.450	0.0161031
655.529	0.0161203
655.607	0.0162842
655.685	0.0162041
655.763	0.0160989
655.841	0.0160887
655.919	0.0161418
655.997	0.0162107
656.075	0.0160895
656.154	0.0161607
656.232	0.0162626
656.310	0.0162018
656.388	0.0162164
656.466	0.0162994
656.544	0.0162156
656.622	0.0159908
656.700	0.0160722
656.779	0.0162013
656.857	0.0160388
656.935	0.0162194
657.013	0.0161369
657.091	0.0161237
657.169	0.0161311
657.247	0.0160941
657.325	0.0161468
657.404	0.0161559
657.482	0.0161694
657.560	0.0161487
657.638	0.0161533
657.716	0.0162367
657.794	0.0160729
657.872	0.0161552
657.950	0.0162032
658.029	0.0160935
658.107	0.0160598
658.185	0.0161472
658.263	0.0161444
658.341	0.0160577
658.419	0.0162277
658.497	0.0161065
658.575	0.0160191
658.654	0.0161016
658.732	0.0161404
658.810	0.0160449
658.888	0.0159998
658.966	0.0160860
659.044	0.0161435
659.122	0.0161873
659.200	0.0161344
659.279	0.0160972
659.357	0.0159587
659.435	0.0161624
659.513	0.0160921
659.591	0.0160462
659.669	0.0161039
659.747	0.0161096
659.825	0.0161028
659.904	0.0161507
659.982	0.0160812
660.060	0.0161782
660.138	0.0161382
660.216	0.0162446
660.294	0.0161675
660.372	0.0162092
660.450	0.0162180
660.529	0.0161688
660.607	0.0161361
660.685	0.0160718
660.763	0.0160853
660.841	0.0161066
660.919	0.0161229
660.997	0.0160622
661.075	0.0161986
661.154	0.0160545
661.232	0.0160677
661.310	0.0161667
661.388	0.0162384
661.466	0.0159841
661.544	0.0161817
661.622	0.0160723
661.700	0.0160989
661.779	0.0160799
661.857	0.0161116
661.935	0.0162858
662.013	0.0160495
662.091	0.0160624
662.169	0.0161203
662.247	0.0159784
662.325	0.0161565
662.404	0.0161285
662.482	0.0161507
662.560	0.0160939
662.638	0.0160985
662.716	0.0161658
662.794	0.0160963
662.872	0.0161289
662.950	0.0162674
663.029	0.0161938
663.107	0.0161279
663.185	0.0161332
663.263	0.0160401
663.341	0.0161365
663.419	0.0161282
663.497	0.0163268
663.575	0.0161781
663.654	0.0161272
663.732	0.0161025
663.810	0.0161524
663.888	0.0161858
663.966	0.0160244
664.044	0.0161124
664.122	0.0160623
664.200	0.0162415
664.279	0.0161388
664.357	0.0160514
664.435	0.0160506
664.513	0.0160732
664.591	0.0161320
664.669	0.0162789
664.747	0.0160499
664.825	0.0161631
664.904	0.0160368
664.982	0.0161459
665.060	0.0161398
665.138	0.0161268
665.216	0.0161919
665.294	0.0161644
665.372	0.0160956
665.450	0.0160265
665.529	0.0162234
665.607	0.0161901
665.685	0.0162099
665.763	0.0161653
665.841	0.0161201
665.919	0.0162078
665.997	0.0160561
666.075	0.0160577
666.154	0.0161783
666.232	0.0161810
666.310	0.0161572
666.388	0.0161929
666.466	0.0162530
666.544	0.0161612
666.622	0.0159922
666.700	0.0162316
666.779	0.0162099
666.857	0.0162412
666.935	0.0161448
667.013	0.0163017
667.091	0.0162907
667.169	0.0161381
667.247	0.0162117
667.325	0.0161599
667.404	0.0161462
667.482	0.0162888
667.560	0.0162045
667.638	0.0160457
667.716	0.0162906
667.794	0.0161231
667.872	0.0161806
667.950	0.0161708
668.029	0.0162157
668.107	0.0161076
668.185	0.0161736
668.263	0.0160629
668.341	0.0160412
668.419	0.0163010
668.497	0.0160711
668.575	0.0162483
668.654	0.0161771
668.732	0.0161093
668.810	0.0163046
668.888	0.0163033
668.966	0.0160278
669.044	0.0161739
669.122	0.0161658
669.200	0.0161703
669.279	0.0162299
669.357	0.0161050
669.435	0.0161795
669.513	0.0162527
669.591	0.0160439
669.669	0.0161518
669.747	0.0160938
669.825	0.0161092
669.904	0.0160907
669.982	0.0161302
670.060	0.0162099
670.138	0.0160733
670.216	0.0161434
670.294	0.0161435
670.372	0.0161982
670.450	0.0161742
670.529	0.0161691
670.607	0.0161813
670.685	0.0161282
670.763	0.0160921
670.841	0.0160865
670.919	0.0161279
670.997	0.0161414
671.075	0.0162213
671.154	0.0160820
671.232	0.0160743
671.310	0.0161243
671.388	0.0162599
671.466	0.0162103
671.544	0.0160876
671.622	0.0161148
671.700	0.0160343
671.779	0.0160649
671.857	0.0161567
671.935	0.0161259
672.013	0.0161662
672.091	0.0160718
672.169	0.0160514
672.247	0.0162698
672.325	0.0161817
672.404	0.0160784
672.482	0.0161094
672.560	0.0160312
672.638	0.0161380
672.716	0.0160867
672.794	0.0161176
672.872	0.0161234
672.950	0.0160659
673.029	0.0160685
673.107	0.0159897
673.185	0.0161802
673.263	0.0161388
673.341	0.0160684
673.419	0.0160827
673.497	0.0159436
673.575	0.0160549
673.654	0.0161057
673.732	0.0161528
673.810	0.0160522
673.888	0.0161373
673.966	0.0162404
674.044	0.0161269
674.122	0.0161205
674.200	0.0161749
674.279	0.0161296
674.357	0.0160617
674.435	0.0162049
674.513	0.0160442
674.591	0.0160330
674.669	0.0160629
674.747	0.0161188
674.825	0.0162703
674.904	0.0161232
674.982	0.0160416
675.060	0.0160513
675.138	0.0161884
675.216	0.0160786
675.294	0.0161671
675.372	0.0162168
675.450	0.0161808
675.529	0.0160842
675.607	0.0161228
675.685	0.0161413
675.763	0.0161318
675.841	0.0160452
675.919	0.0160587
675.997	0.0162039
676.075	0.0161868
676.154	0.0160845
676.232	0.0161017
676.310	0.0162337
676.388	0.0161543
676.466	0.0162003
676.544	0.0161311
676.622	0.0161992
676.700	0.0161729
676.779	0.0160699
676.857	0.0159948
676.935	0.0161069
677.013	0.0161499
677.091	0.0160448
677.169	0.0161684
677.247	0.0161272
677.325	0.0159898
677.404	0.0160686
677.482	0.0162541
677.560	0.0160640
677.638	0.0161147
677.716	0.0161768
677.794	0.0161257
677.872	0.0160863
677.950	0.0160345
678.029	0.0161581
678.107	0.0160141
678.185	0.0160014
678.263	0.0160149
678.341	0.0161189
678.419	0.0161512
678.497	0.0161170
678.575	0.0162819
678.654	0.0161990
678.732	0.0161308
678.810	0.0160736
678.888	0.0162974
678.966	0.0161582
679.044	0.0160342
679.122	0.0161187
679.200	0.0160477
679.279	0.0160901
679.357	0.0159636
679.435	0.0160536
679.513	0.0161163
679.591	0.0160813
679.669	0.0161017
679.747	0.0160381
679.825	0.0161111
679.904	0.0162090
679.982	0.0161643
680.060	0.0160495
680.138	0.0160282
680.216	0.0162444
680.294	0.0160483
680.372	0.0161844
680.450	0.0161233
680.529	0.0160187
680.607	0.0161195
680.685	0.0161450
680.763	0.0161963
680.841	0.0160454
680.919	0.0161711
680.997	0.0160947
681.075	0.0160617
681.154	0.0160368
681.232	0.0161523
681.310	0.0161191
681.388	0.0161375
681.466	0.0162186
681.544	0.0161450
681.622	0.0161107
681.700	0.0160907
681.779	0.0161982
681.857	0.0162543
681.935	0.0160568
682.013	0.0161928
682.091	0.0161242
682.169	0.0161241
682.247	0.0161541
682.325	0.0162733
682.404	0.0161595
682.482	0.0162126
682.560	0.0160868
682.638	0.0162423
682.716	0.0162806
682.794	0.0161883
682.872	0.0160639
682.950	0.0161446
683.029	0.0162942
683.107	0.0160768
683.185	0.0161935
683.263	0.0160610
683.341	0.0161498
683.419	0.0160977
683.497	0.0162297
683.575	0.0160406
683.654	0.0161607
683.732	0.0160560
683.810	0.0161263
683.888	0.0160577
683.966	0.0161755
684.044	0.0161171
684.122	0.0162316
684.200	0.0161948
684.279	0.0160607
684.357	0.0161316
684.435	0.0160804
684.513	0.0161137
684.591	0.0161465
684.669	0.0161678
684.747	0.0160062
684.825	0.0161276
684.904	0.0161340
684.982	0.0162215
685.060	0.0160876
685.138	0.0160763
685.216	0.0161917
685.294	0.0160641
685.372	0.0161972
685.450	0.0161669
685.529	0.0159939
685.607	0.0161572
685.685	0.0162394
685.763	0.0161960
685.841	0.0160370
685.919	0.0160041
685.997	0.0161007
686.075	0.0159892
686.154	0.0161562
686.232	0.0160554
686.310	0.0160795
686.388	0.0162192
686.466	0.0161354
686.544	0.0161874
686.622	0.0161813
686.700	0.0163425
686.779	0.0163232
686.857	0.0162801
686.935	0.0163380
687.013	0.0163953
687.091	0.0164013
687.169	0.0163625
687.247	0.0162723
687.325	0.0163506
687.404	0.0162319
687.482	0.0162377
687.560	0.0159912
687.638	0.0160766
687.716	0.0160949
687.794	0.0161227
687.872	0.0159509
687.950	0.0159574
688.029	0.0160527
688.107	0.0159809
688.185	0.0160547
688.263	0.0162025
688.341	0.0162560
688.419	0.0162692
688.497	0.0160531
688.575	0.0161876
688.654	0.0162650
688.732	0.0162454
688.810	0.0162804
688.888	0.0164268
688.966	0.0161806
689.044	0.0160401
689.122	0.0160265
689.200	0.0160566
689.279	0.0157873
689.357	0.0156699
689.435	0.0154168
689.513	0.0155385
689.591	0.0155269
689.669	0.0154430
689.747	0.0154346
689.825	0.0155391
689.904	0.0157321
689.982	0.0157162
690.060	0.0158416
690.138	0.0159743
690.216	0.0160066
690.294	0.0161402
690.372	0.0162949
690.450	0.0164554
690.529	0.0166304
690.607	0.0166959
690.685	0.0167471
690.763	0.0170103
690.841	0.0170746
690.919	0.0171178
690.997	0.0172706
691.075	0.0173018
691.154	0.0172655
691.232	0.0172643
691.310	0.0172561
691.388	0.0172762
691.466	0.0170469
691.544	0.0168947
691.622	0.0165702
691.700	0.0167200
691.779	0.0163209
691.857	0.0160152
691.935	0.0157961
692.013	0.0155390
692.091	0.0152351
692.169	0.0149737
692.247	0.0147504
692.325	0.0142974
692.404	0.0141907
692.482	0.0139317
692.560	0.0136818
692.638	0.0136454
692.716	0.0134993
692.794	0.0137062
692.872	0.0137006
692.950	0.0138265
693.029	0.0139212
693.107	0.0143241
693.185	0.0146066
693.263	0.0150726
693.341	0.0156596
693.419	0.0163274
693.497	0.0166342
693.575	0.0172332
693.654	0.0177558
693.732	0.0182814
693.810	0.0189352
693.888	0.0193377
693.966	0.0196930
694.044	0.0201160
694.122	0.0202737
694.200	0.0205237
694.279	0.0206809
694.357	0.0208323
694.435	0.0207729
694.513	0.0202176
694.591	0.0201136
694.669	0.0194951
694.747	0.0188779
694.825	0.0182602
694.904	0.0173632
694.982	0.0166129
695.060	0.0157150
695.138	0.0148323
695.216	0.0139170
695.294	0.0131007
695.372	0.0124303
695.450	0.0117764
695.529	0.0112143
695.607	0.0107875
695.685	0.0103868
695.763	0.0101091
695.841	0.00994148
695.919	0.0100921
695.997	0.0101449
696.075	0.0102559
696.154	0.0106148
696.232	0.0108402
696.310	0.0114206
696.388	0.0120783
696.466	0.0127104
696.544	0.0135479
696.622	0.0144955
696.700	0.0155266
696.779	0.0166991
696.857	0.0180696
696.935	0.0192517
697.013	0.0204993
697.091	0.0214212
697.169	0.0222916
697.247	0.0228867
697.325	0.0234001
697.404	0.0235199
697.482	0.0235541
697.560	0.0235335
697.638	0.0230682
697.716	0.0225904
697.794	0.0222095
697.872	0.0215375
697.950	0.0209898
698.029	0.0204343
698.107	0.0198503
698.185	0.0192124
698.263	0.0185034
698.341	0.0178767
698.419	0.0171534
698.497	0.0163525
698.575	0.0156053
698.654	0.0148157
698.732	0.0140736
698.810	0.0134622
698.888	0.0127631
698.966	0.0121284
699.044	0.0117485
699.122	0.0114319
699.200	0.0112195
699.279	0.0111936
699.357	0.0110520
699.435	0.0112743
699.513	0.0117142
699.591	0.0120079
699.669	0.0121919
699.747	0.0126656
699.825	0.0127341
699.904	0.0130354
699.982	0.0131119
700.060	0.0130890
700.138	0.0129094
700.216	0.0126992
700.294	0.0124408
700.372	0.0121017
700.450	0.0118342
700.529	0.0116132
700.607	0.0114328
700.685	0.0115239
700.763	0.0114459
700.841	0.0118282
700.919	0.0122744
700.997	0.0131062
701.075	0.0140521
701.154	0.0151965
701.232	0.0163870
701.310	0.0178327
701.388	0.0194155
701.466	0.0209625
701.544	0.0223895
701.622	0.0240773
701.700	0.0254173
701.779	0.0265999
701.857	0.0277753
701.935	0.0286130
702.013	0.0292814
702.091	0.0297497
702.169	0.0298791
702.247	0.0297494
702.325	0.0291869
702.404	0.0284465
702.482	0.0273888
702.560	0.0258555
702.638	0.0240142
702.716	0.0219035
702.794	0.0196974
702.872	0.0174599
702.950	0.0151564
703.029	0.0128206
703.107	0.0105659
703.185	0.00856262
703.263	0.00673096
703.341	0.00531860
703.419	0.00433891
703.497	0.00372917
703.575	0.00354210
703.654	0.00359322
703.732	0.00427330
703.810	0.00473740
703.888	0.00550026
703.966	0.00632713
704.044	0.00694061
704.122	0.00771935
704.200	0.00855385
704.279	0.00937386
704.357	0.0101675
704.435	0.0108111
704.513	0.0116136
704.591	0.0124609
704.669	0.0129947
704.747	0.0135284
704.825	0.0140674
704.904	0.0145159
704.982	0.0150419
705.060	0.0154126
705.138	0.0157166
705.216	0.0158187
705.294	0.0160899
705.372	0.0161939
705.450	0.0162299
705.529	0.0165585
705.607	0.0169498
705.685	0.0173754
705.763	0.0181886
705.841	0.0192101
705.919	0.0203075
705.997	0.0217111
706.075	0.0231992
706.154	0.0248833
706.232	0.0264671
706.310	0.0280470
706.388	0.0292340
706.466	0.0302222
706.544	0.0309941
706.622	0.0312544
706.700	0.0312489
706.779	0.0308160
706.857	0.0300579
706.935	0.0291923
707.013	0.0277590
707.091	0.0262764
707.169	0.0245733
707.247	0.0228645
707.325	0.0209391
707.404	0.0189014
707.482	0.0168282
707.560	0.0148032
707.638	0.0125793
707.716	0.0105270
707.794	0.00857399
707.872	0.00638893
707.950	0.00445038
708.029	0.00288620
708.107	0.00151634
708.185	0.000431519
708.263	-0.000350342
708.341	-0.000681458
708.419	-0.000667953
708.497	-0.000187759
708.575	0.000618362
708.654	0.00192093
708.732	0.00319702
708.810	0.00472153
708.888	0.00660156
708.966	0.00833145
709.044	0.0101444
709.122	0.0118561
709.200	0.0133758
709.279	0.0149460
709.357	0.0164880
709.435	0.0174957
709.513	0.0186149
709.591	0.0194531
709.669	0.0201825
709.747	0.0208879
709.825	0.0213367
709.904	0.0219182
709.982	0.0220473
710.060	0.0221607
710.138	0.0222475
710.216	0.0221481
710.294	0.0220313
710.372	0.0217411
710.450	0.0215939
710.529	0.0213623
710.607	0.0210621
710.685	0.0207626
710.763	0.0208156
710.841	0.0208422
710.919	0.0209919
710.997	0.0212635
711.075	0.0213959
711.154	0.0216127
711.232	0.0218356
711.310	0.0220787
711.388	0.0220839
711.466	0.0219398
711.544	0.0217255
711.622	0.0213662
711.700	0.0211859
711.779	0.0206137
711.857	0.0198337
711.935	0.0194045
712.013	0.0186626
712.091	0.0180815
712.169	0.0171555
712.247	0.0165957
712.325	0.0156486
712.404	0.0148376
712.482	0.0140575
712.560	0.0131911
712.638	0.0123569
712.716	0.0116765
712.794	0.0108797
712.872	0.0102771
712.950	0.00981941
713.029	0.00950165
713.107	0.00934547
713.185	0.00934914
713.263	0.00960289
713.341	0.0100615
713.419	0.0106208
713.497	0.0111481
713.575	0.0118167
713.654	0.0124137
713.732	0.0127789
713.810	0.0132269
713.888	0.0137614
713.966	0.0140311
714.044	0.0141010
714.122	0.0141222
714.200	0.0141034
714.279	0.0140926
714.357	0.0141269
714.435	0.0142067
714.513	0.0144166
714.591	0.0144359
714.669	0.0147480
714.747	0.0152506
714.825	0.0157397
714.904	0.0160282
714.982	0.0165611
715.060	0.0170152
715.138	0.0174556
715.216	0.0178287
715.294	0.0182212
715.372	0.0184830
715.450	0.0186743
715.529	0.0188777
715.607	0.0191400
715.685	0.0193599
715.763	0.0194862
715.841	0.0198112
715.919	0.0199623
715.997	0.0201357
716.075	0.0200946
716.154	0.0200426
716.232	0.0199094
716.310	0.0198967
716.388	0.0194595
716.466	0.0189980
716.544	0.0186469
716.622	0.0181497
716.700	0.0174689
716.779	0.0170852
716.857	0.0166564
716.935	0.0162630
717.013	0.0159300
717.091	0.0157060
717.169	0.0157555
717.247	0.0157605
717.325	0.0157707
717.404	0.0159341
717.482	0.0162924
717.560	0.0164600
717.638	0.0166975
717.716	0.0167976
717.794	0.0169573
717.872	0.0173149
717.950	0.0172926
718.029	0.0173480
718.107	0.0174046
718.185	0.0174167
718.263	0.0171695
718.341	0.0169117
718.419	0.0166131
718.497	0.0160565
718.575	0.0155870
718.654	0.0150986
718.732	0.0145129
718.810	0.0139316
718.888	0.0132957
718.966	0.0127306
719.044	0.0122987
719.122	0.0120620
719.200	0.0119458
719.279	0.0119633
719.357	0.0120545
719.435	0.0124393
719.513	0.0129140
719.591	0.0132538
719.669	0.0137799
719.747	0.0143252
719.825	0.0147635
719.904	0.0153567
719.982	0.0160427
720.060	0.0164041
720.138	0.0168034
720.216	0.0171797
720.294	0.0175536
720.372	0.0177356
720.450	0.0180407
720.529	0.0181860
720.607	0.0181116
720.685	0.0179836
720.763	0.0177980
720.841	0.0175627
720.919	0.0173044
720.997	0.0168178
721.075	0.0164732
721.154	0.0159156
721.232	0.0155453
721.310	0.0150980
721.388	0.0148289
721.466	0.0146067
721.544	0.0146503
721.622	0.0144976
721.700	0.0146230
721.779	0.0148660
721.857	0.0150371
721.935	0.0152733
722.013	0.0157349
722.091	0.0160551
722.169	0.0163119
722.247	0.0168413
722.325	0.0172192
722.404	0.0175404
722.482	0.0178353
722.560	0.0180489
722.638	0.0183354
722.716	0.0183604
722.794	0.0184856
722.872	0.0186869
722.950	0.0187677
723.029	0.0187733
723.107	0.0187401
723.185	0.0185967
723.263	0.0183643
723.341	0.0182137
723.419	0.0179240
723.497	0.0176943
723.575	0.0173909
723.654	0.0170854
723.732	0.0167287
723.810	0.0163780
723.888	0.0160773
723.966	0.0158062
724.044	0.0156610
724.122	0.0154352
724.200	0.0152177
724.279	0.0151263
724.357	0.0148142
724.435	0.0148431
724.513	0.0148058
724.591	0.0146284
724.669	0.0144884
724.747	0.0145355
724.825	0.0145773
724.904	0.0145892
724.982	0.0147021
725.060	0.0147658
725.138	0.0149706
725.216	0.0151306
725.294	0.0154041
725.372	0.0155324
725.450	0.0158854
725.529	0.0160690
725.607	0.0162650
725.685	0.0164504
725.763	0.0164614
725.841	0.0164452
725.919	0.0165812
725.997	0.0163635
726.075	0.0163947
726.154	0.0161938
726.232	0.0160610
726.310	0.0158051
726.388	0.0157108
726.466	0.0155167
726.544	0.0153491
726.622	0.0153061
726.700	0.0151051
726.779	0.0152403
726.857	0.0152258
726.935	0.0152016
727.013	0.0153426
727.091	0.0155039
727.169	0.0153438
727.247	0.0154342
727.325	0.0155157
727.404	0.0154499
727.482	0.0156406
727.560	0.0155806
727.638	0.0154709
727.716	0.0155445
727.794	0.0156329
727.872	0.0157967
727.950	0.0157906
728.029	0.0158414
728.107	0.0159631
728.185	0.0162020
728.263	0.0163489
728.341	0.0165022
728.419	0.0168808
728.497	0.0168681
728.575	0.0170200
728.654	0.0172552
728.732	0.0173670
728.810	0.0174430
728.888	0.0175091
728.966	0.0174780
729.044	0.0175379
729.122	0.0175117
729.200	0.0174626
729.279	0.0171568
729.357	0.0171587
729.435	0.0169791
729.513	0.0169841
729.591	0.0167474
729.669	0.0167057
729.747	0.0167128
729.825	0.0164542
729.904	0.0164725
729.982	0.0164799
730.060	0.0163808
730.138	0.0163795
730.216	0.0165053
730.294	0.0166319
730.372	0.0166819
730.450	0.0167480
730.529	0.0169501
730.607	0.0167175
730.685	0.0167941
730.763	0.0166755
730.841	0.0165868
730.919	0.0166831
730.997	0.0164179
731.075	0.0163266
731.154	0.0161012
731.232	0.0158860
731.310	0.0158979
731.388	0.0156799
731.466	0.0155061
731.544	0.0152941
731.622	0.0152155
731.700	0.0151778
731.779	0.0150693
731.857	0.0150363
731.935	0.0150660
732.013	0.0148313
732.091	0.0150289
732.169	0.0151348
732.247	0.0152362
732.325	0.0151923
732.404	0.0150891
732.482	0.0152396
732.560	0.0152882
732.638	0.0152578
732.716	0.0153268
732.794	0.0153186
732.872	0.0154258
732.950	0.0155101
733.029	0.0156261
733.107	0.0158220
733.185	0.0161518
733.263	0.0163046
733.341	0.0164532
733.419	0.0166463
733.497	0.0166634
733.575	0.0168464
733.654	0.0166517
733.732	0.0168191
733.810	0.0167912
733.888	0.0167401
733.966	0.0165547
734.044	0.0165448
734.122	0.0165713
734.200	0.0164561
734.279	0.0164027
734.357	0.0163374
734.435	0.0163160
734.513	0.0163727
734.591	0.0164725
734.669	0.0165609
734.747	0.0165675
734.825	0.0167148
734.904	0.0167122
734.982	0.0169809
735.060	0.0169624
735.138	0.0170128
735.216	0.0169063
735.294	0.0166714
735.372	0.0165562
735.450	0.0165874
735.529	0.0163324
735.607	0.0161391
735.685	0.0160753
735.763	0.0158964
735.841	0.0157429
735.919	0.0158167
735.997	0.0157761
736.075	0.0157276
736.154	0.0156973
736.232	0.0157807
736.310	0.0156804
736.388	0.0157508
736.466	0.0158453
736.544	0.0160552
736.622	0.0158769
736.700	0.0159441
736.779	0.0159748
736.857	0.0158275
736.935	0.0157182
737.013	0.0158502
737.091	0.0157937
737.169	0.0157251
737.247	0.0157820
737.325	0.0158354
737.404	0.0158891
737.482	0.0159805
737.560	0.0160017
737.638	0.0162815
737.716	0.0163551
737.794	0.0166743
737.872	0.0168687
737.950	0.0170824
738.029	0.0171048
738.107	0.0172214
738.185	0.0172978
738.263	0.0171980
738.341	0.0171411
738.419	0.0171269
738.497	0.0170284
738.575	0.0167388
738.654	0.0165697
738.732	0.0165401
738.810	0.0164281
738.888	0.0162995
738.966	0.0160829
739.044	0.0162234
739.122	0.0161345
739.200	0.0163759
739.279	0.0163430
739.357	0.0162560
739.435	0.0161462
739.513	0.0160303
739.591	0.0161208
739.669	0.0160924
739.747	0.0158838
739.825	0.0158691
739.904	0.0158094
739.982	0.0156745
740.060	0.0155812
740.138	0.0154638
740.216	0.0156240
740.294	0.0154476
740.372	0.0153867
740.450	0.0155140
740.529	0.0155836
740.607	0.0155095
740.685	0.0156426
740.763	0.0158458
740.841	0.0156724
740.919	0.0159307
740.997	0.0160857
741.075	0.0160670
741.154	0.0162357
741.232	0.0161678
741.310	0.0162363
741.388	0.0163078
741.466	0.0163017
741.544	0.0162814
741.622	0.0163294
741.700	0.0164859
741.779	0.0162590
741.857	0.0163818
741.935	0.0164097
742.013	0.0163108
742.091	0.0163960
742.169	0.0163779
742.247	0.0164160
742.325	0.0164308
742.404	0.0165784
742.482	0.0164819
742.560	0.0164194
742.638	0.0164178
742.716	0.0164883
742.794	0.0162878
742.872	0.0163936
742.950	0.0162444
743.029	0.0161649
743.107	0.0159960
743.185	0.0159894
743.263	0.0158407
743.341	0.0157476
743.419	0.0157447
743.497	0.0155780
743.575	0.0155443
743.654	0.0154336
743.732	0.0153767
743.810	0.0152954
743.888	0.0156264
743.966	0.0156035
744.044	0.0157545
744.122	0.0159194
744.200	0.0161125
744.279	0.0161068
744.357	0.0162639
744.435	0.0162653
744.513	0.0164311
744.591	0.0165295
744.669	0.0163979
744.747	0.0165515
744.825	0.0164442
744.904	0.0163407
744.982	0.0162878
745.060	0.0162122
745.138	0.0161472
745.216	0.0161948
745.294	0.0161980
745.372	0.0161577
745.450	0.0163481
745.529	0.0163670
745.607	0.0165899
745.685	0.0167784
745.763	0.0168367
745.841	0.0168410
745.919	0.0169238
745.997	0.0170043
746.075	0.0170167
746.154	0.0168697
746.232	0.0168289
746.310	0.0167709
746.388	0.0166006
746.466	0.0166319
746.544	0.0163751
746.622	0.0163470
746.700	0.0163993
746.779	0.0162749
746.857	0.0163243
746.935	0.0161582
747.013	0.0161923
747.091	0.0161205
747.169	0.0160521
747.247	0.0159285
747.325	0.0158722
747.404	0.0159581
747.482	0.0157780
747.560	0.0158434
747.638	0.0157908
747.716	0.0157459
747.794	0.0157829
747.872	0.0156844
747.950	0.0155952
748.029	0.0157308
748.107	0.0155089
748.185	0.0153707
748.263	0.0154787
748.341	0.0154533
748.419	0.0153503
748.497	0.0152451
748.575	0.0151236
748.654	0.0151859
748.732	0.0152245
748.810	0.0151352
748.888	0.0152969
748.966	0.0153854
749.044	0.0154134
749.122	0.0156112
749.200	0.0157506
749.279	0.0160190
749.357	0.0161183
749.435	0.0162818
749.513	0.0163945
749.591	0.0164893
749.669	0.0164628
749.747	0.0165160
749.825	0.0165925
749.904	0.0162476
749.982	0.0163869
750.060	0.0162703
750.138	0.0162115
750.216	0.0161932
750.294	0.0161568
750.372	0.0161803
750.450	0.0160992
750.529	0.0161665
750.607	0.0163027
750.685	0.0161960
750.763	0.0162582
750.841	0.0162389
750.919	0.0162423
750.997	0.0161954
751.075	0.0160614
751.154	0.0161420
751.232	0.0162222
751.310	0.0163490
751.388	0.0162569
751.466	0.0162794
751.544	0.0162872
751.622	0.0163354
751.700	0.0165694
751.779	0.0165598
751.857	0.0165562
751.935	0.0166140
752.013	0.0167757
752.091	0.0167971
752.169	0.0170255
752.247	0.0169032
752.325	0.0169958
752.404	0.0169882
752.482	0.0170541
752.560	0.0168808
752.638	0.0168197
752.716	0.0168139
752.794	0.0166348
752.872	0.0165848
752.950	0.0164679
753.029	0.0163370
753.107	0.0161224
753.185	0.0159845
753.263	0.0158524
753.341	0.0156871
753.419	0.0157931
753.497	0.0157482
753.575	0.0156950
753.654	0.0156527
753.732	0.0154501
753.810	0.0155305
753.888	0.0153735
753.966	0.0154554
754.044	0.0153531
754.122	0.0153267
754.200	0.0153178
754.279	0.0153922
754.357	0.0154427
754.435	0.0154353
754.513	0.0154961
754.591	0.0156702
754.669	0.0159658
754.747	0.0159150
754.825	0.0161407
754.904	0.0161754
754.982	0.0163602
755.060	0.0165560
755.138	0.0165514
755.216	0.0166305
755.294	0.0166805
755.372	0.0166742
755.450	0.0168478
755.529	0.0166407
755.607	0.0165076
755.685	0.0164728
755.763	0.0163911
755.841	0.0162709
755.919	0.0161752
755.997	0.0159918
756.075	0.0160292
756.154	0.0157309
756.232	0.0157386
756.310	0.0155295
756.388	0.0155069
756.466	0.0155399
756.544	0.0155081
756.622	0.0154774
756.700	0.0155195
756.779	0.0157288
756.857	0.0157289
756.935	0.0160797
757.013	0.0160825
757.091	0.0163399
757.169	0.0163761
757.247	0.0165983
757.325	0.0167478
757.404	0.0167314
757.482	0.0168419
757.560	0.0167105
757.638	0.0164778
757.716	0.0165856
757.794	0.0165788
757.872	0.0165189
757.950	0.0163710
758.029	0.0162701
758.107	0.0162328
758.185	0.0161204
758.263	0.0159767
758.341	0.0158686
758.419	0.0157932
758.497	0.0157398
758.575	0.0157330
758.654	0.0157394
758.732	0.0157939
758.810	0.0157455
758.888	0.0156532
758.966	0.0157108
759.044	0.0157563
759.122	0.0158401
759.200	0.0159592
759.279	0.0159556
759.357	0.0160059
759.435	0.0160098
759.513	0.0160829
759.591	0.0163469
759.669	0.0163445
759.747	0.0165036
759.825	0.0165678
759.904	0.0166352
759.982	0.0167880
760.060	0.0169049
760.138	0.0168898
760.216	0.0169407
760.294	0.0168987
760.372	0.0169141
760.450	0.0169028
760.529	0.0168711
760.607	0.0168169
760.685	0.0166335
760.763	0.0165576
760.841	0.0165766
760.919	0.0163491
760.997	0.0161775
761.075	0.0160690
761.154	0.0158834
761.232	0.0159235
761.310	0.0157740
761.388	0.0156724
761.466	0.0156335
761.544	0.0156419
761.622	0.0156900
761.700	0.0156446
761.779	0.0156453
761.857	0.0158425
761.935	0.0159581
762.013	0.0160822
762.091	0.0161693
762.169	0.0163070
762.247	0.0164047
762.325	0.0164089
762.404	0.0164191
762.482	0.0164909
762.560	0.0166001
762.638	0.0165497
762.716	0.0164247
762.794	0.0163734
762.872	0.0165699
762.950	0.0163943
763.029	0.0161819
763.107	0.0162133
763.185	0.0161649
763.263	0.0160719
763.341	0.0161363
763.419	0.0159271
763.497	0.0159679
763.575	0.0158440
763.654	0.0157141
763.732	0.0157146
763.810	0.0156721
763.888	0.0156980
763.966	0.0155512
764.044	0.0153348
764.122	0.0153772
764.200	0.0153973
764.279	0.0154414
764.357	0.0153297
764.435	0.0154213
764.513	0.0155981
764.591	0.0154819
764.669	0.0155671
764.747	0.0157195
764.825	0.0157087
764.904	0.0159399
764.982	0.0158978
765.060	0.0161208
765.138	0.0161931
765.216	0.0164002
765.294	0.0164266
765.372	0.0164584
765.450	0.0166072
765.529	0.0166846
765.607	0.0166989
765.685	0.0167523
765.763	0.0167478
765.841	0.0166943
765.919	0.0165559
765.997	0.0164433
766.075	0.0164343
766.154	0.0163872
766.232	0.0163036
766.310	0.0162407
766.388	0.0161617
766.466	0.0161834
766.544	0.0160394
766.622	0.0160337
766.700	0.0161243
766.779	0.0161806
766.857	0.0160291
766.935	0.0161671
767.013	0.0161654
767.091	0.0161955
767.169	0.0162723
767.247	0.0162266
767.325	0.0162288
767.404	0.0161955
767.482	0.0163042
767.560	0.0162163
767.638	0.0163393
767.716	0.0164540
767.794	0.0164814
767.872	0.0164056
767.950	0.0164785
768.029	0.0164934
768.107	0.0164580
768.185	0.0164054
768.263	0.0163939
768.341	0.0162550
768.419	0.0162729
768.497	0.0163029
768.575	0.0160049
768.654	0.0160321
768.732	0.0159425
768.810	0.0158186
768.888	0.0158016
768.966	0.0156699
769.044	0.0156479
769.122	0.0157037
769.200	0.0154754
769.279	0.0155780
769.357	0.0155680
769.435	0.0155685
769.513	0.0156858
769.591	0.0159222
769.669	0.0159315
769.747	0.0158571
769.825	0.0160070
769.904	0.0161476
769.982	0.0161765
770.060	0.0161856
770.138	0.0163606
770.216	0.0164470
770.294	0.0163457
770.372	0.0165097
770.450	0.0164181
770.529	0.0164281
770.607	0.0164418
770.685	0.0164246
770.763	0.0164954
770.841	0.0163889
770.919	0.0161923
770.997	0.0161292
771.075	0.0160872
771.154	0.0161324
771.232	0.0159608
771.310	0.0159747
771.388	0.0159792
771.466	0.0158216
771.544	0.0158035
771.622	0.0157925
771.700	0.0156780
771.779	0.0157703
771.857	0.0156735
771.935	0.0157670
772.013	0.0157956
772.091	0.0157128
772.169	0.0157790
772.247	0.0158141
772.325	0.0159184
772.404	0.0158495
772.482	0.0159364
772.560	0.0158243
772.638	0.0159232
772.716	0.0159806
772.794	0.0160320
772.872	0.0159211
772.950	0.0159818
773.029	0.0161901
773.107	0.0160202
773.185	0.0159380
773.263	0.0161526
773.341	0.0163485
773.419	0.0161472
773.497	0.0161054
773.575	0.0161731
773.654	0.0159905
773.732	0.0160488
773.810	0.0160789
773.888	0.0160576
773.966	0.0158851
774.044	0.0158630
774.122	0.0158797
774.200	0.0160104
774.279	0.0160408
774.357	0.0159610
774.435	0.0160092
774.513	0.0161311
774.591	0.0160708
774.669	0.0161277
774.747	0.0162952
774.825	0.0163985
774.904	0.0163434
774.982	0.0165837
775.060	0.0165994
775.138	0.0166369
775.216	0.0165685
775.294	0.0166544
775.372	0.0166444
775.450	0.0165902
775.529	0.0166759
775.607	0.0164868
775.685	0.0166360
775.763	0.0166791
775.841	0.0165869
775.919	0.0163258
775.997	0.0162611
776.075	0.0164290
776.154	0.0162868
776.232	0.0163472
776.310	0.0162397
776.388	0.0161269
776.466	0.0161174
776.544	0.0160632
776.622	0.0160815
776.700	0.0159169
776.779	0.0160355
776.857	0.0159467
776.935	0.0158556
777.013	0.0158552
777.091	0.0157478
777.169	0.0157529
777.247	0.0158735
777.325	0.0156030
777.404	0.0158004
777.482	0.0156094
777.560	0.0157310
777.638	0.0158072
777.716	0.0157986
777.794	0.0158050
777.872	0.0158849
777.950	0.0158595
778.029	0.0159878
778.107	0.0161301
778.185	0.0162072
778.263	0.0163789
778.341	0.0163292
778.419	0.0164479
778.497	0.0163806
778.575	0.0165592
778.654	0.0163794
778.732	0.0162900
778.810	0.0163290
778.888	0.0161921
778.966	0.0161798
779.044	0.0160845
779.122	0.0160731
779.200	0.0159320
779.279	0.0158183
779.357	0.0158633
779.435	0.0158383
779.513	0.0157767
779.591	0.0156531
779.669	0.0158089
779.747	0.0158215
779.825	0.0156721
779.904	0.0156640
779.982	0.0157761
780.060	0.0158665
780.138	0.0159061
780.216	0.0159688
780.294	0.0158702
780.372	0.0157156
780.450	0.0160611
780.529	0.0159190
780.607	0.0161150
780.685	0.0161060
780.763	0.0162095
780.841	0.0161729
780.919	0.0163123
780.997	0.0162708
781.075	0.0163070
781.154	0.0163724
781.232	0.0164645
781.310	0.0161571
781.388	0.0164048
781.466	0.0162549
781.544	0.0162237
781.622	0.0162888
781.700	0.0163157
781.779	0.0161895
781.857	0.0160400
781.935	0.0160883
782.013	0.0162244
782.091	0.0160513
782.169	0.0161440
782.247	0.0160599
782.325	0.0160087
782.404	0.0161113
782.482	0.0160989
782.560	0.0162029
782.638	0.0162910
782.716	0.0161906
782.794	0.0162815
782.872	0.0163704
782.950	0.0163905
783.029	0.0162842
783.107	0.0164088
783.185	0.0164053
783.263	0.0164164
783.341	0.0162440
783.419	0.0163554
783.497	0.0162444
783.575	0.0163999
783.654	0.0162944
783.732	0.0163132
783.810	0.0162881
783.888	0.0164027
783.966	0.0162579
784.044	0.0162939
784.122	0.0161535
784.200	0.0161859
784.279	0.0161341
784.357	0.0161124
784.435	0.0160040
784.513	0.0159164
784.591	0.0159960
784.669	0.0158844
784.747	0.0159937
784.825	0.0158488
784.904	0.0157700
784.982	0.0160236
785.060	0.0159879
785.138	0.0161111
785.216	0.0159966
785.294	0.0160165
785.372	0.0161362
785.450	0.0160866
785.529	0.0161980
785.607	0.0161638
785.685	0.0161108
785.763	0.0162469
785.841	0.0162175
785.919	0.0160881
785.997	0.0161548
786.075	0.0160770
786.154	0.0159993
786.232	0.0161165
786.310	0.0161518
786.388	0.0160560
786.466	0.0159751
786.544	0.0159258
786.622	0.0161281
786.700	0.0159914
786.779	0.0159664
786.857	0.0161143
786.935	0.0162312
787.013	0.0162164
787.091	0.0162671
787.169	0.0162572
787.247	0.0161611
787.325	0.0161181
787.404	0.0161489
787.482	0.0161630
787.560	0.0160985
787.638	0.0162342
787.716	0.0160309
787.794	0.0161442
787.872	0.0160380
787.950	0.0159638
788.029	0.0159643
788.107	0.0160406
788.185	0.0158718
788.263	0.0159629
788.341	0.0159213
788.419	0.0158784
788.497	0.0158286
788.575	0.0159099
788.654	0.0157984
788.732	0.0159448
788.810	0.0159106
788.888	0.0159691
788.966	0.0160175
789.044	0.0160229
789.122	0.0161102
789.200	0.0161364
789.279	0.0160774
789.357	0.0162249
789.435	0.0163937
789.513	0.0164162
789.591	0.0163714
789.669	0.0164095
789.747	0.0165062
789.825	0.0163928
789.904	0.0164539
789.982	0.0164597
790.060	0.0165175
790.138	0.0163849
790.216	0.0166113
790.294	0.0164725
790.372	0.0164998
790.450	0.0165425
790.529	0.0165589
790.607	0.0165134
790.685	0.0164961
790.763	0.0165116
790.841	0.0165836
790.919	0.0165179
790.997	0.0164589
791.075	0.0165735
791.154	0.0165891
791.232	0.0165182
791.310	0.0164354
791.388	0.0165137
791.466	0.0163054
791.544	0.0160123
791.622	0.0162016
791.700	0.0160484
791.779	0.0158994
791.857	0.0157880
791.935	0.0157174
792.013	0.0155837
792.091	0.0154242
792.169	0.0155820
792.247	0.0155258
792.325	0.0155981
792.404	0.0155463
792.482	0.0155978
792.560	0.0155007
792.638	0.0156400
792.716	0.0156978
792.794	0.0153824
792.872	0.0155140
792.950	0.0156930
793.029	0.0156438
793.107	0.0157375
793.185	0.0156931
793.263	0.0158780
793.341	0.0158748
793.419	0.0159153
793.497	0.0160289
793.575	0.0162189
793.654	0.0164214
793.732	0.0165577
793.810	0.0167014
793.888	0.0169984
793.966	0.0169865
794.044	0.0170442
794.122	0.0171282
794.200	0.0172504
794.279	0.0171644
794.357	0.0173351
794.435	0.0171819
794.513	0.0171482
794.591	0.0171251
794.669	0.0170026
794.747	0.0169341
794.825	0.0167863
794.904	0.0166045
794.982	0.0163433
795.060	0.0162268
795.138	0.0159075
795.216	0.0158271
795.294	0.0156118
795.372	0.0155559
795.450	0.0156604
795.529	0.0153914
795.607	0.0153080
795.685	0.0153612
795.763	0.0152917
795.841	0.0152737
795.919	0.0152696
795.997	0.0152214
796.075	0.0152459
796.154	0.0152682
796.232	0.0152686
796.310	0.0152208
796.388	0.0152206
796.466	0.0151822
796.544	0.0150918
796.622	0.0150256
796.700	0.0152908
796.779	0.0153567
796.857	0.0153024
796.935	0.0152769
797.013	0.0156075
797.091	0.0156931
797.169	0.0157101
797.247	0.0157676
797.325	0.0159524
797.404	0.0162137
797.482	0.0163503
797.560	0.0165004
797.638	0.0165700
797.716	0.0167739
797.794	0.0168732
797.872	0.0169622
797.950	0.0170137
798.029	0.0172145
798.107	0.0174015
798.185	0.0175312
798.263	0.0173279
798.341	0.0175107
798.419	0.0176337
798.497	0.0175833
798.575	0.0176662
798.654	0.0177285
798.732	0.0176051
798.810	0.0174352
798.888	0.0173390
798.966	0.0172832
799.044	0.0171353
799.122	0.0168142
799.200	0.0166576
799.279	0.0165543
799.357	0.0162914
799.435	0.0159455
799.513	0.0155958
799.591	0.0153755
799.669	0.0153323
799.747	0.0151877
799.825	0.0150124
799.904	0.0148370
799.982	0.0148802
800.060	0.0146588
800.138	0.0148813
800.216	0.0146612
800.294	0.0147178
800.372	0.0147074
800.450	0.0146848
800.529	0.0148391
800.607	0.0149032
800.685	0.0148626
800.763	0.0149303
800.841	0.0151170
800.919	0.0152978
800.997	0.0153008
801.075	0.0153808
801.154	0.0155393
801.232	0.0157043
801.310	0.0157358
801.388	0.0158048
801.466	0.0160076
801.544	0.0160631
801.622	0.0159856
801.700	0.0160332
801.779	0.0161173
801.857	0.0161191
801.935	0.0162196
802.013	0.0163858
802.091	0.0164800
802.169	0.0165912
802.247	0.0165486
802.325	0.0166959
802.404	0.0169085
802.482	0.0172089
802.560	0.0173373
802.638	0.0173854
802.716	0.0176722
802.794	0.0177542
802.872	0.0178712
802.950	0.0179205
803.029	0.0179739
803.107	0.0181021
803.185	0.0178822
803.263	0.0178945
803.341	0.0177629
803.419	0.0177461
803.497	0.0175729
803.575	0.0174438
803.654	0.0173341
803.732	0.0171218
803.810	0.0167561
803.888	0.0166178
803.966	0.0163692
804.044	0.0161478
804.122	0.0159197
804.200	0.0155721
804.279	0.0153696
804.357	0.0151579
804.435	0.0148803
804.513	0.0146798
804.591	0.0145126
804.669	0.0143679
804.747	0.0142203
804.825	0.0142388
804.904	0.0142774
804.982	0.0141357
805.060	0.0141591
805.138	0.0140858
805.216	0.0143150
805.294	0.0143752
805.372	0.0145343
805.450	0.0146790
805.529	0.0146223
805.607	0.0148705
805.685	0.0150754
805.763	0.0151770
805.841	0.0153479
805.919	0.0154914
805.997	0.0157418
806.075	0.0157791
806.154	0.0159981
806.232	0.0162775
806.310	0.0164020
806.388	0.0165157
806.466	0.0167097
806.544	0.0166861
806.622	0.0168904
806.700	0.0170415
806.779	0.0170548
806.857	0.0170995
806.935	0.0171658
807.013	0.0171559
807.091	0.0173688
807.169	0.0173225
807.247	0.0174522
807.325	0.0175021
807.404	0.0175111
807.482	0.0175383
807.560	0.0174197
807.638	0.0173083
807.716	0.0174027
807.794	0.0172296
807.872	0.0172966
807.950	0.0172707
808.029	0.0171981
808.107	0.0170661
808.185	0.0170921
808.263	0.0167987
808.341	0.0167257
808.419	0.0166349
808.497	0.0164332
808.575	0.0164405
808.654	0.0164048
808.732	0.0163618
808.810	0.0162742
808.888	0.0159918
808.966	0.0159224
809.044	0.0158704
809.122	0.0157982
809.200	0.0157887
809.279	0.0155511
809.357	0.0155283
809.435	0.0153818
809.513	0.0154323
809.591	0.0151981
809.669	0.0151885
809.747	0.0151243
809.825	0.0152549
809.904	0.0152341
809.982	0.0153026
810.060	0.0154252
810.138	0.0154647
810.216	0.0154439
810.294	0.0155757
810.372	0.0155846
810.450	0.0154861
810.529	0.0155222
810.607	0.0158039
810.685	0.0157418
810.763	0.0155248
810.841	0.0157617
810.919	0.0157126
810.997	0.0156734
811.075	0.0156481
811.154	0.0156151
811.232	0.0156840
811.310	0.0157478
811.388	0.0159587
811.466	0.0160448
811.544	0.0161954
811.622	0.0161860
811.700	0.0160955
811.779	0.0161941
811.857	0.0163306
811.935	0.0164452
812.013	0.0163123
812.091	0.0165872
812.169	0.0164478
812.247	0.0164058
812.325	0.0163744
812.404	0.0164178
812.482	0.0165308
812.560	0.0164631
812.638	0.0163972
812.716	0.0164949
812.794	0.0165795
812.872	0.0166039
812.950	0.0166032
813.029	0.0166743
813.107	0.0167126
813.185	0.0166793
813.263	0.0167555
813.341	0.0167275
813.419	0.0167710
813.497	0.0167420
813.575	0.0167419
813.654	0.0166766
813.732	0.0168356
813.810	0.0167657
813.888	0.0167652
813.966	0.0167810
814.044	0.0166273
814.122	0.0166403
814.200	0.0166074
814.279	0.0165340
814.357	0.0163664
814.435	0.0163750
814.513	0.0164079
814.591	0.0162663
814.669	0.0161413
814.747	0.0161359
814.825	0.0160301
814.904	0.0160908
814.982	0.0159255
815.060	0.0159417
815.138	0.0157961
815.216	0.0157740
815.294	0.0157984
815.372	0.0156665
815.450	0.0155191
815.529	0.0155526
815.607	0.0155171
815.685	0.0155531
815.763	0.0154922
815.841	0.0154626
815.919	0.0154233
815.997	0.0155608
816.075	0.0155369
816.154	0.0156368
816.232	0.0157124
816.310	0.0157036
816.388	0.0157860
816.466	0.0158600
816.544	0.0158330
816.622	0.0158302
816.700	0.0160109
816.779	0.0160022
816.857	0.0158773
816.935	0.0159206
817.013	0.0160049
817.091	0.0159928
817.169	0.0159753
817.247	0.0158952
817.325	0.0158627
817.404	0.0159228
817.482	0.0159670
817.560	0.0158710
817.638	0.0157809
817.716	0.0159035
817.794	0.0159415
817.872	0.0159675
817.950	0.0160445
818.029	0.0159022
818.107	0.0159943
818.185	0.0161060
818.263	0.0162657
818.341	0.0162936
818.419	0.0164575
818.497	0.0164246
818.575	0.0167518
818.654	0.0167859
818.732	0.0168611
818.810	0.0168353
818.888	0.0170091
818.966	0.0169860
819.044	0.0170194
819.122	0.0169723
819.200	0.0169838
819.279	0.0170236
819.357	0.0170038
819.435	0.0169835
819.513	0.0168782
819.591	0.0168233
819.669	0.0164825
819.747	0.0165218
819.825	0.0165175
819.904	0.0163041
819.982	0.0161293
820.060	0.0161926
820.138	0.0160905
820.216	0.0160223
820.294	0.0160971
820.372	0.0160448
820.450	0.0160271
820.529	0.0160205
820.607	0.0159319
820.685	0.0159716
820.763	0.0159361
820.841	0.0158495
820.919	0.0159114
820.997	0.0159562
821.075	0.0157854
821.154	0.0157471
821.232	0.0158321
821.310	0.0157370
821.388	0.0156402
821.466	0.0156610
821.544	0.0157001
821.622	0.0155016
821.700	0.0156089
821.779	0.0156807
821.857	0.0155965
821.935	0.0155582
822.013	0.0155825
822.091	0.0157930
822.169	0.0157063
822.247	0.0154935
822.325	0.0156537
822.404	0.0156706
822.482	0.0155498
822.560	0.0157662
822.638	0.0157590
822.716	0.0158327
822.794	0.0157469
822.872	0.0157032
822.950	0.0157509
823.029	0.0157233
823.107	0.0157628
823.185	0.0159135
823.263	0.0159798
823.341	0.0159939
823.419	0.0160516
823.497	0.0161211
823.575	0.0161707
823.654	0.0161602
823.732	0.0162271
823.810	0.0162531
823.888	0.0162834
823.966	0.0163680
824.044	0.0164106
824.122	0.0165089
824.200	0.0166222
824.279	0.0166228
824.357	0.0166538
824.435	0.0167221
824.513	0.0168528
824.591	0.0166988
824.669	0.0165640
824.747	0.0165047
824.825	0.0167326
824.904	0.0165884
824.982	0.0166231
825.060	0.0165964
825.138	0.0166221
825.216	0.0165245
825.294	0.0164977
825.372	0.0165197
825.450	0.0165895
825.529	0.0164905
825.607	0.0164545
825.685	0.0163392
825.763	0.0163258
825.841	0.0161510
825.919	0.0160844
825.997	0.0163165
826.075	0.0161423
826.154	0.0160711
826.232	0.0160340
826.310	0.0160089
826.388	0.0160827
826.466	0.0160432
826.544	0.0160548
826.622	0.0158957
826.700	0.0160950
826.779	0.0161275
826.857	0.0159330
826.935	0.0160512
827.013	0.0160928
827.091	0.0161476
827.169	0.0161232
827.247	0.0161736
827.325	0.0159460
827.404	0.0160325
827.482	0.0158572
827.560	0.0159306
827.638	0.0158501
827.716	0.0156565
827.794	0.0157801
827.872	0.0158930
827.950	0.0157150
828.029	0.0158042
828.107	0.0158352
828.185	0.0156735
828.263	0.0156837
828.341	0.0158115
828.419	0.0158408
828.497	0.0156282
828.575	0.0157343
828.654	0.0157729
828.732	0.0158197
828.810	0.0159424
828.888	0.0158054
828.966	0.0157687
829.044	0.0158929
829.122	0.0160395
829.200	0.0161252
829.279	0.0160242
829.357	0.0161530
829.435	0.0163046
829.513	0.0162309
829.591	0.0163194
829.669	0.0164264
829.747	0.0164114
829.825	0.0163103
829.904	0.0163642
829.982	0.0163618
830.060	0.0163560
830.138	0.0161784
830.216	0.0162967
830.294	0.0162554
830.372	0.0160722
830.450	0.0164227
830.529	0.0163683
830.607	0.0163715
830.685	0.0160924
830.763	0.0161111
830.841	0.0162148
830.919	0.0162731
830.997	0.0164591
831.075	0.0166001
831.154	0.0163512
831.232	0.0163187
831.310	0.0162950
831.388	0.0164440
831.466	0.0164359
831.544	0.0164395
831.622	0.0164765
831.700	0.0165189
831.779	0.0163715
831.857	0.0162675
831.935	0.0163385
832.013	0.0162550
832.091	0.0161869
832.169	0.0161571
832.247	0.0161488
832.325	0.0163128
832.404	0.0162303
832.482	0.0160359
832.560	0.0161383
832.638	0.0162411
832.716	0.0160520
832.794	0.0159770
832.872	0.0159892
832.950	0.0158990
833.029	0.0160659
833.107	0.0160590
833.185	0.0160233
833.263	0.0159802
833.341	0.0159383
833.419	0.0159190
833.497	0.0158437
833.575	0.0159346
833.654	0.0160168
833.732	0.0158925
833.810	0.0159277
833.888	0.0160074
833.966	0.0159343
834.044	0.0159110
834.122	0.0161109
834.200	0.0160879
834.279	0.0160091
834.357	0.0161716
834.435	0.0163028
834.513	0.0164613
834.591	0.0162576
834.669	0.0163201
834.747	0.0164472
834.825	0.0164300
834.904	0.0164505
834.982	0.0164214
835.060	0.0165338
835.138	0.0163536
835.216	0.0164727
835.294	0.0166268
835.372	0.0162888
835.450	0.0163366
835.529	0.0162018
835.607	0.0163037
835.685	0.0161575
835.763	0.0161809
835.841	0.0161095
835.919	0.0161241
835.997	0.0161129
836.075	0.0158164
836.154	0.0161434
836.232	0.0160571
836.310	0.0159856
836.388	0.0160271
836.466	0.0159974
836.544	0.0159262
836.622	0.0159446
836.700	0.0159033
836.779	0.0160573
836.857	0.0160464
836.935	0.0160242
837.013	0.0160490
837.091	0.0161442
837.169	0.0160974
837.247	0.0161378
837.325	0.0160637
837.404	0.0159575
837.482	0.0161223
837.560	0.0162440
837.638	0.0161612
837.716	0.0162239
837.794	0.0160334
837.872	0.0159656
837.950	0.0160771
838.029	0.0162283
838.107	0.0162144
838.185	0.0162754
838.263	0.0161076
838.341	0.0161774
838.419	0.0160426
838.497	0.0162453
838.575	0.0161437
838.654	0.0161106
838.732	0.0161207
838.810	0.0161430
838.888	0.0161317
838.966	0.0161378
839.044	0.0161797
839.122	0.0162148
839.200	0.0160371
839.279	0.0162240
839.357	0.0161301
839.435	0.0162965
839.513	0.0162652
839.591	0.0162564
839.669	0.0162093
839.747	0.0163300
839.825	0.0165023
839.904	0.0164938
839.982	0.0164999
840.060	0.0164892
840.138	0.0164236
840.216	0.0165258
840.294	0.0164249
840.372	0.0164693
840.450	0.0164370
840.529	0.0163720
840.607	0.0163170
840.685	0.0162529
840.763	0.0161597
840.841	0.0162303
840.919	0.0160488
840.997	0.0159023
841.075	0.0159756
841.154	0.0160850
841.232	0.0158350
841.310	0.0158680
841.388	0.0157845
841.466	0.0156705
841.544	0.0155821
841.622	0.0157476
841.700	0.0157806
841.779	0.0156817
841.857	0.0157088
841.935	0.0158504
842.013	0.0159128
842.091	0.0159125
842.169	0.0159933
842.247	0.0160081
842.325	0.0160552
842.404	0.0160121
842.482	0.0160242
842.560	0.0160759
842.638	0.0161004
842.716	0.0161947
842.794	0.0162196
842.872	0.0161555
842.950	0.0162301
843.029	0.0163358
843.107	0.0162595
843.185	0.0163521
843.263	0.0162511
843.341	0.0161351
843.419	0.0164625
843.497	0.0164114
843.575	0.0162263
843.654	0.0162462
843.732	0.0162457
843.810	0.0161741
843.888	0.0161189
843.966	0.0162444
844.044	0.0162775
844.122	0.0161922
844.200	0.0162337
844.279	0.0160749
844.357	0.0162342
844.435	0.0163242
844.513	0.0161806
844.591	0.0163077
844.669	0.0162380
844.747	0.0160879
844.825	0.0163535
844.904	0.0162650
844.982	0.0162242
845.060	0.0161220
845.138	0.0161483
845.216	0.0160295
845.294	0.0161560
845.372	0.0160205
845.450	0.0159487
845.529	0.0160023
845.607	0.0159951
845.685	0.0160540
845.763	0.0159805
845.841	0.0159997
845.919	0.0159294
845.997	0.0157294
846.075	0.0158611
846.154	0.0158587
846.232	0.0157901
846.310	0.0158587
846.388	0.0157938
846.466	0.0157252
846.544	0.0157227
846.622	0.0158437
846.700	0.0157346
846.779	0.0157733
846.857	0.0159344
846.935	0.0159976
847.013	0.0159299
847.091	0.0159636
847.169	0.0160941
847.247	0.0160155
847.325	0.0161523
847.404	0.0162873
847.482	0.0161563
847.560	0.0164336
847.638	0.0164722
847.716	0.0163911
847.794	0.0164766
847.872	0.0167245
847.950	0.0165032
848.029	0.0165615
848.107	0.0164876
848.185	0.0165909
848.263	0.0166798
848.341	0.0164597
848.419	0.0164377
848.497	0.0165773
848.575	0.0165244
848.654	0.0163657
848.732	0.0163065
848.810	0.0164901
848.888	0.0162963
848.966	0.0164532
849.044	0.0162302
849.122	0.0162891
849.200	0.0162038
849.279	0.0161211
849.357	0.0161050
849.435	0.0161952
849.513	0.0159799
849.591	0.0161041
849.669	0.0160699
849.747	0.0159362
849.825	0.0159906
849.904	0.0158445
849.982	0.0158902
850.060	0.0158640
850.138	0.0158306
850.216	0.0157642
850.294	0.0157269
850.372	0.0156243
850.450	0.0156937
850.529	0.0157516
850.607	0.0158862
850.685	0.0157466
850.763	0.0157553
850.841	0.0157462
850.919	0.0158173
850.997	0.0158205
851.075	0.0158520
851.154	0.0160047
851.232	0.0158778
851.310	0.0160063
851.388	0.0160497
851.466	0.0160007
851.544	0.0161761
851.622	0.0161028
851.700	0.0161349
851.779	0.0161223
851.857	0.0162100
851.935	0.0160883
852.013	0.0162731
852.091	0.0162254
852.169	0.0163747
852.247	0.0161757
852.325	0.0163190
852.404	0.0163568
852.482	0.0162510
852.560	0.0165413
852.638	0.0163438
852.716	0.0163605
852.794	0.0163528
852.872	0.0163857
852.950	0.0165654
853.029	0.0162807
853.107	0.0162948
853.185	0.0163785
853.263	0.0164586
853.341	0.0162991
853.419	0.0164123
853.497	0.0162598
853.575	0.0162068
853.654	0.0161182
853.732	0.0162280
853.810	0.0160796
853.888	0.0159651
853.966	0.0160634
854.044	0.0160746
854.122	0.0161681
854.200	0.0160344
854.279	0.0159580
854.357	0.0157691
854.435	0.0159300
854.513	0.0158790
854.591	0.0158267
854.669	0.0159528
854.747	0.0160435
854.825	0.0157479
854.904	0.0158365
854.982	0.0157971
855.060	0.0157882
855.138	0.0157849
855.216	0.0157909
855.294	0.0159687
855.372	0.0158592
855.450	0.0157433
855.529	0.0157866
855.607	0.0157920
855.685	0.0158289
855.763	0.0157951
855.841	0.0157344
855.919	0.0159139
855.997	0.0158387
856.075	0.0158466
856.154	0.0158499
856.232	0.0159379
856.310	0.0160141
856.388	0.0161465
856.466	0.0161704
856.544	0.0162203
856.622	0.0163107
856.700	0.0164012
856.779	0.0165177
856.857	0.0163493
856.935	0.0164621
857.013	0.0165339
857.091	0.0165289
857.169	0.0164767
857.247	0.0165009
857.325	0.0164289
857.404	0.0165149
857.482	0.0163551
857.560	0.0163502
857.638	0.0164079
857.716	0.0163264
857.794	0.0163989
857.872	0.0162799
857.950	0.0163141
858.029	0.0163004
858.107	0.0163162
858.185	0.0164431
858.263	0.0162743
858.341	0.0161620
858.419	0.0163486
858.497	0.0163366
858.575	0.0162830
858.654	0.0161969
858.732	0.0163050
858.810	0.0163042
858.888	0.0162826
858.966	0.0161427
859.044	0.0160894
859.122	0.0162151
859.200	0.0160883
859.279	0.0159042
859.357	0.0159381
859.435	0.0158912
859.513	0.0158142
859.591	0.0159595
859.669	0.0158921
859.747	0.0157581
859.825	0.0157799
859.904	0.0157889
859.982	0.0157700
860.060	0.0157365
860.138	0.0157786
860.216	0.0156875
860.294	0.0157915
860.372	0.0158184
860.450	0.0158580
860.529	0.0159205
860.607	0.0158223
860.685	0.0156946
860.763	0.0158508
860.841	0.0159885
860.919	0.0159591
860.997	0.0159771
861.075	0.0162111
861.154	0.0161286
861.232	0.0159379
861.310	0.0162657
861.388	0.0163815
861.466	0.0163461
861.544	0.0162556
861.622	0.0161868
861.700	0.0161858
861.779	0.0162565
861.857	0.0162465
861.935	0.0163151
862.013	0.0163267
862.091	0.0163742
862.169	0.0162035
862.247	0.0162331
862.325	0.0161610
862.404	0.0160939
862.482	0.0162325
862.560	0.0162290
862.638	0.0162106
862.716	0.0162847
862.794	0.0161457
862.872	0.0162383
862.950	0.0160535
863.029	0.0160520
863.107	0.0161385
863.185	0.0161305
863.263	0.0162493
863.341	0.0161140
863.419	0.0160603
863.497	0.0159803
863.575	0.0161593
863.654	0.0161294
863.732	0.0160296
863.810	0.0160824
863.888	0.0163789
863.966	0.0162819
864.044	0.0162219
864.122	0.0160849
864.200	0.0160706
864.279	0.0161732
864.357	0.0161359
864.435	0.0162690
864.513	0.0161769
864.591	0.0161374
864.669	0.0161102
864.747	0.0160905
864.825	0.0161903
864.904	0.0161742
864.982	0.0161898
865.060	0.0161364
865.138	0.0160898
865.216	0.0161129
865.294	0.0160070
865.372	0.0161580
865.450	0.0160040
865.529	0.0159512
865.607	0.0159065
865.685	0.0160342
865.763	0.0158835
865.841	0.0161264
865.919	0.0161988
865.997	0.0161461
866.075	0.0160448
866.154	0.0162203
866.232	0.0161280
866.310	0.0161336
866.388	0.0160191
866.466	0.0159635
866.544	0.0159843
866.622	0.0159263
866.700	0.0160355
866.779	0.0159110
866.857	0.0159008
866.935	0.0160855
867.013	0.0159481
867.091	0.0159226
867.169	0.0158965
867.247	0.0160335
867.325	0.0159841
867.404	0.0162154
867.482	0.0161602
867.560	0.0160588
867.638	0.0161285
867.716	0.0161494
867.794	0.0162704
867.872	0.0162264
867.950	0.0161256
868.029	0.0162952
868.107	0.0162300
868.185	0.0162050
868.263	0.0162564
868.341	0.0161729
868.419	0.0163078
868.497	0.0160905
868.575	0.0160854
868.654	0.0161067
868.732	0.0162161
868.810	0.0161240
868.888	0.0160313
868.966	0.0160976
869.044	0.0161179
869.122	0.0161267
869.200	0.0160609
869.279	0.0160205
869.357	0.0160564
869.435	0.0161118
869.513	0.0162687
869.591	0.0161197
869.669	0.0162025
869.747	0.0162325
869.825	0.0160852
869.904	0.0160337
869.982	0.0160542
870.060	0.0163127
870.138	0.0162805
870.216	0.0161663
870.294	0.0160612
870.372	0.0159422
870.450	0.0161236
870.529	0.0160851
870.607	0.0159888
870.685	0.0160785
870.763	0.0160348
870.841	0.0159042
870.919	0.0157754
870.997	0.0159063
871.075	0.0158236
871.154	0.0158869
871.232	0.0158022
871.310	0.0158561
871.388	0.0158537
871.466	0.0158914
871.544	0.0157352
871.622	0.0160056
871.700	0.0159959
871.779	0.0161163
871.857	0.0161255
871.935	0.0161275
872.013	0.0163152
872.091	0.0162357
872.169	0.0162739
872.247	0.0164742
872.325	0.0165190
872.404	0.0165173
872.482	0.0165154
872.560	0.0166768
872.638	0.0165653
872.716	0.0165108
872.794	0.0166505
872.872	0.0167149
872.950	0.0166216
873.029	0.0166569
873.107	0.0165435
873.185	0.0164284
873.263	0.0164122
873.341	0.0161916
873.419	0.0162878
873.497	0.0163622
873.575	0.0161662
873.654	0.0161281
873.732	0.0159389
873.810	0.0160080
873.888	0.0160655
873.966	0.0159921
874.044	0.0159550
874.122	0.0161990
874.200	0.0158985
874.279	0.0159471
874.357	0.0158364
874.435	0.0156669
874.513	0.0157014
874.591	0.0157613
874.669	0.0156357
874.747	0.0158599
874.825	0.0158373
874.904	0.0157275
874.982	0.0157931
875.060	0.0156760
875.138	0.0158426
875.216	0.0157942
875.294	0.0157781
875.372	0.0159212
875.450	0.0158604
875.529	0.0157178
875.607	0.0157151
875.685	0.0158308
875.763	0.0157899
875.841	0.0156768
875.919	0.0155631
875.997	0.0156431
876.075	0.0157316
876.154	0.0158027
876.232	0.0157781
876.310	0.0157203
876.388	0.0159879
876.466	0.0159943
876.544	0.0159749
876.622	0.0160479
876.700	0.0162210
876.779	0.0163562
876.857	0.0163172
876.935	0.0164173
877.013	0.0164472
877.091	0.0165047
877.169	0.0165923
877.247	0.0166701
877.325	0.0165990
877.404	0.0165752
877.482	0.0166408
877.560	0.0166470
877.638	0.0165587
877.716	0.0165757
877.794	0.0165063
877.872	0.0163930
877.950	0.0163622
878.029	0.0164821
878.107	0.0161967
878.185	0.0162422
878.263	0.0160802
878.341	0.0161438
878.419	0.0159830
878.497	0.0159850
878.575	0.0160767
878.654	0.0160427
878.732	0.0158504
878.810	0.0160741
878.888	0.0158054
878.966	0.0159776
879.044	0.0159983
879.122	0.0161135
879.200	0.0160698
879.279	0.0160364
879.357	0.0159859
879.435	0.0161765
879.513	0.0160378
879.591	0.0160821
879.669	0.0161942
879.747	0.0161388
879.825	0.0161607
879.904	0.0161859
879.982	0.0161008
880.060	0.0161948
880.138	0.0159458
880.216	0.0160363
880.294	0.0160208
880.372	0.0158417
880.450	0.0159205
880.529	0.0159423
880.607	0.0158603
880.685	0.0158031
880.763	0.0157328
880.841	0.0158685
880.919	0.0157474
880.997	0.0157468
881.075	0.0157903
881.154	0.0156915
881.232	0.0158035
881.310	0.0159095
881.388	0.0158983
881.466	0.0160557
881.544	0.0161018
881.622	0.0160600
881.700	0.0162675
881.779	0.0164373
881.857	0.0162103
881.935	0.0163044
882.013	0.0165050
882.091	0.0163914
882.169	0.0162252
882.247	0.0163326
882.325	0.0163460
882.404	0.0164143
882.482	0.0164336
882.560	0.0163390
882.638	0.0163644
882.716	0.0164103
882.794	0.0163338
882.872	0.0162816
882.950	0.0163110
883.029	0.0162578
883.107	0.0162981
883.185	0.0162104
883.263	0.0161405
883.341	0.0161588
883.419	0.0162140
883.497	0.0160438
883.575	0.0161447
883.654	0.0159014
883.732	0.0159623
883.810	0.0160769
883.888	0.0161577
883.966	0.0160905
884.044	0.0159830
884.122	0.0161523
884.200	0.0160529
884.279	0.0161748
884.357	0.0161668
884.435	0.0161441
884.513	0.0161971
884.591	0.0159898
884.669	0.0162562
884.747	0.0161222
884.825	0.0161831
884.904	0.0162179
884.982	0.0163297
885.060	0.0161566
885.138	0.0161919
885.216	0.0161633
885.294	0.0160858
885.372	0.0162709
885.450	0.0160734
885.529	0.0160719
885.607	0.0161443
885.685	0.0161127
885.763	0.0161285
885.841	0.0161916
885.919	0.0162682
885.997	0.0161594
886.075	0.0161958
886.154	0.0162442
886.232	0.0161654
886.310	0.0160760
886.388	0.0160424
886.466	0.0160691
886.544	0.0159736
886.622	0.0158493
886.700	0.0158938
886.779	0.0155977
886.857	0.0155795
886.935	0.0155743
887.013	0.0155782
887.091	0.0155823
887.169	0.0156421
887.247	0.0155589
887.325	0.0154384
887.404	0.0156750
887.482	0.0157397
887.560	0.0158664
887.638	0.0160469
887.716	0.0160446
887.794	0.0160069
887.872	0.0161626
887.950	0.0162930
888.029	0.0164875
888.107	0.0163183
888.185	0.0163860
888.263	0.0164671
888.341	0.0165095
888.419	0.0164275
888.497	0.0166508
888.575	0.0165257
888.654	0.0166411
888.732	0.0166034
888.810	0.0165046
888.888	0.0167509
888.966	0.0168009
889.044	0.0166457
889.122	0.0167459
889.200	0.0166258
889.279	0.0166948
889.357	0.0165840
889.435	0.0165266
889.513	0.0162507
889.591	0.0163234
889.669	0.0163126
889.747	0.0161150
889.825	0.0161199
889.904	0.0160171
889.982	0.0159623
890.060	0.0158424
890.138	0.0158961
890.216	0.0157923
890.294	0.0157909
890.372	0.0157170
890.450	0.0157177
890.529	0.0156789
890.607	0.0156829
890.685	0.0156886
890.763	0.0157907
890.841	0.0158221
890.919	0.0157124
890.997	0.0159206
891.075	0.0159932
891.154	0.0158829
891.232	0.0159985
891.310	0.0161745
891.388	0.0161177
891.466	0.0160643
891.544	0.0161278
891.622	0.0161562
891.700	0.0159887
891.779	0.0161159
891.857	0.0159130
891.935	0.0160246
892.013	0.0158648
892.091	0.0158828
892.169	0.0158990
892.247	0.0158183
892.325	0.0158758
892.404	0.0158812
892.482	0.0157534
892.560	0.0160529
892.638	0.0160421
892.716	0.0160236
892.794	0.0160783
892.872	0.0161532
892.950	0.0163710
893.029	0.0165449
893.107	0.0165813
893.185	0.0166970
893.263	0.0166389
893.341	0.0168038
893.419	0.0167717
893.497	0.0169098
893.575	0.0169349
893.654	0.0167888
893.732	0.0169357
893.810	0.0168119
893.888	0.0167782
893.966	0.0167185
894.044	0.0165919
894.122	0.0165092
894.200	0.0162824
894.279	0.0161372
894.357	0.0160729
894.435	0.0158244
894.513	0.0156454
894.591	0.0154425
894.669	0.0152119
894.747	0.0152993
894.825	0.0151100
894.904	0.0151618
894.982	0.0151337
895.060	0.0153005
895.138	0.0153282
895.216	0.0155378
895.294	0.0156104
895.372	0.0157641
895.450	0.0160023
895.529	0.0161495
895.607	0.0164189
895.685	0.0165137
895.763	0.0166498
895.841	0.0167632
895.919	0.0167125
895.997	0.0167644
896.075	0.0167508
896.154	0.0167594
896.232	0.0165720
896.310	0.0164531
896.388	0.0163776
896.466	0.0163702
896.544	0.0161592
896.622	0.0160803
896.700	0.0160817
896.779	0.0159399
896.857	0.0158389
896.935	0.0158258
897.013	0.0157533
897.091	0.0156537
897.169	0.0155833
897.247	0.0156444
897.325	0.0156413
897.404	0.0156247
897.482	0.0156943
897.560	0.0157573
897.638	0.0158947
897.716	0.0161002
897.794	0.0162019
897.872	0.0163171
897.950	0.0165951
898.029	0.0165941
898.107	0.0167178
898.185	0.0167519
898.263	0.0169254
898.341	0.0170404
898.419	0.0168547
898.497	0.0169572
898.575	0.0168121
898.654	0.0168016
898.732	0.0165095
898.810	0.0164693
898.888	0.0164266
898.966	0.0162129
899.044	0.0161211
899.122	0.0160810
899.200	0.0157930
899.279	0.0157890
899.357	0.0155517
899.435	0.0154173
899.513	0.0155236
899.591	0.0153529
899.669	0.0152848
899.747	0.0152002
899.825	0.0151590
899.904	0.0151440
899.982	0.0153853
900.060	0.0153767
900.138	0.0153175
900.216	0.0154852
900.294	0.0157558
900.372	0.0158929
900.450	0.0161465
900.529	0.0163278
900.607	0.0163567
900.685	0.0165906
900.763	0.0168805
900.841	0.0169109
900.919	0.0168895
900.997	0.0172304
901.075	0.0170204
901.154	0.0169276
901.232	0.0169887
901.310	0.0168047
901.388	0.0168703
901.466	0.0169057
901.544	0.0166273
901.622	0.0165685
901.700	0.0164661
901.779	0.0162353
901.857	0.0161700
901.935	0.0160121
902.013	0.0158710
902.091	0.0158569
902.169	0.0157116
902.247	0.0155593
902.325	0.0154846
902.404	0.0155849
902.482	0.0153899
902.560	0.0155192
902.638	0.0155038
902.716	0.0157124
902.794	0.0157860
902.872	0.0157914
902.950	0.0158578
903.029	0.0160150
903.107	0.0161794
903.185	0.0161754
903.263	0.0161367
903.341	0.0161561
903.419	0.0160949
903.497	0.0160989
903.575	0.0161569
903.654	0.0161681
903.732	0.0161857
903.810	0.0160561
903.888	0.0161036
903.966	0.0162495
904.044	0.0161855
904.122	0.0161518
904.200	0.0162597
904.279	0.0160464
904.357	0.0160752
904.435	0.0161204
904.513	0.0162426
904.591	0.0159724
904.669	0.0159763
904.747	0.0161287
904.825	0.0162721
904.904	0.0163224
904.982	0.0163189
905.060	0.0162608
905.138	0.0165441
905.216	0.0166931
905.294	0.0166317
905.372	0.0166793
905.450	0.0167764
905.529	0.0167143
905.607	0.0166649
905.685	0.0165862
905.763	0.0166366
905.841	0.0164201
905.919	0.0165624
905.997	0.0164097
906.075	0.0162707
906.154	0.0162029
906.232	0.0160036
906.310	0.0160638
906.388	0.0160184
906.466	0.0159731
906.544	0.0159217
906.622	0.0158673
906.700	0.0158750
906.779	0.0159316
906.857	0.0158135
906.935	0.0158078
907.013	0.0159596
907.091	0.0160134
907.169	0.0159115
907.247	0.0159000
907.325	0.0160535
907.404	0.0160355
907.482	0.0159789
907.560	0.0161517
907.638	0.0160456
907.716	0.0160370
907.794	0.0162056
907.872	0.0161770
907.950	0.0160625
908.029	0.0160854
908.107	0.0160446
908.185	0.0161007
908.263	0.0161294
908.341	0.0160758
908.419	0.0159811
908.497	0.0160133
908.575	0.0158411
908.654	0.0160655
908.732	0.0160152
908.810	0.0158207
908.888	0.0160032
908.966	0.0159011
909.044	0.0160482
909.122	0.0160225
909.200	0.0160119
909.279	0.0160275
909.357	0.0160468
909.435	0.0161734
909.513	0.0160837
909.591	0.0161420
909.669	0.0162618
909.747	0.0163146
909.825	0.0164030
909.904	0.0161964
909.982	0.0163879
910.060	0.0163443
910.138	0.0162726
910.216	0.0164557
910.294	0.0165143
910.372	0.0162888
910.450	0.0163538
910.529	0.0164056
910.607	0.0164100
910.685	0.0163235
910.763	0.0162612
910.841	0.0161233
910.919	0.0163910
910.997	0.0163622
911.075	0.0162880
911.154	0.0162353
911.232	0.0161446
911.310	0.0161080
911.388	0.0161537
911.466	0.0161613
911.544	0.0161877
911.622	0.0163918
911.700	0.0163050
911.779	0.0163066
911.857	0.0160360
911.935	0.0161340
912.013	0.0163207
912.091	0.0161990
912.169	0.0162742
912.247	0.0161655
912.325	0.0164353
912.404	0.0163119
912.482	0.0162144
912.560	0.0160499
912.638	0.0160905
912.716	0.0160390
912.794	0.0159128
912.872	0.0157666
912.950	0.0157472
913.029	0.0156946
913.107	0.0156254
913.185	0.0156658
913.263	0.0156001
913.341	0.0156707
913.419	0.0158015
913.497	0.0158651
913.575	0.0158978
913.654	0.0159959
913.732	0.0159865
913.810	0.0161078
913.888	0.0162071
913.966	0.0161417
914.044	0.0162769
914.122	0.0163967
914.200	0.0162970
914.279	0.0162802
914.357	0.0163957
914.435	0.0164382
914.513	0.0162746
914.591	0.0163355
914.669	0.0162844
914.747	0.0164685
914.825	0.0163013
914.904	0.0162130
914.982	0.0162563
915.060	0.0162428
915.138	0.0162611
915.216	0.0161290
915.294	0.0161587
915.372	0.0161034
915.450	0.0160112
915.529	0.0159602
915.607	0.0159834
915.685	0.0159990
915.763	0.0160525
915.841	0.0160266
915.919	0.0159528
915.997	0.0161482
916.075	0.0160941
916.154	0.0160202
916.232	0.0161066
916.310	0.0162465
916.388	0.0162283
916.466	0.0161901
916.544	0.0163146
916.622	0.0162962
916.700	0.0161890
916.779	0.0162868
916.857	0.0163887
916.935	0.0162187
917.013	0.0161502
917.091	0.0163358
917.169	0.0163338
917.247	0.0164797
917.325	0.0163647
917.404	0.0164701
917.482	0.0163642
917.560	0.0162046
917.638	0.0160815
917.716	0.0162347
917.794	0.0162691
917.872	0.0160323
917.950	0.0159821
918.029	0.0160124
918.107	0.0160254
918.185	0.0160262
918.263	0.0159382
918.341	0.0158282
918.419	0.0158325
918.497	0.0156716
918.575	0.0158173
918.654	0.0159987
918.732	0.0160731
918.810	0.0159959
918.888	0.0160431
918.966	0.0160111
919.044	0.0160184
919.122	0.0161340
919.200	0.0160963
919.279	0.0161842
919.357	0.0161385
919.435	0.0161608
919.513	0.0162508
919.591	0.0161652
919.669	0.0161367
919.747	0.0162035
919.825	0.0162064
919.904	0.0162952
