05/20/2022	20:34:02	Ver.	4.1	UNKNOWN
Optical Delay	599.981738	Delta X		0.078125	Sweeps	1	Scan Rate	0/0
Coordinates	Axis 1	NaN	Axis 2	NaN	Axis 3	NaN	Axis 4	NaN	Axis 5	NaN	Axis 6	0.000000
TX Power	0.000000	RX Power	0.000000

599.982	0.0154752
600.060	0.0155317
600.138	0.0154532
600.216	0.0153812
600.294	0.0154833
600.372	0.0155294
600.450	0.0155151
600.529	0.0154165
600.607	0.0154119
600.685	0.0154758
600.763	0.0152325
600.841	0.0154629
600.919	0.0154443
600.997	0.0155125
601.075	0.0155626
601.154	0.0153664
601.232	0.0153388
601.310	0.0153974
601.388	0.0154625
601.466	0.0155025
601.544	0.0155339
601.622	0.0154285
601.700	0.0155354
601.779	0.0153835
601.857	0.0155490
601.935	0.0154420
602.013	0.0154082
602.091	0.0154684
602.169	0.0154555
602.247	0.0154359
602.325	0.0155024
602.404	0.0154578
602.482	0.0155246
602.560	0.0155219
602.638	0.0154973
602.716	0.0153818
602.794	0.0154060
602.872	0.0154394
602.950	0.0153825
603.029	0.0153847
603.107	0.0153107
603.185	0.0153587
603.263	0.0154844
603.341	0.0154473
603.419	0.0155109
603.497	0.0153215
603.575	0.0154980
603.654	0.0154109
603.732	0.0152935
603.810	0.0155366
603.888	0.0154800
603.966	0.0153523
604.044	0.0155116
604.122	0.0154796
604.200	0.0155230
604.279	0.0154451
604.357	0.0154863
604.435	0.0154575
604.513	0.0154277
604.591	0.0153561
604.669	0.0154487
604.747	0.0155000
604.825	0.0154146
604.904	0.0153891
604.982	0.0154833
605.060	0.0154623
605.138	0.0154913
605.216	0.0153879
605.294	0.0153797
605.372	0.0156004
605.450	0.0154048
605.529	0.0153783
605.607	0.0154259
605.685	0.0154028
605.763	0.0155075
605.841	0.0155707
605.919	0.0153818
605.997	0.0153904
606.075	0.0154443
606.154	0.0154783
606.232	0.0153889
606.310	0.0154512
606.388	0.0154623
606.466	0.0153777
606.544	0.0156216
606.622	0.0154504
606.700	0.0154500
606.779	0.0154671
606.857	0.0154497
606.935	0.0154918
607.013	0.0153736
607.091	0.0154366
607.169	0.0154336
607.247	0.0154605
607.325	0.0154098
607.404	0.0153147
607.482	0.0154691
607.560	0.0155397
607.638	0.0155080
607.716	0.0154002
607.794	0.0153661
607.872	0.0154411
607.950	0.0155845
608.029	0.0155159
608.107	0.0153828
608.185	0.0153613
608.263	0.0153463
608.341	0.0155129
608.419	0.0154098
608.497	0.0153200
608.575	0.0155169
608.654	0.0155852
608.732	0.0153455
608.810	0.0154499
608.888	0.0153026
608.966	0.0155501
609.044	0.0156440
609.122	0.0154136
609.200	0.0153620
609.279	0.0153808
609.357	0.0154483
609.435	0.0154559
609.513	0.0155199
609.591	0.0154294
609.669	0.0155334
609.747	0.0153763
609.825	0.0154729
609.904	0.0154481
609.982	0.0154417
610.060	0.0155080
610.138	0.0153502
610.216	0.0154397
610.294	0.0155760
610.372	0.0155645
610.450	0.0154054
610.529	0.0153636
610.607	0.0154336
610.685	0.0154797
610.763	0.0153988
610.841	0.0154669
610.919	0.0155159
610.997	0.0154960
611.075	0.0153996
611.154	0.0156075
611.232	0.0153802
611.310	0.0153952
611.388	0.0154134
611.466	0.0154095
611.544	0.0154156
611.622	0.0152509
611.700	0.0153895
611.779	0.0154601
611.857	0.0152991
611.935	0.0154904
612.013	0.0155526
612.091	0.0154279
612.169	0.0154877
612.247	0.0154614
612.325	0.0153341
612.404	0.0153845
612.482	0.0155178
612.560	0.0155027
612.638	0.0154420
612.716	0.0155222
612.794	0.0154541
612.872	0.0154452
612.950	0.0153874
613.029	0.0155341
613.107	0.0154833
613.185	0.0154424
613.263	0.0154081
613.341	0.0155963
613.419	0.0155132
613.497	0.0154804
613.575	0.0154038
613.654	0.0154888
613.732	0.0155070
613.810	0.0154352
613.888	0.0154324
613.966	0.0155917
614.044	0.0153536
614.122	0.0155590
614.200	0.0154628
614.279	0.0155118
614.357	0.0154765
614.435	0.0153902
614.513	0.0155014
614.591	0.0154327
614.669	0.0155010
614.747	0.0155863
614.825	0.0155109
614.904	0.0154877
614.982	0.0154303
615.060	0.0154557
615.138	0.0154759
615.216	0.0155808
615.294	0.0153622
615.372	0.0154655
615.450	0.0155233
615.529	0.0155005
615.607	0.0154804
615.685	0.0154951
615.763	0.0155049
615.841	0.0155289
615.919	0.0154308
615.997	0.0154973
616.075	0.0156125
616.154	0.0154997
616.232	0.0155100
616.310	0.0155176
616.388	0.0156017
616.466	0.0154478
616.544	0.0153563
616.622	0.0153339
616.700	0.0155750
616.779	0.0154973
616.857	0.0153739
616.935	0.0153454
617.013	0.0154731
617.091	0.0154465
617.169	0.0153959
617.247	0.0154666
617.325	0.0155458
617.404	0.0155170
617.482	0.0156087
617.560	0.0155541
617.638	0.0154317
617.716	0.0154296
617.794	0.0154608
617.872	0.0154668
617.950	0.0155155
618.029	0.0155328
618.107	0.0154514
618.185	0.0154836
618.263	0.0155122
618.341	0.0155284
618.419	0.0154916
618.497	0.0154963
618.575	0.0154248
618.654	0.0155190
618.732	0.0155093
618.810	0.0155013
618.888	0.0155487
618.966	0.0154813
619.044	0.0156120
619.122	0.0154359
619.200	0.0154047
619.279	0.0154796
619.357	0.0154028
619.435	0.0155164
619.513	0.0154612
619.591	0.0153835
619.669	0.0155684
619.747	0.0154502
619.825	0.0154897
619.904	0.0154042
619.982	0.0153088
620.060	0.0155067
620.138	0.0154818
620.216	0.0154610
620.294	0.0155447
620.372	0.0155519
620.450	0.0154407
620.529	0.0153915
620.607	0.0155568
620.685	0.0155984
620.763	0.0154157
620.841	0.0155111
620.919	0.0154811
620.997	0.0153505
621.075	0.0154978
621.154	0.0155543
621.232	0.0154834
621.310	0.0155029
621.388	0.0154942
621.466	0.0154745
621.544	0.0154212
621.622	0.0155647
621.700	0.0155425
621.779	0.0153956
621.857	0.0153414
621.935	0.0155099
622.013	0.0155231
622.091	0.0156545
622.169	0.0155119
622.247	0.0153741
622.325	0.0154527
622.404	0.0154094
622.482	0.0154627
622.560	0.0154691
622.638	0.0153842
622.716	0.0154563
622.794	0.0155424
622.872	0.0154349
622.950	0.0155294
623.029	0.0154642
623.107	0.0154361
623.185	0.0155579
623.263	0.0154885
623.341	0.0154610
623.419	0.0154639
623.497	0.0155251
623.575	0.0154197
623.654	0.0154026
623.732	0.0154358
623.810	0.0154240
623.888	0.0154167
623.966	0.0154211
624.044	0.0154243
624.122	0.0153596
624.200	0.0154299
624.279	0.0155021
624.357	0.0154636
624.435	0.0154229
624.513	0.0154552
624.591	0.0155158
624.669	0.0155502
624.747	0.0155384
624.825	0.0154641
624.904	0.0155350
624.982	0.0155075
625.060	0.0154653
625.138	0.0154827
625.216	0.0156179
625.294	0.0155673
625.372	0.0155996
625.450	0.0154607
625.529	0.0153436
625.607	0.0153467
625.685	0.0154095
625.763	0.0153358
625.841	0.0154929
625.919	0.0154579
625.997	0.0154617
626.075	0.0153945
626.154	0.0154478
626.232	0.0154425
626.310	0.0154073
626.388	0.0154114
626.466	0.0155018
626.544	0.0154485
626.622	0.0153596
626.700	0.0154628
626.779	0.0154417
626.857	0.0155622
626.935	0.0154976
627.013	0.0154636
627.091	0.0154240
627.169	0.0155048
627.247	0.0154227
627.325	0.0154102
627.404	0.0155071
627.482	0.0154924
627.560	0.0155060
627.638	0.0153091
627.716	0.0154581
627.794	0.0154969
627.872	0.0154852
627.950	0.0153408
628.029	0.0154266
628.107	0.0155169
628.185	0.0154821
628.263	0.0154472
628.341	0.0155211
628.419	0.0154582
628.497	0.0154460
628.575	0.0153267
628.654	0.0154258
628.732	0.0156159
628.810	0.0153774
628.888	0.0153529
628.966	0.0154060
629.044	0.0153574
629.122	0.0155316
629.200	0.0155589
629.279	0.0154626
629.357	0.0155781
629.435	0.0154860
629.513	0.0155701
629.591	0.0154313
629.669	0.0153562
629.747	0.0154830
629.825	0.0154663
629.904	0.0154897
629.982	0.0154613
630.060	0.0154401
630.138	0.0154787
630.216	0.0154750
630.294	0.0153557
630.372	0.0153941
630.450	0.0154633
630.529	0.0154183
630.607	0.0154125
630.685	0.0153871
630.763	0.0154176
630.841	0.0155533
630.919	0.0155321
630.997	0.0154780
631.075	0.0154987
631.154	0.0154589
631.232	0.0153912
631.310	0.0155991
631.388	0.0154893
631.466	0.0153208
631.544	0.0154866
631.622	0.0155543
631.700	0.0154717
631.779	0.0153350
631.857	0.0154368
631.935	0.0154626
632.013	0.0155424
632.091	0.0153943
632.169	0.0154277
632.247	0.0154817
632.325	0.0154595
632.404	0.0153898
632.482	0.0153671
632.560	0.0155566
632.638	0.0155003
632.716	0.0153748
632.794	0.0154790
632.872	0.0154208
632.950	0.0154341
633.029	0.0155179
633.107	0.0154779
633.185	0.0155403
633.263	0.0154771
633.341	0.0156107
633.419	0.0154170
633.497	0.0154013
633.575	0.0153860
633.654	0.0155344
633.732	0.0153353
633.810	0.0153327
633.888	0.0154184
633.966	0.0156084
634.044	0.0154761
634.122	0.0153625
634.200	0.0154861
634.279	0.0154790
634.357	0.0154211
634.435	0.0154320
634.513	0.0155330
634.591	0.0154462
634.669	0.0155273
634.747	0.0154136
634.825	0.0155195
634.904	0.0153360
634.982	0.0154211
635.060	0.0153574
635.138	0.0153807
635.216	0.0153698
635.294	0.0154457
635.372	0.0156546
635.450	0.0155204
635.529	0.0153934
635.607	0.0153506
635.685	0.0153983
635.763	0.0154890
635.841	0.0154459
635.919	0.0153881
635.997	0.0154206
636.075	0.0154638
636.154	0.0155695
636.232	0.0155482
636.310	0.0154794
636.388	0.0155346
636.466	0.0154163
636.544	0.0154942
636.622	0.0155846
636.700	0.0153378
636.779	0.0154611
636.857	0.0153728
636.935	0.0153031
637.013	0.0154967
637.091	0.0153818
637.169	0.0153223
637.247	0.0154860
637.325	0.0155628
637.404	0.0154401
637.482	0.0154381
637.560	0.0153458
637.638	0.0154151
637.716	0.0154609
637.794	0.0155225
637.872	0.0154425
637.950	0.0154935
638.029	0.0153793
638.107	0.0154132
638.185	0.0155811
638.263	0.0153572
638.341	0.0155003
638.419	0.0154919
638.497	0.0155428
638.575	0.0153676
638.654	0.0155378
638.732	0.0154661
638.810	0.0154531
638.888	0.0154990
638.966	0.0155062
639.044	0.0154384
639.122	0.0155547
639.200	0.0155399
639.279	0.0155499
639.357	0.0155190
639.435	0.0154610
639.513	0.0154179
639.591	0.0155816
639.669	0.0154903
639.747	0.0154837
639.825	0.0155463
639.904	0.0154902
639.982	0.0154652
640.060	0.0155795
640.138	0.0155177
640.216	0.0154581
640.294	0.0155159
640.372	0.0154642
640.450	0.0153799
640.529	0.0155000
640.607	0.0154509
640.685	0.0155345
640.763	0.0155023
640.841	0.0154346
640.919	0.0154247
640.997	0.0155246
641.075	0.0154212
641.154	0.0152982
641.232	0.0153915
641.310	0.0154140
641.388	0.0156612
641.466	0.0155474
641.544	0.0155515
641.622	0.0154640
641.700	0.0155865
641.779	0.0156010
641.857	0.0154149
641.935	0.0155380
642.013	0.0154901
642.091	0.0153790
642.169	0.0153922
642.247	0.0154058
642.325	0.0155287
642.404	0.0154496
642.482	0.0154697
642.560	0.0154600
642.638	0.0154243
642.716	0.0154909
642.794	0.0154633
642.872	0.0155280
642.950	0.0154305
643.029	0.0155363
643.107	0.0154004
643.185	0.0154959
643.263	0.0156438
643.341	0.0154200
643.419	0.0154435
643.497	0.0154689
643.575	0.0153839
643.654	0.0154405
643.732	0.0153931
643.810	0.0155238
643.888	0.0154450
643.966	0.0153986
644.044	0.0154665
644.122	0.0155873
644.200	0.0154552
644.279	0.0154555
644.357	0.0155378
644.435	0.0155331
644.513	0.0154485
644.591	0.0154350
644.669	0.0154234
644.747	0.0155174
644.825	0.0155373
644.904	0.0155211
644.982	0.0155191
645.060	0.0155734
645.138	0.0156107
645.216	0.0155870
645.294	0.0154440
645.372	0.0154568
645.450	0.0154179
645.529	0.0156483
645.607	0.0155517
645.685	0.0154687
645.763	0.0154874
645.841	0.0153539
645.919	0.0154691
645.997	0.0154809
646.075	0.0155402
646.154	0.0155624
646.232	0.0154939
646.310	0.0154455
646.388	0.0154220
646.466	0.0155785
646.544	0.0153369
646.622	0.0155003
646.700	0.0154942
646.779	0.0155599
646.857	0.0154701
646.935	0.0154396
647.013	0.0154883
647.091	0.0154608
647.169	0.0155975
647.247	0.0154339
647.325	0.0155975
647.404	0.0155428
647.482	0.0154592
647.560	0.0154961
647.638	0.0154012
647.716	0.0155899
647.794	0.0154588
647.872	0.0153284
647.950	0.0154400
648.029	0.0154394
648.107	0.0154270
648.185	0.0154543
648.263	0.0155040
648.341	0.0155589
648.419	0.0154424
648.497	0.0154077
648.575	0.0155831
648.654	0.0156489
648.732	0.0154243
648.810	0.0153890
648.888	0.0154816
648.966	0.0153951
649.044	0.0154375
649.122	0.0154903
649.200	0.0154260
649.279	0.0155102
649.357	0.0155976
649.435	0.0154813
649.513	0.0154005
649.591	0.0154977
649.669	0.0153928
649.747	0.0154914
649.825	0.0154465
649.904	0.0154895
649.982	0.0155817
650.060	0.0154768
650.138	0.0154321
650.216	0.0154897
650.294	0.0155386
650.372	0.0154682
650.450	0.0156221
650.529	0.0155074
650.607	0.0152905
650.685	0.0154523
650.763	0.0155778
650.841	0.0154356
650.919	0.0154716
650.997	0.0153655
651.075	0.0155270
651.154	0.0154087
651.232	0.0154509
651.310	0.0154595
651.388	0.0154718
651.466	0.0155166
651.544	0.0154969
651.622	0.0154632
651.700	0.0156481
651.779	0.0156200
651.857	0.0154024
651.935	0.0156100
652.013	0.0154842
652.091	0.0154490
652.169	0.0153842
652.247	0.0152939
652.325	0.0155768
652.404	0.0155621
652.482	0.0156841
652.560	0.0154359
652.638	0.0153422
652.716	0.0154996
652.794	0.0153442
652.872	0.0154694
652.950	0.0155621
653.029	0.0154750
653.107	0.0154654
653.185	0.0154518
653.263	0.0154910
653.341	0.0155257
653.419	0.0155172
653.497	0.0155714
653.575	0.0154725
653.654	0.0153696
653.732	0.0154240
653.810	0.0155193
653.888	0.0155389
653.966	0.0154006
654.044	0.0154254
654.122	0.0154777
654.200	0.0154375
654.279	0.0155234
654.357	0.0153983
654.435	0.0154099
654.513	0.0153666
654.591	0.0155478
654.669	0.0154893
654.747	0.0155663
654.825	0.0154671
654.904	0.0153601
654.982	0.0154643
655.060	0.0154918
655.138	0.0154071
655.216	0.0154383
655.294	0.0154522
655.372	0.0156014
655.450	0.0153902
655.529	0.0155054
655.607	0.0154464
655.685	0.0155270
655.763	0.0154284
655.841	0.0154163
655.919	0.0154944
655.997	0.0154919
656.075	0.0154705
656.154	0.0153703
656.232	0.0154818
656.310	0.0155856
656.388	0.0154651
656.466	0.0155737
656.544	0.0154010
656.622	0.0153678
656.700	0.0154800
656.779	0.0155108
656.857	0.0156384
656.935	0.0155096
657.013	0.0153051
657.091	0.0155511
657.169	0.0154731
657.247	0.0155015
657.325	0.0156112
657.404	0.0155230
657.482	0.0153883
657.560	0.0156079
657.638	0.0155753
657.716	0.0154932
657.794	0.0154273
657.872	0.0154601
657.950	0.0155582
658.029	0.0155345
658.107	0.0155283
658.185	0.0155025
658.263	0.0155522
658.341	0.0154987
658.419	0.0154054
658.497	0.0154567
658.575	0.0153185
658.654	0.0156089
658.732	0.0154011
658.810	0.0155126
658.888	0.0155923
658.966	0.0154169
659.044	0.0153757
659.122	0.0154498
659.200	0.0154714
659.279	0.0154781
659.357	0.0155738
659.435	0.0155143
659.513	0.0155145
659.591	0.0154166
659.669	0.0155572
659.747	0.0155863
659.825	0.0154972
659.904	0.0154585
659.982	0.0156038
660.060	0.0155377
660.138	0.0155285
660.216	0.0155038
660.294	0.0153126
660.372	0.0154536
660.450	0.0153754
660.529	0.0156004
660.607	0.0154802
660.685	0.0153739
660.763	0.0154337
660.841	0.0155216
660.919	0.0154876
660.997	0.0154564
661.075	0.0154611
661.154	0.0154332
661.232	0.0153610
661.310	0.0154963
661.388	0.0155262
661.466	0.0155231
661.544	0.0154539
661.622	0.0154819
661.700	0.0153710
661.779	0.0154426
661.857	0.0154862
661.935	0.0155053
662.013	0.0154758
662.091	0.0156931
662.169	0.0154766
662.247	0.0153963
662.325	0.0154066
662.404	0.0153915
662.482	0.0154078
662.560	0.0154133
662.638	0.0154151
662.716	0.0156354
662.794	0.0155547
662.872	0.0154392
662.950	0.0153855
663.029	0.0154412
663.107	0.0155289
663.185	0.0153905
663.263	0.0152916
663.341	0.0154264
663.419	0.0154588
663.497	0.0155438
663.575	0.0154393
663.654	0.0155123
663.732	0.0154702
663.810	0.0154737
663.888	0.0154421
663.966	0.0154422
664.044	0.0154993
664.122	0.0153972
664.200	0.0153941
664.279	0.0154383
664.357	0.0155335
664.435	0.0154427
664.513	0.0154878
664.591	0.0155404
664.669	0.0154578
664.747	0.0154742
664.825	0.0155832
664.904	0.0154836
664.982	0.0154617
665.060	0.0155170
665.138	0.0155341
665.216	0.0153494
665.294	0.0154225
665.372	0.0155025
665.450	0.0154490
665.529	0.0154577
665.607	0.0154977
665.685	0.0154386
665.763	0.0155994
665.841	0.0156754
665.919	0.0155650
665.997	0.0153824
666.075	0.0153410
666.154	0.0154663
666.232	0.0155061
666.310	0.0155087
666.388	0.0153990
666.466	0.0154178
666.544	0.0154133
666.622	0.0155232
666.700	0.0156027
666.779	0.0154778
666.857	0.0155260
666.935	0.0154919
667.013	0.0154303
667.091	0.0153970
667.169	0.0154317
667.247	0.0155145
667.325	0.0154335
667.404	0.0155826
667.482	0.0154544
667.560	0.0155109
667.638	0.0154351
667.716	0.0155080
667.794	0.0155122
667.872	0.0156238
667.950	0.0154690
668.029	0.0154623
668.107	0.0155335
668.185	0.0155910
668.263	0.0155705
668.341	0.0152027
668.419	0.0154965
668.497	0.0155044
668.575	0.0154207
668.654	0.0155917
668.732	0.0155216
668.810	0.0155078
668.888	0.0155301
668.966	0.0154486
669.044	0.0155468
669.122	0.0154420
669.200	0.0154625
669.279	0.0154437
669.357	0.0155243
669.435	0.0155783
669.513	0.0154108
669.591	0.0154743
669.669	0.0154527
669.747	0.0155355
669.825	0.0154037
669.904	0.0154515
669.982	0.0153777
670.060	0.0154848
670.138	0.0153909
670.216	0.0155538
670.294	0.0154447
670.372	0.0155006
670.450	0.0154752
670.529	0.0155109
670.607	0.0155132
670.685	0.0153088
670.763	0.0152841
670.841	0.0155939
670.919	0.0156184
670.997	0.0154678
671.075	0.0154274
671.154	0.0155333
671.232	0.0153551
671.310	0.0154905
671.388	0.0154848
671.466	0.0153828
671.544	0.0155018
671.622	0.0154185
671.700	0.0155276
671.779	0.0154162
671.857	0.0155206
671.935	0.0156297
672.013	0.0155793
672.091	0.0153527
672.169	0.0154799
672.247	0.0155189
672.325	0.0154937
672.404	0.0155240
672.482	0.0154096
672.560	0.0154249
672.638	0.0155273
672.716	0.0153925
672.794	0.0154377
672.872	0.0154361
672.950	0.0154040
673.029	0.0154936
673.107	0.0153739
673.185	0.0153702
673.263	0.0154881
673.341	0.0153259
673.419	0.0153654
673.497	0.0154552
673.575	0.0153741
673.654	0.0155058
673.732	0.0154486
673.810	0.0154166
673.888	0.0154507
673.966	0.0154352
674.044	0.0154737
674.122	0.0154100
674.200	0.0155212
674.279	0.0153585
674.357	0.0155254
674.435	0.0153892
674.513	0.0153497
674.591	0.0154287
674.669	0.0154009
674.747	0.0154408
674.825	0.0154520
674.904	0.0155362
674.982	0.0154310
675.060	0.0154668
675.138	0.0153530
675.216	0.0153746
675.294	0.0154938
675.372	0.0154650
675.450	0.0153310
675.529	0.0154163
675.607	0.0154078
675.685	0.0154700
675.763	0.0154221
675.841	0.0154079
675.919	0.0155034
675.997	0.0155284
676.075	0.0154522
676.154	0.0154992
676.232	0.0155350
676.310	0.0153460
676.388	0.0153699
676.466	0.0156155
676.544	0.0154396
676.622	0.0155493
676.700	0.0155808
676.779	0.0155859
676.857	0.0155469
676.935	0.0154164
677.013	0.0154692
677.091	0.0155655
677.169	0.0154058
677.247	0.0154897
677.325	0.0155116
677.404	0.0155296
677.482	0.0155865
677.560	0.0155016
677.638	0.0155460
677.716	0.0154784
677.794	0.0153926
677.872	0.0154646
677.950	0.0155980
678.029	0.0155482
678.107	0.0153590
678.185	0.0155984
678.263	0.0155100
678.341	0.0156036
678.419	0.0155523
678.497	0.0153897
678.575	0.0154317
678.654	0.0156351
678.732	0.0155898
678.810	0.0155816
678.888	0.0154409
678.966	0.0154311
679.044	0.0155093
679.122	0.0155097
679.200	0.0154364
679.279	0.0154983
679.357	0.0155417
679.435	0.0155305
679.513	0.0155483
679.591	0.0155193
679.669	0.0154614
679.747	0.0154645
679.825	0.0156007
679.904	0.0155436
679.982	0.0155000
680.060	0.0154508
680.138	0.0155830
680.216	0.0155070
680.294	0.0155248
680.372	0.0153199
680.450	0.0154221
680.529	0.0156785
680.607	0.0154105
680.685	0.0153655
680.763	0.0155511
680.841	0.0155894
680.919	0.0154887
680.997	0.0155190
681.075	0.0154322
681.154	0.0154751
681.232	0.0153335
681.310	0.0155093
681.388	0.0154948
681.466	0.0154366
681.544	0.0152818
681.622	0.0155553
681.700	0.0155018
681.779	0.0155136
681.857	0.0153960
681.935	0.0154299
682.013	0.0155263
682.091	0.0154356
682.169	0.0154166
682.247	0.0155865
682.325	0.0154884
682.404	0.0154462
682.482	0.0153916
682.560	0.0154349
682.638	0.0154937
682.716	0.0155264
682.794	0.0156462
682.872	0.0154809
682.950	0.0154037
683.029	0.0154977
683.107	0.0155099
683.185	0.0154759
683.263	0.0153246
683.341	0.0154211
683.419	0.0154562
683.497	0.0154092
683.575	0.0154549
683.654	0.0155527
683.732	0.0154092
683.810	0.0154684
683.888	0.0154176
683.966	0.0154768
684.044	0.0154987
684.122	0.0154493
684.200	0.0153658
684.279	0.0154603
684.357	0.0155073
684.435	0.0153471
684.513	0.0154613
684.591	0.0154707
684.669	0.0152866
684.747	0.0153925
684.825	0.0154229
684.904	0.0154701
684.982	0.0155220
685.060	0.0153869
685.138	0.0154182
685.216	0.0155231
685.294	0.0153999
685.372	0.0154832
685.450	0.0154471
685.529	0.0154290
685.607	0.0153751
685.685	0.0154424
685.763	0.0154705
685.841	0.0154263
685.919	0.0155070
685.997	0.0155157
686.075	0.0154854
686.154	0.0155570
686.232	0.0154189
686.310	0.0155616
686.388	0.0155999
686.466	0.0154453
686.544	0.0155774
686.622	0.0155418
686.700	0.0155256
686.779	0.0154895
686.857	0.0154868
686.935	0.0155976
687.013	0.0154626
687.091	0.0155312
687.169	0.0155451
687.247	0.0154828
687.325	0.0156606
687.404	0.0155811
687.482	0.0156002
687.560	0.0155360
687.638	0.0154607
687.716	0.0155709
687.794	0.0154875
687.872	0.0154301
687.950	0.0154134
688.029	0.0156543
688.107	0.0155026
688.185	0.0154540
688.263	0.0155960
688.341	0.0154776
688.419	0.0156293
688.497	0.0155383
688.575	0.0156319
688.654	0.0157175
688.732	0.0156463
688.810	0.0153973
688.888	0.0153178
688.966	0.0154654
689.044	0.0153829
689.122	0.0151879
689.200	0.0151254
689.279	0.0153178
689.357	0.0153509
689.435	0.0155014
689.513	0.0153828
689.591	0.0156589
689.669	0.0158642
689.747	0.0160217
689.825	0.0161584
689.904	0.0160868
689.982	0.0160829
690.060	0.0160646
690.138	0.0159473
690.216	0.0158405
690.294	0.0156753
690.372	0.0154561
690.450	0.0151955
690.529	0.0149805
690.607	0.0147113
690.685	0.0146540
690.763	0.0145461
690.841	0.0145036
690.919	0.0145444
690.997	0.0146825
691.075	0.0147881
691.154	0.0150505
691.232	0.0152432
691.310	0.0156178
691.388	0.0158599
691.466	0.0161091
691.544	0.0164439
691.622	0.0165675
691.700	0.0167416
691.779	0.0168346
691.857	0.0166489
691.935	0.0165601
692.013	0.0165911
692.091	0.0163515
692.169	0.0161124
692.247	0.0158336
692.325	0.0155666
692.404	0.0152924
692.482	0.0149996
692.560	0.0147740
692.638	0.0146146
692.716	0.0143457
692.794	0.0142144
692.872	0.0140457
692.950	0.0142520
693.029	0.0142674
693.107	0.0142043
693.185	0.0143550
693.263	0.0146355
693.341	0.0148412
693.419	0.0149016
693.497	0.0152257
693.575	0.0155116
693.654	0.0155492
693.732	0.0157381
693.810	0.0159261
693.888	0.0159028
693.966	0.0161096
694.044	0.0162256
694.122	0.0163671
694.200	0.0163348
694.279	0.0163645
694.357	0.0163108
694.435	0.0163945
694.513	0.0164458
694.591	0.0162408
694.669	0.0163371
694.747	0.0161870
694.825	0.0161380
694.904	0.0159614
694.982	0.0160332
695.060	0.0157844
695.138	0.0157426
695.216	0.0156591
695.294	0.0155290
695.372	0.0153264
695.450	0.0151914
695.529	0.0150542
695.607	0.0147882
695.685	0.0146916
695.763	0.0144664
695.841	0.0144665
695.919	0.0142295
695.997	0.0140470
696.075	0.0140496
696.154	0.0141048
696.232	0.0141804
696.310	0.0144006
696.388	0.0144548
696.466	0.0146288
696.544	0.0146542
696.622	0.0148950
696.700	0.0152750
696.779	0.0154768
696.857	0.0157858
696.935	0.0160490
697.013	0.0162437
697.091	0.0165506
697.169	0.0167276
697.247	0.0169300
697.325	0.0170052
697.404	0.0168739
697.482	0.0168480
697.560	0.0169339
697.638	0.0169695
697.716	0.0167022
697.794	0.0166768
697.872	0.0166198
697.950	0.0161529
698.029	0.0160011
698.107	0.0159322
698.185	0.0155414
698.263	0.0153066
698.341	0.0152541
698.419	0.0151308
698.497	0.0148732
698.575	0.0147419
698.654	0.0145201
698.732	0.0146827
698.810	0.0145065
698.888	0.0145198
698.966	0.0144817
699.044	0.0145107
699.122	0.0143387
699.200	0.0145615
699.279	0.0147398
699.357	0.0147858
699.435	0.0148528
699.513	0.0151749
699.591	0.0152666
699.669	0.0154129
699.747	0.0153989
699.825	0.0155011
699.904	0.0156579
699.982	0.0157127
700.060	0.0156903
700.138	0.0157452
700.216	0.0157173
700.294	0.0157678
700.372	0.0158762
700.450	0.0159330
700.529	0.0158005
700.607	0.0157205
700.685	0.0157774
700.763	0.0155989
700.841	0.0157260
700.919	0.0155802
700.997	0.0157254
701.075	0.0155666
701.154	0.0153150
701.232	0.0154858
701.310	0.0155299
701.388	0.0154156
701.466	0.0152978
701.544	0.0154037
701.622	0.0154066
701.700	0.0154202
701.779	0.0152135
701.857	0.0153380
701.935	0.0153172
702.013	0.0152120
702.091	0.0154590
702.169	0.0154083
702.247	0.0154102
702.325	0.0154089
702.404	0.0154804
702.482	0.0154178
702.560	0.0155477
702.638	0.0155523
702.716	0.0156840
702.794	0.0157494
702.872	0.0156729
702.950	0.0157764
703.029	0.0155738
703.107	0.0157644
703.185	0.0158019
703.263	0.0156962
703.341	0.0156590
703.419	0.0155356
703.497	0.0155737
703.575	0.0154491
703.654	0.0154829
703.732	0.0152814
703.810	0.0154506
703.888	0.0153654
703.966	0.0153415
704.044	0.0152145
704.122	0.0153671
704.200	0.0152636
704.279	0.0151890
704.357	0.0151353
704.435	0.0150580
704.513	0.0151434
704.591	0.0152255
704.669	0.0153316
704.747	0.0153654
704.825	0.0155536
704.904	0.0155320
704.982	0.0155328
705.060	0.0157466
705.138	0.0157713
705.216	0.0158802
705.294	0.0158060
705.372	0.0157381
705.450	0.0158273
705.529	0.0157544
705.607	0.0157342
705.685	0.0155369
705.763	0.0155412
705.841	0.0154153
705.919	0.0153392
705.997	0.0152077
706.075	0.0153607
706.154	0.0151966
706.232	0.0150681
706.310	0.0151202
706.388	0.0150983
706.466	0.0151617
706.544	0.0150784
706.622	0.0152317
706.700	0.0152580
706.779	0.0153499
706.857	0.0155136
706.935	0.0156386
707.013	0.0156519
707.091	0.0156378
707.169	0.0158588
707.247	0.0158768
707.325	0.0159187
707.404	0.0159036
707.482	0.0158189
707.560	0.0160970
707.638	0.0161922
707.716	0.0161053
707.794	0.0158340
707.872	0.0157784
707.950	0.0158816
708.029	0.0157269
708.107	0.0158113
708.185	0.0155322
708.263	0.0154914
708.341	0.0153072
708.419	0.0152613
708.497	0.0153194
708.575	0.0152012
708.654	0.0151042
708.732	0.0150984
708.810	0.0150857
708.888	0.0150449
708.966	0.0150480
709.044	0.0150173
709.122	0.0150779
709.200	0.0151880
709.279	0.0151079
709.357	0.0152146
709.435	0.0153544
709.513	0.0151432
709.591	0.0151633
709.669	0.0152418
709.747	0.0153460
709.825	0.0154626
709.904	0.0154501
709.982	0.0154684
710.060	0.0153708
710.138	0.0155427
710.216	0.0155856
710.294	0.0157278
710.372	0.0156093
710.450	0.0155217
710.529	0.0154098
710.607	0.0156279
710.685	0.0155456
710.763	0.0154609
710.841	0.0153593
710.919	0.0153320
710.997	0.0153704
711.075	0.0152570
711.154	0.0153883
711.232	0.0153075
711.310	0.0153858
711.388	0.0154501
711.466	0.0154843
711.544	0.0155491
711.622	0.0155567
711.700	0.0156374
711.779	0.0155653
711.857	0.0156789
711.935	0.0157587
712.013	0.0159292
712.091	0.0158633
712.169	0.0159060
712.247	0.0158808
712.325	0.0158256
712.404	0.0157208
712.482	0.0157340
712.560	0.0156734
712.638	0.0155840
712.716	0.0154507
712.794	0.0154716
712.872	0.0154064
712.950	0.0153270
713.029	0.0154752
713.107	0.0152979
713.185	0.0153794
713.263	0.0153383
713.341	0.0152688
713.419	0.0153053
713.497	0.0152913
713.575	0.0153137
713.654	0.0153625
713.732	0.0153352
713.810	0.0154630
713.888	0.0154105
713.966	0.0153993
714.044	0.0154222
714.122	0.0153557
714.200	0.0154758
714.279	0.0153706
714.357	0.0153771
714.435	0.0155054
714.513	0.0154048
714.591	0.0154176
714.669	0.0155409
714.747	0.0154031
714.825	0.0155800
714.904	0.0156879
714.982	0.0156424
715.060	0.0156218
715.138	0.0156289
715.216	0.0157640
715.294	0.0157510
715.372	0.0158444
715.450	0.0157939
715.529	0.0156593
715.607	0.0157177
715.685	0.0157545
715.763	0.0157278
715.841	0.0155402
715.919	0.0154768
715.997	0.0154075
716.075	0.0155250
716.154	0.0153698
716.232	0.0151220
716.310	0.0152082
716.388	0.0151189
716.466	0.0152202
716.544	0.0151427
716.622	0.0150345
716.700	0.0150998
716.779	0.0151956
716.857	0.0150848
716.935	0.0152590
717.013	0.0151957
717.091	0.0151381
717.169	0.0152515
717.247	0.0152750
717.325	0.0152782
717.404	0.0153082
717.482	0.0153393
717.560	0.0153166
717.638	0.0154568
717.716	0.0155704
717.794	0.0154716
717.872	0.0154703
717.950	0.0155774
718.029	0.0157916
718.107	0.0157586
718.185	0.0157114
718.263	0.0156977
718.341	0.0157890
718.419	0.0157823
718.497	0.0156866
718.575	0.0157533
718.654	0.0156039
718.732	0.0154144
718.810	0.0154485
718.888	0.0153437
718.966	0.0153160
719.044	0.0151706
719.122	0.0151289
719.200	0.0151649
719.279	0.0153114
719.357	0.0154441
719.435	0.0153825
719.513	0.0153825
719.591	0.0154633
719.669	0.0156218
719.747	0.0156980
719.825	0.0157159
719.904	0.0157912
719.982	0.0158352
720.060	0.0158474
720.138	0.0157816
720.216	0.0157576
720.294	0.0157364
720.372	0.0158163
720.450	0.0156643
720.529	0.0156827
720.607	0.0155448
720.685	0.0154024
720.763	0.0155054
720.841	0.0155720
720.919	0.0154450
720.997	0.0153049
721.075	0.0154401
721.154	0.0154703
721.232	0.0154573
721.310	0.0154850
721.388	0.0154143
721.466	0.0153670
721.544	0.0153089
721.622	0.0152322
721.700	0.0152716
721.779	0.0152370
721.857	0.0152219
721.935	0.0152038
722.013	0.0151706
722.091	0.0150684
722.169	0.0150330
722.247	0.0151125
722.325	0.0151033
722.404	0.0149974
722.482	0.0150600
722.560	0.0153104
722.638	0.0152014
722.716	0.0152340
722.794	0.0152540
722.872	0.0153093
722.950	0.0153180
723.029	0.0152921
723.107	0.0152695
723.185	0.0155783
723.263	0.0153844
723.341	0.0153885
723.419	0.0155368
723.497	0.0155116
723.575	0.0155726
723.654	0.0154736
723.732	0.0155547
723.810	0.0155231
723.888	0.0156653
723.966	0.0155323
724.044	0.0156569
724.122	0.0155812
724.200	0.0155087
724.279	0.0155730
724.357	0.0155953
724.435	0.0154940
724.513	0.0156752
724.591	0.0155285
724.669	0.0157401
724.747	0.0156770
724.825	0.0158132
724.904	0.0156988
724.982	0.0156818
725.060	0.0157988
725.138	0.0156911
725.216	0.0155730
725.294	0.0156245
725.372	0.0157195
725.450	0.0155922
725.529	0.0155602
725.607	0.0154718
725.685	0.0155732
725.763	0.0155381
725.841	0.0154459
725.919	0.0155633
725.997	0.0154170
726.075	0.0153945
726.154	0.0154697
726.232	0.0154466
726.310	0.0153827
726.388	0.0154307
726.466	0.0153643
726.544	0.0154996
726.622	0.0154623
726.700	0.0153466
726.779	0.0154757
726.857	0.0154121
726.935	0.0154391
727.013	0.0154822
727.091	0.0155338
727.169	0.0156168
727.247	0.0154896
727.325	0.0154575
727.404	0.0155641
727.482	0.0156128
727.560	0.0154879
727.638	0.0154918
727.716	0.0155629
727.794	0.0155177
727.872	0.0155106
727.950	0.0154375
728.029	0.0154064
728.107	0.0153045
728.185	0.0152991
728.263	0.0151236
728.341	0.0152332
728.419	0.0151193
728.497	0.0151576
728.575	0.0151531
728.654	0.0150955
728.732	0.0151629
728.810	0.0152357
728.888	0.0153156
728.966	0.0152414
729.044	0.0151654
729.122	0.0153148
729.200	0.0150945
729.279	0.0153040
729.357	0.0152326
729.435	0.0153191
729.513	0.0153072
729.591	0.0154031
729.669	0.0154312
729.747	0.0154782
729.825	0.0152975
729.904	0.0155474
729.982	0.0155036
730.060	0.0154678
730.138	0.0155966
730.216	0.0155517
730.294	0.0156969
730.372	0.0156283
730.450	0.0156519
730.529	0.0157526
730.607	0.0157088
730.685	0.0157919
730.763	0.0157097
730.841	0.0158717
730.919	0.0158948
730.997	0.0158585
731.075	0.0159981
731.154	0.0159695
731.232	0.0158267
731.310	0.0159261
731.388	0.0158414
731.466	0.0155785
731.544	0.0156315
731.622	0.0155747
731.700	0.0156597
731.779	0.0154739
731.857	0.0154506
731.935	0.0154504
732.013	0.0154730
732.091	0.0152405
732.169	0.0153723
732.247	0.0153934
732.325	0.0152706
732.404	0.0153413
732.482	0.0152370
732.560	0.0153951
732.638	0.0153403
732.716	0.0153114
732.794	0.0153807
732.872	0.0153546
732.950	0.0151201
733.029	0.0152479
733.107	0.0153133
733.185	0.0153528
733.263	0.0153592
733.341	0.0153506
733.419	0.0155025
733.497	0.0154216
733.575	0.0154652
733.654	0.0153402
733.732	0.0154103
733.810	0.0154964
733.888	0.0154188
733.966	0.0154143
734.044	0.0153201
734.122	0.0153506
734.200	0.0154134
734.279	0.0153482
734.357	0.0152612
734.435	0.0152802
734.513	0.0153714
734.591	0.0152856
734.669	0.0152911
734.747	0.0153473
734.825	0.0153786
734.904	0.0153544
734.982	0.0153979
735.060	0.0154147
735.138	0.0154574
735.216	0.0154803
735.294	0.0155395
735.372	0.0155949
735.450	0.0154417
735.529	0.0154926
735.607	0.0154478
735.685	0.0155659
735.763	0.0154672
735.841	0.0154835
735.919	0.0156275
735.997	0.0157102
736.075	0.0156075
736.154	0.0155160
736.232	0.0155712
736.310	0.0155297
736.388	0.0155328
736.466	0.0155507
736.544	0.0155617
736.622	0.0155277
736.700	0.0154278
736.779	0.0154697
736.857	0.0155177
736.935	0.0155231
737.013	0.0154890
737.091	0.0154939
737.169	0.0155421
737.247	0.0154839
737.325	0.0155283
737.404	0.0154501
737.482	0.0154825
737.560	0.0155199
737.638	0.0155915
737.716	0.0155772
737.794	0.0155309
737.872	0.0154869
737.950	0.0155294
738.029	0.0155446
738.107	0.0155959
738.185	0.0156217
738.263	0.0157419
738.341	0.0156744
738.419	0.0156074
738.497	0.0156052
738.575	0.0156219
738.654	0.0158401
738.732	0.0156393
738.810	0.0156651
738.888	0.0156453
738.966	0.0156033
739.044	0.0155806
739.122	0.0154295
739.200	0.0155195
739.279	0.0153704
739.357	0.0154354
739.435	0.0152741
739.513	0.0153652
739.591	0.0153233
739.669	0.0150907
739.747	0.0152032
739.825	0.0152859
739.904	0.0153410
739.982	0.0152997
740.060	0.0151527
740.138	0.0151777
740.216	0.0154485
740.294	0.0152402
740.372	0.0152257
740.450	0.0154657
740.529	0.0154640
740.607	0.0155383
740.685	0.0155746
740.763	0.0155538
740.841	0.0156348
740.919	0.0157149
740.997	0.0157105
741.075	0.0158013
741.154	0.0157394
741.232	0.0158409
741.310	0.0156979
741.388	0.0157000
741.466	0.0156298
741.544	0.0157146
741.622	0.0156441
741.700	0.0156826
741.779	0.0154407
741.857	0.0153629
741.935	0.0153059
742.013	0.0153522
742.091	0.0152561
742.169	0.0151495
742.247	0.0151345
742.325	0.0150682
742.404	0.0150262
742.482	0.0151441
742.560	0.0152139
742.638	0.0152866
742.716	0.0153519
742.794	0.0152080
742.872	0.0151837
742.950	0.0154478
743.029	0.0153806
743.107	0.0153487
743.185	0.0153719
743.263	0.0154103
743.341	0.0154754
743.419	0.0154968
743.497	0.0154849
743.575	0.0154908
743.654	0.0154701
743.732	0.0153842
743.810	0.0154493
743.888	0.0154517
743.966	0.0154993
744.044	0.0155907
744.122	0.0154461
744.200	0.0154860
744.279	0.0155589
744.357	0.0156139
744.435	0.0156093
744.513	0.0155328
744.591	0.0156829
744.669	0.0156005
744.747	0.0157031
744.825	0.0156945
744.904	0.0156989
744.982	0.0156979
745.060	0.0155207
745.138	0.0157481
745.216	0.0154771
745.294	0.0155016
745.372	0.0154217
745.450	0.0154132
745.529	0.0154701
745.607	0.0154332
745.685	0.0153837
745.763	0.0152805
745.841	0.0153619
745.919	0.0154629
745.997	0.0153009
746.075	0.0152647
746.154	0.0153983
746.232	0.0155395
746.310	0.0155328
746.388	0.0154880
746.466	0.0154903
746.544	0.0155489
746.622	0.0154762
746.700	0.0154654
746.779	0.0154415
746.857	0.0153313
746.935	0.0152728
747.013	0.0155052
747.091	0.0155693
747.169	0.0155237
747.247	0.0154066
747.325	0.0153865
747.404	0.0154462
747.482	0.0154066
747.560	0.0155293
747.638	0.0155003
747.716	0.0154759
747.794	0.0154405
747.872	0.0155148
747.950	0.0154937
748.029	0.0155167
748.107	0.0154814
748.185	0.0155196
748.263	0.0154610
748.341	0.0154599
748.419	0.0154474
748.497	0.0154754
748.575	0.0153516
748.654	0.0153927
748.732	0.0155070
748.810	0.0155038
748.888	0.0154137
748.966	0.0153251
749.044	0.0154289
749.122	0.0154036
749.200	0.0153988
749.279	0.0155272
749.357	0.0156194
749.435	0.0156364
749.513	0.0155365
749.591	0.0156284
749.669	0.0157596
749.747	0.0155641
749.825	0.0155267
749.904	0.0154681
749.982	0.0157033
750.060	0.0156773
750.138	0.0155442
750.216	0.0155500
750.294	0.0154412
750.372	0.0153776
750.450	0.0154188
750.529	0.0153224
750.607	0.0152576
750.685	0.0154633
750.763	0.0154272
750.841	0.0154275
750.919	0.0155431
750.997	0.0154964
751.075	0.0152528
751.154	0.0153402
751.232	0.0153065
751.310	0.0153944
751.388	0.0154619
751.466	0.0154222
751.544	0.0154533
751.622	0.0154710
751.700	0.0157597
751.779	0.0157118
751.857	0.0154590
751.935	0.0155917
752.013	0.0157084
752.091	0.0157816
752.169	0.0158932
752.247	0.0155899
752.325	0.0157201
752.404	0.0156679
752.482	0.0156583
752.560	0.0156163
752.638	0.0155954
752.716	0.0155638
752.794	0.0155763
752.872	0.0155162
752.950	0.0154415
753.029	0.0155009
753.107	0.0154654
753.185	0.0154862
753.263	0.0154173
753.341	0.0155482
753.419	0.0154218
753.497	0.0153938
753.575	0.0154860
753.654	0.0155023
753.732	0.0155755
753.810	0.0156010
753.888	0.0155898
753.966	0.0156294
754.044	0.0156200
754.122	0.0157156
754.200	0.0155624
754.279	0.0157946
754.357	0.0157050
754.435	0.0156400
754.513	0.0157063
754.591	0.0156527
754.669	0.0156332
754.747	0.0156912
754.825	0.0155943
754.904	0.0155042
754.982	0.0154782
755.060	0.0156493
755.138	0.0154961
755.216	0.0154888
755.294	0.0155692
755.372	0.0156731
755.450	0.0153265
755.529	0.0154641
755.607	0.0156902
755.685	0.0154697
755.763	0.0154385
755.841	0.0156139
755.919	0.0155235
755.997	0.0155746
756.075	0.0154967
756.154	0.0155629
756.232	0.0155234
756.310	0.0155223
756.388	0.0154533
756.466	0.0153452
756.544	0.0153424
756.622	0.0155411
756.700	0.0154274
756.779	0.0152587
756.857	0.0153716
756.935	0.0153146
757.013	0.0152707
757.091	0.0152378
757.169	0.0153182
757.247	0.0153490
757.325	0.0153176
757.404	0.0153123
757.482	0.0153373
757.560	0.0154774
757.638	0.0153471
757.716	0.0152827
757.794	0.0155396
757.872	0.0154591
757.950	0.0155083
758.029	0.0154261
758.107	0.0153845
758.185	0.0154140
758.263	0.0154509
758.341	0.0154328
758.419	0.0153946
758.497	0.0154844
758.575	0.0153998
758.654	0.0154015
758.732	0.0154434
758.810	0.0155113
758.888	0.0156145
758.966	0.0155380
759.044	0.0156009
759.122	0.0154626
759.200	0.0155909
759.279	0.0154929
759.357	0.0153175
759.435	0.0155534
759.513	0.0155849
759.591	0.0155276
759.669	0.0154485
759.747	0.0155652
759.825	0.0152821
759.904	0.0153898
759.982	0.0156654
760.060	0.0156572
760.138	0.0156469
760.216	0.0155582
760.294	0.0155418
760.372	0.0157387
760.450	0.0156688
760.529	0.0156604
760.607	0.0156144
760.685	0.0156305
760.763	0.0156400
760.841	0.0157861
760.919	0.0156521
760.997	0.0156749
761.075	0.0156079
761.154	0.0156024
761.232	0.0155036
761.310	0.0156007
761.388	0.0155284
761.466	0.0155087
761.544	0.0154963
761.622	0.0153668
761.700	0.0154472
761.779	0.0154916
761.857	0.0154552
761.935	0.0153960
762.013	0.0154185
762.091	0.0154384
762.169	0.0152499
762.247	0.0154662
762.325	0.0154148
762.404	0.0153645
762.482	0.0154836
762.560	0.0154189
762.638	0.0153715
762.716	0.0152493
762.794	0.0153906
762.872	0.0155612
762.950	0.0153297
763.029	0.0153741
763.107	0.0153618
763.185	0.0152605
763.263	0.0153782
763.341	0.0153099
763.419	0.0151959
763.497	0.0153143
763.575	0.0153613
763.654	0.0154073
763.732	0.0153978
763.810	0.0154427
763.888	0.0154374
763.966	0.0155048
764.044	0.0155262
764.122	0.0154955
764.200	0.0154932
764.279	0.0155150
764.357	0.0155584
764.435	0.0155267
764.513	0.0156430
764.591	0.0156964
764.669	0.0154472
764.747	0.0155584
764.825	0.0155956
764.904	0.0156052
764.982	0.0155380
765.060	0.0156456
765.138	0.0155357
765.216	0.0155730
765.294	0.0154468
765.372	0.0155869
765.450	0.0155705
765.529	0.0157275
765.607	0.0154082
765.685	0.0153960
765.763	0.0154226
765.841	0.0154782
765.919	0.0156091
765.997	0.0155489
766.075	0.0154925
766.154	0.0154680
766.232	0.0155992
766.310	0.0154945
766.388	0.0153231
766.466	0.0153526
766.544	0.0154424
766.622	0.0153891
766.700	0.0154365
766.779	0.0154562
766.857	0.0153432
766.935	0.0153783
767.013	0.0153097
767.091	0.0154041
767.169	0.0153996
767.247	0.0153818
767.325	0.0153786
767.404	0.0154032
767.482	0.0154654
767.560	0.0155174
767.638	0.0154409
767.716	0.0153490
767.794	0.0155118
767.872	0.0155425
767.950	0.0155744
768.029	0.0154315
768.107	0.0155811
768.185	0.0154503
768.263	0.0154995
768.341	0.0154784
768.419	0.0154527
768.497	0.0156480
768.575	0.0156165
768.654	0.0154972
768.732	0.0154460
768.810	0.0154801
768.888	0.0154784
768.966	0.0154301
769.044	0.0154630
769.122	0.0154630
769.200	0.0153410
769.279	0.0153534
769.357	0.0154430
769.435	0.0154445
769.513	0.0155455
769.591	0.0155101
769.669	0.0155075
769.747	0.0154127
769.825	0.0153443
769.904	0.0154185
769.982	0.0154768
770.060	0.0154420
770.138	0.0155220
770.216	0.0153125
770.294	0.0153082
770.372	0.0153407
770.450	0.0154320
770.529	0.0154863
770.607	0.0153864
770.685	0.0152292
770.763	0.0153770
770.841	0.0155466
770.919	0.0154989
770.997	0.0154450
771.075	0.0154541
771.154	0.0155498
771.232	0.0154230
771.310	0.0154939
771.388	0.0154015
771.466	0.0154717
771.544	0.0154285
771.622	0.0155223
771.700	0.0155278
771.779	0.0155320
771.857	0.0155154
771.935	0.0154836
772.013	0.0154813
772.091	0.0155370
772.169	0.0155713
772.247	0.0155769
772.325	0.0153462
772.404	0.0153866
772.482	0.0154969
772.560	0.0155357
772.638	0.0154096
772.716	0.0153592
772.794	0.0155305
772.872	0.0153931
772.950	0.0154297
773.029	0.0153922
773.107	0.0153137
773.185	0.0154845
773.263	0.0153847
773.341	0.0155392
773.419	0.0152921
773.497	0.0154212
773.575	0.0155290
773.654	0.0155788
773.732	0.0154371
773.810	0.0154596
773.888	0.0154548
773.966	0.0154510
774.044	0.0154502
774.122	0.0156264
774.200	0.0155183
774.279	0.0154891
774.357	0.0155623
774.435	0.0156586
774.513	0.0155962
774.591	0.0156651
774.669	0.0157655
774.747	0.0155759
774.825	0.0155731
774.904	0.0156853
774.982	0.0155775
775.060	0.0156163
775.138	0.0156320
775.216	0.0155691
775.294	0.0156184
775.372	0.0157104
775.450	0.0155323
775.529	0.0155206
775.607	0.0155705
775.685	0.0154916
775.763	0.0154987
775.841	0.0154954
775.919	0.0155759
775.997	0.0154850
776.075	0.0155699
776.154	0.0154935
776.232	0.0155058
776.310	0.0154918
776.388	0.0156933
776.466	0.0155960
776.544	0.0156347
776.622	0.0155978
776.700	0.0155038
776.779	0.0155212
776.857	0.0155065
776.935	0.0156444
777.013	0.0154919
777.091	0.0154785
777.169	0.0156055
777.247	0.0156203
777.325	0.0155979
777.404	0.0154565
777.482	0.0155759
777.560	0.0155028
777.638	0.0155271
777.716	0.0154812
777.794	0.0155180
777.872	0.0153976
777.950	0.0154162
778.029	0.0152595
778.107	0.0153899
778.185	0.0154744
778.263	0.0154794
778.341	0.0154356
778.419	0.0154174
778.497	0.0153957
778.575	0.0154564
778.654	0.0155460
778.732	0.0154652
778.810	0.0155803
778.888	0.0154428
778.966	0.0155670
779.044	0.0156660
779.122	0.0156253
779.200	0.0155885
779.279	0.0155283
779.357	0.0154568
779.435	0.0154633
779.513	0.0154763
779.591	0.0154964
779.669	0.0155428
779.747	0.0156307
779.825	0.0156601
779.904	0.0154787
779.982	0.0156656
780.060	0.0155276
780.138	0.0154041
780.216	0.0153671
780.294	0.0153735
780.372	0.0154451
780.450	0.0154472
780.529	0.0155538
780.607	0.0154666
780.685	0.0155247
780.763	0.0154582
780.841	0.0154691
780.919	0.0153355
780.997	0.0154634
781.075	0.0154849
781.154	0.0154473
781.232	0.0154343
781.310	0.0155186
781.388	0.0155131
781.466	0.0156934
781.544	0.0155331
781.622	0.0154524
781.700	0.0155495
781.779	0.0153688
781.857	0.0156077
781.935	0.0155029
782.013	0.0154816
782.091	0.0153634
782.169	0.0154474
782.247	0.0156001
782.325	0.0155399
782.404	0.0154899
782.482	0.0154209
782.560	0.0155807
782.638	0.0155873
782.716	0.0155845
782.794	0.0155452
782.872	0.0155278
782.950	0.0155190
783.029	0.0155518
783.107	0.0155829
783.185	0.0155407
783.263	0.0154489
783.341	0.0153435
783.419	0.0154117
783.497	0.0153821
783.575	0.0154031
783.654	0.0154219
783.732	0.0154623
783.810	0.0153887
783.888	0.0154688
783.966	0.0154813
784.044	0.0154008
784.122	0.0155348
784.200	0.0155812
784.279	0.0153651
784.357	0.0154273
784.435	0.0156013
784.513	0.0155063
784.591	0.0156443
784.669	0.0156623
784.747	0.0156278
784.825	0.0154982
784.904	0.0156127
784.982	0.0155284
785.060	0.0155348
785.138	0.0156115
785.216	0.0154887
785.294	0.0155112
785.372	0.0154858
785.450	0.0155205
785.529	0.0154060
785.607	0.0152879
785.685	0.0154551
785.763	0.0155077
785.841	0.0155102
785.919	0.0154068
785.997	0.0153392
786.075	0.0155278
786.154	0.0154033
786.232	0.0154900
786.310	0.0154560
786.388	0.0154321
786.466	0.0154207
786.544	0.0154348
786.622	0.0155506
786.700	0.0155805
786.779	0.0155362
786.857	0.0155350
786.935	0.0154952
787.013	0.0155076
787.091	0.0153994
787.169	0.0154866
787.247	0.0154984
787.325	0.0155142
787.404	0.0156380
787.482	0.0157036
787.560	0.0156289
787.638	0.0156154
787.716	0.0156325
787.794	0.0155778
787.872	0.0155006
787.950	0.0155756
788.029	0.0157562
788.107	0.0156527
788.185	0.0156097
788.263	0.0154708
788.341	0.0154108
788.419	0.0155638
788.497	0.0155849
788.575	0.0154314
788.654	0.0155014
788.732	0.0154895
788.810	0.0154288
788.888	0.0154556
788.966	0.0153172
789.044	0.0154958
789.122	0.0154828
789.200	0.0153331
789.279	0.0154017
789.357	0.0153086
789.435	0.0153270
789.513	0.0152356
789.591	0.0152985
789.669	0.0154552
789.747	0.0154682
789.825	0.0153059
789.904	0.0153072
789.982	0.0152703
790.060	0.0154324
790.138	0.0154914
790.216	0.0154295
790.294	0.0153106
790.372	0.0153545
790.450	0.0153985
790.529	0.0154856
790.607	0.0154654
790.685	0.0154391
790.763	0.0154915
790.841	0.0156155
790.919	0.0154112
790.997	0.0156569
791.075	0.0156348
791.154	0.0155451
791.232	0.0156185
791.310	0.0156990
791.388	0.0157120
791.466	0.0155360
791.544	0.0156603
791.622	0.0156276
791.700	0.0155362
791.779	0.0155694
791.857	0.0154504
791.935	0.0155180
792.013	0.0153597
792.091	0.0154749
792.169	0.0154553
792.247	0.0153927
792.325	0.0155316
792.404	0.0153675
792.482	0.0154316
792.560	0.0155313
792.638	0.0154518
792.716	0.0153267
792.794	0.0153447
792.872	0.0154388
792.950	0.0154415
793.029	0.0155667
793.107	0.0153978
793.185	0.0154903
793.263	0.0155129
793.341	0.0154291
793.419	0.0154802
793.497	0.0155414
793.575	0.0155417
793.654	0.0155634
793.732	0.0156214
793.810	0.0155009
793.888	0.0155295
793.966	0.0155099
794.044	0.0155602
794.122	0.0155070
794.200	0.0153405
794.279	0.0156209
794.357	0.0156856
794.435	0.0155793
794.513	0.0156646
794.591	0.0155614
794.669	0.0154855
794.747	0.0155128
794.825	0.0156050
794.904	0.0154665
794.982	0.0154346
795.060	0.0154754
795.138	0.0154267
795.216	0.0154201
795.294	0.0152900
795.372	0.0152675
795.450	0.0152526
795.529	0.0152449
795.607	0.0153111
795.685	0.0152618
795.763	0.0152100
795.841	0.0151780
795.919	0.0152514
795.997	0.0152782
796.075	0.0152088
796.154	0.0151768
796.232	0.0152716
796.310	0.0151331
796.388	0.0151857
796.466	0.0151436
796.544	0.0153915
796.622	0.0154079
796.700	0.0154141
796.779	0.0154050
796.857	0.0154215
796.935	0.0156079
797.013	0.0156902
797.091	0.0155567
797.169	0.0156440
797.247	0.0157130
797.325	0.0156583
797.404	0.0156525
797.482	0.0157146
797.560	0.0157684
797.638	0.0157455
797.716	0.0155577
797.794	0.0155788
797.872	0.0156089
797.950	0.0155690
798.029	0.0155376
798.107	0.0155943
798.185	0.0154331
798.263	0.0155450
798.341	0.0154509
798.419	0.0153306
798.497	0.0153899
798.575	0.0153822
798.654	0.0153454
798.732	0.0153175
798.810	0.0152300
798.888	0.0153207
798.966	0.0154411
799.044	0.0154350
799.122	0.0154726
799.200	0.0153725
799.279	0.0154334
799.357	0.0153352
799.435	0.0154960
799.513	0.0154866
799.591	0.0155431
799.669	0.0154379
799.747	0.0155495
799.825	0.0155495
799.904	0.0154934
799.982	0.0154999
800.060	0.0157176
800.138	0.0155796
800.216	0.0154066
800.294	0.0154606
800.372	0.0156075
800.450	0.0156020
800.529	0.0155669
800.607	0.0154366
800.685	0.0152746
800.763	0.0154146
800.841	0.0153156
800.919	0.0153436
800.997	0.0154543
801.075	0.0153831
801.154	0.0152219
801.232	0.0152916
801.310	0.0152857
801.388	0.0154269
801.466	0.0153789
801.544	0.0152720
801.622	0.0153113
801.700	0.0152641
801.779	0.0154128
801.857	0.0152663
801.935	0.0153216
802.013	0.0153474
802.091	0.0153839
802.169	0.0153979
802.247	0.0156172
802.325	0.0154885
802.404	0.0155286
802.482	0.0154843
802.560	0.0154916
802.638	0.0155373
802.716	0.0158043
802.794	0.0155103
802.872	0.0155774
802.950	0.0155203
803.029	0.0155901
803.107	0.0154547
803.185	0.0154651
803.263	0.0155264
803.341	0.0154691
803.419	0.0154785
803.497	0.0153991
803.575	0.0154934
803.654	0.0155233
803.732	0.0154008
803.810	0.0154516
803.888	0.0154297
803.966	0.0154217
804.044	0.0154414
804.122	0.0154480
804.200	0.0152707
804.279	0.0154052
804.357	0.0154822
804.435	0.0153287
804.513	0.0152390
804.591	0.0153400
804.669	0.0155635
804.747	0.0155267
804.825	0.0153728
804.904	0.0154175
804.982	0.0154675
805.060	0.0154678
805.138	0.0154116
805.216	0.0156122
805.294	0.0156690
805.372	0.0154700
805.450	0.0154737
805.529	0.0155570
805.607	0.0155574
805.685	0.0156335
805.763	0.0156316
805.841	0.0156509
805.919	0.0155054
805.997	0.0156352
806.075	0.0155725
806.154	0.0153168
806.232	0.0154171
806.310	0.0154346
806.388	0.0153426
806.466	0.0154424
806.544	0.0152031
806.622	0.0151510
806.700	0.0151952
806.779	0.0151002
806.857	0.0151930
806.935	0.0150346
807.013	0.0151528
807.091	0.0151742
807.169	0.0149819
807.247	0.0150154
807.325	0.0150864
807.404	0.0150788
807.482	0.0151968
807.560	0.0151984
807.638	0.0151853
807.716	0.0152622
807.794	0.0152963
807.872	0.0154284
807.950	0.0154790
808.029	0.0157394
808.107	0.0156703
808.185	0.0156962
808.263	0.0158218
808.341	0.0159132
808.419	0.0158910
808.497	0.0159719
808.575	0.0159105
808.654	0.0159579
808.732	0.0160453
808.810	0.0159122
808.888	0.0159451
808.966	0.0158978
809.044	0.0158265
809.122	0.0157746
809.200	0.0157186
809.279	0.0155847
809.357	0.0154582
809.435	0.0155534
809.513	0.0153667
809.591	0.0151096
809.669	0.0151152
809.747	0.0151707
809.825	0.0151026
809.904	0.0150062
809.982	0.0149900
810.060	0.0149649
810.138	0.0150307
810.216	0.0148766
810.294	0.0149130
810.372	0.0149082
810.450	0.0150451
810.529	0.0150864
810.607	0.0150208
810.685	0.0148351
810.763	0.0150396
810.841	0.0151871
810.919	0.0152089
810.997	0.0152995
811.075	0.0153568
811.154	0.0153455
811.232	0.0154812
811.310	0.0153948
811.388	0.0154860
811.466	0.0157432
811.544	0.0156689
811.622	0.0158064
811.700	0.0158241
811.779	0.0158050
811.857	0.0159013
811.935	0.0157997
812.013	0.0157581
812.091	0.0158669
812.169	0.0157697
812.247	0.0157724
812.325	0.0157861
812.404	0.0155647
812.482	0.0156548
812.560	0.0155965
812.638	0.0154179
812.716	0.0154514
812.794	0.0154484
812.872	0.0153447
812.950	0.0153336
813.029	0.0153999
813.107	0.0153565
813.185	0.0153428
813.263	0.0153082
813.341	0.0152883
813.419	0.0152240
813.497	0.0153094
813.575	0.0153956
813.654	0.0152370
813.732	0.0153726
813.810	0.0154304
813.888	0.0154489
813.966	0.0152235
814.044	0.0153833
814.122	0.0155601
814.200	0.0156329
814.279	0.0156544
814.357	0.0157468
814.435	0.0156310
814.513	0.0156474
814.591	0.0157243
814.669	0.0157323
814.747	0.0157403
814.825	0.0155379
814.904	0.0156807
814.982	0.0156063
815.060	0.0155406
815.138	0.0155656
815.216	0.0156002
815.294	0.0154323
815.372	0.0155319
815.450	0.0154649
815.529	0.0154223
815.607	0.0153075
815.685	0.0153201
815.763	0.0153597
815.841	0.0152249
815.919	0.0153040
815.997	0.0152711
816.075	0.0152193
816.154	0.0153471
816.232	0.0153323
816.310	0.0151393
816.388	0.0153486
816.466	0.0154077
816.544	0.0153591
816.622	0.0152581
816.700	0.0152997
816.779	0.0153075
816.857	0.0153690
816.935	0.0152644
817.013	0.0152997
817.091	0.0152944
817.169	0.0153421
817.247	0.0153799
817.325	0.0153751
817.404	0.0153542
817.482	0.0153687
817.560	0.0154961
817.638	0.0154050
817.716	0.0153760
817.794	0.0153536
817.872	0.0153854
817.950	0.0154491
818.029	0.0154809
818.107	0.0153069
818.185	0.0154732
818.263	0.0155109
818.341	0.0155046
818.419	0.0154254
818.497	0.0154698
818.575	0.0155374
818.654	0.0155460
818.732	0.0157188
818.810	0.0157521
818.888	0.0155859
818.966	0.0156513
819.044	0.0156984
819.122	0.0157417
819.200	0.0158477
819.279	0.0157738
819.357	0.0158110
819.435	0.0158131
819.513	0.0156835
819.591	0.0157601
819.669	0.0158655
819.747	0.0157214
819.825	0.0156922
819.904	0.0156981
819.982	0.0155333
820.060	0.0156161
820.138	0.0154957
820.216	0.0156824
820.294	0.0154970
820.372	0.0152683
820.450	0.0152499
820.529	0.0152757
820.607	0.0151043
820.685	0.0150632
820.763	0.0149833
820.841	0.0149226
820.919	0.0150033
820.997	0.0148732
821.075	0.0149558
821.154	0.0149689
821.232	0.0150701
821.310	0.0151244
821.388	0.0151082
821.466	0.0150819
821.544	0.0153107
821.622	0.0152860
821.700	0.0152283
821.779	0.0152101
821.857	0.0152954
821.935	0.0154272
822.013	0.0154256
822.091	0.0155349
822.169	0.0155933
822.247	0.0156026
822.325	0.0155639
822.404	0.0155689
822.482	0.0154958
822.560	0.0155289
822.638	0.0154713
822.716	0.0154108
822.794	0.0154120
822.872	0.0154835
822.950	0.0155177
823.029	0.0153008
823.107	0.0153529
823.185	0.0154166
823.263	0.0154581
823.341	0.0152776
823.419	0.0153374
823.497	0.0153636
823.575	0.0152818
823.654	0.0152377
823.732	0.0153374
823.810	0.0153662
823.888	0.0153199
823.966	0.0154759
824.044	0.0153434
824.122	0.0154544
824.200	0.0156571
824.279	0.0155549
824.357	0.0156908
824.435	0.0157052
824.513	0.0157047
824.591	0.0158257
824.669	0.0160478
824.747	0.0158525
824.825	0.0159657
824.904	0.0162016
824.982	0.0159799
825.060	0.0160233
825.138	0.0160750
825.216	0.0160944
825.294	0.0160296
825.372	0.0159676
825.450	0.0158688
825.529	0.0156757
825.607	0.0156438
825.685	0.0155299
825.763	0.0154612
825.841	0.0153750
825.919	0.0152371
825.997	0.0151431
826.075	0.0150787
826.154	0.0149023
826.232	0.0148559
826.310	0.0146214
826.388	0.0146926
826.466	0.0144897
826.544	0.0145560
826.622	0.0145703
826.700	0.0145137
826.779	0.0145752
826.857	0.0145757
826.935	0.0145438
827.013	0.0147012
827.091	0.0145973
827.169	0.0147514
827.247	0.0148925
827.325	0.0149843
827.404	0.0150832
827.482	0.0150963
827.560	0.0152091
827.638	0.0153721
827.716	0.0154223
827.794	0.0156447
827.872	0.0156229
827.950	0.0158492
828.029	0.0158801
828.107	0.0158724
828.185	0.0160503
828.263	0.0161022
828.341	0.0160531
828.419	0.0160602
828.497	0.0161053
828.575	0.0160173
828.654	0.0161075
828.732	0.0161258
828.810	0.0160337
828.888	0.0161189
828.966	0.0159361
829.044	0.0159682
829.122	0.0158113
829.200	0.0157507
829.279	0.0156987
829.357	0.0156583
829.435	0.0155713
829.513	0.0154970
829.591	0.0153574
829.669	0.0153378
829.747	0.0152988
829.825	0.0152680
829.904	0.0151568
829.982	0.0151721
830.060	0.0152052
830.138	0.0152611
830.216	0.0150929
830.294	0.0151009
830.372	0.0152090
830.450	0.0152733
830.529	0.0151817
830.607	0.0152281
830.685	0.0151730
830.763	0.0152399
830.841	0.0152919
830.919	0.0152026
830.997	0.0153213
831.075	0.0153793
831.154	0.0152643
831.232	0.0154084
831.310	0.0154380
831.388	0.0153636
831.466	0.0152602
831.544	0.0153425
831.622	0.0155459
831.700	0.0155212
831.779	0.0153787
831.857	0.0153436
831.935	0.0153837
832.013	0.0154318
832.091	0.0155344
832.169	0.0154428
832.247	0.0154567
832.325	0.0154175
832.404	0.0154124
832.482	0.0155006
832.560	0.0156621
832.638	0.0155794
832.716	0.0154173
832.794	0.0154138
832.872	0.0155671
832.950	0.0153951
833.029	0.0153565
833.107	0.0155041
833.185	0.0155424
833.263	0.0152593
833.341	0.0152893
833.419	0.0154009
833.497	0.0154176
833.575	0.0154115
833.654	0.0154407
833.732	0.0154732
833.810	0.0154433
833.888	0.0154151
833.966	0.0155474
834.044	0.0154016
834.122	0.0155560
834.200	0.0154722
834.279	0.0154121
834.357	0.0155032
834.435	0.0154714
834.513	0.0155553
834.591	0.0154974
834.669	0.0155429
834.747	0.0156902
834.825	0.0155032
834.904	0.0155270
834.982	0.0156857
835.060	0.0155391
835.138	0.0156018
835.216	0.0155208
835.294	0.0155993
835.372	0.0155202
835.450	0.0154700
835.529	0.0155795
835.607	0.0154525
835.685	0.0153789
835.763	0.0154705
835.841	0.0154449
835.919	0.0155746
835.997	0.0154813
836.075	0.0153873
836.154	0.0154399
836.232	0.0152446
836.310	0.0151802
836.388	0.0152586
836.466	0.0151231
836.544	0.0152139
836.622	0.0153722
836.700	0.0151670
836.779	0.0152881
836.857	0.0153264
836.935	0.0151774
837.013	0.0152842
837.091	0.0152791
837.169	0.0154598
837.247	0.0154989
837.325	0.0155174
837.404	0.0156034
837.482	0.0156096
837.560	0.0156408
837.638	0.0157244
837.716	0.0157683
837.794	0.0158193
837.872	0.0158515
837.950	0.0158405
838.029	0.0158167
838.107	0.0158097
838.185	0.0157317
838.263	0.0157658
838.341	0.0157781
838.419	0.0158907
838.497	0.0157102
838.575	0.0157245
838.654	0.0156708
838.732	0.0155364
838.810	0.0155991
838.888	0.0155025
838.966	0.0155301
839.044	0.0153129
839.122	0.0154070
839.200	0.0153936
839.279	0.0153521
839.357	0.0152525
839.435	0.0151567
839.513	0.0151660
839.591	0.0152041
839.669	0.0151553
839.747	0.0149537
839.825	0.0150179
839.904	0.0150163
839.982	0.0149870
840.060	0.0150970
840.138	0.0151033
840.216	0.0151428
840.294	0.0151669
840.372	0.0152269
840.450	0.0153266
840.529	0.0152875
840.607	0.0154050
840.685	0.0155243
840.763	0.0155966
840.841	0.0155023
840.919	0.0156728
840.997	0.0157014
841.075	0.0157397
841.154	0.0157970
841.232	0.0159003
841.310	0.0155649
841.388	0.0157348
841.466	0.0157423
841.544	0.0158140
841.622	0.0157823
841.700	0.0156615
841.779	0.0156918
841.857	0.0158144
841.935	0.0156785
842.013	0.0157368
842.091	0.0155190
842.169	0.0154063
842.247	0.0154796
842.325	0.0155895
842.404	0.0154236
842.482	0.0152985
842.560	0.0154367
842.638	0.0152232
842.716	0.0152125
842.794	0.0152106
842.872	0.0151022
842.950	0.0151038
843.029	0.0151678
843.107	0.0150601
843.185	0.0151698
843.263	0.0151669
843.341	0.0150477
843.419	0.0152337
843.497	0.0152220
843.575	0.0152306
843.654	0.0152879
843.732	0.0152724
843.810	0.0153710
843.888	0.0153099
843.966	0.0154372
844.044	0.0154761
844.122	0.0154841
844.200	0.0154384
844.279	0.0154843
844.357	0.0155830
844.435	0.0155100
844.513	0.0155585
844.591	0.0154747
844.669	0.0155757
844.747	0.0155386
844.825	0.0156195
844.904	0.0154478
844.982	0.0155081
845.060	0.0156210
845.138	0.0156438
845.216	0.0156712
845.294	0.0155930
845.372	0.0155368
845.450	0.0156092
845.529	0.0156887
845.607	0.0156474
845.685	0.0156954
845.763	0.0156401
845.841	0.0156016
845.919	0.0156271
845.997	0.0157333
846.075	0.0156522
846.154	0.0156294
846.232	0.0157026
846.310	0.0156787
846.388	0.0155989
846.466	0.0155780
846.544	0.0155584
846.622	0.0154364
846.700	0.0154469
846.779	0.0154097
846.857	0.0153786
846.935	0.0154781
847.013	0.0152977
847.091	0.0152239
847.169	0.0153059
847.247	0.0152560
847.325	0.0152059
847.404	0.0153201
847.482	0.0152408
847.560	0.0152652
847.638	0.0151999
847.716	0.0151447
847.794	0.0151001
847.872	0.0152177
847.950	0.0150697
848.029	0.0151324
848.107	0.0151894
848.185	0.0150899
848.263	0.0152463
848.341	0.0151946
848.419	0.0150782
848.497	0.0150459
848.575	0.0152312
848.654	0.0152201
848.732	0.0152025
848.810	0.0150979
848.888	0.0150822
848.966	0.0151812
849.044	0.0151256
849.122	0.0151518
849.200	0.0152731
849.279	0.0152895
849.357	0.0153513
849.435	0.0153074
849.513	0.0153716
849.591	0.0154121
849.669	0.0152747
849.747	0.0152133
849.825	0.0153324
849.904	0.0155204
849.982	0.0154748
850.060	0.0155118
850.138	0.0156120
850.216	0.0157981
850.294	0.0156870
850.372	0.0156976
850.450	0.0159264
850.529	0.0159314
850.607	0.0160299
850.685	0.0160290
850.763	0.0161222
850.841	0.0160788
850.919	0.0162363
850.997	0.0161882
851.075	0.0161140
851.154	0.0162235
851.232	0.0162267
851.310	0.0160755
851.388	0.0160188
851.466	0.0160467
851.544	0.0159275
851.622	0.0159963
851.700	0.0159222
851.779	0.0159272
851.857	0.0157627
851.935	0.0156790
852.013	0.0156022
852.091	0.0154863
852.169	0.0154593
852.247	0.0155144
852.325	0.0152251
852.404	0.0153573
852.482	0.0154102
852.560	0.0152005
852.638	0.0151224
852.716	0.0150407
852.794	0.0151348
852.872	0.0152073
852.950	0.0150338
853.029	0.0150621
853.107	0.0150433
853.185	0.0148575
853.263	0.0149345
853.341	0.0148294
853.419	0.0148239
853.497	0.0147894
853.575	0.0147216
853.654	0.0147220
853.732	0.0148904
853.810	0.0148019
853.888	0.0148447
853.966	0.0148412
854.044	0.0148631
854.122	0.0148812
854.200	0.0149307
854.279	0.0149342
854.357	0.0150576
854.435	0.0151519
854.513	0.0152930
854.591	0.0151080
854.669	0.0152932
854.747	0.0154615
854.825	0.0154342
854.904	0.0155190
854.982	0.0156560
855.060	0.0157088
855.138	0.0157021
855.216	0.0157632
855.294	0.0157500
855.372	0.0158312
855.450	0.0158382
855.529	0.0159004
855.607	0.0159213
855.685	0.0158796
855.763	0.0159512
855.841	0.0158194
855.919	0.0159614
855.997	0.0158390
856.075	0.0158456
856.154	0.0158263
856.232	0.0158496
856.310	0.0157904
856.388	0.0158144
856.466	0.0156973
856.544	0.0157851
856.622	0.0157839
856.700	0.0156504
856.779	0.0155446
856.857	0.0157879
856.935	0.0158276
857.013	0.0156503
857.091	0.0156991
857.169	0.0156414
857.247	0.0156514
857.325	0.0156046
857.404	0.0154928
857.482	0.0154569
857.560	0.0154790
857.638	0.0155883
857.716	0.0155349
857.794	0.0154408
857.872	0.0155303
857.950	0.0154801
858.029	0.0155074
858.107	0.0154059
858.185	0.0154299
858.263	0.0154790
858.341	0.0153536
858.419	0.0153017
858.497	0.0154169
858.575	0.0154393
858.654	0.0153532
858.732	0.0154348
858.810	0.0152753
858.888	0.0154462
858.966	0.0153771
859.044	0.0153290
859.122	0.0155080
859.200	0.0152632
859.279	0.0152882
859.357	0.0153434
859.435	0.0153554
859.513	0.0153221
859.591	0.0152683
859.669	0.0152042
859.747	0.0153202
859.825	0.0152692
859.904	0.0151865
859.982	0.0151462
860.060	0.0151430
860.138	0.0152715
860.216	0.0151239
860.294	0.0150347
860.372	0.0148975
860.450	0.0151091
860.529	0.0151691
860.607	0.0151524
860.685	0.0151089
860.763	0.0151045
860.841	0.0150968
860.919	0.0152499
860.997	0.0153513
861.075	0.0152511
861.154	0.0152086
861.232	0.0152849
861.310	0.0154451
861.388	0.0154876
861.466	0.0155695
861.544	0.0155298
861.622	0.0155796
861.700	0.0155222
861.779	0.0156330
861.857	0.0158035
861.935	0.0158996
862.013	0.0157010
862.091	0.0157571
862.169	0.0157846
862.247	0.0158732
862.325	0.0159133
862.404	0.0158745
862.482	0.0157972
862.560	0.0158109
862.638	0.0157800
862.716	0.0157701
862.794	0.0156960
862.872	0.0156792
862.950	0.0157331
863.029	0.0155849
863.107	0.0156836
863.185	0.0156059
863.263	0.0155997
863.341	0.0155270
863.419	0.0155093
863.497	0.0153442
863.575	0.0154496
863.654	0.0154224
863.732	0.0155244
863.810	0.0153653
863.888	0.0153939
863.966	0.0154400
864.044	0.0154005
864.122	0.0153398
864.200	0.0153562
864.279	0.0153015
864.357	0.0154406
864.435	0.0154100
864.513	0.0154900
864.591	0.0154848
864.669	0.0153213
864.747	0.0153792
864.825	0.0154404
864.904	0.0155618
864.982	0.0156464
865.060	0.0155193
865.138	0.0155292
865.216	0.0154041
865.294	0.0153638
865.372	0.0155158
865.450	0.0156630
865.529	0.0156678
865.607	0.0155263
865.685	0.0156207
865.763	0.0156664
865.841	0.0155260
865.919	0.0155846
865.997	0.0156581
866.075	0.0157312
866.154	0.0155528
866.232	0.0156676
866.310	0.0154979
866.388	0.0155263
866.466	0.0156224
866.544	0.0154485
866.622	0.0155112
866.700	0.0155001
866.779	0.0154917
866.857	0.0154615
866.935	0.0154131
867.013	0.0155122
867.091	0.0154892
867.169	0.0153686
867.247	0.0153791
867.325	0.0154466
867.404	0.0154510
867.482	0.0152633
867.560	0.0152045
867.638	0.0153370
867.716	0.0152810
867.794	0.0153118
867.872	0.0152069
867.950	0.0152394
868.029	0.0153716
868.107	0.0152110
868.185	0.0151389
868.263	0.0152518
868.341	0.0153640
868.419	0.0151990
868.497	0.0153964
868.575	0.0152900
868.654	0.0153777
868.732	0.0153716
868.810	0.0154565
868.888	0.0154324
868.966	0.0154701
869.044	0.0156472
869.122	0.0154852
869.200	0.0156091
869.279	0.0156108
869.357	0.0155078
869.435	0.0156096
869.513	0.0155773
869.591	0.0156587
869.669	0.0155841
869.747	0.0156611
869.825	0.0156477
869.904	0.0156678
869.982	0.0156846
870.060	0.0157224
870.138	0.0156682
870.216	0.0156109
870.294	0.0155606
870.372	0.0156017
870.450	0.0156236
870.529	0.0156121
870.607	0.0156675
870.685	0.0156330
870.763	0.0155003
870.841	0.0156248
870.919	0.0154972
870.997	0.0155902
871.075	0.0156190
871.154	0.0155195
871.232	0.0154612
871.310	0.0156977
871.388	0.0157952
871.466	0.0157326
871.544	0.0156944
871.622	0.0156424
871.700	0.0157220
871.779	0.0156844
871.857	0.0157802
871.935	0.0157066
872.013	0.0155840
872.091	0.0156056
872.169	0.0156963
872.247	0.0155257
872.325	0.0154951
872.404	0.0155580
872.482	0.0154591
872.560	0.0155710
872.638	0.0155222
872.716	0.0153248
872.794	0.0154878
872.872	0.0156104
872.950	0.0153889
873.029	0.0153795
873.107	0.0152863
873.185	0.0153139
873.263	0.0152709
873.341	0.0154462
873.419	0.0153365
873.497	0.0151576
873.575	0.0152178
873.654	0.0153407
873.732	0.0152544
873.810	0.0152677
873.888	0.0152953
873.966	0.0151790
874.044	0.0153409
874.122	0.0151759
874.200	0.0152191
874.279	0.0152692
874.357	0.0152895
874.435	0.0153004
874.513	0.0152920
874.591	0.0153099
874.669	0.0152177
874.747	0.0153841
874.825	0.0154746
874.904	0.0154463
874.982	0.0155097
875.060	0.0155218
875.138	0.0154988
875.216	0.0156625
875.294	0.0156982
875.372	0.0156446
875.450	0.0155113
875.529	0.0155697
875.607	0.0156154
875.685	0.0156210
875.763	0.0158117
875.841	0.0158608
875.919	0.0158102
875.997	0.0158506
876.075	0.0157955
876.154	0.0157561
876.232	0.0157595
876.310	0.0157845
876.388	0.0158250
876.466	0.0157023
876.544	0.0158186
876.622	0.0157177
876.700	0.0156985
876.779	0.0157388
876.857	0.0156564
876.935	0.0155831
877.013	0.0155844
877.091	0.0155570
877.169	0.0155679
877.247	0.0155719
877.325	0.0152052
877.404	0.0154078
877.482	0.0153808
877.560	0.0153478
877.638	0.0153325
877.716	0.0152866
877.794	0.0153794
877.872	0.0152962
877.950	0.0153145
878.029	0.0152991
878.107	0.0152364
878.185	0.0152739
878.263	0.0152270
878.341	0.0152106
878.419	0.0152440
878.497	0.0153227
878.575	0.0154118
878.654	0.0152729
878.732	0.0151691
878.810	0.0152213
878.888	0.0152226
878.966	0.0153954
879.044	0.0153793
879.122	0.0153693
879.200	0.0154292
879.279	0.0155474
879.357	0.0153280
879.435	0.0153349
879.513	0.0154954
879.591	0.0155553
879.669	0.0154993
879.747	0.0155066
879.825	0.0155941
879.904	0.0153683
879.982	0.0154490
880.060	0.0154444
880.138	0.0154351
880.216	0.0154259
880.294	0.0153954
880.372	0.0153879
880.450	0.0155581
880.529	0.0153864
880.607	0.0155090
880.685	0.0155055
880.763	0.0153577
880.841	0.0154750
880.919	0.0154275
880.997	0.0154408
881.075	0.0154389
881.154	0.0153925
881.232	0.0154523
881.310	0.0154971
881.388	0.0155935
881.466	0.0155672
881.544	0.0156117
881.622	0.0156618
881.700	0.0155801
881.779	0.0156798
881.857	0.0154082
881.935	0.0157177
882.013	0.0157113
882.091	0.0155096
882.169	0.0155275
882.247	0.0155704
882.325	0.0156223
882.404	0.0155589
882.482	0.0155920
882.560	0.0156188
882.638	0.0155055
882.716	0.0154768
882.794	0.0156261
882.872	0.0157034
882.950	0.0156000
883.029	0.0157014
883.107	0.0157642
883.185	0.0156847
883.263	0.0157761
883.341	0.0156401
883.419	0.0156480
883.497	0.0156344
883.575	0.0155860
883.654	0.0155592
883.732	0.0155251
883.810	0.0154984
883.888	0.0153477
883.966	0.0153177
884.044	0.0152876
884.122	0.0152374
884.200	0.0152077
884.279	0.0149744
884.357	0.0150563
884.435	0.0151318
884.513	0.0150650
884.591	0.0149173
884.669	0.0149110
884.747	0.0150283
884.825	0.0149223
884.904	0.0150276
884.982	0.0150465
885.060	0.0151391
885.138	0.0151643
885.216	0.0152459
885.294	0.0152459
885.372	0.0151565
885.450	0.0153968
885.529	0.0152920
885.607	0.0152945
885.685	0.0152738
885.763	0.0152765
885.841	0.0152924
885.919	0.0153397
885.997	0.0153392
886.075	0.0154658
886.154	0.0155665
886.232	0.0154515
886.310	0.0154189
886.388	0.0154623
886.466	0.0153402
886.544	0.0155173
886.622	0.0154989
886.700	0.0154430
886.779	0.0156512
886.857	0.0156144
886.935	0.0157228
887.013	0.0155357
887.091	0.0158552
887.169	0.0159658
887.247	0.0159872
887.325	0.0158524
887.404	0.0157854
887.482	0.0158374
887.560	0.0159389
887.638	0.0158347
887.716	0.0159572
887.794	0.0159451
887.872	0.0158800
887.950	0.0159160
888.029	0.0158587
888.107	0.0158011
888.185	0.0157533
888.263	0.0156853
888.341	0.0157651
888.419	0.0156998
888.497	0.0156099
888.575	0.0154295
888.654	0.0154032
888.732	0.0153874
888.810	0.0153543
888.888	0.0154269
888.966	0.0153881
889.044	0.0154935
889.122	0.0153447
889.200	0.0154749
889.279	0.0154220
889.357	0.0153325
889.435	0.0153336
889.513	0.0152951
889.591	0.0152932
889.669	0.0152843
889.747	0.0151985
889.825	0.0151167
889.904	0.0151832
889.982	0.0152466
890.060	0.0152641
890.138	0.0152959
890.216	0.0151393
890.294	0.0152588
890.372	0.0151824
890.450	0.0152306
890.529	0.0152888
890.607	0.0153368
890.685	0.0152711
890.763	0.0152869
890.841	0.0154257
890.919	0.0154430
890.997	0.0153969
891.075	0.0154788
891.154	0.0154750
891.232	0.0155551
891.310	0.0155720
891.388	0.0155595
891.466	0.0155296
891.544	0.0155115
891.622	0.0155480
891.700	0.0156432
891.779	0.0155701
891.857	0.0155408
891.935	0.0155085
892.013	0.0156605
892.091	0.0157333
892.169	0.0156398
892.247	0.0155822
892.325	0.0156059
892.404	0.0155914
892.482	0.0155646
892.560	0.0155862
892.638	0.0156723
892.716	0.0155509
892.794	0.0155302
892.872	0.0156554
892.950	0.0155376
893.029	0.0156199
893.107	0.0155846
893.185	0.0153380
893.263	0.0153221
893.341	0.0155384
893.419	0.0154613
893.497	0.0154650
893.575	0.0153186
893.654	0.0152917
893.732	0.0153860
893.810	0.0153474
893.888	0.0153182
893.966	0.0152672
894.044	0.0151463
894.122	0.0154398
894.200	0.0155287
894.279	0.0154361
894.357	0.0154391
894.435	0.0153955
894.513	0.0152445
894.591	0.0154259
894.669	0.0155589
894.747	0.0154547
894.825	0.0154913
894.904	0.0155654
894.982	0.0155486
895.060	0.0157782
895.138	0.0154797
895.216	0.0155274
895.294	0.0155299
895.372	0.0156455
895.450	0.0154797
895.529	0.0154829
895.607	0.0156065
895.685	0.0155398
895.763	0.0155918
895.841	0.0155548
895.919	0.0156154
895.997	0.0157268
896.075	0.0155444
896.154	0.0154910
896.232	0.0154546
896.310	0.0155951
896.388	0.0155673
896.466	0.0155241
896.544	0.0154907
896.622	0.0154003
896.700	0.0154384
896.779	0.0155215
896.857	0.0154675
896.935	0.0154470
897.013	0.0153203
897.091	0.0154395
897.169	0.0155453
897.247	0.0153738
897.325	0.0155367
897.404	0.0154311
897.482	0.0155627
897.560	0.0155029
897.638	0.0155054
897.716	0.0154117
897.794	0.0152300
897.872	0.0155145
897.950	0.0154025
898.029	0.0153058
898.107	0.0154456
898.185	0.0155245
898.263	0.0153808
898.341	0.0153092
898.419	0.0152505
898.497	0.0154126
898.575	0.0154571
898.654	0.0153716
898.732	0.0154162
898.810	0.0154354
898.888	0.0153268
898.966	0.0154522
899.044	0.0153401
899.122	0.0153422
899.200	0.0153475
899.279	0.0154435
899.357	0.0153159
899.435	0.0154934
899.513	0.0153540
899.591	0.0153630
899.669	0.0152905
899.747	0.0153335
899.825	0.0151588
899.904	0.0152688
899.982	0.0153875
900.060	0.0153133
900.138	0.0153090
900.216	0.0153625
900.294	0.0152380
900.372	0.0153046
900.450	0.0153066
900.529	0.0153860
900.607	0.0153403
900.685	0.0153983
900.763	0.0153891
900.841	0.0154372
900.919	0.0153833
900.997	0.0152979
901.075	0.0153657
901.154	0.0154812
901.232	0.0154929
901.310	0.0155508
901.388	0.0155626
901.466	0.0155095
901.544	0.0154954
901.622	0.0156249
901.700	0.0156225
901.779	0.0155614
901.857	0.0156406
901.935	0.0156734
902.013	0.0155764
902.091	0.0157157
902.169	0.0156591
902.247	0.0156222
902.325	0.0158875
902.404	0.0156758
902.482	0.0157077
902.560	0.0155944
902.638	0.0157074
902.716	0.0156156
902.794	0.0157065
902.872	0.0156461
902.950	0.0155968
903.029	0.0155583
903.107	0.0155736
903.185	0.0154604
903.263	0.0153931
903.341	0.0154637
903.419	0.0154256
903.497	0.0153402
903.575	0.0154198
903.654	0.0153414
903.732	0.0153143
903.810	0.0153653
903.888	0.0154244
903.966	0.0152917
904.044	0.0153059
904.122	0.0153468
904.200	0.0152027
904.279	0.0153454
904.357	0.0153859
904.435	0.0151978
904.513	0.0151710
904.591	0.0152306
904.669	0.0153015
904.747	0.0152847
904.825	0.0152832
904.904	0.0153931
904.982	0.0153322
905.060	0.0155175
905.138	0.0153576
905.216	0.0154089
905.294	0.0154797
905.372	0.0154713
905.450	0.0154817
905.529	0.0155457
905.607	0.0154792
905.685	0.0153887
905.763	0.0155415
905.841	0.0157347
905.919	0.0156404
905.997	0.0156164
906.075	0.0155462
906.154	0.0154887
906.232	0.0155370
906.310	0.0153817
906.388	0.0154697
906.466	0.0154483
906.544	0.0154752
906.622	0.0153897
906.700	0.0154292
906.779	0.0152364
906.857	0.0154723
906.935	0.0153401
907.013	0.0154099
907.091	0.0153255
907.169	0.0153117
907.247	0.0153476
907.325	0.0153865
907.404	0.0154475
907.482	0.0153681
907.560	0.0152906
907.638	0.0154240
907.716	0.0153400
907.794	0.0153796
907.872	0.0152367
907.950	0.0153845
908.029	0.0155195
908.107	0.0154196
908.185	0.0154215
908.263	0.0154465
908.341	0.0155040
908.419	0.0154015
908.497	0.0154123
908.575	0.0154980
908.654	0.0153654
908.732	0.0154557
908.810	0.0155199
908.888	0.0154989
908.966	0.0154156
909.044	0.0154961
909.122	0.0156138
909.200	0.0155097
909.279	0.0156355
909.357	0.0154494
909.435	0.0155701
909.513	0.0153443
909.591	0.0155042
909.669	0.0156583
909.747	0.0155853
909.825	0.0155289
909.904	0.0156843
909.982	0.0157461
910.060	0.0154817
910.138	0.0155457
910.216	0.0155716
910.294	0.0155434
910.372	0.0155983
910.450	0.0155943
910.529	0.0156655
910.607	0.0155482
910.685	0.0155635
910.763	0.0155169
910.841	0.0155407
910.919	0.0156228
910.997	0.0155891
911.075	0.0154871
911.154	0.0153973
911.232	0.0155859
911.310	0.0154093
911.388	0.0154180
911.466	0.0154945
911.544	0.0154147
911.622	0.0155313
911.700	0.0154889
911.779	0.0153751
911.857	0.0154276
911.935	0.0154592
912.013	0.0152570
912.091	0.0151695
912.169	0.0152245
912.247	0.0153373
912.325	0.0151906
912.404	0.0151335
912.482	0.0152500
912.560	0.0152863
912.638	0.0153438
912.716	0.0152578
912.794	0.0152299
912.872	0.0153302
912.950	0.0152531
913.029	0.0152746
913.107	0.0152345
913.185	0.0151480
913.263	0.0154031
913.341	0.0152515
913.419	0.0152963
913.497	0.0153613
913.575	0.0152162
913.654	0.0154247
913.732	0.0152456
913.810	0.0153594
913.888	0.0153042
913.966	0.0153479
914.044	0.0153421
914.122	0.0154366
914.200	0.0154823
914.279	0.0154846
914.357	0.0154565
914.435	0.0155128
914.513	0.0154910
914.591	0.0154961
914.669	0.0155394
914.747	0.0155214
914.825	0.0157246
914.904	0.0155449
914.982	0.0155032
915.060	0.0156202
915.138	0.0156281
915.216	0.0156219
915.294	0.0155123
915.372	0.0154959
915.450	0.0155560
915.529	0.0156186
915.607	0.0155189
915.685	0.0153542
915.763	0.0152599
915.841	0.0155151
915.919	0.0154831
915.997	0.0155310
916.075	0.0153549
916.154	0.0153386
916.232	0.0153768
916.310	0.0154198
916.388	0.0153536
916.466	0.0153213
916.544	0.0154830
916.622	0.0154740
916.700	0.0152850
916.779	0.0153477
916.857	0.0152943
916.935	0.0153709
917.013	0.0154333
917.091	0.0155180
917.169	0.0154250
917.247	0.0154413
917.325	0.0155250
917.404	0.0153645
917.482	0.0154947
917.560	0.0155126
917.638	0.0155844
917.716	0.0154971
917.794	0.0155028
917.872	0.0155577
917.950	0.0154206
918.029	0.0154193
918.107	0.0154424
918.185	0.0154127
918.263	0.0154410
918.341	0.0156416
918.419	0.0154445
918.497	0.0153048
918.575	0.0155309
918.654	0.0155391
918.732	0.0154541
918.810	0.0154742
918.888	0.0155089
918.966	0.0152998
919.044	0.0154678
919.122	0.0154674
919.200	0.0155402
919.279	0.0155032
919.357	0.0154397
919.435	0.0154035
919.513	0.0154921
919.591	0.0155218
919.669	0.0155521
919.747	0.0154523
919.825	0.0154182
919.904	0.0154766
