05/20/2022	20:57:08	Ver.	4.1	UNKNOWN
Optical Delay	599.981738	Delta X		0.078125	Sweeps	1	Scan Rate	0/0
Coordinates	Axis 1	NaN	Axis 2	NaN	Axis 3	NaN	Axis 4	NaN	Axis 5	NaN	Axis 6	0.000000
TX Power	0.000000	RX Power	0.000000

599.982	0.0151693
600.060	0.0152547
600.138	0.0151866
600.216	0.0150836
600.294	0.0150935
600.372	0.0152494
600.450	0.0150835
600.529	0.0152504
600.607	0.0150819
600.685	0.0151241
600.763	0.0152823
600.841	0.0152373
600.919	0.0151328
600.997	0.0151675
601.075	0.0152784
601.154	0.0151743
601.232	0.0151841
601.310	0.0150616
601.388	0.0152152
601.466	0.0151702
601.544	0.0151199
601.622	0.0152460
601.700	0.0150117
601.779	0.0150188
601.857	0.0151772
601.935	0.0151579
602.013	0.0151276
602.091	0.0150278
602.169	0.0150295
602.247	0.0152338
602.325	0.0152168
602.404	0.0151993
602.482	0.0150519
602.560	0.0150694
602.638	0.0150646
602.716	0.0150896
602.794	0.0151755
602.872	0.0152231
602.950	0.0150954
603.029	0.0151064
603.107	0.0151768
603.185	0.0152146
603.263	0.0150748
603.341	0.0150565
603.419	0.0150712
603.497	0.0152386
603.575	0.0151237
603.654	0.0150427
603.732	0.0151435
603.810	0.0150581
603.888	0.0151458
603.966	0.0151442
604.044	0.0150896
604.122	0.0150958
604.200	0.0150470
604.279	0.0151796
604.357	0.0152280
604.435	0.0151422
604.513	0.0151217
604.591	0.0149875
604.669	0.0152055
604.747	0.0151148
604.825	0.0150398
604.904	0.0149317
604.982	0.0152324
605.060	0.0151157
605.138	0.0152416
605.216	0.0151809
605.294	0.0152737
605.372	0.0151665
605.450	0.0149828
605.529	0.0150888
605.607	0.0151629
605.685	0.0150815
605.763	0.0150755
605.841	0.0151337
605.919	0.0150682
605.997	0.0150885
606.075	0.0150699
606.154	0.0150015
606.232	0.0151414
606.310	0.0150820
606.388	0.0150551
606.466	0.0149682
606.544	0.0151419
606.622	0.0151958
606.700	0.0150714
606.779	0.0151472
606.857	0.0149579
606.935	0.0151463
607.013	0.0152376
607.091	0.0151437
607.169	0.0151130
607.247	0.0152872
607.325	0.0150968
607.404	0.0152515
607.482	0.0150358
607.560	0.0151665
607.638	0.0151783
607.716	0.0152844
607.794	0.0151722
607.872	0.0151523
607.950	0.0151865
608.029	0.0151002
608.107	0.0150873
608.185	0.0151192
608.263	0.0151735
608.341	0.0151984
608.419	0.0152284
608.497	0.0150171
608.575	0.0151014
608.654	0.0150797
608.732	0.0152052
608.810	0.0152599
608.888	0.0151904
608.966	0.0150655
609.044	0.0151384
609.122	0.0151938
609.200	0.0152189
609.279	0.0151260
609.357	0.0152595
609.435	0.0153046
609.513	0.0150284
609.591	0.0151816
609.669	0.0152336
609.747	0.0151574
609.825	0.0151334
609.904	0.0151156
609.982	0.0151608
610.060	0.0152437
610.138	0.0152532
610.216	0.0151606
610.294	0.0152058
610.372	0.0153320
610.450	0.0152951
610.529	0.0151908
610.607	0.0152286
610.685	0.0150965
610.763	0.0151764
610.841	0.0151805
610.919	0.0151316
610.997	0.0150547
611.075	0.0150761
611.154	0.0152813
611.232	0.0151842
611.310	0.0152362
611.388	0.0152379
611.466	0.0151968
611.544	0.0151160
611.622	0.0152585
611.700	0.0152444
611.779	0.0150621
611.857	0.0149960
611.935	0.0152135
612.013	0.0151937
612.091	0.0151871
612.169	0.0152496
612.247	0.0151543
612.325	0.0152544
612.404	0.0152211
612.482	0.0150571
612.560	0.0152480
612.638	0.0152160
612.716	0.0152916
612.794	0.0151601
612.872	0.0150681
612.950	0.0152239
613.029	0.0151172
613.107	0.0150814
613.185	0.0152802
613.263	0.0152138
613.341	0.0151116
613.419	0.0151694
613.497	0.0151826
613.575	0.0151443
613.654	0.0150973
613.732	0.0151064
613.810	0.0152085
613.888	0.0152130
613.966	0.0151955
614.044	0.0152304
614.122	0.0150330
614.200	0.0152256
614.279	0.0150765
614.357	0.0151088
614.435	0.0152291
614.513	0.0151525
614.591	0.0151519
614.669	0.0151221
614.747	0.0151799
614.825	0.0151437
614.904	0.0151041
614.982	0.0151385
615.060	0.0153079
615.138	0.0150176
615.216	0.0150490
615.294	0.0151923
615.372	0.0152797
615.450	0.0150478
615.529	0.0151545
615.607	0.0151819
615.685	0.0150793
615.763	0.0152483
615.841	0.0151483
615.919	0.0151232
615.997	0.0152428
616.075	0.0151051
616.154	0.0151452
616.232	0.0151291
616.310	0.0150653
616.388	0.0151555
616.466	0.0151081
616.544	0.0151448
616.622	0.0150716
616.700	0.0151638
616.779	0.0150066
616.857	0.0151567
616.935	0.0151115
617.013	0.0150404
617.091	0.0151502
617.169	0.0151375
617.247	0.0151202
617.325	0.0150976
617.404	0.0152068
617.482	0.0151411
617.560	0.0150978
617.638	0.0150201
617.716	0.0152165
617.794	0.0150977
617.872	0.0151956
617.950	0.0152241
618.029	0.0151902
618.107	0.0152991
618.185	0.0151828
618.263	0.0150905
618.341	0.0151045
618.419	0.0151751
618.497	0.0151626
618.575	0.0151160
618.654	0.0152073
618.732	0.0153086
618.810	0.0152068
618.888	0.0152076
618.966	0.0150370
619.044	0.0151562
619.122	0.0152673
619.200	0.0152810
619.279	0.0153064
619.357	0.0151381
619.435	0.0151762
619.513	0.0150340
619.591	0.0151593
619.669	0.0151665
619.747	0.0151645
619.825	0.0151863
619.904	0.0151491
619.982	0.0150741
620.060	0.0151866
620.138	0.0151880
620.216	0.0151721
620.294	0.0152040
620.372	0.0151199
620.450	0.0151617
620.529	0.0151531
620.607	0.0151285
620.685	0.0151756
620.763	0.0151083
620.841	0.0152446
620.919	0.0153078
620.997	0.0151703
621.075	0.0151076
621.154	0.0152435
621.232	0.0152016
621.310	0.0152107
621.388	0.0153043
621.466	0.0151709
621.544	0.0151574
621.622	0.0151815
621.700	0.0152334
621.779	0.0151246
621.857	0.0151320
621.935	0.0150713
622.013	0.0151051
622.091	0.0151718
622.169	0.0151215
622.247	0.0152405
622.325	0.0152161
622.404	0.0151495
622.482	0.0152092
622.560	0.0151237
622.638	0.0153002
622.716	0.0151858
622.794	0.0151640
622.872	0.0151075
622.950	0.0152213
623.029	0.0151469
623.107	0.0151170
623.185	0.0152666
623.263	0.0151546
623.341	0.0151109
623.419	0.0150940
623.497	0.0152676
623.575	0.0152023
623.654	0.0151646
623.732	0.0151366
623.810	0.0151913
623.888	0.0152772
623.966	0.0152626
624.044	0.0150908
624.122	0.0151292
624.200	0.0151806
624.279	0.0151517
624.357	0.0151852
624.435	0.0151822
624.513	0.0150677
624.591	0.0151445
624.669	0.0151105
624.747	0.0150920
624.825	0.0151076
624.904	0.0152249
624.982	0.0151130
625.060	0.0152878
625.138	0.0151073
625.216	0.0153394
625.294	0.0151928
625.372	0.0151157
625.450	0.0152420
625.529	0.0152177
625.607	0.0150262
625.685	0.0150980
625.763	0.0150787
625.841	0.0151614
625.919	0.0151434
625.997	0.0150574
626.075	0.0151903
626.154	0.0151109
626.232	0.0150996
626.310	0.0151534
626.388	0.0151194
626.466	0.0151683
626.544	0.0151626
626.622	0.0150202
626.700	0.0151688
626.779	0.0150969
626.857	0.0152433
626.935	0.0152898
627.013	0.0151959
627.091	0.0151707
627.169	0.0151848
627.247	0.0152164
627.325	0.0151185
627.404	0.0151211
627.482	0.0153059
627.560	0.0150690
627.638	0.0152336
627.716	0.0151131
627.794	0.0150900
627.872	0.0150399
627.950	0.0150448
628.029	0.0150244
628.107	0.0151809
628.185	0.0151325
628.263	0.0151453
628.341	0.0151517
628.419	0.0152573
628.497	0.0151507
628.575	0.0152191
628.654	0.0152116
628.732	0.0150813
628.810	0.0151471
628.888	0.0151271
628.966	0.0151142
629.044	0.0151020
629.122	0.0150953
629.200	0.0151311
629.279	0.0152620
629.357	0.0151360
629.435	0.0152490
629.513	0.0152590
629.591	0.0152199
629.669	0.0150731
629.747	0.0151533
629.825	0.0152557
629.904	0.0152332
629.982	0.0150186
630.060	0.0152252
630.138	0.0152183
630.216	0.0152435
630.294	0.0151413
630.372	0.0153397
630.450	0.0151810
630.529	0.0151805
630.607	0.0151596
630.685	0.0151197
630.763	0.0152290
630.841	0.0151064
630.919	0.0153183
630.997	0.0151153
631.075	0.0151594
631.154	0.0152239
631.232	0.0152191
631.310	0.0152103
631.388	0.0151365
631.466	0.0150781
631.544	0.0152569
631.622	0.0152233
631.700	0.0152183
631.779	0.0151557
631.857	0.0150736
631.935	0.0152124
632.013	0.0152832
632.091	0.0151234
632.169	0.0150831
632.247	0.0151683
632.325	0.0151752
632.404	0.0152729
632.482	0.0152723
632.560	0.0152019
632.638	0.0149166
632.716	0.0152099
632.794	0.0151725
632.872	0.0150603
632.950	0.0150160
633.029	0.0151739
633.107	0.0151579
633.185	0.0149628
633.263	0.0151623
633.341	0.0151917
633.419	0.0151456
633.497	0.0152590
633.575	0.0151273
633.654	0.0151904
633.732	0.0152280
633.810	0.0152028
633.888	0.0151121
633.966	0.0151575
634.044	0.0152223
634.122	0.0151787
634.200	0.0152046
634.279	0.0150588
634.357	0.0151438
634.435	0.0152430
634.513	0.0152258
634.591	0.0151018
634.669	0.0151842
634.747	0.0152216
634.825	0.0150963
634.904	0.0153514
634.982	0.0151028
635.060	0.0151579
635.138	0.0151305
635.216	0.0151730
635.294	0.0152021
635.372	0.0151342
635.450	0.0151963
635.529	0.0150964
635.607	0.0151355
635.685	0.0153232
635.763	0.0150720
635.841	0.0151332
635.919	0.0152514
635.997	0.0152199
636.075	0.0152996
636.154	0.0151527
636.232	0.0152599
636.310	0.0151724
636.388	0.0153765
636.466	0.0152128
636.544	0.0150670
636.622	0.0151902
636.700	0.0151003
636.779	0.0151038
636.857	0.0151137
636.935	0.0150869
637.013	0.0152201
637.091	0.0152148
637.169	0.0151755
637.247	0.0150523
637.325	0.0152145
637.404	0.0150302
637.482	0.0151756
637.560	0.0151128
637.638	0.0150452
637.716	0.0150774
637.794	0.0152003
637.872	0.0152028
637.950	0.0151685
638.029	0.0150484
638.107	0.0150695
638.185	0.0151720
638.263	0.0151060
638.341	0.0151536
638.419	0.0151687
638.497	0.0151231
638.575	0.0150550
638.654	0.0150703
638.732	0.0150990
638.810	0.0151723
638.888	0.0152201
638.966	0.0152042
639.044	0.0151948
639.122	0.0151364
639.200	0.0151475
639.279	0.0151225
639.357	0.0150337
639.435	0.0150813
639.513	0.0151624
639.591	0.0152028
639.669	0.0151550
639.747	0.0150046
639.825	0.0151064
639.904	0.0152107
639.982	0.0151157
640.060	0.0151510
640.138	0.0151739
640.216	0.0151937
640.294	0.0152757
640.372	0.0151382
640.450	0.0151311
640.529	0.0150831
640.607	0.0151827
640.685	0.0151047
640.763	0.0151324
640.841	0.0152405
640.919	0.0153434
640.997	0.0151190
641.075	0.0151319
641.154	0.0152473
641.232	0.0153084
641.310	0.0152847
641.388	0.0151711
641.466	0.0151614
641.544	0.0153627
641.622	0.0152300
641.700	0.0151936
641.779	0.0152045
641.857	0.0150697
641.935	0.0151823
642.013	0.0152118
642.091	0.0151867
642.169	0.0152448
642.247	0.0150935
642.325	0.0151856
642.404	0.0151918
642.482	0.0151442
642.560	0.0152215
642.638	0.0153175
642.716	0.0151788
642.794	0.0151878
642.872	0.0151886
642.950	0.0151856
643.029	0.0152322
643.107	0.0152837
643.185	0.0152370
643.263	0.0151626
643.341	0.0151693
643.419	0.0151800
643.497	0.0151330
643.575	0.0153233
643.654	0.0153869
643.732	0.0151701
643.810	0.0152340
643.888	0.0152554
643.966	0.0151390
644.044	0.0151852
644.122	0.0151914
644.200	0.0151714
644.279	0.0151404
644.357	0.0152605
644.435	0.0153298
644.513	0.0152058
644.591	0.0151041
644.669	0.0151819
644.747	0.0153261
644.825	0.0152374
644.904	0.0152999
644.982	0.0153755
645.060	0.0152559
645.138	0.0153250
645.216	0.0152926
645.294	0.0152164
645.372	0.0152768
645.450	0.0152414
645.529	0.0153020
645.607	0.0152698
645.685	0.0152783
645.763	0.0151771
645.841	0.0151958
645.919	0.0152726
645.997	0.0153162
646.075	0.0150919
646.154	0.0151918
646.232	0.0151905
646.310	0.0151141
646.388	0.0152885
646.466	0.0151702
646.544	0.0152499
646.622	0.0153412
646.700	0.0153315
646.779	0.0153597
646.857	0.0152381
646.935	0.0153342
647.013	0.0152490
647.091	0.0152830
647.169	0.0152239
647.247	0.0152731
647.325	0.0152937
647.404	0.0151685
647.482	0.0151919
647.560	0.0153690
647.638	0.0153631
647.716	0.0151865
647.794	0.0151607
647.872	0.0151646
647.950	0.0152384
648.029	0.0153558
648.107	0.0153316
648.185	0.0153092
648.263	0.0151664
648.341	0.0150996
648.419	0.0153317
648.497	0.0153261
648.575	0.0152143
648.654	0.0152745
648.732	0.0153012
648.810	0.0152799
648.888	0.0152805
648.966	0.0151184
649.044	0.0150784
649.122	0.0152972
649.200	0.0152947
649.279	0.0152463
649.357	0.0152953
649.435	0.0153341
649.513	0.0151810
649.591	0.0151949
649.669	0.0153003
649.747	0.0152727
649.825	0.0152097
649.904	0.0152301
649.982	0.0151717
650.060	0.0152679
650.138	0.0150907
650.216	0.0152460
650.294	0.0151846
650.372	0.0152770
650.450	0.0152160
650.529	0.0153496
650.607	0.0152634
650.685	0.0153583
650.763	0.0151953
650.841	0.0152450
650.919	0.0151604
650.997	0.0151203
651.075	0.0153024
651.154	0.0151840
651.232	0.0152487
651.310	0.0152396
651.388	0.0151812
651.466	0.0151866
651.544	0.0151770
651.622	0.0152105
651.700	0.0152301
651.779	0.0152314
651.857	0.0152140
651.935	0.0151321
652.013	0.0151414
652.091	0.0153142
652.169	0.0152454
652.247	0.0152879
652.325	0.0151791
652.404	0.0150349
652.482	0.0151933
652.560	0.0151877
652.638	0.0152936
652.716	0.0152479
652.794	0.0151893
652.872	0.0152773
652.950	0.0151965
653.029	0.0149696
653.107	0.0152323
653.185	0.0150425
653.263	0.0152271
653.341	0.0151821
653.419	0.0150136
653.497	0.0150890
653.575	0.0152208
653.654	0.0150600
653.732	0.0150381
653.810	0.0151553
653.888	0.0151492
653.966	0.0150321
654.044	0.0151812
654.122	0.0151804
654.200	0.0151776
654.279	0.0151499
654.357	0.0149252
654.435	0.0151208
654.513	0.0150818
654.591	0.0151089
654.669	0.0150280
654.747	0.0151434
654.825	0.0151042
654.904	0.0152026
654.982	0.0151785
655.060	0.0151267
655.138	0.0151537
655.216	0.0151054
655.294	0.0150207
655.372	0.0150173
655.450	0.0150740
655.529	0.0151587
655.607	0.0149824
655.685	0.0151169
655.763	0.0152206
655.841	0.0150243
655.919	0.0148426
655.997	0.0150391
656.075	0.0150211
656.154	0.0150438
656.232	0.0149683
656.310	0.0149651
656.388	0.0150257
656.466	0.0151673
656.544	0.0151794
656.622	0.0150625
656.700	0.0150491
656.779	0.0152869
656.857	0.0152597
656.935	0.0151987
657.013	0.0151098
657.091	0.0151677
657.169	0.0150915
657.247	0.0151478
657.325	0.0152368
657.404	0.0152190
657.482	0.0149915
657.560	0.0150249
657.638	0.0151962
657.716	0.0150695
657.794	0.0151480
657.872	0.0150670
657.950	0.0151205
658.029	0.0152409
658.107	0.0150476
658.185	0.0152780
658.263	0.0151096
658.341	0.0149999
658.419	0.0150736
658.497	0.0152126
658.575	0.0150730
658.654	0.0149461
658.732	0.0151727
658.810	0.0151576
658.888	0.0150839
658.966	0.0151257
659.044	0.0151360
659.122	0.0150123
659.200	0.0151553
659.279	0.0151603
659.357	0.0150574
659.435	0.0149854
659.513	0.0150275
659.591	0.0151799
659.669	0.0149660
659.747	0.0150586
659.825	0.0150108
659.904	0.0151089
659.982	0.0151742
660.060	0.0151118
660.138	0.0151106
660.216	0.0150432
660.294	0.0151361
660.372	0.0151356
660.450	0.0151772
660.529	0.0150050
660.607	0.0150005
660.685	0.0150665
660.763	0.0152286
660.841	0.0150907
660.919	0.0150465
660.997	0.0151093
661.075	0.0152065
661.154	0.0151585
661.232	0.0151591
661.310	0.0151756
661.388	0.0150777
661.466	0.0151772
661.544	0.0151707
661.622	0.0151200
661.700	0.0151641
661.779	0.0153040
661.857	0.0151965
661.935	0.0151469
662.013	0.0151485
662.091	0.0151447
662.169	0.0152596
662.247	0.0151924
662.325	0.0151865
662.404	0.0150927
662.482	0.0151967
662.560	0.0151830
662.638	0.0151542
662.716	0.0151468
662.794	0.0151759
662.872	0.0151628
662.950	0.0151685
663.029	0.0152415
663.107	0.0152869
663.185	0.0152782
663.263	0.0152280
663.341	0.0151758
663.419	0.0152038
663.497	0.0153088
663.575	0.0152279
663.654	0.0152441
663.732	0.0151058
663.810	0.0152819
663.888	0.0152972
663.966	0.0153040
664.044	0.0152212
664.122	0.0152423
664.200	0.0151511
664.279	0.0151983
664.357	0.0152921
664.435	0.0151530
664.513	0.0151060
664.591	0.0151815
664.669	0.0152500
664.747	0.0151682
664.825	0.0152840
664.904	0.0151820
664.982	0.0152151
665.060	0.0151507
665.138	0.0152633
665.216	0.0152079
665.294	0.0152129
665.372	0.0152602
665.450	0.0151982
665.529	0.0151997
665.607	0.0152618
665.685	0.0151920
665.763	0.0151477
665.841	0.0152399
665.919	0.0153643
665.997	0.0152190
666.075	0.0151921
666.154	0.0152528
666.232	0.0152567
666.310	0.0151444
666.388	0.0151688
666.466	0.0152925
666.544	0.0150965
666.622	0.0151662
666.700	0.0152343
666.779	0.0151917
666.857	0.0152726
666.935	0.0151296
667.013	0.0152648
667.091	0.0153591
667.169	0.0153004
667.247	0.0152728
667.325	0.0153230
667.404	0.0151669
667.482	0.0151690
667.560	0.0153216
667.638	0.0152709
667.716	0.0153425
667.794	0.0154176
667.872	0.0152834
667.950	0.0152620
668.029	0.0152994
668.107	0.0153276
668.185	0.0152567
668.263	0.0153383
668.341	0.0153707
668.419	0.0152604
668.497	0.0153043
668.575	0.0152905
668.654	0.0153560
668.732	0.0153391
668.810	0.0152179
668.888	0.0151203
668.966	0.0152271
669.044	0.0151629
669.122	0.0152647
669.200	0.0151170
669.279	0.0152583
669.357	0.0151730
669.435	0.0152801
669.513	0.0152932
669.591	0.0152522
669.669	0.0153167
669.747	0.0153664
669.825	0.0152641
669.904	0.0153224
669.982	0.0153456
670.060	0.0152636
670.138	0.0153670
670.216	0.0154366
670.294	0.0152911
670.372	0.0152225
670.450	0.0153532
670.529	0.0155278
670.607	0.0154826
670.685	0.0153955
670.763	0.0154779
670.841	0.0154850
670.919	0.0153643
670.997	0.0152603
671.075	0.0152980
671.154	0.0152812
671.232	0.0150597
671.310	0.0151844
671.388	0.0150123
671.466	0.0150362
671.544	0.0150576
671.622	0.0150204
671.700	0.0150117
671.779	0.0150452
671.857	0.0149664
671.935	0.0150597
672.013	0.0150867
672.091	0.0151287
672.169	0.0150761
672.247	0.0150671
672.325	0.0152146
672.404	0.0151704
672.482	0.0150909
672.560	0.0152799
672.638	0.0153378
672.716	0.0153532
672.794	0.0153613
672.872	0.0152190
672.950	0.0154558
673.029	0.0155659
673.107	0.0154531
673.185	0.0154053
673.263	0.0154566
673.341	0.0154416
673.419	0.0154087
673.497	0.0153155
673.575	0.0153445
673.654	0.0153893
673.732	0.0152697
673.810	0.0151019
673.888	0.0151575
673.966	0.0152313
674.044	0.0151057
674.122	0.0150775
674.200	0.0150319
674.279	0.0151939
674.357	0.0151158
674.435	0.0150146
674.513	0.0149328
674.591	0.0150032
674.669	0.0148783
674.747	0.0149988
674.825	0.0149368
674.904	0.0149609
674.982	0.0150874
675.060	0.0149912
675.138	0.0149718
675.216	0.0150980
675.294	0.0151073
675.372	0.0151433
675.450	0.0151981
675.529	0.0151194
675.607	0.0150951
675.685	0.0153123
675.763	0.0151711
675.841	0.0151114
675.919	0.0150972
675.997	0.0150565
676.075	0.0150195
676.154	0.0151519
676.232	0.0149947
676.310	0.0151192
676.388	0.0151277
676.466	0.0151418
676.544	0.0151779
676.622	0.0152801
676.700	0.0151517
676.779	0.0152332
676.857	0.0151506
676.935	0.0152541
677.013	0.0152003
677.091	0.0151749
677.169	0.0152410
677.247	0.0152552
677.325	0.0152334
677.404	0.0153428
677.482	0.0151590
677.560	0.0151481
677.638	0.0150878
677.716	0.0152010
677.794	0.0151856
677.872	0.0151017
677.950	0.0151808
678.029	0.0151025
678.107	0.0149722
678.185	0.0150285
678.263	0.0150846
678.341	0.0151060
678.419	0.0149776
678.497	0.0150390
678.575	0.0149878
678.654	0.0150548
678.732	0.0150600
678.810	0.0150761
678.888	0.0148252
678.966	0.0148143
679.044	0.0150153
679.122	0.0148506
679.200	0.0147927
679.279	0.0148676
679.357	0.0147902
679.435	0.0147936
679.513	0.0149603
679.591	0.0148923
679.669	0.0148587
679.747	0.0148531
679.825	0.0148921
679.904	0.0150793
679.982	0.0151280
680.060	0.0150204
680.138	0.0151801
680.216	0.0150546
680.294	0.0149789
680.372	0.0151415
680.450	0.0152281
680.529	0.0151310
680.607	0.0153008
680.685	0.0153347
680.763	0.0153056
680.841	0.0153268
680.919	0.0152039
680.997	0.0153712
681.075	0.0154893
681.154	0.0155679
681.232	0.0154029
681.310	0.0154300
681.388	0.0154521
681.466	0.0154277
681.544	0.0154129
681.622	0.0153798
681.700	0.0154109
681.779	0.0151985
681.857	0.0150483
681.935	0.0151738
682.013	0.0150430
682.091	0.0149137
682.169	0.0149502
682.247	0.0148891
682.325	0.0147171
682.404	0.0148454
682.482	0.0147877
682.560	0.0147344
682.638	0.0146445
682.716	0.0145602
682.794	0.0146338
682.872	0.0145443
682.950	0.0147545
683.029	0.0148802
683.107	0.0148360
683.185	0.0148682
683.263	0.0149768
683.341	0.0148917
683.419	0.0149952
683.497	0.0151418
683.575	0.0151927
683.654	0.0152853
683.732	0.0152117
683.810	0.0152785
683.888	0.0151949
683.966	0.0153105
684.044	0.0152969
684.122	0.0152076
684.200	0.0155879
684.279	0.0156485
684.357	0.0155868
684.435	0.0157187
684.513	0.0158303
684.591	0.0157905
684.669	0.0158003
684.747	0.0157738
684.825	0.0157805
684.904	0.0155996
684.982	0.0156799
685.060	0.0155605
685.138	0.0152974
685.216	0.0152557
685.294	0.0152791
685.372	0.0152361
685.450	0.0150066
685.529	0.0149266
685.607	0.0149503
685.685	0.0149901
685.763	0.0147945
685.841	0.0147598
685.919	0.0147617
685.997	0.0147491
686.075	0.0146488
686.154	0.0145188
686.232	0.0145568
686.310	0.0145072
686.388	0.0145470
686.466	0.0148600
686.544	0.0150008
686.622	0.0152261
686.700	0.0151933
686.779	0.0153429
686.857	0.0156556
686.935	0.0157486
687.013	0.0158630
687.091	0.0159637
687.169	0.0159123
687.247	0.0159579
687.325	0.0160811
687.404	0.0161128
687.482	0.0157628
687.560	0.0156762
687.638	0.0156221
687.716	0.0153553
687.794	0.0151681
687.872	0.0151181
687.950	0.0148612
688.029	0.0144998
688.107	0.0144959
688.185	0.0143033
688.263	0.0142406
688.341	0.0140562
688.419	0.0142475
688.497	0.0143136
688.575	0.0143613
688.654	0.0146233
688.732	0.0149198
688.810	0.0150078
688.888	0.0151402
688.966	0.0154868
689.044	0.0156800
689.122	0.0159261
689.200	0.0160456
689.279	0.0161025
689.357	0.0162106
689.435	0.0163251
689.513	0.0163333
689.591	0.0159902
689.669	0.0160581
689.747	0.0160463
689.825	0.0160000
689.904	0.0160281
689.982	0.0158673
690.060	0.0156799
690.138	0.0154992
690.216	0.0154794
690.294	0.0152319
690.372	0.0150914
690.450	0.0150244
690.529	0.0149780
690.607	0.0147715
690.685	0.0147188
690.763	0.0145695
690.841	0.0145502
690.919	0.0143123
690.997	0.0144561
691.075	0.0141259
691.154	0.0139889
691.232	0.0140326
691.310	0.0140973
691.388	0.0143374
691.466	0.0143793
691.544	0.0143586
691.622	0.0145570
691.700	0.0146900
691.779	0.0147597
691.857	0.0149261
691.935	0.0153682
692.013	0.0156090
692.091	0.0157418
692.169	0.0160777
692.247	0.0162848
692.325	0.0164078
692.404	0.0164866
692.482	0.0164216
692.560	0.0162891
692.638	0.0161486
692.716	0.0160416
692.794	0.0157688
692.872	0.0153906
692.950	0.0150822
693.029	0.0147138
693.107	0.0144039
693.185	0.0143226
693.263	0.0143331
693.341	0.0141853
693.419	0.0143597
693.497	0.0145617
693.575	0.0147414
693.654	0.0148682
693.732	0.0150842
693.810	0.0153001
693.888	0.0156314
693.966	0.0157076
694.044	0.0157739
694.122	0.0156970
694.200	0.0157246
694.279	0.0158549
694.357	0.0156593
694.435	0.0155614
694.513	0.0156062
694.591	0.0157212
694.669	0.0159527
694.747	0.0160680
694.825	0.0162824
694.904	0.0163989
694.982	0.0165813
695.060	0.0166129
695.138	0.0164983
695.216	0.0163273
695.294	0.0160915
695.372	0.0156962
695.450	0.0151929
695.529	0.0147124
695.607	0.0142178
695.685	0.0138939
695.763	0.0134329
695.841	0.0131348
695.919	0.0129617
695.997	0.0130152
696.075	0.0130402
696.154	0.0129225
696.232	0.0132529
696.310	0.0132732
696.388	0.0134003
696.466	0.0136393
696.544	0.0138326
696.622	0.0138091
696.700	0.0140131
696.779	0.0141249
696.857	0.0143507
696.935	0.0144923
697.013	0.0147797
697.091	0.0151046
697.169	0.0153050
697.247	0.0157355
697.325	0.0161252
697.404	0.0165672
697.482	0.0170934
697.560	0.0175324
697.638	0.0178020
697.716	0.0182413
697.794	0.0183417
697.872	0.0183974
697.950	0.0183475
698.029	0.0183005
698.107	0.0178219
698.185	0.0174115
698.263	0.0169425
698.341	0.0163629
698.419	0.0157929
698.497	0.0154000
698.575	0.0148470
698.654	0.0146622
698.732	0.0143221
698.810	0.0142467
698.888	0.0140413
698.966	0.0139791
699.044	0.0139682
699.122	0.0138123
699.200	0.0137825
699.279	0.0136501
699.357	0.0136169
699.435	0.0134518
699.513	0.0134405
699.591	0.0132158
699.669	0.0130270
699.747	0.0130023
699.825	0.0131551
699.904	0.0132529
699.982	0.0135844
700.060	0.0139377
700.138	0.0141435
700.216	0.0148042
700.294	0.0153678
700.372	0.0157829
700.450	0.0160028
700.529	0.0162806
700.607	0.0165422
700.685	0.0165114
700.763	0.0166618
700.841	0.0164101
700.919	0.0162364
700.997	0.0161435
701.075	0.0159252
701.154	0.0157946
701.232	0.0157784
701.310	0.0158537
701.388	0.0157618
701.466	0.0158643
701.544	0.0160973
701.622	0.0161060
701.700	0.0161221
701.779	0.0158942
701.857	0.0157492
701.935	0.0155669
702.013	0.0151968
702.091	0.0147660
702.169	0.0143092
702.247	0.0140849
702.325	0.0136332
702.404	0.0135911
702.482	0.0135465
702.560	0.0135915
702.638	0.0135928
702.716	0.0139655
702.794	0.0142190
702.872	0.0147315
702.950	0.0151504
703.029	0.0155302
703.107	0.0158247
703.185	0.0158935
703.263	0.0160505
703.341	0.0160184
703.419	0.0160384
703.497	0.0158364
703.575	0.0154423
703.654	0.0151284
703.732	0.0147510
703.810	0.0144949
703.888	0.0143306
703.966	0.0141820
704.044	0.0142348
704.122	0.0144050
704.200	0.0144099
704.279	0.0146931
704.357	0.0149599
704.435	0.0151822
704.513	0.0154794
704.591	0.0159978
704.669	0.0160267
704.747	0.0161092
704.825	0.0162257
704.904	0.0161592
704.982	0.0160774
705.060	0.0156752
705.138	0.0153387
705.216	0.0152110
705.294	0.0149438
705.372	0.0148348
705.450	0.0147802
705.529	0.0145893
705.607	0.0147968
705.685	0.0148026
705.763	0.0149425
705.841	0.0153255
705.919	0.0155980
705.997	0.0157894
706.075	0.0161383
706.154	0.0163244
706.232	0.0164333
706.310	0.0166415
706.388	0.0168417
706.466	0.0168418
706.544	0.0167177
706.622	0.0164445
706.700	0.0164075
706.779	0.0163257
706.857	0.0159636
706.935	0.0157672
707.013	0.0153939
707.091	0.0152358
707.169	0.0151499
707.247	0.0148228
707.325	0.0145237
707.404	0.0139973
707.482	0.0137188
707.560	0.0132838
707.638	0.0129926
707.716	0.0125665
707.794	0.0122517
707.872	0.0117380
707.950	0.0115779
708.029	0.0112433
708.107	0.0111379
708.185	0.0112128
708.263	0.0113139
708.341	0.0117162
708.419	0.0120062
708.497	0.0123937
708.575	0.0128708
708.654	0.0133039
708.732	0.0139489
708.810	0.0144451
708.888	0.0148820
708.966	0.0153741
709.044	0.0157361
709.122	0.0159208
709.200	0.0164551
709.279	0.0167873
709.357	0.0171303
709.435	0.0173241
709.513	0.0175137
709.591	0.0178630
709.669	0.0180342
709.747	0.0182735
709.825	0.0183365
709.904	0.0185486
709.982	0.0187045
710.060	0.0188353
710.138	0.0189083
710.216	0.0188459
710.294	0.0189542
710.372	0.0189431
710.450	0.0189333
710.529	0.0190356
710.607	0.0186070
710.685	0.0185310
710.763	0.0182071
710.841	0.0178666
710.919	0.0173666
710.997	0.0170779
711.075	0.0165915
711.154	0.0159220
711.232	0.0155061
711.310	0.0151253
711.388	0.0146667
711.466	0.0141246
711.544	0.0139085
711.622	0.0136034
711.700	0.0132554
711.779	0.0130168
711.857	0.0128727
711.935	0.0125419
712.013	0.0122510
712.091	0.0120068
712.169	0.0117879
712.247	0.0116373
712.325	0.0113374
712.404	0.0109575
712.482	0.0109114
712.560	0.0109010
712.638	0.0107936
712.716	0.0106841
712.794	0.0105881
712.872	0.0107742
712.950	0.0108720
713.029	0.0112125
713.107	0.0110956
713.185	0.0114188
713.263	0.0116347
713.341	0.0118591
713.419	0.0123114
713.497	0.0127618
713.575	0.0133164
713.654	0.0137753
713.732	0.0142542
713.810	0.0150140
713.888	0.0156017
713.966	0.0162108
714.044	0.0166143
714.122	0.0173383
714.200	0.0179352
714.279	0.0185486
714.357	0.0189989
714.435	0.0194083
714.513	0.0198559
714.591	0.0203576
714.669	0.0206837
714.747	0.0207523
714.825	0.0210513
714.904	0.0211108
714.982	0.0210715
715.060	0.0211905
715.138	0.0209951
715.216	0.0207065
715.294	0.0203693
715.372	0.0199566
715.450	0.0193601
715.529	0.0186435
715.607	0.0180384
715.685	0.0172366
715.763	0.0164050
715.841	0.0156924
715.919	0.0150414
715.997	0.0141506
716.075	0.0136279
716.154	0.0128105
716.232	0.0125139
716.310	0.0121512
716.388	0.0117624
716.466	0.0114939
716.544	0.0110915
716.622	0.0111572
716.700	0.0113561
716.779	0.0113927
716.857	0.0115127
716.935	0.0115674
717.013	0.0117569
717.091	0.0121445
717.169	0.0124555
717.247	0.0126451
717.325	0.0130126
717.404	0.0132292
717.482	0.0134689
717.560	0.0137476
717.638	0.0139210
717.716	0.0142606
717.794	0.0143721
717.872	0.0145329
717.950	0.0148486
718.029	0.0151566
718.107	0.0154700
718.185	0.0158309
718.263	0.0160641
718.341	0.0163826
718.419	0.0168430
718.497	0.0171405
718.575	0.0172207
718.654	0.0170440
718.732	0.0171035
718.810	0.0170818
718.888	0.0169156
718.966	0.0165434
719.044	0.0163345
719.122	0.0158598
719.200	0.0157172
719.279	0.0154036
719.357	0.0151885
719.435	0.0151504
719.513	0.0149593
719.591	0.0148460
719.669	0.0148445
719.747	0.0147408
719.825	0.0146500
719.904	0.0146126
719.982	0.0146477
720.060	0.0144195
720.138	0.0143951
720.216	0.0141500
720.294	0.0141354
720.372	0.0140926
720.450	0.0139182
720.529	0.0140138
720.607	0.0141702
720.685	0.0143158
720.763	0.0144532
720.841	0.0147859
720.919	0.0150040
720.997	0.0154367
721.075	0.0157706
721.154	0.0159515
721.232	0.0164072
721.310	0.0164931
721.388	0.0165665
721.466	0.0165921
721.544	0.0168345
721.622	0.0165718
721.700	0.0162994
721.779	0.0161454
721.857	0.0159539
721.935	0.0157776
722.013	0.0154410
722.091	0.0154926
722.169	0.0154792
722.247	0.0152140
722.325	0.0153014
722.404	0.0152120
722.482	0.0152538
722.560	0.0153135
722.638	0.0154198
722.716	0.0153936
722.794	0.0153468
722.872	0.0154764
722.950	0.0155685
723.029	0.0155840
723.107	0.0156387
723.185	0.0156511
723.263	0.0157260
723.341	0.0156847
723.419	0.0157519
723.497	0.0156921
723.575	0.0157468
723.654	0.0158565
723.732	0.0159813
723.810	0.0160934
723.888	0.0159768
723.966	0.0160854
724.044	0.0162683
724.122	0.0163347
724.200	0.0162414
724.279	0.0161308
724.357	0.0159468
724.435	0.0157296
724.513	0.0154544
724.591	0.0152126
724.669	0.0147009
724.747	0.0143344
724.825	0.0139835
724.904	0.0135753
724.982	0.0132809
725.060	0.0128465
725.138	0.0127285
725.216	0.0127342
725.294	0.0128379
725.372	0.0127882
725.450	0.0129971
725.529	0.0133617
725.607	0.0135885
725.685	0.0137728
725.763	0.0141167
725.841	0.0143904
725.919	0.0146328
725.997	0.0149471
726.075	0.0149043
726.154	0.0151017
726.232	0.0151287
726.310	0.0150115
726.388	0.0150703
726.466	0.0149904
726.544	0.0148050
726.622	0.0146091
726.700	0.0144949
726.779	0.0144186
726.857	0.0145311
726.935	0.0144461
727.013	0.0146033
727.091	0.0144408
727.169	0.0145064
727.247	0.0144782
727.325	0.0145266
727.404	0.0147113
727.482	0.0145910
727.560	0.0144308
727.638	0.0144949
727.716	0.0143948
727.794	0.0143139
727.872	0.0144948
727.950	0.0147066
728.029	0.0149471
728.107	0.0150568
728.185	0.0152689
728.263	0.0158553
728.341	0.0163009
728.419	0.0166360
728.497	0.0172503
728.575	0.0175148
728.654	0.0178066
728.732	0.0180419
728.810	0.0181219
728.888	0.0182677
728.966	0.0181903
729.044	0.0180481
729.122	0.0181497
729.200	0.0180054
729.279	0.0178959
729.357	0.0176731
729.435	0.0175975
729.513	0.0175110
729.591	0.0172948
729.669	0.0170206
729.747	0.0169381
729.825	0.0165691
729.904	0.0164754
729.982	0.0160991
730.060	0.0156924
730.138	0.0153925
730.216	0.0149313
730.294	0.0146172
730.372	0.0143851
730.450	0.0138033
730.529	0.0137665
730.607	0.0135248
730.685	0.0133759
730.763	0.0131609
730.841	0.0132163
730.919	0.0131217
730.997	0.0130422
731.075	0.0131770
731.154	0.0133840
731.232	0.0135229
731.310	0.0137259
731.388	0.0140923
731.466	0.0142078
731.544	0.0144618
731.622	0.0146278
731.700	0.0146551
731.779	0.0147913
731.857	0.0147085
731.935	0.0145204
732.013	0.0144571
732.091	0.0143074
732.169	0.0139487
732.247	0.0137366
732.325	0.0136562
732.404	0.0134004
732.482	0.0133322
732.560	0.0132768
732.638	0.0134875
732.716	0.0136338
732.794	0.0139553
732.872	0.0142568
732.950	0.0146737
733.029	0.0151048
733.107	0.0153378
733.185	0.0158153
733.263	0.0159911
733.341	0.0162072
733.419	0.0164223
733.497	0.0163869
733.575	0.0164587
733.654	0.0164304
733.732	0.0163203
733.810	0.0162179
733.888	0.0162792
733.966	0.0160336
734.044	0.0160680
734.122	0.0160011
734.200	0.0160365
734.279	0.0157249
734.357	0.0157534
734.435	0.0154477
734.513	0.0152077
734.591	0.0150116
734.669	0.0146104
734.747	0.0141323
734.825	0.0138667
734.904	0.0135778
734.982	0.0131521
735.060	0.0129002
735.138	0.0127625
735.216	0.0127400
735.294	0.0129677
735.372	0.0130450
735.450	0.0135949
735.529	0.0142709
735.607	0.0148564
735.685	0.0155677
735.763	0.0163298
735.841	0.0169422
735.919	0.0174618
735.997	0.0179639
736.075	0.0183224
736.154	0.0186917
736.232	0.0188026
736.310	0.0188010
736.388	0.0187551
736.466	0.0185847
736.544	0.0184182
736.622	0.0181958
736.700	0.0178168
736.779	0.0176805
736.857	0.0175080
736.935	0.0172013
737.013	0.0171758
737.091	0.0170621
737.169	0.0168336
737.247	0.0165906
737.325	0.0163532
737.404	0.0162105
737.482	0.0159070
737.560	0.0156707
737.638	0.0153564
737.716	0.0149397
737.794	0.0146915
737.872	0.0142964
737.950	0.0140868
738.029	0.0140450
738.107	0.0136680
738.185	0.0134216
738.263	0.0133691
738.341	0.0131776
738.419	0.0129227
738.497	0.0128375
738.575	0.0124731
738.654	0.0123634
738.732	0.0119987
738.810	0.0120543
738.888	0.0119193
738.966	0.0118864
739.044	0.0119028
739.122	0.0120253
739.200	0.0125063
739.279	0.0128379
739.357	0.0132206
739.435	0.0136110
739.513	0.0139927
739.591	0.0143930
739.669	0.0147023
739.747	0.0148550
739.825	0.0149703
739.904	0.0149231
739.982	0.0150671
740.060	0.0147729
740.138	0.0145956
740.216	0.0145380
740.294	0.0145838
740.372	0.0144830
740.450	0.0145999
740.529	0.0147227
740.607	0.0150936
740.685	0.0154432
740.763	0.0158086
740.841	0.0162463
740.919	0.0166655
740.997	0.0170133
741.075	0.0172529
741.154	0.0174855
741.232	0.0176829
741.310	0.0176382
741.388	0.0174541
741.466	0.0173017
741.544	0.0169052
741.622	0.0165061
741.700	0.0159679
741.779	0.0155595
741.857	0.0150755
741.935	0.0145882
742.013	0.0142722
742.091	0.0138425
742.169	0.0137611
742.247	0.0135181
742.325	0.0135148
742.404	0.0136777
742.482	0.0136521
742.560	0.0139523
742.638	0.0141797
742.716	0.0144164
742.794	0.0146997
742.872	0.0151115
742.950	0.0156409
743.029	0.0160857
743.107	0.0164297
743.185	0.0169771
743.263	0.0175704
743.341	0.0179555
743.419	0.0184754
743.497	0.0187263
743.575	0.0189942
743.654	0.0191399
743.732	0.0194111
743.810	0.0193904
743.888	0.0191061
743.966	0.0187387
744.044	0.0183124
744.122	0.0178594
744.200	0.0171936
744.279	0.0165565
744.357	0.0158185
744.435	0.0151387
744.513	0.0146144
744.591	0.0142429
744.669	0.0139138
744.747	0.0135811
744.825	0.0135850
744.904	0.0135613
744.982	0.0135723
745.060	0.0136665
745.138	0.0139476
745.216	0.0139598
745.294	0.0140616
745.372	0.0140845
745.450	0.0142432
745.529	0.0141420
745.607	0.0139879
745.685	0.0137980
745.763	0.0137891
745.841	0.0136026
745.919	0.0132859
745.997	0.0132394
746.075	0.0132341
746.154	0.0130105
746.232	0.0129217
746.310	0.0128423
746.388	0.0129532
746.466	0.0130827
746.544	0.0128263
746.622	0.0130782
746.700	0.0132896
746.779	0.0133084
746.857	0.0135717
746.935	0.0137363
747.013	0.0139551
747.091	0.0139889
747.169	0.0142513
747.247	0.0144878
747.325	0.0147495
747.404	0.0151053
747.482	0.0151623
747.560	0.0151911
747.638	0.0153193
747.716	0.0155254
747.794	0.0155657
747.872	0.0156310
747.950	0.0158041
748.029	0.0160044
748.107	0.0162306
748.185	0.0163514
748.263	0.0167741
748.341	0.0170274
748.419	0.0172022
748.497	0.0173599
748.575	0.0175717
748.654	0.0176318
748.732	0.0176537
748.810	0.0175055
748.888	0.0173753
748.966	0.0171996
749.044	0.0168316
749.122	0.0165066
749.200	0.0161169
749.279	0.0155169
749.357	0.0149942
749.435	0.0144621
749.513	0.0141421
749.591	0.0137428
749.669	0.0133904
749.747	0.0132399
749.825	0.0129843
749.904	0.0130599
749.982	0.0129263
750.060	0.0128706
750.138	0.0131829
750.216	0.0135107
750.294	0.0137926
750.372	0.0142653
750.450	0.0147900
750.529	0.0154529
750.607	0.0161672
750.685	0.0168611
750.763	0.0173830
750.841	0.0181178
750.919	0.0187704
750.997	0.0192658
751.075	0.0196692
751.154	0.0200074
751.232	0.0200779
751.310	0.0201427
751.388	0.0197398
751.466	0.0195061
751.544	0.0191941
751.622	0.0186005
751.700	0.0177967
751.779	0.0170130
751.857	0.0162734
751.935	0.0154198
752.013	0.0147426
752.091	0.0139777
752.169	0.0134152
752.247	0.0126849
752.325	0.0121657
752.404	0.0119444
752.482	0.0117684
752.560	0.0115751
752.638	0.0117113
752.716	0.0116925
752.794	0.0118668
752.872	0.0122820
752.950	0.0126489
753.029	0.0130163
753.107	0.0136150
753.185	0.0139238
753.263	0.0143150
753.341	0.0146274
753.419	0.0150201
753.497	0.0152890
753.575	0.0153812
753.654	0.0154212
753.732	0.0151366
753.810	0.0151401
753.888	0.0150127
753.966	0.0147018
754.044	0.0142513
754.122	0.0138624
754.200	0.0135576
754.279	0.0132072
754.357	0.0130403
754.435	0.0127501
754.513	0.0124274
754.591	0.0124298
754.669	0.0125407
754.747	0.0124992
754.825	0.0127742
754.904	0.0133642
754.982	0.0137018
755.060	0.0141235
755.138	0.0146726
755.216	0.0153204
755.294	0.0158298
755.372	0.0164462
755.450	0.0169141
755.529	0.0172596
755.607	0.0175330
755.685	0.0178820
755.763	0.0181934
755.841	0.0183539
755.919	0.0183908
755.997	0.0184584
756.075	0.0183143
756.154	0.0181188
756.232	0.0180714
756.310	0.0177270
756.388	0.0172910
756.466	0.0171021
756.544	0.0165571
756.622	0.0160945
756.700	0.0156081
756.779	0.0152556
756.857	0.0147311
756.935	0.0143041
757.013	0.0139678
757.091	0.0134872
757.169	0.0132973
757.247	0.0129700
757.325	0.0127218
757.404	0.0126590
757.482	0.0125920
757.560	0.0124801
757.638	0.0125647
757.716	0.0128902
757.794	0.0131741
757.872	0.0138406
757.950	0.0141138
758.029	0.0146848
758.107	0.0152588
758.185	0.0158502
758.263	0.0163837
758.341	0.0170825
758.419	0.0177116
758.497	0.0181542
758.575	0.0184479
758.654	0.0186771
758.732	0.0190186
758.810	0.0190314
758.888	0.0188599
758.966	0.0185181
759.044	0.0184885
759.122	0.0181243
759.200	0.0176251
759.279	0.0173008
759.357	0.0167165
759.435	0.0158637
759.513	0.0154241
759.591	0.0151689
759.669	0.0147252
759.747	0.0140433
759.825	0.0137995
759.904	0.0135583
759.982	0.0131664
760.060	0.0131881
760.138	0.0129982
760.216	0.0129788
760.294	0.0129507
760.372	0.0129804
760.450	0.0130972
760.529	0.0133886
760.607	0.0135754
760.685	0.0137424
760.763	0.0139954
760.841	0.0142948
760.919	0.0144817
760.997	0.0146986
761.075	0.0147289
761.154	0.0150169
761.232	0.0150223
761.310	0.0150159
761.388	0.0148538
761.466	0.0149470
761.544	0.0147674
761.622	0.0144234
761.700	0.0142604
761.779	0.0139872
761.857	0.0137447
761.935	0.0135435
762.013	0.0131888
762.091	0.0131809
762.169	0.0131483
762.247	0.0130937
762.325	0.0131989
762.404	0.0133082
762.482	0.0133344
762.560	0.0136388
762.638	0.0140136
762.716	0.0142142
762.794	0.0147156
762.872	0.0152024
762.950	0.0155472
763.029	0.0160445
763.107	0.0162893
763.185	0.0167102
763.263	0.0169144
763.341	0.0172160
763.419	0.0173634
763.497	0.0173501
763.575	0.0174934
763.654	0.0176376
763.732	0.0173875
763.810	0.0172688
763.888	0.0171574
763.966	0.0169434
764.044	0.0168655
764.122	0.0165240
764.200	0.0160699
764.279	0.0157906
764.357	0.0154927
764.435	0.0151842
764.513	0.0147853
764.591	0.0145985
764.669	0.0142241
764.747	0.0142076
764.825	0.0139294
764.904	0.0137801
764.982	0.0137817
765.060	0.0137775
765.138	0.0138070
765.216	0.0139951
765.294	0.0140536
765.372	0.0144298
765.450	0.0150272
765.529	0.0152805
765.607	0.0154916
765.685	0.0161530
765.763	0.0164913
765.841	0.0168830
765.919	0.0171739
765.997	0.0176184
766.075	0.0179134
766.154	0.0181242
766.232	0.0181345
766.310	0.0182962
766.388	0.0182722
766.466	0.0181484
766.544	0.0178327
766.622	0.0176317
766.700	0.0172346
766.779	0.0168778
766.857	0.0163764
766.935	0.0160806
767.013	0.0156971
767.091	0.0152959
767.169	0.0148907
767.247	0.0144571
767.325	0.0140519
767.404	0.0138744
767.482	0.0137093
767.560	0.0134165
767.638	0.0132125
767.716	0.0130023
767.794	0.0130376
767.872	0.0128411
767.950	0.0130805
768.029	0.0130546
768.107	0.0132223
768.185	0.0134884
768.263	0.0136250
768.341	0.0138684
768.419	0.0140249
768.497	0.0143243
768.575	0.0144054
768.654	0.0146881
768.732	0.0149519
768.810	0.0148929
768.888	0.0151217
768.966	0.0152270
769.044	0.0152414
769.122	0.0151495
769.200	0.0151710
769.279	0.0148613
769.357	0.0146722
769.435	0.0146444
769.513	0.0144358
769.591	0.0141237
769.669	0.0139928
769.747	0.0139227
769.825	0.0137164
769.904	0.0136864
769.982	0.0138676
770.060	0.0139872
770.138	0.0139761
770.216	0.0142625
770.294	0.0144772
770.372	0.0146073
770.450	0.0149022
770.529	0.0151678
770.607	0.0153519
770.685	0.0156136
770.763	0.0160486
770.841	0.0161138
770.919	0.0165108
770.997	0.0166919
771.075	0.0168076
771.154	0.0169252
771.232	0.0168116
771.310	0.0168875
771.388	0.0169167
771.466	0.0168536
771.544	0.0167450
771.622	0.0165387
771.700	0.0163232
771.779	0.0161481
771.857	0.0158829
771.935	0.0157108
772.013	0.0155285
772.091	0.0153878
772.169	0.0150647
772.247	0.0150008
772.325	0.0148486
772.404	0.0146231
772.482	0.0145466
772.560	0.0145986
772.638	0.0144665
772.716	0.0145079
772.794	0.0145174
772.872	0.0145797
772.950	0.0144693
773.029	0.0146325
773.107	0.0148382
773.185	0.0150307
773.263	0.0151635
773.341	0.0154307
773.419	0.0158452
773.497	0.0161674
773.575	0.0163811
773.654	0.0166311
773.732	0.0168416
773.810	0.0170335
773.888	0.0172867
773.966	0.0172648
774.044	0.0173254
774.122	0.0172525
774.200	0.0172194
774.279	0.0171500
774.357	0.0168823
774.435	0.0167916
774.513	0.0163880
774.591	0.0160331
774.669	0.0158944
774.747	0.0155944
774.825	0.0150835
774.904	0.0147505
774.982	0.0145165
775.060	0.0144097
775.138	0.0139519
775.216	0.0136021
775.294	0.0134985
775.372	0.0134036
775.450	0.0131841
775.529	0.0133138
775.607	0.0132310
775.685	0.0132366
775.763	0.0132094
775.841	0.0134108
775.919	0.0137219
775.997	0.0138383
776.075	0.0139510
776.154	0.0141653
776.232	0.0143347
776.310	0.0146752
776.388	0.0148244
776.466	0.0149429
776.544	0.0150754
776.622	0.0152809
776.700	0.0152896
776.779	0.0151804
776.857	0.0152978
776.935	0.0151911
777.013	0.0151698
777.091	0.0149854
777.169	0.0149486
777.247	0.0146719
777.325	0.0143915
777.404	0.0143322
777.482	0.0142905
777.560	0.0141432
777.638	0.0140195
777.716	0.0139413
777.794	0.0138992
777.872	0.0140318
777.950	0.0140075
778.029	0.0141669
778.107	0.0141095
778.185	0.0143456
778.263	0.0145676
778.341	0.0147595
778.419	0.0148763
778.497	0.0151226
778.575	0.0154212
778.654	0.0155627
778.732	0.0159799
778.810	0.0160369
778.888	0.0163741
778.966	0.0164667
779.044	0.0166709
779.122	0.0167631
779.200	0.0168730
779.279	0.0169335
779.357	0.0168196
779.435	0.0167995
779.513	0.0166248
779.591	0.0165461
779.669	0.0165153
779.747	0.0162473
779.825	0.0160472
779.904	0.0157468
779.982	0.0155803
780.060	0.0153762
780.138	0.0151942
780.216	0.0149606
780.294	0.0148256
780.372	0.0147617
780.450	0.0145797
780.529	0.0143427
780.607	0.0145126
780.685	0.0144195
780.763	0.0145947
780.841	0.0146349
780.919	0.0147987
780.997	0.0149139
781.075	0.0151008
781.154	0.0152715
781.232	0.0153856
781.310	0.0156805
781.388	0.0159294
781.466	0.0160936
781.544	0.0162267
781.622	0.0163509
781.700	0.0163849
781.779	0.0165255
781.857	0.0164504
781.935	0.0164292
782.013	0.0163046
782.091	0.0162926
782.169	0.0160950
782.247	0.0159678
782.325	0.0158068
782.404	0.0157656
782.482	0.0155804
782.560	0.0153212
782.638	0.0151207
782.716	0.0149707
782.794	0.0150485
782.872	0.0145329
782.950	0.0145781
783.029	0.0145578
783.107	0.0143202
783.185	0.0141380
783.263	0.0141445
783.341	0.0140274
783.419	0.0138943
783.497	0.0138532
783.575	0.0138167
783.654	0.0137907
783.732	0.0137746
783.810	0.0138769
783.888	0.0138139
783.966	0.0138025
784.044	0.0139407
784.122	0.0140135
784.200	0.0141692
784.279	0.0142628
784.357	0.0143535
784.435	0.0145312
784.513	0.0147496
784.591	0.0147990
784.669	0.0149508
784.747	0.0149065
784.825	0.0151617
784.904	0.0152594
784.982	0.0151431
785.060	0.0151995
785.138	0.0149803
785.216	0.0150745
785.294	0.0150847
785.372	0.0149017
785.450	0.0149110
785.529	0.0148499
785.607	0.0148854
785.685	0.0148657
785.763	0.0148940
785.841	0.0148217
785.919	0.0149779
785.997	0.0150970
786.075	0.0150221
786.154	0.0151887
786.232	0.0152570
786.310	0.0154653
786.388	0.0154943
786.466	0.0154906
786.544	0.0158148
786.622	0.0158667
786.700	0.0157967
786.779	0.0159092
786.857	0.0156895
786.935	0.0158708
787.013	0.0158347
787.091	0.0157367
787.169	0.0156428
787.247	0.0155734
787.325	0.0156324
787.404	0.0155060
787.482	0.0154929
787.560	0.0155280
787.638	0.0154073
787.716	0.0153783
787.794	0.0153808
787.872	0.0152992
787.950	0.0152837
788.029	0.0153185
788.107	0.0152014
788.185	0.0151624
788.263	0.0152243
788.341	0.0150287
788.419	0.0150808
788.497	0.0151128
788.575	0.0152518
788.654	0.0150834
788.732	0.0150398
788.810	0.0150555
788.888	0.0151306
788.966	0.0151658
789.044	0.0151794
789.122	0.0150794
789.200	0.0151440
789.279	0.0151143
789.357	0.0152524
789.435	0.0152646
789.513	0.0153933
789.591	0.0155675
789.669	0.0156888
789.747	0.0156376
789.825	0.0157525
789.904	0.0158390
789.982	0.0160400
790.060	0.0160190
790.138	0.0159293
790.216	0.0159607
790.294	0.0158656
790.372	0.0158385
790.450	0.0158499
790.529	0.0156570
790.607	0.0154169
790.685	0.0152522
790.763	0.0152686
790.841	0.0150154
790.919	0.0149275
790.997	0.0147975
791.075	0.0146486
791.154	0.0146688
791.232	0.0145104
791.310	0.0144614
791.388	0.0142958
791.466	0.0144388
791.544	0.0142830
791.622	0.0142754
791.700	0.0143111
791.779	0.0142540
791.857	0.0142151
791.935	0.0141994
792.013	0.0143297
792.091	0.0144058
792.169	0.0145056
792.247	0.0143936
792.325	0.0146404
792.404	0.0146985
792.482	0.0148701
792.560	0.0148168
792.638	0.0150253
792.716	0.0150031
792.794	0.0150911
792.872	0.0151544
792.950	0.0150130
793.029	0.0149310
793.107	0.0150851
793.185	0.0151228
793.263	0.0152901
793.341	0.0151199
793.419	0.0150471
793.497	0.0151775
793.575	0.0150610
793.654	0.0150127
793.732	0.0152483
793.810	0.0153496
793.888	0.0151722
793.966	0.0152562
794.044	0.0154018
794.122	0.0153751
794.200	0.0153539
794.279	0.0156166
794.357	0.0155878
794.435	0.0155729
794.513	0.0156753
794.591	0.0158368
794.669	0.0158384
794.747	0.0158959
794.825	0.0160247
794.904	0.0159206
794.982	0.0160783
795.060	0.0159346
795.138	0.0157922
795.216	0.0157793
795.294	0.0158590
795.372	0.0156798
795.450	0.0155739
795.529	0.0154041
795.607	0.0154078
795.685	0.0153407
795.763	0.0150916
795.841	0.0150423
795.919	0.0150694
795.997	0.0148707
796.075	0.0149371
796.154	0.0150229
796.232	0.0150206
796.310	0.0149393
796.388	0.0149131
796.466	0.0148752
796.544	0.0149541
796.622	0.0150768
796.700	0.0150397
796.779	0.0150142
796.857	0.0150104
796.935	0.0151373
797.013	0.0152182
797.091	0.0152513
797.169	0.0151785
797.247	0.0152664
797.325	0.0152837
797.404	0.0154460
797.482	0.0154789
797.560	0.0155289
797.638	0.0155941
797.716	0.0157311
797.794	0.0157467
797.872	0.0157889
797.950	0.0157417
798.029	0.0157629
798.107	0.0156660
798.185	0.0158740
798.263	0.0156650
798.341	0.0155447
798.419	0.0156395
798.497	0.0154888
798.575	0.0152839
798.654	0.0151999
798.732	0.0152223
798.810	0.0149089
798.888	0.0148657
798.966	0.0147098
799.044	0.0146690
799.122	0.0145902
799.200	0.0145572
799.279	0.0143748
799.357	0.0142569
799.435	0.0142210
799.513	0.0142208
799.591	0.0142999
799.669	0.0144358
799.747	0.0143124
799.825	0.0141423
799.904	0.0144010
799.982	0.0144595
800.060	0.0145865
800.138	0.0146705
800.216	0.0147556
800.294	0.0148531
800.372	0.0150475
800.450	0.0151104
800.529	0.0152071
800.607	0.0152843
800.685	0.0153843
800.763	0.0153596
800.841	0.0155412
800.919	0.0153558
800.997	0.0152100
801.075	0.0154363
801.154	0.0153515
801.232	0.0152471
801.310	0.0152518
801.388	0.0151732
801.466	0.0150864
801.544	0.0151915
801.622	0.0150377
801.700	0.0148463
801.779	0.0150417
801.857	0.0148901
801.935	0.0147937
802.013	0.0149057
802.091	0.0150063
802.169	0.0150999
802.247	0.0150800
802.325	0.0152422
802.404	0.0152103
802.482	0.0154231
802.560	0.0154060
802.638	0.0156399
802.716	0.0156644
802.794	0.0156670
802.872	0.0156210
802.950	0.0157528
803.029	0.0157822
803.107	0.0155988
803.185	0.0154884
803.263	0.0156260
803.341	0.0155247
803.419	0.0155202
803.497	0.0153605
803.575	0.0154309
803.654	0.0153763
803.732	0.0152801
803.810	0.0153025
803.888	0.0151339
803.966	0.0150030
804.044	0.0148796
804.122	0.0147597
804.200	0.0147461
804.279	0.0147283
804.357	0.0145867
804.435	0.0146423
804.513	0.0145510
804.591	0.0145386
804.669	0.0145313
804.747	0.0144220
804.825	0.0146744
804.904	0.0146712
804.982	0.0147907
805.060	0.0148949
805.138	0.0149295
805.216	0.0149522
805.294	0.0151189
805.372	0.0151084
805.450	0.0152470
805.529	0.0154937
805.607	0.0154644
805.685	0.0155371
805.763	0.0157497
805.841	0.0158183
805.919	0.0157877
805.997	0.0158677
806.075	0.0158508
806.154	0.0159901
806.232	0.0159215
806.310	0.0159752
806.388	0.0159795
806.466	0.0160075
806.544	0.0158861
806.622	0.0156547
806.700	0.0158150
806.779	0.0155035
806.857	0.0154082
806.935	0.0153630
807.013	0.0153479
807.091	0.0151524
807.169	0.0149836
807.247	0.0150102
807.325	0.0149435
807.404	0.0149142
807.482	0.0146558
807.560	0.0148022
807.638	0.0146927
807.716	0.0146967
807.794	0.0146817
807.872	0.0146571
807.950	0.0145745
808.029	0.0145757
808.107	0.0145473
808.185	0.0145656
808.263	0.0145454
808.341	0.0146679
808.419	0.0146293
808.497	0.0145370
808.575	0.0146769
808.654	0.0144499
808.732	0.0145309
808.810	0.0145620
808.888	0.0145171
808.966	0.0143678
809.044	0.0144257
809.122	0.0145373
809.200	0.0144379
809.279	0.0143189
809.357	0.0144019
809.435	0.0144598
809.513	0.0143124
809.591	0.0144221
809.669	0.0143925
809.747	0.0145718
809.825	0.0145985
809.904	0.0145840
809.982	0.0146124
810.060	0.0146778
810.138	0.0148099
810.216	0.0149477
810.294	0.0151915
810.372	0.0152653
810.450	0.0154942
810.529	0.0155340
810.607	0.0158652
810.685	0.0159229
810.763	0.0159808
810.841	0.0161877
810.919	0.0161763
810.997	0.0163675
811.075	0.0163998
811.154	0.0164022
811.232	0.0163236
811.310	0.0163845
811.388	0.0164593
811.466	0.0163058
811.544	0.0162357
811.622	0.0161681
811.700	0.0161534
811.779	0.0159718
811.857	0.0159320
811.935	0.0158530
812.013	0.0155917
812.091	0.0156235
812.169	0.0155208
812.247	0.0154021
812.325	0.0153222
812.404	0.0152108
812.482	0.0153041
812.560	0.0150742
812.638	0.0149974
812.716	0.0148455
812.794	0.0149244
812.872	0.0147810
812.950	0.0146719
813.029	0.0146315
813.107	0.0147364
813.185	0.0145805
813.263	0.0145442
813.341	0.0145907
813.419	0.0144792
813.497	0.0146262
813.575	0.0147243
813.654	0.0145855
813.732	0.0148794
813.810	0.0149277
813.888	0.0149351
813.966	0.0150513
814.044	0.0151276
814.122	0.0151385
814.200	0.0150027
814.279	0.0152613
814.357	0.0151173
814.435	0.0152093
814.513	0.0151981
814.591	0.0152396
814.669	0.0153133
814.747	0.0151839
814.825	0.0151920
814.904	0.0150159
814.982	0.0152243
815.060	0.0152045
815.138	0.0150883
815.216	0.0151036
815.294	0.0151955
815.372	0.0150375
815.450	0.0149521
815.529	0.0149732
815.607	0.0149821
815.685	0.0148835
815.763	0.0149529
815.841	0.0148679
815.919	0.0148869
815.997	0.0149218
816.075	0.0150367
816.154	0.0149532
816.232	0.0149945
816.310	0.0150134
816.388	0.0152122
816.466	0.0150784
816.544	0.0150890
816.622	0.0153717
816.700	0.0153415
816.779	0.0151846
816.857	0.0152782
816.935	0.0154588
817.013	0.0154076
817.091	0.0153145
817.169	0.0153169
817.247	0.0154429
817.325	0.0153368
817.404	0.0153316
817.482	0.0153324
817.560	0.0151869
817.638	0.0151810
817.716	0.0151553
817.794	0.0151251
817.872	0.0150870
817.950	0.0150199
818.029	0.0149400
818.107	0.0150751
818.185	0.0150885
818.263	0.0149737
818.341	0.0150610
818.419	0.0152203
818.497	0.0150713
818.575	0.0150829
818.654	0.0151964
818.732	0.0152797
818.810	0.0152068
818.888	0.0152978
818.966	0.0155787
819.044	0.0156912
819.122	0.0155241
819.200	0.0156701
819.279	0.0156010
819.357	0.0155782
819.435	0.0156395
819.513	0.0156550
819.591	0.0157837
819.669	0.0154886
819.747	0.0155856
819.825	0.0154822
819.904	0.0154783
819.982	0.0154625
820.060	0.0153136
820.138	0.0152077
820.216	0.0151745
820.294	0.0150780
820.372	0.0150544
820.450	0.0150564
820.529	0.0150081
820.607	0.0149641
820.685	0.0148244
820.763	0.0146953
820.841	0.0148521
820.919	0.0148717
820.997	0.0149270
821.075	0.0150498
821.154	0.0149625
821.232	0.0149515
821.310	0.0150423
821.388	0.0150077
821.466	0.0149541
821.544	0.0150993
821.622	0.0151770
821.700	0.0152606
821.779	0.0151187
821.857	0.0154142
821.935	0.0152229
822.013	0.0151774
822.091	0.0153303
822.169	0.0152553
822.247	0.0151476
822.325	0.0151570
822.404	0.0153442
822.482	0.0151147
822.560	0.0151660
822.638	0.0149948
822.716	0.0150112
822.794	0.0150198
822.872	0.0149357
822.950	0.0149076
823.029	0.0147229
823.107	0.0148164
823.185	0.0149128
823.263	0.0149393
823.341	0.0148058
823.419	0.0150266
823.497	0.0148804
823.575	0.0149608
823.654	0.0150722
823.732	0.0150074
823.810	0.0149986
823.888	0.0151340
823.966	0.0150852
824.044	0.0151083
824.122	0.0153853
824.200	0.0153244
824.279	0.0152731
824.357	0.0152383
824.435	0.0153407
824.513	0.0153854
824.591	0.0154379
824.669	0.0154889
824.747	0.0154617
824.825	0.0154749
824.904	0.0154239
824.982	0.0154742
825.060	0.0154359
825.138	0.0154434
825.216	0.0153262
825.294	0.0154080
825.372	0.0153785
825.450	0.0155376
825.529	0.0154334
825.607	0.0154027
825.685	0.0152774
825.763	0.0153508
825.841	0.0153925
825.919	0.0153690
825.997	0.0152381
826.075	0.0152332
826.154	0.0152148
826.232	0.0151634
826.310	0.0150896
826.388	0.0150144
826.466	0.0150484
826.544	0.0150793
826.622	0.0149748
826.700	0.0151302
826.779	0.0149614
826.857	0.0150969
826.935	0.0150275
827.013	0.0151064
827.091	0.0151234
827.169	0.0152563
827.247	0.0150999
827.325	0.0152422
827.404	0.0151856
827.482	0.0151882
827.560	0.0151685
827.638	0.0151826
827.716	0.0152227
827.794	0.0151038
827.872	0.0152020
827.950	0.0151718
828.029	0.0150233
828.107	0.0148976
828.185	0.0149403
828.263	0.0150636
828.341	0.0148947
828.419	0.0148779
828.497	0.0147930
828.575	0.0147001
828.654	0.0147220
828.732	0.0147491
828.810	0.0145502
828.888	0.0146742
828.966	0.0148168
829.044	0.0146796
829.122	0.0148199
829.200	0.0148939
829.279	0.0148573
829.357	0.0149670
829.435	0.0149894
829.513	0.0151097
829.591	0.0151405
829.669	0.0153342
829.747	0.0152730
829.825	0.0155468
829.904	0.0156811
829.982	0.0157545
830.060	0.0159724
830.138	0.0158868
830.216	0.0157791
830.294	0.0158830
830.372	0.0158427
830.450	0.0157169
830.529	0.0157088
830.607	0.0158573
830.685	0.0156947
830.763	0.0153351
830.841	0.0154696
830.919	0.0152508
830.997	0.0151833
831.075	0.0149511
831.154	0.0149518
831.232	0.0148352
831.310	0.0147404
831.388	0.0146994
831.466	0.0146282
831.544	0.0146194
831.622	0.0145178
831.700	0.0145585
831.779	0.0146328
831.857	0.0145627
831.935	0.0147551
832.013	0.0147912
832.091	0.0150313
832.169	0.0149490
832.247	0.0148780
832.325	0.0150730
832.404	0.0152545
832.482	0.0153165
832.560	0.0153838
832.638	0.0153924
832.716	0.0154618
832.794	0.0155940
832.872	0.0155539
832.950	0.0156890
833.029	0.0158330
833.107	0.0157124
833.185	0.0158597
833.263	0.0158140
833.341	0.0156122
833.419	0.0158611
833.497	0.0156756
833.575	0.0156286
833.654	0.0155721
833.732	0.0154861
833.810	0.0153113
833.888	0.0153886
833.966	0.0153316
834.044	0.0151855
834.122	0.0151535
834.200	0.0150579
834.279	0.0150517
834.357	0.0149865
834.435	0.0149026
834.513	0.0149800
834.591	0.0149023
834.669	0.0149509
834.747	0.0150000
834.825	0.0151319
834.904	0.0150149
834.982	0.0150173
835.060	0.0149502
835.138	0.0149427
835.216	0.0150054
835.294	0.0149458
835.372	0.0149909
835.450	0.0149851
835.529	0.0150045
835.607	0.0148497
835.685	0.0150864
835.763	0.0150502
835.841	0.0151236
835.919	0.0150227
835.997	0.0150780
836.075	0.0151428
836.154	0.0150645
836.232	0.0150270
836.310	0.0151067
836.388	0.0150755
836.466	0.0149294
836.544	0.0150264
836.622	0.0150498
836.700	0.0150628
836.779	0.0151477
836.857	0.0150974
836.935	0.0152253
837.013	0.0151489
837.091	0.0151903
837.169	0.0152763
837.247	0.0152573
837.325	0.0153828
837.404	0.0155119
837.482	0.0154005
837.560	0.0154895
837.638	0.0153783
837.716	0.0153874
837.794	0.0153651
837.872	0.0152631
837.950	0.0154276
838.029	0.0153756
838.107	0.0153586
838.185	0.0151928
838.263	0.0151282
838.341	0.0151909
838.419	0.0151031
838.497	0.0149737
838.575	0.0150316
838.654	0.0151447
838.732	0.0151414
838.810	0.0150736
838.888	0.0150477
838.966	0.0150806
839.044	0.0151217
839.122	0.0151129
839.200	0.0151556
839.279	0.0150794
839.357	0.0152245
839.435	0.0152747
839.513	0.0151239
839.591	0.0152840
839.669	0.0152306
839.747	0.0153078
839.825	0.0153597
839.904	0.0152063
839.982	0.0154728
840.060	0.0153931
840.138	0.0153475
840.216	0.0154283
840.294	0.0153918
840.372	0.0154094
840.450	0.0154594
840.529	0.0153974
840.607	0.0154984
840.685	0.0154514
840.763	0.0154462
840.841	0.0153312
840.919	0.0152799
840.997	0.0152629
841.075	0.0153893
841.154	0.0153593
841.232	0.0152676
841.310	0.0154092
841.388	0.0152671
841.466	0.0151112
841.544	0.0150245
841.622	0.0150853
841.700	0.0152059
841.779	0.0149792
841.857	0.0149152
841.935	0.0149419
842.013	0.0149281
842.091	0.0149541
842.169	0.0148982
842.247	0.0149365
842.325	0.0148753
842.404	0.0148431
842.482	0.0148326
842.560	0.0150623
842.638	0.0148305
842.716	0.0148474
842.794	0.0147855
842.872	0.0150004
842.950	0.0148569
843.029	0.0148604
843.107	0.0150397
843.185	0.0150255
843.263	0.0149529
843.341	0.0149443
843.419	0.0150654
843.497	0.0150069
843.575	0.0150789
843.654	0.0150510
843.732	0.0150958
843.810	0.0149659
843.888	0.0152280
843.966	0.0151889
844.044	0.0151728
844.122	0.0152566
844.200	0.0152653
844.279	0.0153260
844.357	0.0152797
844.435	0.0152554
844.513	0.0153169
844.591	0.0152694
844.669	0.0153354
844.747	0.0153437
844.825	0.0152078
844.904	0.0152862
844.982	0.0154886
845.060	0.0151993
845.138	0.0151060
845.216	0.0151671
845.294	0.0151876
845.372	0.0151978
845.450	0.0152516
845.529	0.0151369
845.607	0.0151654
845.685	0.0151459
845.763	0.0152188
845.841	0.0151377
845.919	0.0151178
845.997	0.0151759
846.075	0.0151853
846.154	0.0151682
846.232	0.0152097
846.310	0.0153487
846.388	0.0153381
846.466	0.0151149
846.544	0.0151414
846.622	0.0152005
846.700	0.0151698
846.779	0.0153704
846.857	0.0154887
846.935	0.0153498
847.013	0.0153722
847.091	0.0154659
847.169	0.0153072
847.247	0.0153864
847.325	0.0154521
847.404	0.0153985
847.482	0.0155954
847.560	0.0155622
847.638	0.0155104
847.716	0.0155069
847.794	0.0154678
847.872	0.0154607
847.950	0.0155349
848.029	0.0154424
848.107	0.0154291
848.185	0.0154929
848.263	0.0154928
848.341	0.0154761
848.419	0.0155140
848.497	0.0152868
848.575	0.0153491
848.654	0.0152294
848.732	0.0151686
848.810	0.0152323
848.888	0.0151702
848.966	0.0151726
849.044	0.0150500
849.122	0.0149728
849.200	0.0150079
849.279	0.0149656
849.357	0.0148616
849.435	0.0148107
849.513	0.0147018
849.591	0.0148316
849.669	0.0148292
849.747	0.0147003
849.825	0.0146207
849.904	0.0146799
849.982	0.0146244
850.060	0.0147187
850.138	0.0148576
850.216	0.0146167
850.294	0.0146696
850.372	0.0147757
850.450	0.0147592
850.529	0.0147145
850.607	0.0147262
850.685	0.0147088
850.763	0.0148709
850.841	0.0147264
850.919	0.0148638
850.997	0.0148842
851.075	0.0150006
851.154	0.0150236
851.232	0.0150839
851.310	0.0151501
851.388	0.0152066
851.466	0.0151025
851.544	0.0154404
851.622	0.0153828
851.700	0.0154069
851.779	0.0154901
851.857	0.0155958
851.935	0.0155899
852.013	0.0157238
852.091	0.0155855
852.169	0.0156145
852.247	0.0156879
852.325	0.0155151
852.404	0.0155360
852.482	0.0157697
852.560	0.0155765
852.638	0.0154103
852.716	0.0154246
852.794	0.0155389
852.872	0.0155772
852.950	0.0153192
853.029	0.0153292
853.107	0.0152424
853.185	0.0152974
853.263	0.0152320
853.341	0.0151183
853.419	0.0151356
853.497	0.0150795
853.575	0.0151289
853.654	0.0151469
853.732	0.0149892
853.810	0.0151146
853.888	0.0152538
853.966	0.0150079
854.044	0.0150507
854.122	0.0151539
854.200	0.0151239
854.279	0.0151189
854.357	0.0151469
854.435	0.0152605
854.513	0.0151260
854.591	0.0152136
854.669	0.0152439
854.747	0.0151360
854.825	0.0153780
854.904	0.0153103
854.982	0.0152756
855.060	0.0154725
855.138	0.0153954
855.216	0.0153769
855.294	0.0154007
855.372	0.0153980
855.450	0.0151566
855.529	0.0152287
855.607	0.0154607
855.685	0.0152300
855.763	0.0152471
855.841	0.0154459
855.919	0.0153312
855.997	0.0152135
856.075	0.0152596
856.154	0.0150850
856.232	0.0152234
856.310	0.0151751
856.388	0.0151783
856.466	0.0151305
856.544	0.0151720
856.622	0.0150706
856.700	0.0151786
856.779	0.0151350
856.857	0.0150517
856.935	0.0149338
857.013	0.0150765
857.091	0.0150723
857.169	0.0149574
857.247	0.0149360
857.325	0.0152509
857.404	0.0153015
857.482	0.0151311
857.560	0.0151228
857.638	0.0150101
857.716	0.0150239
857.794	0.0151171
857.872	0.0149960
857.950	0.0150171
858.029	0.0149920
858.107	0.0148338
858.185	0.0150186
858.263	0.0149816
858.341	0.0149438
858.419	0.0149371
858.497	0.0148985
858.575	0.0148301
858.654	0.0148070
858.732	0.0147945
858.810	0.0148071
858.888	0.0149041
858.966	0.0148314
859.044	0.0149072
859.122	0.0149232
859.200	0.0149928
859.279	0.0149731
859.357	0.0150257
859.435	0.0149492
859.513	0.0150368
859.591	0.0152818
859.669	0.0151008
859.747	0.0153242
859.825	0.0153817
859.904	0.0153551
859.982	0.0154097
860.060	0.0154142
860.138	0.0155382
860.216	0.0155779
860.294	0.0155980
860.372	0.0156039
860.450	0.0154857
860.529	0.0155727
860.607	0.0155238
860.685	0.0155949
860.763	0.0155027
860.841	0.0154706
860.919	0.0152826
860.997	0.0153328
861.075	0.0153455
861.154	0.0152277
861.232	0.0153328
861.310	0.0152680
861.388	0.0152149
861.466	0.0153334
861.544	0.0152762
861.622	0.0152866
861.700	0.0154082
861.779	0.0154138
861.857	0.0152615
861.935	0.0154346
862.013	0.0153668
862.091	0.0154114
862.169	0.0155090
862.247	0.0154441
862.325	0.0155839
862.404	0.0155396
862.482	0.0153938
862.560	0.0153497
862.638	0.0154042
862.716	0.0154704
862.794	0.0154352
862.872	0.0153181
862.950	0.0153289
863.029	0.0152969
863.107	0.0152022
863.185	0.0151562
863.263	0.0150865
863.341	0.0149775
863.419	0.0150463
863.497	0.0150385
863.575	0.0149350
863.654	0.0150997
863.732	0.0149716
863.810	0.0148571
863.888	0.0149241
863.966	0.0149718
864.044	0.0149339
864.122	0.0149674
864.200	0.0150294
864.279	0.0150179
864.357	0.0149107
864.435	0.0149066
864.513	0.0149901
864.591	0.0149894
864.669	0.0149459
864.747	0.0150879
864.825	0.0149637
864.904	0.0148998
864.982	0.0149773
865.060	0.0149835
865.138	0.0150539
865.216	0.0150343
865.294	0.0150018
865.372	0.0150923
865.450	0.0151572
865.529	0.0151187
865.607	0.0150452
865.685	0.0152410
865.763	0.0152756
865.841	0.0151274
865.919	0.0151690
865.997	0.0151474
866.075	0.0150557
866.154	0.0150803
866.232	0.0151748
866.310	0.0151791
866.388	0.0151165
866.466	0.0152000
866.544	0.0152763
866.622	0.0151756
866.700	0.0151736
866.779	0.0151508
866.857	0.0150809
866.935	0.0151493
867.013	0.0152258
867.091	0.0151862
867.169	0.0151952
867.247	0.0151116
867.325	0.0151891
867.404	0.0152622
867.482	0.0152692
867.560	0.0151193
867.638	0.0152451
867.716	0.0153310
867.794	0.0153858
867.872	0.0152805
867.950	0.0152713
868.029	0.0152979
868.107	0.0152898
868.185	0.0154057
868.263	0.0153529
868.341	0.0152401
868.419	0.0151328
868.497	0.0152157
868.575	0.0151649
868.654	0.0152329
868.732	0.0151759
868.810	0.0151388
868.888	0.0150506
868.966	0.0151509
869.044	0.0150935
869.122	0.0150508
869.200	0.0151226
869.279	0.0151135
869.357	0.0150909
869.435	0.0151218
869.513	0.0150780
869.591	0.0150832
869.669	0.0151144
869.747	0.0152184
869.825	0.0150291
869.904	0.0152792
869.982	0.0153307
870.060	0.0152660
870.138	0.0152135
870.216	0.0152009
870.294	0.0153209
870.372	0.0153015
870.450	0.0152055
870.529	0.0152425
870.607	0.0153005
870.685	0.0152924
870.763	0.0152569
870.841	0.0152317
870.919	0.0153740
870.997	0.0152251
871.075	0.0153672
871.154	0.0152597
871.232	0.0152975
871.310	0.0153334
871.388	0.0153045
871.466	0.0150778
871.544	0.0151553
871.622	0.0153065
871.700	0.0150896
871.779	0.0150180
871.857	0.0150098
871.935	0.0149991
872.013	0.0151543
872.091	0.0150708
872.169	0.0150451
872.247	0.0151139
872.325	0.0150270
872.404	0.0150269
872.482	0.0149850
872.560	0.0151104
872.638	0.0150956
872.716	0.0150668
872.794	0.0150314
872.872	0.0151759
872.950	0.0150751
873.029	0.0150095
873.107	0.0151379
873.185	0.0152859
873.263	0.0152502
873.341	0.0151032
873.419	0.0150560
873.497	0.0151583
873.575	0.0153799
873.654	0.0152219
873.732	0.0152693
873.810	0.0151637
873.888	0.0151661
873.966	0.0150728
874.044	0.0151572
874.122	0.0151027
874.200	0.0150497
874.279	0.0150864
874.357	0.0149986
874.435	0.0149978
874.513	0.0149992
874.591	0.0149395
874.669	0.0151025
874.747	0.0151372
874.825	0.0149468
874.904	0.0150738
874.982	0.0152110
875.060	0.0149536
875.138	0.0150253
875.216	0.0150796
875.294	0.0151694
875.372	0.0152765
875.450	0.0152489
875.529	0.0152996
875.607	0.0152012
875.685	0.0152319
875.763	0.0151726
875.841	0.0152541
875.919	0.0153122
875.997	0.0153007
876.075	0.0153488
876.154	0.0155131
876.232	0.0155112
876.310	0.0155985
876.388	0.0155549
876.466	0.0154815
876.544	0.0154386
876.622	0.0154819
876.700	0.0153433
876.779	0.0152441
876.857	0.0152956
876.935	0.0151678
877.013	0.0151951
877.091	0.0151297
877.169	0.0151439
877.247	0.0150670
877.325	0.0150322
877.404	0.0151018
877.482	0.0151352
877.560	0.0149841
877.638	0.0150846
877.716	0.0149126
877.794	0.0151921
877.872	0.0151714
877.950	0.0150120
878.029	0.0151661
878.107	0.0151150
878.185	0.0152460
878.263	0.0152549
878.341	0.0153621
878.419	0.0154182
878.497	0.0153421
878.575	0.0154826
878.654	0.0154731
878.732	0.0154858
878.810	0.0155235
878.888	0.0154418
878.966	0.0151679
879.044	0.0154269
879.122	0.0154564
879.200	0.0152171
879.279	0.0152531
879.357	0.0151826
879.435	0.0151032
879.513	0.0150986
879.591	0.0150726
879.669	0.0150621
879.747	0.0149830
879.825	0.0150505
879.904	0.0147693
879.982	0.0149519
880.060	0.0148547
880.138	0.0148909
880.216	0.0149285
880.294	0.0149581
880.372	0.0147796
880.450	0.0147675
880.529	0.0148004
880.607	0.0149176
880.685	0.0151253
880.763	0.0150974
880.841	0.0149841
880.919	0.0150510
880.997	0.0151535
881.075	0.0150995
881.154	0.0150629
881.232	0.0151618
881.310	0.0151287
881.388	0.0151429
881.466	0.0150224
881.544	0.0151308
881.622	0.0151205
881.700	0.0150302
881.779	0.0149530
881.857	0.0150087
881.935	0.0149685
882.013	0.0149963
882.091	0.0149493
882.169	0.0149775
882.247	0.0147971
882.325	0.0148045
882.404	0.0150253
882.482	0.0149828
882.560	0.0149530
882.638	0.0149957
882.716	0.0150910
882.794	0.0150048
882.872	0.0150358
882.950	0.0151564
883.029	0.0151447
883.107	0.0150935
883.185	0.0152848
883.263	0.0152016
883.341	0.0151740
883.419	0.0154212
883.497	0.0153522
883.575	0.0152676
883.654	0.0153371
883.732	0.0153219
883.810	0.0154055
883.888	0.0154482
883.966	0.0155484
884.044	0.0154359
884.122	0.0154079
884.200	0.0152713
884.279	0.0153394
884.357	0.0153024
884.435	0.0151160
884.513	0.0151656
884.591	0.0151274
884.669	0.0151727
884.747	0.0151033
884.825	0.0150848
884.904	0.0149734
884.982	0.0150208
885.060	0.0148572
885.138	0.0148195
885.216	0.0148972
885.294	0.0150831
885.372	0.0150464
885.450	0.0151386
885.529	0.0151257
885.607	0.0152855
885.685	0.0151894
885.763	0.0153701
885.841	0.0153615
885.919	0.0152056
885.997	0.0153138
886.075	0.0153678
886.154	0.0153924
886.232	0.0152402
886.310	0.0153651
886.388	0.0152212
886.466	0.0152746
886.544	0.0153902
886.622	0.0152123
886.700	0.0153155
886.779	0.0151488
886.857	0.0153246
886.935	0.0152612
887.013	0.0152140
887.091	0.0152378
887.169	0.0150803
887.247	0.0150455
887.325	0.0149561
887.404	0.0150365
887.482	0.0150249
887.560	0.0149252
887.638	0.0147842
887.716	0.0148587
887.794	0.0149084
887.872	0.0150619
887.950	0.0150227
888.029	0.0151595
888.107	0.0151876
888.185	0.0151364
888.263	0.0153706
888.341	0.0151385
888.419	0.0151636
888.497	0.0152367
888.575	0.0152433
888.654	0.0151965
888.732	0.0152241
888.810	0.0151977
888.888	0.0152666
888.966	0.0150931
889.044	0.0152845
889.122	0.0153165
889.200	0.0152832
889.279	0.0153080
889.357	0.0153324
889.435	0.0152812
889.513	0.0153174
889.591	0.0152525
889.669	0.0152042
889.747	0.0153210
889.825	0.0151450
889.904	0.0150234
889.982	0.0149698
890.060	0.0149557
890.138	0.0148963
890.216	0.0148202
890.294	0.0148566
890.372	0.0148205
890.450	0.0148063
890.529	0.0149252
890.607	0.0150739
890.685	0.0151108
890.763	0.0151152
890.841	0.0150754
890.919	0.0152325
890.997	0.0152042
891.075	0.0151844
891.154	0.0151941
891.232	0.0152980
891.310	0.0153645
891.388	0.0152550
891.466	0.0152349
891.544	0.0154256
891.622	0.0153107
891.700	0.0153472
891.779	0.0153181
891.857	0.0155398
891.935	0.0156812
892.013	0.0155507
892.091	0.0155570
892.169	0.0155894
892.247	0.0156452
892.325	0.0155540
892.404	0.0155714
892.482	0.0154517
892.560	0.0155039
892.638	0.0154035
892.716	0.0152850
892.794	0.0152876
892.872	0.0153040
892.950	0.0151376
893.029	0.0150881
893.107	0.0151347
893.185	0.0151387
893.263	0.0152042
893.341	0.0153606
893.419	0.0151320
893.497	0.0150497
893.575	0.0152098
893.654	0.0151791
893.732	0.0151125
893.810	0.0151099
893.888	0.0149818
893.966	0.0149672
894.044	0.0149863
894.122	0.0148740
894.200	0.0149237
894.279	0.0151701
894.357	0.0149478
894.435	0.0150462
894.513	0.0150608
894.591	0.0151317
894.669	0.0152790
894.747	0.0152850
894.825	0.0152494
894.904	0.0153219
894.982	0.0152394
895.060	0.0152703
895.138	0.0153631
895.216	0.0152912
895.294	0.0153546
895.372	0.0153230
895.450	0.0151842
895.529	0.0151698
895.607	0.0151311
895.685	0.0150534
895.763	0.0152176
895.841	0.0152444
895.919	0.0151660
895.997	0.0151158
896.075	0.0151314
896.154	0.0152210
896.232	0.0151929
896.310	0.0152403
896.388	0.0151360
896.466	0.0152105
896.544	0.0151938
896.622	0.0150932
896.700	0.0152356
896.779	0.0151308
896.857	0.0151169
896.935	0.0150788
897.013	0.0151188
897.091	0.0151064
897.169	0.0150541
897.247	0.0150127
897.325	0.0150670
897.404	0.0150510
897.482	0.0149076
897.560	0.0151251
897.638	0.0150838
897.716	0.0152025
897.794	0.0152470
897.872	0.0151934
897.950	0.0151376
898.029	0.0153323
898.107	0.0151817
898.185	0.0151398
898.263	0.0151968
898.341	0.0151433
898.419	0.0153076
898.497	0.0151838
898.575	0.0151220
898.654	0.0150947
898.732	0.0151164
898.810	0.0153014
898.888	0.0150958
898.966	0.0150442
899.044	0.0151659
899.122	0.0150857
899.200	0.0152430
899.279	0.0151560
899.357	0.0152599
899.435	0.0152390
899.513	0.0153026
899.591	0.0151967
899.669	0.0149633
899.747	0.0150776
899.825	0.0152211
899.904	0.0150274
899.982	0.0151196
900.060	0.0150081
900.138	0.0150473
900.216	0.0150684
900.294	0.0150464
900.372	0.0149884
900.450	0.0150621
900.529	0.0149609
900.607	0.0151087
900.685	0.0150787
900.763	0.0149496
900.841	0.0151043
900.919	0.0150073
900.997	0.0150521
901.075	0.0149792
901.154	0.0150338
901.232	0.0152007
901.310	0.0151350
901.388	0.0152385
901.466	0.0152245
901.544	0.0151283
901.622	0.0151102
901.700	0.0152065
901.779	0.0152689
901.857	0.0152656
901.935	0.0152010
902.013	0.0151655
902.091	0.0152136
902.169	0.0152317
902.247	0.0151751
902.325	0.0151091
902.404	0.0152116
902.482	0.0150806
902.560	0.0151731
902.638	0.0152646
902.716	0.0150865
902.794	0.0150458
902.872	0.0151336
902.950	0.0150761
903.029	0.0150023
903.107	0.0150222
903.185	0.0150187
903.263	0.0148931
903.341	0.0149603
903.419	0.0150630
903.497	0.0150186
903.575	0.0150536
903.654	0.0150143
903.732	0.0151389
903.810	0.0150794
903.888	0.0150065
903.966	0.0152223
904.044	0.0152025
904.122	0.0151269
904.200	0.0151488
904.279	0.0151540
904.357	0.0152657
904.435	0.0153049
904.513	0.0153332
904.591	0.0153049
904.669	0.0154506
904.747	0.0152187
904.825	0.0153007
904.904	0.0153196
904.982	0.0151919
905.060	0.0152383
905.138	0.0152398
905.216	0.0152699
905.294	0.0153772
905.372	0.0152396
905.450	0.0151835
905.529	0.0151611
905.607	0.0150437
905.685	0.0150784
905.763	0.0152079
905.841	0.0150968
905.919	0.0149827
905.997	0.0151067
906.075	0.0152441
906.154	0.0151894
906.232	0.0151745
906.310	0.0153139
906.388	0.0153207
906.466	0.0151089
906.544	0.0152106
906.622	0.0152018
906.700	0.0152725
906.779	0.0151750
906.857	0.0151894
906.935	0.0151313
907.013	0.0152517
907.091	0.0151631
907.169	0.0151832
907.247	0.0151344
907.325	0.0151183
907.404	0.0149855
907.482	0.0149708
907.560	0.0149799
907.638	0.0150004
907.716	0.0149220
907.794	0.0148613
907.872	0.0149427
907.950	0.0150399
908.029	0.0148705
908.107	0.0151485
908.185	0.0152116
908.263	0.0151762
908.341	0.0153349
908.419	0.0153558
908.497	0.0153535
908.575	0.0155168
908.654	0.0155619
908.732	0.0155588
908.810	0.0155645
908.888	0.0155087
908.966	0.0156077
909.044	0.0155599
909.122	0.0155074
909.200	0.0153510
909.279	0.0154092
909.357	0.0154851
909.435	0.0152522
909.513	0.0151645
909.591	0.0152464
909.669	0.0152760
909.747	0.0150568
909.825	0.0152817
909.904	0.0153577
909.982	0.0152345
910.060	0.0152753
910.138	0.0153365
910.216	0.0152778
910.294	0.0152542
910.372	0.0150983
910.450	0.0153005
910.529	0.0151964
910.607	0.0152071
910.685	0.0151682
910.763	0.0151185
910.841	0.0151086
910.919	0.0151408
910.997	0.0151144
911.075	0.0151166
911.154	0.0149466
911.232	0.0149823
911.310	0.0151816
911.388	0.0152277
911.466	0.0152081
911.544	0.0152646
911.622	0.0153263
911.700	0.0152826
911.779	0.0153062
911.857	0.0152719
911.935	0.0153121
912.013	0.0153264
912.091	0.0153001
912.169	0.0152462
912.247	0.0152733
912.325	0.0153437
912.404	0.0152444
912.482	0.0152496
912.560	0.0152968
912.638	0.0152014
912.716	0.0152938
912.794	0.0152344
912.872	0.0154525
912.950	0.0153331
913.029	0.0153600
913.107	0.0152110
913.185	0.0152553
913.263	0.0152225
913.341	0.0152737
913.419	0.0151256
913.497	0.0150782
913.575	0.0150788
913.654	0.0151523
913.732	0.0152256
913.810	0.0150760
913.888	0.0149922
913.966	0.0151317
914.044	0.0150915
914.122	0.0150370
914.200	0.0152270
914.279	0.0151762
914.357	0.0151408
914.435	0.0151466
914.513	0.0151389
914.591	0.0152654
914.669	0.0153281
914.747	0.0153432
914.825	0.0153426
914.904	0.0152467
914.982	0.0152508
915.060	0.0152978
915.138	0.0151661
915.216	0.0153348
915.294	0.0153551
915.372	0.0153698
915.450	0.0153543
915.529	0.0155981
915.607	0.0155544
915.685	0.0155960
915.763	0.0153846
915.841	0.0154425
915.919	0.0154666
915.997	0.0154048
916.075	0.0153736
916.154	0.0154789
916.232	0.0154429
916.310	0.0153848
916.388	0.0154272
916.466	0.0153062
916.544	0.0152242
916.622	0.0153000
916.700	0.0150980
916.779	0.0151456
916.857	0.0150951
916.935	0.0150930
917.013	0.0151038
917.091	0.0149878
917.169	0.0150580
917.247	0.0151781
917.325	0.0150764
917.404	0.0151181
917.482	0.0150290
917.560	0.0149883
917.638	0.0149738
917.716	0.0151887
917.794	0.0151323
917.872	0.0151678
917.950	0.0151272
918.029	0.0151251
918.107	0.0150578
918.185	0.0149609
918.263	0.0150253
918.341	0.0151180
918.419	0.0150780
918.497	0.0151919
918.575	0.0152157
918.654	0.0151817
918.732	0.0153709
918.810	0.0153688
918.888	0.0152474
918.966	0.0153008
919.044	0.0154176
919.122	0.0152980
919.200	0.0152872
919.279	0.0152760
919.357	0.0151893
919.435	0.0152162
919.513	0.0152763
919.591	0.0151987
919.669	0.0152181
919.747	0.0150077
919.825	0.0150451
919.904	0.0150661
