05/20/2022	20:57:23	Ver.	4.1	UNKNOWN
Optical Delay	599.975067	Delta X		0.078125	Sweeps	1	Scan Rate	0/0
Coordinates	Axis 1	NaN	Axis 2	NaN	Axis 3	NaN	Axis 4	NaN	Axis 5	NaN	Axis 6	0.000000
TX Power	0.000000	RX Power	0.000000

599.975	0.0151640
600.053	0.0151040
600.131	0.0151070
600.209	0.0151955
600.288	0.0151495
600.366	0.0151564
600.444	0.0150845
600.522	0.0152283
600.600	0.0150733
600.678	0.0151152
600.756	0.0152362
600.834	0.0152452
600.913	0.0151814
600.991	0.0151147
601.069	0.0151627
601.147	0.0151664
601.225	0.0151072
601.303	0.0152209
601.381	0.0151708
601.459	0.0151489
601.538	0.0151465
601.616	0.0151550
601.694	0.0150810
601.772	0.0150276
601.850	0.0151286
601.928	0.0150719
602.006	0.0150566
602.084	0.0151426
602.163	0.0153849
602.241	0.0150404
602.319	0.0151303
602.397	0.0150993
602.475	0.0151412
602.553	0.0151274
602.631	0.0151614
602.709	0.0151580
602.788	0.0153413
602.866	0.0151849
602.944	0.0151969
603.022	0.0152831
603.100	0.0151288
603.178	0.0150757
603.256	0.0151907
603.334	0.0151297
603.413	0.0151433
603.491	0.0151772
603.569	0.0150933
603.647	0.0153315
603.725	0.0152757
603.803	0.0151943
603.881	0.0151095
603.959	0.0152140
604.038	0.0151019
604.116	0.0151157
604.194	0.0151878
604.272	0.0152455
604.350	0.0151601
604.428	0.0151184
604.506	0.0150721
604.584	0.0152872
604.663	0.0153527
604.741	0.0151682
604.819	0.0151653
604.897	0.0152321
604.975	0.0151419
605.053	0.0150969
605.131	0.0152494
605.209	0.0151985
605.288	0.0152851
605.366	0.0153080
605.444	0.0150240
605.522	0.0151401
605.600	0.0152375
605.678	0.0152113
605.756	0.0152681
605.834	0.0152071
605.913	0.0150348
605.991	0.0151444
606.069	0.0151685
606.147	0.0150970
606.225	0.0153419
606.303	0.0151506
606.381	0.0152046
606.459	0.0151151
606.538	0.0150980
606.616	0.0152674
606.694	0.0152100
606.772	0.0150231
606.850	0.0149923
606.928	0.0152962
607.006	0.0152141
607.084	0.0151382
607.163	0.0151392
607.241	0.0153513
607.319	0.0151362
607.397	0.0152509
607.475	0.0151245
607.553	0.0152257
607.631	0.0151111
607.709	0.0151391
607.788	0.0152026
607.866	0.0152697
607.944	0.0151875
608.022	0.0150500
608.100	0.0152200
608.178	0.0152724
608.256	0.0152107
608.334	0.0151537
608.413	0.0151677
608.491	0.0151797
608.569	0.0151814
608.647	0.0152590
608.725	0.0151830
608.803	0.0151462
608.881	0.0151637
608.959	0.0151331
609.038	0.0152106
609.116	0.0150967
609.194	0.0151319
609.272	0.0150983
609.350	0.0151493
609.428	0.0151441
609.506	0.0151987
609.584	0.0150406
609.663	0.0152449
609.741	0.0151793
609.819	0.0151516
609.897	0.0151323
609.975	0.0152152
610.053	0.0152463
610.131	0.0152065
610.209	0.0152341
610.288	0.0151109
610.366	0.0153136
610.444	0.0151983
610.522	0.0152663
610.600	0.0151616
610.678	0.0151982
610.756	0.0150547
610.834	0.0152527
610.913	0.0151189
610.991	0.0150723
611.069	0.0151775
611.147	0.0152148
611.225	0.0151070
611.303	0.0152807
611.381	0.0152260
611.459	0.0150805
611.538	0.0151418
611.616	0.0152774
611.694	0.0152136
611.772	0.0150712
611.850	0.0151510
611.928	0.0150796
612.006	0.0152351
612.084	0.0151831
612.163	0.0150352
612.241	0.0152099
612.319	0.0152464
612.397	0.0152093
612.475	0.0152441
612.553	0.0151659
612.631	0.0152319
612.709	0.0152354
612.788	0.0150871
612.866	0.0150384
612.944	0.0151601
613.022	0.0151260
613.100	0.0151833
613.178	0.0151392
613.256	0.0152865
613.334	0.0151920
613.413	0.0151389
613.491	0.0151965
613.569	0.0150865
613.647	0.0152454
613.725	0.0152103
613.803	0.0152184
613.881	0.0151075
613.959	0.0149969
614.038	0.0150827
614.116	0.0151843
614.194	0.0150704
614.272	0.0150835
614.350	0.0152708
614.428	0.0152248
614.506	0.0151720
614.584	0.0151694
614.663	0.0151698
614.741	0.0151056
614.819	0.0152158
614.897	0.0152016
614.975	0.0151435
615.053	0.0151698
615.131	0.0151885
615.209	0.0151698
615.288	0.0152382
615.366	0.0152876
615.444	0.0152975
615.522	0.0151361
615.600	0.0150784
615.678	0.0150681
615.756	0.0150508
615.834	0.0151760
615.913	0.0152750
615.991	0.0152135
616.069	0.0151299
616.147	0.0151309
616.225	0.0151238
616.303	0.0151553
616.381	0.0151347
616.459	0.0151733
616.538	0.0152475
616.616	0.0152392
616.694	0.0150938
616.772	0.0151662
616.850	0.0151182
616.928	0.0151864
617.006	0.0151056
617.084	0.0151891
617.163	0.0152779
617.241	0.0152514
617.319	0.0152199
617.397	0.0153119
617.475	0.0151604
617.553	0.0151395
617.631	0.0152529
617.709	0.0151275
617.788	0.0151585
617.866	0.0152611
617.944	0.0152016
618.022	0.0150654
618.100	0.0151628
618.178	0.0151180
618.256	0.0151953
618.334	0.0152953
618.413	0.0151099
618.491	0.0152779
618.569	0.0152251
618.647	0.0151583
618.725	0.0151997
618.803	0.0151704
618.881	0.0152791
618.959	0.0151541
619.038	0.0152149
619.116	0.0151253
619.194	0.0150645
619.272	0.0151431
619.350	0.0150781
619.428	0.0150719
619.506	0.0150163
619.584	0.0150880
619.663	0.0151555
619.741	0.0154132
619.819	0.0151168
619.897	0.0152422
619.975	0.0152031
620.053	0.0150517
620.131	0.0151825
620.209	0.0151127
620.288	0.0152646
620.366	0.0150806
620.444	0.0151293
620.522	0.0152188
620.600	0.0152097
620.678	0.0152624
620.756	0.0151710
620.834	0.0150979
620.913	0.0151619
620.991	0.0152872
621.069	0.0152045
621.147	0.0151077
621.225	0.0152940
621.303	0.0151218
621.381	0.0151727
621.459	0.0151523
621.538	0.0151460
621.616	0.0151147
621.694	0.0154387
621.772	0.0151719
621.850	0.0151273
621.928	0.0152779
622.006	0.0150698
622.084	0.0152197
622.163	0.0153536
622.241	0.0150178
622.319	0.0151706
622.397	0.0150540
622.475	0.0151797
622.553	0.0152229
622.631	0.0151292
622.709	0.0150972
622.788	0.0150725
622.866	0.0152390
622.944	0.0150984
623.022	0.0152983
623.100	0.0151462
623.178	0.0151311
623.256	0.0151768
623.334	0.0152869
623.413	0.0152776
623.491	0.0151385
623.569	0.0152408
623.647	0.0151221
623.725	0.0151434
623.803	0.0151852
623.881	0.0151521
623.959	0.0151597
624.038	0.0153036
624.116	0.0151365
624.194	0.0151038
624.272	0.0150475
624.350	0.0150620
624.428	0.0151414
624.506	0.0151936
624.584	0.0151174
624.663	0.0152239
624.741	0.0151913
624.819	0.0151508
624.897	0.0150863
624.975	0.0152308
625.053	0.0151283
625.131	0.0152549
625.209	0.0151820
625.288	0.0152446
625.366	0.0151492
625.444	0.0150712
625.522	0.0150472
625.600	0.0151989
625.678	0.0151780
625.756	0.0151338
625.834	0.0151862
625.913	0.0151804
625.991	0.0151323
626.069	0.0151797
626.147	0.0151949
626.225	0.0151588
626.303	0.0151952
626.381	0.0150914
626.459	0.0151537
626.538	0.0151102
626.616	0.0150890
626.694	0.0152273
626.772	0.0152225
626.850	0.0150707
626.928	0.0150382
627.006	0.0151952
627.084	0.0151500
627.163	0.0151480
627.241	0.0151347
627.319	0.0152579
627.397	0.0150951
627.475	0.0152660
627.553	0.0151002
627.631	0.0152357
627.709	0.0151380
627.788	0.0152621
627.866	0.0151699
627.944	0.0150761
628.022	0.0151601
628.100	0.0151093
628.178	0.0151556
628.256	0.0150577
628.334	0.0152399
628.413	0.0152077
628.491	0.0151994
628.569	0.0151376
628.647	0.0150976
628.725	0.0150633
628.803	0.0152416
628.881	0.0151275
628.959	0.0151975
629.038	0.0151462
629.116	0.0150401
629.194	0.0150292
629.272	0.0152349
629.350	0.0150864
629.428	0.0151628
629.506	0.0151976
629.584	0.0150809
629.663	0.0150366
629.741	0.0152263
629.819	0.0150964
629.897	0.0152297
629.975	0.0152950
630.053	0.0151031
630.131	0.0153152
630.209	0.0151490
630.288	0.0151134
630.366	0.0150864
630.444	0.0151751
630.522	0.0152553
630.600	0.0152137
630.678	0.0151614
630.756	0.0152016
630.834	0.0150542
630.913	0.0152883
630.991	0.0152318
631.069	0.0151592
631.147	0.0150761
631.225	0.0151652
631.303	0.0152925
631.381	0.0152464
631.459	0.0150768
631.538	0.0152832
631.616	0.0152436
631.694	0.0150816
631.772	0.0152095
631.850	0.0150226
631.928	0.0152894
632.006	0.0152312
632.084	0.0152084
632.163	0.0151977
632.241	0.0151374
632.319	0.0151118
632.397	0.0151387
632.475	0.0151184
632.553	0.0150332
632.631	0.0150478
632.709	0.0151454
632.788	0.0151511
632.866	0.0151585
632.944	0.0150965
633.022	0.0151012
633.100	0.0150787
633.178	0.0152388
633.256	0.0151013
633.334	0.0151696
633.413	0.0151335
633.491	0.0150598
633.569	0.0150356
633.647	0.0151593
633.725	0.0151904
633.803	0.0151561
633.881	0.0151260
633.959	0.0149622
634.038	0.0151384
634.116	0.0152063
634.194	0.0150758
634.272	0.0151119
634.350	0.0151054
634.428	0.0150893
634.506	0.0150764
634.584	0.0151516
634.663	0.0152344
634.741	0.0152905
634.819	0.0150954
634.897	0.0153013
634.975	0.0152508
635.053	0.0151879
635.131	0.0151528
635.209	0.0151929
635.288	0.0151029
635.366	0.0150256
635.444	0.0151300
635.522	0.0151730
635.600	0.0151693
635.678	0.0151219
635.756	0.0149847
635.834	0.0152242
635.913	0.0151418
635.991	0.0151721
636.069	0.0151433
636.147	0.0152068
636.225	0.0151466
636.303	0.0150890
636.381	0.0152238
636.459	0.0150476
636.538	0.0150697
636.616	0.0151220
636.694	0.0151294
636.772	0.0151450
636.850	0.0151938
636.928	0.0151333
637.006	0.0150984
637.084	0.0151215
637.163	0.0150726
637.241	0.0153204
637.319	0.0151338
637.397	0.0150204
637.475	0.0152279
637.553	0.0150681
637.631	0.0151319
637.709	0.0152418
637.788	0.0151653
637.866	0.0152967
637.944	0.0152836
638.022	0.0151866
638.100	0.0151714
638.178	0.0151437
638.256	0.0152677
638.334	0.0151775
638.413	0.0151290
638.491	0.0152533
638.569	0.0150545
638.647	0.0151814
638.725	0.0151794
638.803	0.0151210
638.881	0.0151430
638.959	0.0151823
639.038	0.0152402
639.116	0.0151821
639.194	0.0152776
639.272	0.0152456
639.350	0.0151752
639.428	0.0151668
639.506	0.0150925
639.584	0.0152023
639.663	0.0151421
639.741	0.0151622
639.819	0.0150788
639.897	0.0152350
639.975	0.0151804
640.053	0.0151546
640.131	0.0152616
640.209	0.0152512
640.288	0.0151353
640.366	0.0151080
640.444	0.0152349
640.522	0.0152624
640.600	0.0153881
640.678	0.0152518
640.756	0.0151688
640.834	0.0150700
640.913	0.0152953
640.991	0.0152247
641.069	0.0151910
641.147	0.0151962
641.225	0.0151350
641.303	0.0152682
641.381	0.0152225
641.459	0.0151892
641.538	0.0151295
641.616	0.0151998
641.694	0.0152930
641.772	0.0154210
641.850	0.0151904
641.928	0.0153316
642.006	0.0153580
642.084	0.0153558
642.163	0.0151218
642.241	0.0151911
642.319	0.0152148
642.397	0.0152798
642.475	0.0152051
642.553	0.0152995
642.631	0.0153666
642.709	0.0152193
642.788	0.0151495
642.866	0.0152798
642.944	0.0153567
643.022	0.0152863
643.100	0.0151636
643.178	0.0152786
643.256	0.0151517
643.334	0.0152581
643.413	0.0152243
643.491	0.0152431
643.569	0.0151463
643.647	0.0150381
643.725	0.0151366
643.803	0.0152978
643.881	0.0152639
643.959	0.0152058
644.038	0.0151549
644.116	0.0151671
644.194	0.0152153
644.272	0.0152866
644.350	0.0152523
644.428	0.0151635
644.506	0.0151730
644.584	0.0153493
644.663	0.0152179
644.741	0.0152647
644.819	0.0152134
644.897	0.0152940
644.975	0.0152426
645.053	0.0153005
645.131	0.0152885
645.209	0.0152747
645.288	0.0152269
645.366	0.0153123
645.444	0.0153331
645.522	0.0152890
645.600	0.0152303
645.678	0.0150956
645.756	0.0152551
645.834	0.0152010
645.913	0.0151569
645.991	0.0152443
646.069	0.0152567
646.147	0.0153236
646.225	0.0152538
646.303	0.0152812
646.381	0.0152452
646.459	0.0152236
646.538	0.0152483
646.616	0.0151553
646.694	0.0153028
646.772	0.0152530
646.850	0.0152475
646.928	0.0153513
647.006	0.0152824
647.084	0.0151859
647.163	0.0152979
647.241	0.0152471
647.319	0.0152096
647.397	0.0152252
647.475	0.0152039
647.553	0.0151905
647.631	0.0152547
647.709	0.0151772
647.788	0.0152544
647.866	0.0151671
647.944	0.0152932
648.022	0.0154148
648.100	0.0151630
648.178	0.0152874
648.256	0.0151450
648.334	0.0151784
648.413	0.0153532
648.491	0.0152702
648.569	0.0152015
648.647	0.0151936
648.725	0.0153380
648.803	0.0151375
648.881	0.0151449
648.959	0.0150888
649.038	0.0152677
649.116	0.0151580
649.194	0.0151256
649.272	0.0150457
649.350	0.0151954
649.428	0.0151686
649.506	0.0151322
649.584	0.0151788
649.663	0.0152470
649.741	0.0151049
649.819	0.0152682
649.897	0.0151104
649.975	0.0150771
650.053	0.0151082
650.131	0.0151051
650.209	0.0151789
650.288	0.0152188
650.366	0.0151388
650.444	0.0150778
650.522	0.0150710
650.600	0.0151751
650.678	0.0151616
650.756	0.0151162
650.834	0.0150468
650.913	0.0150855
650.991	0.0152425
651.069	0.0150665
651.147	0.0151383
651.225	0.0151764
651.303	0.0150890
651.381	0.0150853
651.459	0.0149790
651.538	0.0150320
651.616	0.0150459
651.694	0.0151778
651.772	0.0150510
651.850	0.0150653
651.928	0.0151173
652.006	0.0149892
652.084	0.0149976
652.163	0.0150579
652.241	0.0150722
652.319	0.0149917
652.397	0.0150601
652.475	0.0150917
652.553	0.0150787
652.631	0.0150665
652.709	0.0150681
652.788	0.0150014
652.866	0.0151253
652.944	0.0149788
653.022	0.0150319
653.100	0.0150559
653.178	0.0151418
653.256	0.0151213
653.334	0.0149384
653.413	0.0149905
653.491	0.0150934
653.569	0.0150978
653.647	0.0149232
653.725	0.0150501
653.803	0.0151612
653.881	0.0149830
653.959	0.0150438
654.038	0.0150994
654.116	0.0151498
654.194	0.0150389
654.272	0.0150620
654.350	0.0149311
654.428	0.0150594
654.506	0.0150568
654.584	0.0149754
654.663	0.0150146
654.741	0.0150909
654.819	0.0150422
654.897	0.0150479
654.975	0.0150186
655.053	0.0150729
655.131	0.0151955
655.209	0.0150015
655.288	0.0150983
655.366	0.0151867
655.444	0.0151798
655.522	0.0150499
655.600	0.0149982
655.678	0.0150867
655.756	0.0150072
655.834	0.0149419
655.913	0.0150716
655.991	0.0150515
656.069	0.0151830
656.147	0.0150139
656.225	0.0151308
656.303	0.0150237
656.381	0.0151034
656.459	0.0150825
656.538	0.0151087
656.616	0.0150740
656.694	0.0151540
656.772	0.0150519
656.850	0.0149962
656.928	0.0150947
657.006	0.0149977
657.084	0.0150301
657.163	0.0150786
657.241	0.0150674
657.319	0.0152153
657.397	0.0151129
657.475	0.0150082
657.553	0.0152803
657.631	0.0152976
657.709	0.0150398
657.788	0.0151453
657.866	0.0152426
657.944	0.0151714
658.022	0.0150703
658.100	0.0152096
658.178	0.0152362
658.256	0.0150605
658.334	0.0151156
658.413	0.0150883
658.491	0.0151292
658.569	0.0152991
658.647	0.0151801
658.725	0.0151207
658.803	0.0151174
658.881	0.0151299
658.959	0.0152202
659.038	0.0151772
659.116	0.0150688
659.194	0.0151633
659.272	0.0152138
659.350	0.0151569
659.428	0.0151048
659.506	0.0151854
659.584	0.0150596
659.663	0.0151227
659.741	0.0151730
659.819	0.0150557
659.897	0.0150999
659.975	0.0150779
660.053	0.0152850
660.131	0.0150828
660.209	0.0150476
660.288	0.0151575
660.366	0.0152024
660.444	0.0153497
660.522	0.0150769
660.600	0.0152422
660.678	0.0153574
660.756	0.0152173
660.834	0.0152759
660.913	0.0153201
660.991	0.0150552
661.069	0.0152532
661.147	0.0152894
661.225	0.0152837
661.303	0.0152978
661.381	0.0151181
661.459	0.0152368
661.538	0.0152396
661.616	0.0152238
661.694	0.0151284
661.772	0.0152686
661.850	0.0152303
661.928	0.0152645
662.006	0.0152788
662.084	0.0152299
662.163	0.0152127
662.241	0.0153919
662.319	0.0153271
662.397	0.0152632
662.475	0.0151506
662.553	0.0152419
662.631	0.0151877
662.709	0.0151089
662.788	0.0152856
662.866	0.0154644
662.944	0.0151557
663.022	0.0152023
663.100	0.0152041
663.178	0.0151221
663.256	0.0153271
663.334	0.0154615
663.413	0.0153010
663.491	0.0152546
663.569	0.0152542
663.647	0.0152272
663.725	0.0152702
663.803	0.0153773
663.881	0.0152456
663.959	0.0152956
664.038	0.0152293
664.116	0.0152783
664.194	0.0151614
664.272	0.0152596
664.350	0.0153066
664.428	0.0153303
664.506	0.0153954
664.584	0.0152148
664.663	0.0151955
664.741	0.0152879
664.819	0.0152716
664.897	0.0152323
664.975	0.0151790
665.053	0.0152946
665.131	0.0153946
665.209	0.0151852
665.288	0.0152654
665.366	0.0154176
665.444	0.0152743
665.522	0.0152842
665.600	0.0152425
665.678	0.0152294
665.756	0.0152837
665.834	0.0151079
665.913	0.0153127
665.991	0.0151994
666.069	0.0153069
666.147	0.0153859
666.225	0.0153091
666.303	0.0152834
666.381	0.0152520
666.459	0.0151711
666.538	0.0152238
666.616	0.0153063
666.694	0.0153372
666.772	0.0152974
666.850	0.0153904
666.928	0.0154044
667.006	0.0152241
667.084	0.0152713
667.163	0.0153018
667.241	0.0152670
667.319	0.0153543
667.397	0.0152853
667.475	0.0152876
667.553	0.0152998
667.631	0.0152165
667.709	0.0152499
667.788	0.0152895
667.866	0.0150997
667.944	0.0151630
668.022	0.0153671
668.100	0.0151746
668.178	0.0151838
668.256	0.0151209
668.334	0.0152708
668.413	0.0151456
668.491	0.0151905
668.569	0.0152261
668.647	0.0152861
668.725	0.0154090
668.803	0.0151915
668.881	0.0152908
668.959	0.0154443
669.038	0.0153466
669.116	0.0152957
669.194	0.0153544
669.272	0.0153214
669.350	0.0153899
669.428	0.0153162
669.506	0.0154584
669.584	0.0154301
669.663	0.0153189
669.741	0.0153989
669.819	0.0153706
669.897	0.0153931
669.975	0.0155369
670.053	0.0154186
670.131	0.0152852
670.209	0.0151608
670.288	0.0153082
670.366	0.0151905
670.444	0.0151106
670.522	0.0149881
670.600	0.0149401
670.678	0.0149321
670.756	0.0149490
670.834	0.0151096
670.913	0.0147900
670.991	0.0149928
671.069	0.0149876
671.147	0.0148924
671.225	0.0149253
671.303	0.0150627
671.381	0.0150018
671.459	0.0150449
671.538	0.0150418
671.616	0.0152075
671.694	0.0151127
671.772	0.0151379
671.850	0.0151869
671.928	0.0153454
672.006	0.0154651
672.084	0.0153410
672.163	0.0153223
672.241	0.0152202
672.319	0.0154832
672.397	0.0153545
672.475	0.0153977
672.553	0.0153606
672.631	0.0153332
672.709	0.0153050
672.788	0.0153204
672.866	0.0152881
672.944	0.0151034
673.022	0.0150710
673.100	0.0149879
673.178	0.0150661
673.256	0.0150214
673.334	0.0149487
673.413	0.0150251
673.491	0.0150854
673.569	0.0148537
673.647	0.0149129
673.725	0.0148799
673.803	0.0148552
673.881	0.0150600
673.959	0.0150760
674.038	0.0147955
674.116	0.0147714
674.194	0.0148811
674.272	0.0148828
674.350	0.0149847
674.428	0.0149365
674.506	0.0149553
674.584	0.0149473
674.663	0.0150959
674.741	0.0151305
674.819	0.0150684
674.897	0.0151588
674.975	0.0149834
675.053	0.0151186
675.131	0.0149497
675.209	0.0149844
675.288	0.0150315
675.366	0.0151994
675.444	0.0151481
675.522	0.0150420
675.600	0.0149932
675.678	0.0151178
675.756	0.0151781
675.834	0.0150909
675.913	0.0151065
675.991	0.0151550
676.069	0.0152402
676.147	0.0153516
676.225	0.0152241
676.303	0.0150884
676.381	0.0152117
676.459	0.0152475
676.538	0.0152680
676.616	0.0152256
676.694	0.0152003
676.772	0.0152234
676.850	0.0151836
676.928	0.0151519
677.006	0.0152386
677.084	0.0152158
677.163	0.0150746
677.241	0.0150095
677.319	0.0151547
677.397	0.0150368
677.475	0.0151924
677.553	0.0150266
677.631	0.0149667
677.709	0.0151106
677.788	0.0150143
677.866	0.0150895
677.944	0.0149840
678.022	0.0149622
678.100	0.0149139
678.178	0.0149367
678.256	0.0149178
678.334	0.0148661
678.413	0.0148637
678.491	0.0148620
678.569	0.0150284
678.647	0.0148911
678.725	0.0149144
678.803	0.0149418
678.881	0.0150330
678.959	0.0152223
679.038	0.0150520
679.116	0.0150014
679.194	0.0150523
679.272	0.0152159
679.350	0.0152852
679.428	0.0152838
679.506	0.0153079
679.584	0.0154281
679.663	0.0154343
679.741	0.0152312
679.819	0.0153593
679.897	0.0154250
679.975	0.0154499
680.053	0.0153689
680.131	0.0155470
680.209	0.0155746
680.288	0.0155215
680.366	0.0155024
680.444	0.0154666
680.522	0.0155952
680.600	0.0155543
680.678	0.0154827
680.756	0.0152113
680.834	0.0153616
680.913	0.0153146
680.991	0.0151870
681.069	0.0151193
681.147	0.0150318
681.225	0.0150415
681.303	0.0149718
681.381	0.0148826
681.459	0.0147102
681.538	0.0149303
681.616	0.0148870
681.694	0.0147352
681.772	0.0147219
681.850	0.0147858
681.928	0.0147989
682.006	0.0149296
682.084	0.0148420
682.163	0.0147698
682.241	0.0147575
682.319	0.0148833
682.397	0.0148706
682.475	0.0150761
682.553	0.0151143
682.631	0.0152393
682.709	0.0151923
682.788	0.0153682
682.866	0.0153128
682.944	0.0153009
683.022	0.0153886
683.100	0.0155018
683.178	0.0155782
683.256	0.0155401
683.334	0.0155123
683.413	0.0154182
683.491	0.0153352
683.569	0.0154185
683.647	0.0153438
683.725	0.0153941
683.803	0.0154115
683.881	0.0152921
683.959	0.0153870
684.038	0.0153711
684.116	0.0154268
684.194	0.0154121
684.272	0.0155410
684.350	0.0155716
684.428	0.0155954
684.506	0.0157493
684.584	0.0156792
684.663	0.0155754
684.741	0.0154612
684.819	0.0153933
684.897	0.0153242
684.975	0.0151138
685.053	0.0150690
685.131	0.0149858
685.209	0.0147393
685.288	0.0148206
685.366	0.0147414
685.444	0.0144829
685.522	0.0144536
685.600	0.0143995
685.678	0.0145002
685.756	0.0145180
685.834	0.0143651
685.913	0.0143398
685.991	0.0143939
686.069	0.0144440
686.147	0.0146841
686.225	0.0148852
686.303	0.0150972
686.381	0.0152250
686.459	0.0155007
686.538	0.0157536
686.616	0.0160107
686.694	0.0160097
686.772	0.0161740
686.850	0.0162606
686.928	0.0164234
687.006	0.0165217
687.084	0.0165218
687.163	0.0165340
687.241	0.0163448
687.319	0.0161999
687.397	0.0159315
687.475	0.0157280
687.553	0.0155459
687.631	0.0151360
687.709	0.0147451
687.788	0.0144037
687.866	0.0142978
687.944	0.0140459
688.022	0.0139333
688.100	0.0136757
688.178	0.0134911
688.256	0.0135837
688.334	0.0137150
688.413	0.0138274
688.491	0.0141541
688.569	0.0142184
688.647	0.0146874
688.725	0.0149859
688.803	0.0152786
688.881	0.0155530
688.959	0.0158180
689.038	0.0160302
689.116	0.0163175
689.194	0.0164085
689.272	0.0165230
689.350	0.0166679
689.428	0.0165403
689.506	0.0165414
689.584	0.0163069
689.663	0.0162724
689.741	0.0161764
689.819	0.0162247
689.897	0.0157861
689.975	0.0155595
690.053	0.0154265
690.131	0.0151842
690.209	0.0149255
690.288	0.0146511
690.366	0.0144979
690.444	0.0143496
690.522	0.0142250
690.600	0.0142036
690.678	0.0140169
690.756	0.0140694
690.834	0.0142757
690.913	0.0142312
690.991	0.0142439
691.069	0.0143157
691.147	0.0143172
691.225	0.0144147
691.303	0.0146258
691.381	0.0146995
691.459	0.0149493
691.538	0.0148766
691.616	0.0151270
691.694	0.0152145
691.772	0.0152589
691.850	0.0153345
691.928	0.0155721
692.006	0.0157809
692.084	0.0158273
692.163	0.0159962
692.241	0.0161390
692.319	0.0163007
692.397	0.0163266
692.475	0.0163637
692.553	0.0164051
692.631	0.0162198
692.709	0.0161052
692.788	0.0157797
692.866	0.0154305
692.944	0.0151722
693.022	0.0148721
693.100	0.0145140
693.178	0.0142000
693.256	0.0140001
693.334	0.0139748
693.413	0.0140275
693.491	0.0140723
693.569	0.0143018
693.647	0.0145667
693.725	0.0148731
693.803	0.0149579
693.881	0.0153132
693.959	0.0154342
694.038	0.0154371
694.116	0.0155096
694.194	0.0157243
694.272	0.0156572
694.350	0.0157021
694.428	0.0158305
694.506	0.0160246
694.584	0.0160247
694.663	0.0162401
694.741	0.0164932
694.819	0.0165742
694.897	0.0166193
694.975	0.0166714
695.053	0.0167298
695.131	0.0165108
695.209	0.0162840
695.288	0.0160796
695.366	0.0156769
695.444	0.0153820
695.522	0.0147502
695.600	0.0142976
695.678	0.0138258
695.756	0.0134383
695.834	0.0131390
695.913	0.0129640
695.991	0.0128732
696.069	0.0127515
696.147	0.0127477
696.225	0.0127106
696.303	0.0129001
696.381	0.0131264
696.459	0.0131097
696.538	0.0133506
696.616	0.0136985
696.694	0.0138451
696.772	0.0142019
696.850	0.0144321
696.928	0.0147929
697.006	0.0151332
697.084	0.0155299
697.163	0.0158456
697.241	0.0160691
697.319	0.0164951
697.397	0.0168439
697.475	0.0173988
697.553	0.0178375
697.631	0.0181106
697.709	0.0183997
697.788	0.0185439
697.866	0.0185446
697.944	0.0185986
698.022	0.0184891
698.100	0.0181154
698.178	0.0177348
698.256	0.0173267
698.334	0.0167711
698.413	0.0161333
698.491	0.0157365
698.569	0.0150198
698.647	0.0145655
698.725	0.0142512
698.803	0.0138583
698.881	0.0134579
698.959	0.0133214
699.038	0.0132108
699.116	0.0130419
699.194	0.0129823
699.272	0.0129573
699.350	0.0129933
699.428	0.0128760
699.506	0.0126234
699.584	0.0125958
699.663	0.0127232
699.741	0.0127295
699.819	0.0129092
699.897	0.0131158
699.975	0.0134466
700.053	0.0138724
700.131	0.0145184
700.209	0.0150666
700.288	0.0154606
700.366	0.0160944
700.444	0.0166416
700.522	0.0169351
700.600	0.0170971
700.678	0.0173013
700.756	0.0171188
700.834	0.0169808
700.913	0.0168239
700.991	0.0164979
701.069	0.0160195
701.147	0.0158070
701.225	0.0156950
701.303	0.0155333
701.381	0.0154357
701.459	0.0154541
701.538	0.0155630
701.616	0.0157921
701.694	0.0158108
701.772	0.0158566
701.850	0.0159836
701.928	0.0158922
702.006	0.0156287
702.084	0.0154912
702.163	0.0151022
702.241	0.0146361
702.319	0.0143388
702.397	0.0138914
702.475	0.0134811
702.553	0.0133633
702.631	0.0132867
702.709	0.0130698
702.788	0.0134417
702.866	0.0136726
702.944	0.0139086
703.022	0.0144910
703.100	0.0147406
703.178	0.0152110
703.256	0.0156602
703.334	0.0159846
703.413	0.0160631
703.491	0.0162997
703.569	0.0163224
703.647	0.0162886
703.725	0.0161845
703.803	0.0159383
703.881	0.0158120
703.959	0.0156664
704.038	0.0154946
704.116	0.0153297
704.194	0.0150581
704.272	0.0150639
704.350	0.0148877
704.428	0.0147552
704.506	0.0148399
704.584	0.0148532
704.663	0.0149985
704.741	0.0151991
704.819	0.0152908
704.897	0.0154092
704.975	0.0152146
705.053	0.0152561
705.131	0.0149779
705.209	0.0149497
705.288	0.0148948
705.366	0.0146684
705.444	0.0145949
705.522	0.0144819
705.600	0.0143940
705.678	0.0144673
705.756	0.0144924
705.834	0.0145030
705.913	0.0147220
705.991	0.0150191
706.069	0.0152830
706.147	0.0154726
706.225	0.0157581
706.303	0.0159386
706.381	0.0162301
706.459	0.0164133
706.538	0.0165794
706.616	0.0167155
706.694	0.0167598
706.772	0.0168348
706.850	0.0167239
706.928	0.0166121
707.006	0.0165133
707.084	0.0161888
707.163	0.0158813
707.241	0.0156126
707.319	0.0152320
707.397	0.0146463
707.475	0.0144251
707.553	0.0138827
707.631	0.0136414
707.709	0.0134108
707.788	0.0132981
707.866	0.0131350
707.944	0.0129928
708.022	0.0130755
708.100	0.0130184
708.178	0.0130380
708.256	0.0129343
708.334	0.0130752
708.413	0.0130491
708.491	0.0130779
708.569	0.0131770
708.647	0.0132784
708.725	0.0133278
708.803	0.0136658
708.881	0.0139015
708.959	0.0140882
709.038	0.0143846
709.116	0.0147919
709.194	0.0151246
709.272	0.0154157
709.350	0.0156025
709.428	0.0159855
709.506	0.0162669
709.584	0.0163515
709.663	0.0166553
709.741	0.0168565
709.819	0.0170650
709.897	0.0171272
709.975	0.0173454
710.053	0.0177544
710.131	0.0178016
710.209	0.0182820
710.288	0.0184747
710.366	0.0186607
710.444	0.0188853
710.522	0.0188702
710.600	0.0187660
710.678	0.0187552
710.756	0.0186292
710.834	0.0184881
710.913	0.0180785
710.991	0.0178870
711.069	0.0175360
711.147	0.0171091
711.225	0.0167277
711.303	0.0162695
711.381	0.0159650
711.459	0.0156013
711.538	0.0150214
711.616	0.0146144
711.694	0.0141315
711.772	0.0137899
711.850	0.0132770
711.928	0.0128168
712.006	0.0125029
712.084	0.0121815
712.163	0.0118887
712.241	0.0115781
712.319	0.0115757
712.397	0.0114503
712.475	0.0112784
712.553	0.0114143
712.631	0.0114340
712.709	0.0115533
712.788	0.0116866
712.866	0.0114594
712.944	0.0115337
713.022	0.0117088
713.100	0.0117725
713.178	0.0116005
713.256	0.0116902
713.334	0.0118112
713.413	0.0118919
713.491	0.0121999
713.569	0.0123913
713.647	0.0129264
713.725	0.0132669
713.803	0.0139182
713.881	0.0145408
713.959	0.0150852
714.038	0.0157635
714.116	0.0162377
714.194	0.0169194
714.272	0.0172765
714.350	0.0179678
714.428	0.0186333
714.506	0.0190144
714.584	0.0193562
714.663	0.0196511
714.741	0.0200427
714.819	0.0204733
714.897	0.0206522
714.975	0.0208292
715.053	0.0208078
715.131	0.0210097
715.209	0.0208278
715.288	0.0205213
715.366	0.0201547
715.444	0.0196099
715.522	0.0191115
715.600	0.0184709
715.678	0.0177303
715.756	0.0169730
715.834	0.0163406
715.913	0.0157168
715.991	0.0152317
716.069	0.0146113
716.147	0.0143272
716.225	0.0138987
716.303	0.0135669
716.381	0.0134653
716.459	0.0132851
716.538	0.0130022
716.616	0.0127223
716.694	0.0124133
716.772	0.0121981
716.850	0.0119830
716.928	0.0117027
717.006	0.0116499
717.084	0.0114676
717.163	0.0115238
717.241	0.0115735
717.319	0.0117484
717.397	0.0120670
717.475	0.0122243
717.553	0.0123747
717.631	0.0127811
717.709	0.0131156
717.788	0.0134252
717.866	0.0137234
717.944	0.0141611
718.022	0.0144264
718.100	0.0146947
718.178	0.0149966
718.256	0.0154564
718.334	0.0157236
718.413	0.0159838
718.491	0.0162898
718.569	0.0165380
718.647	0.0166611
718.725	0.0168354
718.803	0.0169284
718.881	0.0168446
718.959	0.0167559
719.038	0.0166319
719.116	0.0164212
719.194	0.0161730
719.272	0.0159179
719.350	0.0156274
719.428	0.0154388
719.506	0.0151788
719.584	0.0150098
719.663	0.0148060
719.741	0.0145857
719.819	0.0144986
719.897	0.0145740
719.975	0.0144775
720.053	0.0145932
720.131	0.0144439
720.209	0.0146249
720.288	0.0144830
720.366	0.0146146
720.444	0.0146849
720.522	0.0147724
720.600	0.0148317
720.678	0.0151389
720.756	0.0151634
720.834	0.0154900
720.913	0.0156366
720.991	0.0159956
721.069	0.0160519
721.147	0.0163252
721.225	0.0164322
721.303	0.0165918
721.381	0.0167680
721.459	0.0166939
721.538	0.0167028
721.616	0.0167702
721.694	0.0168686
721.772	0.0164542
721.850	0.0162984
721.928	0.0162344
722.006	0.0159476
722.084	0.0154833
722.163	0.0151503
722.241	0.0150355
722.319	0.0147083
722.397	0.0146371
722.475	0.0144390
722.553	0.0143794
722.631	0.0143291
722.709	0.0143159
722.788	0.0142794
722.866	0.0144239
722.944	0.0145838
723.022	0.0147157
723.100	0.0149721
723.178	0.0150707
723.256	0.0151944
723.334	0.0151177
723.413	0.0152081
723.491	0.0151851
723.569	0.0151959
723.647	0.0155825
723.725	0.0154948
723.803	0.0156489
723.881	0.0157895
723.959	0.0160213
724.038	0.0160532
724.116	0.0161051
724.194	0.0161428
724.272	0.0160047
724.350	0.0159612
724.428	0.0158000
724.506	0.0156745
724.584	0.0155074
724.663	0.0150188
724.741	0.0148668
724.819	0.0145821
724.897	0.0142504
724.975	0.0140080
725.053	0.0139808
725.131	0.0136067
725.209	0.0136398
725.288	0.0136354
725.366	0.0136157
725.444	0.0136084
725.522	0.0138901
725.600	0.0140221
725.678	0.0140601
725.756	0.0142632
725.834	0.0143604
725.913	0.0143113
725.991	0.0144242
726.069	0.0144143
726.147	0.0145903
726.225	0.0147056
726.303	0.0147953
726.381	0.0145494
726.459	0.0143632
726.538	0.0145820
726.616	0.0146151
726.694	0.0146185
726.772	0.0145439
726.850	0.0146087
726.928	0.0145582
727.006	0.0145082
727.084	0.0145802
727.163	0.0145865
727.241	0.0147063
727.319	0.0145700
727.397	0.0145048
727.475	0.0146260
727.553	0.0145538
727.631	0.0145509
727.709	0.0147704
727.788	0.0146899
727.866	0.0149750
727.944	0.0151832
728.022	0.0154709
728.100	0.0157869
728.178	0.0162232
728.256	0.0164114
728.334	0.0168082
728.413	0.0171689
728.491	0.0174632
728.569	0.0176339
728.647	0.0177240
728.725	0.0178889
728.803	0.0177527
728.881	0.0175729
728.959	0.0174497
729.038	0.0174571
729.116	0.0172553
729.194	0.0172486
729.272	0.0170205
729.350	0.0169916
729.428	0.0169126
729.506	0.0169234
729.584	0.0168177
729.663	0.0165025
729.741	0.0164466
729.819	0.0164365
729.897	0.0161464
729.975	0.0159097
730.053	0.0156123
730.131	0.0153404
730.209	0.0150630
730.288	0.0148067
730.366	0.0145210
730.444	0.0140701
730.522	0.0138779
730.600	0.0135059
730.678	0.0132706
730.756	0.0132150
730.834	0.0130632
730.913	0.0131065
730.991	0.0130444
731.069	0.0130089
731.147	0.0131403
731.225	0.0134071
731.303	0.0137195
731.381	0.0140652
731.459	0.0144006
731.538	0.0145312
731.616	0.0146049
731.694	0.0149255
731.772	0.0150252
731.850	0.0149803
731.928	0.0149606
732.006	0.0147158
732.084	0.0146027
732.163	0.0144353
732.241	0.0142413
732.319	0.0139623
732.397	0.0138147
732.475	0.0137833
732.553	0.0138177
732.631	0.0138927
732.709	0.0140174
732.788	0.0143037
732.866	0.0146088
732.944	0.0149355
733.022	0.0153821
733.100	0.0155277
733.178	0.0159146
733.256	0.0161088
733.334	0.0161530
733.413	0.0161970
733.491	0.0161261
733.569	0.0159418
733.647	0.0160000
733.725	0.0157037
733.803	0.0156630
733.881	0.0155631
733.959	0.0154810
734.038	0.0153452
734.116	0.0152398
734.194	0.0155103
734.272	0.0154189
734.350	0.0154884
734.428	0.0155241
734.506	0.0153310
734.584	0.0153452
734.663	0.0151836
734.741	0.0147429
734.819	0.0146677
734.897	0.0142822
734.975	0.0139282
735.053	0.0136961
735.131	0.0136209
735.209	0.0135179
735.288	0.0135326
735.366	0.0137861
735.444	0.0142332
735.522	0.0146229
735.600	0.0150703
735.678	0.0157533
735.756	0.0163674
735.834	0.0169211
735.913	0.0174786
735.991	0.0179357
736.069	0.0182281
736.147	0.0183444
736.225	0.0183833
736.303	0.0182274
736.381	0.0181224
736.459	0.0179644
736.538	0.0177427
736.616	0.0176637
736.694	0.0172933
736.772	0.0172344
736.850	0.0170023
736.928	0.0169155
737.006	0.0167696
737.084	0.0165901
737.163	0.0162935
737.241	0.0163973
737.319	0.0162347
737.397	0.0158562
737.475	0.0156682
737.553	0.0154204
737.631	0.0151826
737.709	0.0149947
737.788	0.0147398
737.866	0.0144981
737.944	0.0145350
738.022	0.0144117
738.100	0.0142014
738.178	0.0140054
738.256	0.0137244
738.334	0.0136946
738.413	0.0134126
738.491	0.0130989
738.569	0.0127554
738.647	0.0124494
738.725	0.0121384
738.803	0.0119705
738.881	0.0117693
738.959	0.0117044
739.038	0.0116836
739.116	0.0119650
739.194	0.0121508
739.272	0.0125797
739.350	0.0130083
739.428	0.0135794
739.506	0.0141242
739.584	0.0145963
739.663	0.0148972
739.741	0.0153632
739.819	0.0155193
739.897	0.0157133
739.975	0.0156616
740.053	0.0157912
740.131	0.0157716
740.209	0.0157971
740.288	0.0156763
740.366	0.0155769
740.444	0.0155790
740.522	0.0156730
740.600	0.0157242
740.678	0.0158101
740.756	0.0159076
740.834	0.0160699
740.913	0.0162988
740.991	0.0164673
741.069	0.0165863
741.147	0.0165701
741.225	0.0166347
741.303	0.0165108
741.381	0.0165322
741.459	0.0163730
741.538	0.0161133
741.616	0.0159122
741.694	0.0155911
741.772	0.0153907
741.850	0.0149633
741.928	0.0146535
742.006	0.0144489
742.084	0.0141818
742.163	0.0139349
742.241	0.0140702
742.319	0.0140937
742.397	0.0141769
742.475	0.0140654
742.553	0.0142813
742.631	0.0142536
742.709	0.0145840
742.788	0.0148701
742.866	0.0151605
742.944	0.0153341
743.022	0.0154711
743.100	0.0160303
743.178	0.0164007
743.256	0.0167632
743.334	0.0171507
743.413	0.0176602
743.491	0.0180800
743.569	0.0181584
743.647	0.0184162
743.725	0.0186230
743.803	0.0187006
743.881	0.0187382
743.959	0.0184567
744.038	0.0183005
744.116	0.0180110
744.194	0.0175977
744.272	0.0169484
744.350	0.0165427
744.428	0.0159630
744.506	0.0154828
744.584	0.0148387
744.663	0.0145289
744.741	0.0143150
744.819	0.0141650
744.897	0.0138567
744.975	0.0140458
745.053	0.0140117
745.131	0.0140011
745.209	0.0139676
745.288	0.0141174
745.366	0.0140613
745.444	0.0139440
745.522	0.0141613
745.600	0.0139648
745.678	0.0139183
745.756	0.0136860
745.834	0.0138158
745.913	0.0135940
745.991	0.0132472
746.069	0.0131819
746.147	0.0130692
746.225	0.0127177
746.303	0.0127072
746.381	0.0125038
746.459	0.0123768
746.538	0.0123718
746.616	0.0123563
746.694	0.0125340
746.772	0.0127166
746.850	0.0129965
746.928	0.0133753
747.006	0.0137911
747.084	0.0143435
747.163	0.0146985
747.241	0.0151543
747.319	0.0154826
747.397	0.0157805
747.475	0.0160359
747.553	0.0162653
747.631	0.0162613
747.709	0.0163789
747.788	0.0162460
747.866	0.0163216
747.944	0.0162528
748.022	0.0162240
748.100	0.0162157
748.178	0.0161510
748.256	0.0162132
748.334	0.0165007
748.413	0.0164856
748.491	0.0166727
748.569	0.0168689
748.647	0.0169170
748.725	0.0171286
748.803	0.0169382
748.881	0.0168307
748.959	0.0166984
749.038	0.0163810
749.116	0.0159939
749.194	0.0155664
749.272	0.0151862
749.350	0.0147813
749.428	0.0143165
749.506	0.0140562
749.584	0.0137080
749.663	0.0134426
749.741	0.0130712
749.819	0.0130553
749.897	0.0130436
749.975	0.0133220
750.053	0.0134624
750.131	0.0136657
750.209	0.0139956
750.288	0.0144450
750.366	0.0150320
750.444	0.0154310
750.522	0.0159921
750.600	0.0165288
750.678	0.0170252
750.756	0.0173644
750.834	0.0178780
750.913	0.0182596
750.991	0.0185230
751.069	0.0187025
751.147	0.0189633
751.225	0.0189720
751.303	0.0189782
751.381	0.0190044
751.459	0.0187215
751.538	0.0183795
751.616	0.0181734
751.694	0.0176668
751.772	0.0170872
751.850	0.0165279
751.928	0.0157705
752.006	0.0151074
752.084	0.0144704
752.163	0.0139941
752.241	0.0135426
752.319	0.0129913
752.397	0.0126046
752.475	0.0123899
752.553	0.0123521
752.631	0.0123894
752.709	0.0125476
752.788	0.0127572
752.866	0.0128046
752.944	0.0130888
753.022	0.0135639
753.100	0.0136890
753.178	0.0140327
753.256	0.0140759
753.334	0.0144812
753.413	0.0143761
753.491	0.0143999
753.569	0.0146161
753.647	0.0145796
753.725	0.0143268
753.803	0.0142329
753.881	0.0141988
753.959	0.0139808
754.038	0.0138996
754.116	0.0134920
754.194	0.0133351
754.272	0.0131566
754.350	0.0129982
754.428	0.0128564
754.506	0.0128066
754.584	0.0128380
754.663	0.0128221
754.741	0.0131445
754.819	0.0131679
754.897	0.0135225
754.975	0.0138243
755.053	0.0144386
755.131	0.0148072
755.209	0.0152372
755.288	0.0156824
755.366	0.0161245
755.444	0.0167192
755.522	0.0170097
755.600	0.0172510
755.678	0.0175842
755.756	0.0178413
755.834	0.0179067
755.913	0.0181584
755.991	0.0181743
756.069	0.0181163
756.147	0.0181991
756.225	0.0180698
756.303	0.0179156
756.381	0.0175770
756.459	0.0174013
756.538	0.0170589
756.616	0.0167047
756.694	0.0161529
756.772	0.0156845
756.850	0.0152213
756.928	0.0146405
757.006	0.0142467
757.084	0.0136266
757.163	0.0132883
757.241	0.0130540
757.319	0.0128478
757.397	0.0125342
757.475	0.0124078
757.553	0.0123923
757.631	0.0126097
757.709	0.0127159
757.788	0.0130080
757.866	0.0133799
757.944	0.0138698
758.022	0.0145750
758.100	0.0150626
758.178	0.0155796
758.256	0.0163667
758.334	0.0170193
758.413	0.0174950
758.491	0.0179787
758.569	0.0182758
758.647	0.0186709
758.725	0.0189399
758.803	0.0189638
758.881	0.0189551
758.959	0.0190531
759.038	0.0187411
759.116	0.0183535
759.194	0.0179360
759.272	0.0175487
759.350	0.0171187
759.428	0.0164246
759.506	0.0160422
759.584	0.0153061
759.663	0.0147171
759.741	0.0142155
759.819	0.0138600
759.897	0.0133932
759.975	0.0130413
760.053	0.0127851
760.131	0.0128095
760.209	0.0127129
760.288	0.0126810
760.366	0.0128206
760.444	0.0128809
760.522	0.0132644
760.600	0.0136594
760.678	0.0137560
760.756	0.0141959
760.834	0.0145544
760.913	0.0147186
760.991	0.0150759
761.069	0.0153048
761.147	0.0154926
761.225	0.0155667
761.303	0.0155273
761.381	0.0152509
761.459	0.0149907
761.538	0.0147241
761.616	0.0143455
761.694	0.0141668
761.772	0.0139420
761.850	0.0135204
761.928	0.0131930
762.006	0.0128404
762.084	0.0127331
762.163	0.0127135
762.241	0.0127881
762.319	0.0129464
762.397	0.0131028
762.475	0.0133358
762.553	0.0137243
762.631	0.0139572
762.709	0.0143046
762.788	0.0148639
762.866	0.0152119
762.944	0.0155604
763.022	0.0159371
763.100	0.0163292
763.178	0.0166215
763.256	0.0170930
763.334	0.0174068
763.413	0.0175422
763.491	0.0176417
763.569	0.0176459
763.647	0.0177022
763.725	0.0177329
763.803	0.0174510
763.881	0.0174980
763.959	0.0172927
764.038	0.0170375
764.116	0.0167149
764.194	0.0164813
764.272	0.0160332
764.350	0.0156512
764.428	0.0152245
764.506	0.0148933
764.584	0.0145300
764.663	0.0141810
764.741	0.0138846
764.819	0.0135474
764.897	0.0134123
764.975	0.0133556
765.053	0.0132439
765.131	0.0134956
765.209	0.0135516
765.288	0.0138375
765.366	0.0141235
765.444	0.0144487
765.522	0.0149059
765.600	0.0154679
765.678	0.0159613
765.756	0.0164468
765.834	0.0169850
765.913	0.0175695
765.991	0.0179694
766.069	0.0181770
766.147	0.0184115
766.225	0.0185796
766.303	0.0188566
766.381	0.0187042
766.459	0.0183776
766.538	0.0182698
766.616	0.0178757
766.694	0.0173740
766.772	0.0169567
766.850	0.0165880
766.928	0.0161530
767.006	0.0156226
767.084	0.0151167
767.163	0.0146746
767.241	0.0143748
767.319	0.0139837
767.397	0.0137056
767.475	0.0133607
767.553	0.0131453
767.631	0.0130373
767.709	0.0129172
767.788	0.0128094
767.866	0.0128695
767.944	0.0129565
768.022	0.0129518
768.100	0.0132375
768.178	0.0134306
768.256	0.0134098
768.334	0.0136660
768.413	0.0139894
768.491	0.0142378
768.569	0.0142689
768.647	0.0144879
768.725	0.0149164
768.803	0.0149635
768.881	0.0150449
768.959	0.0150794
769.038	0.0151405
769.116	0.0151488
769.194	0.0150698
769.272	0.0149103
769.350	0.0147649
769.428	0.0144902
769.506	0.0143212
769.584	0.0141769
769.663	0.0139823
769.741	0.0138896
769.819	0.0136350
769.897	0.0136700
769.975	0.0136259
770.053	0.0138551
770.131	0.0138158
770.209	0.0139114
770.288	0.0142071
770.366	0.0144991
770.444	0.0148749
770.522	0.0150417
770.600	0.0154178
770.678	0.0157616
770.756	0.0161826
770.834	0.0163292
770.913	0.0167167
770.991	0.0168896
771.069	0.0170117
771.147	0.0170534
771.225	0.0171261
771.303	0.0171276
771.381	0.0171750
771.459	0.0169865
771.538	0.0169350
771.616	0.0165857
771.694	0.0164363
771.772	0.0161372
771.850	0.0158345
771.928	0.0157329
772.006	0.0156216
772.084	0.0150801
772.163	0.0151070
772.241	0.0149171
772.319	0.0146108
772.397	0.0145432
772.475	0.0142274
772.553	0.0141835
772.631	0.0140215
772.709	0.0140627
772.788	0.0141975
772.866	0.0141875
772.944	0.0141508
773.022	0.0143412
773.100	0.0144009
773.178	0.0148009
773.256	0.0150698
773.334	0.0153434
773.413	0.0157649
773.491	0.0160971
773.569	0.0163460
773.647	0.0168375
773.725	0.0171872
773.803	0.0174029
773.881	0.0175060
773.959	0.0176637
774.038	0.0177708
774.116	0.0177441
774.194	0.0176309
774.272	0.0173625
774.350	0.0172703
774.428	0.0170087
774.506	0.0166373
774.584	0.0162088
774.663	0.0157482
774.741	0.0154016
774.819	0.0151138
774.897	0.0145738
774.975	0.0142594
775.053	0.0138109
775.131	0.0135124
775.209	0.0133015
775.288	0.0131026
775.366	0.0129852
775.444	0.0128048
775.522	0.0129687
775.600	0.0128355
775.678	0.0129323
775.756	0.0129206
775.834	0.0132730
775.913	0.0136367
775.991	0.0136744
776.069	0.0140569
776.147	0.0143340
776.225	0.0146355
776.303	0.0147726
776.381	0.0150777
776.459	0.0154163
776.538	0.0156001
776.616	0.0155498
776.694	0.0157335
776.772	0.0156949
776.850	0.0156770
776.928	0.0155710
777.006	0.0153582
777.084	0.0149535
777.163	0.0148216
777.241	0.0147089
777.319	0.0145283
777.397	0.0141735
777.475	0.0139084
777.553	0.0137258
777.631	0.0135866
777.709	0.0134785
777.788	0.0135658
777.866	0.0135405
777.944	0.0135607
778.022	0.0137566
778.100	0.0139352
778.178	0.0141841
778.256	0.0143766
778.334	0.0145932
778.413	0.0149936
778.491	0.0151604
778.569	0.0155079
778.647	0.0157790
778.725	0.0160044
778.803	0.0163237
778.881	0.0164588
778.959	0.0166773
779.038	0.0168787
779.116	0.0168280
779.194	0.0169405
779.272	0.0169739
779.350	0.0168865
779.428	0.0168584
779.506	0.0167587
779.584	0.0166341
779.663	0.0164176
779.741	0.0163686
779.819	0.0161002
779.897	0.0158985
779.975	0.0156277
780.053	0.0155309
780.131	0.0152588
780.209	0.0150109
780.288	0.0148668
780.366	0.0147217
780.444	0.0144067
780.522	0.0143318
780.600	0.0142004
780.678	0.0141031
780.756	0.0143036
780.834	0.0142728
780.913	0.0144405
780.991	0.0146256
781.069	0.0147720
781.147	0.0150758
781.225	0.0152270
781.303	0.0156384
781.381	0.0157178
781.459	0.0158919
781.538	0.0160548
781.616	0.0164971
781.694	0.0167480
781.772	0.0165575
781.850	0.0166349
781.928	0.0166618
782.006	0.0166542
782.084	0.0166654
782.163	0.0164313
782.241	0.0163109
782.319	0.0161783
782.397	0.0159151
782.475	0.0155182
782.553	0.0153189
782.631	0.0151686
782.709	0.0149577
782.788	0.0146082
782.866	0.0145901
782.944	0.0143510
783.022	0.0140733
783.100	0.0140591
783.178	0.0139743
783.256	0.0138229
783.334	0.0137352
783.413	0.0137017
783.491	0.0136192
783.569	0.0136864
783.647	0.0135920
783.725	0.0137646
783.803	0.0137250
783.881	0.0139220
783.959	0.0141430
784.038	0.0142416
784.116	0.0144888
784.194	0.0145978
784.272	0.0148727
784.350	0.0150338
784.428	0.0150140
784.506	0.0153192
784.584	0.0156166
784.663	0.0153772
784.741	0.0154655
784.819	0.0154189
784.897	0.0152634
784.975	0.0152036
785.053	0.0151102
785.131	0.0150279
785.209	0.0149002
785.288	0.0146929
785.366	0.0145572
785.444	0.0145708
785.522	0.0144180
785.600	0.0144697
785.678	0.0143613
785.756	0.0144021
785.834	0.0143921
785.913	0.0145822
785.991	0.0146225
786.069	0.0147107
786.147	0.0149232
786.225	0.0150246
786.303	0.0151626
786.381	0.0153859
786.459	0.0155927
786.538	0.0155080
786.616	0.0157398
786.694	0.0159835
786.772	0.0159676
786.850	0.0159821
786.928	0.0160941
787.006	0.0160732
787.084	0.0162979
787.163	0.0162607
787.241	0.0161287
787.319	0.0161457
787.397	0.0161287
787.475	0.0161028
787.553	0.0159028
787.631	0.0158093
787.709	0.0158417
787.788	0.0157429
787.866	0.0155794
787.944	0.0154413
788.022	0.0154060
788.100	0.0152179
788.178	0.0151217
788.256	0.0151160
788.334	0.0151550
788.413	0.0150423
788.491	0.0149485
788.569	0.0147662
788.647	0.0148578
788.725	0.0148891
788.803	0.0148972
788.881	0.0148660
788.959	0.0148698
789.038	0.0151170
789.116	0.0152936
789.194	0.0153025
789.272	0.0152781
789.350	0.0154626
789.428	0.0155541
789.506	0.0157967
789.584	0.0158932
789.663	0.0159641
789.741	0.0160780
789.819	0.0160724
789.897	0.0162214
789.975	0.0161259
790.053	0.0161950
790.131	0.0161295
790.209	0.0159508
790.288	0.0158063
790.366	0.0159270
790.444	0.0156785
790.522	0.0154488
790.600	0.0152699
790.678	0.0151182
790.756	0.0150175
790.834	0.0147799
790.913	0.0146877
790.991	0.0144832
791.069	0.0144214
791.147	0.0143001
791.225	0.0142307
791.303	0.0144350
791.381	0.0143101
791.459	0.0142758
791.538	0.0140759
791.616	0.0142874
791.694	0.0144035
791.772	0.0143386
791.850	0.0143578
791.928	0.0144248
792.006	0.0144933
792.084	0.0145544
792.163	0.0145638
792.241	0.0146799
792.319	0.0148148
792.397	0.0146179
792.475	0.0146776
792.553	0.0147961
792.631	0.0149161
792.709	0.0150382
792.788	0.0149211
792.866	0.0149977
792.944	0.0148290
793.022	0.0150060
793.100	0.0148931
793.178	0.0148096
793.256	0.0149472
793.334	0.0148279
793.413	0.0148164
793.491	0.0147054
793.569	0.0148208
793.647	0.0147557
793.725	0.0147030
793.803	0.0149756
793.881	0.0149257
793.959	0.0149805
794.038	0.0151642
794.116	0.0153553
794.194	0.0153107
794.272	0.0155564
794.350	0.0157113
794.428	0.0157304
794.506	0.0159300
794.584	0.0159928
794.663	0.0160030
794.741	0.0161465
794.819	0.0161466
794.897	0.0161886
794.975	0.0161746
795.053	0.0159480
795.131	0.0160173
795.209	0.0160241
795.288	0.0157880
795.366	0.0156026
795.444	0.0154847
795.522	0.0154192
795.600	0.0151998
795.678	0.0150211
795.756	0.0150739
795.834	0.0149422
795.913	0.0148077
795.991	0.0148544
796.069	0.0148193
796.147	0.0147417
796.225	0.0148818
796.303	0.0147462
796.381	0.0148983
796.459	0.0149133
796.538	0.0148480
796.616	0.0149857
796.694	0.0150788
796.772	0.0151094
796.850	0.0151464
796.928	0.0150337
797.006	0.0151813
797.084	0.0152944
797.163	0.0152380
797.241	0.0154137
797.319	0.0155215
797.397	0.0155833
797.475	0.0156558
797.553	0.0157926
797.631	0.0156252
797.709	0.0158494
797.788	0.0158167
797.866	0.0158270
797.944	0.0158485
798.022	0.0158428
798.100	0.0157302
798.178	0.0156665
798.256	0.0156921
798.334	0.0155929
798.413	0.0154288
798.491	0.0152276
798.569	0.0150611
798.647	0.0148276
798.725	0.0147990
798.803	0.0147395
798.881	0.0146498
798.959	0.0144336
799.038	0.0144086
799.116	0.0142124
799.194	0.0141833
799.272	0.0142442
799.350	0.0142193
799.428	0.0142564
799.506	0.0142624
799.584	0.0142364
799.663	0.0143684
799.741	0.0143872
799.819	0.0145702
799.897	0.0144961
799.975	0.0146370
800.053	0.0148724
800.131	0.0148263
800.209	0.0150011
800.288	0.0151182
800.366	0.0151811
800.444	0.0152994
800.522	0.0153904
800.600	0.0152890
800.678	0.0153745
800.756	0.0155429
800.834	0.0153844
800.913	0.0153129
800.991	0.0152998
801.069	0.0152058
801.147	0.0151997
801.225	0.0152363
801.303	0.0151521
801.381	0.0150124
801.459	0.0150504
801.538	0.0151373
801.616	0.0148618
801.694	0.0149250
801.772	0.0148717
801.850	0.0148808
801.928	0.0148720
802.006	0.0148486
802.084	0.0148647
802.163	0.0150723
802.241	0.0151215
802.319	0.0151093
802.397	0.0152250
802.475	0.0153226
802.553	0.0154630
802.631	0.0154076
802.709	0.0155779
802.788	0.0155400
802.866	0.0156649
802.944	0.0158485
803.022	0.0156351
803.100	0.0157672
803.178	0.0158913
803.256	0.0159495
803.334	0.0160043
803.413	0.0158770
803.491	0.0158307
803.569	0.0156965
803.647	0.0156571
803.725	0.0155123
803.803	0.0152899
803.881	0.0153160
803.959	0.0151583
804.038	0.0151994
804.116	0.0149819
804.194	0.0148259
804.272	0.0149255
804.350	0.0147683
804.428	0.0145950
804.506	0.0146796
804.584	0.0145904
804.663	0.0145661
804.741	0.0147346
804.819	0.0145961
804.897	0.0147180
804.975	0.0148219
805.053	0.0149350
805.131	0.0150146
805.209	0.0150452
805.288	0.0153075
805.366	0.0153357
805.444	0.0154143
805.522	0.0154267
805.600	0.0156075
805.678	0.0156670
805.756	0.0157944
805.834	0.0157413
805.913	0.0158836
805.991	0.0160249
806.069	0.0159772
806.147	0.0158670
806.225	0.0156716
806.303	0.0158836
806.381	0.0157574
806.459	0.0155785
806.538	0.0156946
806.616	0.0155732
806.694	0.0154175
806.772	0.0154183
806.850	0.0153175
806.928	0.0153025
807.006	0.0151386
807.084	0.0150591
807.163	0.0149996
807.241	0.0149421
807.319	0.0147688
807.397	0.0148540
807.475	0.0147937
807.553	0.0147733
807.631	0.0147552
807.709	0.0147330
807.788	0.0148361
807.866	0.0147108
807.944	0.0146743
808.022	0.0148902
808.100	0.0148952
808.178	0.0149287
808.256	0.0148446
808.334	0.0150401
808.413	0.0151615
808.491	0.0150149
808.569	0.0150439
808.647	0.0148450
808.725	0.0149760
808.803	0.0149624
808.881	0.0148521
808.959	0.0148731
809.038	0.0149110
809.116	0.0146957
809.194	0.0147799
809.272	0.0147395
809.350	0.0146386
809.428	0.0145672
809.506	0.0145143
809.584	0.0144801
809.663	0.0145084
809.741	0.0145543
809.819	0.0145558
809.897	0.0145662
809.975	0.0146768
810.053	0.0146121
810.131	0.0148757
810.209	0.0149001
810.288	0.0150826
810.366	0.0151903
810.444	0.0150869
810.522	0.0154408
810.600	0.0155177
810.678	0.0156395
810.756	0.0156549
810.834	0.0159056
810.913	0.0159849
810.991	0.0160139
811.069	0.0161957
811.147	0.0163065
811.225	0.0162245
811.303	0.0163336
811.381	0.0162273
811.459	0.0161787
811.538	0.0162017
811.616	0.0160791
811.694	0.0160814
811.772	0.0159224
811.850	0.0159434
811.928	0.0157687
812.006	0.0157364
812.084	0.0156557
812.163	0.0155959
812.241	0.0154338
812.319	0.0152821
812.397	0.0152724
812.475	0.0153209
812.553	0.0152364
812.631	0.0151957
812.709	0.0150127
812.788	0.0151218
812.866	0.0149335
812.944	0.0149377
813.022	0.0148156
813.100	0.0147182
813.178	0.0148250
813.256	0.0148087
813.334	0.0147997
813.413	0.0149600
813.491	0.0150006
813.569	0.0148773
813.647	0.0149897
813.725	0.0150701
813.803	0.0151773
813.881	0.0152682
813.959	0.0152256
814.038	0.0153400
814.116	0.0155910
814.194	0.0153869
814.272	0.0153176
814.350	0.0153687
814.428	0.0152263
814.506	0.0153247
814.584	0.0152436
814.663	0.0150786
814.741	0.0150458
814.819	0.0149668
814.897	0.0149830
814.975	0.0149732
815.053	0.0148599
815.131	0.0149123
815.209	0.0148795
815.288	0.0148803
815.366	0.0148792
815.444	0.0148734
815.522	0.0149119
815.600	0.0147472
815.678	0.0147685
815.756	0.0149868
815.834	0.0147858
815.913	0.0150394
815.991	0.0150108
816.069	0.0150180
816.147	0.0151247
816.225	0.0152216
816.303	0.0152359
816.381	0.0153132
816.459	0.0153895
816.538	0.0153001
816.616	0.0153422
816.694	0.0153484
816.772	0.0153617
816.850	0.0153558
816.928	0.0154015
817.006	0.0153682
817.084	0.0154236
817.163	0.0153471
817.241	0.0152686
817.319	0.0153929
817.397	0.0152738
817.475	0.0152222
817.553	0.0152635
817.631	0.0150294
817.709	0.0150188
817.788	0.0149221
817.866	0.0149970
817.944	0.0149551
818.022	0.0149723
818.100	0.0150445
818.178	0.0150353
818.256	0.0149054
818.334	0.0149635
818.413	0.0150067
818.491	0.0149899
818.569	0.0151785
818.647	0.0152618
818.725	0.0152160
818.803	0.0152335
818.881	0.0153757
818.959	0.0153699
819.038	0.0152555
819.116	0.0153664
819.194	0.0154985
819.272	0.0157146
819.350	0.0155276
819.428	0.0155280
819.506	0.0155460
819.584	0.0156252
819.663	0.0154546
819.741	0.0155800
819.819	0.0156054
819.897	0.0154481
819.975	0.0153388
820.053	0.0153576
820.131	0.0152282
820.209	0.0153239
820.288	0.0153082
820.366	0.0152247
820.444	0.0150831
820.522	0.0150759
820.600	0.0148880
820.678	0.0149281
820.756	0.0147967
820.834	0.0148499
820.913	0.0149188
820.991	0.0147810
821.069	0.0148643
821.147	0.0150425
821.225	0.0149132
821.303	0.0151618
821.381	0.0152241
821.459	0.0151665
821.538	0.0153340
821.616	0.0153400
821.694	0.0153407
821.772	0.0153905
821.850	0.0153613
821.928	0.0152721
822.006	0.0153285
822.084	0.0154343
822.163	0.0152651
822.241	0.0153194
822.319	0.0152656
822.397	0.0151144
822.475	0.0151235
822.553	0.0152007
822.631	0.0151174
822.709	0.0150382
822.788	0.0149521
822.866	0.0148522
822.944	0.0149672
823.022	0.0149291
823.100	0.0146784
823.178	0.0147373
823.256	0.0148422
823.334	0.0147422
823.413	0.0147373
823.491	0.0146989
823.569	0.0148985
823.647	0.0149937
823.725	0.0148444
823.803	0.0149468
823.881	0.0151217
823.959	0.0150491
824.038	0.0152950
824.116	0.0153193
824.194	0.0154821
824.272	0.0155125
824.350	0.0155428
824.428	0.0155307
824.506	0.0155662
824.584	0.0154894
824.663	0.0155203
824.741	0.0156223
824.819	0.0155222
824.897	0.0154814
824.975	0.0155022
825.053	0.0155360
825.131	0.0154495
825.209	0.0153609
825.288	0.0153507
825.366	0.0153311
825.444	0.0153884
825.522	0.0151331
825.600	0.0151710
825.678	0.0150428
825.756	0.0152495
825.834	0.0151086
825.913	0.0151580
825.991	0.0151528
826.069	0.0150798
826.147	0.0149279
826.225	0.0152469
826.303	0.0150349
826.381	0.0151087
826.459	0.0151278
826.538	0.0150829
826.616	0.0151116
826.694	0.0150554
826.772	0.0149936
826.850	0.0151536
826.928	0.0150546
827.006	0.0151423
827.084	0.0153610
827.163	0.0152869
827.241	0.0152320
827.319	0.0152356
827.397	0.0152036
827.475	0.0151137
827.553	0.0153031
827.631	0.0151832
827.709	0.0152087
827.788	0.0150874
827.866	0.0152568
827.944	0.0150285
828.022	0.0152384
828.100	0.0150359
828.178	0.0150370
828.256	0.0149377
828.334	0.0149287
828.413	0.0148837
828.491	0.0149197
828.569	0.0149276
828.647	0.0148342
828.725	0.0148080
828.803	0.0149538
828.881	0.0148837
828.959	0.0149735
829.038	0.0150186
829.116	0.0150105
829.194	0.0150923
829.272	0.0151215
829.350	0.0152072
829.428	0.0153275
829.506	0.0152666
829.584	0.0153011
829.663	0.0155334
829.741	0.0155124
829.819	0.0157205
829.897	0.0158475
829.975	0.0156577
830.053	0.0158121
830.131	0.0159747
830.209	0.0158668
830.288	0.0157512
830.366	0.0158395
830.444	0.0156976
830.522	0.0158034
830.600	0.0158009
830.678	0.0155220
830.756	0.0154230
830.834	0.0153545
830.913	0.0152763
830.991	0.0151181
831.069	0.0149950
831.147	0.0148182
831.225	0.0148608
831.303	0.0147206
831.381	0.0146853
831.459	0.0146168
831.538	0.0146251
831.616	0.0145885
831.694	0.0145013
831.772	0.0147628
831.850	0.0146590
831.928	0.0147334
832.006	0.0149690
832.084	0.0148930
832.163	0.0150804
832.241	0.0150848
832.319	0.0151176
832.397	0.0150569
832.475	0.0154038
832.553	0.0153819
832.631	0.0153851
832.709	0.0154318
832.788	0.0153426
832.866	0.0155582
832.944	0.0156853
833.022	0.0155711
833.100	0.0156362
833.178	0.0156222
833.256	0.0157616
833.334	0.0156680
833.413	0.0156272
833.491	0.0155987
833.569	0.0154919
833.647	0.0154594
833.725	0.0154234
833.803	0.0154439
833.881	0.0153815
833.959	0.0152588
834.038	0.0150311
834.116	0.0151662
834.194	0.0150026
834.272	0.0148719
834.350	0.0149029
834.428	0.0150800
834.506	0.0149800
834.584	0.0148438
834.663	0.0148868
834.741	0.0148856
834.819	0.0148937
834.897	0.0149599
834.975	0.0149332
835.053	0.0147982
835.131	0.0149034
835.209	0.0148577
835.288	0.0149146
835.366	0.0149390
835.444	0.0149820
835.522	0.0149939
835.600	0.0149684
835.678	0.0151167
835.756	0.0149948
835.834	0.0152541
835.913	0.0152309
835.991	0.0151503
836.069	0.0152207
836.147	0.0152304
836.225	0.0151063
836.303	0.0151607
836.381	0.0150774
836.459	0.0151861
836.538	0.0152474
836.616	0.0152771
836.694	0.0152714
836.772	0.0151740
836.850	0.0151429
836.928	0.0153618
837.006	0.0153319
837.084	0.0153741
837.163	0.0154009
837.241	0.0154664
837.319	0.0154225
837.397	0.0153906
837.475	0.0154940
837.553	0.0154192
837.631	0.0153255
837.709	0.0153580
837.788	0.0154124
837.866	0.0154625
837.944	0.0153040
838.022	0.0153328
838.100	0.0153470
838.178	0.0151939
838.256	0.0151352
838.334	0.0150261
838.413	0.0152929
838.491	0.0150478
838.569	0.0151257
838.647	0.0150089
838.725	0.0151363
838.803	0.0151934
838.881	0.0149656
838.959	0.0149220
839.038	0.0150414
839.116	0.0151268
839.194	0.0150855
839.272	0.0151450
839.350	0.0152852
839.428	0.0151514
839.506	0.0152193
839.584	0.0152486
839.663	0.0153203
839.741	0.0153333
839.819	0.0154110
839.897	0.0152834
839.975	0.0152938
840.053	0.0153870
840.131	0.0154153
840.209	0.0153613
840.288	0.0155330
840.366	0.0155836
840.444	0.0154758
840.522	0.0154304
840.600	0.0155685
840.678	0.0154263
840.756	0.0155020
840.834	0.0154597
840.913	0.0153636
840.991	0.0153867
841.069	0.0153930
841.147	0.0153181
841.225	0.0152664
841.303	0.0151765
841.381	0.0151180
841.459	0.0150067
841.538	0.0150545
841.616	0.0148918
841.694	0.0149974
841.772	0.0149368
841.850	0.0148581
841.928	0.0148028
842.006	0.0149986
842.084	0.0149105
842.163	0.0148072
842.241	0.0147543
842.319	0.0148772
842.397	0.0147697
842.475	0.0147633
842.553	0.0148852
842.631	0.0148692
842.709	0.0148747
842.788	0.0149510
842.866	0.0148916
842.944	0.0148734
843.022	0.0149162
843.100	0.0151073
843.178	0.0150632
843.256	0.0149876
843.334	0.0149150
843.413	0.0152093
843.491	0.0151926
843.569	0.0151303
843.647	0.0152246
843.725	0.0152443
843.803	0.0154044
843.881	0.0153743
843.959	0.0152634
844.038	0.0155082
844.116	0.0154141
844.194	0.0155233
844.272	0.0153142
844.350	0.0153629
844.428	0.0154458
844.506	0.0153899
844.584	0.0155009
844.663	0.0153060
844.741	0.0153353
844.819	0.0155180
844.897	0.0154226
844.975	0.0152752
845.053	0.0153330
845.131	0.0153564
845.209	0.0151910
845.288	0.0153381
845.366	0.0152186
845.444	0.0153714
845.522	0.0152496
845.600	0.0153506
845.678	0.0153285
845.756	0.0151764
845.834	0.0154659
845.913	0.0154392
845.991	0.0153946
846.069	0.0154070
846.147	0.0153429
846.225	0.0151968
846.303	0.0153645
846.381	0.0153143
846.459	0.0152354
846.538	0.0154028
846.616	0.0153944
846.694	0.0152132
846.772	0.0152599
846.850	0.0152001
846.928	0.0153874
847.006	0.0152250
847.084	0.0152252
847.163	0.0152297
847.241	0.0150533
847.319	0.0151848
847.397	0.0150962
847.475	0.0152828
847.553	0.0154304
847.631	0.0152596
847.709	0.0152547
847.788	0.0153080
847.866	0.0154153
847.944	0.0154778
848.022	0.0154035
848.100	0.0155394
848.178	0.0155022
848.256	0.0154601
848.334	0.0153993
848.413	0.0155275
848.491	0.0154473
848.569	0.0154230
848.647	0.0153114
848.725	0.0153953
848.803	0.0151823
848.881	0.0152686
848.959	0.0152322
849.038	0.0150713
849.116	0.0149517
849.194	0.0150659
849.272	0.0149208
849.350	0.0148254
849.428	0.0150468
849.506	0.0148433
849.584	0.0147967
849.663	0.0148203
849.741	0.0147240
849.819	0.0148412
849.897	0.0147434
849.975	0.0146651
850.053	0.0148833
850.131	0.0148296
850.209	0.0147923
850.288	0.0148448
850.366	0.0149114
850.444	0.0148851
850.522	0.0147871
850.600	0.0148958
850.678	0.0150415
850.756	0.0150179
850.834	0.0149316
850.913	0.0150501
850.991	0.0151641
851.069	0.0151369
851.147	0.0150311
851.225	0.0152271
851.303	0.0152583
851.381	0.0151395
851.459	0.0153078
851.538	0.0153555
851.616	0.0153362
851.694	0.0153220
851.772	0.0155131
851.850	0.0155555
851.928	0.0154230
852.006	0.0154514
852.084	0.0153583
852.163	0.0154509
852.241	0.0154778
852.319	0.0152970
852.397	0.0155085
852.475	0.0156048
852.553	0.0155246
852.631	0.0155141
852.709	0.0153874
852.788	0.0153868
852.866	0.0154672
852.944	0.0154037
853.022	0.0151640
853.100	0.0152463
853.178	0.0153989
853.256	0.0151961
853.334	0.0151866
853.413	0.0151049
853.491	0.0153219
853.569	0.0152025
853.647	0.0151131
853.725	0.0152305
853.803	0.0152477
853.881	0.0151097
853.959	0.0150592
854.038	0.0149788
854.116	0.0151192
854.194	0.0153288
854.272	0.0151533
854.350	0.0151595
854.428	0.0154516
854.506	0.0151074
854.584	0.0152700
854.663	0.0152744
854.741	0.0153059
854.819	0.0153558
854.897	0.0153415
854.975	0.0152759
855.053	0.0152818
855.131	0.0154120
855.209	0.0154546
855.288	0.0152649
855.366	0.0151569
855.444	0.0151829
855.522	0.0152402
855.600	0.0151428
855.678	0.0152000
855.756	0.0151827
855.834	0.0152459
855.913	0.0150941
855.991	0.0150941
856.069	0.0150083
856.147	0.0151044
856.225	0.0151615
856.303	0.0152190
856.381	0.0151160
856.459	0.0151147
856.538	0.0149859
856.616	0.0148956
856.694	0.0150557
856.772	0.0149871
856.850	0.0151155
856.928	0.0150913
857.006	0.0150703
857.084	0.0150890
857.163	0.0150531
857.241	0.0151936
857.319	0.0151747
857.397	0.0152424
857.475	0.0151422
857.553	0.0152242
857.631	0.0152506
857.709	0.0152751
857.788	0.0151904
857.866	0.0150850
857.944	0.0150210
858.022	0.0149405
858.100	0.0151788
858.178	0.0150709
858.256	0.0149991
858.334	0.0149792
858.413	0.0149486
858.491	0.0149349
858.569	0.0148895
858.647	0.0150443
858.725	0.0149242
858.803	0.0149239
858.881	0.0150350
858.959	0.0149751
859.038	0.0147875
859.116	0.0148960
859.194	0.0149886
859.272	0.0149990
859.350	0.0149329
859.428	0.0149645
859.506	0.0150309
859.584	0.0150729
859.663	0.0151691
859.741	0.0152385
859.819	0.0153078
859.897	0.0153384
859.975	0.0153819
860.053	0.0153579
860.131	0.0153758
860.209	0.0154861
860.288	0.0156287
860.366	0.0155519
860.444	0.0155275
860.522	0.0153250
860.600	0.0154194
860.678	0.0154469
860.756	0.0153563
860.834	0.0152129
860.913	0.0153150
860.991	0.0152392
861.069	0.0152391
861.147	0.0152656
861.225	0.0151216
861.303	0.0151487
861.381	0.0152557
861.459	0.0152174
861.538	0.0151775
861.616	0.0151112
861.694	0.0151391
861.772	0.0152751
861.850	0.0154013
861.928	0.0152962
862.006	0.0154205
862.084	0.0154570
862.163	0.0153715
862.241	0.0154279
862.319	0.0154203
862.397	0.0155865
862.475	0.0155252
862.553	0.0153304
862.631	0.0154497
862.709	0.0153906
862.788	0.0152455
862.866	0.0152859
862.944	0.0151777
863.022	0.0151047
863.100	0.0150924
863.178	0.0150024
863.256	0.0150492
863.334	0.0149030
863.413	0.0148737
863.491	0.0149062
863.569	0.0148379
863.647	0.0147901
863.725	0.0150031
863.803	0.0149126
863.881	0.0147956
863.959	0.0148816
864.038	0.0148822
864.116	0.0148378
864.194	0.0149042
864.272	0.0148907
864.350	0.0149039
864.428	0.0148147
864.506	0.0148003
864.584	0.0149433
864.663	0.0149271
864.741	0.0148966
864.819	0.0149450
864.897	0.0148610
864.975	0.0149473
865.053	0.0149327
865.131	0.0150848
865.209	0.0149864
865.288	0.0150190
865.366	0.0150831
865.444	0.0151583
865.522	0.0151899
865.600	0.0152554
865.678	0.0152296
865.756	0.0151553
865.834	0.0151389
865.913	0.0152653
865.991	0.0151308
866.069	0.0152460
866.147	0.0151582
866.225	0.0151891
866.303	0.0151979
866.381	0.0152140
866.459	0.0151928
866.538	0.0151352
866.616	0.0151953
866.694	0.0152020
866.772	0.0152291
866.850	0.0152260
866.928	0.0151013
867.006	0.0153166
867.084	0.0151783
867.163	0.0152002
867.241	0.0152950
867.319	0.0151919
867.397	0.0153727
867.475	0.0153162
867.553	0.0152480
867.631	0.0153580
867.709	0.0152213
867.788	0.0152708
867.866	0.0152560
867.944	0.0152940
868.022	0.0152631
868.100	0.0152748
868.178	0.0151923
868.256	0.0153475
868.334	0.0151995
868.413	0.0152808
868.491	0.0152908
868.569	0.0151479
868.647	0.0150809
868.725	0.0152139
868.803	0.0151790
868.881	0.0150687
868.959	0.0150898
869.038	0.0151528
869.116	0.0151881
869.194	0.0151591
869.272	0.0150922
869.350	0.0151421
869.428	0.0150908
869.506	0.0150681
869.584	0.0151366
869.663	0.0151926
869.741	0.0151392
869.819	0.0151426
869.897	0.0152943
869.975	0.0151151
870.053	0.0153745
870.131	0.0153104
870.209	0.0153297
870.288	0.0152811
870.366	0.0153848
870.444	0.0153386
870.522	0.0154329
870.600	0.0154549
870.678	0.0153519
870.756	0.0154269
870.834	0.0154385
870.913	0.0154506
870.991	0.0153391
871.069	0.0152074
871.147	0.0152847
871.225	0.0153362
871.303	0.0151730
871.381	0.0151279
871.459	0.0150856
871.538	0.0150449
871.616	0.0149246
871.694	0.0149818
871.772	0.0151133
871.850	0.0149886
871.928	0.0148149
872.006	0.0149387
872.084	0.0150230
872.163	0.0149890
872.241	0.0150188
872.319	0.0149374
872.397	0.0149416
872.475	0.0150692
872.553	0.0151157
872.631	0.0150716
872.709	0.0149969
872.788	0.0152107
872.866	0.0151289
872.944	0.0150986
873.022	0.0150727
873.100	0.0152110
873.178	0.0152717
873.256	0.0152579
873.334	0.0153173
873.413	0.0151918
873.491	0.0151978
873.569	0.0151737
873.647	0.0152728
873.725	0.0153089
873.803	0.0152697
873.881	0.0152299
873.959	0.0152263
874.038	0.0151887
874.116	0.0151649
874.194	0.0151497
874.272	0.0150933
874.350	0.0149886
874.428	0.0147874
874.506	0.0148504
874.584	0.0149888
874.663	0.0148930
874.741	0.0148038
874.819	0.0149759
874.897	0.0150232
874.975	0.0150208
875.053	0.0150690
875.131	0.0151820
875.209	0.0151358
875.288	0.0150657
875.366	0.0151950
875.444	0.0152547
875.522	0.0152811
875.600	0.0153440
875.678	0.0153003
875.756	0.0152245
875.834	0.0153336
875.913	0.0154993
875.991	0.0154815
876.069	0.0153104
876.147	0.0152917
876.225	0.0151997
876.303	0.0153063
876.381	0.0152336
876.459	0.0151369
876.538	0.0152859
876.616	0.0151831
876.694	0.0152099
876.772	0.0152794
876.850	0.0151898
876.928	0.0151662
877.006	0.0151092
877.084	0.0151779
877.163	0.0151582
877.241	0.0151119
877.319	0.0151893
877.397	0.0150436
877.475	0.0152650
877.553	0.0152000
877.631	0.0152542
877.709	0.0152242
877.788	0.0151584
877.866	0.0153712
877.944	0.0152977
878.022	0.0153251
878.100	0.0154446
878.178	0.0153819
878.256	0.0153098
878.334	0.0154200
878.413	0.0154218
878.491	0.0153811
878.569	0.0153546
878.647	0.0153172
878.725	0.0153173
878.803	0.0153561
878.881	0.0153090
878.959	0.0151888
879.038	0.0152470
879.116	0.0151366
879.194	0.0150115
879.272	0.0150838
879.350	0.0150256
879.428	0.0148396
879.506	0.0148380
879.584	0.0148086
879.663	0.0148906
879.741	0.0148422
879.819	0.0148359
879.897	0.0148163
879.975	0.0148351
880.053	0.0147775
880.131	0.0147491
880.209	0.0148176
880.288	0.0150079
880.366	0.0149659
880.444	0.0149162
880.522	0.0150537
880.600	0.0151762
880.678	0.0150038
880.756	0.0150323
880.834	0.0151721
880.913	0.0152872
880.991	0.0152596
881.069	0.0150526
881.147	0.0150976
881.225	0.0151168
881.303	0.0150729
881.381	0.0150436
881.459	0.0151115
881.538	0.0151112
881.616	0.0150357
881.694	0.0149566
881.772	0.0148740
881.850	0.0149074
881.928	0.0148247
882.006	0.0149187
882.084	0.0148462
882.163	0.0148512
882.241	0.0149503
882.319	0.0148848
882.397	0.0149963
882.475	0.0150140
882.553	0.0151366
882.631	0.0148920
882.709	0.0149116
882.788	0.0151387
882.866	0.0151880
882.944	0.0151937
883.022	0.0152618
883.100	0.0153154
883.178	0.0153319
883.256	0.0151820
883.334	0.0153558
883.413	0.0154539
883.491	0.0154292
883.569	0.0154050
883.647	0.0153311
883.725	0.0154170
883.803	0.0154755
883.881	0.0154143
883.959	0.0153931
884.038	0.0153934
884.116	0.0154085
884.194	0.0154008
884.272	0.0151784
884.350	0.0151011
884.428	0.0154156
884.506	0.0151590
884.584	0.0149510
884.663	0.0150608
884.741	0.0149915
884.819	0.0149639
884.897	0.0149548
884.975	0.0147945
885.053	0.0150838
885.131	0.0149725
885.209	0.0149896
885.288	0.0151432
885.366	0.0152406
885.444	0.0151591
885.522	0.0151881
885.600	0.0151357
885.678	0.0153353
885.756	0.0153856
885.834	0.0154205
885.913	0.0153021
885.991	0.0153269
886.069	0.0154926
886.147	0.0153870
886.225	0.0152496
886.303	0.0153680
886.381	0.0153316
886.459	0.0154385
886.538	0.0154891
886.616	0.0154329
886.694	0.0152294
886.772	0.0153256
886.850	0.0153669
886.928	0.0152735
887.006	0.0153209
887.084	0.0152415
887.163	0.0150412
887.241	0.0149646
887.319	0.0149718
887.397	0.0150636
887.475	0.0149023
887.553	0.0149051
887.631	0.0148817
887.709	0.0149476
887.788	0.0148152
887.866	0.0148919
887.944	0.0150404
888.022	0.0149435
888.100	0.0149722
888.178	0.0151096
888.256	0.0150307
888.334	0.0151027
888.413	0.0150426
888.491	0.0151189
888.569	0.0152202
888.647	0.0151208
888.725	0.0151788
888.803	0.0152381
888.881	0.0151833
888.959	0.0152539
889.038	0.0154217
889.116	0.0153345
889.194	0.0153236
889.272	0.0152739
889.350	0.0153159
889.428	0.0153073
889.506	0.0152338
889.584	0.0152277
889.663	0.0152556
889.741	0.0152022
889.819	0.0151865
889.897	0.0150466
889.975	0.0150098
890.053	0.0149511
890.131	0.0150523
890.209	0.0149524
890.288	0.0149348
890.366	0.0149921
890.444	0.0150591
890.522	0.0150494
890.600	0.0150031
890.678	0.0150945
890.756	0.0152045
890.834	0.0151595
890.913	0.0153458
890.991	0.0152359
891.069	0.0153669
891.147	0.0154047
891.225	0.0154116
891.303	0.0153585
891.381	0.0155218
891.459	0.0154527
891.538	0.0153640
891.616	0.0153400
891.694	0.0155469
891.772	0.0156577
891.850	0.0154417
891.928	0.0154383
892.006	0.0154111
892.084	0.0155096
892.163	0.0155150
892.241	0.0155203
892.319	0.0154627
892.397	0.0154366
892.475	0.0153926
892.553	0.0153043
892.631	0.0151984
892.709	0.0150469
892.788	0.0150259
892.866	0.0150995
892.944	0.0150715
893.022	0.0150867
893.100	0.0150457
893.178	0.0150146
893.256	0.0151643
893.334	0.0151603
893.413	0.0151508
893.491	0.0153358
893.569	0.0151212
893.647	0.0152769
893.725	0.0153119
893.803	0.0151124
893.881	0.0149808
893.959	0.0150801
894.038	0.0150373
894.116	0.0149377
894.194	0.0149703
894.272	0.0150371
894.350	0.0151022
894.428	0.0149573
894.506	0.0149116
894.584	0.0151083
894.663	0.0151803
894.741	0.0150693
894.819	0.0152926
894.897	0.0153447
894.975	0.0153945
895.053	0.0152330
895.131	0.0153753
895.209	0.0153016
895.288	0.0153546
895.366	0.0152085
895.444	0.0152829
895.522	0.0150774
895.600	0.0149953
895.678	0.0149540
895.756	0.0149468
895.834	0.0149727
895.913	0.0149180
895.991	0.0149162
896.069	0.0150007
896.147	0.0149504
896.225	0.0149820
896.303	0.0149519
896.381	0.0148524
896.459	0.0151480
896.538	0.0151211
896.616	0.0150567
896.694	0.0151161
896.772	0.0149753
896.850	0.0150373
896.928	0.0150974
897.006	0.0151346
897.084	0.0150001
897.163	0.0149988
897.241	0.0149980
897.319	0.0148705
897.397	0.0150433
897.475	0.0150493
897.553	0.0149718
897.631	0.0151665
897.709	0.0151723
897.788	0.0150815
897.866	0.0151261
897.944	0.0151573
898.022	0.0150854
898.100	0.0150018
898.178	0.0151672
898.256	0.0151826
898.334	0.0151469
898.413	0.0151950
898.491	0.0151521
898.569	0.0152548
898.647	0.0151733
898.725	0.0151318
898.803	0.0150600
898.881	0.0151665
898.959	0.0150449
899.038	0.0152759
899.116	0.0152118
899.194	0.0150303
899.272	0.0151312
899.350	0.0151747
899.428	0.0152935
899.506	0.0151729
899.584	0.0151411
899.663	0.0151532
899.741	0.0151941
899.819	0.0152100
899.897	0.0152583
899.975	0.0151212
900.053	0.0152043
900.131	0.0151094
900.209	0.0150813
900.288	0.0150840
900.366	0.0150696
900.444	0.0150378
900.522	0.0150024
900.600	0.0151253
900.678	0.0151417
900.756	0.0151186
900.834	0.0152650
900.913	0.0150560
900.991	0.0151598
901.069	0.0152316
901.147	0.0152054
901.225	0.0150788
901.303	0.0150842
901.381	0.0152153
901.459	0.0152788
901.538	0.0152871
901.616	0.0151714
901.694	0.0151833
901.772	0.0153025
901.850	0.0152805
901.928	0.0152465
902.006	0.0153761
902.084	0.0152238
902.163	0.0152949
902.241	0.0153673
902.319	0.0154301
902.397	0.0152821
902.475	0.0153387
902.553	0.0152718
902.631	0.0152917
902.709	0.0152724
902.788	0.0153232
902.866	0.0151949
902.944	0.0150688
903.022	0.0150932
903.100	0.0151785
903.178	0.0150381
903.256	0.0150987
903.334	0.0149143
903.413	0.0150600
903.491	0.0150576
903.569	0.0151157
903.647	0.0150384
903.725	0.0150757
903.803	0.0149831
903.881	0.0150100
903.959	0.0149340
904.038	0.0151682
904.116	0.0153307
904.194	0.0151281
904.272	0.0152100
904.350	0.0153889
904.428	0.0153191
904.506	0.0152989
904.584	0.0153281
904.663	0.0154102
904.741	0.0153898
904.819	0.0153936
904.897	0.0153345
904.975	0.0151987
905.053	0.0152424
905.131	0.0151718
905.209	0.0150228
905.288	0.0151314
905.366	0.0150233
905.444	0.0149710
905.522	0.0150222
905.600	0.0149376
905.678	0.0149998
905.756	0.0150084
905.834	0.0149767
905.913	0.0150870
905.991	0.0150846
906.069	0.0151798
906.147	0.0151021
906.225	0.0150742
906.303	0.0151698
906.381	0.0151440
906.459	0.0152634
906.538	0.0151889
906.616	0.0153199
906.694	0.0152582
906.772	0.0153001
906.850	0.0153681
906.928	0.0153165
907.006	0.0153001
907.084	0.0152470
907.163	0.0153169
907.241	0.0152843
907.319	0.0151192
907.397	0.0151896
907.475	0.0153168
907.553	0.0150759
907.631	0.0150974
907.709	0.0150041
907.788	0.0151450
907.866	0.0150800
907.944	0.0152618
908.022	0.0152647
908.100	0.0153019
908.178	0.0152402
908.256	0.0152493
908.334	0.0153215
908.413	0.0153186
908.491	0.0154339
908.569	0.0153603
908.647	0.0154214
908.725	0.0152961
908.803	0.0154788
908.881	0.0153840
908.959	0.0152567
909.038	0.0153643
909.116	0.0153220
909.194	0.0152975
909.272	0.0153609
909.350	0.0152519
909.428	0.0151669
909.506	0.0151859
909.584	0.0152443
909.663	0.0153183
909.741	0.0154124
909.819	0.0152283
909.897	0.0151151
909.975	0.0152559
910.053	0.0152989
910.131	0.0153179
910.209	0.0153534
910.288	0.0153231
910.366	0.0153514
910.444	0.0153770
910.522	0.0153255
910.600	0.0153946
910.678	0.0152647
910.756	0.0153675
910.834	0.0150906
910.913	0.0150323
910.991	0.0150797
911.069	0.0152836
911.147	0.0151782
911.225	0.0150942
911.303	0.0151325
911.381	0.0151975
911.459	0.0151930
911.538	0.0153709
911.616	0.0152290
911.694	0.0151998
911.772	0.0153472
911.850	0.0153562
911.928	0.0153176
912.006	0.0152780
912.084	0.0151399
912.163	0.0152178
912.241	0.0153682
912.319	0.0153307
912.397	0.0151626
912.475	0.0153141
912.553	0.0152782
912.631	0.0152895
912.709	0.0153809
912.788	0.0154200
912.866	0.0153226
912.944	0.0152979
913.022	0.0152400
913.100	0.0152998
913.178	0.0153806
913.256	0.0152457
913.334	0.0151499
913.413	0.0152613
913.491	0.0153156
913.569	0.0151208
913.647	0.0150735
913.725	0.0151019
913.803	0.0150884
913.881	0.0149825
913.959	0.0150806
914.038	0.0150339
914.116	0.0151178
914.194	0.0152039
914.272	0.0150021
914.350	0.0150215
914.428	0.0150903
914.506	0.0150953
914.584	0.0151167
914.663	0.0150735
914.741	0.0151975
914.819	0.0150922
914.897	0.0151836
914.975	0.0152737
915.053	0.0153610
915.131	0.0153329
915.209	0.0153334
915.288	0.0154881
915.366	0.0154136
915.444	0.0154173
915.522	0.0154121
915.600	0.0155479
915.678	0.0154017
915.756	0.0153853
915.834	0.0154192
915.913	0.0154111
915.991	0.0155329
916.069	0.0155959
916.147	0.0154913
916.225	0.0154587
916.303	0.0154475
916.381	0.0154974
916.459	0.0154349
916.538	0.0152916
916.616	0.0152708
916.694	0.0152312
916.772	0.0151734
916.850	0.0151400
916.928	0.0151340
917.006	0.0150021
917.084	0.0149812
917.163	0.0150031
917.241	0.0149391
917.319	0.0149901
917.397	0.0149355
917.475	0.0149697
917.553	0.0149121
917.631	0.0149040
917.709	0.0150131
917.788	0.0148664
917.866	0.0150133
917.944	0.0151006
918.022	0.0150493
918.100	0.0150769
918.178	0.0149855
918.256	0.0150827
918.334	0.0150587
918.413	0.0151656
918.491	0.0152795
918.569	0.0151645
918.647	0.0152029
918.725	0.0153024
918.803	0.0152479
918.881	0.0153193
918.959	0.0152538
919.038	0.0152829
919.116	0.0153477
919.194	0.0151485
919.272	0.0151744
919.350	0.0151337
919.428	0.0152087
919.506	0.0150808
919.584	0.0149941
919.663	0.0150124
919.741	0.0152117
919.819	0.0149695
919.897	0.0150784
