05/20/2022	20:58:03	Ver.	4.1	UNKNOWN
Optical Delay	599.975067	Delta X		0.078125	Sweeps	1	Scan Rate	0/0
Coordinates	Axis 1	NaN	Axis 2	NaN	Axis 3	NaN	Axis 4	NaN	Axis 5	NaN	Axis 6	0.000000
TX Power	0.000000	RX Power	0.000000

599.975	0.0154451
600.053	0.0155128
600.131	0.0154790
600.209	0.0154362
600.288	0.0154259
600.366	0.0155093
600.444	0.0154302
600.522	0.0156274
600.600	0.0155241
600.678	0.0153448
600.756	0.0153481
600.834	0.0155184
600.913	0.0154746
600.991	0.0155169
601.069	0.0153577
601.147	0.0155083
601.225	0.0153990
601.303	0.0154755
601.381	0.0154101
601.459	0.0155462
601.538	0.0155260
601.616	0.0154535
601.694	0.0154411
601.772	0.0153822
601.850	0.0154014
601.928	0.0155437
602.006	0.0154182
602.084	0.0154227
602.163	0.0155052
602.241	0.0154855
602.319	0.0154884
602.397	0.0153730
602.475	0.0155938
602.553	0.0153848
602.631	0.0153684
602.709	0.0153856
602.788	0.0154521
602.866	0.0154719
602.944	0.0155154
603.022	0.0154060
603.100	0.0154660
603.178	0.0153328
603.256	0.0153885
603.334	0.0154301
603.413	0.0153412
603.491	0.0153500
603.569	0.0154687
603.647	0.0154479
603.725	0.0153599
603.803	0.0155154
603.881	0.0154333
603.959	0.0154664
604.038	0.0154577
604.116	0.0154088
604.194	0.0152961
604.272	0.0154376
604.350	0.0154083
604.428	0.0154029
604.506	0.0153455
604.584	0.0154980
604.663	0.0153943
604.741	0.0155805
604.819	0.0155507
604.897	0.0153454
604.975	0.0153448
605.053	0.0155152
605.131	0.0155280
605.209	0.0154793
605.288	0.0153445
605.366	0.0154438
605.444	0.0153484
605.522	0.0153774
605.600	0.0153808
605.678	0.0153467
605.756	0.0154263
605.834	0.0154133
605.913	0.0154759
605.991	0.0154041
606.069	0.0154053
606.147	0.0155315
606.225	0.0155501
606.303	0.0152986
606.381	0.0154230
606.459	0.0154812
606.538	0.0155360
606.616	0.0154189
606.694	0.0153595
606.772	0.0152782
606.850	0.0154489
606.928	0.0155289
607.006	0.0154306
607.084	0.0153285
607.163	0.0153564
607.241	0.0154818
607.319	0.0154227
607.397	0.0154787
607.475	0.0153931
607.553	0.0154685
607.631	0.0154530
607.709	0.0155002
607.788	0.0154660
607.866	0.0154105
607.944	0.0154437
608.022	0.0153946
608.100	0.0153670
608.178	0.0153622
608.256	0.0154929
608.334	0.0155406
608.413	0.0154914
608.491	0.0153922
608.569	0.0152106
608.647	0.0153315
608.725	0.0153487
608.803	0.0153452
608.881	0.0152919
608.959	0.0153771
609.038	0.0153297
609.116	0.0154177
609.194	0.0155424
609.272	0.0154318
609.350	0.0153770
609.428	0.0153235
609.506	0.0153506
609.584	0.0154984
609.663	0.0154138
609.741	0.0155038
609.819	0.0154777
609.897	0.0154646
609.975	0.0154177
610.053	0.0154102
610.131	0.0155343
610.209	0.0152901
610.288	0.0156299
610.366	0.0154345
610.444	0.0155046
610.522	0.0155170
610.600	0.0153478
610.678	0.0153348
610.756	0.0154517
610.834	0.0153522
610.913	0.0154290
610.991	0.0154850
611.069	0.0153271
611.147	0.0154245
611.225	0.0155438
611.303	0.0155359
611.381	0.0152842
611.459	0.0152973
611.538	0.0154757
611.616	0.0152906
611.694	0.0153507
611.772	0.0154513
611.850	0.0155251
611.928	0.0153794
612.006	0.0153902
612.084	0.0153896
612.163	0.0154452
612.241	0.0153782
612.319	0.0151902
612.397	0.0154616
612.475	0.0154318
612.553	0.0152540
612.631	0.0152776
612.709	0.0152737
612.788	0.0154091
612.866	0.0154507
612.944	0.0153349
613.022	0.0153992
613.100	0.0154642
613.178	0.0153227
613.256	0.0153516
613.334	0.0152911
613.413	0.0155721
613.491	0.0154585
613.569	0.0153076
613.647	0.0153453
613.725	0.0154805
613.803	0.0155138
613.881	0.0153568
613.959	0.0154160
614.038	0.0154375
614.116	0.0152896
614.194	0.0154285
614.272	0.0152862
614.350	0.0154072
614.428	0.0154207
614.506	0.0153443
614.584	0.0152776
614.663	0.0154166
614.741	0.0153698
614.819	0.0154069
614.897	0.0154580
614.975	0.0154240
615.053	0.0153770
615.131	0.0153616
615.209	0.0153573
615.288	0.0154471
615.366	0.0155801
615.444	0.0152309
615.522	0.0153485
615.600	0.0153970
615.678	0.0153919
615.756	0.0153381
615.834	0.0153812
615.913	0.0153331
615.991	0.0154155
616.069	0.0154047
616.147	0.0154013
616.225	0.0153910
616.303	0.0154839
616.381	0.0155100
616.459	0.0154390
616.538	0.0153719
616.616	0.0152819
616.694	0.0153682
616.772	0.0153838
616.850	0.0152897
616.928	0.0153743
617.006	0.0154148
617.084	0.0152934
617.163	0.0153684
617.241	0.0154477
617.319	0.0154567
617.397	0.0154500
617.475	0.0155258
617.553	0.0154093
617.631	0.0155647
617.709	0.0153996
617.788	0.0153900
617.866	0.0153578
617.944	0.0154444
618.022	0.0154513
618.100	0.0153991
618.178	0.0153616
618.256	0.0156477
618.334	0.0154173
618.413	0.0153455
618.491	0.0154620
618.569	0.0153741
618.647	0.0154739
618.725	0.0154609
618.803	0.0155275
618.881	0.0154388
618.959	0.0154469
619.038	0.0154772
619.116	0.0154627
619.194	0.0153558
619.272	0.0153987
619.350	0.0153672
619.428	0.0154209
619.506	0.0154565
619.584	0.0154595
619.663	0.0154741
619.741	0.0154269
619.819	0.0154996
619.897	0.0154422
619.975	0.0154012
620.053	0.0155191
620.131	0.0154414
620.209	0.0153466
620.288	0.0154154
620.366	0.0153966
620.444	0.0154450
620.522	0.0154971
620.600	0.0154195
620.678	0.0153255
620.756	0.0153419
620.834	0.0155354
620.913	0.0154128
620.991	0.0155537
621.069	0.0155396
621.147	0.0156044
621.225	0.0152630
621.303	0.0152875
621.381	0.0153515
621.459	0.0154077
621.538	0.0155241
621.616	0.0153754
621.694	0.0154675
621.772	0.0153642
621.850	0.0154339
621.928	0.0154040
622.006	0.0155523
622.084	0.0155383
622.163	0.0154251
622.241	0.0153331
622.319	0.0152306
622.397	0.0154489
622.475	0.0154404
622.553	0.0154809
622.631	0.0155443
622.709	0.0154734
622.788	0.0153972
622.866	0.0154401
622.944	0.0154501
623.022	0.0154822
623.100	0.0155825
623.178	0.0153528
623.256	0.0152744
623.334	0.0154781
623.413	0.0153608
623.491	0.0154018
623.569	0.0154096
623.647	0.0153559
623.725	0.0153826
623.803	0.0153313
623.881	0.0155221
623.959	0.0153436
624.038	0.0153225
624.116	0.0153004
624.194	0.0153904
624.272	0.0155303
624.350	0.0154789
624.428	0.0154044
624.506	0.0154364
624.584	0.0153152
624.663	0.0154105
624.741	0.0155241
624.819	0.0155109
624.897	0.0153970
624.975	0.0153822
625.053	0.0153416
625.131	0.0153664
625.209	0.0154752
625.288	0.0152991
625.366	0.0153241
625.444	0.0152777
625.522	0.0153622
625.600	0.0153516
625.678	0.0154266
625.756	0.0154418
625.834	0.0154540
625.913	0.0153932
625.991	0.0152837
626.069	0.0152499
626.147	0.0154879
626.225	0.0153736
626.303	0.0153644
626.381	0.0153331
626.459	0.0154160
626.538	0.0154305
626.616	0.0153604
626.694	0.0153893
626.772	0.0154563
626.850	0.0154308
626.928	0.0154063
627.006	0.0154631
627.084	0.0154362
627.163	0.0153616
627.241	0.0154704
627.319	0.0153542
627.397	0.0154380
627.475	0.0154378
627.553	0.0152399
627.631	0.0153149
627.709	0.0154829
627.788	0.0154036
627.866	0.0155070
627.944	0.0155301
628.022	0.0153255
628.100	0.0153708
628.178	0.0154583
628.256	0.0152928
628.334	0.0153918
628.413	0.0154605
628.491	0.0155546
628.569	0.0153116
628.647	0.0153145
628.725	0.0154076
628.803	0.0155576
628.881	0.0153880
628.959	0.0153138
629.038	0.0155457
629.116	0.0155258
629.194	0.0153120
629.272	0.0153668
629.350	0.0154073
629.428	0.0154237
629.506	0.0153938
629.584	0.0154966
629.663	0.0154944
629.741	0.0154585
629.819	0.0154599
629.897	0.0155146
629.975	0.0154193
630.053	0.0154174
630.131	0.0154176
630.209	0.0155707
630.288	0.0155228
630.366	0.0155452
630.444	0.0155015
630.522	0.0153821
630.600	0.0153769
630.678	0.0155170
630.756	0.0154646
630.834	0.0155185
630.913	0.0154897
630.991	0.0155486
631.069	0.0155212
631.147	0.0153975
631.225	0.0155263
631.303	0.0154619
631.381	0.0155618
631.459	0.0154362
631.538	0.0154883
631.616	0.0155246
631.694	0.0155058
631.772	0.0155533
631.850	0.0154961
631.928	0.0155546
632.006	0.0154506
632.084	0.0154987
632.163	0.0154874
632.241	0.0155219
632.319	0.0156033
632.397	0.0154961
632.475	0.0154301
632.553	0.0154744
632.631	0.0154106
632.709	0.0154714
632.788	0.0154992
632.866	0.0153791
632.944	0.0154974
633.022	0.0154447
633.100	0.0155450
633.178	0.0154107
633.256	0.0154585
633.334	0.0154843
633.413	0.0154605
633.491	0.0156540
633.569	0.0155031
633.647	0.0154623
633.725	0.0155040
633.803	0.0154739
633.881	0.0154675
633.959	0.0154488
634.038	0.0155181
634.116	0.0154272
634.194	0.0155266
634.272	0.0154997
634.350	0.0154768
634.428	0.0154360
634.506	0.0154823
634.584	0.0155410
634.663	0.0155257
634.741	0.0154819
634.819	0.0154253
634.897	0.0154939
634.975	0.0154841
635.053	0.0156896
635.131	0.0155131
635.209	0.0155785
635.288	0.0154550
635.366	0.0154138
635.444	0.0153418
635.522	0.0154366
635.600	0.0155962
635.678	0.0155370
635.756	0.0155322
635.834	0.0153831
635.913	0.0154655
635.991	0.0155386
636.069	0.0154970
636.147	0.0155046
636.225	0.0154797
636.303	0.0155150
636.381	0.0154015
636.459	0.0154630
636.538	0.0154512
636.616	0.0155225
636.694	0.0155717
636.772	0.0155956
636.850	0.0154749
636.928	0.0155247
637.006	0.0154547
637.084	0.0154701
637.163	0.0154599
637.241	0.0155138
637.319	0.0154646
637.397	0.0155574
637.475	0.0156468
637.553	0.0155395
637.631	0.0155718
637.709	0.0154913
637.788	0.0155532
637.866	0.0154557
637.944	0.0154459
638.022	0.0156471
638.100	0.0155729
638.178	0.0154638
638.256	0.0155177
638.334	0.0155366
638.413	0.0155010
638.491	0.0155444
638.569	0.0156339
638.647	0.0155549
638.725	0.0154586
638.803	0.0154977
638.881	0.0154575
638.959	0.0153562
639.038	0.0155332
639.116	0.0156424
639.194	0.0156100
639.272	0.0155376
639.350	0.0154544
639.428	0.0156031
639.506	0.0155679
639.584	0.0154507
639.663	0.0154025
639.741	0.0154001
639.819	0.0153442
639.897	0.0154571
639.975	0.0154618
640.053	0.0155667
640.131	0.0155355
640.209	0.0155020
640.288	0.0154092
640.366	0.0155358
640.444	0.0155379
640.522	0.0155366
640.600	0.0155128
640.678	0.0153982
640.756	0.0154576
640.834	0.0154707
640.913	0.0153718
640.991	0.0155627
641.069	0.0154195
641.147	0.0154757
641.225	0.0154560
641.303	0.0155746
641.381	0.0154957
641.459	0.0154017
641.538	0.0154349
641.616	0.0154751
641.694	0.0155518
641.772	0.0154269
641.850	0.0153266
641.928	0.0153713
642.006	0.0154598
642.084	0.0153836
642.163	0.0153284
642.241	0.0153927
642.319	0.0155398
642.397	0.0153035
642.475	0.0153167
642.553	0.0153812
642.631	0.0153049
642.709	0.0152429
642.788	0.0155030
642.866	0.0152983
642.944	0.0153448
643.022	0.0153013
643.100	0.0151961
643.178	0.0153619
643.256	0.0153594
643.334	0.0152818
643.413	0.0154816
643.491	0.0152026
643.569	0.0153324
643.647	0.0153890
643.725	0.0153307
643.803	0.0153803
643.881	0.0153297
643.959	0.0154151
644.038	0.0152921
644.116	0.0152156
644.194	0.0151897
644.272	0.0153415
644.350	0.0153506
644.428	0.0152676
644.506	0.0152641
644.584	0.0152513
644.663	0.0154340
644.741	0.0152818
644.819	0.0152271
644.897	0.0154037
644.975	0.0154153
645.053	0.0154072
645.131	0.0153318
645.209	0.0151868
645.288	0.0152102
645.366	0.0154472
645.444	0.0154480
645.522	0.0154314
645.600	0.0153481
645.678	0.0153513
645.756	0.0153211
645.834	0.0154082
645.913	0.0153064
645.991	0.0153376
646.069	0.0155138
646.147	0.0152468
646.225	0.0152534
646.303	0.0154120
646.381	0.0153770
646.459	0.0152207
646.538	0.0153211
646.616	0.0153601
646.694	0.0152078
646.772	0.0151848
646.850	0.0152908
646.928	0.0152961
647.006	0.0153141
647.084	0.0155038
647.163	0.0153839
647.241	0.0153723
647.319	0.0153288
647.397	0.0152572
647.475	0.0153301
647.553	0.0154070
647.631	0.0152705
647.709	0.0152953
647.788	0.0154257
647.866	0.0155949
647.944	0.0154742
648.022	0.0153651
648.100	0.0153530
648.178	0.0153342
648.256	0.0154169
648.334	0.0154565
648.413	0.0152959
648.491	0.0153337
648.569	0.0154612
648.647	0.0153268
648.725	0.0155089
648.803	0.0154647
648.881	0.0154675
648.959	0.0152637
649.038	0.0154710
649.116	0.0153732
649.194	0.0154148
649.272	0.0154256
649.350	0.0154456
649.428	0.0154106
649.506	0.0154080
649.584	0.0153759
649.663	0.0152782
649.741	0.0153240
649.819	0.0153439
649.897	0.0154618
649.975	0.0153697
650.053	0.0153795
650.131	0.0153204
650.209	0.0155169
650.288	0.0154143
650.366	0.0154099
650.444	0.0155194
650.522	0.0154759
650.600	0.0154250
650.678	0.0154472
650.756	0.0153671
650.834	0.0154597
650.913	0.0155387
650.991	0.0155288
651.069	0.0153386
651.147	0.0152890
651.225	0.0153708
651.303	0.0154059
651.381	0.0153844
651.459	0.0155386
651.538	0.0154670
651.616	0.0153326
651.694	0.0154237
651.772	0.0156105
651.850	0.0154419
651.928	0.0154024
652.006	0.0155596
652.084	0.0154522
652.163	0.0155656
652.241	0.0153648
652.319	0.0155934
652.397	0.0154087
652.475	0.0154817
652.553	0.0155373
652.631	0.0155548
652.709	0.0155329
652.788	0.0155431
652.866	0.0154504
652.944	0.0154301
653.022	0.0155088
653.100	0.0155565
653.178	0.0154035
653.256	0.0154874
653.334	0.0156419
653.413	0.0155168
653.491	0.0155727
653.569	0.0156274
653.647	0.0153800
653.725	0.0154582
653.803	0.0154195
653.881	0.0155972
653.959	0.0156033
654.038	0.0155868
654.116	0.0154982
654.194	0.0154686
654.272	0.0154865
654.350	0.0157243
654.428	0.0155126
654.506	0.0154612
654.584	0.0154078
654.663	0.0154875
654.741	0.0154493
654.819	0.0155179
654.897	0.0155084
654.975	0.0154102
655.053	0.0154832
655.131	0.0156116
655.209	0.0155427
655.288	0.0154815
655.366	0.0154615
655.444	0.0156257
655.522	0.0155598
655.600	0.0155856
655.678	0.0156020
655.756	0.0153747
655.834	0.0154868
655.913	0.0154091
655.991	0.0154825
656.069	0.0154858
656.147	0.0155733
656.225	0.0154125
656.303	0.0155215
656.381	0.0156131
656.459	0.0156054
656.538	0.0154684
656.616	0.0155688
656.694	0.0154782
656.772	0.0155119
656.850	0.0155397
656.928	0.0155436
657.006	0.0156092
657.084	0.0154668
657.163	0.0155432
657.241	0.0156729
657.319	0.0156235
657.397	0.0155091
657.475	0.0155385
657.553	0.0155449
657.631	0.0155290
657.709	0.0155684
657.788	0.0154842
657.866	0.0155721
657.944	0.0154637
658.022	0.0155916
658.100	0.0155381
658.178	0.0156985
658.256	0.0156183
658.334	0.0155189
658.413	0.0156433
658.491	0.0156277
658.569	0.0155947
658.647	0.0155067
658.725	0.0155585
658.803	0.0155645
658.881	0.0154712
658.959	0.0154873
659.038	0.0156247
659.116	0.0156908
659.194	0.0155196
659.272	0.0155206
659.350	0.0155019
659.428	0.0155353
659.506	0.0154343
659.584	0.0155830
659.663	0.0156841
659.741	0.0155808
659.819	0.0155666
659.897	0.0155897
659.975	0.0155473
660.053	0.0156199
660.131	0.0156410
660.209	0.0155572
660.288	0.0155495
660.366	0.0154883
660.444	0.0156758
660.522	0.0156191
660.600	0.0155578
660.678	0.0153846
660.756	0.0155869
660.834	0.0155990
660.913	0.0155246
660.991	0.0154939
661.069	0.0155788
661.147	0.0154948
661.225	0.0153390
661.303	0.0153996
661.381	0.0155496
661.459	0.0155466
661.538	0.0155950
661.616	0.0154752
661.694	0.0154410
661.772	0.0153835
661.850	0.0154433
661.928	0.0154938
662.006	0.0153741
662.084	0.0155489
662.163	0.0153510
662.241	0.0153576
662.319	0.0153553
662.397	0.0154272
662.475	0.0155606
662.553	0.0155655
662.631	0.0153600
662.709	0.0153719
662.788	0.0153482
662.866	0.0153654
662.944	0.0154664
663.022	0.0154213
663.100	0.0154459
663.178	0.0153732
663.256	0.0154310
663.334	0.0154990
663.413	0.0154321
663.491	0.0152527
663.569	0.0153452
663.647	0.0154033
663.725	0.0154202
663.803	0.0154099
663.881	0.0153407
663.959	0.0153593
664.038	0.0154884
664.116	0.0154833
664.194	0.0153239
664.272	0.0152836
664.350	0.0152718
664.428	0.0154606
664.506	0.0151769
664.584	0.0152317
664.663	0.0153422
664.741	0.0153098
664.819	0.0154837
664.897	0.0154548
664.975	0.0153222
665.053	0.0153529
665.131	0.0153831
665.209	0.0152990
665.288	0.0154169
665.366	0.0152950
665.444	0.0153190
665.522	0.0154093
665.600	0.0152809
665.678	0.0151886
665.756	0.0151724
665.834	0.0152319
665.913	0.0152617
665.991	0.0152606
666.069	0.0151994
666.147	0.0152779
666.225	0.0152537
666.303	0.0151608
666.381	0.0151427
666.459	0.0152322
666.538	0.0152947
666.616	0.0150820
666.694	0.0151694
666.772	0.0152421
666.850	0.0152987
666.928	0.0153063
667.006	0.0154388
667.084	0.0154170
667.163	0.0153316
667.241	0.0153461
667.319	0.0152763
667.397	0.0153658
667.475	0.0154232
667.553	0.0155350
667.631	0.0154372
667.709	0.0154145
667.788	0.0153963
667.866	0.0154302
667.944	0.0154380
668.022	0.0153345
668.100	0.0154581
668.178	0.0153809
668.256	0.0152739
668.334	0.0152554
668.413	0.0151990
668.491	0.0153151
668.569	0.0150480
668.647	0.0150566
668.725	0.0152006
668.803	0.0150577
668.881	0.0149585
668.959	0.0150373
669.038	0.0151964
669.116	0.0152203
669.194	0.0151900
669.272	0.0151669
669.350	0.0153252
669.428	0.0152116
669.506	0.0152926
669.584	0.0152782
669.663	0.0152065
669.741	0.0154356
669.819	0.0154255
669.897	0.0154529
669.975	0.0154085
670.053	0.0156193
670.131	0.0155492
670.209	0.0154744
670.288	0.0154773
670.366	0.0156231
670.444	0.0156559
670.522	0.0155357
670.600	0.0156335
670.678	0.0155342
670.756	0.0154045
670.834	0.0153410
670.913	0.0154074
670.991	0.0155391
671.069	0.0154336
671.147	0.0154005
671.225	0.0154428
671.303	0.0153100
671.381	0.0152944
671.459	0.0152140
671.538	0.0151657
671.616	0.0151356
671.694	0.0152201
671.772	0.0151758
671.850	0.0151743
671.928	0.0153241
672.006	0.0152124
672.084	0.0152430
672.163	0.0152226
672.241	0.0152171
672.319	0.0153712
672.397	0.0153909
672.475	0.0153425
672.553	0.0154492
672.631	0.0153799
672.709	0.0153332
672.788	0.0153876
672.866	0.0152784
672.944	0.0154018
673.022	0.0155061
673.100	0.0153463
673.178	0.0152190
673.256	0.0153057
673.334	0.0154488
673.413	0.0155350
673.491	0.0155793
673.569	0.0155278
673.647	0.0154397
673.725	0.0154854
673.803	0.0155696
673.881	0.0156062
673.959	0.0154726
674.038	0.0155679
674.116	0.0155583
674.194	0.0156137
674.272	0.0155909
674.350	0.0156277
674.428	0.0156959
674.506	0.0155417
674.584	0.0153419
674.663	0.0154432
674.741	0.0154391
674.819	0.0155454
674.897	0.0155975
674.975	0.0155598
675.053	0.0155064
675.131	0.0155540
675.209	0.0154604
675.288	0.0154198
675.366	0.0155512
675.444	0.0154510
675.522	0.0153098
675.600	0.0153959
675.678	0.0154951
675.756	0.0153432
675.834	0.0154240
675.913	0.0153333
675.991	0.0151429
676.069	0.0153340
676.147	0.0153316
676.225	0.0151732
676.303	0.0152603
676.381	0.0152829
676.459	0.0153236
676.538	0.0151772
676.616	0.0152522
676.694	0.0153342
676.772	0.0152363
676.850	0.0153473
676.928	0.0153217
677.006	0.0153896
677.084	0.0154208
677.163	0.0154076
677.241	0.0155423
677.319	0.0155428
677.397	0.0155824
677.475	0.0155782
677.553	0.0157013
677.631	0.0155923
677.709	0.0157094
677.788	0.0157749
677.866	0.0157192
677.944	0.0157343
678.022	0.0158081
678.100	0.0158496
678.178	0.0157317
678.256	0.0158723
678.334	0.0159086
678.413	0.0159567
678.491	0.0159644
678.569	0.0159315
678.647	0.0159628
678.725	0.0158398
678.803	0.0156376
678.881	0.0157215
678.959	0.0155112
679.038	0.0154250
679.116	0.0153072
679.194	0.0151923
679.272	0.0151453
679.350	0.0152061
679.428	0.0152540
679.506	0.0150566
679.584	0.0150262
679.663	0.0150481
679.741	0.0148958
679.819	0.0150483
679.897	0.0149925
679.975	0.0150993
680.053	0.0150069
680.131	0.0150748
680.209	0.0151287
680.288	0.0153061
680.366	0.0152698
680.444	0.0152791
680.522	0.0153724
680.600	0.0154198
680.678	0.0153419
680.756	0.0155870
680.834	0.0156390
680.913	0.0156264
680.991	0.0156313
681.069	0.0156821
681.147	0.0157069
681.225	0.0157911
681.303	0.0158289
681.381	0.0158083
681.459	0.0158814
681.538	0.0157240
681.616	0.0158563
681.694	0.0158054
681.772	0.0156294
681.850	0.0158245
681.928	0.0158152
682.006	0.0159240
682.084	0.0156808
682.163	0.0156276
682.241	0.0155896
682.319	0.0155463
682.397	0.0155143
682.475	0.0155733
682.553	0.0155914
682.631	0.0154895
682.709	0.0155192
682.788	0.0154144
682.866	0.0154618
682.944	0.0152872
683.022	0.0152990
683.100	0.0152036
683.178	0.0149749
683.256	0.0150980
683.334	0.0151300
683.413	0.0148727
683.491	0.0150200
683.569	0.0152525
683.647	0.0150854
683.725	0.0150719
683.803	0.0154063
683.881	0.0152926
683.959	0.0154938
684.038	0.0154415
684.116	0.0155360
684.194	0.0154392
684.272	0.0154344
684.350	0.0153071
684.428	0.0153868
684.506	0.0155487
684.584	0.0153239
684.663	0.0153858
684.741	0.0153353
684.819	0.0155215
684.897	0.0154514
684.975	0.0154100
685.053	0.0156136
685.131	0.0155233
685.209	0.0155415
685.288	0.0155328
685.366	0.0155386
685.444	0.0155046
685.522	0.0157001
685.600	0.0157767
685.678	0.0158235
685.756	0.0157410
685.834	0.0156805
685.913	0.0158737
685.991	0.0157221
686.069	0.0158423
686.147	0.0158687
686.225	0.0158681
686.303	0.0157934
686.381	0.0158842
686.459	0.0156448
686.538	0.0159039
686.616	0.0157616
686.694	0.0155322
686.772	0.0155295
686.850	0.0156336
686.928	0.0154965
687.006	0.0152885
687.084	0.0151714
687.163	0.0150738
687.241	0.0148656
687.319	0.0146933
687.397	0.0146687
687.475	0.0142915
687.553	0.0140688
687.631	0.0138911
687.709	0.0139215
687.788	0.0140336
687.866	0.0139625
687.944	0.0140855
688.022	0.0144581
688.100	0.0146494
688.178	0.0148692
688.256	0.0152088
688.334	0.0155180
688.413	0.0158363
688.491	0.0161053
688.569	0.0163371
688.647	0.0164927
688.725	0.0166487
688.803	0.0167766
688.881	0.0167504
688.959	0.0168787
689.038	0.0170300
689.116	0.0168640
689.194	0.0168226
689.272	0.0166519
689.350	0.0166414
689.428	0.0165208
689.506	0.0162991
689.584	0.0159832
689.663	0.0157695
689.741	0.0154160
689.819	0.0150914
689.897	0.0147620
689.975	0.0144282
690.053	0.0142241
690.131	0.0140793
690.209	0.0139724
690.288	0.0139108
690.366	0.0138957
690.444	0.0137519
690.522	0.0138505
690.600	0.0139501
690.678	0.0140781
690.756	0.0143109
690.834	0.0144847
690.913	0.0146254
690.991	0.0148445
691.069	0.0150312
691.147	0.0152283
691.225	0.0154283
691.303	0.0155280
691.381	0.0155690
691.459	0.0158044
691.538	0.0158057
691.616	0.0160898
691.694	0.0161179
691.772	0.0162881
691.850	0.0164201
691.928	0.0165104
692.006	0.0167113
692.084	0.0167155
692.163	0.0167547
692.241	0.0166717
692.319	0.0168596
692.397	0.0167834
692.475	0.0166010
692.553	0.0163748
692.631	0.0161517
692.709	0.0159539
692.788	0.0154890
692.866	0.0150766
692.944	0.0146838
693.022	0.0143543
693.100	0.0139343
693.178	0.0136627
693.256	0.0134417
693.334	0.0133441
693.413	0.0132589
693.491	0.0132824
693.569	0.0134184
693.647	0.0136104
693.725	0.0139172
693.803	0.0143914
693.881	0.0148742
693.959	0.0153754
694.038	0.0159085
694.116	0.0164478
694.194	0.0168457
694.272	0.0172260
694.350	0.0174380
694.428	0.0176302
694.506	0.0177411
694.584	0.0175799
694.663	0.0174919
694.741	0.0174107
694.819	0.0170308
694.897	0.0169074
694.975	0.0165892
695.053	0.0162627
695.131	0.0158533
695.209	0.0157384
695.288	0.0153500
695.366	0.0150220
695.444	0.0148560
695.522	0.0146484
695.600	0.0140479
695.678	0.0138266
695.756	0.0134092
695.834	0.0131461
695.913	0.0127261
695.991	0.0124802
696.069	0.0121478
696.147	0.0120400
696.225	0.0120795
696.303	0.0120318
696.381	0.0121995
696.459	0.0125533
696.538	0.0131056
696.616	0.0136105
696.694	0.0142532
696.772	0.0150101
696.850	0.0156086
696.928	0.0162669
697.006	0.0167638
697.084	0.0172491
697.163	0.0178070
697.241	0.0182516
697.319	0.0185486
697.397	0.0189413
697.475	0.0190997
697.553	0.0194955
697.631	0.0196065
697.709	0.0195412
697.788	0.0193695
697.866	0.0193692
697.944	0.0190585
698.022	0.0185378
698.100	0.0180227
698.178	0.0173979
698.256	0.0168082
698.334	0.0161664
698.413	0.0152884
698.491	0.0146564
698.569	0.0140263
698.647	0.0135782
698.725	0.0130229
698.803	0.0126878
698.881	0.0124543
698.959	0.0122557
699.038	0.0120109
699.116	0.0119263
699.194	0.0118507
699.272	0.0118191
699.350	0.0117197
699.428	0.0118378
699.506	0.0119455
699.584	0.0120678
699.663	0.0124202
699.741	0.0128368
699.819	0.0131439
699.897	0.0137490
699.975	0.0142492
700.053	0.0148808
700.131	0.0157561
700.209	0.0162878
700.288	0.0169427
700.366	0.0174319
700.444	0.0178230
700.522	0.0182224
700.600	0.0185732
700.678	0.0186476
700.756	0.0185194
700.834	0.0185396
700.913	0.0183202
700.991	0.0180832
701.069	0.0177907
701.147	0.0174896
701.225	0.0171439
701.303	0.0168347
701.381	0.0165003
701.459	0.0163510
701.538	0.0161431
701.616	0.0160230
701.694	0.0157633
701.772	0.0154195
701.850	0.0151858
701.928	0.0149763
702.006	0.0146985
702.084	0.0145592
702.163	0.0141673
702.241	0.0141866
702.319	0.0140482
702.397	0.0141483
702.475	0.0139961
702.553	0.0137604
702.631	0.0137985
702.709	0.0137963
702.788	0.0137695
702.866	0.0137960
702.944	0.0138544
703.022	0.0141816
703.100	0.0142030
703.178	0.0144230
703.256	0.0147442
703.334	0.0150291
703.413	0.0154086
703.491	0.0158501
703.569	0.0163010
703.647	0.0168216
703.725	0.0173229
703.803	0.0178059
703.881	0.0181406
703.959	0.0183110
704.038	0.0185171
704.116	0.0183716
704.194	0.0182961
704.272	0.0179652
704.350	0.0174742
704.428	0.0167741
704.506	0.0162669
704.584	0.0156004
704.663	0.0148869
704.741	0.0142954
704.819	0.0137563
704.897	0.0131489
704.975	0.0129723
705.053	0.0127765
705.131	0.0127289
705.209	0.0128172
705.288	0.0129928
705.366	0.0131949
705.444	0.0136735
705.522	0.0140312
705.600	0.0143481
705.678	0.0148580
705.756	0.0150354
705.834	0.0154755
705.913	0.0156444
705.991	0.0159621
706.069	0.0160913
706.147	0.0164604
706.225	0.0163068
706.303	0.0164712
706.381	0.0167785
706.459	0.0168427
706.538	0.0168092
706.616	0.0168826
706.694	0.0169901
706.772	0.0167570
706.850	0.0166929
706.928	0.0163745
707.006	0.0162380
707.084	0.0161458
707.163	0.0159892
707.241	0.0156892
707.319	0.0153938
707.397	0.0152911
707.475	0.0151609
707.553	0.0150812
707.631	0.0149540
707.709	0.0149701
707.788	0.0148729
707.866	0.0148859
707.944	0.0149032
708.022	0.0148837
708.100	0.0150139
708.178	0.0150105
708.256	0.0152751
708.334	0.0153041
708.413	0.0153940
708.491	0.0155756
708.569	0.0156425
708.647	0.0157119
708.725	0.0158252
708.803	0.0155882
708.881	0.0155871
708.959	0.0151941
709.038	0.0149500
709.116	0.0147848
709.194	0.0144297
709.272	0.0140990
709.350	0.0136742
709.428	0.0134798
709.506	0.0134002
709.584	0.0135574
709.663	0.0135937
709.741	0.0138183
709.819	0.0139750
709.897	0.0141332
709.975	0.0147061
710.053	0.0150848
710.131	0.0153156
710.209	0.0157414
710.288	0.0159668
710.366	0.0163171
710.444	0.0167077
710.522	0.0169204
710.600	0.0173917
710.678	0.0177187
710.756	0.0181333
710.834	0.0184818
710.913	0.0188005
710.991	0.0191606
711.069	0.0191988
711.147	0.0193760
711.225	0.0193725
711.303	0.0190520
711.381	0.0185109
711.459	0.0180679
711.538	0.0175796
711.616	0.0169282
711.694	0.0161479
711.772	0.0155206
711.850	0.0149468
711.928	0.0143653
712.006	0.0139832
712.084	0.0136265
712.163	0.0132204
712.241	0.0131181
712.319	0.0128983
712.397	0.0127998
712.475	0.0125144
712.553	0.0125047
712.631	0.0120802
712.709	0.0119411
712.788	0.0116858
712.866	0.0115099
712.944	0.0115218
713.022	0.0111007
713.100	0.0110629
713.178	0.0110763
713.256	0.0113052
713.334	0.0117174
713.413	0.0121500
713.491	0.0123689
713.569	0.0129575
713.647	0.0135371
713.725	0.0140473
713.803	0.0144979
713.881	0.0149520
713.959	0.0153645
714.038	0.0159390
714.116	0.0163313
714.194	0.0165593
714.272	0.0170033
714.350	0.0173959
714.428	0.0179356
714.506	0.0182205
714.584	0.0185008
714.663	0.0188958
714.741	0.0191294
714.819	0.0194640
714.897	0.0197204
714.975	0.0195214
715.053	0.0196362
715.131	0.0193527
715.209	0.0192837
715.288	0.0188711
715.366	0.0185806
715.444	0.0183594
715.522	0.0177744
715.600	0.0174146
715.678	0.0173378
715.756	0.0170565
715.834	0.0169904
715.913	0.0165145
715.991	0.0163756
716.069	0.0161307
716.147	0.0162269
716.225	0.0160677
716.303	0.0158679
716.381	0.0154318
716.459	0.0150813
716.538	0.0147338
716.616	0.0144313
716.694	0.0138917
716.772	0.0134642
716.850	0.0132215
716.928	0.0127660
717.006	0.0125718
717.084	0.0124186
717.163	0.0122131
717.241	0.0124235
717.319	0.0125758
717.397	0.0126600
717.475	0.0131252
717.553	0.0133582
717.631	0.0134813
717.709	0.0138610
717.788	0.0139892
717.866	0.0142278
717.944	0.0145726
718.022	0.0145323
718.100	0.0145612
718.178	0.0146757
718.256	0.0147755
718.334	0.0145580
718.413	0.0146324
718.491	0.0145520
718.569	0.0146256
718.647	0.0146762
718.725	0.0147565
718.803	0.0150032
718.881	0.0150105
718.959	0.0152266
719.038	0.0152573
719.116	0.0151116
719.194	0.0152496
719.272	0.0151495
719.350	0.0151111
719.428	0.0151279
719.506	0.0150936
719.584	0.0151948
719.663	0.0152531
719.741	0.0153927
719.819	0.0154510
719.897	0.0155821
719.975	0.0158481
720.053	0.0160425
720.131	0.0161976
720.209	0.0163552
720.288	0.0165219
720.366	0.0166821
720.444	0.0168935
720.522	0.0168912
720.600	0.0169511
720.678	0.0170287
720.756	0.0171457
720.834	0.0171989
720.913	0.0170880
720.991	0.0171202
721.069	0.0172395
721.147	0.0172569
721.225	0.0172327
721.303	0.0171308
721.381	0.0169852
721.459	0.0170259
721.538	0.0170030
721.616	0.0168320
721.694	0.0166494
721.772	0.0163573
721.850	0.0162988
721.928	0.0161633
722.006	0.0158453
722.084	0.0156672
722.163	0.0154228
722.241	0.0152029
722.319	0.0150733
722.397	0.0148986
722.475	0.0146381
722.553	0.0145202
722.631	0.0143384
722.709	0.0142136
722.788	0.0141506
722.866	0.0140495
722.944	0.0140134
723.022	0.0140240
723.100	0.0139611
723.178	0.0139252
723.256	0.0140283
723.334	0.0139319
723.413	0.0140707
723.491	0.0142146
723.569	0.0143347
723.647	0.0144242
723.725	0.0146573
723.803	0.0147311
723.881	0.0147398
723.959	0.0149538
724.038	0.0151889
724.116	0.0153556
724.194	0.0154583
724.272	0.0154386
724.350	0.0153799
724.428	0.0154820
724.506	0.0155801
724.584	0.0157608
724.663	0.0157336
724.741	0.0158040
724.819	0.0158638
724.897	0.0160342
724.975	0.0160860
725.053	0.0158974
725.131	0.0157170
725.209	0.0159426
725.288	0.0158407
725.366	0.0156750
725.444	0.0155515
725.522	0.0152592
725.600	0.0150614
725.678	0.0147330
725.756	0.0146034
725.834	0.0143141
725.913	0.0141796
725.991	0.0139909
726.069	0.0138300
726.147	0.0138007
726.225	0.0137564
726.303	0.0139803
726.381	0.0140034
726.459	0.0141769
726.538	0.0143215
726.616	0.0144531
726.694	0.0147048
726.772	0.0150097
726.850	0.0151412
726.928	0.0151171
727.006	0.0153593
727.084	0.0156982
727.163	0.0156016
727.241	0.0157585
727.319	0.0158122
727.397	0.0159241
727.475	0.0162730
727.553	0.0164474
727.631	0.0168091
727.709	0.0168298
727.788	0.0169387
727.866	0.0172838
727.944	0.0174971
728.022	0.0175163
728.100	0.0173954
728.178	0.0172742
728.256	0.0174517
728.334	0.0173547
728.413	0.0171064
728.491	0.0170415
728.569	0.0170766
728.647	0.0169917
728.725	0.0168129
728.803	0.0166807
728.881	0.0167046
728.959	0.0165921
729.038	0.0163073
729.116	0.0161691
729.194	0.0159600
729.272	0.0159377
729.350	0.0157865
729.428	0.0155747
729.506	0.0155092
729.584	0.0154106
729.663	0.0153799
729.741	0.0152124
729.819	0.0151157
729.897	0.0151872
729.975	0.0150967
730.053	0.0147404
730.131	0.0148057
730.209	0.0147566
730.288	0.0144623
730.366	0.0143426
730.444	0.0140778
730.522	0.0140260
730.600	0.0140323
730.678	0.0138561
730.756	0.0139710
730.834	0.0139218
730.913	0.0142936
730.991	0.0143938
731.069	0.0146949
731.147	0.0147379
731.225	0.0149214
731.303	0.0150600
731.381	0.0151009
731.459	0.0152888
731.538	0.0151911
731.616	0.0152345
731.694	0.0149897
731.772	0.0148466
731.850	0.0148380
731.928	0.0146439
732.006	0.0145966
732.084	0.0145609
732.163	0.0146681
732.241	0.0147750
732.319	0.0147623
732.397	0.0149637
732.475	0.0152848
732.553	0.0152692
732.631	0.0156959
732.709	0.0157780
732.788	0.0158092
732.866	0.0159656
732.944	0.0160461
733.022	0.0161337
733.100	0.0162035
733.178	0.0160460
733.256	0.0160673
733.334	0.0160283
733.413	0.0159002
733.491	0.0156985
733.569	0.0155569
733.647	0.0155498
733.725	0.0154185
733.803	0.0154520
733.881	0.0150740
733.959	0.0149223
734.038	0.0149374
734.116	0.0149321
734.194	0.0148028
734.272	0.0147601
734.350	0.0146410
734.428	0.0147079
734.506	0.0145930
734.584	0.0147302
734.663	0.0147311
734.741	0.0148660
734.819	0.0151734
734.897	0.0153875
734.975	0.0154454
735.053	0.0158064
735.131	0.0160307
735.209	0.0162763
735.288	0.0165496
735.366	0.0166689
735.444	0.0168505
735.522	0.0168813
735.600	0.0168716
735.678	0.0170235
735.756	0.0169370
735.834	0.0168622
735.913	0.0168204
735.991	0.0168073
736.069	0.0168544
736.147	0.0169893
736.225	0.0168692
736.303	0.0170282
736.381	0.0172299
736.459	0.0172505
736.538	0.0175425
736.616	0.0174496
736.694	0.0175842
736.772	0.0174419
736.850	0.0173556
736.928	0.0170812
737.006	0.0167133
737.084	0.0164852
737.163	0.0161233
737.241	0.0156863
737.319	0.0152695
737.397	0.0149409
737.475	0.0147047
737.553	0.0143617
737.631	0.0138927
737.709	0.0136456
737.788	0.0136334
737.866	0.0133202
737.944	0.0132365
738.022	0.0130780
738.100	0.0129998
738.178	0.0129746
738.256	0.0129039
738.334	0.0129162
738.413	0.0129549
738.491	0.0130842
738.569	0.0131442
738.647	0.0132835
738.725	0.0136459
738.803	0.0137133
738.881	0.0138192
738.959	0.0140906
739.038	0.0142594
739.116	0.0144611
739.194	0.0145631
739.272	0.0146631
739.350	0.0146834
739.428	0.0146793
739.506	0.0147315
739.584	0.0148926
739.663	0.0150793
739.741	0.0151695
739.819	0.0151973
739.897	0.0154746
739.975	0.0157440
740.053	0.0159441
740.131	0.0162207
740.209	0.0165185
740.288	0.0166259
740.366	0.0169130
740.444	0.0169662
740.522	0.0171114
740.600	0.0170488
740.678	0.0170314
740.756	0.0167168
740.834	0.0165810
740.913	0.0165362
740.991	0.0161256
741.069	0.0158344
741.147	0.0158316
741.225	0.0156372
741.303	0.0152620
741.381	0.0150089
741.459	0.0150267
741.538	0.0148621
741.616	0.0146794
741.694	0.0146846
741.772	0.0148693
741.850	0.0150898
741.928	0.0152287
742.006	0.0153384
742.084	0.0155015
742.163	0.0156995
742.241	0.0159084
742.319	0.0160394
742.397	0.0161701
742.475	0.0161698
742.553	0.0162547
742.631	0.0163810
742.709	0.0164437
742.788	0.0163673
742.866	0.0164172
742.944	0.0165221
743.022	0.0166544
743.100	0.0166532
743.178	0.0166206
743.256	0.0164479
743.334	0.0165234
743.413	0.0165531
743.491	0.0163402
743.569	0.0163313
743.647	0.0160986
743.725	0.0159103
743.803	0.0158250
743.881	0.0156242
743.959	0.0154726
744.038	0.0153854
744.116	0.0154195
744.194	0.0154824
744.272	0.0156155
744.350	0.0158905
744.428	0.0159383
744.506	0.0162646
744.584	0.0163420
744.663	0.0165087
744.741	0.0165669
744.819	0.0164528
744.897	0.0162455
744.975	0.0160737
745.053	0.0157746
745.131	0.0152522
745.209	0.0150851
745.288	0.0147849
745.366	0.0143306
745.444	0.0138212
745.522	0.0135490
745.600	0.0133640
745.678	0.0129691
745.756	0.0127892
745.834	0.0126453
745.913	0.0126037
745.991	0.0124981
746.069	0.0123749
746.147	0.0123469
746.225	0.0124617
746.303	0.0125937
746.381	0.0127319
746.459	0.0132035
746.538	0.0133128
746.616	0.0138558
746.694	0.0144668
746.772	0.0147173
746.850	0.0153354
746.928	0.0156995
747.006	0.0163168
747.084	0.0166469
747.163	0.0168405
747.241	0.0169476
747.319	0.0170998
747.397	0.0172333
747.475	0.0172206
747.553	0.0170401
747.631	0.0168571
747.709	0.0168340
747.788	0.0167093
747.866	0.0166045
747.944	0.0164499
748.022	0.0164032
748.100	0.0161961
748.178	0.0163062
748.256	0.0160545
748.334	0.0159838
748.413	0.0159418
748.491	0.0158691
748.569	0.0156889
748.647	0.0156549
748.725	0.0155460
748.803	0.0154219
748.881	0.0152010
748.959	0.0151621
749.038	0.0150053
749.116	0.0146887
749.194	0.0145343
749.272	0.0143401
749.350	0.0142268
749.428	0.0140921
749.506	0.0139009
749.584	0.0141059
749.663	0.0143497
749.741	0.0142088
749.819	0.0143839
749.897	0.0149165
749.975	0.0153752
750.053	0.0157680
750.131	0.0163015
750.209	0.0166364
750.288	0.0171398
750.366	0.0175078
750.444	0.0176392
750.522	0.0179043
750.600	0.0179003
750.678	0.0178218
750.756	0.0178835
750.834	0.0179099
750.913	0.0176736
750.991	0.0176463
751.069	0.0174992
751.147	0.0172446
751.225	0.0171007
751.303	0.0169466
751.381	0.0167843
751.459	0.0167000
751.538	0.0163902
751.616	0.0161858
751.694	0.0158050
751.772	0.0155189
751.850	0.0151963
751.928	0.0147872
752.006	0.0146747
752.084	0.0143165
752.163	0.0141563
752.241	0.0142053
752.319	0.0139942
752.397	0.0140154
752.475	0.0143479
752.553	0.0147308
752.631	0.0148775
752.709	0.0150877
752.788	0.0152135
752.866	0.0152853
752.944	0.0155766
753.022	0.0155140
753.100	0.0155138
753.178	0.0153531
753.256	0.0151959
753.334	0.0148549
753.413	0.0144364
753.491	0.0140125
753.569	0.0137001
753.647	0.0132156
753.725	0.0130811
753.803	0.0127197
753.881	0.0125808
753.959	0.0123483
754.038	0.0124198
754.116	0.0124661
754.194	0.0124174
754.272	0.0127206
754.350	0.0131020
754.428	0.0134210
754.506	0.0138134
754.584	0.0143430
754.663	0.0147628
754.741	0.0153005
754.819	0.0157780
754.897	0.0162509
754.975	0.0166936
755.053	0.0170416
755.131	0.0172860
755.209	0.0174802
755.288	0.0175819
755.366	0.0175616
755.444	0.0174349
755.522	0.0172511
755.600	0.0171721
755.678	0.0170142
755.756	0.0169344
755.834	0.0169495
755.913	0.0167537
755.991	0.0165448
756.069	0.0166643
756.147	0.0167203
756.225	0.0166874
756.303	0.0166383
756.381	0.0165428
756.459	0.0163863
756.538	0.0161121
756.616	0.0160480
756.694	0.0156673
756.772	0.0154337
756.850	0.0150972
756.928	0.0150045
757.006	0.0147508
757.084	0.0144739
757.163	0.0143346
757.241	0.0140984
757.319	0.0141627
757.397	0.0140235
757.475	0.0141434
757.553	0.0143231
757.631	0.0143816
757.709	0.0146642
757.788	0.0148858
757.866	0.0152200
757.944	0.0156366
758.022	0.0158786
758.100	0.0161680
758.178	0.0166391
758.256	0.0169682
758.334	0.0172429
758.413	0.0175518
758.491	0.0177370
758.569	0.0179083
758.647	0.0180832
758.725	0.0180484
758.803	0.0179243
758.881	0.0179050
758.959	0.0176106
759.038	0.0176299
759.116	0.0173533
759.194	0.0170692
759.272	0.0167255
759.350	0.0164316
759.428	0.0159528
759.506	0.0155778
759.584	0.0151244
759.663	0.0146062
759.741	0.0143085
759.819	0.0140302
759.897	0.0135526
759.975	0.0133108
760.053	0.0130302
760.131	0.0130164
760.209	0.0129326
760.288	0.0131269
760.366	0.0132201
760.444	0.0135310
760.522	0.0137346
760.600	0.0143121
760.678	0.0148171
760.756	0.0152619
760.834	0.0155241
760.913	0.0159007
760.991	0.0159425
761.069	0.0160504
761.147	0.0160458
761.225	0.0160138
761.303	0.0156592
761.381	0.0153743
761.459	0.0150077
761.538	0.0147642
761.616	0.0143521
761.694	0.0137883
761.772	0.0136739
761.850	0.0133440
761.928	0.0129546
762.006	0.0127669
762.084	0.0128858
762.163	0.0128188
762.241	0.0130782
762.319	0.0131467
762.397	0.0132883
762.475	0.0137872
762.553	0.0142589
762.631	0.0145954
762.709	0.0150354
762.788	0.0156829
762.866	0.0160760
762.944	0.0164436
763.022	0.0169315
763.100	0.0171931
763.178	0.0175330
763.256	0.0178278
763.334	0.0179139
763.413	0.0177428
763.491	0.0177525
763.569	0.0178717
763.647	0.0178475
763.725	0.0174900
763.803	0.0173327
763.881	0.0170512
763.959	0.0168225
764.038	0.0163368
764.116	0.0162428
764.194	0.0158609
764.272	0.0154802
764.350	0.0151936
764.428	0.0148155
764.506	0.0144169
764.584	0.0142918
764.663	0.0142001
764.741	0.0139790
764.819	0.0137665
764.897	0.0137119
764.975	0.0137568
765.053	0.0138512
765.131	0.0139223
765.209	0.0142321
765.288	0.0144279
765.366	0.0148505
765.444	0.0151144
765.522	0.0157227
765.600	0.0160476
765.678	0.0164446
765.756	0.0168848
765.834	0.0175045
765.913	0.0176495
765.991	0.0179961
766.069	0.0182969
766.147	0.0184157
766.225	0.0185255
766.303	0.0184067
766.381	0.0184847
766.459	0.0183425
766.538	0.0179771
766.616	0.0177617
766.694	0.0173830
766.772	0.0170115
766.850	0.0164813
766.928	0.0157968
767.006	0.0154359
767.084	0.0148649
767.163	0.0146356
767.241	0.0142146
767.319	0.0138248
767.397	0.0134441
767.475	0.0134344
767.553	0.0130762
767.631	0.0130093
767.709	0.0128660
767.788	0.0130366
767.866	0.0130360
767.944	0.0130237
768.022	0.0131979
768.100	0.0132916
768.178	0.0135516
768.256	0.0138342
768.334	0.0140391
768.413	0.0142614
768.491	0.0143802
768.569	0.0145680
768.647	0.0148854
768.725	0.0151361
768.803	0.0151965
768.881	0.0152368
768.959	0.0153204
769.038	0.0154586
769.116	0.0153110
769.194	0.0153052
769.272	0.0149717
769.350	0.0148542
769.428	0.0146226
769.506	0.0143875
769.584	0.0142455
769.663	0.0138827
769.741	0.0138638
769.819	0.0137501
769.897	0.0138162
769.975	0.0138509
770.053	0.0141367
770.131	0.0142358
770.209	0.0145025
770.288	0.0147976
770.366	0.0152540
770.444	0.0154978
770.522	0.0159924
770.600	0.0162812
770.678	0.0166002
770.756	0.0167248
770.834	0.0170671
770.913	0.0174318
770.991	0.0175745
771.069	0.0176914
771.147	0.0177845
771.225	0.0176539
771.303	0.0177164
771.381	0.0175234
771.459	0.0174662
771.538	0.0172131
771.616	0.0169949
771.694	0.0166039
771.772	0.0164459
771.850	0.0160590
771.928	0.0156878
772.006	0.0152773
772.084	0.0150382
772.163	0.0146726
772.241	0.0143912
772.319	0.0140929
772.397	0.0138889
772.475	0.0136977
772.553	0.0133878
772.631	0.0135432
772.709	0.0136236
772.788	0.0138026
772.866	0.0139564
772.944	0.0141950
773.022	0.0143047
773.100	0.0148163
773.178	0.0152674
773.256	0.0156212
773.334	0.0161288
773.413	0.0164549
773.491	0.0169027
773.569	0.0172215
773.647	0.0176429
773.725	0.0180120
773.803	0.0181550
773.881	0.0183130
773.959	0.0185071
774.038	0.0183137
774.116	0.0183290
774.194	0.0180344
774.272	0.0177773
774.350	0.0173563
774.428	0.0168618
774.506	0.0165557
774.584	0.0159789
774.663	0.0154542
774.741	0.0151395
774.819	0.0144291
774.897	0.0140788
774.975	0.0137235
775.053	0.0134173
775.131	0.0131783
775.209	0.0129745
775.288	0.0128820
775.366	0.0130379
775.444	0.0130801
775.522	0.0130628
775.600	0.0133272
775.678	0.0136519
775.756	0.0139367
775.834	0.0143000
775.913	0.0144417
775.991	0.0147588
776.069	0.0151723
776.147	0.0154251
776.225	0.0157234
776.303	0.0159674
776.381	0.0158759
776.459	0.0159789
776.538	0.0160434
776.616	0.0159137
776.694	0.0158229
776.772	0.0157019
776.850	0.0155151
776.928	0.0152528
777.006	0.0147836
777.084	0.0145937
777.163	0.0142921
777.241	0.0140096
777.319	0.0138777
777.397	0.0136372
777.475	0.0134823
777.553	0.0133423
777.631	0.0135480
777.709	0.0135385
777.788	0.0136447
777.866	0.0140020
777.944	0.0142690
778.022	0.0144542
778.100	0.0147349
778.178	0.0151325
778.256	0.0157153
778.334	0.0159277
778.413	0.0163479
778.491	0.0166980
778.569	0.0169570
778.647	0.0171762
778.725	0.0173209
778.803	0.0173122
778.881	0.0174319
778.959	0.0175645
779.038	0.0173477
779.116	0.0173418
779.194	0.0173928
779.272	0.0170267
779.350	0.0169474
779.428	0.0168825
779.506	0.0165455
779.584	0.0164491
779.663	0.0163031
779.741	0.0159443
779.819	0.0157058
779.897	0.0154857
779.975	0.0153463
780.053	0.0149730
780.131	0.0146914
780.209	0.0146057
780.288	0.0144306
780.366	0.0143474
780.444	0.0141822
780.522	0.0143220
780.600	0.0143071
780.678	0.0144190
780.756	0.0144735
780.834	0.0145261
780.913	0.0150018
780.991	0.0152795
781.069	0.0155132
781.147	0.0159039
781.225	0.0163249
781.303	0.0165068
781.381	0.0167720
781.459	0.0171477
781.538	0.0175581
781.616	0.0175081
781.694	0.0176261
781.772	0.0177358
781.850	0.0177625
781.928	0.0176552
782.006	0.0175803
782.084	0.0174081
782.163	0.0171318
782.241	0.0169724
782.319	0.0164455
782.397	0.0162163
782.475	0.0157736
782.553	0.0153758
782.631	0.0150440
782.709	0.0147416
782.788	0.0144484
782.866	0.0139421
782.944	0.0136907
783.022	0.0136420
783.100	0.0132484
783.178	0.0131374
783.256	0.0129494
783.334	0.0130764
783.413	0.0131059
783.491	0.0130259
783.569	0.0133121
783.647	0.0135680
783.725	0.0137057
783.803	0.0140214
783.881	0.0142873
783.959	0.0146850
784.038	0.0149566
784.116	0.0153311
784.194	0.0156003
784.272	0.0157550
784.350	0.0160551
784.428	0.0161501
784.506	0.0161541
784.584	0.0161959
784.663	0.0161193
784.741	0.0160833
784.819	0.0158784
784.897	0.0157548
784.975	0.0154092
785.053	0.0151961
785.131	0.0149785
785.209	0.0147634
785.288	0.0145512
785.366	0.0142418
785.444	0.0141447
785.522	0.0141932
785.600	0.0142120
785.678	0.0142372
785.756	0.0143444
785.834	0.0145454
785.913	0.0148119
785.991	0.0150752
786.069	0.0153041
786.147	0.0154443
786.225	0.0155583
786.303	0.0158418
786.381	0.0162436
786.459	0.0164896
786.538	0.0166062
786.616	0.0166983
786.694	0.0167465
786.772	0.0168877
786.850	0.0168750
786.928	0.0168803
787.006	0.0167386
787.084	0.0165874
787.163	0.0166496
787.241	0.0165807
787.319	0.0164448
787.397	0.0161333
787.475	0.0160014
787.553	0.0158977
787.631	0.0159610
787.709	0.0155399
787.788	0.0153732
787.866	0.0152036
787.944	0.0151228
788.022	0.0148840
788.100	0.0147426
788.178	0.0146248
788.256	0.0145573
788.334	0.0144926
788.413	0.0143061
788.491	0.0145361
788.569	0.0145329
788.647	0.0144313
788.725	0.0146635
788.803	0.0148759
788.881	0.0149236
788.959	0.0152384
789.038	0.0155631
789.116	0.0156306
789.194	0.0158960
789.272	0.0161864
789.350	0.0164889
789.428	0.0166393
789.506	0.0166530
789.584	0.0168731
789.663	0.0169370
789.741	0.0170677
789.819	0.0169524
789.897	0.0167824
789.975	0.0167290
790.053	0.0166121
790.131	0.0163711
790.209	0.0159950
790.288	0.0158125
790.366	0.0154972
790.444	0.0151845
790.522	0.0151637
790.600	0.0147586
790.678	0.0144778
790.756	0.0141907
790.834	0.0142761
790.913	0.0140079
790.991	0.0137611
791.069	0.0138902
791.147	0.0139238
791.225	0.0139928
791.303	0.0140004
791.381	0.0142641
791.459	0.0141162
791.538	0.0144283
791.616	0.0143996
791.694	0.0147342
791.772	0.0147307
791.850	0.0148413
791.928	0.0150105
792.006	0.0150976
792.084	0.0149794
792.163	0.0151941
792.241	0.0152306
792.319	0.0152589
792.397	0.0152572
792.475	0.0152907
792.553	0.0152974
792.631	0.0151687
792.709	0.0151824
792.788	0.0151286
792.866	0.0151650
792.944	0.0152154
793.022	0.0149680
793.100	0.0148519
793.178	0.0148160
793.256	0.0148177
793.334	0.0146752
793.413	0.0146167
793.491	0.0146039
793.569	0.0146461
793.647	0.0148095
793.725	0.0149976
793.803	0.0151079
793.881	0.0152588
793.959	0.0156310
794.038	0.0156368
794.116	0.0158092
794.194	0.0162384
794.272	0.0162833
794.350	0.0166415
794.428	0.0166409
794.506	0.0167235
794.584	0.0167878
794.663	0.0167916
794.741	0.0167043
794.819	0.0167238
794.897	0.0166602
794.975	0.0164550
795.053	0.0161213
795.131	0.0161632
795.209	0.0160530
795.288	0.0156877
795.366	0.0155424
795.444	0.0154877
795.522	0.0153731
795.600	0.0150721
795.678	0.0149164
795.756	0.0147710
795.834	0.0149109
795.913	0.0146174
795.991	0.0146001
796.069	0.0144601
796.147	0.0143582
796.225	0.0144493
796.303	0.0143868
796.381	0.0145921
796.459	0.0146101
796.538	0.0145539
796.616	0.0148899
796.694	0.0149638
796.772	0.0152251
796.850	0.0154516
796.928	0.0156393
797.006	0.0159230
797.084	0.0161377
797.163	0.0161135
797.241	0.0162381
797.319	0.0164509
797.397	0.0166730
797.475	0.0165824
797.553	0.0167518
797.631	0.0168664
797.709	0.0168753
797.788	0.0167235
797.866	0.0167667
797.944	0.0166316
798.022	0.0164637
798.100	0.0162888
798.178	0.0160480
798.256	0.0157308
798.334	0.0155903
798.413	0.0155090
798.491	0.0152628
798.569	0.0150307
798.647	0.0148280
798.725	0.0145496
798.803	0.0143580
798.881	0.0142878
798.959	0.0141180
799.038	0.0140444
799.116	0.0139252
799.194	0.0139223
799.272	0.0141093
799.350	0.0142507
799.428	0.0143169
799.506	0.0143738
799.584	0.0145955
799.663	0.0146698
799.741	0.0149062
799.819	0.0152000
799.897	0.0154367
799.975	0.0156915
800.053	0.0156935
800.131	0.0158945
800.209	0.0159576
800.288	0.0159640
800.366	0.0160555
800.444	0.0158842
800.522	0.0159094
800.600	0.0159118
800.678	0.0156770
800.756	0.0155170
800.834	0.0153809
800.913	0.0152185
800.991	0.0152043
801.069	0.0149393
801.147	0.0148763
801.225	0.0147686
801.303	0.0147598
801.381	0.0147208
801.459	0.0146255
801.538	0.0147739
801.616	0.0148711
801.694	0.0149254
801.772	0.0150269
801.850	0.0150287
801.928	0.0151793
802.006	0.0152010
802.084	0.0154489
802.163	0.0154201
802.241	0.0157172
802.319	0.0156979
802.397	0.0158009
802.475	0.0159077
802.553	0.0161385
802.631	0.0160973
802.709	0.0161469
802.788	0.0161758
802.866	0.0161842
802.944	0.0162854
803.022	0.0161992
803.100	0.0160972
803.178	0.0161730
803.256	0.0160457
803.334	0.0158845
803.413	0.0159717
803.491	0.0157521
803.569	0.0155846
803.647	0.0156083
803.725	0.0155235
803.803	0.0152048
803.881	0.0152171
803.959	0.0151161
804.038	0.0150832
804.116	0.0149577
804.194	0.0149596
804.272	0.0147971
804.350	0.0148244
804.428	0.0150138
804.506	0.0148795
804.584	0.0149769
804.663	0.0150669
804.741	0.0152364
804.819	0.0152517
804.897	0.0152411
804.975	0.0154185
805.053	0.0158085
805.131	0.0156988
805.209	0.0158499
805.288	0.0159126
805.366	0.0159219
805.444	0.0160197
805.522	0.0161832
805.600	0.0161362
805.678	0.0161589
805.756	0.0161301
805.834	0.0161858
805.913	0.0161405
805.991	0.0160178
806.069	0.0159454
806.147	0.0157813
806.225	0.0155473
806.303	0.0154256
806.381	0.0153287
806.459	0.0150909
806.538	0.0150374
806.616	0.0150316
806.694	0.0149722
806.772	0.0147539
806.850	0.0148573
806.928	0.0148660
807.006	0.0148643
807.084	0.0150255
807.163	0.0149658
807.241	0.0150862
807.319	0.0152309
807.397	0.0151685
807.475	0.0153364
807.553	0.0155145
807.631	0.0154496
807.709	0.0157688
807.788	0.0156515
807.866	0.0155555
807.944	0.0158449
808.022	0.0159235
808.100	0.0158160
808.178	0.0157738
808.256	0.0157220
808.334	0.0155794
808.413	0.0156098
808.491	0.0154579
808.569	0.0154828
808.647	0.0153295
808.725	0.0150323
808.803	0.0149368
808.881	0.0149225
808.959	0.0146014
809.038	0.0146585
809.116	0.0144996
809.194	0.0142564
809.272	0.0142545
809.350	0.0141236
809.428	0.0142328
809.506	0.0141225
809.584	0.0142036
809.663	0.0141406
809.741	0.0142374
809.819	0.0144406
809.897	0.0145202
809.975	0.0146824
810.053	0.0147437
810.131	0.0150191
810.209	0.0153136
810.288	0.0153707
810.366	0.0155086
810.444	0.0156202
810.522	0.0157328
810.600	0.0159016
810.678	0.0160109
810.756	0.0161798
810.834	0.0161195
810.913	0.0161981
810.991	0.0162898
811.069	0.0163062
811.147	0.0164024
811.225	0.0163568
811.303	0.0163208
811.381	0.0163973
811.459	0.0162825
811.538	0.0162853
811.616	0.0162446
811.694	0.0161435
811.772	0.0160875
811.850	0.0162124
811.928	0.0161168
812.006	0.0159295
812.084	0.0158720
812.163	0.0158368
812.241	0.0157454
812.319	0.0156409
812.397	0.0153595
812.475	0.0152850
812.553	0.0152412
812.631	0.0152404
812.709	0.0152199
812.788	0.0152647
812.866	0.0153004
812.944	0.0152943
813.022	0.0152894
813.100	0.0152550
813.178	0.0153426
813.256	0.0154660
813.334	0.0155967
813.413	0.0155077
813.491	0.0155611
813.569	0.0157641
813.647	0.0157391
813.725	0.0157223
813.803	0.0156757
813.881	0.0157740
813.959	0.0158156
814.038	0.0156636
814.116	0.0156794
814.194	0.0157056
814.272	0.0154941
814.350	0.0154205
814.428	0.0154077
814.506	0.0151088
814.584	0.0151981
814.663	0.0150661
814.741	0.0148962
814.819	0.0148072
814.897	0.0146709
814.975	0.0147263
815.053	0.0146864
815.131	0.0145005
815.209	0.0144748
815.288	0.0144476
815.366	0.0144933
815.444	0.0147079
815.522	0.0147438
815.600	0.0148556
815.678	0.0149970
815.756	0.0149766
815.834	0.0151665
815.913	0.0153951
815.991	0.0153628
816.069	0.0154875
816.147	0.0155458
816.225	0.0155771
816.303	0.0156944
816.381	0.0157437
816.459	0.0157813
816.538	0.0157272
816.616	0.0156242
816.694	0.0156367
816.772	0.0156390
816.850	0.0156842
816.928	0.0157766
817.006	0.0155431
817.084	0.0152609
817.163	0.0154668
817.241	0.0153645
817.319	0.0153197
817.397	0.0154865
817.475	0.0153401
817.553	0.0154066
817.631	0.0154832
817.709	0.0154741
817.788	0.0154896
817.866	0.0155206
817.944	0.0154954
818.022	0.0155087
818.100	0.0155428
818.178	0.0155708
818.256	0.0156750
818.334	0.0157703
818.413	0.0158223
818.491	0.0157798
818.569	0.0157388
818.647	0.0159377
818.725	0.0159791
818.803	0.0159402
818.881	0.0158006
818.959	0.0158439
819.038	0.0158751
819.116	0.0157392
819.194	0.0158352
819.272	0.0157922
819.350	0.0157783
819.428	0.0154227
819.506	0.0154993
819.584	0.0156056
819.663	0.0154483
819.741	0.0154361
819.819	0.0153185
819.897	0.0151720
819.975	0.0151581
820.053	0.0150612
820.131	0.0149455
820.209	0.0149175
820.288	0.0148845
820.366	0.0148383
820.444	0.0149165
820.522	0.0149851
820.600	0.0148988
820.678	0.0150800
820.756	0.0151558
820.834	0.0152100
820.913	0.0153851
820.991	0.0154114
821.069	0.0155891
821.147	0.0155775
821.225	0.0156001
821.303	0.0157247
821.381	0.0157954
821.459	0.0158829
821.538	0.0157401
821.616	0.0158706
821.694	0.0159306
821.772	0.0158942
821.850	0.0159072
821.928	0.0159089
822.006	0.0157158
822.084	0.0157438
822.163	0.0157304
822.241	0.0156941
822.319	0.0155726
822.397	0.0153415
822.475	0.0155169
822.553	0.0152824
822.631	0.0150805
822.709	0.0150285
822.788	0.0151708
822.866	0.0150886
822.944	0.0149126
823.022	0.0148837
823.100	0.0148769
823.178	0.0148091
823.256	0.0149194
823.334	0.0150948
823.413	0.0151173
823.491	0.0152349
823.569	0.0152673
823.647	0.0152383
823.725	0.0154269
823.803	0.0155098
823.881	0.0154896
823.959	0.0154951
824.038	0.0156601
824.116	0.0157493
824.194	0.0157763
824.272	0.0159081
824.350	0.0158418
824.428	0.0158009
824.506	0.0159028
824.584	0.0159573
824.663	0.0159752
824.741	0.0158107
824.819	0.0158804
824.897	0.0158786
824.975	0.0157468
825.053	0.0156243
825.131	0.0156541
825.209	0.0154095
825.288	0.0153278
825.366	0.0151621
825.444	0.0151832
825.522	0.0149622
825.600	0.0150397
825.678	0.0149554
825.756	0.0148624
825.834	0.0148788
825.913	0.0146445
825.991	0.0148483
826.069	0.0149428
826.147	0.0149610
826.225	0.0149495
826.303	0.0151065
826.381	0.0151701
826.459	0.0152863
826.538	0.0152958
826.616	0.0153168
826.694	0.0153747
826.772	0.0155394
826.850	0.0156494
826.928	0.0155260
827.006	0.0156071
827.084	0.0157484
827.163	0.0157108
827.241	0.0155965
827.319	0.0156262
827.397	0.0155483
827.475	0.0156264
827.553	0.0155322
827.631	0.0153381
827.709	0.0153815
827.788	0.0151955
827.866	0.0153135
827.944	0.0152618
828.022	0.0150995
828.100	0.0149644
828.178	0.0149614
828.256	0.0150256
828.334	0.0149600
828.413	0.0149121
828.491	0.0149991
828.569	0.0151440
828.647	0.0151678
828.725	0.0150908
828.803	0.0151572
828.881	0.0152197
828.959	0.0153632
829.038	0.0154395
829.116	0.0155856
829.194	0.0154958
829.272	0.0155580
829.350	0.0157048
829.428	0.0156751
829.506	0.0158171
829.584	0.0159039
829.663	0.0159853
829.741	0.0159135
829.819	0.0159880
829.897	0.0161439
829.975	0.0160811
830.053	0.0160020
830.131	0.0160767
830.209	0.0158742
830.288	0.0159127
830.366	0.0157085
830.444	0.0156149
830.522	0.0156277
830.600	0.0154262
830.678	0.0153937
830.756	0.0152457
830.834	0.0150887
830.913	0.0151437
830.991	0.0149269
831.069	0.0149637
831.147	0.0148478
831.225	0.0150485
831.303	0.0149310
831.381	0.0148544
831.459	0.0148772
831.538	0.0150559
831.616	0.0150430
831.694	0.0150036
831.772	0.0149534
831.850	0.0151709
831.928	0.0152330
832.006	0.0152232
832.084	0.0154839
832.163	0.0154968
832.241	0.0153957
832.319	0.0155711
832.397	0.0155932
832.475	0.0156590
832.553	0.0156688
832.631	0.0157845
832.709	0.0157275
832.788	0.0158082
832.866	0.0158237
832.944	0.0157706
833.022	0.0157307
833.100	0.0156987
833.178	0.0155605
833.256	0.0155113
833.334	0.0155189
833.413	0.0154285
833.491	0.0154420
833.569	0.0153260
833.647	0.0152557
833.725	0.0152574
833.803	0.0152266
833.881	0.0152637
833.959	0.0151939
834.038	0.0150817
834.116	0.0150708
834.194	0.0151407
834.272	0.0152217
834.350	0.0151188
834.428	0.0151513
834.506	0.0152225
834.584	0.0150656
834.663	0.0152167
834.741	0.0152070
834.819	0.0153930
834.897	0.0153386
834.975	0.0152186
835.053	0.0152926
835.131	0.0153678
835.209	0.0153856
835.288	0.0154015
835.366	0.0154586
835.444	0.0153880
835.522	0.0154988
835.600	0.0154111
835.678	0.0154137
835.756	0.0153930
835.834	0.0154160
835.913	0.0153101
835.991	0.0152929
836.069	0.0153146
836.147	0.0151813
836.225	0.0153358
836.303	0.0153691
836.381	0.0153143
836.459	0.0153050
836.538	0.0155238
836.616	0.0155347
836.694	0.0155627
836.772	0.0155605
836.850	0.0155927
836.928	0.0156344
837.006	0.0157773
837.084	0.0156890
837.163	0.0157275
837.241	0.0158190
837.319	0.0157711
837.397	0.0156980
837.475	0.0158520
837.553	0.0158410
837.631	0.0157573
837.709	0.0160003
837.788	0.0158755
837.866	0.0157937
837.944	0.0159375
838.022	0.0158276
838.100	0.0157988
838.178	0.0155600
838.256	0.0156271
838.334	0.0154827
838.413	0.0155329
838.491	0.0154198
838.569	0.0153324
838.647	0.0153742
838.725	0.0152608
838.803	0.0152479
838.881	0.0151337
838.959	0.0150601
839.038	0.0151076
839.116	0.0150723
839.194	0.0150300
839.272	0.0149844
839.350	0.0150505
839.428	0.0150031
839.506	0.0150694
839.584	0.0149777
839.663	0.0151743
839.741	0.0152901
839.819	0.0152085
839.897	0.0152890
839.975	0.0153234
840.053	0.0152965
840.131	0.0155814
840.209	0.0155808
840.288	0.0156258
840.366	0.0156085
840.444	0.0155980
840.522	0.0158194
840.600	0.0157745
840.678	0.0157109
840.756	0.0157240
840.834	0.0157947
840.913	0.0156764
840.991	0.0156994
841.069	0.0155637
841.147	0.0154559
841.225	0.0153439
841.303	0.0155161
841.381	0.0153706
841.459	0.0153545
841.538	0.0152843
841.616	0.0153130
841.694	0.0152293
841.772	0.0150906
841.850	0.0151698
841.928	0.0152171
842.006	0.0150761
842.084	0.0150089
842.163	0.0152903
842.241	0.0151519
842.319	0.0151360
842.397	0.0153687
842.475	0.0152341
842.553	0.0153355
842.631	0.0155680
842.709	0.0154577
842.788	0.0154045
842.866	0.0155225
842.944	0.0156365
843.022	0.0156084
843.100	0.0156125
843.178	0.0157731
843.256	0.0158190
843.334	0.0155381
843.413	0.0158535
843.491	0.0158393
843.569	0.0158097
843.647	0.0158076
843.725	0.0157500
843.803	0.0157281
843.881	0.0155598
843.959	0.0155804
844.038	0.0155832
844.116	0.0155518
844.194	0.0154797
844.272	0.0154327
844.350	0.0154704
844.428	0.0154459
844.506	0.0152709
844.584	0.0152870
844.663	0.0152956
844.741	0.0153341
844.819	0.0153609
844.897	0.0154224
844.975	0.0153161
845.053	0.0153384
845.131	0.0153498
845.209	0.0155290
845.288	0.0154779
845.366	0.0153923
845.444	0.0154945
845.522	0.0155659
845.600	0.0155064
845.678	0.0155495
845.756	0.0156976
845.834	0.0157133
845.913	0.0157962
845.991	0.0156246
846.069	0.0156590
846.147	0.0156606
846.225	0.0156833
846.303	0.0156694
846.381	0.0155206
846.459	0.0154402
846.538	0.0155607
846.616	0.0154383
846.694	0.0153722
846.772	0.0154864
846.850	0.0153140
846.928	0.0153085
847.006	0.0153177
847.084	0.0152200
847.163	0.0152675
847.241	0.0152416
847.319	0.0151841
847.397	0.0151888
847.475	0.0151765
847.553	0.0153464
847.631	0.0152757
847.709	0.0151256
847.788	0.0152952
847.866	0.0153062
847.944	0.0155250
848.022	0.0155159
848.100	0.0156374
848.178	0.0155763
848.256	0.0156223
848.334	0.0155543
848.413	0.0157343
848.491	0.0156786
848.569	0.0157431
848.647	0.0157343
848.725	0.0156214
848.803	0.0156143
848.881	0.0156358
848.959	0.0154092
849.038	0.0155806
849.116	0.0153603
849.194	0.0154597
849.272	0.0155656
849.350	0.0153383
849.428	0.0152628
849.506	0.0152876
849.584	0.0151091
849.663	0.0152731
849.741	0.0152957
849.819	0.0150639
849.897	0.0152296
849.975	0.0152499
850.053	0.0150468
850.131	0.0151402
850.209	0.0149739
850.288	0.0150712
850.366	0.0151730
850.444	0.0152946
850.522	0.0152953
850.600	0.0152645
850.678	0.0154034
850.756	0.0153886
850.834	0.0154701
850.913	0.0154090
850.991	0.0154690
851.069	0.0155923
851.147	0.0155023
851.225	0.0156200
851.303	0.0155589
851.381	0.0155428
851.459	0.0155742
851.538	0.0156008
851.616	0.0156590
851.694	0.0156240
851.772	0.0154620
851.850	0.0156537
851.928	0.0156089
852.006	0.0156313
852.084	0.0155511
852.163	0.0155438
852.241	0.0154554
852.319	0.0154088
852.397	0.0155006
852.475	0.0155302
852.553	0.0153545
852.631	0.0155259
852.709	0.0155036
852.788	0.0155795
852.866	0.0153973
852.944	0.0154371
853.022	0.0154258
853.100	0.0154575
853.178	0.0154925
853.256	0.0155106
853.334	0.0154169
853.413	0.0153564
853.491	0.0154321
853.569	0.0154298
853.647	0.0155804
853.725	0.0153468
853.803	0.0153459
853.881	0.0154884
853.959	0.0154623
854.038	0.0154817
854.116	0.0154480
854.194	0.0153825
854.272	0.0154560
854.350	0.0153975
854.428	0.0154601
854.506	0.0153570
854.584	0.0153390
854.663	0.0153864
854.741	0.0153458
854.819	0.0153489
854.897	0.0154708
854.975	0.0152175
855.053	0.0152460
855.131	0.0151897
855.209	0.0151560
855.288	0.0153172
855.366	0.0153388
855.444	0.0152943
855.522	0.0151928
855.600	0.0152555
855.678	0.0152354
855.756	0.0152977
855.834	0.0152673
855.913	0.0150522
855.991	0.0152533
856.069	0.0151381
856.147	0.0150626
856.225	0.0150828
856.303	0.0151728
856.381	0.0151982
856.459	0.0152671
856.538	0.0152615
856.616	0.0153793
856.694	0.0152887
856.772	0.0152599
856.850	0.0154111
856.928	0.0154310
857.006	0.0153535
857.084	0.0153361
857.163	0.0155025
857.241	0.0153947
857.319	0.0154669
857.397	0.0154199
857.475	0.0154037
857.553	0.0154432
857.631	0.0153393
857.709	0.0153712
857.788	0.0153943
857.866	0.0151804
857.944	0.0153313
858.022	0.0153210
858.100	0.0152700
858.178	0.0150579
858.256	0.0150896
858.334	0.0152361
858.413	0.0152132
858.491	0.0151495
858.569	0.0150865
858.647	0.0152221
858.725	0.0151515
858.803	0.0151362
858.881	0.0153032
858.959	0.0152235
859.038	0.0154327
859.116	0.0154141
859.194	0.0153963
859.272	0.0155101
859.350	0.0155282
859.428	0.0155388
859.506	0.0157298
859.584	0.0156313
859.663	0.0158304
859.741	0.0157592
859.819	0.0157626
859.897	0.0157020
859.975	0.0157593
860.053	0.0157014
860.131	0.0156345
860.209	0.0155803
860.288	0.0155878
860.366	0.0155061
860.444	0.0154634
860.522	0.0154121
860.600	0.0154344
860.678	0.0153375
860.756	0.0153128
860.834	0.0152442
860.913	0.0152469
860.991	0.0152148
861.069	0.0153812
861.147	0.0152852
861.225	0.0151785
861.303	0.0153858
861.381	0.0152876
861.459	0.0155309
861.538	0.0155597
861.616	0.0154718
861.694	0.0154521
861.772	0.0155742
861.850	0.0156036
861.928	0.0156814
862.006	0.0156720
862.084	0.0155586
862.163	0.0157641
862.241	0.0157694
862.319	0.0156735
862.397	0.0155943
862.475	0.0156013
862.553	0.0156003
862.631	0.0155883
862.709	0.0157023
862.788	0.0155996
862.866	0.0155293
862.944	0.0154729
863.022	0.0154435
863.100	0.0154370
863.178	0.0154264
863.256	0.0154184
863.334	0.0153532
863.413	0.0152224
863.491	0.0153040
863.569	0.0152094
863.647	0.0152472
863.725	0.0153705
863.803	0.0151633
863.881	0.0152609
863.959	0.0152686
864.038	0.0152771
864.116	0.0152279
864.194	0.0152898
864.272	0.0152796
864.350	0.0152776
864.428	0.0153155
864.506	0.0153352
864.584	0.0153553
864.663	0.0153758
864.741	0.0154916
864.819	0.0154868
864.897	0.0154372
864.975	0.0153593
865.053	0.0152351
865.131	0.0154809
865.209	0.0155587
865.288	0.0153178
865.366	0.0153146
865.444	0.0154449
865.522	0.0155149
865.600	0.0154330
865.678	0.0152782
865.756	0.0152657
865.834	0.0152331
865.913	0.0151186
865.991	0.0152401
866.069	0.0151621
866.147	0.0151597
866.225	0.0151440
866.303	0.0151537
866.381	0.0152202
866.459	0.0152376
866.538	0.0152131
866.616	0.0153372
866.694	0.0152832
866.772	0.0154021
866.850	0.0155560
866.928	0.0154927
867.006	0.0155758
867.084	0.0154530
867.163	0.0154960
867.241	0.0157110
867.319	0.0155093
867.397	0.0156526
867.475	0.0157175
867.553	0.0155608
867.631	0.0157818
867.709	0.0156187
867.788	0.0157338
867.866	0.0156173
867.944	0.0156348
868.022	0.0157468
868.100	0.0157508
868.178	0.0154982
868.256	0.0154718
868.334	0.0154768
868.413	0.0156181
868.491	0.0155396
868.569	0.0154203
868.647	0.0152578
868.725	0.0153267
868.803	0.0154128
868.881	0.0153955
868.959	0.0152724
869.038	0.0153496
869.116	0.0152474
869.194	0.0152647
869.272	0.0152552
869.350	0.0151228
869.428	0.0153352
869.506	0.0152919
869.584	0.0153658
869.663	0.0153160
869.741	0.0154263
869.819	0.0153461
869.897	0.0154060
869.975	0.0155164
870.053	0.0153657
870.131	0.0154192
870.209	0.0154282
870.288	0.0154541
870.366	0.0155410
870.444	0.0155023
870.522	0.0155032
870.600	0.0155766
870.678	0.0155203
870.756	0.0154696
870.834	0.0155302
870.913	0.0153737
870.991	0.0155473
871.069	0.0155458
871.147	0.0154298
871.225	0.0153529
871.303	0.0153621
871.381	0.0152074
871.459	0.0152872
871.538	0.0151614
871.616	0.0152458
871.694	0.0151353
871.772	0.0151914
871.850	0.0152330
871.928	0.0150913
872.006	0.0152178
872.084	0.0151948
872.163	0.0153159
872.241	0.0152689
872.319	0.0153501
872.397	0.0153751
872.475	0.0153977
872.553	0.0154130
872.631	0.0154055
872.709	0.0155339
872.788	0.0156033
872.866	0.0155285
872.944	0.0156460
873.022	0.0155751
873.100	0.0154292
873.178	0.0153575
873.256	0.0152959
873.334	0.0153802
873.413	0.0153539
873.491	0.0154490
873.569	0.0153169
873.647	0.0153415
873.725	0.0151937
873.803	0.0152365
873.881	0.0152786
873.959	0.0152425
874.038	0.0150809
874.116	0.0153824
874.194	0.0153036
874.272	0.0152204
874.350	0.0152184
874.428	0.0151214
874.506	0.0151820
874.584	0.0151775
874.663	0.0151995
874.741	0.0152616
874.819	0.0152244
874.897	0.0153576
874.975	0.0152966
875.053	0.0152584
875.131	0.0154008
875.209	0.0156573
875.288	0.0155392
875.366	0.0156637
875.444	0.0156422
875.522	0.0156340
875.600	0.0156573
875.678	0.0156281
875.756	0.0157098
875.834	0.0155811
875.913	0.0155232
875.991	0.0157265
876.069	0.0155377
876.147	0.0154914
876.225	0.0154979
876.303	0.0155328
876.381	0.0154281
876.459	0.0153214
876.538	0.0154037
876.616	0.0152523
876.694	0.0152256
876.772	0.0153275
876.850	0.0153574
876.928	0.0152828
877.006	0.0153804
877.084	0.0152752
877.163	0.0153002
877.241	0.0154414
877.319	0.0153893
877.397	0.0153886
877.475	0.0153059
877.553	0.0153530
877.631	0.0155239
877.709	0.0154867
877.788	0.0155349
877.866	0.0156795
877.944	0.0156446
878.022	0.0156555
878.100	0.0157340
878.178	0.0159715
878.256	0.0158193
878.334	0.0157299
878.413	0.0158348
878.491	0.0157333
878.569	0.0157214
878.647	0.0156714
878.725	0.0154785
878.803	0.0156497
878.881	0.0157213
878.959	0.0154202
879.038	0.0153455
879.116	0.0152424
879.194	0.0151698
879.272	0.0151150
879.350	0.0151598
879.428	0.0151249
879.506	0.0150802
879.584	0.0148914
879.663	0.0150673
879.741	0.0149192
879.819	0.0148651
879.897	0.0150176
879.975	0.0150992
880.053	0.0150561
880.131	0.0150769
880.209	0.0153601
880.288	0.0153875
880.366	0.0153379
880.444	0.0154364
880.522	0.0152225
880.600	0.0153044
880.678	0.0153905
880.756	0.0153550
880.834	0.0154610
880.913	0.0154601
880.991	0.0154506
881.069	0.0153229
881.147	0.0153922
881.225	0.0155310
881.303	0.0153918
881.381	0.0153860
881.459	0.0153769
881.538	0.0153583
881.616	0.0154254
881.694	0.0153224
881.772	0.0153332
881.850	0.0152036
881.928	0.0153121
882.006	0.0151944
882.084	0.0151868
882.163	0.0150250
882.241	0.0152633
882.319	0.0152590
882.397	0.0151749
882.475	0.0153228
882.553	0.0154283
882.631	0.0155305
882.709	0.0155223
882.788	0.0155833
882.866	0.0154744
882.944	0.0156377
883.022	0.0156055
883.100	0.0156705
883.178	0.0155875
883.256	0.0155832
883.334	0.0156223
883.413	0.0157784
883.491	0.0157964
883.569	0.0157276
883.647	0.0157742
883.725	0.0155970
883.803	0.0156135
883.881	0.0155950
883.959	0.0155988
884.038	0.0155648
884.116	0.0154668
884.194	0.0155048
884.272	0.0154726
884.350	0.0154128
884.428	0.0152562
884.506	0.0152140
884.584	0.0152454
884.663	0.0150320
884.741	0.0151402
884.819	0.0151514
884.897	0.0151072
884.975	0.0152467
885.053	0.0151942
885.131	0.0151740
885.209	0.0152728
885.288	0.0154375
885.366	0.0152955
885.444	0.0154239
885.522	0.0156200
885.600	0.0154947
885.678	0.0156342
885.756	0.0156456
885.834	0.0156712
885.913	0.0156635
885.991	0.0156989
886.069	0.0158042
886.147	0.0156674
886.225	0.0154667
886.303	0.0157059
886.381	0.0157822
886.459	0.0155983
886.538	0.0155018
886.616	0.0154335
886.694	0.0154684
886.772	0.0152601
886.850	0.0152970
886.928	0.0152716
887.006	0.0150642
887.084	0.0152315
887.163	0.0150643
887.241	0.0151796
887.319	0.0151732
887.397	0.0149049
887.475	0.0149992
887.553	0.0150041
887.631	0.0149084
887.709	0.0149980
887.788	0.0149563
887.866	0.0150552
887.944	0.0150449
888.022	0.0151419
888.100	0.0150932
888.178	0.0152048
888.256	0.0150961
888.334	0.0153808
888.413	0.0155183
888.491	0.0154499
888.569	0.0155677
888.647	0.0155444
888.725	0.0154305
888.803	0.0155013
888.881	0.0157390
888.959	0.0156046
889.038	0.0156669
889.116	0.0156684
889.194	0.0156001
889.272	0.0155590
889.350	0.0156089
889.428	0.0155068
889.506	0.0155466
889.584	0.0154205
889.663	0.0153069
889.741	0.0154416
889.819	0.0151241
889.897	0.0152713
889.975	0.0151289
890.053	0.0150410
890.131	0.0150320
890.209	0.0149345
890.288	0.0149138
890.366	0.0149326
890.444	0.0149998
890.522	0.0150183
890.600	0.0149842
890.678	0.0151350
890.756	0.0152244
890.834	0.0152309
890.913	0.0153297
890.991	0.0155968
891.069	0.0154000
891.147	0.0156797
891.225	0.0154896
891.303	0.0155147
891.381	0.0156435
891.459	0.0155527
891.538	0.0157188
891.616	0.0156723
891.694	0.0158163
891.772	0.0157281
891.850	0.0156445
891.928	0.0157254
892.006	0.0156732
892.084	0.0158147
892.163	0.0157522
892.241	0.0155415
892.319	0.0155074
892.397	0.0156731
892.475	0.0155174
892.553	0.0154541
892.631	0.0154650
892.709	0.0153255
892.788	0.0152785
892.866	0.0152799
892.944	0.0152453
893.022	0.0152190
893.100	0.0152417
893.178	0.0151420
893.256	0.0151718
893.334	0.0151639
893.413	0.0152409
893.491	0.0152775
893.569	0.0152860
893.647	0.0153000
893.725	0.0152301
893.803	0.0152650
893.881	0.0151614
893.959	0.0153626
894.038	0.0153630
894.116	0.0152921
894.194	0.0152811
894.272	0.0154684
894.350	0.0152671
894.428	0.0154914
894.506	0.0154369
894.584	0.0153562
894.663	0.0153242
894.741	0.0152892
894.819	0.0154878
894.897	0.0154018
894.975	0.0154011
895.053	0.0153741
895.131	0.0153506
895.209	0.0153351
895.288	0.0154932
895.366	0.0154453
895.444	0.0153162
895.522	0.0156220
895.600	0.0155865
895.678	0.0155474
895.756	0.0154568
895.834	0.0156059
895.913	0.0155475
895.991	0.0153574
896.069	0.0153056
896.147	0.0154341
896.225	0.0153708
896.303	0.0153096
896.381	0.0152455
896.459	0.0152666
896.538	0.0153626
896.616	0.0153831
896.694	0.0152229
896.772	0.0152234
896.850	0.0152893
896.928	0.0153533
897.006	0.0152518
897.084	0.0153902
897.163	0.0154520
897.241	0.0154170
897.319	0.0154317
897.397	0.0153989
897.475	0.0153175
897.553	0.0154196
897.631	0.0152808
897.709	0.0154343
897.788	0.0154283
897.866	0.0153454
897.944	0.0151830
898.022	0.0152595
898.100	0.0153559
898.178	0.0153989
898.256	0.0152998
898.334	0.0152807
898.413	0.0154316
898.491	0.0155198
898.569	0.0155307
898.647	0.0155320
898.725	0.0155357
898.803	0.0155489
898.881	0.0154153
898.959	0.0155038
899.038	0.0153910
899.116	0.0154896
899.194	0.0153590
899.272	0.0153027
899.350	0.0154119
899.428	0.0153748
899.506	0.0152713
899.584	0.0153160
899.663	0.0153504
899.741	0.0152853
899.819	0.0154341
899.897	0.0152644
899.975	0.0155319
900.053	0.0154586
900.131	0.0154259
900.209	0.0153892
900.288	0.0154021
900.366	0.0154866
900.444	0.0154713
900.522	0.0155866
900.600	0.0154321
900.678	0.0155247
900.756	0.0155067
900.834	0.0154798
900.913	0.0154364
900.991	0.0154176
901.069	0.0153217
901.147	0.0153606
901.225	0.0153333
901.303	0.0153964
901.381	0.0154566
901.459	0.0154521
901.538	0.0153828
901.616	0.0153735
901.694	0.0155293
901.772	0.0155751
901.850	0.0154330
901.928	0.0153661
902.006	0.0154746
902.084	0.0154121
902.163	0.0154455
902.241	0.0155367
902.319	0.0154958
902.397	0.0154222
902.475	0.0154024
902.553	0.0155119
902.631	0.0155209
902.709	0.0154202
902.788	0.0154765
902.866	0.0154756
902.944	0.0153948
903.022	0.0156082
903.100	0.0155080
903.178	0.0155079
903.256	0.0153661
903.334	0.0153736
903.413	0.0151712
903.491	0.0151385
903.569	0.0151035
903.647	0.0152162
903.725	0.0152299
903.803	0.0149989
903.881	0.0151490
903.959	0.0152512
904.038	0.0153025
904.116	0.0154922
904.194	0.0152930
904.272	0.0155188
904.350	0.0154723
904.428	0.0155499
904.506	0.0155646
904.584	0.0155455
904.663	0.0155320
904.741	0.0155132
904.819	0.0155793
904.897	0.0156461
904.975	0.0156133
905.053	0.0155334
905.131	0.0154058
905.209	0.0155958
905.288	0.0155296
905.366	0.0156043
905.444	0.0155737
905.522	0.0155086
905.600	0.0156244
905.678	0.0155850
905.756	0.0155465
905.834	0.0154604
905.913	0.0155204
905.991	0.0154970
906.069	0.0153961
906.147	0.0153087
906.225	0.0152467
906.303	0.0155653
906.381	0.0154945
906.459	0.0154095
906.538	0.0153704
906.616	0.0153716
906.694	0.0154443
906.772	0.0153922
906.850	0.0153905
906.928	0.0154184
907.006	0.0152824
907.084	0.0152766
907.163	0.0152464
907.241	0.0154176
907.319	0.0152798
907.397	0.0153291
907.475	0.0152931
907.553	0.0155082
907.631	0.0154038
907.709	0.0153879
907.788	0.0154840
907.866	0.0154269
907.944	0.0154791
908.022	0.0157807
908.100	0.0155646
908.178	0.0156226
908.256	0.0156391
908.334	0.0156533
908.413	0.0153214
908.491	0.0154989
908.569	0.0154999
908.647	0.0154160
908.725	0.0153745
908.803	0.0153888
908.881	0.0152517
908.959	0.0153083
909.038	0.0155650
909.116	0.0153128
909.194	0.0155053
909.272	0.0153395
909.350	0.0155085
909.428	0.0155575
909.506	0.0157136
909.584	0.0154800
909.663	0.0154244
909.741	0.0155023
909.819	0.0155395
909.897	0.0154924
909.975	0.0154519
910.053	0.0155213
910.131	0.0154536
910.209	0.0154005
910.288	0.0154774
910.366	0.0154525
910.444	0.0153214
910.522	0.0154204
910.600	0.0153111
910.678	0.0153820
910.756	0.0152760
910.834	0.0152498
910.913	0.0151578
910.991	0.0152245
911.069	0.0152403
911.147	0.0151859
911.225	0.0151530
911.303	0.0153439
911.381	0.0152505
911.459	0.0152749
911.538	0.0152277
911.616	0.0152805
911.694	0.0154111
911.772	0.0152968
911.850	0.0153617
911.928	0.0154736
912.006	0.0154801
912.084	0.0154517
912.163	0.0155394
912.241	0.0155337
912.319	0.0155587
912.397	0.0155570
912.475	0.0156335
912.553	0.0155287
912.631	0.0155484
912.709	0.0154807
912.788	0.0154694
912.866	0.0154554
912.944	0.0153426
913.022	0.0153899
913.100	0.0154192
913.178	0.0154768
913.256	0.0152570
913.334	0.0153237
913.413	0.0152680
913.491	0.0152183
913.569	0.0153571
913.647	0.0152092
913.725	0.0153937
913.803	0.0150530
913.881	0.0151900
913.959	0.0151609
914.038	0.0152794
914.116	0.0153014
914.194	0.0152957
914.272	0.0153065
914.350	0.0152254
914.428	0.0153958
914.506	0.0153404
914.584	0.0154480
914.663	0.0153794
914.741	0.0155170
914.819	0.0155499
914.897	0.0154365
914.975	0.0154879
915.053	0.0155278
915.131	0.0154651
915.209	0.0154921
915.288	0.0155899
915.366	0.0156483
915.444	0.0155234
915.522	0.0155961
915.600	0.0154642
915.678	0.0154481
915.756	0.0156515
915.834	0.0157423
915.913	0.0156916
915.991	0.0153714
916.069	0.0155841
916.147	0.0155265
916.225	0.0155364
916.303	0.0154294
916.381	0.0155264
916.459	0.0156090
916.538	0.0154570
916.616	0.0152838
916.694	0.0153850
916.772	0.0154480
916.850	0.0153814
916.928	0.0153527
917.006	0.0152663
917.084	0.0152857
917.163	0.0152956
917.241	0.0152540
917.319	0.0152647
917.397	0.0152165
917.475	0.0150210
917.553	0.0151425
917.631	0.0151345
917.709	0.0151427
917.788	0.0152264
917.866	0.0150998
917.944	0.0152480
918.022	0.0152628
918.100	0.0153042
918.178	0.0153164
918.256	0.0153622
918.334	0.0153719
918.413	0.0154256
918.491	0.0155456
918.569	0.0154676
918.647	0.0152787
918.725	0.0155606
918.803	0.0156309
918.881	0.0155045
918.959	0.0154216
919.038	0.0154833
919.116	0.0154479
919.194	0.0155164
919.272	0.0155704
919.350	0.0155767
919.428	0.0154944
919.506	0.0156725
919.584	0.0156644
919.663	0.0155650
919.741	0.0155540
919.819	0.0156435
919.897	0.0156556
