05/20/2022	20:59:13	Ver.	4.1	UNKNOWN
Optical Delay	599.975067	Delta X		0.078125	Sweeps	1	Scan Rate	0/0
Coordinates	Axis 1	NaN	Axis 2	NaN	Axis 3	NaN	Axis 4	NaN	Axis 5	NaN	Axis 6	0.000000
TX Power	0.000000	RX Power	0.000000

599.975	0.0156678
600.053	0.0157177
600.131	0.0156115
600.209	0.0157275
600.288	0.0155781
600.366	0.0156474
600.444	0.0156649
600.522	0.0156135
600.600	0.0155540
600.678	0.0155458
600.756	0.0156462
600.834	0.0156463
600.913	0.0156171
600.991	0.0157309
601.069	0.0157580
601.147	0.0156504
601.225	0.0155919
601.303	0.0155482
601.381	0.0156421
601.459	0.0157426
601.538	0.0156448
601.616	0.0155475
601.694	0.0155901
601.772	0.0155434
601.850	0.0155598
601.928	0.0157037
602.006	0.0156750
602.084	0.0156827
602.163	0.0156363
602.241	0.0155201
602.319	0.0157215
602.397	0.0157407
602.475	0.0156695
602.553	0.0157362
602.631	0.0157300
602.709	0.0156815
602.788	0.0158186
602.866	0.0156673
602.944	0.0156965
603.022	0.0157340
603.100	0.0155672
603.178	0.0155114
603.256	0.0157729
603.334	0.0157702
603.413	0.0157024
603.491	0.0157297
603.569	0.0157350
603.647	0.0156084
603.725	0.0156331
603.803	0.0156560
603.881	0.0155833
603.959	0.0156838
604.038	0.0157101
604.116	0.0158501
604.194	0.0156644
604.272	0.0157547
604.350	0.0157353
604.428	0.0155730
604.506	0.0155965
604.584	0.0156667
604.663	0.0156983
604.741	0.0157088
604.819	0.0156632
604.897	0.0156243
604.975	0.0156036
605.053	0.0155378
605.131	0.0156339
605.209	0.0156264
605.288	0.0157927
605.366	0.0156964
605.444	0.0156100
605.522	0.0157458
605.600	0.0157220
605.678	0.0155795
605.756	0.0156012
605.834	0.0156458
605.913	0.0155948
605.991	0.0157053
606.069	0.0157043
606.147	0.0157365
606.225	0.0155800
606.303	0.0156050
606.381	0.0157285
606.459	0.0156742
606.538	0.0157037
606.616	0.0156140
606.694	0.0156162
606.772	0.0156851
606.850	0.0156113
606.928	0.0154936
607.006	0.0157228
607.084	0.0156824
607.163	0.0156314
607.241	0.0156165
607.319	0.0155389
607.397	0.0156873
607.475	0.0156342
607.553	0.0156698
607.631	0.0155734
607.709	0.0155252
607.788	0.0156039
607.866	0.0157983
607.944	0.0155441
608.022	0.0155293
608.100	0.0157156
608.178	0.0155934
608.256	0.0156846
608.334	0.0156131
608.413	0.0156900
608.491	0.0155009
608.569	0.0155907
608.647	0.0155070
608.725	0.0157594
608.803	0.0157190
608.881	0.0158430
608.959	0.0156626
609.038	0.0155706
609.116	0.0155130
609.194	0.0156939
609.272	0.0155776
609.350	0.0156941
609.428	0.0156095
609.506	0.0155740
609.584	0.0158173
609.663	0.0156552
609.741	0.0155753
609.819	0.0156593
609.897	0.0156833
609.975	0.0156303
610.053	0.0155669
610.131	0.0155529
610.209	0.0157448
610.288	0.0157908
610.366	0.0155612
610.444	0.0156092
610.522	0.0155799
610.600	0.0156489
610.678	0.0156098
610.756	0.0155453
610.834	0.0156805
610.913	0.0155677
610.991	0.0156197
611.069	0.0155875
611.147	0.0156643
611.225	0.0157713
611.303	0.0156651
611.381	0.0156380
611.459	0.0156297
611.538	0.0156712
611.616	0.0156061
611.694	0.0156525
611.772	0.0157092
611.850	0.0156687
611.928	0.0156394
612.006	0.0157515
612.084	0.0157162
612.163	0.0157108
612.241	0.0156274
612.319	0.0156438
612.397	0.0156062
612.475	0.0157051
612.553	0.0158073
612.631	0.0156776
612.709	0.0156628
612.788	0.0155965
612.866	0.0156847
612.944	0.0155984
613.022	0.0156486
613.100	0.0157456
613.178	0.0156349
613.256	0.0155580
613.334	0.0156187
613.413	0.0156402
613.491	0.0156693
613.569	0.0155383
613.647	0.0155733
613.725	0.0156272
613.803	0.0155882
613.881	0.0156432
613.959	0.0155844
614.038	0.0157060
614.116	0.0156949
614.194	0.0156042
614.272	0.0155374
614.350	0.0157649
614.428	0.0156976
614.506	0.0156378
614.584	0.0156049
614.663	0.0157058
614.741	0.0156886
614.819	0.0156479
614.897	0.0156879
614.975	0.0155875
615.053	0.0154964
615.131	0.0156125
615.209	0.0156762
615.288	0.0156400
615.366	0.0156985
615.444	0.0157165
615.522	0.0155970
615.600	0.0157393
615.678	0.0156367
615.756	0.0154559
615.834	0.0155443
615.913	0.0156178
615.991	0.0155383
616.069	0.0156390
616.147	0.0155308
616.225	0.0155841
616.303	0.0156551
616.381	0.0155503
616.459	0.0155756
616.538	0.0155990
616.616	0.0154794
616.694	0.0156728
616.772	0.0155617
616.850	0.0156536
616.928	0.0155595
617.006	0.0156882
617.084	0.0157587
617.163	0.0157198
617.241	0.0157026
617.319	0.0157005
617.397	0.0157493
617.475	0.0157104
617.553	0.0156705
617.631	0.0157378
617.709	0.0157500
617.788	0.0156573
617.866	0.0157804
617.944	0.0158777
618.022	0.0155862
618.100	0.0157603
618.178	0.0158354
618.256	0.0156883
618.334	0.0156010
618.413	0.0157552
618.491	0.0157181
618.569	0.0157367
618.647	0.0157168
618.725	0.0156506
618.803	0.0157491
618.881	0.0156674
618.959	0.0156618
619.038	0.0156765
619.116	0.0156174
619.194	0.0155991
619.272	0.0156647
619.350	0.0155711
619.428	0.0157126
619.506	0.0156918
619.584	0.0157236
619.663	0.0154855
619.741	0.0156958
619.819	0.0157281
619.897	0.0155953
619.975	0.0155868
620.053	0.0156841
620.131	0.0157101
620.209	0.0155479
620.288	0.0156569
620.366	0.0156814
620.444	0.0157373
620.522	0.0156548
620.600	0.0156131
620.678	0.0156711
620.756	0.0155352
620.834	0.0156115
620.913	0.0156525
620.991	0.0157310
621.069	0.0155959
621.147	0.0155804
621.225	0.0157312
621.303	0.0158659
621.381	0.0156169
621.459	0.0155790
621.538	0.0156976
621.616	0.0156638
621.694	0.0158339
621.772	0.0157014
621.850	0.0156306
621.928	0.0156706
622.006	0.0156788
622.084	0.0156796
622.163	0.0156417
622.241	0.0155196
622.319	0.0156476
622.397	0.0157390
622.475	0.0157466
622.553	0.0157359
622.631	0.0156425
622.709	0.0155799
622.788	0.0157095
622.866	0.0156401
622.944	0.0156718
623.022	0.0157247
623.100	0.0157232
623.178	0.0156422
623.256	0.0157773
623.334	0.0158012
623.413	0.0156905
623.491	0.0156142
623.569	0.0156337
623.647	0.0157242
623.725	0.0157626
623.803	0.0157304
623.881	0.0158181
623.959	0.0157612
624.038	0.0156467
624.116	0.0157926
624.194	0.0157341
624.272	0.0157101
624.350	0.0157632
624.428	0.0158656
624.506	0.0158343
624.584	0.0156909
624.663	0.0156647
624.741	0.0158117
624.819	0.0158191
624.897	0.0157833
624.975	0.0157217
625.053	0.0159390
625.131	0.0158087
625.209	0.0157465
625.288	0.0157475
625.366	0.0157796
625.444	0.0156920
625.522	0.0158012
625.600	0.0157814
625.678	0.0157775
625.756	0.0158168
625.834	0.0156606
625.913	0.0158472
625.991	0.0157809
626.069	0.0157975
626.147	0.0158237
626.225	0.0158654
626.303	0.0157024
626.381	0.0157669
626.459	0.0157578
626.538	0.0158245
626.616	0.0158836
626.694	0.0156090
626.772	0.0158846
626.850	0.0158163
626.928	0.0158414
627.006	0.0157532
627.084	0.0157029
627.163	0.0156720
627.241	0.0157124
627.319	0.0156641
627.397	0.0155589
627.475	0.0157490
627.553	0.0156966
627.631	0.0156375
627.709	0.0157480
627.788	0.0157442
627.866	0.0155965
627.944	0.0156767
628.022	0.0157165
628.100	0.0155811
628.178	0.0155332
628.256	0.0156759
628.334	0.0157442
628.413	0.0156255
628.491	0.0157256
628.569	0.0156116
628.647	0.0154976
628.725	0.0155882
628.803	0.0155706
628.881	0.0156526
628.959	0.0156199
629.038	0.0156297
629.116	0.0155052
629.194	0.0155655
629.272	0.0156202
629.350	0.0156091
629.428	0.0155052
629.506	0.0155421
629.584	0.0156108
629.663	0.0154636
629.741	0.0154330
629.819	0.0155206
629.897	0.0155628
629.975	0.0156262
630.053	0.0155917
630.131	0.0155398
630.209	0.0156617
630.288	0.0154980
630.366	0.0154192
630.444	0.0155282
630.522	0.0156178
630.600	0.0155074
630.678	0.0154523
630.756	0.0154362
630.834	0.0155154
630.913	0.0156297
630.991	0.0155600
631.069	0.0154089
631.147	0.0155602
631.225	0.0155517
631.303	0.0154031
631.381	0.0154974
631.459	0.0155003
631.538	0.0154678
631.616	0.0154317
631.694	0.0155469
631.772	0.0155048
631.850	0.0155788
631.928	0.0155370
632.006	0.0153787
632.084	0.0156168
632.163	0.0155463
632.241	0.0154896
632.319	0.0155314
632.397	0.0155051
632.475	0.0154846
632.553	0.0156157
632.631	0.0155270
632.709	0.0154513
632.788	0.0155687
632.866	0.0155563
632.944	0.0155321
633.022	0.0155872
633.100	0.0155566
633.178	0.0155413
633.256	0.0156110
633.334	0.0155505
633.413	0.0155468
633.491	0.0157307
633.569	0.0156034
633.647	0.0156365
633.725	0.0156061
633.803	0.0153600
633.881	0.0154380
633.959	0.0155224
634.038	0.0156361
634.116	0.0156338
634.194	0.0155944
634.272	0.0154555
634.350	0.0156118
634.428	0.0155899
634.506	0.0155710
634.584	0.0155939
634.663	0.0157119
634.741	0.0156190
634.819	0.0154743
634.897	0.0156786
634.975	0.0156634
635.053	0.0156290
635.131	0.0154332
635.209	0.0156520
635.288	0.0155816
635.366	0.0156807
635.444	0.0156170
635.522	0.0155917
635.600	0.0156309
635.678	0.0156568
635.756	0.0155662
635.834	0.0156905
635.913	0.0157505
635.991	0.0157267
636.069	0.0155389
636.147	0.0156130
636.225	0.0156178
636.303	0.0156390
636.381	0.0155608
636.459	0.0156796
636.538	0.0156844
636.616	0.0156680
636.694	0.0156258
636.772	0.0156357
636.850	0.0157539
636.928	0.0156802
637.006	0.0156871
637.084	0.0156089
637.163	0.0156362
637.241	0.0156979
637.319	0.0157943
637.397	0.0156876
637.475	0.0155033
637.553	0.0156979
637.631	0.0157564
637.709	0.0155889
637.788	0.0155806
637.866	0.0156262
637.944	0.0156013
638.022	0.0157581
638.100	0.0157276
638.178	0.0155872
638.256	0.0157770
638.334	0.0155869
638.413	0.0156456
638.491	0.0157990
638.569	0.0156224
638.647	0.0155907
638.725	0.0156345
638.803	0.0158168
638.881	0.0156786
638.959	0.0156848
639.038	0.0156682
639.116	0.0158707
639.194	0.0157396
639.272	0.0156515
639.350	0.0156422
639.428	0.0158093
639.506	0.0157601
639.584	0.0158054
639.663	0.0156276
639.741	0.0156635
639.819	0.0158748
639.897	0.0156691
639.975	0.0157036
640.053	0.0157505
640.131	0.0156638
640.209	0.0157833
640.288	0.0157171
640.366	0.0156870
640.444	0.0156921
640.522	0.0157477
640.600	0.0157264
640.678	0.0157558
640.756	0.0158440
640.834	0.0157313
640.913	0.0156360
640.991	0.0158394
641.069	0.0158748
641.147	0.0157262
641.225	0.0157973
641.303	0.0158279
641.381	0.0158066
641.459	0.0157822
641.538	0.0158547
641.616	0.0156936
641.694	0.0159161
641.772	0.0157669
641.850	0.0157353
641.928	0.0158060
642.006	0.0159434
642.084	0.0157492
642.163	0.0157864
642.241	0.0158412
642.319	0.0158633
642.397	0.0158923
642.475	0.0157457
642.553	0.0156896
642.631	0.0156940
642.709	0.0157549
642.788	0.0157802
642.866	0.0158223
642.944	0.0157839
643.022	0.0157740
643.100	0.0158554
643.178	0.0159249
643.256	0.0158916
643.334	0.0157536
643.413	0.0157217
643.491	0.0157147
643.569	0.0157671
643.647	0.0158599
643.725	0.0157593
643.803	0.0158864
643.881	0.0158309
643.959	0.0158232
644.038	0.0157484
644.116	0.0157825
644.194	0.0158823
644.272	0.0158721
644.350	0.0156849
644.428	0.0157665
644.506	0.0159310
644.584	0.0158100
644.663	0.0158548
644.741	0.0157024
644.819	0.0158482
644.897	0.0158274
644.975	0.0157411
645.053	0.0158031
645.131	0.0158051
645.209	0.0158109
645.288	0.0159088
645.366	0.0157926
645.444	0.0158231
645.522	0.0158347
645.600	0.0158777
645.678	0.0158376
645.756	0.0157822
645.834	0.0158478
645.913	0.0158179
645.991	0.0158674
646.069	0.0158070
646.147	0.0158294
646.225	0.0158224
646.303	0.0159113
646.381	0.0157901
646.459	0.0158251
646.538	0.0157910
646.616	0.0158080
646.694	0.0157895
646.772	0.0157705
646.850	0.0158540
646.928	0.0157440
647.006	0.0157427
647.084	0.0158693
647.163	0.0157121
647.241	0.0158882
647.319	0.0158727
647.397	0.0157923
647.475	0.0158136
647.553	0.0158706
647.631	0.0158882
647.709	0.0157574
647.788	0.0156917
647.866	0.0158112
647.944	0.0158131
648.022	0.0157278
648.100	0.0157472
648.178	0.0158181
648.256	0.0156797
648.334	0.0155523
648.413	0.0157065
648.491	0.0157523
648.569	0.0156766
648.647	0.0158091
648.725	0.0157584
648.803	0.0156956
648.881	0.0156997
648.959	0.0156328
649.038	0.0157258
649.116	0.0156804
649.194	0.0157231
649.272	0.0156683
649.350	0.0156718
649.428	0.0158144
649.506	0.0157159
649.584	0.0156689
649.663	0.0156551
649.741	0.0156509
649.819	0.0156233
649.897	0.0155823
649.975	0.0154834
650.053	0.0156417
650.131	0.0154610
650.209	0.0154721
650.288	0.0156181
650.366	0.0156599
650.444	0.0154509
650.522	0.0155692
650.600	0.0155038
650.678	0.0154511
650.756	0.0154846
650.834	0.0155952
650.913	0.0156320
650.991	0.0154626
651.069	0.0154796
651.147	0.0155970
651.225	0.0154247
651.303	0.0154844
651.381	0.0155746
651.459	0.0155113
651.538	0.0154809
651.616	0.0155566
651.694	0.0156996
651.772	0.0155245
651.850	0.0155415
651.928	0.0155251
652.006	0.0154291
652.084	0.0155099
652.163	0.0156147
652.241	0.0155766
652.319	0.0155897
652.397	0.0154350
652.475	0.0153802
652.553	0.0156568
652.631	0.0153696
652.709	0.0156007
652.788	0.0155733
652.866	0.0153493
652.944	0.0155833
653.022	0.0156125
653.100	0.0154195
653.178	0.0155047
653.256	0.0155249
653.334	0.0155137
653.413	0.0155255
653.491	0.0153982
653.569	0.0154152
653.647	0.0155863
653.725	0.0155262
653.803	0.0156258
653.881	0.0155517
653.959	0.0154742
654.038	0.0154645
654.116	0.0156305
654.194	0.0155763
654.272	0.0154867
654.350	0.0156255
654.428	0.0155247
654.506	0.0154623
654.584	0.0155277
654.663	0.0155458
654.741	0.0154945
654.819	0.0154451
654.897	0.0156770
654.975	0.0154788
655.053	0.0154477
655.131	0.0156013
655.209	0.0156044
655.288	0.0155011
655.366	0.0155193
655.444	0.0155035
655.522	0.0156190
655.600	0.0154800
655.678	0.0154023
655.756	0.0157132
655.834	0.0155431
655.913	0.0155891
655.991	0.0154981
656.069	0.0154657
656.147	0.0154864
656.225	0.0156317
656.303	0.0156014
656.381	0.0154597
656.459	0.0153931
656.538	0.0154945
656.616	0.0155041
656.694	0.0155733
656.772	0.0155711
656.850	0.0155941
656.928	0.0154351
657.006	0.0155572
657.084	0.0155109
657.163	0.0155826
657.241	0.0155630
657.319	0.0155664
657.397	0.0155276
657.475	0.0156026
657.553	0.0155499
657.631	0.0155753
657.709	0.0156367
657.788	0.0156161
657.866	0.0156348
657.944	0.0154752
658.022	0.0155135
658.100	0.0155981
658.178	0.0155172
658.256	0.0157440
658.334	0.0156250
658.413	0.0155628
658.491	0.0154955
658.569	0.0156747
658.647	0.0156419
658.725	0.0156154
658.803	0.0156623
658.881	0.0156069
658.959	0.0156622
659.038	0.0156640
659.116	0.0158092
659.194	0.0156179
659.272	0.0155969
659.350	0.0156780
659.428	0.0156387
659.506	0.0157013
659.584	0.0156501
659.663	0.0156821
659.741	0.0156702
659.819	0.0156742
659.897	0.0155807
659.975	0.0155695
660.053	0.0156713
660.131	0.0157769
660.209	0.0156516
660.288	0.0156651
660.366	0.0156417
660.444	0.0156972
660.522	0.0155930
660.600	0.0157423
660.678	0.0156577
660.756	0.0157114
660.834	0.0156489
660.913	0.0156818
660.991	0.0156492
661.069	0.0156905
661.147	0.0156687
661.225	0.0157287
661.303	0.0157026
661.381	0.0155513
661.459	0.0157098
661.538	0.0156247
661.616	0.0155299
661.694	0.0156820
661.772	0.0157627
661.850	0.0155689
661.928	0.0156443
662.006	0.0157491
662.084	0.0155902
662.163	0.0156083
662.241	0.0157925
662.319	0.0156235
662.397	0.0156216
662.475	0.0156495
662.553	0.0155098
662.631	0.0155016
662.709	0.0158369
662.788	0.0155658
662.866	0.0156602
662.944	0.0156158
663.022	0.0158015
663.100	0.0157834
663.178	0.0157159
663.256	0.0158530
663.334	0.0157861
663.413	0.0157157
663.491	0.0158456
663.569	0.0158792
663.647	0.0157640
663.725	0.0157851
663.803	0.0157791
663.881	0.0159977
663.959	0.0158752
664.038	0.0160001
664.116	0.0159605
664.194	0.0157893
664.272	0.0157606
664.350	0.0158430
664.428	0.0158376
664.506	0.0157529
664.584	0.0157133
664.663	0.0156443
664.741	0.0155846
664.819	0.0156687
664.897	0.0155669
664.975	0.0155012
665.053	0.0156023
665.131	0.0153671
665.209	0.0154404
665.288	0.0154894
665.366	0.0155781
665.444	0.0154629
665.522	0.0154512
665.600	0.0155058
665.678	0.0154937
665.756	0.0154878
665.834	0.0157131
665.913	0.0156109
665.991	0.0157160
666.069	0.0156274
666.147	0.0157755
666.225	0.0157004
666.303	0.0158270
666.381	0.0158894
666.459	0.0159837
666.538	0.0159132
666.616	0.0157716
666.694	0.0159167
666.772	0.0160165
666.850	0.0158723
666.928	0.0157267
667.006	0.0158526
667.084	0.0159026
667.163	0.0159184
667.241	0.0157658
667.319	0.0159270
667.397	0.0158202
667.475	0.0157330
667.553	0.0156827
667.631	0.0156789
667.709	0.0155698
667.788	0.0155647
667.866	0.0153905
667.944	0.0154916
668.022	0.0154232
668.100	0.0154259
668.178	0.0155563
668.256	0.0156664
668.334	0.0155589
668.413	0.0154720
668.491	0.0154265
668.569	0.0155418
668.647	0.0156633
668.725	0.0155006
668.803	0.0154852
668.881	0.0154872
668.959	0.0155214
669.038	0.0155341
669.116	0.0155153
669.194	0.0155486
669.272	0.0155674
669.350	0.0155560
669.428	0.0156335
669.506	0.0156162
669.584	0.0155438
669.663	0.0155762
669.741	0.0158396
669.819	0.0157291
669.897	0.0158105
669.975	0.0157298
670.053	0.0159074
670.131	0.0158171
670.209	0.0157975
670.288	0.0158905
670.366	0.0158540
670.444	0.0158189
670.522	0.0157184
670.600	0.0158318
670.678	0.0158188
670.756	0.0158106
670.834	0.0158006
670.913	0.0159071
670.991	0.0158302
671.069	0.0156777
671.147	0.0158766
671.225	0.0156873
671.303	0.0158430
671.381	0.0157660
671.459	0.0158399
671.538	0.0157815
671.616	0.0157626
671.694	0.0157639
671.772	0.0156042
671.850	0.0157317
671.928	0.0156776
672.006	0.0155439
672.084	0.0156688
672.163	0.0155436
672.241	0.0155732
672.319	0.0154572
672.397	0.0154736
672.475	0.0153415
672.553	0.0153442
672.631	0.0153512
672.709	0.0153693
672.788	0.0153230
672.866	0.0154182
672.944	0.0153957
673.022	0.0155347
673.100	0.0154745
673.178	0.0154398
673.256	0.0156023
673.334	0.0155103
673.413	0.0155724
673.491	0.0157168
673.569	0.0155145
673.647	0.0156446
673.725	0.0157783
673.803	0.0157594
673.881	0.0158235
673.959	0.0159476
674.038	0.0158967
674.116	0.0158905
674.194	0.0159278
674.272	0.0160335
674.350	0.0160199
674.428	0.0159605
674.506	0.0160800
674.584	0.0161411
674.663	0.0161102
674.741	0.0161730
674.819	0.0159794
674.897	0.0160361
674.975	0.0161050
675.053	0.0159569
675.131	0.0158865
675.209	0.0157328
675.288	0.0157332
675.366	0.0156919
675.444	0.0155202
675.522	0.0154926
675.600	0.0154235
675.678	0.0153091
675.756	0.0152457
675.834	0.0151653
675.913	0.0150809
675.991	0.0151249
676.069	0.0152058
676.147	0.0152589
676.225	0.0153427
676.303	0.0152139
676.381	0.0151688
676.459	0.0151324
676.538	0.0152076
676.616	0.0151789
676.694	0.0152864
676.772	0.0152786
676.850	0.0155338
676.928	0.0154113
677.006	0.0152181
677.084	0.0154934
677.163	0.0156606
677.241	0.0157928
677.319	0.0157761
677.397	0.0158388
677.475	0.0158949
677.553	0.0159402
677.631	0.0158038
677.709	0.0160926
677.788	0.0159728
677.866	0.0159993
677.944	0.0159411
678.022	0.0159666
678.100	0.0160162
678.178	0.0160861
678.256	0.0160633
678.334	0.0160188
678.413	0.0159219
678.491	0.0159686
678.569	0.0159283
678.647	0.0156966
678.725	0.0157436
678.803	0.0157867
678.881	0.0157423
678.959	0.0156318
679.038	0.0156260
679.116	0.0155428
679.194	0.0157048
679.272	0.0155305
679.350	0.0153772
679.428	0.0153809
679.506	0.0153299
679.584	0.0154468
679.663	0.0152853
679.741	0.0151888
679.819	0.0152337
679.897	0.0150677
679.975	0.0150190
680.053	0.0150301
680.131	0.0151328
680.209	0.0152442
680.288	0.0151134
680.366	0.0151127
680.444	0.0152717
680.522	0.0154205
680.600	0.0153584
680.678	0.0152980
680.756	0.0155006
680.834	0.0155760
680.913	0.0155217
680.991	0.0157913
681.069	0.0159078
681.147	0.0158073
681.225	0.0159935
681.303	0.0159032
681.381	0.0159915
681.459	0.0160059
681.538	0.0160158
681.616	0.0161652
681.694	0.0161575
681.772	0.0160292
681.850	0.0160825
681.928	0.0157148
682.006	0.0157420
682.084	0.0156630
682.163	0.0156866
682.241	0.0157080
682.319	0.0155404
682.397	0.0155907
682.475	0.0155733
682.553	0.0155976
682.631	0.0156868
682.709	0.0157661
682.788	0.0156860
682.866	0.0157820
682.944	0.0159107
683.022	0.0157917
683.100	0.0157983
683.178	0.0157969
683.256	0.0155827
683.334	0.0155405
683.413	0.0153172
683.491	0.0152971
683.569	0.0152045
683.647	0.0151047
683.725	0.0150721
683.803	0.0149379
683.881	0.0149767
683.959	0.0150334
684.038	0.0151250
684.116	0.0150449
684.194	0.0151456
684.272	0.0152251
684.350	0.0154153
684.428	0.0155851
684.506	0.0157068
684.584	0.0156945
684.663	0.0158784
684.741	0.0160002
684.819	0.0160696
684.897	0.0161336
684.975	0.0160074
685.053	0.0161299
685.131	0.0162998
685.209	0.0160405
685.288	0.0161090
685.366	0.0161713
685.444	0.0161034
685.522	0.0159042
685.600	0.0158456
685.678	0.0158113
685.756	0.0158435
685.834	0.0156937
685.913	0.0156439
685.991	0.0156910
686.069	0.0157079
686.147	0.0155795
686.225	0.0155183
686.303	0.0154556
686.381	0.0152808
686.459	0.0151530
686.538	0.0150295
686.616	0.0149480
686.694	0.0148507
686.772	0.0146813
686.850	0.0145945
686.928	0.0145390
687.006	0.0145404
687.084	0.0143724
687.163	0.0148501
687.241	0.0148795
687.319	0.0150894
687.397	0.0152383
687.475	0.0154768
687.553	0.0157455
687.631	0.0161355
687.709	0.0164694
687.788	0.0166256
687.866	0.0169164
687.944	0.0172995
688.022	0.0171123
688.100	0.0172673
688.178	0.0173417
688.256	0.0172802
688.334	0.0172360
688.413	0.0172578
688.491	0.0168986
688.569	0.0167848
688.647	0.0166250
688.725	0.0162882
688.803	0.0160991
688.881	0.0157391
688.959	0.0155772
689.038	0.0153671
689.116	0.0150891
689.194	0.0148728
689.272	0.0146672
689.350	0.0143342
689.428	0.0141263
689.506	0.0140103
689.584	0.0138210
689.663	0.0137041
689.741	0.0134869
689.819	0.0133866
689.897	0.0134904
689.975	0.0135951
690.053	0.0135544
690.131	0.0139359
690.209	0.0143010
690.288	0.0145440
690.366	0.0150895
690.444	0.0156725
690.522	0.0160885
690.600	0.0165832
690.678	0.0169939
690.756	0.0174423
690.834	0.0178240
690.913	0.0180364
690.991	0.0182501
691.069	0.0182648
691.147	0.0181543
691.225	0.0179930
691.303	0.0176920
691.381	0.0174714
691.459	0.0171676
691.538	0.0169199
691.616	0.0166939
691.694	0.0164770
691.772	0.0162853
691.850	0.0162037
691.928	0.0159570
692.006	0.0159277
692.084	0.0158267
692.163	0.0156143
692.241	0.0153909
692.319	0.0152224
692.397	0.0150026
692.475	0.0145994
692.553	0.0142938
692.631	0.0140801
692.709	0.0136683
692.788	0.0132276
692.866	0.0131201
692.944	0.0130553
693.022	0.0129654
693.100	0.0131229
693.178	0.0133648
693.256	0.0135728
693.334	0.0139654
693.413	0.0144798
693.491	0.0150443
693.569	0.0156908
693.647	0.0163562
693.725	0.0169771
693.803	0.0176303
693.881	0.0182336
693.959	0.0184769
694.038	0.0187467
694.116	0.0189659
694.194	0.0189325
694.272	0.0187155
694.350	0.0185812
694.428	0.0180838
694.506	0.0176275
694.584	0.0171269
694.663	0.0165557
694.741	0.0160681
694.819	0.0154642
694.897	0.0150079
694.975	0.0146326
695.053	0.0144525
695.131	0.0139771
695.209	0.0139613
695.288	0.0138281
695.366	0.0137583
695.444	0.0135404
695.522	0.0133651
695.600	0.0133762
695.678	0.0132328
695.756	0.0132296
695.834	0.0132475
695.913	0.0132881
695.991	0.0134788
696.069	0.0136102
696.147	0.0140131
696.225	0.0144293
696.303	0.0147408
696.381	0.0153101
696.459	0.0158689
696.538	0.0164928
696.616	0.0170905
696.694	0.0177885
696.772	0.0182335
696.850	0.0186594
696.928	0.0189332
697.006	0.0191367
697.084	0.0192676
697.163	0.0192821
697.241	0.0190646
697.319	0.0187984
697.397	0.0186062
697.475	0.0182005
697.553	0.0178412
697.631	0.0175434
697.709	0.0173007
697.788	0.0169624
697.866	0.0166199
697.944	0.0163239
698.022	0.0158562
698.100	0.0155151
698.178	0.0152120
698.256	0.0146136
698.334	0.0142258
698.413	0.0139819
698.491	0.0136352
698.569	0.0131137
698.647	0.0128299
698.725	0.0123674
698.803	0.0122302
698.881	0.0121227
698.959	0.0120531
699.038	0.0120110
699.116	0.0121858
699.194	0.0123178
699.272	0.0126064
699.350	0.0128443
699.428	0.0129520
699.506	0.0134313
699.584	0.0137946
699.663	0.0140011
699.741	0.0144580
699.819	0.0147627
699.897	0.0153694
699.975	0.0156384
700.053	0.0160928
700.131	0.0164846
700.209	0.0169463
700.288	0.0171729
700.366	0.0176655
700.444	0.0179608
700.522	0.0182569
700.600	0.0185782
700.678	0.0187708
700.756	0.0192094
700.834	0.0193429
700.913	0.0195468
700.991	0.0194039
701.069	0.0193767
701.147	0.0195718
701.225	0.0193695
701.303	0.0191997
701.381	0.0188673
701.459	0.0184792
701.538	0.0180162
701.616	0.0172800
701.694	0.0165488
701.772	0.0157697
701.850	0.0150137
701.928	0.0141105
702.006	0.0135273
702.084	0.0126504
702.163	0.0120695
702.241	0.0117911
702.319	0.0114750
702.397	0.0113876
702.475	0.0112453
702.553	0.0115407
702.631	0.0118561
702.709	0.0122298
702.788	0.0128452
702.866	0.0132318
702.944	0.0138191
703.022	0.0143929
703.100	0.0149816
703.178	0.0152959
703.256	0.0155492
703.334	0.0161298
703.413	0.0164782
703.491	0.0169173
703.569	0.0171642
703.647	0.0173118
703.725	0.0176342
703.803	0.0179211
703.881	0.0180590
703.959	0.0180489
704.038	0.0181369
704.116	0.0179817
704.194	0.0179459
704.272	0.0177479
704.350	0.0173759
704.428	0.0169858
704.506	0.0167931
704.584	0.0162459
704.663	0.0157487
704.741	0.0152658
704.819	0.0149728
704.897	0.0145292
704.975	0.0141695
705.053	0.0140119
705.131	0.0138248
705.209	0.0136369
705.288	0.0136366
705.366	0.0138060
705.444	0.0136237
705.522	0.0138544
705.600	0.0141010
705.678	0.0142722
705.756	0.0143488
705.834	0.0146132
705.913	0.0147569
705.991	0.0150714
706.069	0.0153513
706.147	0.0156030
706.225	0.0158058
706.303	0.0159739
706.381	0.0162053
706.459	0.0165363
706.538	0.0167400
706.616	0.0167860
706.694	0.0169420
706.772	0.0171970
706.850	0.0174120
706.928	0.0177159
707.006	0.0179124
707.084	0.0181563
707.163	0.0180356
707.241	0.0181698
707.319	0.0181322
707.397	0.0178888
707.475	0.0177425
707.553	0.0172955
707.631	0.0168538
707.709	0.0164943
707.788	0.0159937
707.866	0.0155262
707.944	0.0148064
708.022	0.0146443
708.100	0.0142120
708.178	0.0140296
708.256	0.0137945
708.334	0.0137631
708.413	0.0137558
708.491	0.0140321
708.569	0.0142350
708.647	0.0144164
708.725	0.0147733
708.803	0.0150618
708.881	0.0151002
708.959	0.0155175
709.038	0.0155826
709.116	0.0155515
709.194	0.0155868
709.272	0.0155719
709.350	0.0154810
709.428	0.0150711
709.506	0.0147932
709.584	0.0144576
709.663	0.0139114
709.741	0.0137823
709.819	0.0134959
709.897	0.0134335
709.975	0.0134191
710.053	0.0134573
710.131	0.0136035
710.209	0.0140612
710.288	0.0144183
710.366	0.0147415
710.444	0.0150739
710.522	0.0154871
710.600	0.0158404
710.678	0.0164073
710.756	0.0166903
710.834	0.0168496
710.913	0.0173396
710.991	0.0175115
711.069	0.0177960
711.147	0.0181168
711.225	0.0184710
711.303	0.0187030
711.381	0.0189307
711.459	0.0191892
711.538	0.0192780
711.616	0.0194912
711.694	0.0193783
711.772	0.0190650
711.850	0.0188942
711.928	0.0184279
712.006	0.0177348
712.084	0.0171529
712.163	0.0165569
712.241	0.0158281
712.319	0.0154758
712.397	0.0146538
712.475	0.0142309
712.553	0.0138609
712.631	0.0136127
712.709	0.0133563
712.788	0.0132436
712.866	0.0131213
712.944	0.0131950
713.022	0.0129994
713.100	0.0127967
713.178	0.0128778
713.256	0.0128478
713.334	0.0127534
713.413	0.0128201
713.491	0.0127792
713.569	0.0129669
713.647	0.0131342
713.725	0.0132879
713.803	0.0136980
713.881	0.0139317
713.959	0.0143529
714.038	0.0146074
714.116	0.0148112
714.194	0.0153683
714.272	0.0155421
714.350	0.0157822
714.428	0.0160888
714.506	0.0161012
714.584	0.0163448
714.663	0.0166426
714.741	0.0167297
714.819	0.0170204
714.897	0.0171792
714.975	0.0175157
715.053	0.0175224
715.131	0.0177100
715.209	0.0177271
715.288	0.0177177
715.366	0.0178310
715.444	0.0176596
715.522	0.0174306
715.600	0.0173748
715.678	0.0172068
715.756	0.0171169
715.834	0.0170808
715.913	0.0172822
715.991	0.0171961
716.069	0.0172638
716.147	0.0175303
716.225	0.0175607
716.303	0.0175544
716.381	0.0175317
716.459	0.0174875
716.538	0.0171690
716.616	0.0170071
716.694	0.0165656
716.772	0.0163229
716.850	0.0161185
716.928	0.0156627
717.006	0.0154655
717.084	0.0151481
717.163	0.0148569
717.241	0.0149197
717.319	0.0146777
717.397	0.0146178
717.475	0.0147264
717.553	0.0146308
717.631	0.0146215
717.709	0.0145764
717.788	0.0144031
717.866	0.0142513
717.944	0.0139648
718.022	0.0137040
718.100	0.0136668
718.178	0.0134030
718.256	0.0133520
718.334	0.0132231
718.413	0.0133301
718.491	0.0133461
718.569	0.0133850
718.647	0.0134742
718.725	0.0137503
718.803	0.0138909
718.881	0.0140075
718.959	0.0143483
719.038	0.0144035
719.116	0.0141564
719.194	0.0144694
719.272	0.0144996
719.350	0.0145784
719.428	0.0148647
719.506	0.0149516
719.584	0.0153841
719.663	0.0155476
719.741	0.0159830
719.819	0.0162826
719.897	0.0165720
719.975	0.0170145
720.053	0.0173362
720.131	0.0177495
720.209	0.0178973
720.288	0.0182757
720.366	0.0182819
720.444	0.0183572
720.522	0.0185802
720.600	0.0184209
720.678	0.0182361
720.756	0.0182021
720.834	0.0180167
720.913	0.0178463
720.991	0.0174314
721.069	0.0171095
721.147	0.0169478
721.225	0.0164157
721.303	0.0163023
721.381	0.0160211
721.459	0.0158938
721.538	0.0158324
721.616	0.0156147
721.694	0.0157287
721.772	0.0159212
721.850	0.0158874
721.928	0.0158171
722.006	0.0161261
722.084	0.0162845
722.163	0.0164727
722.241	0.0165460
722.319	0.0165688
722.397	0.0165455
722.475	0.0165044
722.553	0.0166653
722.631	0.0164072
722.709	0.0162422
722.788	0.0159707
722.866	0.0157424
722.944	0.0154932
723.022	0.0153349
723.100	0.0149288
723.178	0.0147039
723.256	0.0145228
723.334	0.0142605
723.413	0.0142147
723.491	0.0141843
723.569	0.0139213
723.647	0.0139575
723.725	0.0141599
723.803	0.0141617
723.881	0.0141987
723.959	0.0140856
724.038	0.0144036
724.116	0.0142927
724.194	0.0145241
724.272	0.0145288
724.350	0.0144627
724.428	0.0144881
724.506	0.0145293
724.584	0.0146460
724.663	0.0146884
724.741	0.0146601
724.819	0.0146984
724.897	0.0147650
724.975	0.0146838
725.053	0.0148109
725.131	0.0150217
725.209	0.0150729
725.288	0.0153063
725.366	0.0152455
725.444	0.0153429
725.522	0.0153552
725.600	0.0154080
725.678	0.0153811
725.756	0.0154595
725.834	0.0155160
725.913	0.0154810
725.991	0.0154175
726.069	0.0153638
726.147	0.0153474
726.225	0.0153791
726.303	0.0154111
726.381	0.0155511
726.459	0.0157695
726.538	0.0158913
726.616	0.0162861
726.694	0.0164799
726.772	0.0168734
726.850	0.0171634
726.928	0.0174791
727.006	0.0176008
727.084	0.0178052
727.163	0.0179153
727.241	0.0180132
727.319	0.0180172
727.397	0.0181792
727.475	0.0180486
727.553	0.0180750
727.631	0.0180708
727.709	0.0180586
727.788	0.0179716
727.866	0.0179884
727.944	0.0180026
728.022	0.0179169
728.100	0.0176345
728.178	0.0177495
728.256	0.0175350
728.334	0.0173391
728.413	0.0171696
728.491	0.0169406
728.569	0.0166141
728.647	0.0164437
728.725	0.0161127
728.803	0.0157171
728.881	0.0152415
728.959	0.0149536
729.038	0.0145832
729.116	0.0142069
729.194	0.0140063
729.272	0.0137363
729.350	0.0134324
729.428	0.0132381
729.506	0.0131476
729.584	0.0131462
729.663	0.0129916
729.741	0.0130743
729.819	0.0132068
729.897	0.0131080
729.975	0.0132654
730.053	0.0133759
730.131	0.0136764
730.209	0.0138139
730.288	0.0137900
730.366	0.0139180
730.444	0.0141399
730.522	0.0143773
730.600	0.0145941
730.678	0.0148299
730.756	0.0149265
730.834	0.0151543
730.913	0.0153195
730.991	0.0155784
731.069	0.0157800
731.147	0.0159525
731.225	0.0160456
731.303	0.0162965
731.381	0.0162525
731.459	0.0164117
731.538	0.0163674
731.616	0.0163393
731.694	0.0162311
731.772	0.0161191
731.850	0.0160930
731.928	0.0158554
732.006	0.0158656
732.084	0.0157444
732.163	0.0155939
732.241	0.0155851
732.319	0.0156475
732.397	0.0157280
732.475	0.0156039
732.553	0.0155661
732.631	0.0158248
732.709	0.0158980
732.788	0.0159347
732.866	0.0161175
732.944	0.0160842
733.022	0.0163096
733.100	0.0163180
733.178	0.0162579
733.256	0.0163525
733.334	0.0165237
733.413	0.0165089
733.491	0.0164893
733.569	0.0162909
733.647	0.0161344
733.725	0.0163316
733.803	0.0161462
733.881	0.0160332
733.959	0.0160351
734.038	0.0160968
734.116	0.0159563
734.194	0.0159720
734.272	0.0159995
734.350	0.0160227
734.428	0.0159153
734.506	0.0158762
734.584	0.0157964
734.663	0.0156627
734.741	0.0157143
734.819	0.0156453
734.897	0.0156413
734.975	0.0155844
735.053	0.0156204
735.131	0.0156879
735.209	0.0157381
735.288	0.0158397
735.366	0.0159687
735.444	0.0160432
735.522	0.0161539
735.600	0.0160040
735.678	0.0162042
735.756	0.0161194
735.834	0.0159771
735.913	0.0161478
735.991	0.0160716
736.069	0.0159376
736.147	0.0159186
736.225	0.0158865
736.303	0.0157519
736.381	0.0157356
736.459	0.0158350
736.538	0.0159146
736.616	0.0158666
736.694	0.0158875
736.772	0.0158300
736.850	0.0158099
736.928	0.0156444
737.006	0.0156090
737.084	0.0154211
737.163	0.0151553
737.241	0.0150608
737.319	0.0148028
737.397	0.0145611
737.475	0.0142523
737.553	0.0141451
737.631	0.0141317
737.709	0.0141065
737.788	0.0140102
737.866	0.0141808
737.944	0.0142265
738.022	0.0143285
738.100	0.0145380
738.178	0.0146468
738.256	0.0150872
738.334	0.0152655
738.413	0.0156480
738.491	0.0157241
738.569	0.0158015
738.647	0.0161427
738.725	0.0162053
738.803	0.0162601
738.881	0.0161965
738.959	0.0160474
739.038	0.0161566
739.116	0.0158260
739.194	0.0161030
739.272	0.0157576
739.350	0.0154814
739.428	0.0155298
739.506	0.0154327
739.584	0.0154021
739.663	0.0154012
739.741	0.0153703
739.819	0.0153212
739.897	0.0154039
739.975	0.0153648
740.053	0.0153400
740.131	0.0152326
740.209	0.0153182
740.288	0.0155751
740.366	0.0154658
740.444	0.0155935
740.522	0.0156548
740.600	0.0157772
740.678	0.0158165
740.756	0.0160314
740.834	0.0160324
740.913	0.0162080
740.991	0.0163984
741.069	0.0165040
741.147	0.0165060
741.225	0.0166772
741.303	0.0166579
741.381	0.0168594
741.459	0.0169175
741.538	0.0168723
741.616	0.0170733
741.694	0.0169997
741.772	0.0171184
741.850	0.0169725
741.928	0.0171477
742.006	0.0171203
742.084	0.0169706
742.163	0.0170707
742.241	0.0169832
742.319	0.0171229
742.397	0.0170359
742.475	0.0167136
742.553	0.0167725
742.631	0.0165827
742.709	0.0164104
742.788	0.0160394
742.866	0.0160303
742.944	0.0157924
743.022	0.0155821
743.100	0.0154256
743.178	0.0152123
743.256	0.0152916
743.334	0.0153111
743.413	0.0155425
743.491	0.0154126
743.569	0.0154064
743.647	0.0153979
743.725	0.0155069
743.803	0.0154613
743.881	0.0154768
743.959	0.0152860
744.038	0.0153026
744.116	0.0153756
744.194	0.0150668
744.272	0.0149580
744.350	0.0149122
744.428	0.0148077
744.506	0.0147227
744.584	0.0144804
744.663	0.0144007
744.741	0.0143890
744.819	0.0142713
744.897	0.0143544
744.975	0.0142339
745.053	0.0141063
745.131	0.0140525
745.209	0.0141930
745.288	0.0142766
745.366	0.0142411
745.444	0.0142313
745.522	0.0142854
745.600	0.0144601
745.678	0.0145514
745.756	0.0146795
745.834	0.0149922
745.913	0.0153097
745.991	0.0155553
746.069	0.0157900
746.147	0.0161596
746.225	0.0164316
746.303	0.0165886
746.381	0.0167513
746.459	0.0169751
746.538	0.0171242
746.616	0.0171716
746.694	0.0170925
746.772	0.0171030
746.850	0.0171490
746.928	0.0170824
747.006	0.0170383
747.084	0.0171040
747.163	0.0168760
747.241	0.0168187
747.319	0.0168726
747.397	0.0168083
747.475	0.0167386
747.553	0.0165739
747.631	0.0166387
747.709	0.0162576
747.788	0.0163434
747.866	0.0160634
747.944	0.0159934
748.022	0.0158122
748.100	0.0155948
748.178	0.0154565
748.256	0.0152277
748.334	0.0149051
748.413	0.0148228
748.491	0.0147354
748.569	0.0145329
748.647	0.0143285
748.725	0.0143226
748.803	0.0144795
748.881	0.0145415
748.959	0.0147259
749.038	0.0149226
749.116	0.0148935
749.194	0.0152666
749.272	0.0156281
749.350	0.0158232
749.428	0.0160044
749.506	0.0164884
749.584	0.0166940
749.663	0.0169464
749.741	0.0170424
749.819	0.0172041
749.897	0.0174284
749.975	0.0172806
750.053	0.0174078
750.131	0.0172244
750.209	0.0171380
750.288	0.0169588
750.366	0.0168382
750.444	0.0166905
750.522	0.0164138
750.600	0.0161893
750.678	0.0160141
750.756	0.0156319
750.834	0.0153749
750.913	0.0150298
750.991	0.0149171
751.069	0.0144888
751.147	0.0142418
751.225	0.0142529
751.303	0.0142919
751.381	0.0143274
751.459	0.0143569
751.538	0.0144982
751.616	0.0147085
751.694	0.0151003
751.772	0.0152692
751.850	0.0156368
751.928	0.0159272
752.006	0.0161720
752.084	0.0164547
752.163	0.0166449
752.241	0.0167610
752.319	0.0167553
752.397	0.0166703
752.475	0.0163239
752.553	0.0162869
752.631	0.0159260
752.709	0.0155728
752.788	0.0153568
752.866	0.0148723
752.944	0.0146804
753.022	0.0145026
753.100	0.0145155
753.178	0.0139944
753.256	0.0138609
753.334	0.0138708
753.413	0.0137586
753.491	0.0137454
753.569	0.0138289
753.647	0.0139082
753.725	0.0140485
753.803	0.0141914
753.881	0.0144259
753.959	0.0147070
754.038	0.0148952
754.116	0.0149790
754.194	0.0153032
754.272	0.0157150
754.350	0.0158799
754.428	0.0160300
754.506	0.0163243
754.584	0.0165455
754.663	0.0165762
754.741	0.0164618
754.819	0.0165946
754.897	0.0165953
754.975	0.0165376
755.053	0.0165720
755.131	0.0166148
755.209	0.0166115
755.288	0.0165659
755.366	0.0165818
755.444	0.0164303
755.522	0.0164268
755.600	0.0162759
755.678	0.0161102
755.756	0.0159187
755.834	0.0156205
755.913	0.0154293
755.991	0.0151435
756.069	0.0150275
756.147	0.0149123
756.225	0.0150148
756.303	0.0149357
756.381	0.0150810
756.459	0.0150967
756.538	0.0151968
756.616	0.0153313
756.694	0.0154333
756.772	0.0155558
756.850	0.0156189
756.928	0.0156424
757.006	0.0157896
757.084	0.0159788
757.163	0.0161624
757.241	0.0162014
757.319	0.0163748
757.397	0.0164963
757.475	0.0167104
757.553	0.0167971
757.631	0.0170995
757.709	0.0171033
757.788	0.0171217
757.866	0.0171059
757.944	0.0172643
758.022	0.0171687
758.100	0.0171581
758.178	0.0168784
758.256	0.0167023
758.334	0.0165451
758.413	0.0165229
758.491	0.0162733
758.569	0.0158270
758.647	0.0155492
758.725	0.0153705
758.803	0.0152534
758.881	0.0149686
758.959	0.0147095
759.038	0.0145386
759.116	0.0144179
759.194	0.0143693
759.272	0.0143020
759.350	0.0142446
759.428	0.0143148
759.506	0.0144416
759.584	0.0144262
759.663	0.0148032
759.741	0.0148984
759.819	0.0151039
759.897	0.0153195
759.975	0.0155074
760.053	0.0157423
760.131	0.0158874
760.209	0.0158784
760.288	0.0161256
760.366	0.0162416
760.444	0.0162244
760.522	0.0162876
760.600	0.0161550
760.678	0.0160207
760.756	0.0157587
760.834	0.0155048
760.913	0.0154458
760.991	0.0150609
761.069	0.0147503
761.147	0.0143703
761.225	0.0142871
761.303	0.0142944
761.381	0.0139088
761.459	0.0137975
761.538	0.0139984
761.616	0.0139716
761.694	0.0137971
761.772	0.0139690
761.850	0.0141873
761.928	0.0142368
762.006	0.0145796
762.084	0.0147004
762.163	0.0150500
762.241	0.0153323
762.319	0.0157078
762.397	0.0160182
762.475	0.0162641
762.553	0.0166624
762.631	0.0168492
762.709	0.0169559
762.788	0.0172234
762.866	0.0172443
762.944	0.0171603
763.022	0.0171144
763.100	0.0169098
763.178	0.0167673
763.256	0.0165536
763.334	0.0165601
763.413	0.0164148
763.491	0.0160428
763.569	0.0158440
763.647	0.0158377
763.725	0.0156669
763.803	0.0155990
763.881	0.0154674
763.959	0.0156298
764.038	0.0155581
764.116	0.0155246
764.194	0.0154836
764.272	0.0155634
764.350	0.0156763
764.428	0.0158304
764.506	0.0160404
764.584	0.0159869
764.663	0.0161781
764.741	0.0163964
764.819	0.0164495
764.897	0.0164085
764.975	0.0165298
765.053	0.0166228
765.131	0.0163804
765.209	0.0163470
765.288	0.0163507
765.366	0.0161937
765.444	0.0159494
765.522	0.0158376
765.600	0.0156924
765.678	0.0155884
765.756	0.0155494
765.834	0.0154588
765.913	0.0155421
765.991	0.0155940
766.069	0.0156612
766.147	0.0158434
766.225	0.0160074
766.303	0.0162598
766.381	0.0164410
766.459	0.0164732
766.538	0.0165746
766.616	0.0164963
766.694	0.0167867
766.772	0.0167793
766.850	0.0166967
766.928	0.0166109
767.006	0.0166203
767.084	0.0163470
767.163	0.0161356
767.241	0.0159393
767.319	0.0156780
767.397	0.0153487
767.475	0.0151199
767.553	0.0148507
767.631	0.0143963
767.709	0.0142630
767.788	0.0140878
767.866	0.0138929
767.944	0.0137154
768.022	0.0136959
768.100	0.0136283
768.178	0.0137320
768.256	0.0138248
768.334	0.0139487
768.413	0.0142291
768.491	0.0146055
768.569	0.0146370
768.647	0.0150327
768.725	0.0153469
768.803	0.0156137
768.881	0.0157996
768.959	0.0159249
769.038	0.0160162
769.116	0.0160001
769.194	0.0162516
769.272	0.0161367
769.350	0.0161282
769.428	0.0160519
769.506	0.0158954
769.584	0.0156915
769.663	0.0154891
769.741	0.0152749
769.819	0.0151941
769.897	0.0150716
769.975	0.0150027
770.053	0.0149530
770.131	0.0148462
770.209	0.0151775
770.288	0.0153244
770.366	0.0154820
770.444	0.0157841
770.522	0.0160582
770.600	0.0163981
770.678	0.0165293
770.756	0.0165670
770.834	0.0168152
770.913	0.0170679
770.991	0.0170961
771.069	0.0171739
771.147	0.0169572
771.225	0.0168389
771.303	0.0166575
771.381	0.0164892
771.459	0.0163766
771.538	0.0161494
771.616	0.0157926
771.694	0.0155871
771.772	0.0154894
771.850	0.0153994
771.928	0.0152021
772.006	0.0153644
772.084	0.0153269
772.163	0.0154317
772.241	0.0155507
772.319	0.0156626
772.397	0.0158589
772.475	0.0159005
772.553	0.0161199
772.631	0.0160933
772.709	0.0162154
772.788	0.0162450
772.866	0.0162601
772.944	0.0160383
773.022	0.0161553
773.100	0.0161078
773.178	0.0159264
773.256	0.0159238
773.334	0.0158037
773.413	0.0156763
773.491	0.0157756
773.569	0.0158183
773.647	0.0157560
773.725	0.0156455
773.803	0.0155909
773.881	0.0156974
773.959	0.0157954
774.038	0.0158476
774.116	0.0159428
774.194	0.0160102
774.272	0.0158823
774.350	0.0160360
774.428	0.0159884
774.506	0.0160297
774.584	0.0161150
774.663	0.0162338
774.741	0.0160700
774.819	0.0162115
774.897	0.0161632
774.975	0.0162045
775.053	0.0161164
775.131	0.0161189
775.209	0.0159504
775.288	0.0159045
775.366	0.0158054
775.444	0.0156174
775.522	0.0153686
775.600	0.0152361
775.678	0.0149865
775.756	0.0147301
775.834	0.0144397
775.913	0.0142662
775.991	0.0140491
776.069	0.0139162
776.147	0.0138414
776.225	0.0136683
776.303	0.0137261
776.381	0.0137971
776.459	0.0139034
776.538	0.0139812
776.616	0.0143086
776.694	0.0146031
776.772	0.0147784
776.850	0.0151408
776.928	0.0153182
777.006	0.0155711
777.084	0.0157465
777.163	0.0158876
777.241	0.0158657
777.319	0.0159886
777.397	0.0161952
777.475	0.0159304
777.553	0.0158256
777.631	0.0159317
777.709	0.0156999
777.788	0.0156153
777.866	0.0154867
777.944	0.0152415
778.022	0.0152827
778.100	0.0150213
778.178	0.0151220
778.256	0.0151586
778.334	0.0150069
778.413	0.0151769
778.491	0.0154440
778.569	0.0155305
778.647	0.0156926
778.725	0.0159629
778.803	0.0163732
778.881	0.0164715
778.959	0.0168651
779.038	0.0169631
779.116	0.0170342
779.194	0.0172247
779.272	0.0172236
779.350	0.0170641
779.428	0.0170796
779.506	0.0167941
779.584	0.0165631
779.663	0.0162466
779.741	0.0160001
779.819	0.0156944
779.897	0.0153610
779.975	0.0151524
780.053	0.0149178
780.131	0.0147529
780.209	0.0147228
780.288	0.0145788
780.366	0.0146893
780.444	0.0149202
780.522	0.0148891
780.600	0.0151452
780.678	0.0153443
780.756	0.0157395
780.834	0.0159925
780.913	0.0162158
780.991	0.0163544
781.069	0.0166963
781.147	0.0168559
781.225	0.0169635
781.303	0.0169887
781.381	0.0169498
781.459	0.0169123
781.538	0.0168552
781.616	0.0168998
781.694	0.0166529
781.772	0.0165523
781.850	0.0165257
781.928	0.0163012
782.006	0.0162476
782.084	0.0160621
782.163	0.0158416
782.241	0.0157892
782.319	0.0155112
782.397	0.0153903
782.475	0.0151765
782.553	0.0150026
782.631	0.0148098
782.709	0.0145590
782.788	0.0144686
782.866	0.0142970
782.944	0.0141875
783.022	0.0142757
783.100	0.0143371
783.178	0.0140948
783.256	0.0142451
783.334	0.0144057
783.413	0.0145956
783.491	0.0147364
783.569	0.0147928
783.647	0.0150911
783.725	0.0153974
783.803	0.0155411
783.881	0.0157241
783.959	0.0158160
784.038	0.0159768
784.116	0.0158531
784.194	0.0159737
784.272	0.0160760
784.350	0.0159253
784.428	0.0157159
784.506	0.0155566
784.584	0.0155169
784.663	0.0154326
784.741	0.0151968
784.819	0.0151036
784.897	0.0149911
784.975	0.0148981
785.053	0.0147691
785.131	0.0147927
785.209	0.0148293
785.288	0.0149050
785.366	0.0151224
785.444	0.0150854
785.522	0.0151318
785.600	0.0153128
785.678	0.0153557
785.756	0.0155222
785.834	0.0156947
785.913	0.0157204
785.991	0.0159254
786.069	0.0159564
786.147	0.0160608
786.225	0.0161681
786.303	0.0162019
786.381	0.0163696
786.459	0.0163811
786.538	0.0165528
786.616	0.0164809
786.694	0.0166663
786.772	0.0167950
786.850	0.0166659
786.928	0.0166003
787.006	0.0165511
787.084	0.0164784
787.163	0.0162268
787.241	0.0161317
787.319	0.0160493
787.397	0.0160080
787.475	0.0156665
787.553	0.0156207
787.631	0.0155025
787.709	0.0153879
787.788	0.0153015
787.866	0.0152441
787.944	0.0151797
788.022	0.0150890
788.100	0.0151518
788.178	0.0152306
788.256	0.0151297
788.334	0.0150439
788.413	0.0151548
788.491	0.0152607
788.569	0.0153568
788.647	0.0153706
788.725	0.0156425
788.803	0.0158339
788.881	0.0159900
788.959	0.0161868
789.038	0.0166056
789.116	0.0168130
789.194	0.0169846
789.272	0.0170002
789.350	0.0171301
789.428	0.0171880
789.506	0.0173472
789.584	0.0172379
789.663	0.0171995
789.741	0.0170059
789.819	0.0168316
789.897	0.0166522
789.975	0.0164094
790.053	0.0161495
790.131	0.0158298
790.209	0.0156380
790.288	0.0154119
790.366	0.0151144
790.444	0.0150205
790.522	0.0147697
790.600	0.0147694
790.678	0.0147190
790.756	0.0143761
790.834	0.0144339
790.913	0.0143253
790.991	0.0144242
791.069	0.0144165
791.147	0.0144301
791.225	0.0144683
791.303	0.0146078
791.381	0.0146521
791.459	0.0146098
791.538	0.0148956
791.616	0.0151000
791.694	0.0151178
791.772	0.0151917
791.850	0.0153593
791.928	0.0154256
792.006	0.0156674
792.084	0.0156065
792.163	0.0155572
792.241	0.0155723
792.319	0.0155715
792.397	0.0156066
792.475	0.0157581
792.553	0.0157531
792.631	0.0157679
792.709	0.0157730
792.788	0.0155312
792.866	0.0156048
792.944	0.0156173
793.022	0.0155260
793.100	0.0154129
793.178	0.0152794
793.256	0.0151851
793.334	0.0153191
793.413	0.0153103
793.491	0.0153188
793.569	0.0155035
793.647	0.0153947
793.725	0.0154408
793.803	0.0157175
793.881	0.0158688
793.959	0.0160316
794.038	0.0161935
794.116	0.0163662
794.194	0.0164497
794.272	0.0165711
794.350	0.0166506
794.428	0.0167648
794.506	0.0166793
794.584	0.0166465
794.663	0.0166920
794.741	0.0164745
794.819	0.0164818
794.897	0.0164346
794.975	0.0162209
795.053	0.0159996
795.131	0.0158446
795.209	0.0157708
795.288	0.0157313
795.366	0.0153428
795.444	0.0152283
795.522	0.0150756
795.600	0.0149280
795.678	0.0149994
795.756	0.0147239
795.834	0.0145923
795.913	0.0144980
795.991	0.0146147
796.069	0.0146067
796.147	0.0146152
796.225	0.0147264
796.303	0.0148318
796.381	0.0151014
796.459	0.0151665
796.538	0.0156306
796.616	0.0158113
796.694	0.0161346
796.772	0.0164090
796.850	0.0166623
796.928	0.0167047
797.006	0.0170399
797.084	0.0172537
797.163	0.0173314
797.241	0.0174103
797.319	0.0173969
797.397	0.0173708
797.475	0.0174250
797.553	0.0173661
797.631	0.0171544
797.709	0.0169488
797.788	0.0167506
797.866	0.0165551
797.944	0.0162509
798.022	0.0160905
798.100	0.0157391
798.178	0.0154826
798.256	0.0151926
798.334	0.0150584
798.413	0.0147552
798.491	0.0144501
798.569	0.0143688
798.647	0.0142496
798.725	0.0140736
798.803	0.0139865
798.881	0.0141096
798.959	0.0140648
799.038	0.0141622
799.116	0.0141171
799.194	0.0142784
799.272	0.0144476
799.350	0.0146735
799.428	0.0148881
799.506	0.0150359
799.584	0.0151888
799.663	0.0152924
799.741	0.0154687
799.819	0.0156341
799.897	0.0155476
799.975	0.0156214
800.053	0.0156119
800.131	0.0157613
800.209	0.0159676
800.288	0.0157921
800.366	0.0155775
800.444	0.0156997
800.522	0.0157756
800.600	0.0156023
800.678	0.0155885
800.756	0.0155308
800.834	0.0155149
800.913	0.0155035
800.991	0.0154400
801.069	0.0153865
801.147	0.0153982
801.225	0.0154549
801.303	0.0154774
801.381	0.0155011
801.459	0.0156432
801.538	0.0158328
801.616	0.0159340
801.694	0.0158643
801.772	0.0160845
801.850	0.0161534
801.928	0.0160661
802.006	0.0159602
802.084	0.0159686
802.163	0.0159427
802.241	0.0160918
802.319	0.0161443
802.397	0.0159909
802.475	0.0161049
802.553	0.0161562
802.631	0.0163793
802.709	0.0161656
802.788	0.0160334
802.866	0.0161963
802.944	0.0162379
803.022	0.0161942
803.100	0.0161129
803.178	0.0160121
803.256	0.0161518
803.334	0.0158474
803.413	0.0158350
803.491	0.0159077
803.569	0.0157356
803.647	0.0158409
803.725	0.0156889
803.803	0.0156012
803.881	0.0156556
803.959	0.0157307
804.038	0.0154084
804.116	0.0155062
804.194	0.0155189
804.272	0.0154682
804.350	0.0154324
804.428	0.0154349
804.506	0.0154494
804.584	0.0156141
804.663	0.0155523
804.741	0.0156248
804.819	0.0157382
804.897	0.0158348
804.975	0.0158916
805.053	0.0159763
805.131	0.0160809
805.209	0.0162436
805.288	0.0162507
805.366	0.0162829
805.444	0.0164628
805.522	0.0163977
805.600	0.0164539
805.678	0.0161657
805.756	0.0160484
805.834	0.0160129
805.913	0.0156873
805.991	0.0154977
806.069	0.0155115
806.147	0.0152472
806.225	0.0150235
806.303	0.0150563
806.381	0.0149467
806.459	0.0148940
806.538	0.0147887
806.616	0.0148251
806.694	0.0147939
806.772	0.0148180
806.850	0.0149011
806.928	0.0149283
807.006	0.0151218
807.084	0.0153745
807.163	0.0153331
807.241	0.0155656
807.319	0.0156634
807.397	0.0160393
807.475	0.0160172
807.553	0.0161331
807.631	0.0162993
807.709	0.0164759
807.788	0.0165690
807.866	0.0165939
807.944	0.0166718
808.022	0.0165721
808.100	0.0166197
808.178	0.0164436
808.256	0.0163322
808.334	0.0163027
808.413	0.0161253
808.491	0.0160036
808.569	0.0157343
808.647	0.0156100
808.725	0.0154888
808.803	0.0152592
808.881	0.0151422
808.959	0.0149650
809.038	0.0149349
809.116	0.0147306
809.194	0.0147618
809.272	0.0145012
809.350	0.0145746
809.428	0.0146738
809.506	0.0145921
809.584	0.0147101
809.663	0.0146938
809.741	0.0149003
809.819	0.0149648
809.897	0.0151929
809.975	0.0153368
810.053	0.0154728
810.131	0.0157191
810.209	0.0157938
810.288	0.0160384
810.366	0.0159379
810.444	0.0160712
810.522	0.0162499
810.600	0.0162637
810.678	0.0164552
810.756	0.0163188
810.834	0.0162392
810.913	0.0163263
810.991	0.0160814
811.069	0.0160989
811.147	0.0160836
811.225	0.0160680
811.303	0.0157607
811.381	0.0158096
811.459	0.0156203
811.538	0.0158299
811.616	0.0156412
811.694	0.0157571
811.772	0.0155443
811.850	0.0154817
811.928	0.0155752
812.006	0.0154942
812.084	0.0155151
812.163	0.0155496
812.241	0.0156416
812.319	0.0157824
812.397	0.0157744
812.475	0.0156927
812.553	0.0158386
812.631	0.0159073
812.709	0.0159050
812.788	0.0161456
812.866	0.0161943
812.944	0.0160949
813.022	0.0162208
813.100	0.0164527
813.178	0.0165076
813.256	0.0163583
813.334	0.0163128
813.413	0.0164756
813.491	0.0164316
813.569	0.0163458
813.647	0.0163376
813.725	0.0162842
813.803	0.0160191
813.881	0.0160200
813.959	0.0158875
814.038	0.0157893
814.116	0.0156250
814.194	0.0153667
814.272	0.0152651
814.350	0.0151495
814.428	0.0150613
814.506	0.0148317
814.584	0.0147001
814.663	0.0147903
814.741	0.0145159
814.819	0.0146930
814.897	0.0146302
814.975	0.0144081
815.053	0.0143204
815.131	0.0145404
815.209	0.0146162
815.288	0.0147157
815.366	0.0147073
815.444	0.0148833
815.522	0.0149731
815.600	0.0152343
815.678	0.0152927
815.756	0.0153355
815.834	0.0155222
815.913	0.0156866
815.991	0.0157430
816.069	0.0156686
816.147	0.0157919
816.225	0.0158505
816.303	0.0159419
816.381	0.0160236
816.459	0.0159927
816.538	0.0159216
816.616	0.0159790
816.694	0.0158801
816.772	0.0158326
816.850	0.0157499
816.928	0.0157110
817.006	0.0158120
817.084	0.0158015
817.163	0.0158141
817.241	0.0156565
817.319	0.0157580
817.397	0.0158170
817.475	0.0158672
817.553	0.0157740
817.631	0.0158689
817.709	0.0158292
817.788	0.0159805
817.866	0.0159124
817.944	0.0159245
818.022	0.0159051
818.100	0.0158965
818.178	0.0158718
818.256	0.0162518
818.334	0.0160366
818.413	0.0160283
818.491	0.0162263
818.569	0.0161233
818.647	0.0160825
818.725	0.0160101
818.803	0.0159976
818.881	0.0161665
818.959	0.0161626
819.038	0.0160983
819.116	0.0160857
819.194	0.0159151
819.272	0.0158388
819.350	0.0158296
819.428	0.0157124
819.506	0.0155770
819.584	0.0156412
819.663	0.0154987
819.741	0.0152409
819.819	0.0153555
819.897	0.0153374
819.975	0.0151716
820.053	0.0150759
820.131	0.0150627
820.209	0.0152438
820.288	0.0152197
820.366	0.0151019
820.444	0.0151749
820.522	0.0151579
820.600	0.0153511
820.678	0.0152496
820.756	0.0153770
820.834	0.0155576
820.913	0.0155228
820.991	0.0156470
821.069	0.0156140
821.147	0.0157674
821.225	0.0157296
821.303	0.0158134
821.381	0.0158959
821.459	0.0158460
821.538	0.0160300
821.616	0.0158068
821.694	0.0158730
821.772	0.0159442
821.850	0.0160069
821.928	0.0158406
822.006	0.0157826
822.084	0.0157907
822.163	0.0158653
822.241	0.0157586
822.319	0.0157249
822.397	0.0155790
822.475	0.0154393
822.553	0.0153989
822.631	0.0155083
822.709	0.0154376
822.788	0.0154517
822.866	0.0153669
822.944	0.0152811
823.022	0.0155154
823.100	0.0156186
823.178	0.0155715
823.256	0.0153792
823.334	0.0156669
823.413	0.0157558
823.491	0.0157559
823.569	0.0158216
823.647	0.0158262
823.725	0.0160016
823.803	0.0161953
823.881	0.0159987
823.959	0.0161990
824.038	0.0162580
824.116	0.0163622
824.194	0.0164485
824.272	0.0164120
824.350	0.0163134
824.428	0.0162827
824.506	0.0160828
824.584	0.0162025
824.663	0.0161009
824.741	0.0158541
824.819	0.0157762
824.897	0.0155249
824.975	0.0156271
825.053	0.0155442
825.131	0.0152968
825.209	0.0153630
825.288	0.0152849
825.366	0.0150791
825.444	0.0149772
825.522	0.0151163
825.600	0.0150803
825.678	0.0152315
825.756	0.0150168
825.834	0.0152106
825.913	0.0151150
825.991	0.0153413
826.069	0.0152271
826.147	0.0153039
826.225	0.0154185
826.303	0.0153312
826.381	0.0155273
826.459	0.0156007
826.538	0.0155141
826.616	0.0155917
826.694	0.0155497
826.772	0.0155974
826.850	0.0156680
826.928	0.0157142
827.006	0.0155376
827.084	0.0156326
827.163	0.0156244
827.241	0.0157627
827.319	0.0156126
827.397	0.0155459
827.475	0.0155198
827.553	0.0157404
827.631	0.0156666
827.709	0.0157097
827.788	0.0157623
827.866	0.0155836
827.944	0.0157549
828.022	0.0156939
828.100	0.0157808
828.178	0.0157668
828.256	0.0157919
828.334	0.0157529
828.413	0.0157558
828.491	0.0157442
828.569	0.0158682
828.647	0.0159529
828.725	0.0157449
828.803	0.0157265
828.881	0.0160185
828.959	0.0161470
829.038	0.0162021
829.116	0.0160563
829.194	0.0160995
829.272	0.0162034
829.350	0.0161545
829.428	0.0161725
829.506	0.0162074
829.584	0.0162004
829.663	0.0164091
829.741	0.0160742
829.819	0.0163023
829.897	0.0162152
829.975	0.0160036
830.053	0.0158897
830.131	0.0159462
830.209	0.0158662
830.288	0.0156965
830.366	0.0156541
830.444	0.0154556
830.522	0.0154247
830.600	0.0153236
830.678	0.0154084
830.756	0.0151767
830.834	0.0152731
830.913	0.0152588
830.991	0.0151627
831.069	0.0152448
831.147	0.0152520
831.225	0.0153755
831.303	0.0153429
831.381	0.0153946
831.459	0.0154346
831.538	0.0155411
831.616	0.0156497
831.694	0.0157635
831.772	0.0155681
831.850	0.0157648
831.928	0.0157082
832.006	0.0157520
832.084	0.0157083
832.163	0.0157491
832.241	0.0157574
832.319	0.0157185
832.397	0.0157416
832.475	0.0156549
832.553	0.0156287
832.631	0.0156416
832.709	0.0155861
832.788	0.0154803
832.866	0.0154619
832.944	0.0153429
833.022	0.0153471
833.100	0.0154453
833.178	0.0153877
833.256	0.0154667
833.334	0.0154795
833.413	0.0153692
833.491	0.0155116
833.569	0.0154433
833.647	0.0152837
833.725	0.0152811
833.803	0.0155077
833.881	0.0154498
833.959	0.0154777
834.038	0.0155149
834.116	0.0154678
834.194	0.0155952
834.272	0.0156306
834.350	0.0156902
834.428	0.0158266
834.506	0.0159644
834.584	0.0159465
834.663	0.0158289
834.741	0.0159016
834.819	0.0157388
834.897	0.0157284
834.975	0.0158826
835.053	0.0157984
835.131	0.0155520
835.209	0.0155408
835.288	0.0156242
835.366	0.0155564
835.444	0.0155969
835.522	0.0155656
835.600	0.0155123
835.678	0.0156602
835.756	0.0154727
835.834	0.0153477
835.913	0.0154826
835.991	0.0155580
836.069	0.0153970
836.147	0.0154336
836.225	0.0154981
836.303	0.0155235
836.381	0.0155619
836.459	0.0155454
836.538	0.0157282
836.616	0.0157726
836.694	0.0157592
836.772	0.0159561
836.850	0.0159602
836.928	0.0159827
837.006	0.0159499
837.084	0.0161488
837.163	0.0161200
837.241	0.0161228
837.319	0.0161282
837.397	0.0161106
837.475	0.0162422
837.553	0.0162991
837.631	0.0162462
837.709	0.0159560
837.788	0.0161703
837.866	0.0162009
837.944	0.0160739
838.022	0.0159746
838.100	0.0161230
838.178	0.0157840
838.256	0.0158095
838.334	0.0157102
838.413	0.0157889
838.491	0.0154992
838.569	0.0155777
838.647	0.0155492
838.725	0.0154765
838.803	0.0155495
838.881	0.0152151
838.959	0.0152325
839.038	0.0153011
839.116	0.0152888
839.194	0.0153545
839.272	0.0153804
839.350	0.0153342
839.428	0.0153780
839.506	0.0154933
839.584	0.0155540
839.663	0.0155919
839.741	0.0156139
839.819	0.0155979
839.897	0.0157178
839.975	0.0156742
840.053	0.0157038
840.131	0.0156893
840.209	0.0157876
840.288	0.0155915
840.366	0.0155789
840.444	0.0156206
840.522	0.0157072
840.600	0.0156187
840.678	0.0156042
840.756	0.0154861
840.834	0.0154370
840.913	0.0154464
840.991	0.0152477
841.069	0.0154704
841.147	0.0155518
841.225	0.0153588
841.303	0.0153226
841.381	0.0151757
841.459	0.0152256
841.538	0.0151836
841.616	0.0152602
841.694	0.0152522
841.772	0.0151432
841.850	0.0151977
841.928	0.0152435
842.006	0.0153603
842.084	0.0154537
842.163	0.0155049
842.241	0.0156434
842.319	0.0155267
842.397	0.0156482
842.475	0.0155811
842.553	0.0157563
842.631	0.0159029
842.709	0.0158749
842.788	0.0159690
842.866	0.0160188
842.944	0.0160785
843.022	0.0160098
843.100	0.0159150
843.178	0.0160716
843.256	0.0159897
843.334	0.0160462
843.413	0.0159576
843.491	0.0159133
843.569	0.0158716
843.647	0.0158490
843.725	0.0160133
843.803	0.0156675
843.881	0.0156601
843.959	0.0155366
844.038	0.0155329
844.116	0.0155382
844.194	0.0154871
844.272	0.0155145
844.350	0.0155008
844.428	0.0153762
844.506	0.0155033
844.584	0.0154857
844.663	0.0155308
844.741	0.0154411
844.819	0.0154414
844.897	0.0155910
844.975	0.0154902
845.053	0.0156959
845.131	0.0156046
845.209	0.0156634
845.288	0.0157986
845.366	0.0157630
845.444	0.0158060
845.522	0.0158068
845.600	0.0157800
845.678	0.0158848
845.756	0.0159545
845.834	0.0158672
845.913	0.0159562
845.991	0.0160122
846.069	0.0160104
846.147	0.0159739
846.225	0.0159723
846.303	0.0158506
846.381	0.0157660
846.459	0.0157282
846.538	0.0156315
846.616	0.0154814
846.694	0.0156610
846.772	0.0155586
846.850	0.0154739
846.928	0.0153484
847.006	0.0153944
847.084	0.0155198
847.163	0.0154644
847.241	0.0153474
847.319	0.0153717
847.397	0.0154173
847.475	0.0154424
847.553	0.0153358
847.631	0.0154257
847.709	0.0154488
847.788	0.0155108
847.866	0.0156074
847.944	0.0154701
848.022	0.0154623
848.100	0.0155648
848.178	0.0156325
848.256	0.0154350
848.334	0.0156684
848.413	0.0157057
848.491	0.0156485
848.569	0.0157762
848.647	0.0156568
848.725	0.0158500
848.803	0.0156153
848.881	0.0156389
848.959	0.0157654
849.038	0.0156597
849.116	0.0155627
849.194	0.0155599
849.272	0.0156698
849.350	0.0155257
849.428	0.0154377
849.506	0.0155567
849.584	0.0155091
849.663	0.0154942
849.741	0.0155322
849.819	0.0155699
849.897	0.0154799
849.975	0.0154189
850.053	0.0153916
850.131	0.0155786
850.209	0.0154706
850.288	0.0154654
850.366	0.0156290
850.444	0.0156862
850.522	0.0155563
850.600	0.0156749
850.678	0.0156404
850.756	0.0156564
850.834	0.0157657
850.913	0.0156508
850.991	0.0156885
851.069	0.0156984
851.147	0.0157104
851.225	0.0158121
851.303	0.0158567
851.381	0.0157763
851.459	0.0157004
851.538	0.0155656
851.616	0.0158010
851.694	0.0156461
851.772	0.0155363
851.850	0.0155801
851.928	0.0157686
852.006	0.0156081
852.084	0.0155718
852.163	0.0156243
852.241	0.0155162
852.319	0.0155308
852.397	0.0155550
852.475	0.0156895
852.553	0.0155483
852.631	0.0155634
852.709	0.0156142
852.788	0.0157163
852.866	0.0155596
852.944	0.0156128
853.022	0.0157938
853.100	0.0157571
853.178	0.0158781
853.256	0.0159119
853.334	0.0159378
853.413	0.0161353
853.491	0.0159108
853.569	0.0160735
853.647	0.0160942
853.725	0.0161853
853.803	0.0159599
853.881	0.0161243
853.959	0.0159908
854.038	0.0159549
854.116	0.0158403
854.194	0.0158104
854.272	0.0158649
854.350	0.0156902
854.428	0.0157124
854.506	0.0157238
854.584	0.0156283
854.663	0.0156124
854.741	0.0156319
854.819	0.0155666
854.897	0.0154984
854.975	0.0153687
855.053	0.0154139
855.131	0.0154177
855.209	0.0152085
855.288	0.0153024
855.366	0.0153146
855.444	0.0151820
855.522	0.0153763
855.600	0.0153352
855.678	0.0154175
855.756	0.0154192
855.834	0.0153691
855.913	0.0154856
855.991	0.0154774
856.069	0.0155867
856.147	0.0156545
856.225	0.0156026
856.303	0.0155918
856.381	0.0156037
856.459	0.0156237
856.538	0.0156957
856.616	0.0157343
856.694	0.0157580
856.772	0.0156297
856.850	0.0154385
856.928	0.0153959
857.006	0.0156765
857.084	0.0153084
857.163	0.0153062
857.241	0.0154107
857.319	0.0154391
857.397	0.0153194
857.475	0.0152477
857.553	0.0153620
857.631	0.0152441
857.709	0.0154530
857.788	0.0152350
857.866	0.0153265
857.944	0.0153343
858.022	0.0155165
858.100	0.0154485
858.178	0.0154660
858.256	0.0155167
858.334	0.0156068
858.413	0.0157061
858.491	0.0157244
858.569	0.0158250
858.647	0.0158311
858.725	0.0159289
858.803	0.0159835
858.881	0.0159142
858.959	0.0159205
859.038	0.0159315
859.116	0.0159396
859.194	0.0159125
859.272	0.0158740
859.350	0.0158437
859.428	0.0158556
859.506	0.0157566
859.584	0.0155965
859.663	0.0158646
859.741	0.0156876
859.819	0.0156841
859.897	0.0157343
859.975	0.0157150
860.053	0.0156269
860.131	0.0156966
860.209	0.0156187
860.288	0.0156343
860.366	0.0156789
860.444	0.0156800
860.522	0.0158401
860.600	0.0157906
860.678	0.0158380
860.756	0.0159230
860.834	0.0158025
860.913	0.0158096
860.991	0.0158465
861.069	0.0158829
861.147	0.0159945
861.225	0.0159323
861.303	0.0158772
861.381	0.0156246
861.459	0.0158366
861.538	0.0158952
861.616	0.0158475
861.694	0.0157551
861.772	0.0157559
861.850	0.0158130
861.928	0.0159016
862.006	0.0156465
862.084	0.0156557
862.163	0.0157251
862.241	0.0157266
862.319	0.0156207
862.397	0.0157446
862.475	0.0155823
862.553	0.0155682
862.631	0.0155174
862.709	0.0155630
862.788	0.0155825
862.866	0.0155121
862.944	0.0156433
863.022	0.0155449
863.100	0.0154243
863.178	0.0154166
863.256	0.0154869
863.334	0.0154889
863.413	0.0154793
863.491	0.0153410
863.569	0.0155375
863.647	0.0155577
863.725	0.0154469
863.803	0.0155032
863.881	0.0155546
863.959	0.0156280
864.038	0.0156054
864.116	0.0155643
864.194	0.0157037
864.272	0.0157482
864.350	0.0157265
864.428	0.0156771
864.506	0.0156374
864.584	0.0157401
864.663	0.0157126
864.741	0.0157359
864.819	0.0158215
864.897	0.0156857
864.975	0.0157438
865.053	0.0157970
865.131	0.0155261
865.209	0.0157371
865.288	0.0156834
865.366	0.0155725
865.444	0.0156490
865.522	0.0155412
865.600	0.0154763
865.678	0.0154399
865.756	0.0154774
865.834	0.0155127
865.913	0.0154659
865.991	0.0154111
866.069	0.0154581
866.147	0.0153954
866.225	0.0153308
866.303	0.0155365
866.381	0.0154498
866.459	0.0154858
866.538	0.0154659
866.616	0.0155408
866.694	0.0156194
866.772	0.0157374
866.850	0.0156682
866.928	0.0159379
867.006	0.0159545
867.084	0.0160077
867.163	0.0161382
867.241	0.0160802
867.319	0.0160237
867.397	0.0161860
867.475	0.0162086
867.553	0.0161673
867.631	0.0160253
867.709	0.0160837
867.788	0.0161448
867.866	0.0159797
867.944	0.0159277
868.022	0.0159888
868.100	0.0157574
868.178	0.0158028
868.256	0.0158334
868.334	0.0158843
868.413	0.0157483
868.491	0.0155782
868.569	0.0157088
868.647	0.0157549
868.725	0.0154610
868.803	0.0155816
868.881	0.0156316
868.959	0.0156415
869.038	0.0156429
869.116	0.0156541
869.194	0.0155231
869.272	0.0155757
869.350	0.0155729
869.428	0.0155048
869.506	0.0156619
869.584	0.0156193
869.663	0.0158051
869.741	0.0158117
869.819	0.0157568
869.897	0.0157229
869.975	0.0156946
870.053	0.0158665
870.131	0.0158308
870.209	0.0158372
870.288	0.0157642
870.366	0.0158452
870.444	0.0158168
870.522	0.0157824
870.600	0.0156691
870.678	0.0156432
870.756	0.0155755
870.834	0.0156091
870.913	0.0155420
870.991	0.0154548
871.069	0.0154390
871.147	0.0154755
871.225	0.0156121
871.303	0.0155292
871.381	0.0155338
871.459	0.0153670
871.538	0.0155870
871.616	0.0155193
871.694	0.0154593
871.772	0.0156232
871.850	0.0155070
871.928	0.0156754
872.006	0.0156208
872.084	0.0156467
872.163	0.0156910
872.241	0.0156089
872.319	0.0156992
872.397	0.0156310
872.475	0.0156976
872.553	0.0155437
872.631	0.0155981
872.709	0.0154296
872.788	0.0155592
872.866	0.0155669
872.944	0.0154990
873.022	0.0153713
873.100	0.0154430
873.178	0.0153226
873.256	0.0154725
873.334	0.0154234
873.413	0.0154428
873.491	0.0154219
873.569	0.0154179
873.647	0.0153996
873.725	0.0153619
873.803	0.0155052
873.881	0.0153103
873.959	0.0153170
874.038	0.0153739
874.116	0.0153957
874.194	0.0154667
874.272	0.0155185
874.350	0.0155499
874.428	0.0156097
874.506	0.0156592
874.584	0.0157230
874.663	0.0156167
874.741	0.0156659
874.819	0.0156421
874.897	0.0157974
874.975	0.0155650
875.053	0.0157473
875.131	0.0157187
875.209	0.0156627
875.288	0.0157165
875.366	0.0157381
875.444	0.0157058
875.522	0.0157984
875.600	0.0157227
875.678	0.0157510
875.756	0.0158417
875.834	0.0157883
875.913	0.0158334
875.991	0.0157063
876.069	0.0157793
876.147	0.0155908
876.225	0.0155106
876.303	0.0157204
876.381	0.0155740
876.459	0.0154855
876.538	0.0155679
876.616	0.0154591
876.694	0.0155099
876.772	0.0156106
876.850	0.0155400
876.928	0.0153932
877.006	0.0154430
877.084	0.0154865
877.163	0.0155731
877.241	0.0156604
877.319	0.0156668
877.397	0.0157761
877.475	0.0156623
877.553	0.0156801
877.631	0.0156372
877.709	0.0156846
877.788	0.0157665
877.866	0.0157532
877.944	0.0158166
878.022	0.0157562
878.100	0.0156843
878.178	0.0157516
878.256	0.0155671
878.334	0.0156458
878.413	0.0155604
878.491	0.0155582
878.569	0.0154768
878.647	0.0154390
878.725	0.0154005
878.803	0.0154190
878.881	0.0152960
878.959	0.0153918
879.038	0.0154218
879.116	0.0153799
879.194	0.0155338
879.272	0.0154411
879.350	0.0154871
879.428	0.0156775
879.506	0.0155901
879.584	0.0155319
879.663	0.0156281
879.741	0.0156758
879.819	0.0156256
879.897	0.0155738
879.975	0.0156200
880.053	0.0156670
880.131	0.0157453
880.209	0.0156226
880.288	0.0157307
880.366	0.0156319
880.444	0.0156615
880.522	0.0156261
880.600	0.0156754
880.678	0.0157024
880.756	0.0155981
880.834	0.0157076
880.913	0.0156664
880.991	0.0155500
881.069	0.0156708
881.147	0.0155444
881.225	0.0155980
881.303	0.0155036
881.381	0.0154550
881.459	0.0155100
881.538	0.0154967
881.616	0.0155341
881.694	0.0155052
881.772	0.0154666
881.850	0.0154165
881.928	0.0155040
882.006	0.0157738
882.084	0.0156358
882.163	0.0157384
882.241	0.0157696
882.319	0.0157955
882.397	0.0158317
882.475	0.0159949
882.553	0.0161002
882.631	0.0159589
882.709	0.0160948
882.788	0.0158917
882.866	0.0159813
882.944	0.0158809
883.022	0.0160571
883.100	0.0159037
883.178	0.0157770
883.256	0.0158661
883.334	0.0157200
883.413	0.0156647
883.491	0.0156514
883.569	0.0155275
883.647	0.0154804
883.725	0.0155757
883.803	0.0156649
883.881	0.0156080
883.959	0.0156840
884.038	0.0155473
884.116	0.0155954
884.194	0.0154094
884.272	0.0153693
884.350	0.0155605
884.428	0.0154008
884.506	0.0154678
884.584	0.0153626
884.663	0.0154766
884.741	0.0155015
884.819	0.0153563
884.897	0.0154839
884.975	0.0155228
885.053	0.0155746
885.131	0.0157346
885.209	0.0159208
885.288	0.0159957
885.366	0.0158794
885.444	0.0159983
885.522	0.0160562
885.600	0.0161179
885.678	0.0160739
885.756	0.0161315
885.834	0.0160003
885.913	0.0160395
885.991	0.0160720
886.069	0.0158649
886.147	0.0160277
886.225	0.0158907
886.303	0.0158344
886.381	0.0157503
886.459	0.0157892
886.538	0.0156126
886.616	0.0155113
886.694	0.0155464
886.772	0.0155187
886.850	0.0154210
886.928	0.0154670
887.006	0.0155492
887.084	0.0154996
887.163	0.0155389
887.241	0.0152992
887.319	0.0152834
887.397	0.0152691
887.475	0.0152374
887.553	0.0154068
887.631	0.0152388
887.709	0.0153438
887.788	0.0153838
887.866	0.0154797
887.944	0.0154335
888.022	0.0155981
888.100	0.0156456
888.178	0.0156009
888.256	0.0157088
888.334	0.0159151
888.413	0.0158826
888.491	0.0159413
888.569	0.0159441
888.647	0.0159282
888.725	0.0158826
888.803	0.0158910
888.881	0.0159680
888.959	0.0158992
889.038	0.0158964
889.116	0.0157797
889.194	0.0156688
889.272	0.0155537
889.350	0.0155326
889.428	0.0153786
889.506	0.0154672
889.584	0.0154251
889.663	0.0154485
889.741	0.0154576
889.819	0.0154082
889.897	0.0154070
889.975	0.0154463
890.053	0.0154221
890.131	0.0155479
890.209	0.0154890
890.288	0.0154668
890.366	0.0155206
890.444	0.0154398
890.522	0.0155238
890.600	0.0155849
890.678	0.0156171
890.756	0.0156597
890.834	0.0156716
890.913	0.0157967
890.991	0.0159060
891.069	0.0157957
891.147	0.0158250
891.225	0.0159324
891.303	0.0161121
891.381	0.0159395
891.459	0.0159527
891.538	0.0162372
891.616	0.0161498
891.694	0.0159746
891.772	0.0159997
891.850	0.0159163
891.928	0.0159302
892.006	0.0158731
892.084	0.0159773
892.163	0.0158248
892.241	0.0159167
892.319	0.0159869
892.397	0.0158065
892.475	0.0158855
892.553	0.0158714
892.631	0.0158410
892.709	0.0158733
892.788	0.0156426
892.866	0.0156663
892.944	0.0157379
893.022	0.0157037
893.100	0.0155827
893.178	0.0156002
893.256	0.0155304
893.334	0.0155383
893.413	0.0155057
893.491	0.0154739
893.569	0.0154366
893.647	0.0154163
893.725	0.0154232
893.803	0.0154440
893.881	0.0153637
893.959	0.0154226
894.038	0.0153815
894.116	0.0153979
894.194	0.0155263
894.272	0.0155836
894.350	0.0156165
894.428	0.0156061
894.506	0.0157024
894.584	0.0157184
894.663	0.0157614
894.741	0.0156818
894.819	0.0159662
894.897	0.0157945
894.975	0.0158820
895.053	0.0157904
895.131	0.0160210
895.209	0.0159908
895.288	0.0158512
895.366	0.0158030
895.444	0.0159256
895.522	0.0158430
895.600	0.0157695
895.678	0.0158479
895.756	0.0158083
895.834	0.0157851
895.913	0.0156548
895.991	0.0157034
896.069	0.0156269
896.147	0.0157238
896.225	0.0154379
896.303	0.0155484
896.381	0.0155162
896.459	0.0153963
896.538	0.0152784
896.616	0.0150568
896.694	0.0152367
896.772	0.0154144
896.850	0.0153072
896.928	0.0153499
897.006	0.0153687
897.084	0.0154219
897.163	0.0153520
897.241	0.0153839
897.319	0.0153313
897.397	0.0155889
897.475	0.0156160
897.553	0.0155610
897.631	0.0155443
897.709	0.0158695
897.788	0.0157717
897.866	0.0158397
897.944	0.0157450
898.022	0.0157960
898.100	0.0158733
898.178	0.0158524
898.256	0.0157870
898.334	0.0158422
898.413	0.0158201
898.491	0.0157930
898.569	0.0158982
898.647	0.0157702
898.725	0.0158636
898.803	0.0158136
898.881	0.0159556
898.959	0.0158847
899.038	0.0157361
899.116	0.0157982
899.194	0.0158507
899.272	0.0157108
899.350	0.0157340
899.428	0.0156612
899.506	0.0154726
899.584	0.0155674
899.663	0.0155644
899.741	0.0155648
899.819	0.0155365
899.897	0.0155221
899.975	0.0154887
900.053	0.0154935
900.131	0.0156826
900.209	0.0155842
900.288	0.0157114
900.366	0.0156168
900.444	0.0157825
900.522	0.0156095
900.600	0.0156520
900.678	0.0157854
900.756	0.0157209
900.834	0.0157980
900.913	0.0158048
900.991	0.0156747
901.069	0.0157123
901.147	0.0156161
901.225	0.0155915
901.303	0.0155761
901.381	0.0155149
901.459	0.0154970
901.538	0.0157188
901.616	0.0156739
901.694	0.0155420
901.772	0.0155689
901.850	0.0157750
901.928	0.0158492
902.006	0.0156879
902.084	0.0158279
902.163	0.0158836
902.241	0.0159029
902.319	0.0158598
902.397	0.0158660
902.475	0.0158873
902.553	0.0157470
902.631	0.0158819
902.709	0.0157926
902.788	0.0157561
902.866	0.0157561
902.944	0.0157710
903.022	0.0156675
903.100	0.0156586
903.178	0.0155304
903.256	0.0156367
903.334	0.0156767
903.413	0.0156685
903.491	0.0157072
903.569	0.0155841
903.647	0.0156486
903.725	0.0155638
903.803	0.0155228
903.881	0.0155779
903.959	0.0154608
904.038	0.0155515
904.116	0.0156303
904.194	0.0156242
904.272	0.0156165
904.350	0.0156551
904.428	0.0157413
904.506	0.0158029
904.584	0.0159388
904.663	0.0159570
904.741	0.0159155
904.819	0.0157787
904.897	0.0159849
904.975	0.0161462
905.053	0.0158849
905.131	0.0158642
905.209	0.0158931
905.288	0.0158624
905.366	0.0159824
905.444	0.0157806
905.522	0.0156693
905.600	0.0156094
905.678	0.0157365
905.756	0.0155360
905.834	0.0156482
905.913	0.0156326
905.991	0.0156122
906.069	0.0156252
906.147	0.0155920
906.225	0.0154665
906.303	0.0155959
906.381	0.0156245
906.459	0.0154008
906.538	0.0155985
906.616	0.0155308
906.694	0.0154538
906.772	0.0155695
906.850	0.0156041
906.928	0.0156520
907.006	0.0155843
907.084	0.0156520
907.163	0.0155791
907.241	0.0156793
907.319	0.0156143
907.397	0.0158620
907.475	0.0158477
907.553	0.0157507
907.631	0.0157732
907.709	0.0159370
907.788	0.0158786
907.866	0.0158916
907.944	0.0158632
908.022	0.0159599
908.100	0.0160466
908.178	0.0160060
908.256	0.0160605
908.334	0.0160098
908.413	0.0160831
908.491	0.0159724
908.569	0.0158467
908.647	0.0157500
908.725	0.0157734
908.803	0.0157378
908.881	0.0156624
908.959	0.0157680
909.038	0.0158549
909.116	0.0156641
909.194	0.0157081
909.272	0.0155988
909.350	0.0156415
909.428	0.0156421
909.506	0.0157111
909.584	0.0157050
909.663	0.0156548
909.741	0.0157471
909.819	0.0157275
909.897	0.0157819
909.975	0.0156619
910.053	0.0156216
910.131	0.0156005
910.209	0.0156348
910.288	0.0158228
910.366	0.0157785
910.444	0.0156062
910.522	0.0157784
910.600	0.0157178
910.678	0.0156220
910.756	0.0158638
910.834	0.0156582
910.913	0.0156931
910.991	0.0157446
911.069	0.0157317
911.147	0.0156901
911.225	0.0156068
911.303	0.0157538
911.381	0.0156983
911.459	0.0158075
911.538	0.0158509
911.616	0.0157175
911.694	0.0157737
911.772	0.0157459
911.850	0.0157311
911.928	0.0158163
912.006	0.0157107
912.084	0.0156750
912.163	0.0156700
912.241	0.0155799
912.319	0.0155076
912.397	0.0156459
912.475	0.0156339
912.553	0.0156977
912.631	0.0155656
912.709	0.0157237
912.788	0.0158082
912.866	0.0154768
912.944	0.0156145
913.022	0.0156322
913.100	0.0155950
913.178	0.0156023
913.256	0.0156379
913.334	0.0155390
913.413	0.0156430
913.491	0.0155535
913.569	0.0157347
913.647	0.0157481
913.725	0.0156532
913.803	0.0158162
913.881	0.0157897
913.959	0.0158513
914.038	0.0157428
914.116	0.0157662
914.194	0.0157005
914.272	0.0158977
914.350	0.0159209
914.428	0.0159383
914.506	0.0159013
914.584	0.0158836
914.663	0.0158709
914.741	0.0157594
914.819	0.0156848
914.897	0.0159409
914.975	0.0158692
915.053	0.0157330
915.131	0.0157982
915.209	0.0158381
915.288	0.0158736
915.366	0.0157728
915.444	0.0156799
915.522	0.0158342
915.600	0.0157993
915.678	0.0158578
915.756	0.0158099
915.834	0.0159316
915.913	0.0158602
915.991	0.0157907
916.069	0.0157696
916.147	0.0158434
916.225	0.0158909
916.303	0.0156243
916.381	0.0156526
916.459	0.0155727
916.538	0.0155561
916.616	0.0156624
916.694	0.0155565
916.772	0.0155536
916.850	0.0155360
916.928	0.0155837
917.006	0.0155573
917.084	0.0156488
917.163	0.0155645
917.241	0.0154559
917.319	0.0155004
917.397	0.0155467
917.475	0.0154825
917.553	0.0154661
917.631	0.0153733
917.709	0.0154524
917.788	0.0155602
917.866	0.0154041
917.944	0.0153488
918.022	0.0153931
918.100	0.0154368
918.178	0.0154711
918.256	0.0155402
918.334	0.0155504
918.413	0.0155849
918.491	0.0157001
918.569	0.0156118
918.647	0.0156799
918.725	0.0156731
918.803	0.0158426
918.881	0.0157460
918.959	0.0157861
919.038	0.0157353
919.116	0.0157384
919.194	0.0158153
919.272	0.0157751
919.350	0.0157143
919.428	0.0156537
919.506	0.0157650
919.584	0.0157358
919.663	0.0156984
919.741	0.0157064
919.819	0.0156203
919.897	0.0157165
