05/20/2022	20:59:58	Ver.	4.1	UNKNOWN
Optical Delay	599.975067	Delta X		0.078125	Sweeps	1	Scan Rate	0/0
Coordinates	Axis 1	NaN	Axis 2	NaN	Axis 3	NaN	Axis 4	NaN	Axis 5	NaN	Axis 6	0.000000
TX Power	0.000000	RX Power	0.000000

599.975	0.0160696
600.053	0.0159035
600.131	0.0159933
600.209	0.0162060
600.288	0.0160709
600.366	0.0160828
600.444	0.0159993
600.522	0.0160734
600.600	0.0159982
600.678	0.0160912
600.756	0.0160416
600.834	0.0159973
600.913	0.0160049
600.991	0.0161112
601.069	0.0160640
601.147	0.0159605
601.225	0.0159771
601.303	0.0161366
601.381	0.0160953
601.459	0.0160638
601.538	0.0160555
601.616	0.0161174
601.694	0.0160303
601.772	0.0160856
601.850	0.0159280
601.928	0.0161381
602.006	0.0161395
602.084	0.0160107
602.163	0.0159398
602.241	0.0159411
602.319	0.0160085
602.397	0.0160531
602.475	0.0160620
602.553	0.0159994
602.631	0.0161098
602.709	0.0160709
602.788	0.0160133
602.866	0.0161089
602.944	0.0160660
603.022	0.0159791
603.100	0.0161243
603.178	0.0160204
603.256	0.0161409
603.334	0.0160094
603.413	0.0160920
603.491	0.0160051
603.569	0.0161255
603.647	0.0159225
603.725	0.0161318
603.803	0.0161483
603.881	0.0160789
603.959	0.0159872
604.038	0.0159287
604.116	0.0159563
604.194	0.0160181
604.272	0.0160906
604.350	0.0161280
604.428	0.0160720
604.506	0.0159843
604.584	0.0161090
604.663	0.0159846
604.741	0.0159920
604.819	0.0160062
604.897	0.0159392
604.975	0.0160383
605.053	0.0160362
605.131	0.0161025
605.209	0.0160551
605.288	0.0160038
605.366	0.0160822
605.444	0.0160868
605.522	0.0160531
605.600	0.0160369
605.678	0.0159590
605.756	0.0159987
605.834	0.0159537
605.913	0.0161755
605.991	0.0162186
606.069	0.0161372
606.147	0.0160976
606.225	0.0160464
606.303	0.0160683
606.381	0.0160654
606.459	0.0161050
606.538	0.0160450
606.616	0.0160921
606.694	0.0159607
606.772	0.0160271
606.850	0.0160860
606.928	0.0158665
607.006	0.0160271
607.084	0.0161179
607.163	0.0159976
607.241	0.0160886
607.319	0.0161459
607.397	0.0159876
607.475	0.0160088
607.553	0.0158907
607.631	0.0160698
607.709	0.0161740
607.788	0.0159545
607.866	0.0159692
607.944	0.0160508
608.022	0.0159799
608.100	0.0159988
608.178	0.0159063
608.256	0.0159649
608.334	0.0161936
608.413	0.0160474
608.491	0.0159389
608.569	0.0160081
608.647	0.0161210
608.725	0.0160332
608.803	0.0159632
608.881	0.0160140
608.959	0.0159536
609.038	0.0160552
609.116	0.0160287
609.194	0.0160600
609.272	0.0161113
609.350	0.0160879
609.428	0.0160921
609.506	0.0159684
609.584	0.0161004
609.663	0.0160954
609.741	0.0159830
609.819	0.0159888
609.897	0.0161066
609.975	0.0161132
610.053	0.0160321
610.131	0.0160401
610.209	0.0159932
610.288	0.0160728
610.366	0.0161216
610.444	0.0162086
610.522	0.0161409
610.600	0.0161539
610.678	0.0159843
610.756	0.0161812
610.834	0.0161468
610.913	0.0160837
610.991	0.0160330
611.069	0.0161364
611.147	0.0160572
611.225	0.0160894
611.303	0.0161685
611.381	0.0161755
611.459	0.0160049
611.538	0.0161132
611.616	0.0161979
611.694	0.0159407
611.772	0.0160582
611.850	0.0160250
611.928	0.0161651
612.006	0.0161235
612.084	0.0161039
612.163	0.0161356
612.241	0.0160058
612.319	0.0160342
612.397	0.0159626
612.475	0.0161450
612.553	0.0160990
612.631	0.0160759
612.709	0.0161081
612.788	0.0160130
612.866	0.0160300
612.944	0.0159686
613.022	0.0161402
613.100	0.0162012
613.178	0.0161008
613.256	0.0162021
613.334	0.0160429
613.413	0.0159284
613.491	0.0161772
613.569	0.0160159
613.647	0.0159701
613.725	0.0161620
613.803	0.0160687
613.881	0.0160960
613.959	0.0160168
614.038	0.0160856
614.116	0.0160632
614.194	0.0161555
614.272	0.0161171
614.350	0.0160992
614.428	0.0161906
614.506	0.0162075
614.584	0.0161191
614.663	0.0161679
614.741	0.0160360
614.819	0.0161526
614.897	0.0161669
614.975	0.0161784
615.053	0.0160915
615.131	0.0160247
615.209	0.0162088
615.288	0.0161795
615.366	0.0160706
615.444	0.0162245
615.522	0.0161568
615.600	0.0160979
615.678	0.0161054
615.756	0.0161809
615.834	0.0160388
615.913	0.0160686
615.991	0.0160823
616.069	0.0161533
616.147	0.0160546
616.225	0.0162693
616.303	0.0161917
616.381	0.0159959
616.459	0.0160048
616.538	0.0162034
616.616	0.0162223
616.694	0.0161900
616.772	0.0160970
616.850	0.0161295
616.928	0.0162173
617.006	0.0161939
617.084	0.0162209
617.163	0.0162850
617.241	0.0161536
617.319	0.0160786
617.397	0.0162517
617.475	0.0161275
617.553	0.0162815
617.631	0.0162125
617.709	0.0162865
617.788	0.0161687
617.866	0.0160879
617.944	0.0162992
618.022	0.0162047
618.100	0.0161390
618.178	0.0161382
618.256	0.0162400
618.334	0.0162418
618.413	0.0162360
618.491	0.0161874
618.569	0.0161560
618.647	0.0161719
618.725	0.0161838
618.803	0.0161040
618.881	0.0160556
618.959	0.0161796
619.038	0.0161356
619.116	0.0161752
619.194	0.0161966
619.272	0.0160972
619.350	0.0162132
619.428	0.0161492
619.506	0.0161991
619.584	0.0161118
619.663	0.0160940
619.741	0.0161064
619.819	0.0163082
619.897	0.0160520
619.975	0.0160410
620.053	0.0161291
620.131	0.0160059
620.209	0.0160205
620.288	0.0161530
620.366	0.0161391
620.444	0.0160622
620.522	0.0160617
620.600	0.0161854
620.678	0.0160833
620.756	0.0161024
620.834	0.0160728
620.913	0.0161017
620.991	0.0159338
621.069	0.0160193
621.147	0.0159186
621.225	0.0159361
621.303	0.0158905
621.381	0.0159296
621.459	0.0159792
621.538	0.0161231
621.616	0.0160284
621.694	0.0159789
621.772	0.0159603
621.850	0.0160696
621.928	0.0160417
622.006	0.0160266
622.084	0.0159409
622.163	0.0159764
622.241	0.0159911
622.319	0.0160917
622.397	0.0159771
622.475	0.0160516
622.553	0.0159447
622.631	0.0159413
622.709	0.0159324
622.788	0.0159018
622.866	0.0159464
622.944	0.0159588
623.022	0.0157697
623.100	0.0158810
623.178	0.0158214
623.256	0.0159731
623.334	0.0158531
623.413	0.0158973
623.491	0.0158442
623.569	0.0157123
623.647	0.0157134
623.725	0.0158640
623.803	0.0158121
623.881	0.0157521
623.959	0.0158804
624.038	0.0159554
624.116	0.0160198
624.194	0.0158486
624.272	0.0159373
624.350	0.0159444
624.428	0.0158617
624.506	0.0158360
624.584	0.0157806
624.663	0.0160117
624.741	0.0157773
624.819	0.0157632
624.897	0.0158925
624.975	0.0160202
625.053	0.0159039
625.131	0.0157600
625.209	0.0159119
625.288	0.0159998
625.366	0.0158134
625.444	0.0159602
625.522	0.0159279
625.600	0.0158939
625.678	0.0158472
625.756	0.0158733
625.834	0.0159263
625.913	0.0159648
625.991	0.0159039
626.069	0.0159387
626.147	0.0158607
626.225	0.0158820
626.303	0.0160537
626.381	0.0160256
626.459	0.0159842
626.538	0.0158384
626.616	0.0159732
626.694	0.0159755
626.772	0.0158768
626.850	0.0160505
626.928	0.0160831
627.006	0.0160108
627.084	0.0159411
627.163	0.0160548
627.241	0.0159830
627.319	0.0159516
627.397	0.0159647
627.475	0.0159858
627.553	0.0160580
627.631	0.0161662
627.709	0.0161127
627.788	0.0158769
627.866	0.0160638
627.944	0.0159230
628.022	0.0159893
628.100	0.0160619
628.178	0.0160281
628.256	0.0161249
628.334	0.0160894
628.413	0.0160210
628.491	0.0159679
628.569	0.0161509
628.647	0.0159699
628.725	0.0160881
628.803	0.0159937
628.881	0.0159140
628.959	0.0159769
629.038	0.0161060
629.116	0.0160749
629.194	0.0160171
629.272	0.0160003
629.350	0.0160252
629.428	0.0159578
629.506	0.0160113
629.584	0.0159656
629.663	0.0158752
629.741	0.0160233
629.819	0.0159319
629.897	0.0160634
629.975	0.0159135
630.053	0.0161657
630.131	0.0160886
630.209	0.0160471
630.288	0.0161233
630.366	0.0159042
630.444	0.0161059
630.522	0.0161642
630.600	0.0160799
630.678	0.0159987
630.756	0.0160953
630.834	0.0159715
630.913	0.0161013
630.991	0.0160242
631.069	0.0161322
631.147	0.0161941
631.225	0.0161987
631.303	0.0162601
631.381	0.0160197
631.459	0.0161308
631.538	0.0160995
631.616	0.0161965
631.694	0.0161479
631.772	0.0160958
631.850	0.0160291
631.928	0.0161864
632.006	0.0162199
632.084	0.0161735
632.163	0.0160851
632.241	0.0161275
632.319	0.0162518
632.397	0.0160745
632.475	0.0161275
632.553	0.0161568
632.631	0.0160619
632.709	0.0160809
632.788	0.0161405
632.866	0.0160909
632.944	0.0160787
633.022	0.0161919
633.100	0.0160245
633.178	0.0160774
633.256	0.0161319
633.334	0.0160831
633.413	0.0161797
633.491	0.0161943
633.569	0.0160632
633.647	0.0161061
633.725	0.0160567
633.803	0.0160835
633.881	0.0161291
633.959	0.0161992
634.038	0.0160752
634.116	0.0160598
634.194	0.0160249
634.272	0.0160600
634.350	0.0162103
634.428	0.0162337
634.506	0.0161858
634.584	0.0161192
634.663	0.0161332
634.741	0.0161792
634.819	0.0162050
634.897	0.0161602
634.975	0.0160785
635.053	0.0162205
635.131	0.0161509
635.209	0.0161369
635.288	0.0160616
635.366	0.0161679
635.444	0.0160167
635.522	0.0162151
635.600	0.0161141
635.678	0.0161719
635.756	0.0161536
635.834	0.0160935
635.913	0.0162396
635.991	0.0161664
636.069	0.0160670
636.147	0.0161624
636.225	0.0161182
636.303	0.0161809
636.381	0.0162097
636.459	0.0161580
636.538	0.0160959
636.616	0.0162221
636.694	0.0162979
636.772	0.0161904
636.850	0.0161261
636.928	0.0162817
637.006	0.0162229
637.084	0.0161546
637.163	0.0161662
637.241	0.0162476
637.319	0.0162045
637.397	0.0163353
637.475	0.0162080
637.553	0.0161919
637.631	0.0161573
637.709	0.0161870
637.788	0.0161052
637.866	0.0160704
637.944	0.0161839
638.022	0.0162244
638.100	0.0162451
638.178	0.0161406
638.256	0.0162396
638.334	0.0160787
638.413	0.0162235
638.491	0.0162637
638.569	0.0162131
638.647	0.0162535
638.725	0.0161488
638.803	0.0160632
638.881	0.0160165
638.959	0.0162231
639.038	0.0161753
639.116	0.0162002
639.194	0.0162537
639.272	0.0163091
639.350	0.0162981
639.428	0.0162671
639.506	0.0161920
639.584	0.0162458
639.663	0.0161107
639.741	0.0161246
639.819	0.0160870
639.897	0.0162090
639.975	0.0161192
640.053	0.0162321
640.131	0.0162646
640.209	0.0162482
640.288	0.0161311
640.366	0.0161271
640.444	0.0161785
640.522	0.0162710
640.600	0.0161697
640.678	0.0162092
640.756	0.0162376
640.834	0.0162573
640.913	0.0160813
640.991	0.0163288
641.069	0.0161768
641.147	0.0161415
641.225	0.0162573
641.303	0.0160403
641.381	0.0162347
641.459	0.0161512
641.538	0.0161932
641.616	0.0161811
641.694	0.0160320
641.772	0.0161216
641.850	0.0160932
641.928	0.0160754
642.006	0.0160384
642.084	0.0162095
642.163	0.0161985
642.241	0.0159953
642.319	0.0159787
642.397	0.0160981
642.475	0.0160506
642.553	0.0159111
642.631	0.0160773
642.709	0.0159579
642.788	0.0161800
642.866	0.0160172
642.944	0.0160655
643.022	0.0160416
643.100	0.0159474
643.178	0.0159856
643.256	0.0160101
643.334	0.0160963
643.413	0.0159398
643.491	0.0158201
643.569	0.0160742
643.647	0.0159801
643.725	0.0159680
643.803	0.0159905
643.881	0.0158865
643.959	0.0159090
644.038	0.0158276
644.116	0.0160071
644.194	0.0159446
644.272	0.0160500
644.350	0.0158460
644.428	0.0159400
644.506	0.0159470
644.584	0.0158542
644.663	0.0158773
644.741	0.0160774
644.819	0.0159090
644.897	0.0159605
644.975	0.0159826
645.053	0.0159352
645.131	0.0158787
645.209	0.0158899
645.288	0.0158070
645.366	0.0159896
645.444	0.0159650
645.522	0.0158452
645.600	0.0158578
645.678	0.0159266
645.756	0.0159388
645.834	0.0158801
645.913	0.0159380
645.991	0.0158420
646.069	0.0158926
646.147	0.0159602
646.225	0.0159122
646.303	0.0160405
646.381	0.0158691
646.459	0.0158595
646.538	0.0159628
646.616	0.0160136
646.694	0.0159236
646.772	0.0158928
646.850	0.0160988
646.928	0.0159766
647.006	0.0158601
647.084	0.0160057
647.163	0.0160064
647.241	0.0159974
647.319	0.0158239
647.397	0.0159749
647.475	0.0159153
647.553	0.0159538
647.631	0.0160381
647.709	0.0157928
647.788	0.0159265
647.866	0.0159207
647.944	0.0160080
648.022	0.0161148
648.100	0.0159029
648.178	0.0159045
648.256	0.0159616
648.334	0.0159913
648.413	0.0159409
648.491	0.0159597
648.569	0.0160641
648.647	0.0159731
648.725	0.0159123
648.803	0.0159887
648.881	0.0158945
648.959	0.0160181
649.038	0.0159917
649.116	0.0160451
649.194	0.0159112
649.272	0.0159546
649.350	0.0158453
649.428	0.0158788
649.506	0.0160310
649.584	0.0158689
649.663	0.0159623
649.741	0.0159372
649.819	0.0160082
649.897	0.0159632
649.975	0.0160328
650.053	0.0159391
650.131	0.0159557
650.209	0.0159555
650.288	0.0159592
650.366	0.0159656
650.444	0.0159689
650.522	0.0160765
650.600	0.0160677
650.678	0.0161194
650.756	0.0161251
650.834	0.0160143
650.913	0.0160280
650.991	0.0161729
651.069	0.0160556
651.147	0.0161016
651.225	0.0159808
651.303	0.0160120
651.381	0.0162048
651.459	0.0160667
651.538	0.0160598
651.616	0.0160603
651.694	0.0161904
651.772	0.0160593
651.850	0.0159491
651.928	0.0161437
652.006	0.0160182
652.084	0.0159985
652.163	0.0160448
652.241	0.0160768
652.319	0.0160431
652.397	0.0159330
652.475	0.0160845
652.553	0.0161042
652.631	0.0161032
652.709	0.0160168
652.788	0.0161391
652.866	0.0161826
652.944	0.0160050
653.022	0.0160606
653.100	0.0161430
653.178	0.0160603
653.256	0.0161390
653.334	0.0160860
653.413	0.0161101
653.491	0.0159742
653.569	0.0160720
653.647	0.0161824
653.725	0.0161107
653.803	0.0161407
653.881	0.0160912
653.959	0.0159532
654.038	0.0162852
654.116	0.0161268
654.194	0.0160970
654.272	0.0159526
654.350	0.0161594
654.428	0.0160659
654.506	0.0161738
654.584	0.0163187
654.663	0.0160307
654.741	0.0161695
654.819	0.0160767
654.897	0.0159601
654.975	0.0161345
655.053	0.0161226
655.131	0.0161655
655.209	0.0159909
655.288	0.0161065
655.366	0.0160433
655.444	0.0162189
655.522	0.0161805
655.600	0.0160011
655.678	0.0159831
655.756	0.0161153
655.834	0.0161253
655.913	0.0161453
655.991	0.0161981
656.069	0.0160806
656.147	0.0161578
656.225	0.0160844
656.303	0.0160932
656.381	0.0162163
656.459	0.0161189
656.538	0.0161613
656.616	0.0160720
656.694	0.0162212
656.772	0.0161736
656.850	0.0162620
656.928	0.0160856
657.006	0.0160149
657.084	0.0162366
657.163	0.0160886
657.241	0.0161803
657.319	0.0161252
657.397	0.0161421
657.475	0.0161414
657.553	0.0161304
657.631	0.0161739
657.709	0.0160517
657.788	0.0159828
657.866	0.0162501
657.944	0.0161615
658.022	0.0160880
658.100	0.0161823
658.178	0.0162641
658.256	0.0161726
658.334	0.0160513
658.413	0.0159870
658.491	0.0161476
658.569	0.0162218
658.647	0.0162308
658.725	0.0162341
658.803	0.0161117
658.881	0.0161731
658.959	0.0161561
659.038	0.0161296
659.116	0.0162039
659.194	0.0161965
659.272	0.0160715
659.350	0.0162859
659.428	0.0162303
659.506	0.0161654
659.584	0.0160277
659.663	0.0160845
659.741	0.0162128
659.819	0.0160033
659.897	0.0159538
659.975	0.0160854
660.053	0.0160960
660.131	0.0160372
660.209	0.0159898
660.288	0.0159621
660.366	0.0161084
660.444	0.0161663
660.522	0.0159750
660.600	0.0160641
660.678	0.0159846
660.756	0.0160075
660.834	0.0161780
660.913	0.0160794
660.991	0.0160880
661.069	0.0160634
661.147	0.0161424
661.225	0.0162821
661.303	0.0162354
661.381	0.0162133
661.459	0.0163957
661.538	0.0163082
661.616	0.0161784
661.694	0.0162350
661.772	0.0163676
661.850	0.0163190
661.928	0.0161894
662.006	0.0162305
662.084	0.0162787
662.163	0.0162666
662.241	0.0161639
662.319	0.0161723
662.397	0.0160501
662.475	0.0160554
662.553	0.0160870
662.631	0.0159761
662.709	0.0159344
662.788	0.0159046
662.866	0.0158350
662.944	0.0159071
663.022	0.0158846
663.100	0.0158454
663.178	0.0158841
663.256	0.0158855
663.334	0.0159622
663.413	0.0158556
663.491	0.0159632
663.569	0.0159814
663.647	0.0159534
663.725	0.0160160
663.803	0.0160748
663.881	0.0161328
663.959	0.0160854
664.038	0.0163515
664.116	0.0162881
664.194	0.0163435
664.272	0.0164311
664.350	0.0163773
664.428	0.0162614
664.506	0.0162265
664.584	0.0163460
664.663	0.0163345
664.741	0.0162309
664.819	0.0163422
664.897	0.0162968
664.975	0.0163151
665.053	0.0163081
665.131	0.0161282
665.209	0.0161333
665.288	0.0162429
665.366	0.0161624
665.444	0.0160921
665.522	0.0159467
665.600	0.0160242
665.678	0.0160620
665.756	0.0158767
665.834	0.0159557
665.913	0.0159110
665.991	0.0159779
666.069	0.0157729
666.147	0.0159203
666.225	0.0160404
666.303	0.0160925
666.381	0.0160112
666.459	0.0159729
666.538	0.0159289
666.616	0.0159361
666.694	0.0161378
666.772	0.0160631
666.850	0.0159886
666.928	0.0159922
667.006	0.0160242
667.084	0.0160202
667.163	0.0159177
667.241	0.0159706
667.319	0.0159117
667.397	0.0159372
667.475	0.0160176
667.553	0.0160030
667.631	0.0160718
667.709	0.0161041
667.788	0.0161940
667.866	0.0161764
667.944	0.0161256
668.022	0.0160886
668.100	0.0162514
668.178	0.0161257
668.256	0.0161658
668.334	0.0162738
668.413	0.0160747
668.491	0.0161512
668.569	0.0162122
668.647	0.0161788
668.725	0.0161733
668.803	0.0161537
668.881	0.0162292
668.959	0.0160791
669.038	0.0162626
669.116	0.0163319
669.194	0.0161023
669.272	0.0161184
669.350	0.0161098
669.428	0.0161510
669.506	0.0162452
669.584	0.0161019
669.663	0.0160500
669.741	0.0160468
669.819	0.0159991
669.897	0.0158142
669.975	0.0159592
670.053	0.0158186
670.131	0.0157931
670.209	0.0157098
670.288	0.0157261
670.366	0.0158023
670.444	0.0157453
670.522	0.0156493
670.600	0.0157131
670.678	0.0156618
670.756	0.0157668
670.834	0.0158263
670.913	0.0158270
670.991	0.0158097
671.069	0.0156622
671.147	0.0159387
671.225	0.0159722
671.303	0.0158347
671.381	0.0159141
671.459	0.0160075
671.538	0.0160936
671.616	0.0162731
671.694	0.0162505
671.772	0.0163318
671.850	0.0162323
671.928	0.0162519
672.006	0.0163840
672.084	0.0164078
672.163	0.0164060
672.241	0.0165659
672.319	0.0164741
672.397	0.0164763
672.475	0.0165218
672.553	0.0165703
672.631	0.0165096
672.709	0.0164913
672.788	0.0163695
672.866	0.0163044
672.944	0.0163412
673.022	0.0163448
673.100	0.0161511
673.178	0.0159985
673.256	0.0159966
673.334	0.0159031
673.413	0.0159365
673.491	0.0159346
673.569	0.0157456
673.647	0.0155238
673.725	0.0155553
673.803	0.0155767
673.881	0.0156084
673.959	0.0155270
674.038	0.0155906
674.116	0.0156665
674.194	0.0156523
674.272	0.0155250
674.350	0.0156429
674.428	0.0156623
674.506	0.0155627
674.584	0.0157442
674.663	0.0157175
674.741	0.0157430
674.819	0.0158460
674.897	0.0160298
674.975	0.0161324
675.053	0.0160933
675.131	0.0162730
675.209	0.0162102
675.288	0.0162285
675.366	0.0162723
675.444	0.0163664
675.522	0.0163376
675.600	0.0165363
675.678	0.0165744
675.756	0.0164284
675.834	0.0163679
675.913	0.0164272
675.991	0.0165034
676.069	0.0165044
676.147	0.0165636
676.225	0.0164416
676.303	0.0163281
676.381	0.0164538
676.459	0.0164565
676.538	0.0163972
676.616	0.0161570
676.694	0.0162307
676.772	0.0160954
676.850	0.0161137
676.928	0.0159976
677.006	0.0159536
677.084	0.0158680
677.163	0.0159238
677.241	0.0156989
677.319	0.0158327
677.397	0.0157617
677.475	0.0157130
677.553	0.0156214
677.631	0.0155859
677.709	0.0154810
677.788	0.0155051
677.866	0.0155499
677.944	0.0156252
678.022	0.0154663
678.100	0.0157412
678.178	0.0157417
678.256	0.0155658
678.334	0.0157355
678.413	0.0159162
678.491	0.0158541
678.569	0.0159471
678.647	0.0159994
678.725	0.0162021
678.803	0.0161451
678.881	0.0161370
678.959	0.0164223
679.038	0.0164075
679.116	0.0163520
679.194	0.0163094
679.272	0.0166012
679.350	0.0164957
679.428	0.0165891
679.506	0.0165528
679.584	0.0165104
679.663	0.0164487
679.741	0.0163838
679.819	0.0163294
679.897	0.0163895
679.975	0.0163400
680.053	0.0162529
680.131	0.0161987
680.209	0.0162515
680.288	0.0161610
680.366	0.0161182
680.444	0.0159377
680.522	0.0160390
680.600	0.0160555
680.678	0.0159982
680.756	0.0159665
680.834	0.0158814
680.913	0.0158331
680.991	0.0158643
681.069	0.0158993
681.147	0.0158760
681.225	0.0157701
681.303	0.0159091
681.381	0.0158340
681.459	0.0158437
681.538	0.0158245
681.616	0.0157975
681.694	0.0159601
681.772	0.0160445
681.850	0.0161545
681.928	0.0163145
682.006	0.0163757
682.084	0.0163672
682.163	0.0163953
682.241	0.0165546
682.319	0.0164903
682.397	0.0165586
682.475	0.0164428
682.553	0.0162987
682.631	0.0162268
682.709	0.0161147
682.788	0.0158430
682.866	0.0156834
682.944	0.0158322
683.022	0.0156149
683.100	0.0155574
683.178	0.0155921
683.256	0.0155461
683.334	0.0156841
683.413	0.0159256
683.491	0.0158818
683.569	0.0159490
683.647	0.0160606
683.725	0.0163003
683.803	0.0164912
683.881	0.0165140
683.959	0.0167116
684.038	0.0168903
684.116	0.0167193
684.194	0.0167225
684.272	0.0168626
684.350	0.0166680
684.428	0.0165391
684.506	0.0164169
684.584	0.0163293
684.663	0.0162962
684.741	0.0161485
684.819	0.0159862
684.897	0.0157893
684.975	0.0157285
685.053	0.0159001
685.131	0.0156776
685.209	0.0158472
685.288	0.0157754
685.366	0.0157176
685.444	0.0158306
685.522	0.0157782
685.600	0.0158294
685.678	0.0158559
685.756	0.0158440
685.834	0.0158436
685.913	0.0158435
685.991	0.0157703
686.069	0.0156846
686.147	0.0156609
686.225	0.0156154
686.303	0.0155158
686.381	0.0156930
686.459	0.0156567
686.538	0.0156250
686.616	0.0159003
686.694	0.0158654
686.772	0.0160990
686.850	0.0161152
686.928	0.0161726
687.006	0.0163934
687.084	0.0167013
687.163	0.0168554
687.241	0.0169223
687.319	0.0170797
687.397	0.0171468
687.475	0.0171957
687.553	0.0171889
687.631	0.0172488
687.709	0.0171877
687.788	0.0170186
687.866	0.0169291
687.944	0.0168256
688.022	0.0165379
688.100	0.0163746
688.178	0.0160722
688.256	0.0158621
688.334	0.0157487
688.413	0.0157130
688.491	0.0155700
688.569	0.0153941
688.647	0.0154390
688.725	0.0153481
688.803	0.0152343
688.881	0.0152247
688.959	0.0150642
689.038	0.0150974
689.116	0.0148870
689.194	0.0147095
689.272	0.0144482
689.350	0.0143340
689.428	0.0143681
689.506	0.0143726
689.584	0.0144079
689.663	0.0145889
689.741	0.0149299
689.819	0.0152988
689.897	0.0158054
689.975	0.0162690
690.053	0.0167068
690.131	0.0171862
690.209	0.0177065
690.288	0.0182140
690.366	0.0185590
690.444	0.0185507
690.522	0.0185564
690.600	0.0187273
690.678	0.0184747
690.756	0.0183109
690.834	0.0179568
690.913	0.0175611
690.991	0.0172995
691.069	0.0170135
691.147	0.0166730
691.225	0.0163648
691.303	0.0161298
691.381	0.0159494
691.459	0.0157165
691.538	0.0155436
691.616	0.0154181
691.694	0.0152483
691.772	0.0151730
691.850	0.0149773
691.928	0.0146069
692.006	0.0143674
692.084	0.0141804
692.163	0.0138956
692.241	0.0139712
692.319	0.0138744
692.397	0.0135935
692.475	0.0139594
692.553	0.0139985
692.631	0.0141458
692.709	0.0143655
692.788	0.0147816
692.866	0.0150940
692.944	0.0154927
693.022	0.0160001
693.100	0.0164082
693.178	0.0168446
693.256	0.0172803
693.334	0.0175304
693.413	0.0177937
693.491	0.0181649
693.569	0.0182521
693.647	0.0184804
693.725	0.0183269
693.803	0.0183367
693.881	0.0184023
693.959	0.0181197
694.038	0.0179702
694.116	0.0178764
694.194	0.0172536
694.272	0.0172738
694.350	0.0167761
694.428	0.0163219
694.506	0.0159651
694.584	0.0155360
694.663	0.0151039
694.741	0.0148835
694.819	0.0146507
694.897	0.0141978
694.975	0.0139669
695.053	0.0137154
695.131	0.0135670
695.209	0.0133154
695.288	0.0134824
695.366	0.0135667
695.444	0.0137137
695.522	0.0139079
695.600	0.0142038
695.678	0.0146057
695.756	0.0148846
695.834	0.0154133
695.913	0.0159634
695.991	0.0163711
696.069	0.0167916
696.147	0.0169865
696.225	0.0173489
696.303	0.0175513
696.381	0.0179690
696.459	0.0179654
696.538	0.0181493
696.616	0.0183053
696.694	0.0182640
696.772	0.0182228
696.850	0.0181257
696.928	0.0182320
697.006	0.0181268
697.084	0.0180203
697.163	0.0178870
697.241	0.0178045
697.319	0.0177355
697.397	0.0174203
697.475	0.0172645
697.553	0.0171916
697.631	0.0169560
697.709	0.0166087
697.788	0.0166574
697.866	0.0161287
697.944	0.0158161
698.022	0.0155942
698.100	0.0151323
698.178	0.0147707
698.256	0.0144298
698.334	0.0139780
698.413	0.0136316
698.491	0.0133401
698.569	0.0128801
698.647	0.0126017
698.725	0.0123791
698.803	0.0123803
698.881	0.0121837
698.959	0.0124017
699.038	0.0127033
699.116	0.0129368
699.194	0.0133257
699.272	0.0136478
699.350	0.0140942
699.428	0.0147404
699.506	0.0152768
699.584	0.0157807
699.663	0.0162985
699.741	0.0168885
699.819	0.0174223
699.897	0.0181321
699.975	0.0184772
700.053	0.0188197
700.131	0.0190701
700.209	0.0195206
700.288	0.0198701
700.366	0.0197847
700.444	0.0199635
700.522	0.0198122
700.600	0.0196627
700.678	0.0194547
700.756	0.0191832
700.834	0.0189358
700.913	0.0186829
700.991	0.0182897
701.069	0.0182224
701.147	0.0178139
701.225	0.0175423
701.303	0.0172562
701.381	0.0169297
701.459	0.0166073
701.538	0.0162521
701.616	0.0157046
701.694	0.0152950
701.772	0.0147531
701.850	0.0143010
701.928	0.0135372
702.006	0.0131888
702.084	0.0127969
702.163	0.0122701
702.241	0.0121692
702.319	0.0119364
702.397	0.0120939
702.475	0.0123391
702.553	0.0125715
702.631	0.0130584
702.709	0.0135806
702.788	0.0139246
702.866	0.0144408
702.944	0.0149975
703.022	0.0152571
703.100	0.0157717
703.178	0.0160390
703.256	0.0163090
703.334	0.0166241
703.413	0.0170120
703.491	0.0171315
703.569	0.0172781
703.647	0.0176997
703.725	0.0179189
703.803	0.0181090
703.881	0.0184358
703.959	0.0185188
704.038	0.0184526
704.116	0.0185598
704.194	0.0182792
704.272	0.0179411
704.350	0.0174424
704.428	0.0169756
704.506	0.0165825
704.584	0.0159443
704.663	0.0154314
704.741	0.0149721
704.819	0.0145907
704.897	0.0143721
704.975	0.0141213
705.053	0.0141720
705.131	0.0142969
705.209	0.0144245
705.288	0.0146143
705.366	0.0148607
705.444	0.0151691
705.522	0.0157591
705.600	0.0160245
705.678	0.0163434
705.756	0.0165796
705.834	0.0167629
705.913	0.0169321
705.991	0.0170775
706.069	0.0171152
706.147	0.0171146
706.225	0.0172109
706.303	0.0171333
706.381	0.0171310
706.459	0.0170583
706.538	0.0170758
706.616	0.0170152
706.694	0.0167334
706.772	0.0166808
706.850	0.0166252
706.928	0.0164928
707.006	0.0163914
707.084	0.0162317
707.163	0.0162083
707.241	0.0160481
707.319	0.0160161
707.397	0.0161188
707.475	0.0162734
707.553	0.0162302
707.631	0.0164871
707.709	0.0163534
707.788	0.0166615
707.866	0.0165623
707.944	0.0164873
708.022	0.0161903
708.100	0.0160779
708.178	0.0157842
708.256	0.0154015
708.334	0.0151092
708.413	0.0148611
708.491	0.0145378
708.569	0.0144505
708.647	0.0145214
708.725	0.0145692
708.803	0.0145847
708.881	0.0147417
708.959	0.0149105
709.038	0.0149796
709.116	0.0150259
709.194	0.0149974
709.272	0.0149068
709.350	0.0148712
709.428	0.0146963
709.506	0.0146664
709.584	0.0145692
709.663	0.0147102
709.741	0.0147781
709.819	0.0149333
709.897	0.0152406
709.975	0.0154059
710.053	0.0156738
710.131	0.0159068
710.209	0.0160841
710.288	0.0165176
710.366	0.0166056
710.444	0.0165540
710.522	0.0166396
710.600	0.0168553
710.678	0.0170103
710.756	0.0173504
710.834	0.0176151
710.913	0.0178924
710.991	0.0183004
711.069	0.0185589
711.147	0.0186597
711.225	0.0191028
711.303	0.0193552
711.381	0.0194081
711.459	0.0195593
711.538	0.0194707
711.616	0.0192271
711.694	0.0188860
711.772	0.0183904
711.850	0.0179926
711.928	0.0174446
712.006	0.0170078
712.084	0.0164607
712.163	0.0159056
712.241	0.0153434
712.319	0.0149975
712.397	0.0147406
712.475	0.0143130
712.553	0.0141608
712.631	0.0138268
712.709	0.0137141
712.788	0.0135975
712.866	0.0134440
712.944	0.0132821
713.022	0.0134155
713.100	0.0133155
713.178	0.0133437
713.256	0.0134140
713.334	0.0137327
713.413	0.0141029
713.491	0.0142654
713.569	0.0146298
713.647	0.0147775
713.725	0.0154103
713.803	0.0157740
713.881	0.0160810
713.959	0.0162455
714.038	0.0163480
714.116	0.0163709
714.194	0.0164660
714.272	0.0164765
714.350	0.0162726
714.428	0.0162480
714.506	0.0160258
714.584	0.0157174
714.663	0.0156377
714.741	0.0156552
714.819	0.0157348
714.897	0.0155524
714.975	0.0154493
715.053	0.0158028
715.131	0.0160787
715.209	0.0161423
715.288	0.0163445
715.366	0.0167670
715.444	0.0169627
715.522	0.0174174
715.600	0.0176137
715.678	0.0178668
715.756	0.0179047
715.834	0.0182166
715.913	0.0183141
715.991	0.0184430
716.069	0.0184669
716.147	0.0186308
716.225	0.0187206
716.303	0.0185621
716.381	0.0185284
716.459	0.0185432
716.538	0.0185586
716.616	0.0184956
716.694	0.0183098
716.772	0.0181984
716.850	0.0177677
716.928	0.0175519
717.006	0.0171492
717.084	0.0167061
717.163	0.0163183
717.241	0.0158696
717.319	0.0153065
717.397	0.0148199
717.475	0.0143190
717.553	0.0138968
717.631	0.0134016
717.709	0.0130746
717.788	0.0130228
717.866	0.0127986
717.944	0.0128719
718.022	0.0128396
718.100	0.0128801
718.178	0.0130225
718.256	0.0133015
718.334	0.0134921
718.413	0.0137405
718.491	0.0141369
718.569	0.0143896
718.647	0.0145406
718.725	0.0147943
718.803	0.0150069
718.881	0.0152748
718.959	0.0151884
719.038	0.0153423
719.116	0.0153603
719.194	0.0155556
719.272	0.0157813
719.350	0.0158175
719.428	0.0159014
719.506	0.0162344
719.584	0.0164252
719.663	0.0167014
719.741	0.0168140
719.819	0.0169852
719.897	0.0169740
719.975	0.0171252
720.053	0.0171418
720.131	0.0172155
720.209	0.0172660
720.288	0.0172301
720.366	0.0172388
720.444	0.0175037
720.522	0.0175219
720.600	0.0177211
720.678	0.0176336
720.756	0.0176434
720.834	0.0176743
720.913	0.0176046
720.991	0.0177575
721.069	0.0177103
721.147	0.0176230
721.225	0.0174847
721.303	0.0174007
721.381	0.0172577
721.459	0.0170745
721.538	0.0169419
721.616	0.0170211
721.694	0.0168758
721.772	0.0168041
721.850	0.0168904
721.928	0.0169393
722.006	0.0168130
722.084	0.0169219
722.163	0.0168259
722.241	0.0168045
722.319	0.0167070
722.397	0.0165464
722.475	0.0164593
722.553	0.0163401
722.631	0.0160696
722.709	0.0160617
722.788	0.0159493
722.866	0.0158007
722.944	0.0156854
723.022	0.0157161
723.100	0.0156174
723.178	0.0155700
723.256	0.0155879
723.334	0.0156052
723.413	0.0153247
723.491	0.0152400
723.569	0.0150159
723.647	0.0149898
723.725	0.0146789
723.803	0.0145030
723.881	0.0144167
723.959	0.0141406
724.038	0.0139340
724.116	0.0138065
724.194	0.0137421
724.272	0.0138466
724.350	0.0138055
724.428	0.0137502
724.506	0.0140709
724.584	0.0142023
724.663	0.0143418
724.741	0.0142410
724.819	0.0144057
724.897	0.0145363
724.975	0.0147426
725.053	0.0146480
725.131	0.0147065
725.209	0.0148599
725.288	0.0150185
725.366	0.0151653
725.444	0.0153593
725.522	0.0157007
725.600	0.0159118
725.678	0.0160640
725.756	0.0162778
725.834	0.0165717
725.913	0.0168684
725.991	0.0169873
726.069	0.0172530
726.147	0.0175204
726.225	0.0175723
726.303	0.0177722
726.381	0.0177464
726.459	0.0177322
726.538	0.0176575
726.616	0.0178278
726.694	0.0178239
726.772	0.0178668
726.850	0.0179132
726.928	0.0178131
727.006	0.0175366
727.084	0.0176901
727.163	0.0176737
727.241	0.0178190
727.319	0.0178408
727.397	0.0176539
727.475	0.0178027
727.553	0.0178828
727.631	0.0179486
727.709	0.0179778
727.788	0.0180090
727.866	0.0179822
727.944	0.0178814
728.022	0.0179594
728.100	0.0178431
728.178	0.0176583
728.256	0.0174371
728.334	0.0173296
728.413	0.0170961
728.491	0.0165746
728.569	0.0165408
728.647	0.0160408
728.725	0.0158848
728.803	0.0155264
728.881	0.0150696
728.959	0.0146680
729.038	0.0144646
729.116	0.0141772
729.194	0.0138747
729.272	0.0137384
729.350	0.0134963
729.428	0.0133376
729.506	0.0132538
729.584	0.0132893
729.663	0.0132469
729.741	0.0131884
729.819	0.0133325
729.897	0.0134039
729.975	0.0136395
730.053	0.0136302
730.131	0.0139744
730.209	0.0142792
730.288	0.0144735
730.366	0.0145741
730.444	0.0149083
730.522	0.0151257
730.600	0.0154030
730.678	0.0154760
730.756	0.0157248
730.834	0.0159159
730.913	0.0158816
730.991	0.0161212
731.069	0.0162418
731.147	0.0162463
731.225	0.0161490
731.303	0.0161616
731.381	0.0162504
731.459	0.0161789
731.538	0.0159837
731.616	0.0161909
731.694	0.0162151
731.772	0.0160941
731.850	0.0161879
731.928	0.0161773
732.006	0.0164053
732.084	0.0164841
732.163	0.0165325
732.241	0.0168194
732.319	0.0169328
732.397	0.0169866
732.475	0.0171412
732.553	0.0171699
732.631	0.0174356
732.709	0.0173917
732.788	0.0173751
732.866	0.0176713
732.944	0.0175111
733.022	0.0174248
733.100	0.0175890
733.178	0.0175126
733.256	0.0175774
733.334	0.0175109
733.413	0.0174453
733.491	0.0171819
733.569	0.0172176
733.647	0.0169808
733.725	0.0168575
733.803	0.0167773
733.881	0.0165918
733.959	0.0165388
734.038	0.0165623
734.116	0.0164658
734.194	0.0164459
734.272	0.0163808
734.350	0.0164006
734.428	0.0164735
734.506	0.0165820
734.584	0.0166211
734.663	0.0166833
734.741	0.0166155
734.819	0.0166333
734.897	0.0165792
734.975	0.0164221
735.053	0.0163851
735.131	0.0163831
735.209	0.0161706
735.288	0.0160271
735.366	0.0159981
735.444	0.0156558
735.522	0.0155639
735.600	0.0154846
735.678	0.0153262
735.756	0.0151419
735.834	0.0149061
735.913	0.0146983
735.991	0.0147442
736.069	0.0146344
736.147	0.0145033
736.225	0.0143681
736.303	0.0141727
736.381	0.0140530
736.459	0.0141067
736.538	0.0142797
736.616	0.0142886
736.694	0.0145399
736.772	0.0146458
736.850	0.0148210
736.928	0.0151392
737.006	0.0154306
737.084	0.0155394
737.163	0.0159498
737.241	0.0160599
737.319	0.0162891
737.397	0.0164934
737.475	0.0166180
737.553	0.0167187
737.631	0.0167817
737.709	0.0169433
737.788	0.0167729
737.866	0.0167964
737.944	0.0168439
738.022	0.0166697
738.100	0.0165854
738.178	0.0166151
738.256	0.0165703
738.334	0.0165303
738.413	0.0164528
738.491	0.0164735
738.569	0.0164867
738.647	0.0163967
738.725	0.0165248
738.803	0.0164392
738.881	0.0162617
738.959	0.0163371
739.038	0.0163491
739.116	0.0160368
739.194	0.0162023
739.272	0.0161321
739.350	0.0159579
739.428	0.0158518
739.506	0.0158371
739.584	0.0157066
739.663	0.0155743
739.741	0.0155425
739.819	0.0154585
739.897	0.0154222
739.975	0.0155505
740.053	0.0154329
740.131	0.0155621
740.209	0.0157772
740.288	0.0157711
740.366	0.0158875
740.444	0.0160184
740.522	0.0162586
740.600	0.0162128
740.678	0.0165107
740.756	0.0169119
740.834	0.0169887
740.913	0.0169373
740.991	0.0170232
741.069	0.0171311
741.147	0.0173067
741.225	0.0171953
741.303	0.0171154
741.381	0.0172532
741.459	0.0171321
741.538	0.0172203
741.616	0.0170530
741.694	0.0170264
741.772	0.0169289
741.850	0.0167966
741.928	0.0167572
742.006	0.0166174
742.084	0.0167222
742.163	0.0165439
742.241	0.0164827
742.319	0.0162992
742.397	0.0162163
742.475	0.0164381
742.553	0.0163634
742.631	0.0163600
742.709	0.0164939
742.788	0.0164848
742.866	0.0165453
742.944	0.0162654
743.022	0.0162645
743.100	0.0162714
743.178	0.0161585
743.256	0.0160783
743.334	0.0157739
743.413	0.0157841
743.491	0.0155508
743.569	0.0154472
743.647	0.0150587
743.725	0.0148230
743.803	0.0148083
743.881	0.0143790
743.959	0.0143626
744.038	0.0141306
744.116	0.0140499
744.194	0.0139388
744.272	0.0138251
744.350	0.0138909
744.428	0.0140157
744.506	0.0142144
744.584	0.0143966
744.663	0.0145180
744.741	0.0147319
744.819	0.0148693
744.897	0.0150573
744.975	0.0152240
745.053	0.0153590
745.131	0.0155248
745.209	0.0157508
745.288	0.0159153
745.366	0.0159240
745.444	0.0159483
745.522	0.0161580
745.600	0.0161749
745.678	0.0162632
745.756	0.0161926
745.834	0.0163736
745.913	0.0163644
745.991	0.0162968
746.069	0.0166142
746.147	0.0164958
746.225	0.0167436
746.303	0.0168225
746.381	0.0168854
746.459	0.0170248
746.538	0.0171246
746.616	0.0171304
746.694	0.0171876
746.772	0.0171697
746.850	0.0171682
746.928	0.0170621
747.006	0.0170914
747.084	0.0171575
747.163	0.0170174
747.241	0.0169883
747.319	0.0167783
747.397	0.0165954
747.475	0.0164520
747.553	0.0163605
747.631	0.0161137
747.709	0.0159191
747.788	0.0157394
747.866	0.0156638
747.944	0.0156178
748.022	0.0153450
748.100	0.0152937
748.178	0.0152960
748.256	0.0152999
748.334	0.0151180
748.413	0.0151706
748.491	0.0152458
748.569	0.0152127
748.647	0.0152273
748.725	0.0154214
748.803	0.0155075
748.881	0.0157607
748.959	0.0159169
749.038	0.0161626
749.116	0.0163474
749.194	0.0164189
749.272	0.0167452
749.350	0.0171802
749.428	0.0170473
749.506	0.0169585
749.584	0.0171564
749.663	0.0171967
749.741	0.0171533
749.819	0.0170451
749.897	0.0168799
749.975	0.0166799
750.053	0.0166022
750.131	0.0163046
750.209	0.0160925
750.288	0.0158602
750.366	0.0158036
750.444	0.0156139
750.522	0.0155558
750.600	0.0155269
750.678	0.0152544
750.756	0.0152081
750.834	0.0152036
750.913	0.0153664
750.991	0.0153498
751.069	0.0153912
751.147	0.0155927
751.225	0.0156276
751.303	0.0156316
751.381	0.0157480
751.459	0.0159058
751.538	0.0158907
751.616	0.0159208
751.694	0.0158810
751.772	0.0158948
751.850	0.0158913
751.928	0.0158640
752.006	0.0157541
752.084	0.0157659
752.163	0.0155911
752.241	0.0156298
752.319	0.0153534
752.397	0.0153733
752.475	0.0153458
752.553	0.0153611
752.631	0.0154617
752.709	0.0154015
752.788	0.0154540
752.866	0.0154388
752.944	0.0154553
753.022	0.0155874
753.100	0.0156217
753.178	0.0156451
753.256	0.0156635
753.334	0.0159015
753.413	0.0160947
753.491	0.0159534
753.569	0.0160812
753.647	0.0161456
753.725	0.0161910
753.803	0.0161872
753.881	0.0161865
753.959	0.0160473
754.038	0.0159705
754.116	0.0160619
754.194	0.0162202
754.272	0.0161975
754.350	0.0161269
754.428	0.0162490
754.506	0.0162932
754.584	0.0163786
754.663	0.0163763
754.741	0.0161952
754.819	0.0165676
754.897	0.0166414
754.975	0.0166447
755.053	0.0164376
755.131	0.0165048
755.209	0.0164610
755.288	0.0163450
755.366	0.0163250
755.444	0.0161737
755.522	0.0160371
755.600	0.0159412
755.678	0.0160443
755.756	0.0159271
755.834	0.0159238
755.913	0.0158279
755.991	0.0156779
756.069	0.0156401
756.147	0.0155385
756.225	0.0155128
756.303	0.0154634
756.381	0.0153181
756.459	0.0155475
756.538	0.0155791
756.616	0.0156877
756.694	0.0158585
756.772	0.0162241
756.850	0.0164919
756.928	0.0166895
757.006	0.0168923
757.084	0.0172459
757.163	0.0174619
757.241	0.0175902
757.319	0.0177411
757.397	0.0178891
757.475	0.0179078
757.553	0.0179231
757.631	0.0177447
757.709	0.0175648
757.788	0.0175159
757.866	0.0172290
757.944	0.0170322
758.022	0.0166765
758.100	0.0163665
758.178	0.0161669
758.256	0.0158493
758.334	0.0154173
758.413	0.0152760
758.491	0.0148503
758.569	0.0146991
758.647	0.0146730
758.725	0.0143744
758.803	0.0143291
758.881	0.0142293
758.959	0.0143219
759.038	0.0143474
759.116	0.0145142
759.194	0.0147392
759.272	0.0150144
759.350	0.0153668
759.428	0.0155032
759.506	0.0160165
759.584	0.0162302
759.663	0.0165125
759.741	0.0167973
759.819	0.0170048
759.897	0.0171561
759.975	0.0173088
760.053	0.0173813
760.131	0.0172421
760.209	0.0169485
760.288	0.0168102
760.366	0.0165199
760.444	0.0162343
760.522	0.0159421
760.600	0.0157077
760.678	0.0153982
760.756	0.0152457
760.834	0.0151762
760.913	0.0148485
760.991	0.0148085
761.069	0.0148061
761.147	0.0147824
761.225	0.0149838
761.303	0.0150951
761.381	0.0152458
761.459	0.0154038
761.538	0.0155529
761.616	0.0157683
761.694	0.0157520
761.772	0.0159888
761.850	0.0161850
761.928	0.0163301
762.006	0.0162006
762.084	0.0163228
762.163	0.0163649
762.241	0.0164419
762.319	0.0165234
762.397	0.0164285
762.475	0.0164671
762.553	0.0163511
762.631	0.0163733
762.709	0.0162881
762.788	0.0163769
762.866	0.0164279
762.944	0.0166068
763.022	0.0167094
763.100	0.0167222
763.178	0.0167985
763.256	0.0170151
763.334	0.0168762
763.413	0.0167979
763.491	0.0169109
763.569	0.0167604
763.647	0.0167111
763.725	0.0166566
763.803	0.0166850
763.881	0.0163948
763.959	0.0162435
764.038	0.0161912
764.116	0.0162518
764.194	0.0161694
764.272	0.0162077
764.350	0.0162463
764.428	0.0161736
764.506	0.0162302
764.584	0.0163858
764.663	0.0165072
764.741	0.0162945
764.819	0.0163551
764.897	0.0163612
764.975	0.0164439
765.053	0.0163926
765.131	0.0162954
765.209	0.0162941
765.288	0.0162903
765.366	0.0162165
765.444	0.0161337
765.522	0.0161170
765.600	0.0161945
765.678	0.0162130
765.756	0.0161766
765.834	0.0160623
765.913	0.0160271
765.991	0.0163187
766.069	0.0162587
766.147	0.0163087
766.225	0.0163213
766.303	0.0164059
766.381	0.0162630
766.459	0.0163542
766.538	0.0160621
766.616	0.0161813
766.694	0.0159698
766.772	0.0157951
766.850	0.0156577
766.928	0.0154857
767.006	0.0152640
767.084	0.0151225
767.163	0.0150094
767.241	0.0148215
767.319	0.0149265
767.397	0.0147588
767.475	0.0146701
767.553	0.0147846
767.631	0.0148578
767.709	0.0148709
767.788	0.0149930
767.866	0.0152456
767.944	0.0154043
768.022	0.0155021
768.100	0.0157243
768.178	0.0157986
768.256	0.0161008
768.334	0.0163324
768.413	0.0165746
768.491	0.0164981
768.569	0.0166464
768.647	0.0165881
768.725	0.0166943
768.803	0.0165711
768.881	0.0163581
768.959	0.0163945
769.038	0.0162993
769.116	0.0160754
769.194	0.0159064
769.272	0.0156776
769.350	0.0156941
769.428	0.0155486
769.506	0.0154835
769.584	0.0154971
769.663	0.0155402
769.741	0.0154027
769.819	0.0157311
769.897	0.0157670
769.975	0.0158474
770.053	0.0160099
770.131	0.0161719
770.209	0.0162017
770.288	0.0163012
770.366	0.0162821
770.444	0.0164421
770.522	0.0163226
770.600	0.0162971
770.678	0.0162173
770.756	0.0163345
770.834	0.0162031
770.913	0.0160067
770.991	0.0158926
771.069	0.0158101
771.147	0.0158160
771.225	0.0158756
771.303	0.0158337
771.381	0.0159389
771.459	0.0159316
771.538	0.0160479
771.616	0.0162064
771.694	0.0162572
771.772	0.0166370
771.850	0.0166341
771.928	0.0168567
772.006	0.0169624
772.084	0.0169411
772.163	0.0170280
772.241	0.0171706
772.319	0.0170538
772.397	0.0168764
772.475	0.0170412
772.553	0.0168587
772.631	0.0166619
772.709	0.0165913
772.788	0.0166020
772.866	0.0163094
772.944	0.0162535
773.022	0.0161044
773.100	0.0158913
773.178	0.0157764
773.256	0.0156116
773.334	0.0155313
773.413	0.0155373
773.491	0.0153424
773.569	0.0151830
773.647	0.0151604
773.725	0.0152155
773.803	0.0152282
773.881	0.0154583
773.959	0.0157304
774.038	0.0157632
774.116	0.0160549
774.194	0.0163419
774.272	0.0165814
774.350	0.0167292
774.428	0.0169099
774.506	0.0172414
774.584	0.0173840
774.663	0.0175151
774.741	0.0175787
774.819	0.0175520
774.897	0.0173204
774.975	0.0172678
775.053	0.0169570
775.131	0.0166396
775.209	0.0162118
775.288	0.0157951
775.366	0.0153457
775.444	0.0149588
775.522	0.0145150
775.600	0.0141252
775.678	0.0138235
775.756	0.0135973
775.834	0.0135107
775.913	0.0135152
775.991	0.0134945
776.069	0.0137314
776.147	0.0141096
776.225	0.0142789
776.303	0.0144799
776.381	0.0148862
776.459	0.0151723
776.538	0.0155465
776.616	0.0158498
776.694	0.0163997
776.772	0.0166925
776.850	0.0170771
776.928	0.0172192
777.006	0.0173331
777.084	0.0174973
777.163	0.0174837
777.241	0.0173241
777.319	0.0172851
777.397	0.0172575
777.475	0.0168456
777.553	0.0165344
777.631	0.0161665
777.709	0.0159525
777.788	0.0157710
777.866	0.0153180
777.944	0.0152356
778.022	0.0151326
778.100	0.0150021
778.178	0.0150419
778.256	0.0150991
778.334	0.0153322
778.413	0.0156329
778.491	0.0159229
778.569	0.0161012
778.647	0.0163902
778.725	0.0166856
778.803	0.0168417
778.881	0.0169408
778.959	0.0170987
779.038	0.0171423
779.116	0.0171714
779.194	0.0171236
779.272	0.0168776
779.350	0.0169402
779.428	0.0165398
779.506	0.0163940
779.584	0.0163206
779.663	0.0163875
779.741	0.0161269
779.819	0.0160722
779.897	0.0161356
779.975	0.0162457
780.053	0.0163470
780.131	0.0163209
780.209	0.0164140
780.288	0.0165510
780.366	0.0166006
780.444	0.0167718
780.522	0.0169547
780.600	0.0169193
780.678	0.0169047
780.756	0.0166039
780.834	0.0167032
780.913	0.0165794
780.991	0.0165084
781.069	0.0162259
781.147	0.0160560
781.225	0.0158566
781.303	0.0156229
781.381	0.0155872
781.459	0.0155112
781.538	0.0153768
781.616	0.0153594
781.694	0.0154072
781.772	0.0154840
781.850	0.0154560
781.928	0.0154719
782.006	0.0155633
782.084	0.0155636
782.163	0.0155714
782.241	0.0157476
782.319	0.0157010
782.397	0.0158714
782.475	0.0159931
782.553	0.0158535
782.631	0.0158289
782.709	0.0157700
782.788	0.0159810
782.866	0.0159012
782.944	0.0158717
783.022	0.0158723
783.100	0.0161906
783.178	0.0161203
783.256	0.0160295
783.334	0.0161832
783.413	0.0161504
783.491	0.0161266
783.569	0.0160706
783.647	0.0159837
783.725	0.0157941
783.803	0.0157490
783.881	0.0156609
783.959	0.0154205
784.038	0.0151888
784.116	0.0149277
784.194	0.0149483
784.272	0.0149353
784.350	0.0149214
784.428	0.0151011
784.506	0.0150427
784.584	0.0151601
784.663	0.0154156
784.741	0.0156772
784.819	0.0158022
784.897	0.0161344
784.975	0.0162739
785.053	0.0163982
785.131	0.0164401
785.209	0.0166692
785.288	0.0167455
785.366	0.0169357
785.444	0.0168462
785.522	0.0167786
785.600	0.0165370
785.678	0.0162504
785.756	0.0164484
785.834	0.0164184
785.913	0.0162913
785.991	0.0161211
786.069	0.0161120
786.147	0.0159380
786.225	0.0158480
786.303	0.0158440
786.381	0.0158691
786.459	0.0158447
786.538	0.0159821
786.616	0.0160165
786.694	0.0162163
786.772	0.0161890
786.850	0.0161411
786.928	0.0162989
787.006	0.0166080
787.084	0.0166203
787.163	0.0167417
787.241	0.0167331
787.319	0.0167308
787.397	0.0166281
787.475	0.0166516
787.553	0.0163734
787.631	0.0164872
787.709	0.0161677
787.788	0.0158823
787.866	0.0159554
787.944	0.0157846
788.022	0.0155380
788.100	0.0154863
788.178	0.0154624
788.256	0.0154002
788.334	0.0153609
788.413	0.0154125
788.491	0.0156814
788.569	0.0158376
788.647	0.0159502
788.725	0.0160577
788.803	0.0162255
788.881	0.0163574
788.959	0.0165654
789.038	0.0167962
789.116	0.0168404
789.194	0.0171099
789.272	0.0170754
789.350	0.0169109
789.428	0.0170309
789.506	0.0169749
789.584	0.0168232
789.663	0.0166566
789.741	0.0165289
789.819	0.0162920
789.897	0.0161614
789.975	0.0161203
790.053	0.0159406
790.131	0.0157228
790.209	0.0158977
790.288	0.0157977
790.366	0.0155973
790.444	0.0154301
790.522	0.0156296
790.600	0.0155343
790.678	0.0154753
790.756	0.0154896
790.834	0.0153088
790.913	0.0152679
790.991	0.0151784
791.069	0.0151855
791.147	0.0152003
791.225	0.0150652
791.303	0.0151312
791.381	0.0150093
791.459	0.0150751
791.538	0.0151771
791.616	0.0152910
791.694	0.0155145
791.772	0.0155596
791.850	0.0157521
791.928	0.0160049
792.006	0.0160915
792.084	0.0161884
792.163	0.0161714
792.241	0.0162872
792.319	0.0163333
792.397	0.0163123
792.475	0.0163654
792.553	0.0161859
792.631	0.0160219
792.709	0.0159540
792.788	0.0156879
792.866	0.0156915
792.944	0.0155463
793.022	0.0153992
793.100	0.0155434
793.178	0.0156715
793.256	0.0155440
793.334	0.0156576
793.413	0.0158019
793.491	0.0158997
793.569	0.0161889
793.647	0.0163548
793.725	0.0165528
793.803	0.0166411
793.881	0.0167025
793.959	0.0169740
794.038	0.0168678
794.116	0.0169535
794.194	0.0170952
794.272	0.0171088
794.350	0.0170645
794.428	0.0170608
794.506	0.0170001
794.584	0.0169839
794.663	0.0166737
794.741	0.0166711
794.819	0.0165569
794.897	0.0163509
794.975	0.0161456
795.053	0.0161036
795.131	0.0159222
795.209	0.0157441
795.288	0.0156218
795.366	0.0153976
795.444	0.0153145
795.522	0.0152872
795.600	0.0152290
795.678	0.0152039
795.756	0.0152834
795.834	0.0153585
795.913	0.0155907
795.991	0.0155683
796.069	0.0158211
796.147	0.0158655
796.225	0.0159924
796.303	0.0162486
796.381	0.0162835
796.459	0.0162828
796.538	0.0165054
796.616	0.0166203
796.694	0.0166827
796.772	0.0167971
796.850	0.0169231
796.928	0.0169870
797.006	0.0168543
797.084	0.0170190
797.163	0.0170809
797.241	0.0170880
797.319	0.0171605
797.397	0.0172469
797.475	0.0172465
797.553	0.0172326
797.631	0.0171589
797.709	0.0170504
797.788	0.0168726
797.866	0.0168340
797.944	0.0166327
798.022	0.0163999
798.100	0.0161505
798.178	0.0160318
798.256	0.0158977
798.334	0.0155267
798.413	0.0153652
798.491	0.0153479
798.569	0.0151725
798.647	0.0150109
798.725	0.0150269
798.803	0.0150185
798.881	0.0150513
798.959	0.0149886
799.038	0.0150395
799.116	0.0150284
799.194	0.0151125
799.272	0.0152528
799.350	0.0154847
799.428	0.0155146
799.506	0.0155540
799.584	0.0156922
799.663	0.0158051
799.741	0.0158200
799.819	0.0159559
799.897	0.0159505
799.975	0.0158536
800.053	0.0160490
800.131	0.0161076
800.209	0.0160649
800.288	0.0159640
800.366	0.0161814
800.444	0.0162312
800.522	0.0163288
800.600	0.0163580
800.678	0.0163154
800.756	0.0162929
800.834	0.0162569
800.913	0.0163047
800.991	0.0161444
801.069	0.0162110
801.147	0.0161864
801.225	0.0160300
801.303	0.0159315
801.381	0.0159809
801.459	0.0157970
801.538	0.0157698
801.616	0.0157745
801.694	0.0156174
801.772	0.0156276
801.850	0.0157634
801.928	0.0156841
802.006	0.0159453
802.084	0.0159504
802.163	0.0160181
802.241	0.0162154
802.319	0.0164975
802.397	0.0163931
802.475	0.0166387
802.553	0.0167561
802.631	0.0167600
802.709	0.0167295
802.788	0.0167090
802.866	0.0168484
802.944	0.0168596
803.022	0.0165553
803.100	0.0166949
803.178	0.0166027
803.256	0.0165646
803.334	0.0164066
803.413	0.0163036
803.491	0.0161870
803.569	0.0161778
803.647	0.0160812
803.725	0.0160880
803.803	0.0160060
803.881	0.0159466
803.959	0.0158589
804.038	0.0159993
804.116	0.0160647
804.194	0.0158539
804.272	0.0159959
804.350	0.0160945
804.428	0.0159545
804.506	0.0159338
804.584	0.0159664
804.663	0.0159856
804.741	0.0162142
804.819	0.0161492
804.897	0.0161301
804.975	0.0161942
805.053	0.0162527
805.131	0.0162970
805.209	0.0163747
805.288	0.0164613
805.366	0.0163596
805.444	0.0164099
805.522	0.0161999
805.600	0.0162913
805.678	0.0162235
805.756	0.0160229
805.834	0.0160267
805.913	0.0159814
805.991	0.0157833
806.069	0.0157523
806.147	0.0158179
806.225	0.0155823
806.303	0.0156804
806.381	0.0157143
806.459	0.0156415
806.538	0.0156776
806.616	0.0156613
806.694	0.0156577
806.772	0.0157806
806.850	0.0158276
806.928	0.0158756
807.006	0.0159226
807.084	0.0158261
807.163	0.0158928
807.241	0.0158900
807.319	0.0160604
807.397	0.0160543
807.475	0.0158842
807.553	0.0159984
807.631	0.0162224
807.709	0.0161723
807.788	0.0163136
807.866	0.0163741
807.944	0.0162215
808.022	0.0161553
808.100	0.0159982
808.178	0.0160597
808.256	0.0160735
808.334	0.0159710
808.413	0.0159282
808.491	0.0158298
808.569	0.0156177
808.647	0.0157407
808.725	0.0156853
808.803	0.0155595
808.881	0.0154718
808.959	0.0154509
809.038	0.0154921
809.116	0.0154450
809.194	0.0153942
809.272	0.0154179
809.350	0.0156326
809.428	0.0156023
809.506	0.0157439
809.584	0.0157094
809.663	0.0158617
809.741	0.0159082
809.819	0.0161241
809.897	0.0161529
809.975	0.0162392
810.053	0.0161889
810.131	0.0163161
810.209	0.0164374
810.288	0.0164610
810.366	0.0163621
810.444	0.0162521
810.522	0.0163062
810.600	0.0162832
810.678	0.0162070
810.756	0.0161529
810.834	0.0162949
810.913	0.0160437
810.991	0.0160270
811.069	0.0158888
811.147	0.0158685
811.225	0.0160346
811.303	0.0158622
811.381	0.0158566
811.459	0.0160113
811.538	0.0159626
811.616	0.0160352
811.694	0.0160306
811.772	0.0159945
811.850	0.0161034
811.928	0.0163103
812.006	0.0164040
812.084	0.0164395
812.163	0.0163898
812.241	0.0164760
812.319	0.0164470
812.397	0.0165571
812.475	0.0167362
812.553	0.0167600
812.631	0.0166850
812.709	0.0168826
812.788	0.0167088
812.866	0.0168308
812.944	0.0168044
813.022	0.0167757
813.100	0.0167278
813.178	0.0167152
813.256	0.0165836
813.334	0.0165165
813.413	0.0164829
813.491	0.0164368
813.569	0.0163272
813.647	0.0162464
813.725	0.0161743
813.803	0.0160815
813.881	0.0159834
813.959	0.0158672
814.038	0.0156464
814.116	0.0157140
814.194	0.0157033
814.272	0.0155717
814.350	0.0155096
814.428	0.0152200
814.506	0.0152865
814.584	0.0151923
814.663	0.0153109
814.741	0.0151775
814.819	0.0151221
814.897	0.0152514
814.975	0.0151736
815.053	0.0152415
815.131	0.0154214
815.209	0.0153087
815.288	0.0154877
815.366	0.0155398
815.444	0.0156834
815.522	0.0157172
815.600	0.0158756
815.678	0.0158080
815.756	0.0159180
815.834	0.0159390
815.913	0.0160233
815.991	0.0160363
816.069	0.0161539
816.147	0.0161362
816.225	0.0161434
816.303	0.0160934
816.381	0.0161876
816.459	0.0162321
816.538	0.0162141
816.616	0.0163737
816.694	0.0163509
816.772	0.0163638
816.850	0.0163036
816.928	0.0162711
817.006	0.0164606
817.084	0.0162868
817.163	0.0162866
817.241	0.0163020
817.319	0.0162575
817.397	0.0164066
817.475	0.0162017
817.553	0.0160328
817.631	0.0161456
817.709	0.0163792
817.788	0.0162611
817.866	0.0160757
817.944	0.0162686
818.022	0.0161910
818.100	0.0163857
818.178	0.0164700
818.256	0.0165525
818.334	0.0167014
818.413	0.0165850
818.491	0.0167030
818.569	0.0166165
818.647	0.0168353
818.725	0.0166840
818.803	0.0167585
818.881	0.0167515
818.959	0.0165733
819.038	0.0166277
819.116	0.0165561
819.194	0.0164596
819.272	0.0161645
819.350	0.0162481
819.428	0.0160702
819.506	0.0158795
819.584	0.0160032
819.663	0.0158122
819.741	0.0159026
819.819	0.0157584
819.897	0.0155920
819.975	0.0154984
820.053	0.0156154
820.131	0.0154543
820.209	0.0156207
820.288	0.0156651
820.366	0.0156015
820.444	0.0157333
820.522	0.0156775
820.600	0.0157739
820.678	0.0156851
820.756	0.0157611
820.834	0.0159518
820.913	0.0160142
820.991	0.0160319
821.069	0.0160364
821.147	0.0160308
821.225	0.0161221
821.303	0.0162184
821.381	0.0162795
821.459	0.0162106
821.538	0.0163072
821.616	0.0163348
821.694	0.0162732
821.772	0.0161916
821.850	0.0161418
821.928	0.0163068
822.006	0.0162023
822.084	0.0162630
822.163	0.0160553
822.241	0.0161895
822.319	0.0160934
822.397	0.0160638
822.475	0.0158422
822.553	0.0159129
822.631	0.0159441
822.709	0.0159129
822.788	0.0158001
822.866	0.0159057
822.944	0.0159583
823.022	0.0159151
823.100	0.0159892
823.178	0.0159845
823.256	0.0161387
823.334	0.0161604
823.413	0.0161338
823.491	0.0160432
823.569	0.0160849
823.647	0.0163612
823.725	0.0162148
823.803	0.0162424
823.881	0.0162405
823.959	0.0162886
824.038	0.0164119
824.116	0.0163367
824.194	0.0164053
824.272	0.0164116
824.350	0.0164559
824.428	0.0162181
824.506	0.0162163
824.584	0.0161802
824.663	0.0161264
824.741	0.0161313
824.819	0.0159749
824.897	0.0159554
824.975	0.0159986
825.053	0.0159111
825.131	0.0158836
825.209	0.0158488
825.288	0.0157697
825.366	0.0156999
825.444	0.0158338
825.522	0.0156701
825.600	0.0157377
825.678	0.0157881
825.756	0.0157883
825.834	0.0156386
825.913	0.0156991
825.991	0.0157624
826.069	0.0156820
826.147	0.0159054
826.225	0.0158682
826.303	0.0158693
826.381	0.0156870
826.459	0.0158089
826.538	0.0159396
826.616	0.0158981
826.694	0.0159493
826.772	0.0157441
826.850	0.0158645
826.928	0.0159411
827.006	0.0158298
827.084	0.0158997
827.163	0.0160819
827.241	0.0161220
827.319	0.0160031
827.397	0.0160597
827.475	0.0162714
827.553	0.0162463
827.631	0.0163590
827.709	0.0163499
827.788	0.0163154
827.866	0.0164375
827.944	0.0164220
828.022	0.0164490
828.100	0.0165125
828.178	0.0164189
828.256	0.0161974
828.334	0.0162173
828.413	0.0163817
828.491	0.0163112
828.569	0.0162695
828.647	0.0162409
828.725	0.0162076
828.803	0.0163253
828.881	0.0161994
828.959	0.0162466
829.038	0.0163166
829.116	0.0162558
829.194	0.0163383
829.272	0.0163640
829.350	0.0163261
829.428	0.0162692
829.506	0.0163824
829.584	0.0162170
829.663	0.0163258
829.741	0.0164668
829.819	0.0164149
829.897	0.0163791
829.975	0.0163103
830.053	0.0163140
830.131	0.0163022
830.209	0.0162914
830.288	0.0162999
830.366	0.0161614
830.444	0.0161375
830.522	0.0160662
830.600	0.0161002
830.678	0.0161014
830.756	0.0160255
830.834	0.0159965
830.913	0.0158880
830.991	0.0158666
831.069	0.0158534
831.147	0.0158173
831.225	0.0157504
831.303	0.0157681
831.381	0.0157182
831.459	0.0157085
831.538	0.0156319
831.616	0.0156291
831.694	0.0157629
831.772	0.0157481
831.850	0.0158000
831.928	0.0158302
832.006	0.0157117
832.084	0.0157809
832.163	0.0159847
832.241	0.0157732
832.319	0.0158768
832.397	0.0158494
832.475	0.0157513
832.553	0.0160854
832.631	0.0158827
832.709	0.0159063
832.788	0.0157981
832.866	0.0158797
832.944	0.0158571
833.022	0.0157029
833.100	0.0157434
833.178	0.0157904
833.256	0.0158685
833.334	0.0159634
833.413	0.0158084
833.491	0.0159792
833.569	0.0160099
833.647	0.0160492
833.725	0.0160497
833.803	0.0160899
833.881	0.0160186
833.959	0.0160558
834.038	0.0160777
834.116	0.0161925
834.194	0.0161297
834.272	0.0161492
834.350	0.0163605
834.428	0.0162953
834.506	0.0161462
834.584	0.0161912
834.663	0.0160864
834.741	0.0162400
834.819	0.0164303
834.897	0.0164009
834.975	0.0162050
835.053	0.0162521
835.131	0.0162083
835.209	0.0160684
835.288	0.0161029
835.366	0.0159807
835.444	0.0158786
835.522	0.0158793
835.600	0.0158647
835.678	0.0159200
835.756	0.0157471
835.834	0.0158611
835.913	0.0158325
835.991	0.0159457
836.069	0.0158813
836.147	0.0160047
836.225	0.0160647
836.303	0.0161169
836.381	0.0161706
836.459	0.0162186
836.538	0.0162349
836.616	0.0161420
836.694	0.0162155
836.772	0.0164754
836.850	0.0162933
836.928	0.0163422
837.006	0.0163173
837.084	0.0163793
837.163	0.0164200
837.241	0.0164751
837.319	0.0163284
837.397	0.0162882
837.475	0.0163346
837.553	0.0162375
837.631	0.0160197
837.709	0.0161839
837.788	0.0161447
837.866	0.0159750
837.944	0.0158086
838.022	0.0159065
838.100	0.0159237
838.178	0.0158712
838.256	0.0156491
838.334	0.0156411
838.413	0.0157495
838.491	0.0156749
838.569	0.0156567
838.647	0.0157300
838.725	0.0157993
838.803	0.0158645
838.881	0.0157848
838.959	0.0158125
839.038	0.0158766
839.116	0.0157867
839.194	0.0160921
839.272	0.0159347
839.350	0.0159889
839.428	0.0160716
839.506	0.0160436
839.584	0.0160700
839.663	0.0161012
839.741	0.0160973
839.819	0.0161306
839.897	0.0161497
839.975	0.0162466
840.053	0.0160622
840.131	0.0161185
840.209	0.0161575
840.288	0.0159498
840.366	0.0157542
840.444	0.0159875
840.522	0.0159286
840.600	0.0158610
840.678	0.0158470
840.756	0.0157188
840.834	0.0157340
840.913	0.0158076
840.991	0.0158268
841.069	0.0159629
841.147	0.0158256
841.225	0.0158637
841.303	0.0159461
841.381	0.0158986
841.459	0.0160896
841.538	0.0158846
841.616	0.0159889
841.694	0.0158972
841.772	0.0160005
841.850	0.0160411
841.928	0.0161726
842.006	0.0161753
842.084	0.0161495
842.163	0.0160541
842.241	0.0161590
842.319	0.0161641
842.397	0.0161887
842.475	0.0162738
842.553	0.0163024
842.631	0.0163799
842.709	0.0163032
842.788	0.0164268
842.866	0.0165132
842.944	0.0164366
843.022	0.0162823
843.100	0.0162994
843.178	0.0162447
843.256	0.0164807
843.334	0.0163955
843.413	0.0163378
843.491	0.0163490
843.569	0.0163503
843.647	0.0163149
843.725	0.0162057
843.803	0.0162493
843.881	0.0160516
843.959	0.0161192
844.038	0.0159890
844.116	0.0159374
844.194	0.0158759
844.272	0.0157476
844.350	0.0157859
844.428	0.0157668
844.506	0.0158936
844.584	0.0157919
844.663	0.0159377
844.741	0.0159132
844.819	0.0157975
844.897	0.0157024
844.975	0.0159030
845.053	0.0158737
845.131	0.0159649
845.209	0.0159522
845.288	0.0161013
845.366	0.0161549
845.444	0.0161414
845.522	0.0164017
845.600	0.0163810
845.678	0.0163837
845.756	0.0161810
845.834	0.0162506
845.913	0.0162311
845.991	0.0163123
846.069	0.0161972
846.147	0.0161240
846.225	0.0162302
846.303	0.0162048
846.381	0.0160942
846.459	0.0159729
846.538	0.0160619
846.616	0.0161029
846.694	0.0159998
846.772	0.0161050
846.850	0.0158064
846.928	0.0158537
847.006	0.0160114
847.084	0.0159277
847.163	0.0158099
847.241	0.0158438
847.319	0.0159333
847.397	0.0158073
847.475	0.0157557
847.553	0.0158802
847.631	0.0158933
847.709	0.0159331
847.788	0.0159311
847.866	0.0159691
847.944	0.0159769
848.022	0.0159583
848.100	0.0160191
848.178	0.0160090
848.256	0.0160081
848.334	0.0161599
848.413	0.0160762
848.491	0.0160812
848.569	0.0160696
848.647	0.0158231
848.725	0.0161221
848.803	0.0161948
848.881	0.0159868
848.959	0.0160912
849.038	0.0161629
849.116	0.0159401
849.194	0.0160062
849.272	0.0160619
849.350	0.0159048
849.428	0.0161127
849.506	0.0159109
849.584	0.0159549
849.663	0.0158728
849.741	0.0159152
849.819	0.0159245
849.897	0.0159926
849.975	0.0158353
850.053	0.0158994
850.131	0.0160273
850.209	0.0159482
850.288	0.0160580
850.366	0.0161239
850.444	0.0160208
850.522	0.0160313
850.600	0.0160461
850.678	0.0160472
850.756	0.0162041
850.834	0.0161297
850.913	0.0161549
850.991	0.0160686
851.069	0.0160275
851.147	0.0160740
851.225	0.0160831
851.303	0.0161068
851.381	0.0160117
851.459	0.0160529
851.538	0.0158623
851.616	0.0160426
851.694	0.0159676
851.772	0.0160498
851.850	0.0160426
851.928	0.0158182
852.006	0.0157407
852.084	0.0158213
852.163	0.0160435
852.241	0.0159697
852.319	0.0158663
852.397	0.0160039
852.475	0.0159700
852.553	0.0160898
852.631	0.0160213
852.709	0.0160445
852.788	0.0160378
852.866	0.0161192
852.944	0.0161660
853.022	0.0160577
853.100	0.0162031
853.178	0.0162178
853.256	0.0163107
853.334	0.0163249
853.413	0.0163562
853.491	0.0162860
853.569	0.0162262
853.647	0.0164240
853.725	0.0162244
853.803	0.0163748
853.881	0.0163423
853.959	0.0162424
854.038	0.0163997
854.116	0.0163977
854.194	0.0162226
854.272	0.0162508
854.350	0.0162598
854.428	0.0160870
854.506	0.0161438
854.584	0.0160472
854.663	0.0160484
854.741	0.0160331
854.819	0.0158978
854.897	0.0158923
854.975	0.0158220
855.053	0.0158377
855.131	0.0157131
855.209	0.0157992
855.288	0.0157524
855.366	0.0158257
855.444	0.0158142
855.522	0.0157716
855.600	0.0157112
855.678	0.0158734
855.756	0.0157245
855.834	0.0158396
855.913	0.0157783
855.991	0.0157765
856.069	0.0158862
856.147	0.0158513
856.225	0.0157737
856.303	0.0159094
856.381	0.0159846
856.459	0.0159305
856.538	0.0159005
856.616	0.0158874
856.694	0.0159801
856.772	0.0156390
856.850	0.0157065
856.928	0.0159180
857.006	0.0158062
857.084	0.0157207
857.163	0.0158877
857.241	0.0158499
857.319	0.0158762
857.397	0.0159252
857.475	0.0160579
857.553	0.0160002
857.631	0.0160828
857.709	0.0160639
857.788	0.0162044
857.866	0.0162162
857.944	0.0162107
858.022	0.0161687
858.100	0.0162044
858.178	0.0163520
858.256	0.0163957
858.334	0.0162313
858.413	0.0163223
858.491	0.0162416
858.569	0.0163714
858.647	0.0162519
858.725	0.0161938
858.803	0.0162539
858.881	0.0161056
858.959	0.0160716
859.038	0.0163127
859.116	0.0162571
859.194	0.0161221
859.272	0.0162164
859.350	0.0162690
859.428	0.0162206
859.506	0.0161388
859.584	0.0161622
859.663	0.0160719
859.741	0.0161410
859.819	0.0162233
859.897	0.0161006
859.975	0.0160498
860.053	0.0162521
860.131	0.0162898
860.209	0.0160863
860.288	0.0161018
860.366	0.0162212
860.444	0.0162217
860.522	0.0161279
860.600	0.0161549
860.678	0.0162450
860.756	0.0160818
860.834	0.0162126
860.913	0.0162173
860.991	0.0161931
861.069	0.0162022
861.147	0.0161166
861.225	0.0162375
861.303	0.0163123
861.381	0.0161278
861.459	0.0160744
861.538	0.0162826
861.616	0.0161388
861.694	0.0162086
861.772	0.0160654
861.850	0.0160117
861.928	0.0162733
862.006	0.0161985
862.084	0.0161108
862.163	0.0162245
862.241	0.0161416
862.319	0.0160221
862.397	0.0160332
862.475	0.0160806
862.553	0.0159719
862.631	0.0159679
862.709	0.0158826
862.788	0.0159713
862.866	0.0159153
862.944	0.0158757
863.022	0.0159801
863.100	0.0158716
863.178	0.0158549
863.256	0.0158671
863.334	0.0158775
863.413	0.0157211
863.491	0.0158141
863.569	0.0158395
863.647	0.0158415
863.725	0.0160071
863.803	0.0159490
863.881	0.0160233
863.959	0.0160922
864.038	0.0161135
864.116	0.0161224
864.194	0.0161309
864.272	0.0161845
864.350	0.0161681
864.428	0.0161497
864.506	0.0161764
864.584	0.0161357
864.663	0.0161436
864.741	0.0161162
864.819	0.0159026
864.897	0.0160016
864.975	0.0160465
865.053	0.0160277
865.131	0.0160024
865.209	0.0158937
865.288	0.0158687
865.366	0.0159162
865.444	0.0158274
865.522	0.0158978
865.600	0.0157584
865.678	0.0158091
865.756	0.0158118
865.834	0.0159734
865.913	0.0160123
865.991	0.0159310
866.069	0.0159333
866.147	0.0158833
866.225	0.0159872
866.303	0.0160919
866.381	0.0161216
866.459	0.0159959
866.538	0.0161306
866.616	0.0161911
866.694	0.0161921
866.772	0.0162563
866.850	0.0162976
866.928	0.0161368
867.006	0.0165006
867.084	0.0163815
867.163	0.0163676
867.241	0.0162503
867.319	0.0163801
867.397	0.0163180
867.475	0.0163820
867.553	0.0159660
867.631	0.0161283
867.709	0.0161659
867.788	0.0161391
867.866	0.0160204
867.944	0.0159687
868.022	0.0159136
868.100	0.0160934
868.178	0.0160284
868.256	0.0158739
868.334	0.0158758
868.413	0.0157507
868.491	0.0157848
868.569	0.0158451
868.647	0.0158473
868.725	0.0158553
868.803	0.0157736
868.881	0.0157919
868.959	0.0158561
869.038	0.0157638
869.116	0.0158283
869.194	0.0157536
869.272	0.0158907
869.350	0.0158635
869.428	0.0159354
869.506	0.0159077
869.584	0.0159090
869.663	0.0159458
869.741	0.0158904
869.819	0.0159560
869.897	0.0160465
869.975	0.0159960
870.053	0.0160169
870.131	0.0161793
870.209	0.0161607
870.288	0.0161734
870.366	0.0162074
870.444	0.0162216
870.522	0.0160950
870.600	0.0161631
870.678	0.0161859
870.756	0.0161522
870.834	0.0162019
870.913	0.0161133
870.991	0.0160204
871.069	0.0159184
871.147	0.0159821
871.225	0.0160902
871.303	0.0159545
871.381	0.0158619
871.459	0.0159907
871.538	0.0158772
871.616	0.0158031
871.694	0.0158127
871.772	0.0159961
871.850	0.0158435
871.928	0.0156853
872.006	0.0159019
872.084	0.0157552
872.163	0.0157446
872.241	0.0158944
872.319	0.0159174
872.397	0.0159000
872.475	0.0158984
872.553	0.0159409
872.631	0.0159190
872.709	0.0158649
872.788	0.0160814
872.866	0.0159111
872.944	0.0159607
873.022	0.0160390
873.100	0.0161127
873.178	0.0159940
873.256	0.0161337
873.334	0.0159854
873.413	0.0160024
873.491	0.0161883
873.569	0.0161366
873.647	0.0160887
873.725	0.0160107
873.803	0.0160337
873.881	0.0160766
873.959	0.0158942
874.038	0.0160024
874.116	0.0158546
874.194	0.0159309
874.272	0.0159598
874.350	0.0160285
874.428	0.0158366
874.506	0.0160098
874.584	0.0159256
874.663	0.0160934
874.741	0.0159553
874.819	0.0160773
874.897	0.0160767
874.975	0.0161552
875.053	0.0161192
875.131	0.0162395
875.209	0.0163292
875.288	0.0163353
875.366	0.0163836
875.444	0.0164399
875.522	0.0163979
875.600	0.0162999
875.678	0.0164072
875.756	0.0164452
875.834	0.0163631
875.913	0.0162493
875.991	0.0163336
876.069	0.0163454
876.147	0.0162531
876.225	0.0162466
876.303	0.0161848
876.381	0.0162485
876.459	0.0160358
876.538	0.0160952
876.616	0.0162037
876.694	0.0161745
876.772	0.0161468
876.850	0.0161764
876.928	0.0162955
877.006	0.0161980
877.084	0.0160558
877.163	0.0161943
877.241	0.0160968
877.319	0.0161774
877.397	0.0161365
877.475	0.0160933
877.553	0.0160788
877.631	0.0160725
877.709	0.0160557
877.788	0.0157800
877.866	0.0158530
877.944	0.0158361
878.022	0.0158359
878.100	0.0156485
878.178	0.0157828
878.256	0.0157207
878.334	0.0157014
878.413	0.0157334
878.491	0.0156062
878.569	0.0158719
878.647	0.0157352
878.725	0.0156705
878.803	0.0157267
878.881	0.0158919
878.959	0.0159387
879.038	0.0159654
879.116	0.0160328
879.194	0.0160318
879.272	0.0161648
879.350	0.0159702
879.428	0.0160359
879.506	0.0161581
879.584	0.0161662
879.663	0.0161864
879.741	0.0162498
879.819	0.0161584
879.897	0.0161568
879.975	0.0161044
880.053	0.0161154
880.131	0.0161328
880.209	0.0160667
880.288	0.0160655
880.366	0.0161970
880.444	0.0161643
880.522	0.0161145
880.600	0.0161279
880.678	0.0160547
880.756	0.0159612
880.834	0.0160307
880.913	0.0159492
880.991	0.0159188
881.069	0.0159234
881.147	0.0159441
881.225	0.0157551
881.303	0.0158276
881.381	0.0157497
881.459	0.0158280
881.538	0.0159862
881.616	0.0159892
881.694	0.0160282
881.772	0.0161396
881.850	0.0162157
881.928	0.0162242
882.006	0.0160862
882.084	0.0161655
882.163	0.0162229
882.241	0.0162090
882.319	0.0162727
882.397	0.0162234
882.475	0.0162295
882.553	0.0161333
882.631	0.0162220
882.709	0.0162443
882.788	0.0160835
882.866	0.0161377
882.944	0.0161624
883.022	0.0160926
883.100	0.0161604
883.178	0.0162379
883.256	0.0162373
883.334	0.0162569
883.413	0.0162609
883.491	0.0162259
883.569	0.0162560
883.647	0.0162188
883.725	0.0161906
883.803	0.0162566
883.881	0.0160682
883.959	0.0162722
884.038	0.0161850
884.116	0.0161210
884.194	0.0160353
884.272	0.0161186
884.350	0.0161827
884.428	0.0161411
884.506	0.0160947
884.584	0.0161018
884.663	0.0160783
884.741	0.0161513
884.819	0.0162107
884.897	0.0161531
884.975	0.0162007
885.053	0.0160932
885.131	0.0160506
885.209	0.0162347
885.288	0.0161579
885.366	0.0160623
885.444	0.0161977
885.522	0.0161985
885.600	0.0162155
885.678	0.0161120
885.756	0.0161337
885.834	0.0161562
885.913	0.0159895
885.991	0.0159180
886.069	0.0160500
886.147	0.0159029
886.225	0.0159643
886.303	0.0159532
886.381	0.0159073
886.459	0.0158118
886.538	0.0158009
886.616	0.0158347
886.694	0.0158353
886.772	0.0157166
886.850	0.0157468
886.928	0.0158723
887.006	0.0158398
887.084	0.0157856
887.163	0.0158434
887.241	0.0158746
887.319	0.0159162
887.397	0.0160157
887.475	0.0159404
887.553	0.0160677
887.631	0.0162255
887.709	0.0162212
887.788	0.0163298
887.866	0.0163347
887.944	0.0162125
888.022	0.0162794
888.100	0.0163070
888.178	0.0163289
888.256	0.0163293
888.334	0.0162255
888.413	0.0162635
888.491	0.0162865
888.569	0.0162911
888.647	0.0161828
888.725	0.0161534
888.803	0.0161362
888.881	0.0160545
888.959	0.0160972
889.038	0.0159895
889.116	0.0159250
889.194	0.0161352
889.272	0.0160679
889.350	0.0158671
889.428	0.0159303
889.506	0.0160063
889.584	0.0159711
889.663	0.0160171
889.741	0.0159102
889.819	0.0158538
889.897	0.0158551
889.975	0.0159566
890.053	0.0157822
890.131	0.0158170
890.209	0.0157602
890.288	0.0157201
890.366	0.0158247
890.444	0.0158142
890.522	0.0157292
890.600	0.0160002
890.678	0.0162054
890.756	0.0160649
890.834	0.0161475
890.913	0.0162163
890.991	0.0161502
891.069	0.0163085
891.147	0.0162821
891.225	0.0164115
891.303	0.0162548
891.381	0.0165351
891.459	0.0164506
891.538	0.0164382
891.616	0.0163326
891.694	0.0162749
891.772	0.0162096
891.850	0.0162495
891.928	0.0161842
892.006	0.0161574
892.084	0.0162789
892.163	0.0162250
892.241	0.0160615
892.319	0.0160892
892.397	0.0160137
892.475	0.0159451
892.553	0.0159962
892.631	0.0158578
892.709	0.0160015
892.788	0.0158260
892.866	0.0159676
892.944	0.0159721
893.022	0.0159795
893.100	0.0158232
893.178	0.0159995
893.256	0.0160213
893.334	0.0159901
893.413	0.0160035
893.491	0.0159100
893.569	0.0158227
893.647	0.0158855
893.725	0.0159084
893.803	0.0157996
893.881	0.0159757
893.959	0.0158902
894.038	0.0158825
894.116	0.0160391
894.194	0.0159318
894.272	0.0160575
894.350	0.0161960
894.428	0.0162273
894.506	0.0162887
894.584	0.0162452
894.663	0.0163334
894.741	0.0163558
894.819	0.0161189
894.897	0.0161432
894.975	0.0162142
895.053	0.0161912
895.131	0.0163280
895.209	0.0161117
895.288	0.0160725
895.366	0.0161528
895.444	0.0161463
895.522	0.0161713
895.600	0.0159931
895.678	0.0159055
895.756	0.0159933
895.834	0.0160892
895.913	0.0158178
895.991	0.0158940
896.069	0.0158082
896.147	0.0158839
896.225	0.0156610
896.303	0.0157835
896.381	0.0157661
896.459	0.0157722
896.538	0.0157542
896.616	0.0156876
896.694	0.0157918
896.772	0.0159345
896.850	0.0158916
896.928	0.0159294
897.006	0.0160357
897.084	0.0162641
897.163	0.0162133
897.241	0.0163856
897.319	0.0164695
897.397	0.0164639
897.475	0.0164812
897.553	0.0165325
897.631	0.0165064
897.709	0.0164147
897.788	0.0163522
897.866	0.0163050
897.944	0.0161638
898.022	0.0162466
898.100	0.0161216
898.178	0.0161315
898.256	0.0161216
898.334	0.0160395
898.413	0.0160931
898.491	0.0158984
898.569	0.0160254
898.647	0.0159515
898.725	0.0158744
898.803	0.0159324
898.881	0.0158704
898.959	0.0160001
899.038	0.0159452
899.116	0.0158750
899.194	0.0159819
899.272	0.0159502
899.350	0.0159537
899.428	0.0159905
899.506	0.0160352
899.584	0.0160319
899.663	0.0161562
899.741	0.0161062
899.819	0.0160173
899.897	0.0160677
899.975	0.0160960
900.053	0.0160430
900.131	0.0160851
900.209	0.0159474
900.288	0.0160624
900.366	0.0161503
900.444	0.0161370
900.522	0.0160851
900.600	0.0161699
900.678	0.0163198
900.756	0.0162880
900.834	0.0162701
900.913	0.0164113
900.991	0.0164417
901.069	0.0163023
901.147	0.0161908
901.225	0.0161046
901.303	0.0161301
901.381	0.0160724
901.459	0.0159293
901.538	0.0160438
901.616	0.0158261
901.694	0.0158604
901.772	0.0158322
901.850	0.0157705
901.928	0.0159597
902.006	0.0157583
902.084	0.0158455
902.163	0.0159033
902.241	0.0160438
902.319	0.0159532
902.397	0.0159671
902.475	0.0159470
902.553	0.0161651
902.631	0.0160527
902.709	0.0160667
902.788	0.0160497
902.866	0.0162254
902.944	0.0163840
903.022	0.0164104
903.100	0.0162642
903.178	0.0162724
903.256	0.0163779
903.334	0.0163540
903.413	0.0163022
903.491	0.0161925
903.569	0.0163228
903.647	0.0163448
903.725	0.0160715
903.803	0.0162036
903.881	0.0159205
903.959	0.0161393
904.038	0.0161664
904.116	0.0161264
904.194	0.0161394
904.272	0.0160855
904.350	0.0161349
904.428	0.0162471
904.506	0.0162091
904.584	0.0160460
904.663	0.0160281
904.741	0.0160695
904.819	0.0160598
904.897	0.0159918
904.975	0.0159634
905.053	0.0159340
905.131	0.0160458
905.209	0.0160133
905.288	0.0159810
905.366	0.0159541
905.444	0.0160732
905.522	0.0159949
905.600	0.0158396
905.678	0.0160101
905.756	0.0160062
905.834	0.0159766
905.913	0.0159312
905.991	0.0159344
906.069	0.0158822
906.147	0.0159772
906.225	0.0159116
906.303	0.0159248
906.381	0.0159883
906.459	0.0159872
906.538	0.0160136
906.616	0.0160866
906.694	0.0160364
906.772	0.0159924
906.850	0.0160826
906.928	0.0162146
907.006	0.0161328
907.084	0.0161538
907.163	0.0162426
907.241	0.0163584
907.319	0.0162070
907.397	0.0162754
907.475	0.0163612
907.553	0.0163721
907.631	0.0162772
907.709	0.0162995
907.788	0.0162506
907.866	0.0162249
907.944	0.0164328
908.022	0.0162971
908.100	0.0161774
908.178	0.0162444
908.256	0.0161800
908.334	0.0161353
908.413	0.0160481
908.491	0.0162859
908.569	0.0161357
908.647	0.0161289
908.725	0.0159563
908.803	0.0160757
908.881	0.0160044
908.959	0.0159500
909.038	0.0159427
909.116	0.0159180
909.194	0.0159132
909.272	0.0158441
909.350	0.0160558
909.428	0.0160636
909.506	0.0159865
909.584	0.0160617
909.663	0.0160965
909.741	0.0162305
909.819	0.0161197
909.897	0.0161712
909.975	0.0161407
910.053	0.0161925
910.131	0.0163700
910.209	0.0162740
910.288	0.0163344
910.366	0.0163526
910.444	0.0162253
910.522	0.0162650
910.600	0.0162088
910.678	0.0162114
910.756	0.0161937
910.834	0.0161691
910.913	0.0161263
910.991	0.0160309
911.069	0.0160327
911.147	0.0160111
911.225	0.0159270
911.303	0.0159269
911.381	0.0159709
911.459	0.0158257
911.538	0.0157292
911.616	0.0158008
911.694	0.0157738
911.772	0.0158499
911.850	0.0158010
911.928	0.0158097
912.006	0.0157372
912.084	0.0157902
912.163	0.0157345
912.241	0.0157458
912.319	0.0158717
912.397	0.0158365
912.475	0.0158610
912.553	0.0160651
912.631	0.0161123
912.709	0.0159592
912.788	0.0160092
912.866	0.0160728
912.944	0.0162019
913.022	0.0160375
913.100	0.0161159
913.178	0.0161890
913.256	0.0161096
913.334	0.0160631
913.413	0.0161982
913.491	0.0161426
913.569	0.0161176
913.647	0.0161148
913.725	0.0161716
913.803	0.0162429
913.881	0.0161697
913.959	0.0161761
914.038	0.0162175
914.116	0.0162651
914.194	0.0163660
914.272	0.0162669
914.350	0.0163181
914.428	0.0162061
914.506	0.0162436
914.584	0.0162596
914.663	0.0161853
914.741	0.0161832
914.819	0.0161932
914.897	0.0160764
914.975	0.0161366
915.053	0.0160656
915.131	0.0161504
915.209	0.0160561
915.288	0.0159827
915.366	0.0160426
915.444	0.0159995
915.522	0.0160261
915.600	0.0160141
915.678	0.0159172
915.756	0.0160004
915.834	0.0158747
915.913	0.0158430
915.991	0.0160289
916.069	0.0159655
916.147	0.0158865
916.225	0.0159792
916.303	0.0159869
916.381	0.0159044
916.459	0.0160413
916.538	0.0159842
916.616	0.0158356
916.694	0.0158916
916.772	0.0158502
916.850	0.0159585
916.928	0.0158582
917.006	0.0160227
917.084	0.0159489
917.163	0.0158634
917.241	0.0159097
917.319	0.0159525
917.397	0.0159697
917.475	0.0160815
917.553	0.0159605
917.631	0.0160832
917.709	0.0161259
917.788	0.0160296
917.866	0.0161962
917.944	0.0161624
918.022	0.0160590
918.100	0.0159963
918.178	0.0161523
918.256	0.0162299
918.334	0.0163041
918.413	0.0162864
918.491	0.0162344
918.569	0.0162750
918.647	0.0162141
918.725	0.0162431
918.803	0.0162540
918.881	0.0164089
918.959	0.0162387
919.038	0.0162826
919.116	0.0162424
919.194	0.0162434
919.272	0.0162907
919.350	0.0162681
919.428	0.0163068
919.506	0.0162484
919.584	0.0160877
919.663	0.0162006
919.741	0.0160950
919.819	0.0161230
919.897	0.0160873
