05/20/2022	21:00:08	Ver.	4.1	UNKNOWN
Optical Delay	599.975067	Delta X		0.078125	Sweeps	1	Scan Rate	0/0
Coordinates	Axis 1	NaN	Axis 2	NaN	Axis 3	NaN	Axis 4	NaN	Axis 5	NaN	Axis 6	0.000000
TX Power	0.000000	RX Power	0.000000

599.975	0.0159625
600.053	0.0159316
600.131	0.0159454
600.209	0.0160219
600.288	0.0159805
600.366	0.0159878
600.444	0.0160266
600.522	0.0160811
600.600	0.0159331
600.678	0.0160146
600.756	0.0159572
600.834	0.0160361
600.913	0.0159061
600.991	0.0160125
601.069	0.0159629
601.147	0.0161710
601.225	0.0159504
601.303	0.0160040
601.381	0.0159390
601.459	0.0159380
601.538	0.0158537
601.616	0.0159687
601.694	0.0158666
601.772	0.0160312
601.850	0.0159240
601.928	0.0157691
602.006	0.0159137
602.084	0.0159079
602.163	0.0160480
602.241	0.0160220
602.319	0.0159003
602.397	0.0159033
602.475	0.0159723
602.553	0.0159071
602.631	0.0159711
602.709	0.0159556
602.788	0.0158186
602.866	0.0158690
602.944	0.0159347
603.022	0.0160605
603.100	0.0161559
603.178	0.0159495
603.256	0.0159370
603.334	0.0158563
603.413	0.0158984
603.491	0.0160092
603.569	0.0159655
603.647	0.0160003
603.725	0.0159161
603.803	0.0158638
603.881	0.0160113
603.959	0.0161631
604.038	0.0159621
604.116	0.0159888
604.194	0.0159315
604.272	0.0158956
604.350	0.0159109
604.428	0.0160285
604.506	0.0160214
604.584	0.0160194
604.663	0.0160677
604.741	0.0159720
604.819	0.0159679
604.897	0.0159664
604.975	0.0159933
605.053	0.0161584
605.131	0.0159167
605.209	0.0159520
605.288	0.0159622
605.366	0.0160388
605.444	0.0159963
605.522	0.0159949
605.600	0.0160651
605.678	0.0159958
605.756	0.0160912
605.834	0.0159767
605.913	0.0159429
605.991	0.0159023
606.069	0.0160535
606.147	0.0159167
606.225	0.0160537
606.303	0.0160480
606.381	0.0158800
606.459	0.0160224
606.538	0.0161218
606.616	0.0159853
606.694	0.0160529
606.772	0.0160679
606.850	0.0160164
606.928	0.0160062
607.006	0.0160402
607.084	0.0160012
607.163	0.0161050
607.241	0.0162710
607.319	0.0159090
607.397	0.0159351
607.475	0.0160263
607.553	0.0161499
607.631	0.0159659
607.709	0.0161096
607.788	0.0159762
607.866	0.0160191
607.944	0.0160923
608.022	0.0161645
608.100	0.0158919
608.178	0.0159813
608.256	0.0160837
608.334	0.0159674
608.413	0.0160690
608.491	0.0159687
608.569	0.0159155
608.647	0.0160384
608.725	0.0159280
608.803	0.0159888
608.881	0.0159374
608.959	0.0160420
609.038	0.0160180
609.116	0.0160091
609.194	0.0160555
609.272	0.0159953
609.350	0.0159595
609.428	0.0160944
609.506	0.0159996
609.584	0.0161290
609.663	0.0160415
609.741	0.0159658
609.819	0.0160183
609.897	0.0160944
609.975	0.0160258
610.053	0.0160115
610.131	0.0159566
610.209	0.0160999
610.288	0.0160540
610.366	0.0160647
610.444	0.0161262
610.522	0.0160535
610.600	0.0160670
610.678	0.0161086
610.756	0.0160409
610.834	0.0161332
610.913	0.0160300
610.991	0.0159784
611.069	0.0160220
611.147	0.0159731
611.225	0.0161201
611.303	0.0160883
611.381	0.0160847
611.459	0.0160891
611.538	0.0159807
611.616	0.0160577
611.694	0.0160798
611.772	0.0161884
611.850	0.0160316
611.928	0.0160294
612.006	0.0160892
612.084	0.0160210
612.163	0.0160878
612.241	0.0160836
612.319	0.0160488
612.397	0.0159392
612.475	0.0160870
612.553	0.0161562
612.631	0.0161494
612.709	0.0161410
612.788	0.0160804
612.866	0.0162971
612.944	0.0160915
613.022	0.0160419
613.100	0.0160541
613.178	0.0161236
613.256	0.0161639
613.334	0.0160855
613.413	0.0160526
613.491	0.0159837
613.569	0.0160268
613.647	0.0161875
613.725	0.0161063
613.803	0.0162459
613.881	0.0160536
613.959	0.0161672
614.038	0.0161002
614.116	0.0160853
614.194	0.0162492
614.272	0.0161066
614.350	0.0160976
614.428	0.0160513
614.506	0.0162625
614.584	0.0160516
614.663	0.0160806
614.741	0.0161472
614.819	0.0160745
614.897	0.0160937
614.975	0.0159924
615.053	0.0161154
615.131	0.0161206
615.209	0.0160007
615.288	0.0160631
615.366	0.0160204
615.444	0.0159936
615.522	0.0159891
615.600	0.0159922
615.678	0.0160368
615.756	0.0160368
615.834	0.0159055
615.913	0.0160443
615.991	0.0159997
616.069	0.0158860
616.147	0.0159815
616.225	0.0160218
616.303	0.0160088
616.381	0.0158985
616.459	0.0158823
616.538	0.0159388
616.616	0.0159216
616.694	0.0160845
616.772	0.0160038
616.850	0.0159084
616.928	0.0159097
617.006	0.0158255
617.084	0.0160599
617.163	0.0158631
617.241	0.0158384
617.319	0.0157893
617.397	0.0158034
617.475	0.0158309
617.553	0.0157350
617.631	0.0158503
617.709	0.0158990
617.788	0.0158530
617.866	0.0158083
617.944	0.0157830
618.022	0.0157013
618.100	0.0158412
618.178	0.0158037
618.256	0.0159278
618.334	0.0157459
618.413	0.0157312
618.491	0.0158534
618.569	0.0157384
618.647	0.0158380
618.725	0.0157910
618.803	0.0157738
618.881	0.0158240
618.959	0.0157841
619.038	0.0156933
619.116	0.0157770
619.194	0.0157455
619.272	0.0158266
619.350	0.0158546
619.428	0.0158355
619.506	0.0157754
619.584	0.0158663
619.663	0.0155871
619.741	0.0157346
619.819	0.0157477
619.897	0.0157473
619.975	0.0157371
620.053	0.0158877
620.131	0.0159036
620.209	0.0157471
620.288	0.0158784
620.366	0.0158339
620.444	0.0158257
620.522	0.0159151
620.600	0.0158640
620.678	0.0159525
620.756	0.0159512
620.834	0.0159039
620.913	0.0158569
620.991	0.0159319
621.069	0.0158804
621.147	0.0158566
621.225	0.0159050
621.303	0.0158597
621.381	0.0158607
621.459	0.0158045
621.538	0.0158949
621.616	0.0158132
621.694	0.0158646
621.772	0.0159965
621.850	0.0159122
621.928	0.0159402
622.006	0.0159299
622.084	0.0159690
622.163	0.0158739
622.241	0.0159135
622.319	0.0158879
622.397	0.0158909
622.475	0.0158307
622.553	0.0160700
622.631	0.0158821
622.709	0.0158002
622.788	0.0159837
622.866	0.0159254
622.944	0.0158711
623.022	0.0158815
623.100	0.0158066
623.178	0.0158112
623.256	0.0158467
623.334	0.0159547
623.413	0.0159497
623.491	0.0159088
623.569	0.0159056
623.647	0.0160119
623.725	0.0159599
623.803	0.0157678
623.881	0.0159216
623.959	0.0158655
624.038	0.0159297
624.116	0.0159886
624.194	0.0159395
624.272	0.0159241
624.350	0.0160778
624.428	0.0159564
624.506	0.0159447
624.584	0.0160757
624.663	0.0158942
624.741	0.0159087
624.819	0.0160771
624.897	0.0159704
624.975	0.0160690
625.053	0.0160219
625.131	0.0158065
625.209	0.0159061
625.288	0.0160976
625.366	0.0160137
625.444	0.0159496
625.522	0.0159447
625.600	0.0161003
625.678	0.0159897
625.756	0.0160684
625.834	0.0160766
625.913	0.0159425
625.991	0.0157649
626.069	0.0159809
626.147	0.0160148
626.225	0.0160667
626.303	0.0159618
626.381	0.0160944
626.459	0.0159357
626.538	0.0161344
626.616	0.0160746
626.694	0.0160217
626.772	0.0159222
626.850	0.0159507
626.928	0.0160315
627.006	0.0160627
627.084	0.0160551
627.163	0.0160646
627.241	0.0161043
627.319	0.0159779
627.397	0.0160782
627.475	0.0160532
627.553	0.0159806
627.631	0.0160165
627.709	0.0161199
627.788	0.0159404
627.866	0.0161454
627.944	0.0160304
628.022	0.0160166
628.100	0.0161131
628.178	0.0160950
628.256	0.0161283
628.334	0.0160632
628.413	0.0160606
628.491	0.0160404
628.569	0.0160311
628.647	0.0160641
628.725	0.0160400
628.803	0.0159883
628.881	0.0161532
628.959	0.0161558
629.038	0.0161114
629.116	0.0160848
629.194	0.0161036
629.272	0.0159527
629.350	0.0161659
629.428	0.0163081
629.506	0.0162792
629.584	0.0161999
629.663	0.0161633
629.741	0.0160558
629.819	0.0160448
629.897	0.0160817
629.975	0.0161312
630.053	0.0160265
630.131	0.0161562
630.209	0.0161369
630.288	0.0161992
630.366	0.0160275
630.444	0.0161961
630.522	0.0161883
630.600	0.0159940
630.678	0.0161183
630.756	0.0161159
630.834	0.0161349
630.913	0.0161181
630.991	0.0162341
631.069	0.0161219
631.147	0.0160524
631.225	0.0161279
631.303	0.0162280
631.381	0.0161451
631.459	0.0162160
631.538	0.0162570
631.616	0.0160565
631.694	0.0159998
631.772	0.0161322
631.850	0.0162325
631.928	0.0161033
632.006	0.0161762
632.084	0.0161732
632.163	0.0161003
632.241	0.0161264
632.319	0.0161000
632.397	0.0159112
632.475	0.0161806
632.553	0.0160404
632.631	0.0160297
632.709	0.0161142
632.788	0.0162049
632.866	0.0160677
632.944	0.0161697
633.022	0.0161235
633.100	0.0161608
633.178	0.0161356
633.256	0.0161486
633.334	0.0160657
633.413	0.0160309
633.491	0.0161346
633.569	0.0159962
633.647	0.0160720
633.725	0.0161095
633.803	0.0160076
633.881	0.0160211
633.959	0.0161141
634.038	0.0162074
634.116	0.0160613
634.194	0.0161245
634.272	0.0161559
634.350	0.0162019
634.428	0.0163983
634.506	0.0159980
634.584	0.0160269
634.663	0.0160539
634.741	0.0160791
634.819	0.0161729
634.897	0.0161848
634.975	0.0160997
635.053	0.0161151
635.131	0.0161124
635.209	0.0161555
635.288	0.0159508
635.366	0.0160777
635.444	0.0160340
635.522	0.0162139
635.600	0.0160535
635.678	0.0159943
635.756	0.0161637
635.834	0.0160877
635.913	0.0160683
635.991	0.0159586
636.069	0.0160248
636.147	0.0161466
636.225	0.0159665
636.303	0.0159864
636.381	0.0159395
636.459	0.0159795
636.538	0.0160545
636.616	0.0159982
636.694	0.0160679
636.772	0.0160521
636.850	0.0160807
636.928	0.0160334
637.006	0.0159341
637.084	0.0160123
637.163	0.0159164
637.241	0.0160201
637.319	0.0160828
637.397	0.0159820
637.475	0.0160096
637.553	0.0160212
637.631	0.0159194
637.709	0.0158791
637.788	0.0159950
637.866	0.0160619
637.944	0.0159723
638.022	0.0160065
638.100	0.0159680
638.178	0.0158219
638.256	0.0158654
638.334	0.0158529
638.413	0.0159004
638.491	0.0159073
638.569	0.0157978
638.647	0.0158674
638.725	0.0159346
638.803	0.0157901
638.881	0.0159538
638.959	0.0159515
639.038	0.0159060
639.116	0.0158719
639.194	0.0158093
639.272	0.0158157
639.350	0.0157415
639.428	0.0158305
639.506	0.0157002
639.584	0.0158290
639.663	0.0159354
639.741	0.0157923
639.819	0.0158879
639.897	0.0158372
639.975	0.0157597
640.053	0.0158486
640.131	0.0158972
640.209	0.0158795
640.288	0.0158884
640.366	0.0158325
640.444	0.0158131
640.522	0.0159179
640.600	0.0159309
640.678	0.0158696
640.756	0.0158390
640.834	0.0158964
640.913	0.0158005
640.991	0.0157954
641.069	0.0158014
641.147	0.0156768
641.225	0.0158781
641.303	0.0158582
641.381	0.0158066
641.459	0.0157928
641.538	0.0158067
641.616	0.0158910
641.694	0.0159284
641.772	0.0158041
641.850	0.0159291
641.928	0.0158263
642.006	0.0157555
642.084	0.0158105
642.163	0.0158636
642.241	0.0158139
642.319	0.0158662
642.397	0.0158024
642.475	0.0158430
642.553	0.0158394
642.631	0.0158337
642.709	0.0157127
642.788	0.0158095
642.866	0.0158053
642.944	0.0159435
643.022	0.0158849
643.100	0.0158414
643.178	0.0159475
643.256	0.0157817
643.334	0.0157612
643.413	0.0158766
643.491	0.0158296
643.569	0.0158636
643.647	0.0158791
643.725	0.0158233
643.803	0.0159119
643.881	0.0158681
643.959	0.0159026
644.038	0.0158601
644.116	0.0158337
644.194	0.0158860
644.272	0.0157191
644.350	0.0157352
644.428	0.0158746
644.506	0.0158845
644.584	0.0160146
644.663	0.0159666
644.741	0.0158448
644.819	0.0158450
644.897	0.0158155
644.975	0.0158162
645.053	0.0158728
645.131	0.0158461
645.209	0.0159094
645.288	0.0157712
645.366	0.0158759
645.444	0.0158418
645.522	0.0158212
645.600	0.0158276
645.678	0.0160099
645.756	0.0160665
645.834	0.0160111
645.913	0.0159276
645.991	0.0159583
646.069	0.0159229
646.147	0.0159200
646.225	0.0159418
646.303	0.0159923
646.381	0.0160621
646.459	0.0159811
646.538	0.0160594
646.616	0.0159474
646.694	0.0160039
646.772	0.0158417
646.850	0.0158785
646.928	0.0159681
647.006	0.0160044
647.084	0.0158703
647.163	0.0158751
647.241	0.0159018
647.319	0.0160206
647.397	0.0158695
647.475	0.0159125
647.553	0.0160575
647.631	0.0161583
647.709	0.0160188
647.788	0.0159637
647.866	0.0160012
647.944	0.0159836
648.022	0.0160905
648.100	0.0159233
648.178	0.0157505
648.256	0.0159122
648.334	0.0159081
648.413	0.0159530
648.491	0.0159401
648.569	0.0160358
648.647	0.0160339
648.725	0.0159514
648.803	0.0161633
648.881	0.0160000
648.959	0.0159527
649.038	0.0159505
649.116	0.0160132
649.194	0.0159693
649.272	0.0159614
649.350	0.0159702
649.428	0.0160859
649.506	0.0161393
649.584	0.0159832
649.663	0.0158685
649.741	0.0160587
649.819	0.0161246
649.897	0.0159173
649.975	0.0160326
650.053	0.0159293
650.131	0.0159995
650.209	0.0159706
650.288	0.0158852
650.366	0.0159258
650.444	0.0160017
650.522	0.0159621
650.600	0.0160626
650.678	0.0160288
650.756	0.0160348
650.834	0.0160004
650.913	0.0159245
650.991	0.0159918
651.069	0.0160976
651.147	0.0160762
651.225	0.0160265
651.303	0.0161550
651.381	0.0159914
651.459	0.0161039
651.538	0.0160252
651.616	0.0159101
651.694	0.0159204
651.772	0.0160911
651.850	0.0160759
651.928	0.0161103
652.006	0.0162919
652.084	0.0161263
652.163	0.0159808
652.241	0.0159491
652.319	0.0159215
652.397	0.0160252
652.475	0.0161900
652.553	0.0160972
652.631	0.0159578
652.709	0.0160365
652.788	0.0160635
652.866	0.0159743
652.944	0.0160389
653.022	0.0161159
653.100	0.0160966
653.178	0.0161458
653.256	0.0159806
653.334	0.0160889
653.413	0.0161662
653.491	0.0159588
653.569	0.0160069
653.647	0.0160815
653.725	0.0160089
653.803	0.0159361
653.881	0.0160278
653.959	0.0158700
654.038	0.0160043
654.116	0.0160384
654.194	0.0160194
654.272	0.0160067
654.350	0.0159563
654.428	0.0159367
654.506	0.0160381
654.584	0.0161871
654.663	0.0159193
654.741	0.0160283
654.819	0.0159574
654.897	0.0160778
654.975	0.0159926
655.053	0.0160222
655.131	0.0160612
655.209	0.0160763
655.288	0.0161212
655.366	0.0159510
655.444	0.0158775
655.522	0.0159677
655.600	0.0159521
655.678	0.0159590
655.756	0.0159560
655.834	0.0160818
655.913	0.0159866
655.991	0.0159877
656.069	0.0159517
656.147	0.0160136
656.225	0.0161873
656.303	0.0159769
656.381	0.0159419
656.459	0.0158707
656.538	0.0158971
656.616	0.0159032
656.694	0.0159971
656.772	0.0159875
656.850	0.0159607
656.928	0.0159467
657.006	0.0160504
657.084	0.0160542
657.163	0.0159642
657.241	0.0159308
657.319	0.0159983
657.397	0.0159801
657.475	0.0159094
657.553	0.0158660
657.631	0.0159458
657.709	0.0159315
657.788	0.0160133
657.866	0.0160030
657.944	0.0160931
658.022	0.0159560
658.100	0.0160606
658.178	0.0160245
658.256	0.0159293
658.334	0.0159835
658.413	0.0160208
658.491	0.0158298
658.569	0.0159566
658.647	0.0159669
658.725	0.0159325
658.803	0.0158656
658.881	0.0158710
658.959	0.0160458
659.038	0.0159867
659.116	0.0159103
659.194	0.0157832
659.272	0.0159957
659.350	0.0159047
659.428	0.0159016
659.506	0.0159766
659.584	0.0160522
659.663	0.0160849
659.741	0.0159553
659.819	0.0161786
659.897	0.0162018
659.975	0.0162078
660.053	0.0161208
660.131	0.0159974
660.209	0.0161797
660.288	0.0161925
660.366	0.0161583
660.444	0.0161256
660.522	0.0161249
660.600	0.0161628
660.678	0.0161629
660.756	0.0158595
660.834	0.0159526
660.913	0.0159982
660.991	0.0159502
661.069	0.0158867
661.147	0.0158722
661.225	0.0159109
661.303	0.0157738
661.381	0.0156847
661.459	0.0157819
661.538	0.0157869
661.616	0.0157539
661.694	0.0157954
661.772	0.0156886
661.850	0.0157301
661.928	0.0157465
662.006	0.0158068
662.084	0.0158184
662.163	0.0158990
662.241	0.0158727
662.319	0.0159790
662.397	0.0159692
662.475	0.0161040
662.553	0.0161121
662.631	0.0161843
662.709	0.0160684
662.788	0.0162903
662.866	0.0161957
662.944	0.0161604
663.022	0.0162820
663.100	0.0161613
663.178	0.0162241
663.256	0.0163208
663.334	0.0162157
663.413	0.0161878
663.491	0.0161812
663.569	0.0161395
663.647	0.0161683
663.725	0.0159654
663.803	0.0161008
663.881	0.0159806
663.959	0.0157594
664.038	0.0158302
664.116	0.0158676
664.194	0.0157744
664.272	0.0157822
664.350	0.0156921
664.428	0.0156792
664.506	0.0158183
664.584	0.0158344
664.663	0.0157776
664.741	0.0157596
664.819	0.0157519
664.897	0.0157795
664.975	0.0157954
665.053	0.0157777
665.131	0.0159540
665.209	0.0158116
665.288	0.0159791
665.366	0.0157357
665.444	0.0157663
665.522	0.0158216
665.600	0.0156944
665.678	0.0158900
665.756	0.0159025
665.834	0.0158136
665.913	0.0157832
665.991	0.0158324
666.069	0.0158685
666.147	0.0158154
666.225	0.0158816
666.303	0.0161119
666.381	0.0160805
666.459	0.0159837
666.538	0.0160001
666.616	0.0160277
666.694	0.0161047
666.772	0.0161079
666.850	0.0160423
666.928	0.0160526
667.006	0.0162064
667.084	0.0160307
667.163	0.0160270
667.241	0.0161851
667.319	0.0160427
667.397	0.0161176
667.475	0.0160728
667.553	0.0160133
667.631	0.0158563
667.709	0.0160783
667.788	0.0160849
667.866	0.0160370
667.944	0.0159550
668.022	0.0159246
668.100	0.0159360
668.178	0.0157894
668.256	0.0158878
668.334	0.0159663
668.413	0.0156883
668.491	0.0156629
668.569	0.0157202
668.647	0.0155349
668.725	0.0156055
668.803	0.0156464
668.881	0.0155798
668.959	0.0157040
669.038	0.0156046
669.116	0.0155807
669.194	0.0155204
669.272	0.0156535
669.350	0.0155673
669.428	0.0158133
669.506	0.0157587
669.584	0.0156941
669.663	0.0157996
669.741	0.0158004
669.819	0.0158772
669.897	0.0158497
669.975	0.0161095
670.053	0.0160576
670.131	0.0159531
670.209	0.0161666
670.288	0.0161418
670.366	0.0162408
670.444	0.0162323
670.522	0.0162741
670.600	0.0164109
670.678	0.0162905
670.756	0.0164030
670.834	0.0163326
670.913	0.0165287
670.991	0.0163764
671.069	0.0164803
671.147	0.0165164
671.225	0.0163271
671.303	0.0162553
671.381	0.0162892
671.459	0.0161225
671.538	0.0161159
671.616	0.0160148
671.694	0.0160692
671.772	0.0158827
671.850	0.0157259
671.928	0.0157764
672.006	0.0155967
672.084	0.0157021
672.163	0.0156692
672.241	0.0155151
672.319	0.0154484
672.397	0.0154295
672.475	0.0155620
672.553	0.0152966
672.631	0.0152940
672.709	0.0155355
672.788	0.0155706
672.866	0.0155512
672.944	0.0155078
673.022	0.0154025
673.100	0.0155836
673.178	0.0156662
673.256	0.0156409
673.334	0.0158384
673.413	0.0159512
673.491	0.0160621
673.569	0.0161258
673.647	0.0160358
673.725	0.0161715
673.803	0.0162923
673.881	0.0162264
673.959	0.0161816
674.038	0.0163091
674.116	0.0163533
674.194	0.0164331
674.272	0.0164976
674.350	0.0165053
674.428	0.0165999
674.506	0.0163420
674.584	0.0164274
674.663	0.0165300
674.741	0.0164731
674.819	0.0164511
674.897	0.0163817
674.975	0.0162762
675.053	0.0163541
675.131	0.0162482
675.209	0.0161607
675.288	0.0160449
675.366	0.0160536
675.444	0.0159977
675.522	0.0159855
675.600	0.0158678
675.678	0.0157153
675.756	0.0157814
675.834	0.0157623
675.913	0.0155950
675.991	0.0156747
676.069	0.0156664
676.147	0.0155519
676.225	0.0154261
676.303	0.0155724
676.381	0.0154543
676.459	0.0154713
676.538	0.0154883
676.616	0.0155872
676.694	0.0156689
676.772	0.0155733
676.850	0.0156619
676.928	0.0158764
677.006	0.0158033
677.084	0.0158372
677.163	0.0159296
677.241	0.0160638
677.319	0.0163348
677.397	0.0162759
677.475	0.0163993
677.553	0.0164060
677.631	0.0164288
677.709	0.0165282
677.788	0.0165845
677.866	0.0166026
677.944	0.0165315
678.022	0.0165308
678.100	0.0164796
678.178	0.0165007
678.256	0.0164237
678.334	0.0163691
678.413	0.0163206
678.491	0.0163148
678.569	0.0160490
678.647	0.0160428
678.725	0.0161012
678.803	0.0160268
678.881	0.0159741
678.959	0.0158627
679.038	0.0158812
679.116	0.0158701
679.194	0.0158289
679.272	0.0160468
679.350	0.0158079
679.428	0.0158533
679.506	0.0159087
679.584	0.0157981
679.663	0.0159205
679.741	0.0158543
679.819	0.0158010
679.897	0.0159242
679.975	0.0157536
680.053	0.0160879
680.131	0.0158678
680.209	0.0159507
680.288	0.0159420
680.366	0.0158482
680.444	0.0158366
680.522	0.0158328
680.600	0.0157582
680.678	0.0158031
680.756	0.0156069
680.834	0.0157420
680.913	0.0157765
680.991	0.0157447
681.069	0.0157376
681.147	0.0159153
681.225	0.0159428
681.303	0.0160890
681.381	0.0162576
681.459	0.0162127
681.538	0.0163653
681.616	0.0163164
681.694	0.0164458
681.772	0.0164574
681.850	0.0166148
681.928	0.0163774
682.006	0.0163707
682.084	0.0163710
682.163	0.0160665
682.241	0.0159051
682.319	0.0158043
682.397	0.0157411
682.475	0.0156772
682.553	0.0154146
682.631	0.0155790
682.709	0.0154337
682.788	0.0152958
682.866	0.0154156
682.944	0.0153902
683.022	0.0155579
683.100	0.0156327
683.178	0.0157945
683.256	0.0160716
683.334	0.0161089
683.413	0.0162846
683.491	0.0161835
683.569	0.0163291
683.647	0.0164259
683.725	0.0165274
683.803	0.0166635
683.881	0.0165678
683.959	0.0165219
684.038	0.0165276
684.116	0.0164030
684.194	0.0161980
684.272	0.0160243
684.350	0.0160963
684.428	0.0158470
684.506	0.0157923
684.584	0.0158148
684.663	0.0158069
684.741	0.0158615
684.819	0.0158857
684.897	0.0159276
684.975	0.0158488
685.053	0.0160017
685.131	0.0158640
685.209	0.0159320
685.288	0.0158941
685.366	0.0158835
685.444	0.0157465
685.522	0.0156945
685.600	0.0155638
685.678	0.0155839
685.756	0.0155276
685.834	0.0154021
685.913	0.0152528
685.991	0.0154028
686.069	0.0151876
686.147	0.0152589
686.225	0.0152288
686.303	0.0154489
686.381	0.0155943
686.459	0.0157244
686.538	0.0158154
686.616	0.0159080
686.694	0.0162175
686.772	0.0165141
686.850	0.0167513
686.928	0.0168671
687.006	0.0169612
687.084	0.0171436
687.163	0.0171829
687.241	0.0172887
687.319	0.0174657
687.397	0.0172366
687.475	0.0171110
687.553	0.0169033
687.631	0.0167915
687.709	0.0166972
687.788	0.0164638
687.866	0.0159895
687.944	0.0158146
688.022	0.0157032
688.100	0.0155508
688.178	0.0153983
688.256	0.0150504
688.334	0.0149865
688.413	0.0147692
688.491	0.0145435
688.569	0.0146217
688.647	0.0144472
688.725	0.0142592
688.803	0.0141819
688.881	0.0139320
688.959	0.0140568
689.038	0.0138981
689.116	0.0139001
689.194	0.0142316
689.272	0.0144281
689.350	0.0146751
689.428	0.0152279
689.506	0.0154705
689.584	0.0161457
689.663	0.0167366
689.741	0.0171777
689.819	0.0177260
689.897	0.0182709
689.975	0.0185096
690.053	0.0188718
690.131	0.0188943
690.209	0.0190042
690.288	0.0188450
690.366	0.0186440
690.444	0.0183875
690.522	0.0178823
690.600	0.0176148
690.678	0.0172778
690.756	0.0168356
690.834	0.0165131
690.913	0.0161180
690.991	0.0157980
691.069	0.0155434
691.147	0.0153610
691.225	0.0151273
691.303	0.0149345
691.381	0.0147923
691.459	0.0145338
691.538	0.0143607
691.616	0.0140848
691.694	0.0138243
691.772	0.0138908
691.850	0.0137018
691.928	0.0135991
692.006	0.0137753
692.084	0.0138235
692.163	0.0139426
692.241	0.0140829
692.319	0.0143101
692.397	0.0148483
692.475	0.0150655
692.553	0.0153947
692.631	0.0158061
692.709	0.0163226
692.788	0.0166484
692.866	0.0170697
692.944	0.0172906
693.022	0.0175084
693.100	0.0177033
693.178	0.0179716
693.256	0.0180975
693.334	0.0180051
693.413	0.0178468
693.491	0.0178214
693.569	0.0178194
693.647	0.0175869
693.725	0.0175150
693.803	0.0173444
693.881	0.0171541
693.959	0.0169599
694.038	0.0167892
694.116	0.0167706
694.194	0.0164040
694.272	0.0161150
694.350	0.0158958
694.428	0.0155735
694.506	0.0153058
694.584	0.0150230
694.663	0.0147485
694.741	0.0141673
694.819	0.0137275
694.897	0.0133480
694.975	0.0132988
695.053	0.0133130
695.131	0.0132735
695.209	0.0133790
695.288	0.0138072
695.366	0.0141142
695.444	0.0146242
695.522	0.0150494
695.600	0.0156055
695.678	0.0159817
695.756	0.0164395
695.834	0.0169235
695.913	0.0170901
695.991	0.0172193
696.069	0.0173077
696.147	0.0173106
696.225	0.0171632
696.303	0.0172684
696.381	0.0171568
696.459	0.0171857
696.538	0.0174474
696.616	0.0173512
696.694	0.0175034
696.772	0.0176183
696.850	0.0178710
696.928	0.0180160
697.006	0.0180122
697.084	0.0180179
697.163	0.0179881
697.241	0.0178457
697.319	0.0176469
697.397	0.0174454
697.475	0.0170017
697.553	0.0165285
697.631	0.0162810
697.709	0.0160534
697.788	0.0156268
697.866	0.0153355
697.944	0.0149261
698.022	0.0145852
698.100	0.0142770
698.178	0.0138680
698.256	0.0134570
698.334	0.0131096
698.413	0.0126115
698.491	0.0123746
698.569	0.0120667
698.647	0.0118925
698.725	0.0118718
698.803	0.0120341
698.881	0.0122235
698.959	0.0124825
699.038	0.0128081
699.116	0.0134447
699.194	0.0140899
699.272	0.0146769
699.350	0.0153156
699.428	0.0161530
699.506	0.0166505
699.584	0.0173768
699.663	0.0180656
699.741	0.0186818
699.819	0.0190182
699.897	0.0194648
699.975	0.0197946
700.053	0.0199710
700.131	0.0201685
700.209	0.0202337
700.288	0.0202369
700.366	0.0200697
700.444	0.0198051
700.522	0.0195751
700.600	0.0192718
700.678	0.0188589
700.756	0.0184287
700.834	0.0178632
700.913	0.0175064
700.991	0.0170362
701.069	0.0166591
701.147	0.0162974
701.225	0.0159438
701.303	0.0157790
701.381	0.0153970
701.459	0.0152222
701.538	0.0148441
701.616	0.0144972
701.694	0.0141537
701.772	0.0137733
701.850	0.0134510
701.928	0.0131522
702.006	0.0129481
702.084	0.0126186
702.163	0.0126267
702.241	0.0123953
702.319	0.0124506
702.397	0.0124748
702.475	0.0127756
702.553	0.0130242
702.631	0.0132529
702.709	0.0138130
702.788	0.0143624
702.866	0.0146792
702.944	0.0150948
703.022	0.0154792
703.100	0.0159399
703.178	0.0164787
703.256	0.0169404
703.334	0.0170842
703.413	0.0174137
703.491	0.0177718
703.569	0.0179948
703.647	0.0181701
703.725	0.0181321
703.803	0.0184000
703.881	0.0182032
703.959	0.0179328
704.038	0.0179184
704.116	0.0175799
704.194	0.0173981
704.272	0.0170487
704.350	0.0165780
704.428	0.0161661
704.506	0.0158179
704.584	0.0156222
704.663	0.0153553
704.741	0.0152190
704.819	0.0151691
704.897	0.0152670
704.975	0.0153806
705.053	0.0156628
705.131	0.0158006
705.209	0.0159727
705.288	0.0161390
705.366	0.0162616
705.444	0.0163434
705.522	0.0165665
705.600	0.0166015
705.678	0.0165194
705.756	0.0166830
705.834	0.0166476
705.913	0.0167403
705.991	0.0169718
706.069	0.0168146
706.147	0.0168842
706.225	0.0169274
706.303	0.0167980
706.381	0.0170130
706.459	0.0167962
706.538	0.0164761
706.616	0.0163306
706.694	0.0161218
706.772	0.0158809
706.850	0.0155746
706.928	0.0155495
707.006	0.0154016
707.084	0.0152420
707.163	0.0150856
707.241	0.0150678
707.319	0.0149642
707.397	0.0151939
707.475	0.0152051
707.553	0.0150435
707.631	0.0150353
707.709	0.0153172
707.788	0.0152813
707.866	0.0153310
707.944	0.0153278
708.022	0.0153609
708.100	0.0155965
708.178	0.0157195
708.256	0.0159298
708.334	0.0160558
708.413	0.0162148
708.491	0.0162389
708.569	0.0164959
708.647	0.0166106
708.725	0.0166140
708.803	0.0163213
708.881	0.0161127
708.959	0.0160107
709.038	0.0155916
709.116	0.0152257
709.194	0.0147776
709.272	0.0145194
709.350	0.0142152
709.428	0.0140330
709.506	0.0138165
709.584	0.0138075
709.663	0.0139352
709.741	0.0143915
709.819	0.0147162
709.897	0.0150111
709.975	0.0153506
710.053	0.0157645
710.131	0.0162666
710.209	0.0165954
710.288	0.0169644
710.366	0.0172853
710.444	0.0174412
710.522	0.0175993
710.600	0.0177759
710.678	0.0179313
710.756	0.0181669
710.834	0.0182638
710.913	0.0183858
710.991	0.0184654
711.069	0.0185544
711.147	0.0187317
711.225	0.0186062
711.303	0.0187212
711.381	0.0187360
711.459	0.0186298
711.538	0.0186713
711.616	0.0183747
711.694	0.0181252
711.772	0.0177814
711.850	0.0174422
711.928	0.0169675
712.006	0.0164417
712.084	0.0157926
712.163	0.0152353
712.241	0.0145470
712.319	0.0140694
712.397	0.0135157
712.475	0.0132637
712.553	0.0128875
712.631	0.0128835
712.709	0.0127631
712.788	0.0128710
712.866	0.0131232
712.944	0.0134694
713.022	0.0133849
713.100	0.0138227
713.178	0.0141290
713.256	0.0143756
713.334	0.0146428
713.413	0.0149210
713.491	0.0150815
713.569	0.0153137
713.647	0.0155540
713.725	0.0157007
713.803	0.0157841
713.881	0.0159975
713.959	0.0161809
714.038	0.0162407
714.116	0.0161279
714.194	0.0161403
714.272	0.0162586
714.350	0.0161794
714.428	0.0162254
714.506	0.0161318
714.584	0.0159589
714.663	0.0159704
714.741	0.0159721
714.819	0.0158769
714.897	0.0160572
714.975	0.0159963
715.053	0.0160695
715.131	0.0161665
715.209	0.0162347
715.288	0.0162928
715.366	0.0164442
715.444	0.0166331
715.522	0.0167311
715.600	0.0168952
715.678	0.0169260
715.756	0.0171973
715.834	0.0173499
715.913	0.0174910
715.991	0.0178101
716.069	0.0181258
716.147	0.0183034
716.225	0.0186223
716.303	0.0188773
716.381	0.0191334
716.459	0.0190413
716.538	0.0190936
716.616	0.0189493
716.694	0.0184096
716.772	0.0180326
716.850	0.0176498
716.928	0.0170544
717.006	0.0164771
717.084	0.0160255
717.163	0.0154235
717.241	0.0151305
717.319	0.0147999
717.397	0.0144524
717.475	0.0143126
717.553	0.0141713
717.631	0.0139848
717.709	0.0137155
717.788	0.0136043
717.866	0.0136511
717.944	0.0134133
718.022	0.0131377
718.100	0.0130863
718.178	0.0130367
718.256	0.0130246
718.334	0.0130875
718.413	0.0133232
718.491	0.0135743
718.569	0.0138488
718.647	0.0141490
718.725	0.0146301
718.803	0.0149258
718.881	0.0153060
718.959	0.0155204
719.038	0.0158096
719.116	0.0160699
719.194	0.0160101
719.272	0.0160367
719.350	0.0161124
719.428	0.0161582
719.506	0.0162762
719.584	0.0161821
719.663	0.0161977
719.741	0.0163396
719.819	0.0165108
719.897	0.0166075
719.975	0.0166641
720.053	0.0168892
720.131	0.0170038
720.209	0.0169747
720.288	0.0170444
720.366	0.0170493
720.444	0.0169585
720.522	0.0168833
720.600	0.0168073
720.678	0.0166270
720.756	0.0166216
720.834	0.0166989
720.913	0.0167841
720.991	0.0169705
721.069	0.0169539
721.147	0.0170502
721.225	0.0170667
721.303	0.0173132
721.381	0.0173471
721.459	0.0173674
721.538	0.0173978
721.616	0.0175165
721.694	0.0175460
721.772	0.0172435
721.850	0.0172755
721.928	0.0171828
722.006	0.0171362
722.084	0.0170458
722.163	0.0168420
722.241	0.0168731
722.319	0.0167251
722.397	0.0165571
722.475	0.0164370
722.553	0.0163181
722.631	0.0162613
722.709	0.0161697
722.788	0.0159842
722.866	0.0159881
722.944	0.0157814
723.022	0.0156038
723.100	0.0154029
723.178	0.0152058
723.256	0.0151390
723.334	0.0150098
723.413	0.0149232
723.491	0.0146813
723.569	0.0144843
723.647	0.0143016
723.725	0.0142859
723.803	0.0140096
723.881	0.0138815
723.959	0.0135358
724.038	0.0135209
724.116	0.0133909
724.194	0.0133280
724.272	0.0132368
724.350	0.0133324
724.428	0.0134321
724.506	0.0135381
724.584	0.0136629
724.663	0.0139573
724.741	0.0142056
724.819	0.0143401
724.897	0.0146064
724.975	0.0148701
725.053	0.0152734
725.131	0.0153910
725.209	0.0156404
725.288	0.0157225
725.366	0.0159983
725.444	0.0162092
725.522	0.0163216
725.600	0.0164306
725.678	0.0166039
725.756	0.0169035
725.834	0.0171579
725.913	0.0172379
725.991	0.0174436
726.069	0.0175697
726.147	0.0175311
726.225	0.0175980
726.303	0.0176135
726.381	0.0176926
726.459	0.0176345
726.538	0.0175261
726.616	0.0175420
726.694	0.0175366
726.772	0.0175467
726.850	0.0175790
726.928	0.0176020
727.006	0.0176051
727.084	0.0180157
727.163	0.0179201
727.241	0.0180123
727.319	0.0179144
727.397	0.0179988
727.475	0.0178706
727.553	0.0179514
727.631	0.0177626
727.709	0.0176202
727.788	0.0176332
727.866	0.0172955
727.944	0.0171101
728.022	0.0168742
728.100	0.0169118
728.178	0.0168517
728.256	0.0166214
728.334	0.0164442
728.413	0.0162571
728.491	0.0161507
728.569	0.0159204
728.647	0.0156999
728.725	0.0154742
728.803	0.0152483
728.881	0.0149982
728.959	0.0146640
729.038	0.0145113
729.116	0.0142536
729.194	0.0140419
729.272	0.0138358
729.350	0.0138427
729.428	0.0136173
729.506	0.0135506
729.584	0.0136950
729.663	0.0136456
729.741	0.0135982
729.819	0.0136205
729.897	0.0136388
729.975	0.0136861
730.053	0.0138874
730.131	0.0140598
730.209	0.0140002
730.288	0.0141604
730.366	0.0144022
730.444	0.0146948
730.522	0.0148514
730.600	0.0148380
730.678	0.0151504
730.756	0.0154502
730.834	0.0156593
730.913	0.0157394
730.991	0.0158083
731.069	0.0157391
731.147	0.0159093
731.225	0.0158502
731.303	0.0159280
731.381	0.0158434
731.459	0.0159484
731.538	0.0158696
731.616	0.0158856
731.694	0.0159475
731.772	0.0159955
731.850	0.0163470
731.928	0.0164073
732.006	0.0165554
732.084	0.0167032
732.163	0.0169557
732.241	0.0172252
732.319	0.0173481
732.397	0.0175511
732.475	0.0178143
732.553	0.0180110
732.631	0.0180775
732.709	0.0181027
732.788	0.0182591
732.866	0.0183572
732.944	0.0184218
733.022	0.0183012
733.100	0.0181747
733.178	0.0179619
733.256	0.0176514
733.334	0.0175021
733.413	0.0173967
733.491	0.0169916
733.569	0.0170267
733.647	0.0168219
733.725	0.0165964
733.803	0.0164443
733.881	0.0164198
733.959	0.0161951
734.038	0.0163206
734.116	0.0164526
734.194	0.0165353
734.272	0.0165567
734.350	0.0164616
734.428	0.0166936
734.506	0.0168165
734.584	0.0167252
734.663	0.0168601
734.741	0.0168378
734.819	0.0168026
734.897	0.0164828
734.975	0.0162173
735.053	0.0163525
735.131	0.0159189
735.209	0.0156657
735.288	0.0154736
735.366	0.0151701
735.444	0.0148203
735.522	0.0145702
735.600	0.0140872
735.678	0.0140195
735.756	0.0139606
735.834	0.0136639
735.913	0.0136382
735.991	0.0134189
736.069	0.0132571
736.147	0.0131723
736.225	0.0134747
736.303	0.0133870
736.381	0.0136529
736.459	0.0138077
736.538	0.0139927
736.616	0.0141900
736.694	0.0142722
736.772	0.0148501
736.850	0.0148518
736.928	0.0151920
737.006	0.0156256
737.084	0.0158539
737.163	0.0161237
737.241	0.0163029
737.319	0.0166485
737.397	0.0168594
737.475	0.0169776
737.553	0.0170755
737.631	0.0171163
737.709	0.0172933
737.788	0.0171525
737.866	0.0170631
737.944	0.0171127
738.022	0.0171584
738.100	0.0170790
738.178	0.0170319
738.256	0.0169980
738.334	0.0167748
738.413	0.0166888
738.491	0.0165997
738.569	0.0164804
738.647	0.0164034
738.725	0.0161676
738.803	0.0160145
738.881	0.0160200
738.959	0.0158218
739.038	0.0157095
739.116	0.0158464
739.194	0.0157719
739.272	0.0157758
739.350	0.0158398
739.428	0.0156876
739.506	0.0157819
739.584	0.0159611
739.663	0.0159335
739.741	0.0159727
739.819	0.0160632
739.897	0.0161100
739.975	0.0161974
740.053	0.0160775
740.131	0.0163181
740.209	0.0162218
740.288	0.0161213
740.366	0.0161703
740.444	0.0160914
740.522	0.0161304
740.600	0.0163488
740.678	0.0160990
740.756	0.0161925
740.834	0.0160583
740.913	0.0161388
740.991	0.0163760
741.069	0.0162728
741.147	0.0163778
741.225	0.0163784
741.303	0.0161874
741.381	0.0162270
741.459	0.0161604
741.538	0.0161453
741.616	0.0160648
741.694	0.0160370
741.772	0.0162132
741.850	0.0162032
741.928	0.0162225
742.006	0.0162701
742.084	0.0163363
742.163	0.0163918
742.241	0.0163571
742.319	0.0165833
742.397	0.0165608
742.475	0.0167228
742.553	0.0165937
742.631	0.0167278
742.709	0.0165891
742.788	0.0163988
742.866	0.0162686
742.944	0.0162270
743.022	0.0159740
743.100	0.0156334
743.178	0.0154230
743.256	0.0153163
743.334	0.0150211
743.413	0.0149451
743.491	0.0147491
743.569	0.0146754
743.647	0.0144581
743.725	0.0144253
743.803	0.0144064
743.881	0.0142546
743.959	0.0142403
744.038	0.0142188
744.116	0.0143290
744.194	0.0141973
744.272	0.0143334
744.350	0.0143982
744.428	0.0143714
744.506	0.0145255
744.584	0.0146260
744.663	0.0149449
744.741	0.0150694
744.819	0.0151773
744.897	0.0156389
744.975	0.0155669
745.053	0.0157574
745.131	0.0161605
745.209	0.0164693
745.288	0.0164184
745.366	0.0164964
745.444	0.0166163
745.522	0.0165514
745.600	0.0166447
745.678	0.0166999
745.756	0.0165701
745.834	0.0164268
745.913	0.0165279
745.991	0.0164349
746.069	0.0162496
746.147	0.0164886
746.225	0.0163819
746.303	0.0164581
746.381	0.0164008
746.459	0.0164734
746.538	0.0166055
746.616	0.0166134
746.694	0.0166332
746.772	0.0168563
746.850	0.0168858
746.928	0.0166767
747.006	0.0165845
747.084	0.0167953
747.163	0.0166486
747.241	0.0165959
747.319	0.0165311
747.397	0.0162621
747.475	0.0163486
747.553	0.0162426
747.631	0.0162111
747.709	0.0160293
747.788	0.0159535
747.866	0.0159681
747.944	0.0157784
748.022	0.0157520
748.100	0.0157943
748.178	0.0155653
748.256	0.0156442
748.334	0.0156046
748.413	0.0155795
748.491	0.0156264
748.569	0.0156255
748.647	0.0155916
748.725	0.0157589
748.803	0.0157388
748.881	0.0157465
748.959	0.0159617
749.038	0.0159425
749.116	0.0160328
749.194	0.0160047
749.272	0.0160599
749.350	0.0161313
749.428	0.0161787
749.506	0.0160718
749.584	0.0162457
749.663	0.0162581
749.741	0.0161771
749.819	0.0160442
749.897	0.0160455
749.975	0.0159766
750.053	0.0162334
750.131	0.0160246
750.209	0.0159627
750.288	0.0159176
750.366	0.0158047
750.444	0.0159250
750.522	0.0158475
750.600	0.0157993
750.678	0.0159185
750.756	0.0159307
750.834	0.0157846
750.913	0.0157625
750.991	0.0156915
751.069	0.0154887
751.147	0.0153386
751.225	0.0152437
751.303	0.0153195
751.381	0.0151150
751.459	0.0149810
751.538	0.0150584
751.616	0.0149925
751.694	0.0149168
751.772	0.0149619
751.850	0.0150228
751.928	0.0150209
752.006	0.0151441
752.084	0.0154208
752.163	0.0153645
752.241	0.0155887
752.319	0.0155936
752.397	0.0157372
752.475	0.0158442
752.553	0.0159658
752.631	0.0161394
752.709	0.0162206
752.788	0.0162055
752.866	0.0163841
752.944	0.0163963
753.022	0.0163166
753.100	0.0165836
753.178	0.0163717
753.256	0.0164568
753.334	0.0163978
753.413	0.0164042
753.491	0.0164675
753.569	0.0162642
753.647	0.0163785
753.725	0.0162157
753.803	0.0162231
753.881	0.0161674
753.959	0.0162547
754.038	0.0162802
754.116	0.0163856
754.194	0.0163628
754.272	0.0164751
754.350	0.0164340
754.428	0.0163988
754.506	0.0163078
754.584	0.0162766
754.663	0.0161745
754.741	0.0161161
754.819	0.0160449
754.897	0.0159550
754.975	0.0158842
755.053	0.0156718
755.131	0.0157433
755.209	0.0158235
755.288	0.0158569
755.366	0.0158186
755.444	0.0156632
755.522	0.0158385
755.600	0.0159513
755.678	0.0158701
755.756	0.0158164
755.834	0.0156689
755.913	0.0156995
755.991	0.0157759
756.069	0.0158430
756.147	0.0157838
756.225	0.0157966
756.303	0.0159593
756.381	0.0159757
756.459	0.0162233
756.538	0.0163313
756.616	0.0166280
756.694	0.0167886
756.772	0.0170412
756.850	0.0171060
756.928	0.0172871
757.006	0.0173701
757.084	0.0174907
757.163	0.0176105
757.241	0.0176276
757.319	0.0176579
757.397	0.0175674
757.475	0.0172881
757.553	0.0171368
757.631	0.0169275
757.709	0.0166071
757.788	0.0164410
757.866	0.0160308
757.944	0.0157031
758.022	0.0154901
758.100	0.0151878
758.178	0.0148669
758.256	0.0148293
758.334	0.0145573
758.413	0.0145871
758.491	0.0143781
758.569	0.0144467
758.647	0.0144475
758.725	0.0145660
758.803	0.0144582
758.881	0.0144630
758.959	0.0145958
759.038	0.0150004
759.116	0.0149860
759.194	0.0152464
759.272	0.0154659
759.350	0.0156568
759.428	0.0158651
759.506	0.0160789
759.584	0.0163644
759.663	0.0166171
759.741	0.0166511
759.819	0.0165757
759.897	0.0167368
759.975	0.0164383
760.053	0.0162904
760.131	0.0163012
760.209	0.0160596
760.288	0.0156555
760.366	0.0155945
760.444	0.0153462
760.522	0.0153326
760.600	0.0151752
760.678	0.0150806
760.756	0.0151695
760.834	0.0151539
760.913	0.0151109
760.991	0.0153456
761.069	0.0153040
761.147	0.0155550
761.225	0.0155514
761.303	0.0157533
761.381	0.0158371
761.459	0.0159039
761.538	0.0159410
761.616	0.0160242
761.694	0.0160432
761.772	0.0159927
761.850	0.0160688
761.928	0.0158956
762.006	0.0159982
762.084	0.0159830
762.163	0.0159482
762.241	0.0160818
762.319	0.0160034
762.397	0.0160575
762.475	0.0162305
762.553	0.0163789
762.631	0.0164287
762.709	0.0165458
762.788	0.0166064
762.866	0.0166056
762.944	0.0167570
763.022	0.0169229
763.100	0.0167832
763.178	0.0167223
763.256	0.0167456
763.334	0.0165306
763.413	0.0167187
763.491	0.0164622
763.569	0.0164207
763.647	0.0164461
763.725	0.0162434
763.803	0.0162877
763.881	0.0161649
763.959	0.0160530
764.038	0.0160256
764.116	0.0159116
764.194	0.0159790
764.272	0.0159499
764.350	0.0157533
764.428	0.0157475
764.506	0.0156204
764.584	0.0158171
764.663	0.0157637
764.741	0.0159437
764.819	0.0158211
764.897	0.0159644
764.975	0.0159326
765.053	0.0161373
765.131	0.0160680
765.209	0.0160147
765.288	0.0161399
765.366	0.0161561
765.444	0.0161805
765.522	0.0161684
765.600	0.0161219
765.678	0.0162313
765.756	0.0160027
765.834	0.0161105
765.913	0.0159644
765.991	0.0158178
766.069	0.0157716
766.147	0.0157071
766.225	0.0153806
766.303	0.0153687
766.381	0.0152132
766.459	0.0151447
766.538	0.0148225
766.616	0.0147614
766.694	0.0146287
766.772	0.0146912
766.850	0.0146472
766.928	0.0146548
767.006	0.0147633
767.084	0.0149437
767.163	0.0150736
767.241	0.0151351
767.319	0.0154041
767.397	0.0156056
767.475	0.0155532
767.553	0.0158295
767.631	0.0159677
767.709	0.0161018
767.788	0.0163425
767.866	0.0164456
767.944	0.0164805
768.022	0.0166060
768.100	0.0166022
768.178	0.0165593
768.256	0.0165737
768.334	0.0166399
768.413	0.0164323
768.491	0.0163303
768.569	0.0160993
768.647	0.0161532
768.725	0.0158808
768.803	0.0158110
768.881	0.0156115
768.959	0.0156126
769.038	0.0155573
769.116	0.0155566
769.194	0.0156056
769.272	0.0155364
769.350	0.0156190
769.428	0.0157749
769.506	0.0158338
769.584	0.0159607
769.663	0.0159518
769.741	0.0160532
769.819	0.0161319
769.897	0.0160044
769.975	0.0159416
770.053	0.0160059
770.131	0.0157987
770.209	0.0157573
770.288	0.0156622
770.366	0.0155704
770.444	0.0155508
770.522	0.0154183
770.600	0.0154387
770.678	0.0153834
770.756	0.0155892
770.834	0.0155550
770.913	0.0158076
770.991	0.0159348
771.069	0.0161916
771.147	0.0163831
771.225	0.0165180
771.303	0.0168261
771.381	0.0169564
771.459	0.0172390
771.538	0.0173237
771.616	0.0172077
771.694	0.0174139
771.772	0.0171675
771.850	0.0170750
771.928	0.0169564
772.006	0.0168607
772.084	0.0165393
772.163	0.0164993
772.241	0.0163007
772.319	0.0162167
772.397	0.0161131
772.475	0.0162321
772.553	0.0160591
772.631	0.0159435
772.709	0.0159348
772.788	0.0159119
772.866	0.0158427
772.944	0.0156990
773.022	0.0155242
773.100	0.0154719
773.178	0.0153486
773.256	0.0154172
773.334	0.0152714
773.413	0.0151693
773.491	0.0151027
773.569	0.0151250
773.647	0.0150674
773.725	0.0152547
773.803	0.0153983
773.881	0.0155930
773.959	0.0158068
774.038	0.0159808
774.116	0.0162921
774.194	0.0163853
774.272	0.0167732
774.350	0.0168848
774.428	0.0170962
774.506	0.0171712
774.584	0.0171320
774.663	0.0170738
774.741	0.0167352
774.819	0.0166028
774.897	0.0163565
774.975	0.0160863
775.053	0.0157359
775.131	0.0153787
775.209	0.0151815
775.288	0.0150464
775.366	0.0146461
775.444	0.0144102
775.522	0.0143503
775.600	0.0142289
775.678	0.0142714
775.756	0.0144373
775.834	0.0144817
775.913	0.0146610
775.991	0.0148947
776.069	0.0151357
776.147	0.0153670
776.225	0.0156538
776.303	0.0159518
776.381	0.0162240
776.459	0.0164182
776.538	0.0166980
776.616	0.0169124
776.694	0.0171106
776.772	0.0171409
776.850	0.0171441
776.928	0.0171501
777.006	0.0171547
777.084	0.0167895
777.163	0.0166815
777.241	0.0164456
777.319	0.0162239
777.397	0.0159606
777.475	0.0158054
777.553	0.0155907
777.631	0.0154162
777.709	0.0151695
777.788	0.0151952
777.866	0.0151106
777.944	0.0151859
778.022	0.0152477
778.100	0.0152660
778.178	0.0155183
778.256	0.0155737
778.334	0.0157236
778.413	0.0159281
778.491	0.0159097
778.569	0.0161955
778.647	0.0163378
778.725	0.0162971
778.803	0.0162502
778.881	0.0162711
778.959	0.0162874
779.038	0.0162804
779.116	0.0162809
779.194	0.0161826
779.272	0.0162431
779.350	0.0162724
779.428	0.0163076
779.506	0.0163225
779.584	0.0164925
779.663	0.0165012
779.741	0.0167199
779.819	0.0166369
779.897	0.0169202
779.975	0.0168652
780.053	0.0171110
780.131	0.0170512
780.209	0.0169646
780.288	0.0169254
780.366	0.0169494
780.444	0.0167706
780.522	0.0166396
780.600	0.0164716
780.678	0.0162203
780.756	0.0160341
780.834	0.0156538
780.913	0.0156111
780.991	0.0154259
781.069	0.0152644
781.147	0.0150784
781.225	0.0148885
781.303	0.0150032
781.381	0.0149029
781.459	0.0149582
781.538	0.0149483
781.616	0.0150868
781.694	0.0149099
781.772	0.0149920
781.850	0.0151604
781.928	0.0151524
782.006	0.0152950
782.084	0.0154565
782.163	0.0154814
782.241	0.0155746
782.319	0.0158602
782.397	0.0159207
782.475	0.0160332
782.553	0.0161886
782.631	0.0162912
782.709	0.0163877
782.788	0.0165858
782.866	0.0166491
782.944	0.0168435
783.022	0.0167738
783.100	0.0167701
783.178	0.0164793
783.256	0.0163892
783.334	0.0162376
783.413	0.0161332
783.491	0.0157851
783.569	0.0154626
783.647	0.0151902
783.725	0.0150668
783.803	0.0145892
783.881	0.0144682
783.959	0.0143013
784.038	0.0143071
784.116	0.0143525
784.194	0.0144622
784.272	0.0144779
784.350	0.0148283
784.428	0.0150533
784.506	0.0154333
784.584	0.0156784
784.663	0.0159258
784.741	0.0162316
784.819	0.0163551
784.897	0.0166884
784.975	0.0167663
785.053	0.0170859
785.131	0.0172205
785.209	0.0172645
785.288	0.0171987
785.366	0.0172147
785.444	0.0170672
785.522	0.0168911
785.600	0.0167088
785.678	0.0164509
785.756	0.0160853
785.834	0.0159496
785.913	0.0155579
785.991	0.0154253
786.069	0.0151753
786.147	0.0151836
786.225	0.0150842
786.303	0.0149458
786.381	0.0149746
786.459	0.0150524
786.538	0.0152183
786.616	0.0154010
786.694	0.0155663
786.772	0.0158199
786.850	0.0159911
786.928	0.0163431
787.006	0.0165467
787.084	0.0166172
787.163	0.0168827
787.241	0.0168092
787.319	0.0167565
787.397	0.0166556
787.475	0.0165143
787.553	0.0163331
787.631	0.0162543
787.709	0.0161654
787.788	0.0160534
787.866	0.0160347
787.944	0.0157915
788.022	0.0156943
788.100	0.0156895
788.178	0.0156798
788.256	0.0159094
788.334	0.0158408
788.413	0.0158557
788.491	0.0160983
788.569	0.0163754
788.647	0.0163953
788.725	0.0164626
788.803	0.0167250
788.881	0.0167487
788.959	0.0167142
789.038	0.0166359
789.116	0.0167289
789.194	0.0166618
789.272	0.0166884
789.350	0.0164323
789.428	0.0162366
789.506	0.0161773
789.584	0.0160056
789.663	0.0159608
789.741	0.0158976
789.819	0.0157644
789.897	0.0157658
789.975	0.0157848
790.053	0.0156913
790.131	0.0157489
790.209	0.0157443
790.288	0.0156383
790.366	0.0156647
790.444	0.0158085
790.522	0.0157288
790.600	0.0157613
790.678	0.0156119
790.756	0.0153580
790.834	0.0154014
790.913	0.0154469
790.991	0.0154632
791.069	0.0151836
791.147	0.0151234
791.225	0.0153008
791.303	0.0153114
791.381	0.0154185
791.459	0.0156133
791.538	0.0159222
791.616	0.0160126
791.694	0.0160709
791.772	0.0161758
791.850	0.0162328
791.928	0.0162583
792.006	0.0162470
792.084	0.0162265
792.163	0.0161380
792.241	0.0159768
792.319	0.0159563
792.397	0.0156172
792.475	0.0154382
792.553	0.0152553
792.631	0.0153555
792.709	0.0151076
792.788	0.0153181
792.866	0.0152991
792.944	0.0154349
793.022	0.0156777
793.100	0.0157099
793.178	0.0160517
793.256	0.0161654
793.334	0.0164008
793.413	0.0165828
793.491	0.0168684
793.569	0.0169591
793.647	0.0170287
793.725	0.0169494
793.803	0.0170393
793.881	0.0170991
793.959	0.0171270
794.038	0.0168900
794.116	0.0167308
794.194	0.0165617
794.272	0.0165701
794.350	0.0162888
794.428	0.0159482
794.506	0.0160075
794.584	0.0159029
794.663	0.0158701
794.741	0.0155743
794.819	0.0155401
794.897	0.0153260
794.975	0.0150738
795.053	0.0152310
795.131	0.0153226
795.209	0.0152640
795.288	0.0151969
795.366	0.0155030
795.444	0.0156557
795.522	0.0156249
795.600	0.0158073
795.678	0.0159711
795.756	0.0162798
795.834	0.0162612
795.913	0.0161789
795.991	0.0162673
796.069	0.0163763
796.147	0.0164995
796.225	0.0163440
796.303	0.0164636
796.381	0.0164700
796.459	0.0165036
796.538	0.0164116
796.616	0.0165096
796.694	0.0165360
796.772	0.0167000
796.850	0.0166275
796.928	0.0167410
797.006	0.0167747
797.084	0.0169483
797.163	0.0167673
797.241	0.0170486
797.319	0.0170354
797.397	0.0169171
797.475	0.0169036
797.553	0.0169343
797.631	0.0168456
797.709	0.0168874
797.788	0.0165732
797.866	0.0163726
797.944	0.0163055
798.022	0.0160043
798.100	0.0158378
798.178	0.0155798
798.256	0.0154319
798.334	0.0150919
798.413	0.0148892
798.491	0.0147880
798.569	0.0147658
798.647	0.0147285
798.725	0.0144933
798.803	0.0145644
798.881	0.0145696
798.959	0.0145771
799.038	0.0147057
799.116	0.0148801
799.194	0.0148878
799.272	0.0149366
799.350	0.0151842
799.428	0.0151593
799.506	0.0153782
799.584	0.0152995
799.663	0.0153781
799.741	0.0156458
799.819	0.0155027
799.897	0.0158018
799.975	0.0159089
800.053	0.0160022
800.131	0.0161098
800.209	0.0162998
800.288	0.0163963
800.366	0.0166115
800.444	0.0166778
800.522	0.0167877
800.600	0.0166101
800.678	0.0167165
800.756	0.0168084
800.834	0.0164725
800.913	0.0163359
800.991	0.0161198
801.069	0.0159561
801.147	0.0156396
801.225	0.0156198
801.303	0.0153777
801.381	0.0151152
801.459	0.0151802
801.538	0.0152433
801.616	0.0151662
801.694	0.0151885
801.772	0.0155150
801.850	0.0157331
801.928	0.0158560
802.006	0.0158808
802.084	0.0161409
802.163	0.0163211
802.241	0.0163676
802.319	0.0165015
802.397	0.0165999
802.475	0.0166140
802.553	0.0165905
802.631	0.0167313
802.709	0.0165499
802.788	0.0165832
802.866	0.0166769
802.944	0.0165864
803.022	0.0165730
803.100	0.0163929
803.178	0.0163223
803.256	0.0163520
803.334	0.0163266
803.413	0.0160545
803.491	0.0160092
803.569	0.0161500
803.647	0.0160376
803.725	0.0159747
803.803	0.0158097
803.881	0.0158973
803.959	0.0159083
804.038	0.0157781
804.116	0.0158572
804.194	0.0159453
804.272	0.0159470
804.350	0.0158918
804.428	0.0159652
804.506	0.0160064
804.584	0.0160213
804.663	0.0160529
804.741	0.0159808
804.819	0.0160869
804.897	0.0161693
804.975	0.0160428
805.053	0.0159662
805.131	0.0158773
805.209	0.0159019
805.288	0.0156051
805.366	0.0157434
805.444	0.0158164
805.522	0.0158234
805.600	0.0157818
805.678	0.0156896
805.756	0.0156617
805.834	0.0158022
805.913	0.0158051
805.991	0.0157459
806.069	0.0160069
806.147	0.0159658
806.225	0.0158978
806.303	0.0159437
806.381	0.0159919
806.459	0.0159612
806.538	0.0159862
806.616	0.0158970
806.694	0.0159483
806.772	0.0158922
806.850	0.0160041
806.928	0.0158092
807.006	0.0157507
807.084	0.0157680
807.163	0.0157948
807.241	0.0157362
807.319	0.0157301
807.397	0.0156766
807.475	0.0157217
807.553	0.0157277
807.631	0.0157340
807.709	0.0159232
807.788	0.0157181
807.866	0.0158489
807.944	0.0159664
808.022	0.0160442
808.100	0.0159772
808.178	0.0159398
808.256	0.0159514
808.334	0.0159921
808.413	0.0158975
808.491	0.0159195
808.569	0.0158512
808.647	0.0157439
808.725	0.0157315
808.803	0.0157240
808.881	0.0158755
808.959	0.0156960
809.038	0.0158743
809.116	0.0157872
809.194	0.0158198
809.272	0.0158990
809.350	0.0159460
809.428	0.0159036
809.506	0.0160080
809.584	0.0160001
809.663	0.0160326
809.741	0.0160104
809.819	0.0158219
809.897	0.0156611
809.975	0.0156786
810.053	0.0156638
810.131	0.0156568
810.209	0.0156632
810.288	0.0153726
810.366	0.0155280
810.444	0.0155568
810.522	0.0156889
810.600	0.0156744
810.678	0.0157777
810.756	0.0157913
810.834	0.0159497
810.913	0.0160667
810.991	0.0160840
811.069	0.0162045
811.147	0.0161904
811.225	0.0162298
811.303	0.0163475
811.381	0.0162292
811.459	0.0162662
811.538	0.0164761
811.616	0.0164520
811.694	0.0163799
811.772	0.0165231
811.850	0.0165487
811.928	0.0167054
812.006	0.0166584
812.084	0.0166655
812.163	0.0166762
812.241	0.0167941
812.319	0.0168684
812.397	0.0167772
812.475	0.0167751
812.553	0.0167970
812.631	0.0167371
812.709	0.0167131
812.788	0.0165977
812.866	0.0166376
812.944	0.0166026
813.022	0.0164630
813.100	0.0163244
813.178	0.0162704
813.256	0.0162857
813.334	0.0163523
813.413	0.0163044
813.491	0.0162482
813.569	0.0162032
813.647	0.0162791
813.725	0.0161625
813.803	0.0159189
813.881	0.0159956
813.959	0.0158649
814.038	0.0158540
814.116	0.0158060
814.194	0.0155617
814.272	0.0155079
814.350	0.0155446
814.428	0.0154047
814.506	0.0153437
814.584	0.0152158
814.663	0.0151547
814.741	0.0152676
814.819	0.0151351
814.897	0.0151945
814.975	0.0152113
815.053	0.0152446
815.131	0.0151965
815.209	0.0152448
815.288	0.0154147
815.366	0.0155072
815.444	0.0154940
815.522	0.0156777
815.600	0.0157152
815.678	0.0156174
815.756	0.0156053
815.834	0.0157233
815.913	0.0159557
815.991	0.0159473
816.069	0.0159096
816.147	0.0159843
816.225	0.0160617
816.303	0.0160094
816.381	0.0161073
816.459	0.0163126
816.538	0.0162964
816.616	0.0163472
816.694	0.0162870
816.772	0.0163725
816.850	0.0163073
816.928	0.0163139
817.006	0.0163360
817.084	0.0163528
817.163	0.0162700
817.241	0.0162605
817.319	0.0161161
817.397	0.0161587
817.475	0.0161976
817.553	0.0162817
817.631	0.0163082
817.709	0.0162151
817.788	0.0163048
817.866	0.0161949
817.944	0.0164770
818.022	0.0164700
818.100	0.0165825
818.178	0.0164209
818.256	0.0166546
818.334	0.0168227
818.413	0.0168138
818.491	0.0167071
818.569	0.0166887
818.647	0.0166766
818.725	0.0167598
818.803	0.0167319
818.881	0.0164998
818.959	0.0164159
819.038	0.0162495
819.116	0.0160666
819.194	0.0160198
819.272	0.0160051
819.350	0.0158741
819.428	0.0156038
819.506	0.0157569
819.584	0.0157095
819.663	0.0157968
819.741	0.0157713
819.819	0.0157199
819.897	0.0156281
819.975	0.0156907
820.053	0.0156163
820.131	0.0156812
820.209	0.0156477
820.288	0.0156495
820.366	0.0157600
820.444	0.0156909
820.522	0.0156564
820.600	0.0157092
820.678	0.0156868
820.756	0.0157166
820.834	0.0158694
820.913	0.0156636
820.991	0.0156699
821.069	0.0158044
821.147	0.0158757
821.225	0.0158326
821.303	0.0158874
821.381	0.0160507
821.459	0.0159063
821.538	0.0157191
821.616	0.0159772
821.694	0.0158877
821.772	0.0159415
821.850	0.0159890
821.928	0.0159112
822.006	0.0159217
822.084	0.0159505
822.163	0.0158442
822.241	0.0157386
822.319	0.0158250
822.397	0.0159381
822.475	0.0158550
822.553	0.0157787
822.631	0.0158900
822.709	0.0160056
822.788	0.0160555
822.866	0.0159276
822.944	0.0159735
823.022	0.0161884
823.100	0.0160613
823.178	0.0160985
823.256	0.0160578
823.334	0.0161825
823.413	0.0162690
823.491	0.0162051
823.569	0.0163352
823.647	0.0163699
823.725	0.0162644
823.803	0.0162743
823.881	0.0163360
823.959	0.0164069
824.038	0.0163499
824.116	0.0163511
824.194	0.0163351
824.272	0.0161997
824.350	0.0164670
824.428	0.0164456
824.506	0.0162997
824.584	0.0161785
824.663	0.0161533
824.741	0.0160960
824.819	0.0160014
824.897	0.0157565
824.975	0.0157899
825.053	0.0157524
825.131	0.0156872
825.209	0.0155976
825.288	0.0154797
825.366	0.0155251
825.444	0.0156364
825.522	0.0154853
825.600	0.0155830
825.678	0.0157340
825.756	0.0155782
825.834	0.0156393
825.913	0.0156713
825.991	0.0155480
826.069	0.0156892
826.147	0.0157026
826.225	0.0156966
826.303	0.0158172
826.381	0.0156040
826.459	0.0157781
826.538	0.0157393
826.616	0.0157713
826.694	0.0158448
826.772	0.0158882
826.850	0.0158509
826.928	0.0162008
827.006	0.0161135
827.084	0.0160069
827.163	0.0162815
827.241	0.0161747
827.319	0.0163098
827.397	0.0164152
827.475	0.0164067
827.553	0.0164151
827.631	0.0163979
827.709	0.0164326
827.788	0.0164451
827.866	0.0164629
827.944	0.0163132
828.022	0.0161499
828.100	0.0162189
828.178	0.0162395
828.256	0.0161673
828.334	0.0160069
828.413	0.0161331
828.491	0.0161047
828.569	0.0160342
828.647	0.0160777
828.725	0.0161027
828.803	0.0160733
828.881	0.0160030
828.959	0.0160661
829.038	0.0159547
829.116	0.0160960
829.194	0.0161440
829.272	0.0160629
829.350	0.0161176
829.428	0.0161037
829.506	0.0159667
829.584	0.0159824
829.663	0.0161372
829.741	0.0161658
829.819	0.0160007
829.897	0.0162263
829.975	0.0160373
830.053	0.0161057
830.131	0.0161085
830.209	0.0160336
830.288	0.0160300
830.366	0.0161087
830.444	0.0159773
830.522	0.0159510
830.600	0.0158318
830.678	0.0159316
830.756	0.0159050
830.834	0.0158150
830.913	0.0157627
830.991	0.0156281
831.069	0.0155978
831.147	0.0155483
831.225	0.0154583
831.303	0.0154946
831.381	0.0155955
831.459	0.0155434
831.538	0.0155470
831.616	0.0155225
831.694	0.0155894
831.772	0.0155753
831.850	0.0154277
831.928	0.0156022
832.006	0.0156748
832.084	0.0157655
832.163	0.0156918
832.241	0.0156311
832.319	0.0158978
832.397	0.0157194
832.475	0.0157469
832.553	0.0157111
832.631	0.0156861
832.709	0.0157375
832.788	0.0158047
832.866	0.0157171
832.944	0.0158572
833.022	0.0160662
833.100	0.0157545
833.178	0.0160015
833.256	0.0158392
833.334	0.0159293
833.413	0.0159948
833.491	0.0160051
833.569	0.0159547
833.647	0.0160522
833.725	0.0161118
833.803	0.0160152
833.881	0.0160907
833.959	0.0162975
834.038	0.0161105
834.116	0.0160994
834.194	0.0161282
834.272	0.0161578
834.350	0.0161896
834.428	0.0162951
834.506	0.0163375
834.584	0.0163390
834.663	0.0162240
834.741	0.0161409
834.819	0.0161749
834.897	0.0161934
834.975	0.0161145
835.053	0.0161199
835.131	0.0160030
835.209	0.0160317
835.288	0.0160613
835.366	0.0160667
835.444	0.0159191
835.522	0.0159708
835.600	0.0160518
835.678	0.0159310
835.756	0.0160618
835.834	0.0161917
835.913	0.0160371
835.991	0.0160964
836.069	0.0161562
836.147	0.0162431
836.225	0.0163324
836.303	0.0163368
836.381	0.0163769
836.459	0.0163849
836.538	0.0163574
836.616	0.0162830
836.694	0.0162934
836.772	0.0161873
836.850	0.0161113
836.928	0.0160435
837.006	0.0160375
837.084	0.0160487
837.163	0.0159812
837.241	0.0158652
837.319	0.0157967
837.397	0.0158035
837.475	0.0156483
837.553	0.0157667
837.631	0.0157575
837.709	0.0157478
837.788	0.0158289
837.866	0.0157402
837.944	0.0157108
838.022	0.0158150
838.100	0.0157713
838.178	0.0159259
838.256	0.0159444
838.334	0.0159457
838.413	0.0158900
838.491	0.0158220
838.569	0.0158916
838.647	0.0160587
838.725	0.0159702
838.803	0.0160056
838.881	0.0160279
838.959	0.0160028
839.038	0.0159893
839.116	0.0159158
839.194	0.0160766
839.272	0.0159837
839.350	0.0159267
839.428	0.0158057
839.506	0.0158928
839.584	0.0159001
839.663	0.0158652
839.741	0.0159063
839.819	0.0159697
839.897	0.0158692
839.975	0.0158451
840.053	0.0157942
840.131	0.0158504
840.209	0.0156744
840.288	0.0158080
840.366	0.0157596
840.444	0.0158957
840.522	0.0158085
840.600	0.0157765
840.678	0.0159293
840.756	0.0159457
840.834	0.0159885
840.913	0.0159445
840.991	0.0159956
841.069	0.0159720
841.147	0.0159593
841.225	0.0159916
841.303	0.0159802
841.381	0.0159037
841.459	0.0159748
841.538	0.0161187
841.616	0.0159740
841.694	0.0159214
841.772	0.0160560
841.850	0.0161676
841.928	0.0160841
842.006	0.0160727
842.084	0.0160373
842.163	0.0161409
842.241	0.0161227
842.319	0.0159785
842.397	0.0161425
842.475	0.0161913
842.553	0.0160892
842.631	0.0161098
842.709	0.0161620
842.788	0.0160979
842.866	0.0161469
842.944	0.0160718
843.022	0.0160753
843.100	0.0162065
843.178	0.0161975
843.256	0.0162063
843.334	0.0161259
843.413	0.0159535
843.491	0.0161236
843.569	0.0160640
843.647	0.0161351
843.725	0.0159824
843.803	0.0159953
843.881	0.0159824
843.959	0.0157842
844.038	0.0159525
844.116	0.0158360
844.194	0.0157792
844.272	0.0158264
844.350	0.0157190
844.428	0.0157195
844.506	0.0157115
844.584	0.0158182
844.663	0.0158410
844.741	0.0158709
844.819	0.0159176
844.897	0.0158488
844.975	0.0158836
845.053	0.0160462
845.131	0.0161195
845.209	0.0162031
845.288	0.0160658
845.366	0.0161582
845.444	0.0161990
845.522	0.0161772
845.600	0.0160555
845.678	0.0161378
845.756	0.0160081
845.834	0.0162506
845.913	0.0160906
845.991	0.0159865
846.069	0.0161252
846.147	0.0158652
846.225	0.0158170
846.303	0.0160244
846.381	0.0159109
846.459	0.0158069
846.538	0.0159319
846.616	0.0158298
846.694	0.0157988
846.772	0.0157942
846.850	0.0156625
846.928	0.0157390
847.006	0.0156728
847.084	0.0158088
847.163	0.0157328
847.241	0.0157187
847.319	0.0158501
847.397	0.0157861
847.475	0.0158189
847.553	0.0157078
847.631	0.0156713
847.709	0.0159221
847.788	0.0159529
847.866	0.0159062
847.944	0.0158566
848.022	0.0159209
848.100	0.0160384
848.178	0.0160637
848.256	0.0160708
848.334	0.0161512
848.413	0.0162034
848.491	0.0159666
848.569	0.0161705
848.647	0.0160267
848.725	0.0161057
848.803	0.0161264
848.881	0.0160931
848.959	0.0160750
849.038	0.0160983
849.116	0.0160433
849.194	0.0159077
849.272	0.0159569
849.350	0.0159611
849.428	0.0159937
849.506	0.0159704
849.584	0.0159642
849.663	0.0159721
849.741	0.0160086
849.819	0.0160376
849.897	0.0159415
849.975	0.0159279
850.053	0.0160769
850.131	0.0160027
850.209	0.0158739
850.288	0.0160120
850.366	0.0158629
850.444	0.0160192
850.522	0.0159609
850.600	0.0158387
850.678	0.0159701
850.756	0.0158971
850.834	0.0159394
850.913	0.0157222
850.991	0.0157571
851.069	0.0159583
851.147	0.0159064
851.225	0.0158304
851.303	0.0159537
851.381	0.0158665
851.459	0.0158575
851.538	0.0157629
851.616	0.0159203
851.694	0.0159319
851.772	0.0158303
851.850	0.0159316
851.928	0.0158374
852.006	0.0159798
852.084	0.0160860
852.163	0.0159483
852.241	0.0161172
852.319	0.0160073
852.397	0.0160052
852.475	0.0160135
852.553	0.0159425
852.631	0.0158284
852.709	0.0160501
852.788	0.0160536
852.866	0.0160373
852.944	0.0160017
853.022	0.0160358
853.100	0.0160509
853.178	0.0161645
853.256	0.0159512
853.334	0.0161399
853.413	0.0161829
853.491	0.0159956
853.569	0.0160690
853.647	0.0161017
853.725	0.0161705
853.803	0.0160546
853.881	0.0160009
853.959	0.0162748
854.038	0.0161653
854.116	0.0161344
854.194	0.0160482
854.272	0.0162474
854.350	0.0163184
854.428	0.0161301
854.506	0.0161948
854.584	0.0161668
854.663	0.0160925
854.741	0.0161332
854.819	0.0160887
854.897	0.0159993
854.975	0.0159749
855.053	0.0159061
855.131	0.0159321
855.209	0.0157571
855.288	0.0158099
855.366	0.0158235
855.444	0.0156200
855.522	0.0157133
855.600	0.0157911
855.678	0.0158504
855.756	0.0155889
855.834	0.0158546
855.913	0.0159325
855.991	0.0158020
856.069	0.0156108
856.147	0.0156850
856.225	0.0158151
856.303	0.0157058
856.381	0.0156209
856.459	0.0157427
856.538	0.0157468
856.616	0.0158450
856.694	0.0157154
856.772	0.0159321
856.850	0.0158645
856.928	0.0159227
857.006	0.0158711
857.084	0.0159032
857.163	0.0160653
857.241	0.0162196
857.319	0.0161063
857.397	0.0160841
857.475	0.0162294
857.553	0.0162025
857.631	0.0161121
857.709	0.0162370
857.788	0.0162027
857.866	0.0160837
857.944	0.0161223
858.022	0.0160968
858.100	0.0160956
858.178	0.0159263
858.256	0.0161527
858.334	0.0160504
858.413	0.0161789
858.491	0.0159309
858.569	0.0159756
858.647	0.0160892
858.725	0.0161430
858.803	0.0160336
858.881	0.0160134
858.959	0.0160327
859.038	0.0161500
859.116	0.0160321
859.194	0.0161452
859.272	0.0160848
859.350	0.0161732
859.428	0.0160433
859.506	0.0159458
859.584	0.0160946
859.663	0.0161765
859.741	0.0160014
859.819	0.0161194
859.897	0.0160802
859.975	0.0159588
860.053	0.0159998
860.131	0.0160150
860.209	0.0159866
860.288	0.0160508
860.366	0.0161082
860.444	0.0159005
860.522	0.0160699
860.600	0.0161226
860.678	0.0161184
860.756	0.0161635
860.834	0.0159657
860.913	0.0160450
860.991	0.0160789
861.069	0.0161020
861.147	0.0159724
861.225	0.0158041
861.303	0.0159988
861.381	0.0159601
861.459	0.0159727
861.538	0.0158627
861.616	0.0159518
861.694	0.0158656
861.772	0.0158716
861.850	0.0157975
861.928	0.0157965
862.006	0.0156591
862.084	0.0156982
862.163	0.0156985
862.241	0.0155256
862.319	0.0157105
862.397	0.0155583
862.475	0.0154709
862.553	0.0154666
862.631	0.0154558
862.709	0.0155529
862.788	0.0154953
862.866	0.0154611
862.944	0.0154482
863.022	0.0156250
863.100	0.0154826
863.178	0.0156605
863.256	0.0157150
863.334	0.0156347
863.413	0.0157981
863.491	0.0158852
863.569	0.0159309
863.647	0.0160445
863.725	0.0159351
863.803	0.0160101
863.881	0.0160826
863.959	0.0160737
864.038	0.0160001
864.116	0.0161654
864.194	0.0161321
864.272	0.0159974
864.350	0.0161193
864.428	0.0160706
864.506	0.0160336
864.584	0.0159934
864.663	0.0160094
864.741	0.0160852
864.819	0.0161002
864.897	0.0159567
864.975	0.0161086
865.053	0.0158972
865.131	0.0158669
865.209	0.0159353
865.288	0.0157883
865.366	0.0158320
865.444	0.0157536
865.522	0.0158664
865.600	0.0159505
865.678	0.0157716
865.756	0.0158415
865.834	0.0159743
865.913	0.0159534
865.991	0.0160193
866.069	0.0158906
866.147	0.0159067
866.225	0.0160883
866.303	0.0161267
866.381	0.0158521
866.459	0.0160892
866.538	0.0160490
866.616	0.0160069
866.694	0.0160010
866.772	0.0161688
866.850	0.0160265
866.928	0.0160049
867.006	0.0161579
867.084	0.0160509
867.163	0.0160323
867.241	0.0160568
867.319	0.0159076
867.397	0.0160163
867.475	0.0160084
867.553	0.0158542
867.631	0.0158788
867.709	0.0160431
867.788	0.0161841
867.866	0.0160139
867.944	0.0159542
868.022	0.0160516
868.100	0.0160202
868.178	0.0159663
868.256	0.0161206
868.334	0.0161593
868.413	0.0160378
868.491	0.0160074
868.569	0.0160286
868.647	0.0160772
868.725	0.0161453
868.803	0.0160960
868.881	0.0160768
868.959	0.0161699
869.038	0.0161111
869.116	0.0161691
869.194	0.0161263
869.272	0.0160452
869.350	0.0162839
869.428	0.0161478
869.506	0.0158847
869.584	0.0161390
869.663	0.0162018
869.741	0.0161832
869.819	0.0160039
869.897	0.0160550
869.975	0.0160908
870.053	0.0160210
870.131	0.0161083
870.209	0.0160612
870.288	0.0161114
870.366	0.0160032
870.444	0.0159045
870.522	0.0160284
870.600	0.0159926
870.678	0.0158758
870.756	0.0159885
870.834	0.0159957
870.913	0.0160214
870.991	0.0157622
871.069	0.0157654
871.147	0.0157392
871.225	0.0157537
871.303	0.0158401
871.381	0.0159036
871.459	0.0156431
871.538	0.0157344
871.616	0.0158183
871.694	0.0158025
871.772	0.0157328
871.850	0.0158319
871.928	0.0157122
872.006	0.0158130
872.084	0.0158202
872.163	0.0158693
872.241	0.0157830
872.319	0.0158457
872.397	0.0158872
872.475	0.0158316
872.553	0.0158482
872.631	0.0158456
872.709	0.0159148
872.788	0.0159281
872.866	0.0159711
872.944	0.0160249
873.022	0.0160686
873.100	0.0159882
873.178	0.0161172
873.256	0.0160880
873.334	0.0160696
873.413	0.0160523
873.491	0.0160263
873.569	0.0158237
873.647	0.0160297
873.725	0.0157996
873.803	0.0156284
873.881	0.0158276
873.959	0.0157539
874.038	0.0156767
874.116	0.0157283
874.194	0.0157040
874.272	0.0156550
874.350	0.0157018
874.428	0.0157907
874.506	0.0157022
874.584	0.0156931
874.663	0.0159163
874.741	0.0160048
874.819	0.0158035
874.897	0.0160632
874.975	0.0161829
875.053	0.0161015
875.131	0.0162350
875.209	0.0163721
875.288	0.0162777
875.366	0.0163445
875.444	0.0163731
875.522	0.0164082
875.600	0.0163767
875.678	0.0163310
875.756	0.0162855
875.834	0.0163643
875.913	0.0163987
875.991	0.0162655
876.069	0.0162503
876.147	0.0162963
876.225	0.0162284
876.303	0.0160775
876.381	0.0160888
876.459	0.0160737
876.538	0.0161174
876.616	0.0161462
876.694	0.0160203
876.772	0.0160920
876.850	0.0160295
876.928	0.0159354
877.006	0.0161704
877.084	0.0160377
877.163	0.0157798
877.241	0.0158904
877.319	0.0158371
877.397	0.0160249
877.475	0.0158109
877.553	0.0159041
877.631	0.0157095
877.709	0.0158609
877.788	0.0157851
877.866	0.0156721
877.944	0.0157265
878.022	0.0156640
878.100	0.0157618
878.178	0.0157807
878.256	0.0157730
878.334	0.0159219
878.413	0.0157056
878.491	0.0158777
878.569	0.0158372
878.647	0.0159020
878.725	0.0158800
878.803	0.0160208
878.881	0.0159730
878.959	0.0158848
879.038	0.0159462
879.116	0.0159870
879.194	0.0160682
879.272	0.0159692
879.350	0.0160030
879.428	0.0160623
879.506	0.0159518
879.584	0.0160381
879.663	0.0159110
879.741	0.0158849
879.819	0.0158536
879.897	0.0159544
879.975	0.0159369
880.053	0.0160827
880.131	0.0158099
880.209	0.0157378
880.288	0.0158226
880.366	0.0157713
880.444	0.0157499
880.522	0.0157063
880.600	0.0157431
880.678	0.0157133
880.756	0.0157966
880.834	0.0159108
880.913	0.0158901
880.991	0.0158754
881.069	0.0158984
881.147	0.0159212
881.225	0.0160482
881.303	0.0160503
881.381	0.0161769
881.459	0.0164146
881.538	0.0162715
881.616	0.0161776
881.694	0.0163387
881.772	0.0163484
881.850	0.0162923
881.928	0.0163618
882.006	0.0163966
882.084	0.0162406
882.163	0.0162441
882.241	0.0164312
882.319	0.0162260
882.397	0.0160400
882.475	0.0160684
882.553	0.0161892
882.631	0.0160152
882.709	0.0160558
882.788	0.0161584
882.866	0.0159468
882.944	0.0160355
883.022	0.0161507
883.100	0.0159772
883.178	0.0160603
883.256	0.0160954
883.334	0.0160606
883.413	0.0160313
883.491	0.0159354
883.569	0.0159933
883.647	0.0160400
883.725	0.0159049
883.803	0.0159064
883.881	0.0159805
883.959	0.0160476
884.038	0.0159444
884.116	0.0160329
884.194	0.0160821
884.272	0.0160968
884.350	0.0161087
884.428	0.0159029
884.506	0.0160767
884.584	0.0161337
884.663	0.0160583
884.741	0.0161729
884.819	0.0160136
884.897	0.0158954
884.975	0.0159879
885.053	0.0160439
885.131	0.0160374
885.209	0.0159850
885.288	0.0160509
885.366	0.0159543
885.444	0.0159201
885.522	0.0160124
885.600	0.0159808
885.678	0.0158946
885.756	0.0158630
885.834	0.0159052
885.913	0.0158050
885.991	0.0159772
886.069	0.0159056
886.147	0.0158138
886.225	0.0157526
886.303	0.0158955
886.381	0.0158516
886.459	0.0158370
886.538	0.0158796
886.616	0.0156384
886.694	0.0156666
886.772	0.0157132
886.850	0.0157815
886.928	0.0158844
887.006	0.0157065
887.084	0.0156339
887.163	0.0158317
887.241	0.0159393
887.319	0.0158130
887.397	0.0160249
887.475	0.0159667
887.553	0.0161153
887.631	0.0163561
887.709	0.0162721
887.788	0.0162409
887.866	0.0161687
887.944	0.0162190
888.022	0.0161279
888.100	0.0162965
888.178	0.0161742
888.256	0.0161086
888.334	0.0163007
888.413	0.0160840
888.491	0.0161121
888.569	0.0160522
888.647	0.0161062
888.725	0.0162537
888.803	0.0160761
888.881	0.0160766
888.959	0.0160739
889.038	0.0159476
889.116	0.0158374
889.194	0.0158507
889.272	0.0158128
889.350	0.0158310
889.428	0.0157515
889.506	0.0156905
889.584	0.0156787
889.663	0.0157095
889.741	0.0155656
889.819	0.0156783
889.897	0.0156879
889.975	0.0157101
890.053	0.0157448
890.131	0.0157906
890.209	0.0157822
890.288	0.0156969
890.366	0.0158884
890.444	0.0158959
890.522	0.0159083
890.600	0.0159515
890.678	0.0159906
890.756	0.0160698
890.834	0.0160408
890.913	0.0161600
890.991	0.0162251
891.069	0.0162799
891.147	0.0162730
891.225	0.0163923
891.303	0.0164649
891.381	0.0164386
891.459	0.0164093
891.538	0.0165025
891.616	0.0163893
891.694	0.0164069
891.772	0.0163872
891.850	0.0161674
891.928	0.0161942
892.006	0.0160571
892.084	0.0159103
892.163	0.0159060
892.241	0.0159207
892.319	0.0159042
892.397	0.0158167
892.475	0.0158668
892.553	0.0157777
892.631	0.0155890
892.709	0.0156942
892.788	0.0156107
892.866	0.0156891
892.944	0.0156149
893.022	0.0154404
893.100	0.0155971
893.178	0.0157086
893.256	0.0159060
893.334	0.0159201
893.413	0.0157901
893.491	0.0158817
893.569	0.0159416
893.647	0.0158943
893.725	0.0160893
893.803	0.0159756
893.881	0.0160748
893.959	0.0159716
894.038	0.0159640
894.116	0.0161523
894.194	0.0160456
894.272	0.0162311
894.350	0.0162218
894.428	0.0162312
894.506	0.0162309
894.584	0.0163091
894.663	0.0164417
894.741	0.0162457
894.819	0.0162740
894.897	0.0163128
894.975	0.0161539
895.053	0.0161233
895.131	0.0161747
895.209	0.0160409
895.288	0.0160972
895.366	0.0160142
895.444	0.0159911
895.522	0.0160220
895.600	0.0158640
895.678	0.0157303
895.756	0.0157478
895.834	0.0158083
895.913	0.0155336
895.991	0.0156551
896.069	0.0156330
896.147	0.0156766
896.225	0.0157296
896.303	0.0156036
896.381	0.0157520
896.459	0.0156483
896.538	0.0156174
896.616	0.0158069
896.694	0.0158768
896.772	0.0159166
896.850	0.0158688
896.928	0.0160380
897.006	0.0161044
897.084	0.0160934
897.163	0.0160817
897.241	0.0161706
897.319	0.0162373
897.397	0.0161414
897.475	0.0161195
897.553	0.0161975
897.631	0.0161636
897.709	0.0160760
897.788	0.0162296
897.866	0.0161608
897.944	0.0161185
898.022	0.0161634
898.100	0.0161673
898.178	0.0160471
898.256	0.0162298
898.334	0.0161344
898.413	0.0161565
898.491	0.0160843
898.569	0.0159996
898.647	0.0158974
898.725	0.0158537
898.803	0.0159748
898.881	0.0160729
898.959	0.0160841
899.038	0.0157729
899.116	0.0161057
899.194	0.0160384
899.272	0.0159283
899.350	0.0159771
899.428	0.0161176
899.506	0.0161096
899.584	0.0160776
899.663	0.0161069
899.741	0.0159455
899.819	0.0160674
899.897	0.0160023
899.975	0.0162330
900.053	0.0161706
900.131	0.0160341
900.209	0.0160674
900.288	0.0160961
900.366	0.0160568
900.444	0.0160735
900.522	0.0162000
900.600	0.0161161
900.678	0.0161288
900.756	0.0160969
900.834	0.0159223
900.913	0.0159918
900.991	0.0159817
901.069	0.0160506
901.147	0.0159132
901.225	0.0159986
901.303	0.0159701
901.381	0.0159199
901.459	0.0158833
901.538	0.0157771
901.616	0.0156973
901.694	0.0159065
901.772	0.0158559
901.850	0.0157490
901.928	0.0159041
902.006	0.0159043
902.084	0.0158674
902.163	0.0159205
902.241	0.0159122
902.319	0.0160686
902.397	0.0159499
902.475	0.0158654
902.553	0.0160159
902.631	0.0159444
902.709	0.0160051
902.788	0.0161655
902.866	0.0160620
902.944	0.0160846
903.022	0.0161163
903.100	0.0162875
903.178	0.0163921
903.256	0.0162347
903.334	0.0163613
903.413	0.0164285
903.491	0.0163084
903.569	0.0162811
903.647	0.0162347
903.725	0.0161763
903.803	0.0160587
903.881	0.0160733
903.959	0.0161220
904.038	0.0160015
904.116	0.0159173
904.194	0.0160052
904.272	0.0158877
904.350	0.0159682
904.428	0.0160120
904.506	0.0160046
904.584	0.0158247
904.663	0.0159482
904.741	0.0159258
904.819	0.0159556
904.897	0.0159773
904.975	0.0158759
905.053	0.0157841
905.131	0.0157956
905.209	0.0159064
905.288	0.0158044
905.366	0.0157766
905.444	0.0158836
905.522	0.0157424
905.600	0.0156777
905.678	0.0157392
905.756	0.0158210
905.834	0.0156512
905.913	0.0157446
905.991	0.0157491
906.069	0.0158344
906.147	0.0157483
906.225	0.0158144
906.303	0.0157230
906.381	0.0157747
906.459	0.0157846
906.538	0.0157874
906.616	0.0157955
906.694	0.0158840
906.772	0.0159628
906.850	0.0159777
906.928	0.0159514
907.006	0.0159022
907.084	0.0160890
907.163	0.0161594
907.241	0.0160214
907.319	0.0160641
907.397	0.0160207
907.475	0.0161176
907.553	0.0160974
907.631	0.0160335
907.709	0.0161191
907.788	0.0161186
907.866	0.0160262
907.944	0.0161243
908.022	0.0161162
908.100	0.0161562
908.178	0.0161107
908.256	0.0161130
908.334	0.0160642
908.413	0.0160393
908.491	0.0160000
908.569	0.0159066
908.647	0.0159084
908.725	0.0159270
908.803	0.0157842
908.881	0.0158985
908.959	0.0157345
909.038	0.0158539
909.116	0.0160835
909.194	0.0160274
909.272	0.0160023
909.350	0.0159730
909.428	0.0159776
909.506	0.0162149
909.584	0.0162656
909.663	0.0161717
909.741	0.0161684
909.819	0.0162676
909.897	0.0163545
909.975	0.0162895
910.053	0.0162374
910.131	0.0162885
910.209	0.0163531
910.288	0.0163001
910.366	0.0164310
910.444	0.0161152
910.522	0.0161562
910.600	0.0162611
910.678	0.0160904
910.756	0.0158215
910.834	0.0160440
910.913	0.0159190
910.991	0.0157944
911.069	0.0157141
911.147	0.0158669
911.225	0.0156966
911.303	0.0154675
911.381	0.0156425
911.459	0.0155738
911.538	0.0156853
911.616	0.0156990
911.694	0.0157021
911.772	0.0157602
911.850	0.0159821
911.928	0.0158174
912.006	0.0157652
912.084	0.0159502
912.163	0.0160307
912.241	0.0159386
912.319	0.0160142
912.397	0.0161489
912.475	0.0161211
912.553	0.0161421
912.631	0.0161002
912.709	0.0161360
912.788	0.0162823
912.866	0.0162653
912.944	0.0162374
913.022	0.0160899
913.100	0.0161131
913.178	0.0162985
913.256	0.0163323
913.334	0.0162176
913.413	0.0161974
913.491	0.0162122
913.569	0.0160923
913.647	0.0160971
913.725	0.0161032
913.803	0.0159997
913.881	0.0161584
913.959	0.0161275
914.038	0.0159964
914.116	0.0159619
914.194	0.0159932
914.272	0.0160923
914.350	0.0160535
914.428	0.0160358
914.506	0.0159606
914.584	0.0160423
914.663	0.0160667
914.741	0.0159820
914.819	0.0159551
914.897	0.0159936
914.975	0.0159001
915.053	0.0159853
915.131	0.0160629
915.209	0.0161092
915.288	0.0160644
915.366	0.0160946
915.444	0.0161567
915.522	0.0161392
915.600	0.0160397
915.678	0.0161107
915.756	0.0160589
915.834	0.0161334
915.913	0.0160565
915.991	0.0161365
916.069	0.0159882
916.147	0.0160692
916.225	0.0160735
916.303	0.0160124
916.381	0.0159432
916.459	0.0161276
916.538	0.0159834
916.616	0.0160254
916.694	0.0160750
916.772	0.0160081
916.850	0.0161784
916.928	0.0161380
917.006	0.0161846
917.084	0.0159969
917.163	0.0160412
917.241	0.0159538
917.319	0.0159901
917.397	0.0160435
917.475	0.0159582
917.553	0.0159867
917.631	0.0159177
917.709	0.0161238
917.788	0.0161431
917.866	0.0160649
917.944	0.0159724
918.022	0.0160359
918.100	0.0161515
918.178	0.0161401
918.256	0.0160595
918.334	0.0159805
918.413	0.0159975
918.491	0.0159653
918.569	0.0160246
918.647	0.0159739
918.725	0.0159478
918.803	0.0159332
918.881	0.0161409
918.959	0.0160425
919.038	0.0159799
919.116	0.0161715
919.194	0.0161930
919.272	0.0159367
919.350	0.0160361
919.428	0.0160370
919.506	0.0160989
919.584	0.0159293
919.663	0.0160030
919.741	0.0159499
919.819	0.0158912
919.897	0.0159364
