05/20/2022	21:01:23	Ver.	4.1	UNKNOWN
Optical Delay	599.975067	Delta X		0.078125	Sweeps	1	Scan Rate	0/0
Coordinates	Axis 1	NaN	Axis 2	NaN	Axis 3	NaN	Axis 4	NaN	Axis 5	NaN	Axis 6	0.000000
TX Power	0.000000	RX Power	0.000000

599.975	0.0159910
600.053	0.0158416
600.131	0.0157401
600.209	0.0157689
600.288	0.0158257
600.366	0.0156390
600.444	0.0157323
600.522	0.0158377
600.600	0.0158177
600.678	0.0156807
600.756	0.0157565
600.834	0.0156653
600.913	0.0156564
600.991	0.0157433
601.069	0.0157815
601.147	0.0157729
601.225	0.0158302
601.303	0.0156458
601.381	0.0157662
601.459	0.0158223
601.538	0.0158573
601.616	0.0158009
601.694	0.0156537
601.772	0.0157064
601.850	0.0158208
601.928	0.0158739
602.006	0.0158446
602.084	0.0157371
602.163	0.0156917
602.241	0.0157988
602.319	0.0156960
602.397	0.0159572
602.475	0.0159039
602.553	0.0158662
602.631	0.0159277
602.709	0.0157874
602.788	0.0159290
602.866	0.0158421
602.944	0.0157825
603.022	0.0160014
603.100	0.0158009
603.178	0.0157523
603.256	0.0157117
603.334	0.0158931
603.413	0.0158331
603.491	0.0157928
603.569	0.0158589
603.647	0.0158761
603.725	0.0159736
603.803	0.0158946
603.881	0.0159064
603.959	0.0158176
604.038	0.0158396
604.116	0.0158813
604.194	0.0159142
604.272	0.0158586
604.350	0.0158806
604.428	0.0159690
604.506	0.0156970
604.584	0.0158846
604.663	0.0159681
604.741	0.0157871
604.819	0.0158971
604.897	0.0158916
604.975	0.0158002
605.053	0.0159458
605.131	0.0159864
605.209	0.0157698
605.288	0.0158643
605.366	0.0158736
605.444	0.0159200
605.522	0.0158291
605.600	0.0159480
605.678	0.0159985
605.756	0.0158199
605.834	0.0159203
605.913	0.0160004
605.991	0.0159295
606.069	0.0158574
606.147	0.0158988
606.225	0.0158621
606.303	0.0159161
606.381	0.0160378
606.459	0.0159167
606.538	0.0158732
606.616	0.0160207
606.694	0.0158812
606.772	0.0159570
606.850	0.0158675
606.928	0.0159446
607.006	0.0159189
607.084	0.0158691
607.163	0.0160265
607.241	0.0159445
607.319	0.0159802
607.397	0.0160461
607.475	0.0158714
607.553	0.0159437
607.631	0.0159723
607.709	0.0160485
607.788	0.0160638
607.866	0.0160926
607.944	0.0160810
608.022	0.0160421
608.100	0.0158968
608.178	0.0159536
608.256	0.0160455
608.334	0.0160638
608.413	0.0160015
608.491	0.0158431
608.569	0.0160719
608.647	0.0160455
608.725	0.0159982
608.803	0.0161618
608.881	0.0161167
608.959	0.0161352
609.038	0.0160072
609.116	0.0161187
609.194	0.0161463
609.272	0.0161591
609.350	0.0159856
609.428	0.0160529
609.506	0.0160317
609.584	0.0161207
609.663	0.0162418
609.741	0.0161292
609.819	0.0161426
609.897	0.0159563
609.975	0.0161045
610.053	0.0162218
610.131	0.0159854
610.209	0.0161265
610.288	0.0162346
610.366	0.0160667
610.444	0.0159953
610.522	0.0161688
610.600	0.0160023
610.678	0.0159474
610.756	0.0162247
610.834	0.0161533
610.913	0.0162665
610.991	0.0160300
611.069	0.0161499
611.147	0.0161343
611.225	0.0162028
611.303	0.0162395
611.381	0.0161663
611.459	0.0161380
611.538	0.0161230
611.616	0.0160471
611.694	0.0161900
611.772	0.0162105
611.850	0.0161843
611.928	0.0161966
612.006	0.0161501
612.084	0.0161747
612.163	0.0161089
612.241	0.0160981
612.319	0.0162232
612.397	0.0160297
612.475	0.0161246
612.553	0.0161740
612.631	0.0160677
612.709	0.0160966
612.788	0.0161648
612.866	0.0161124
612.944	0.0161774
613.022	0.0161868
613.100	0.0161405
613.178	0.0161638
613.256	0.0161200
613.334	0.0161311
613.413	0.0161853
613.491	0.0160674
613.569	0.0160585
613.647	0.0161284
613.725	0.0160983
613.803	0.0160712
613.881	0.0162154
613.959	0.0160356
614.038	0.0160584
614.116	0.0160862
614.194	0.0161710
614.272	0.0160941
614.350	0.0160064
614.428	0.0161097
614.506	0.0161603
614.584	0.0160478
614.663	0.0162383
614.741	0.0160876
614.819	0.0161761
614.897	0.0161044
614.975	0.0161189
615.053	0.0161839
615.131	0.0160587
615.209	0.0161172
615.288	0.0161024
615.366	0.0161452
615.444	0.0160283
615.522	0.0159999
615.600	0.0161458
615.678	0.0160462
615.756	0.0160727
615.834	0.0159268
615.913	0.0161221
615.991	0.0160800
616.069	0.0160970
616.147	0.0160513
616.225	0.0160673
616.303	0.0161317
616.381	0.0161293
616.459	0.0161349
616.538	0.0160956
616.616	0.0159254
616.694	0.0160844
616.772	0.0161889
616.850	0.0161215
616.928	0.0161769
617.006	0.0161262
617.084	0.0160767
617.163	0.0160424
617.241	0.0161522
617.319	0.0161460
617.397	0.0161233
617.475	0.0160862
617.553	0.0159399
617.631	0.0161573
617.709	0.0161623
617.788	0.0159647
617.866	0.0162026
617.944	0.0161304
618.022	0.0160853
618.100	0.0160754
618.178	0.0161468
618.256	0.0162547
618.334	0.0159956
618.413	0.0159817
618.491	0.0161011
618.569	0.0160601
618.647	0.0161185
618.725	0.0161148
618.803	0.0160181
618.881	0.0161670
618.959	0.0160115
619.038	0.0161123
619.116	0.0161634
619.194	0.0160069
619.272	0.0159868
619.350	0.0159496
619.428	0.0159650
619.506	0.0160671
619.584	0.0160420
619.663	0.0160990
619.741	0.0160695
619.819	0.0159447
619.897	0.0160270
619.975	0.0159473
620.053	0.0158733
620.131	0.0160549
620.209	0.0158859
620.288	0.0159740
620.366	0.0160629
620.444	0.0159735
620.522	0.0159028
620.600	0.0159399
620.678	0.0159526
620.756	0.0159225
620.834	0.0160529
620.913	0.0157964
620.991	0.0159187
621.069	0.0159597
621.147	0.0159487
621.225	0.0157909
621.303	0.0159422
621.381	0.0158563
621.459	0.0158986
621.538	0.0158141
621.616	0.0159063
621.694	0.0158409
621.772	0.0158436
621.850	0.0158484
621.928	0.0157239
622.006	0.0158070
622.084	0.0158628
622.163	0.0159569
622.241	0.0157478
622.319	0.0158636
622.397	0.0159208
622.475	0.0158208
622.553	0.0157164
622.631	0.0158584
622.709	0.0158316
622.788	0.0157851
622.866	0.0159392
622.944	0.0157893
623.022	0.0157487
623.100	0.0158501
623.178	0.0156845
623.256	0.0158053
623.334	0.0158575
623.413	0.0157687
623.491	0.0158820
623.569	0.0158446
623.647	0.0158287
623.725	0.0158061
623.803	0.0156912
623.881	0.0158723
623.959	0.0158926
624.038	0.0158825
624.116	0.0158387
624.194	0.0156960
624.272	0.0158913
624.350	0.0157747
624.428	0.0156975
624.506	0.0158286
624.584	0.0157967
624.663	0.0157285
624.741	0.0157622
624.819	0.0158624
624.897	0.0157735
624.975	0.0157778
625.053	0.0157793
625.131	0.0158276
625.209	0.0158738
625.288	0.0158418
625.366	0.0159000
625.444	0.0157325
625.522	0.0158163
625.600	0.0158278
625.678	0.0157851
625.756	0.0157738
625.834	0.0159178
625.913	0.0157940
625.991	0.0158656
626.069	0.0158435
626.147	0.0157539
626.225	0.0158286
626.303	0.0157494
626.381	0.0157924
626.459	0.0158746
626.538	0.0158270
626.616	0.0158556
626.694	0.0157885
626.772	0.0158111
626.850	0.0158289
626.928	0.0158437
627.006	0.0159237
627.084	0.0158304
627.163	0.0156731
627.241	0.0156989
627.319	0.0158795
627.397	0.0159045
627.475	0.0158443
627.553	0.0158412
627.631	0.0157632
627.709	0.0158556
627.788	0.0158928
627.866	0.0158236
627.944	0.0158334
628.022	0.0156577
628.100	0.0158164
628.178	0.0159810
628.256	0.0158350
628.334	0.0159296
628.413	0.0158665
628.491	0.0159082
628.569	0.0158956
628.647	0.0158727
628.725	0.0157450
628.803	0.0159184
628.881	0.0160673
628.959	0.0159250
629.038	0.0159280
629.116	0.0159729
629.194	0.0159211
629.272	0.0160484
629.350	0.0158680
629.428	0.0158879
629.506	0.0159785
629.584	0.0159399
629.663	0.0159692
629.741	0.0158881
629.819	0.0159562
629.897	0.0160267
629.975	0.0159806
630.053	0.0159564
630.131	0.0159413
630.209	0.0161217
630.288	0.0159898
630.366	0.0160538
630.444	0.0159495
630.522	0.0160014
630.600	0.0158623
630.678	0.0160249
630.756	0.0159738
630.834	0.0160867
630.913	0.0159669
630.991	0.0160972
631.069	0.0158886
631.147	0.0160006
631.225	0.0160329
631.303	0.0160600
631.381	0.0160372
631.459	0.0160406
631.538	0.0159719
631.616	0.0159957
631.694	0.0160596
631.772	0.0159613
631.850	0.0160976
631.928	0.0159826
632.006	0.0160895
632.084	0.0161131
632.163	0.0160808
632.241	0.0159469
632.319	0.0160823
632.397	0.0161794
632.475	0.0159917
632.553	0.0159970
632.631	0.0161293
632.709	0.0160803
632.788	0.0161340
632.866	0.0162210
632.944	0.0161279
633.022	0.0160048
633.100	0.0160754
633.178	0.0161266
633.256	0.0162474
633.334	0.0160774
633.413	0.0161385
633.491	0.0162286
633.569	0.0161548
633.647	0.0161351
633.725	0.0161065
633.803	0.0160912
633.881	0.0160373
633.959	0.0160735
634.038	0.0160799
634.116	0.0161417
634.194	0.0161520
634.272	0.0161621
634.350	0.0161974
634.428	0.0160440
634.506	0.0161097
634.584	0.0160664
634.663	0.0160824
634.741	0.0160074
634.819	0.0160514
634.897	0.0161002
634.975	0.0161703
635.053	0.0160360
635.131	0.0160638
635.209	0.0160104
635.288	0.0160101
635.366	0.0160973
635.444	0.0161873
635.522	0.0160878
635.600	0.0160529
635.678	0.0159850
635.756	0.0160068
635.834	0.0160022
635.913	0.0160094
635.991	0.0161019
636.069	0.0159772
636.147	0.0161102
636.225	0.0160794
636.303	0.0161021
636.381	0.0159101
636.459	0.0159527
636.538	0.0160166
636.616	0.0159290
636.694	0.0159793
636.772	0.0161752
636.850	0.0160353
636.928	0.0159947
637.006	0.0160735
637.084	0.0159567
637.163	0.0160298
637.241	0.0161039
637.319	0.0158742
637.397	0.0160448
637.475	0.0159884
637.553	0.0160092
637.631	0.0159387
637.709	0.0158441
637.788	0.0158727
637.866	0.0159278
637.944	0.0158982
638.022	0.0159656
638.100	0.0160221
638.178	0.0160977
638.256	0.0161456
638.334	0.0158882
638.413	0.0159821
638.491	0.0159509
638.569	0.0157701
638.647	0.0159156
638.725	0.0159873
638.803	0.0159534
638.881	0.0157668
638.959	0.0158910
639.038	0.0160275
639.116	0.0159616
639.194	0.0160249
639.272	0.0161122
639.350	0.0158431
639.428	0.0160017
639.506	0.0160218
639.584	0.0160751
639.663	0.0160678
639.741	0.0160628
639.819	0.0159258
639.897	0.0159519
639.975	0.0160206
640.053	0.0159758
640.131	0.0160338
640.209	0.0159338
640.288	0.0161472
640.366	0.0160924
640.444	0.0160168
640.522	0.0161064
640.600	0.0161660
640.678	0.0161019
640.756	0.0159824
640.834	0.0161456
640.913	0.0161479
640.991	0.0160206
641.069	0.0160795
641.147	0.0161922
641.225	0.0160059
641.303	0.0159700
641.381	0.0161049
641.459	0.0157873
641.538	0.0159995
641.616	0.0161311
641.694	0.0159686
641.772	0.0160487
641.850	0.0158781
641.928	0.0160327
642.006	0.0160210
642.084	0.0159798
642.163	0.0160932
642.241	0.0160691
642.319	0.0159931
642.397	0.0159016
642.475	0.0159792
642.553	0.0160406
642.631	0.0159673
642.709	0.0160102
642.788	0.0161466
642.866	0.0159595
642.944	0.0159077
643.022	0.0161969
643.100	0.0158723
643.178	0.0159619
643.256	0.0160000
643.334	0.0159364
643.413	0.0159434
643.491	0.0160175
643.569	0.0159880
643.647	0.0159193
643.725	0.0159389
643.803	0.0159579
643.881	0.0159336
643.959	0.0158836
644.038	0.0160763
644.116	0.0160067
644.194	0.0159979
644.272	0.0158759
644.350	0.0158505
644.428	0.0159201
644.506	0.0159413
644.584	0.0160331
644.663	0.0158537
644.741	0.0159816
644.819	0.0160545
644.897	0.0159793
644.975	0.0158787
645.053	0.0158786
645.131	0.0158282
645.209	0.0158672
645.288	0.0159608
645.366	0.0158994
645.444	0.0159769
645.522	0.0159501
645.600	0.0159654
645.678	0.0159111
645.756	0.0158716
645.834	0.0158990
645.913	0.0159060
645.991	0.0159167
646.069	0.0159714
646.147	0.0158427
646.225	0.0157253
646.303	0.0160356
646.381	0.0158430
646.459	0.0157660
646.538	0.0159483
646.616	0.0159147
646.694	0.0159367
646.772	0.0160219
646.850	0.0157825
646.928	0.0158718
647.006	0.0157671
647.084	0.0158417
647.163	0.0158252
647.241	0.0159348
647.319	0.0158327
647.397	0.0159538
647.475	0.0159123
647.553	0.0158827
647.631	0.0158791
647.709	0.0158758
647.788	0.0159521
647.866	0.0159341
647.944	0.0158152
648.022	0.0159421
648.100	0.0159095
648.178	0.0159897
648.256	0.0159489
648.334	0.0158606
648.413	0.0159115
648.491	0.0157372
648.569	0.0159033
648.647	0.0159834
648.725	0.0159601
648.803	0.0158845
648.881	0.0157880
648.959	0.0158606
649.038	0.0159578
649.116	0.0159065
649.194	0.0158504
649.272	0.0158784
649.350	0.0159792
649.428	0.0158554
649.506	0.0159007
649.584	0.0159401
649.663	0.0158817
649.741	0.0158208
649.819	0.0158088
649.897	0.0157922
649.975	0.0158699
650.053	0.0158051
650.131	0.0158871
650.209	0.0158608
650.288	0.0158009
650.366	0.0158772
650.444	0.0158707
650.522	0.0159498
650.600	0.0157938
650.678	0.0158767
650.756	0.0158508
650.834	0.0160095
650.913	0.0159058
650.991	0.0157858
651.069	0.0158900
651.147	0.0157394
651.225	0.0158835
651.303	0.0159302
651.381	0.0157948
651.459	0.0158333
651.538	0.0159306
651.616	0.0157860
651.694	0.0157729
651.772	0.0159066
651.850	0.0160130
651.928	0.0159780
652.006	0.0159163
652.084	0.0159424
652.163	0.0159574
652.241	0.0159926
652.319	0.0159147
652.397	0.0158402
652.475	0.0158109
652.553	0.0158226
652.631	0.0159482
652.709	0.0159011
652.788	0.0159519
652.866	0.0158076
652.944	0.0159322
653.022	0.0159834
653.100	0.0159039
653.178	0.0161163
653.256	0.0159596
653.334	0.0159044
653.413	0.0160270
653.491	0.0160544
653.569	0.0159425
653.647	0.0159077
653.725	0.0159589
653.803	0.0158762
653.881	0.0157899
653.959	0.0158205
654.038	0.0158424
654.116	0.0158578
654.194	0.0158016
654.272	0.0158969
654.350	0.0158707
654.428	0.0158817
654.506	0.0158915
654.584	0.0158315
654.663	0.0159382
654.741	0.0160538
654.819	0.0160712
654.897	0.0160651
654.975	0.0160388
655.053	0.0160712
655.131	0.0160240
655.209	0.0161006
655.288	0.0162141
655.366	0.0161632
655.444	0.0162041
655.522	0.0161348
655.600	0.0161779
655.678	0.0160516
655.756	0.0161729
655.834	0.0160767
655.913	0.0159867
655.991	0.0160697
656.069	0.0160740
656.147	0.0159661
656.225	0.0158978
656.303	0.0158404
656.381	0.0157145
656.459	0.0157832
656.538	0.0158907
656.616	0.0157759
656.694	0.0156899
656.772	0.0157067
656.850	0.0156784
656.928	0.0157125
657.006	0.0156758
657.084	0.0158762
657.163	0.0158001
657.241	0.0158323
657.319	0.0159623
657.397	0.0159262
657.475	0.0158772
657.553	0.0160038
657.631	0.0161432
657.709	0.0161471
657.788	0.0163143
657.866	0.0161916
657.944	0.0162752
658.022	0.0162543
658.100	0.0162228
658.178	0.0162750
658.256	0.0163742
658.334	0.0163229
658.413	0.0162812
658.491	0.0161291
658.569	0.0162717
658.647	0.0162914
658.725	0.0161129
658.803	0.0161897
658.881	0.0159774
658.959	0.0159885
659.038	0.0160259
659.116	0.0159640
659.194	0.0158836
659.272	0.0159914
659.350	0.0158262
659.428	0.0159317
659.506	0.0159135
659.584	0.0160044
659.663	0.0159072
659.741	0.0158279
659.819	0.0158858
659.897	0.0159087
659.975	0.0159292
660.053	0.0160327
660.131	0.0159744
660.209	0.0159293
660.288	0.0159045
660.366	0.0159726
660.444	0.0161175
660.522	0.0159597
660.600	0.0159485
660.678	0.0159052
660.756	0.0159579
660.834	0.0158372
660.913	0.0160238
660.991	0.0160387
661.069	0.0159254
661.147	0.0159959
661.225	0.0159241
661.303	0.0160128
661.381	0.0160014
661.459	0.0159187
661.538	0.0160579
661.616	0.0160507
661.694	0.0161765
661.772	0.0161488
661.850	0.0162711
661.928	0.0161822
662.006	0.0161612
662.084	0.0161823
662.163	0.0162570
662.241	0.0161705
662.319	0.0162313
662.397	0.0162387
662.475	0.0162770
662.553	0.0161877
662.631	0.0160640
662.709	0.0160744
662.788	0.0162149
662.866	0.0161200
662.944	0.0160522
663.022	0.0160143
663.100	0.0161658
663.178	0.0158953
663.256	0.0159985
663.334	0.0159599
663.413	0.0159332
663.491	0.0158592
663.569	0.0157774
663.647	0.0157623
663.725	0.0156949
663.803	0.0157435
663.881	0.0158105
663.959	0.0156736
664.038	0.0156825
664.116	0.0157136
664.194	0.0156992
664.272	0.0157320
664.350	0.0156855
664.428	0.0157124
664.506	0.0157964
664.584	0.0156615
664.663	0.0158051
664.741	0.0158435
664.819	0.0158947
664.897	0.0159924
664.975	0.0158903
665.053	0.0160347
665.131	0.0161209
665.209	0.0160615
665.288	0.0160645
665.366	0.0161674
665.444	0.0162579
665.522	0.0164340
665.600	0.0163646
665.678	0.0164698
665.756	0.0164553
665.834	0.0165479
665.913	0.0164927
665.991	0.0164438
666.069	0.0163989
666.147	0.0165953
666.225	0.0165282
666.303	0.0164587
666.381	0.0164580
666.459	0.0162834
666.538	0.0162576
666.616	0.0161787
666.694	0.0160795
666.772	0.0160459
666.850	0.0160460
666.928	0.0160780
667.006	0.0157848
667.084	0.0156355
667.163	0.0156406
667.241	0.0155919
667.319	0.0155058
667.397	0.0155070
667.475	0.0153950
667.553	0.0154553
667.631	0.0156521
667.709	0.0154880
667.788	0.0153809
667.866	0.0154449
667.944	0.0154723
668.022	0.0153923
668.100	0.0156158
668.178	0.0155787
668.256	0.0156243
668.334	0.0157266
668.413	0.0158197
668.491	0.0159750
668.569	0.0158421
668.647	0.0158966
668.725	0.0158238
668.803	0.0160619
668.881	0.0160836
668.959	0.0161324
669.038	0.0161383
669.116	0.0160656
669.194	0.0160510
669.272	0.0162048
669.350	0.0163912
669.428	0.0163668
669.506	0.0162825
669.584	0.0163462
669.663	0.0163702
669.741	0.0163570
669.819	0.0163874
669.897	0.0163975
669.975	0.0163579
670.053	0.0163484
670.131	0.0164072
670.209	0.0163409
670.288	0.0162534
670.366	0.0161720
670.444	0.0161189
670.522	0.0159995
670.600	0.0160092
670.678	0.0158976
670.756	0.0158629
670.834	0.0157202
670.913	0.0158406
670.991	0.0157090
671.069	0.0155380
671.147	0.0154751
671.225	0.0155497
671.303	0.0156345
671.381	0.0154166
671.459	0.0152844
671.538	0.0152544
671.616	0.0153772
671.694	0.0153787
671.772	0.0153267
671.850	0.0154932
671.928	0.0155210
672.006	0.0157007
672.084	0.0157532
672.163	0.0157088
672.241	0.0158924
672.319	0.0159515
672.397	0.0162249
672.475	0.0162769
672.553	0.0162697
672.631	0.0163551
672.709	0.0165878
672.788	0.0165115
672.866	0.0163715
672.944	0.0165369
673.022	0.0165367
673.100	0.0164801
673.178	0.0165375
673.256	0.0165569
673.334	0.0163536
673.413	0.0163979
673.491	0.0162582
673.569	0.0162783
673.647	0.0161946
673.725	0.0161768
673.803	0.0160604
673.881	0.0160038
673.959	0.0160098
674.038	0.0158492
674.116	0.0156972
674.194	0.0158225
674.272	0.0158152
674.350	0.0159333
674.428	0.0158610
674.506	0.0158355
674.584	0.0156976
674.663	0.0157900
674.741	0.0158052
674.819	0.0158770
674.897	0.0159394
674.975	0.0159765
675.053	0.0160773
675.131	0.0159875
675.209	0.0159849
675.288	0.0158801
675.366	0.0159895
675.444	0.0160238
675.522	0.0159073
675.600	0.0158910
675.678	0.0157385
675.756	0.0158716
675.834	0.0159191
675.913	0.0159466
675.991	0.0159201
676.069	0.0159711
676.147	0.0159870
676.225	0.0158669
676.303	0.0159502
676.381	0.0160913
676.459	0.0160648
676.538	0.0159290
676.616	0.0160082
676.694	0.0160957
676.772	0.0161981
676.850	0.0160695
676.928	0.0161501
677.006	0.0161575
677.084	0.0161723
677.163	0.0162880
677.241	0.0163701
677.319	0.0162059
677.397	0.0162474
677.475	0.0162890
677.553	0.0162012
677.631	0.0162831
677.709	0.0161691
677.788	0.0160808
677.866	0.0160381
677.944	0.0159158
678.022	0.0158756
678.100	0.0159325
678.178	0.0159068
678.256	0.0159172
678.334	0.0156797
678.413	0.0157951
678.491	0.0157008
678.569	0.0155961
678.647	0.0156590
678.725	0.0156969
678.803	0.0156409
678.881	0.0155470
678.959	0.0156011
679.038	0.0157197
679.116	0.0155863
679.194	0.0156774
679.272	0.0157288
679.350	0.0157164
679.428	0.0158445
679.506	0.0158331
679.584	0.0159225
679.663	0.0160791
679.741	0.0159801
679.819	0.0160919
679.897	0.0161453
679.975	0.0162880
680.053	0.0164932
680.131	0.0162769
680.209	0.0163982
680.288	0.0166682
680.366	0.0165405
680.444	0.0165842
680.522	0.0162944
680.600	0.0162870
680.678	0.0162099
680.756	0.0159467
680.834	0.0158355
680.913	0.0157333
680.991	0.0155540
681.069	0.0153733
681.147	0.0151723
681.225	0.0152348
681.303	0.0150802
681.381	0.0150671
681.459	0.0150328
681.538	0.0152321
681.616	0.0151914
681.694	0.0152960
681.772	0.0157579
681.850	0.0158294
681.928	0.0161768
682.006	0.0163838
682.084	0.0165932
682.163	0.0167355
682.241	0.0169725
682.319	0.0170010
682.397	0.0169373
682.475	0.0168810
682.553	0.0169432
682.631	0.0168893
682.709	0.0165653
682.788	0.0163004
682.866	0.0160609
682.944	0.0160077
683.022	0.0158418
683.100	0.0156339
683.178	0.0154460
683.256	0.0154417
683.334	0.0153511
683.413	0.0153484
683.491	0.0152048
683.569	0.0152135
683.647	0.0153706
683.725	0.0155007
683.803	0.0154637
683.881	0.0153709
683.959	0.0155183
684.038	0.0156062
684.116	0.0157162
684.194	0.0155843
684.272	0.0156821
684.350	0.0157705
684.428	0.0158967
684.506	0.0160206
684.584	0.0159888
684.663	0.0160735
684.741	0.0161684
684.819	0.0163228
684.897	0.0162304
684.975	0.0161604
685.053	0.0162124
685.131	0.0164085
685.209	0.0164166
685.288	0.0164169
685.366	0.0164644
685.444	0.0163639
685.522	0.0163858
685.600	0.0163088
685.678	0.0162671
685.756	0.0164024
685.834	0.0163818
685.913	0.0163068
685.991	0.0163610
686.069	0.0161703
686.147	0.0163509
686.225	0.0164575
686.303	0.0163441
686.381	0.0162672
686.459	0.0164802
686.538	0.0164725
686.616	0.0162494
686.694	0.0164844
686.772	0.0163278
686.850	0.0161520
686.928	0.0161991
687.006	0.0158964
687.084	0.0159104
687.163	0.0155684
687.241	0.0153347
687.319	0.0151337
687.397	0.0149937
687.475	0.0146548
687.553	0.0143691
687.631	0.0144269
687.709	0.0143812
687.788	0.0142378
687.866	0.0141931
687.944	0.0144517
688.022	0.0145142
688.100	0.0147468
688.178	0.0150890
688.256	0.0153712
688.334	0.0158315
688.413	0.0161174
688.491	0.0163232
688.569	0.0168150
688.647	0.0170483
688.725	0.0173810
688.803	0.0174756
688.881	0.0176428
688.959	0.0178106
689.038	0.0176370
689.116	0.0178813
689.194	0.0179201
689.272	0.0181193
689.350	0.0181854
689.428	0.0180595
689.506	0.0180618
689.584	0.0181017
689.663	0.0181276
689.741	0.0179971
689.819	0.0177148
689.897	0.0175498
689.975	0.0172656
690.053	0.0166759
690.131	0.0161945
690.209	0.0157575
690.288	0.0151640
690.366	0.0147050
690.444	0.0139504
690.522	0.0135039
690.600	0.0133352
690.678	0.0129615
690.756	0.0125420
690.834	0.0123440
690.913	0.0125294
690.991	0.0127505
691.069	0.0129419
691.147	0.0130009
691.225	0.0134555
691.303	0.0139236
691.381	0.0142925
691.459	0.0147150
691.538	0.0153021
691.616	0.0156438
691.694	0.0162007
691.772	0.0166327
691.850	0.0170876
691.928	0.0173248
692.006	0.0177336
692.084	0.0182189
692.163	0.0184786
692.241	0.0186500
692.319	0.0188182
692.397	0.0188880
692.475	0.0189098
692.553	0.0188342
692.631	0.0186201
692.709	0.0184622
692.788	0.0180394
692.866	0.0179832
692.944	0.0175318
693.022	0.0171719
693.100	0.0168468
693.178	0.0165601
693.256	0.0161131
693.334	0.0158349
693.413	0.0157193
693.491	0.0155285
693.569	0.0152155
693.647	0.0150879
693.725	0.0151399
693.803	0.0152982
693.881	0.0151441
693.959	0.0151472
694.038	0.0151513
694.116	0.0153748
694.194	0.0152723
694.272	0.0151906
694.350	0.0152417
694.428	0.0149323
694.506	0.0147631
694.584	0.0146158
694.663	0.0143173
694.741	0.0141173
694.819	0.0138438
694.897	0.0138613
694.975	0.0136977
695.053	0.0137863
695.131	0.0140143
695.209	0.0140538
695.288	0.0145412
695.366	0.0148945
695.444	0.0154091
695.522	0.0159520
695.600	0.0164956
695.678	0.0169464
695.756	0.0173684
695.834	0.0178450
695.913	0.0182484
695.991	0.0185026
696.069	0.0185620
696.147	0.0187756
696.225	0.0189859
696.303	0.0190805
696.381	0.0192323
696.459	0.0190977
696.538	0.0190205
696.616	0.0188742
696.694	0.0187121
696.772	0.0184893
696.850	0.0177587
696.928	0.0175756
697.006	0.0170243
697.084	0.0163428
697.163	0.0156898
697.241	0.0151841
697.319	0.0144834
697.397	0.0139855
697.475	0.0137035
697.553	0.0132281
697.631	0.0130239
697.709	0.0127555
697.788	0.0126520
697.866	0.0126372
697.944	0.0127585
698.022	0.0126671
698.100	0.0127813
698.178	0.0131322
698.256	0.0132996
698.334	0.0134495
698.413	0.0137030
698.491	0.0139449
698.569	0.0142556
698.647	0.0147460
698.725	0.0151922
698.803	0.0156437
698.881	0.0161909
698.959	0.0167265
699.038	0.0174988
699.116	0.0179443
699.194	0.0183256
699.272	0.0187334
699.350	0.0190800
699.428	0.0193081
699.506	0.0193181
699.584	0.0193285
699.663	0.0193275
699.741	0.0191241
699.819	0.0190424
699.897	0.0187924
699.975	0.0187073
700.053	0.0185531
700.131	0.0181271
700.209	0.0179941
700.288	0.0179246
700.366	0.0175884
700.444	0.0174143
700.522	0.0169579
700.600	0.0166295
700.678	0.0163403
700.756	0.0159798
700.834	0.0154986
700.913	0.0152619
700.991	0.0146538
701.069	0.0142973
701.147	0.0141690
701.225	0.0138633
701.303	0.0135500
701.381	0.0134053
701.459	0.0133526
701.538	0.0133274
701.616	0.0133335
701.694	0.0133445
701.772	0.0133187
701.850	0.0132690
701.928	0.0134866
702.006	0.0134515
702.084	0.0136736
702.163	0.0137479
702.241	0.0138765
702.319	0.0139765
702.397	0.0141543
702.475	0.0145213
702.553	0.0149609
702.631	0.0152611
702.709	0.0156047
702.788	0.0158672
702.866	0.0162614
702.944	0.0165446
703.022	0.0167457
703.100	0.0169280
703.178	0.0168254
703.256	0.0169502
703.334	0.0170615
703.413	0.0167579
703.491	0.0166678
703.569	0.0163914
703.647	0.0161348
703.725	0.0161537
703.803	0.0161753
703.881	0.0162191
703.959	0.0163161
704.038	0.0166246
704.116	0.0169024
704.194	0.0171016
704.272	0.0173462
704.350	0.0179842
704.428	0.0184138
704.506	0.0186179
704.584	0.0188404
704.663	0.0188251
704.741	0.0190213
704.819	0.0189473
704.897	0.0187270
704.975	0.0184679
705.053	0.0179754
705.131	0.0176101
705.209	0.0173344
705.288	0.0167169
705.366	0.0165218
705.444	0.0160809
705.522	0.0157527
705.600	0.0153916
705.678	0.0153735
705.756	0.0150349
705.834	0.0148262
705.913	0.0148342
705.991	0.0146648
706.069	0.0143575
706.147	0.0142777
706.225	0.0142081
706.303	0.0138173
706.381	0.0136064
706.459	0.0132891
706.538	0.0131892
706.616	0.0129352
706.694	0.0127541
706.772	0.0128357
706.850	0.0127284
706.928	0.0128905
707.006	0.0130872
707.084	0.0131962
707.163	0.0135900
707.241	0.0139095
707.319	0.0142539
707.397	0.0147021
707.475	0.0152771
707.553	0.0155336
707.631	0.0159980
707.709	0.0163602
707.788	0.0168079
707.866	0.0170545
707.944	0.0172219
708.022	0.0173913
708.100	0.0177357
708.178	0.0177992
708.256	0.0180415
708.334	0.0181578
708.413	0.0183227
708.491	0.0182355
708.569	0.0180936
708.647	0.0181098
708.725	0.0179430
708.803	0.0177592
708.881	0.0175367
708.959	0.0171725
709.038	0.0168487
709.116	0.0165672
709.194	0.0163246
709.272	0.0160171
709.350	0.0159547
709.428	0.0158293
709.506	0.0156918
709.584	0.0158849
709.663	0.0161101
709.741	0.0163544
709.819	0.0165453
709.897	0.0167437
709.975	0.0170319
710.053	0.0172098
710.131	0.0172553
710.209	0.0172567
710.288	0.0171899
710.366	0.0171678
710.444	0.0169814
710.522	0.0167071
710.600	0.0165300
710.678	0.0164329
710.756	0.0159645
710.834	0.0156291
710.913	0.0153445
710.991	0.0151640
711.069	0.0149751
711.147	0.0148064
711.225	0.0146229
711.303	0.0144230
711.381	0.0142821
711.459	0.0143530
711.538	0.0143752
711.616	0.0144786
711.694	0.0146458
711.772	0.0149897
711.850	0.0152937
711.928	0.0154707
712.006	0.0157958
712.084	0.0163549
712.163	0.0167407
712.241	0.0169293
712.319	0.0169895
712.397	0.0171673
712.475	0.0171004
712.553	0.0170528
712.631	0.0166776
712.709	0.0163360
712.788	0.0161118
712.866	0.0156038
712.944	0.0151075
713.022	0.0146814
713.100	0.0143443
713.178	0.0141525
713.256	0.0139563
713.334	0.0139307
713.413	0.0138236
713.491	0.0137155
713.569	0.0138607
713.647	0.0140647
713.725	0.0142214
713.803	0.0145676
713.881	0.0148830
713.959	0.0151206
714.038	0.0154340
714.116	0.0157932
714.194	0.0161649
714.272	0.0166277
714.350	0.0170316
714.428	0.0176131
714.506	0.0177970
714.584	0.0180715
714.663	0.0182728
714.741	0.0182749
714.819	0.0184402
714.897	0.0183479
714.975	0.0181181
715.053	0.0179186
715.131	0.0178027
715.209	0.0175453
715.288	0.0172697
715.366	0.0170424
715.444	0.0168493
715.522	0.0167114
715.600	0.0165164
715.678	0.0165979
715.756	0.0165530
715.834	0.0165495
715.913	0.0167811
715.991	0.0168909
716.069	0.0169170
716.147	0.0169672
716.225	0.0170139
716.303	0.0170037
716.381	0.0169672
716.459	0.0168166
716.538	0.0167729
716.616	0.0164478
716.694	0.0161544
716.772	0.0159850
716.850	0.0158278
716.928	0.0153854
717.006	0.0152599
717.084	0.0150863
717.163	0.0148177
717.241	0.0147263
717.319	0.0148080
717.397	0.0145155
717.475	0.0145524
717.553	0.0146051
717.631	0.0146541
717.709	0.0145837
717.788	0.0145403
717.866	0.0146464
717.944	0.0145280
718.022	0.0145522
718.100	0.0146446
718.178	0.0146905
718.256	0.0145688
718.334	0.0148950
718.413	0.0149315
718.491	0.0151028
718.569	0.0153264
718.647	0.0155186
718.725	0.0158194
718.803	0.0159616
718.881	0.0158727
718.959	0.0162062
719.038	0.0161976
719.116	0.0165161
719.194	0.0166284
719.272	0.0165338
719.350	0.0166109
719.428	0.0165520
719.506	0.0165824
719.584	0.0165732
719.663	0.0165331
719.741	0.0164153
719.819	0.0162591
719.897	0.0162228
719.975	0.0161751
720.053	0.0160925
720.131	0.0160012
720.209	0.0158402
720.288	0.0159443
720.366	0.0159501
720.444	0.0160519
720.522	0.0159669
720.600	0.0161336
720.678	0.0162080
720.756	0.0162548
720.834	0.0164765
720.913	0.0165453
720.991	0.0167959
721.069	0.0169373
721.147	0.0169743
721.225	0.0169814
721.303	0.0170030
721.381	0.0169596
721.459	0.0169825
721.538	0.0168428
721.616	0.0169199
721.694	0.0169148
721.772	0.0168688
721.850	0.0167786
721.928	0.0168900
722.006	0.0168716
722.084	0.0169711
722.163	0.0169627
722.241	0.0171136
722.319	0.0172784
722.397	0.0169553
722.475	0.0170221
722.553	0.0168848
722.631	0.0166090
722.709	0.0164332
722.788	0.0161494
722.866	0.0157292
722.944	0.0154494
723.022	0.0150945
723.100	0.0149222
723.178	0.0145698
723.256	0.0143790
723.334	0.0142567
723.413	0.0142299
723.491	0.0142738
723.569	0.0142789
723.647	0.0143446
723.725	0.0144059
723.803	0.0145193
723.881	0.0146488
723.959	0.0149347
724.038	0.0148645
724.116	0.0147672
724.194	0.0147421
724.272	0.0148092
724.350	0.0146452
724.428	0.0146304
724.506	0.0145067
724.584	0.0144109
724.663	0.0144218
724.741	0.0143858
724.819	0.0145394
724.897	0.0146965
724.975	0.0147958
725.053	0.0150036
725.131	0.0151708
725.209	0.0154297
725.288	0.0157621
725.366	0.0159155
725.444	0.0161267
725.522	0.0162267
725.600	0.0162315
725.678	0.0161856
725.756	0.0160933
725.834	0.0161575
725.913	0.0161420
725.991	0.0161197
726.069	0.0162589
726.147	0.0162420
726.225	0.0162822
726.303	0.0163290
726.381	0.0166949
726.459	0.0169592
726.538	0.0170160
726.616	0.0174123
726.694	0.0174551
726.772	0.0176945
726.850	0.0178161
726.928	0.0178115
727.006	0.0178747
727.084	0.0179742
727.163	0.0179444
727.241	0.0179540
727.319	0.0178843
727.397	0.0177823
727.475	0.0177160
727.553	0.0176003
727.631	0.0177538
727.709	0.0175461
727.788	0.0174357
727.866	0.0173468
727.944	0.0172194
728.022	0.0169527
728.100	0.0168283
728.178	0.0165537
728.256	0.0164106
728.334	0.0158759
728.413	0.0157394
728.491	0.0157023
728.569	0.0154298
728.647	0.0152617
728.725	0.0153136
728.803	0.0153378
728.881	0.0151954
728.959	0.0151698
729.038	0.0151138
729.116	0.0151898
729.194	0.0149934
729.272	0.0148368
729.350	0.0145924
729.428	0.0145383
729.506	0.0142899
729.584	0.0140002
729.663	0.0138515
729.741	0.0135806
729.819	0.0134775
729.897	0.0136655
729.975	0.0134869
730.053	0.0135910
730.131	0.0136089
730.209	0.0135013
730.288	0.0136890
730.366	0.0137657
730.444	0.0138491
730.522	0.0141512
730.600	0.0142976
730.678	0.0144474
730.756	0.0147368
730.834	0.0148890
730.913	0.0152002
730.991	0.0155193
731.069	0.0159551
731.147	0.0162312
731.225	0.0163860
731.303	0.0165757
731.381	0.0168621
731.459	0.0169319
731.538	0.0170857
731.616	0.0171348
731.694	0.0171373
731.772	0.0171835
731.850	0.0171970
731.928	0.0171446
732.006	0.0171150
732.084	0.0171218
732.163	0.0170422
732.241	0.0171149
732.319	0.0171554
732.397	0.0172848
732.475	0.0174242
732.553	0.0177274
732.631	0.0176730
732.709	0.0179059
732.788	0.0179996
732.866	0.0179161
732.944	0.0179102
733.022	0.0179169
733.100	0.0177879
733.178	0.0177361
733.256	0.0175364
733.334	0.0170923
733.413	0.0171239
733.491	0.0170151
733.569	0.0168890
733.647	0.0167419
733.725	0.0164893
733.803	0.0165040
733.881	0.0164230
733.959	0.0163497
734.038	0.0161662
734.116	0.0160595
734.194	0.0160025
734.272	0.0159224
734.350	0.0158094
734.428	0.0156796
734.506	0.0155682
734.584	0.0154970
734.663	0.0154746
734.741	0.0154298
734.819	0.0154017
734.897	0.0153815
734.975	0.0153101
735.053	0.0153120
735.131	0.0151709
735.209	0.0151828
735.288	0.0151198
735.366	0.0151357
735.444	0.0152063
735.522	0.0150048
735.600	0.0150130
735.678	0.0149537
735.756	0.0147669
735.834	0.0147736
735.913	0.0148533
735.991	0.0147775
736.069	0.0147505
736.147	0.0147465
736.225	0.0148174
736.303	0.0149030
736.381	0.0147751
736.459	0.0146072
736.538	0.0146819
736.616	0.0147419
736.694	0.0147046
736.772	0.0146439
736.850	0.0148103
736.928	0.0147263
737.006	0.0148460
737.084	0.0151031
737.163	0.0151274
737.241	0.0152966
737.319	0.0154642
737.397	0.0154679
737.475	0.0156952
737.553	0.0157789
737.631	0.0160007
737.709	0.0161225
737.788	0.0161994
737.866	0.0164095
737.944	0.0163992
738.022	0.0165430
738.100	0.0166650
738.178	0.0166644
738.256	0.0168265
738.334	0.0169958
738.413	0.0169382
738.491	0.0171420
738.569	0.0171333
738.647	0.0172992
738.725	0.0173943
738.803	0.0176829
738.881	0.0176453
738.959	0.0176068
739.038	0.0175668
739.116	0.0177321
739.194	0.0178851
739.272	0.0176319
739.350	0.0176994
739.428	0.0178770
739.506	0.0177055
739.584	0.0176299
739.663	0.0174660
739.741	0.0173755
739.819	0.0172424
739.897	0.0170300
739.975	0.0168152
740.053	0.0166124
740.131	0.0164059
740.209	0.0160258
740.288	0.0159887
740.366	0.0156748
740.444	0.0155358
740.522	0.0154249
740.600	0.0153884
740.678	0.0153532
740.756	0.0154178
740.834	0.0154121
740.913	0.0155526
740.991	0.0157368
741.069	0.0160213
741.147	0.0158294
741.225	0.0158768
741.303	0.0160971
741.381	0.0160878
741.459	0.0161514
741.538	0.0160207
741.616	0.0159846
741.694	0.0157630
741.772	0.0157619
741.850	0.0155975
741.928	0.0154410
742.006	0.0153559
742.084	0.0151482
742.163	0.0152495
742.241	0.0151659
742.319	0.0148788
742.397	0.0148439
742.475	0.0148898
742.553	0.0148305
742.631	0.0148874
742.709	0.0148458
742.788	0.0147902
742.866	0.0148411
742.944	0.0150898
743.022	0.0151388
743.100	0.0151141
743.178	0.0151411
743.256	0.0152867
743.334	0.0154235
743.413	0.0156099
743.491	0.0157371
743.569	0.0158487
743.647	0.0162161
743.725	0.0162099
743.803	0.0161559
743.881	0.0163683
743.959	0.0164272
744.038	0.0163554
744.116	0.0162932
744.194	0.0163258
744.272	0.0162930
744.350	0.0161086
744.428	0.0157671
744.506	0.0156922
744.584	0.0156743
744.663	0.0154156
744.741	0.0153155
744.819	0.0153710
744.897	0.0152363
744.975	0.0152032
745.053	0.0151974
745.131	0.0153399
745.209	0.0155929
745.288	0.0156316
745.366	0.0157588
745.444	0.0159451
745.522	0.0161053
745.600	0.0162302
745.678	0.0164706
745.756	0.0166582
745.834	0.0168269
745.913	0.0168447
745.991	0.0169444
746.069	0.0169382
746.147	0.0169706
746.225	0.0168345
746.303	0.0167906
746.381	0.0170051
746.459	0.0168472
746.538	0.0168492
746.616	0.0167206
746.694	0.0167384
746.772	0.0167467
746.850	0.0166755
746.928	0.0168671
747.006	0.0167847
747.084	0.0167406
747.163	0.0167918
747.241	0.0167414
747.319	0.0166992
747.397	0.0166083
747.475	0.0164526
747.553	0.0164204
747.631	0.0162978
747.709	0.0160806
747.788	0.0159842
747.866	0.0157335
747.944	0.0157202
748.022	0.0155979
748.100	0.0155405
748.178	0.0152461
748.256	0.0154297
748.334	0.0154585
748.413	0.0154059
748.491	0.0154723
748.569	0.0155129
748.647	0.0154124
748.725	0.0155939
748.803	0.0154862
748.881	0.0155322
748.959	0.0153169
749.038	0.0154337
749.116	0.0153771
749.194	0.0153708
749.272	0.0153487
749.350	0.0153413
749.428	0.0153705
749.506	0.0154835
749.584	0.0155618
749.663	0.0155575
749.741	0.0157531
749.819	0.0158770
749.897	0.0157387
749.975	0.0159513
750.053	0.0160914
750.131	0.0159532
750.209	0.0157905
750.288	0.0157298
750.366	0.0155849
750.444	0.0154959
750.522	0.0153943
750.600	0.0152026
750.678	0.0150315
750.756	0.0149728
750.834	0.0148707
750.913	0.0149205
750.991	0.0149594
751.069	0.0149403
751.147	0.0152105
751.225	0.0155107
751.303	0.0155283
751.381	0.0156751
751.459	0.0158776
751.538	0.0159962
751.616	0.0162440
751.694	0.0161961
751.772	0.0163369
751.850	0.0163152
751.928	0.0162346
752.006	0.0161654
752.084	0.0161131
752.163	0.0162925
752.241	0.0161629
752.319	0.0160146
752.397	0.0162096
752.475	0.0161150
752.553	0.0164469
752.631	0.0163992
752.709	0.0165167
752.788	0.0164040
752.866	0.0167124
752.944	0.0168226
753.022	0.0168911
753.100	0.0168909
753.178	0.0169109
753.256	0.0169502
753.334	0.0167253
753.413	0.0167850
753.491	0.0169046
753.569	0.0168516
753.647	0.0167749
753.725	0.0168052
753.803	0.0166505
753.881	0.0165662
753.959	0.0166186
754.038	0.0165118
754.116	0.0163553
754.194	0.0163056
754.272	0.0161127
754.350	0.0157849
754.428	0.0154918
754.506	0.0153271
754.584	0.0153716
754.663	0.0151551
754.741	0.0151118
754.819	0.0150226
754.897	0.0150922
754.975	0.0150612
755.053	0.0150446
755.131	0.0151024
755.209	0.0152454
755.288	0.0153874
755.366	0.0155131
755.444	0.0156707
755.522	0.0158971
755.600	0.0158659
755.678	0.0160889
755.756	0.0163318
755.834	0.0163132
755.913	0.0164899
755.991	0.0167187
756.069	0.0166241
756.147	0.0167071
756.225	0.0167690
756.303	0.0166852
756.381	0.0164988
756.459	0.0164657
756.538	0.0166103
756.616	0.0162392
756.694	0.0161104
756.772	0.0160919
756.850	0.0160333
756.928	0.0160804
757.006	0.0159557
757.084	0.0159487
757.163	0.0159129
757.241	0.0159559
757.319	0.0159256
757.397	0.0159919
757.475	0.0158541
757.553	0.0159183
757.631	0.0160201
757.709	0.0159690
757.788	0.0159789
757.866	0.0160920
757.944	0.0160429
758.022	0.0160340
758.100	0.0160306
758.178	0.0160218
758.256	0.0160493
758.334	0.0160028
758.413	0.0157664
758.491	0.0158380
758.569	0.0158295
758.647	0.0157422
758.725	0.0155845
758.803	0.0154922
758.881	0.0156678
758.959	0.0155914
759.038	0.0156839
759.116	0.0155858
759.194	0.0156448
759.272	0.0155450
759.350	0.0157271
759.428	0.0157220
759.506	0.0159638
759.584	0.0159264
759.663	0.0158063
759.741	0.0159116
759.819	0.0158347
759.897	0.0158863
759.975	0.0158300
760.053	0.0156702
760.131	0.0156435
760.209	0.0155952
760.288	0.0156847
760.366	0.0157236
760.444	0.0154430
760.522	0.0152946
760.600	0.0155499
760.678	0.0154375
760.756	0.0155306
760.834	0.0155594
760.913	0.0155449
760.991	0.0157410
761.069	0.0157690
761.147	0.0158756
761.225	0.0159473
761.303	0.0161673
761.381	0.0162708
761.459	0.0163792
761.538	0.0165526
761.616	0.0167448
761.694	0.0169298
761.772	0.0167886
761.850	0.0169299
761.928	0.0169811
762.006	0.0169155
762.084	0.0168918
762.163	0.0168239
762.241	0.0167832
762.319	0.0166446
762.397	0.0166251
762.475	0.0165691
762.553	0.0164465
762.631	0.0164046
762.709	0.0163900
762.788	0.0162713
762.866	0.0161923
762.944	0.0161182
763.022	0.0159265
763.100	0.0159578
763.178	0.0159955
763.256	0.0158944
763.334	0.0158849
763.413	0.0159082
763.491	0.0158218
763.569	0.0158321
763.647	0.0160931
763.725	0.0161504
763.803	0.0161127
763.881	0.0162056
763.959	0.0162384
764.038	0.0162302
764.116	0.0164381
764.194	0.0165115
764.272	0.0165976
764.350	0.0164909
764.428	0.0166956
764.506	0.0166465
764.584	0.0167342
764.663	0.0168064
764.741	0.0166769
764.819	0.0164625
764.897	0.0162739
764.975	0.0161340
765.053	0.0158792
765.131	0.0157037
765.209	0.0153628
765.288	0.0153007
765.366	0.0151791
765.444	0.0147630
765.522	0.0147789
765.600	0.0146299
765.678	0.0145680
765.756	0.0146172
765.834	0.0144813
765.913	0.0144491
765.991	0.0144828
766.069	0.0144926
766.147	0.0146206
766.225	0.0148564
766.303	0.0150880
766.381	0.0151469
766.459	0.0152282
766.538	0.0154469
766.616	0.0157516
766.694	0.0157722
766.772	0.0159692
766.850	0.0161387
766.928	0.0160776
767.006	0.0161737
767.084	0.0161401
767.163	0.0162573
767.241	0.0162309
767.319	0.0162183
767.397	0.0162293
767.475	0.0160874
767.553	0.0160611
767.631	0.0161372
767.709	0.0159649
767.788	0.0159344
767.866	0.0159274
767.944	0.0159319
768.022	0.0159135
768.100	0.0158181
768.178	0.0158799
768.256	0.0158267
768.334	0.0158149
768.413	0.0157929
768.491	0.0159873
768.569	0.0159999
768.647	0.0161552
768.725	0.0162141
768.803	0.0162134
768.881	0.0162091
768.959	0.0163723
769.038	0.0163993
769.116	0.0163419
769.194	0.0163787
769.272	0.0162471
769.350	0.0162919
769.428	0.0162724
769.506	0.0161765
769.584	0.0162229
769.663	0.0161996
769.741	0.0163358
769.819	0.0163906
769.897	0.0163380
769.975	0.0163058
770.053	0.0165263
770.131	0.0165665
770.209	0.0165770
770.288	0.0164857
770.366	0.0165833
770.444	0.0165265
770.522	0.0163992
770.600	0.0165131
770.678	0.0164601
770.756	0.0164169
770.834	0.0163869
770.913	0.0163274
770.991	0.0161713
771.069	0.0161816
771.147	0.0161726
771.225	0.0161504
771.303	0.0160641
771.381	0.0159995
771.459	0.0160086
771.538	0.0159868
771.616	0.0159599
771.694	0.0159231
771.772	0.0157342
771.850	0.0158314
771.928	0.0159719
772.006	0.0156952
772.084	0.0158080
772.163	0.0158109
772.241	0.0157973
772.319	0.0156772
772.397	0.0158308
772.475	0.0160663
772.553	0.0159396
772.631	0.0160421
772.709	0.0160860
772.788	0.0161059
772.866	0.0160773
772.944	0.0161219
773.022	0.0161529
773.100	0.0160737
773.178	0.0160957
773.256	0.0161189
773.334	0.0160120
773.413	0.0158315
773.491	0.0156895
773.569	0.0154418
773.647	0.0153220
773.725	0.0150536
773.803	0.0149940
773.881	0.0148860
773.959	0.0148983
774.038	0.0148066
774.116	0.0148400
774.194	0.0148326
774.272	0.0148122
774.350	0.0149632
774.428	0.0151652
774.506	0.0153745
774.584	0.0155644
774.663	0.0156263
774.741	0.0158674
774.819	0.0160064
774.897	0.0162451
774.975	0.0164464
775.053	0.0165243
775.131	0.0167614
775.209	0.0165915
775.288	0.0167902
775.366	0.0168246
775.444	0.0168321
775.522	0.0168250
775.600	0.0167010
775.678	0.0168317
775.756	0.0166855
775.834	0.0165602
775.913	0.0164729
775.991	0.0163834
776.069	0.0162267
776.147	0.0162245
776.225	0.0159736
776.303	0.0159305
776.381	0.0158907
776.459	0.0158438
776.538	0.0159097
776.616	0.0159982
776.694	0.0160922
776.772	0.0161674
776.850	0.0162718
776.928	0.0162903
777.006	0.0164572
777.084	0.0164967
777.163	0.0165737
777.241	0.0166581
777.319	0.0165473
777.397	0.0165345
777.475	0.0163213
777.553	0.0162560
777.631	0.0163486
777.709	0.0160886
777.788	0.0159505
777.866	0.0158988
777.944	0.0158554
778.022	0.0155532
778.100	0.0155994
778.178	0.0153693
778.256	0.0154352
778.334	0.0155189
778.413	0.0155921
778.491	0.0155548
778.569	0.0157906
778.647	0.0159811
778.725	0.0159335
778.803	0.0160365
778.881	0.0162880
778.959	0.0163912
779.038	0.0166039
779.116	0.0166413
779.194	0.0166757
779.272	0.0166692
779.350	0.0167580
779.428	0.0166415
779.506	0.0165432
779.584	0.0164037
779.663	0.0164692
779.741	0.0162193
779.819	0.0161594
779.897	0.0160300
779.975	0.0159370
780.053	0.0156081
780.131	0.0156651
780.209	0.0155664
780.288	0.0155524
780.366	0.0155233
780.444	0.0154914
780.522	0.0152346
780.600	0.0151363
780.678	0.0152084
780.756	0.0151556
780.834	0.0151662
780.913	0.0151805
780.991	0.0150843
781.069	0.0151112
781.147	0.0151836
781.225	0.0152831
781.303	0.0153642
781.381	0.0155364
781.459	0.0154962
781.538	0.0156693
781.616	0.0158580
781.694	0.0160146
781.772	0.0161546
781.850	0.0163171
781.928	0.0163303
782.006	0.0163448
782.084	0.0163459
782.163	0.0163876
782.241	0.0164549
782.319	0.0164903
782.397	0.0162962
782.475	0.0162439
782.553	0.0163110
782.631	0.0161608
782.709	0.0160226
782.788	0.0159013
782.866	0.0157820
782.944	0.0158961
783.022	0.0158141
783.100	0.0157646
783.178	0.0157497
783.256	0.0156776
783.334	0.0157082
783.413	0.0157613
783.491	0.0157065
783.569	0.0157169
783.647	0.0157122
783.725	0.0155944
783.803	0.0157328
783.881	0.0156403
783.959	0.0156799
784.038	0.0157685
784.116	0.0160143
784.194	0.0160917
784.272	0.0159731
784.350	0.0160592
784.428	0.0161130
784.506	0.0163445
784.584	0.0163428
784.663	0.0163268
784.741	0.0165083
784.819	0.0165737
784.897	0.0164996
784.975	0.0164102
785.053	0.0163990
785.131	0.0165250
785.209	0.0163745
785.288	0.0162495
785.366	0.0163307
785.444	0.0161504
785.522	0.0161585
785.600	0.0162813
785.678	0.0162317
785.756	0.0161510
785.834	0.0161671
785.913	0.0161607
785.991	0.0160596
786.069	0.0160368
786.147	0.0158810
786.225	0.0159806
786.303	0.0158630
786.381	0.0157394
786.459	0.0155844
786.538	0.0155174
786.616	0.0155759
786.694	0.0153989
786.772	0.0155307
786.850	0.0154796
786.928	0.0153986
787.006	0.0154250
787.084	0.0154221
787.163	0.0155230
787.241	0.0156267
787.319	0.0158006
787.397	0.0158659
787.475	0.0160888
787.553	0.0163161
787.631	0.0163440
787.709	0.0165862
787.788	0.0166029
787.866	0.0165401
787.944	0.0166228
788.022	0.0167667
788.100	0.0167013
788.178	0.0167030
788.256	0.0165781
788.334	0.0164487
788.413	0.0164248
788.491	0.0161423
788.569	0.0160918
788.647	0.0160999
788.725	0.0159509
788.803	0.0158289
788.881	0.0157712
788.959	0.0157803
789.038	0.0156893
789.116	0.0157938
789.194	0.0157187
789.272	0.0157465
789.350	0.0155186
789.428	0.0154964
789.506	0.0155900
789.584	0.0155124
789.663	0.0154192
789.741	0.0154500
789.819	0.0154240
789.897	0.0153811
789.975	0.0154981
790.053	0.0157204
790.131	0.0157429
790.209	0.0157519
790.288	0.0160139
790.366	0.0162344
790.444	0.0162884
790.522	0.0164301
790.600	0.0164870
790.678	0.0167540
790.756	0.0167751
790.834	0.0167480
790.913	0.0166780
790.991	0.0166810
791.069	0.0166279
791.147	0.0165231
791.225	0.0162981
791.303	0.0160716
791.381	0.0159234
791.459	0.0157525
791.538	0.0156767
791.616	0.0154264
791.694	0.0152303
791.772	0.0151084
791.850	0.0150377
791.928	0.0150761
792.006	0.0151291
792.084	0.0151125
792.163	0.0150806
792.241	0.0154153
792.319	0.0153789
792.397	0.0155418
792.475	0.0156377
792.553	0.0157181
792.631	0.0159576
792.709	0.0162238
792.788	0.0163373
792.866	0.0165421
792.944	0.0166507
793.022	0.0166476
793.100	0.0169421
793.178	0.0170784
793.256	0.0169294
793.334	0.0168641
793.413	0.0168532
793.491	0.0169676
793.569	0.0170009
793.647	0.0165984
793.725	0.0163725
793.803	0.0166006
793.881	0.0162434
793.959	0.0160252
794.038	0.0158807
794.116	0.0156490
794.194	0.0156741
794.272	0.0154986
794.350	0.0153864
794.428	0.0154581
794.506	0.0154655
794.584	0.0152764
794.663	0.0154383
794.741	0.0155023
794.819	0.0155973
794.897	0.0156870
794.975	0.0156925
795.053	0.0158515
795.131	0.0158720
795.209	0.0159810
795.288	0.0161021
795.366	0.0161906
795.444	0.0161340
795.522	0.0163052
795.600	0.0164078
795.678	0.0164776
795.756	0.0164814
795.834	0.0165413
795.913	0.0165804
795.991	0.0167103
796.069	0.0165797
796.147	0.0167088
796.225	0.0167443
796.303	0.0165943
796.381	0.0166396
796.459	0.0167159
796.538	0.0167406
796.616	0.0167362
796.694	0.0167039
796.772	0.0167098
796.850	0.0165485
796.928	0.0164539
797.006	0.0162981
797.084	0.0162460
797.163	0.0161072
797.241	0.0157552
797.319	0.0155482
797.397	0.0155012
797.475	0.0153086
797.553	0.0152512
797.631	0.0152242
797.709	0.0150749
797.788	0.0150555
797.866	0.0149072
797.944	0.0149794
798.022	0.0151265
798.100	0.0152055
798.178	0.0152295
798.256	0.0152721
798.334	0.0152172
798.413	0.0153273
798.491	0.0153027
798.569	0.0154294
798.647	0.0152848
798.725	0.0154042
798.803	0.0156031
798.881	0.0157192
798.959	0.0159416
799.038	0.0160992
799.116	0.0161978
799.194	0.0164059
799.272	0.0166361
799.350	0.0167027
799.428	0.0167997
799.506	0.0169383
799.584	0.0169485
799.663	0.0171144
799.741	0.0169998
799.819	0.0169816
799.897	0.0168729
799.975	0.0166933
800.053	0.0163823
800.131	0.0162051
800.209	0.0159070
800.288	0.0159124
800.366	0.0157961
800.444	0.0153913
800.522	0.0153650
800.600	0.0153505
800.678	0.0154119
800.756	0.0152344
800.834	0.0152462
800.913	0.0153848
800.991	0.0156666
801.069	0.0156606
801.147	0.0155603
801.225	0.0158119
801.303	0.0160326
801.381	0.0161093
801.459	0.0162399
801.538	0.0162241
801.616	0.0163544
801.694	0.0164612
801.772	0.0165519
801.850	0.0166125
801.928	0.0167556
802.006	0.0167518
802.084	0.0168771
802.163	0.0168042
802.241	0.0166663
802.319	0.0166754
802.397	0.0166291
802.475	0.0165598
802.553	0.0163535
802.631	0.0162425
802.709	0.0159927
802.788	0.0157961
802.866	0.0157970
802.944	0.0154391
803.022	0.0153190
803.100	0.0153904
803.178	0.0151363
803.256	0.0154269
803.334	0.0153147
803.413	0.0154659
803.491	0.0155099
803.569	0.0155575
803.647	0.0157235
803.725	0.0159911
803.803	0.0159034
803.881	0.0158856
803.959	0.0158769
804.038	0.0160229
804.116	0.0159734
804.194	0.0159840
804.272	0.0159340
804.350	0.0159634
804.428	0.0158365
804.506	0.0158791
804.584	0.0157348
804.663	0.0158167
804.741	0.0158573
804.819	0.0158353
804.897	0.0157892
804.975	0.0158411
805.053	0.0157892
805.131	0.0159952
805.209	0.0159019
805.288	0.0160342
805.366	0.0160854
805.444	0.0162228
805.522	0.0162547
805.600	0.0166179
805.678	0.0167203
805.756	0.0168235
805.834	0.0168302
805.913	0.0167507
805.991	0.0167296
806.069	0.0166361
806.147	0.0168149
806.225	0.0165717
806.303	0.0165224
806.381	0.0163261
806.459	0.0160202
806.538	0.0159686
806.616	0.0158689
806.694	0.0158351
806.772	0.0158649
806.850	0.0156989
806.928	0.0155814
807.006	0.0156879
807.084	0.0156373
807.163	0.0155967
807.241	0.0154161
807.319	0.0152991
807.397	0.0154668
807.475	0.0154543
807.553	0.0152219
807.631	0.0153909
807.709	0.0154469
807.788	0.0155119
807.866	0.0155965
807.944	0.0156358
808.022	0.0157740
808.100	0.0160610
808.178	0.0160651
808.256	0.0164452
808.334	0.0165800
808.413	0.0167434
808.491	0.0168591
808.569	0.0167535
808.647	0.0170314
808.725	0.0167801
808.803	0.0167811
808.881	0.0165539
808.959	0.0164145
809.038	0.0162807
809.116	0.0160102
809.194	0.0156575
809.272	0.0155467
809.350	0.0153330
809.428	0.0150309
809.506	0.0149271
809.584	0.0149036
809.663	0.0148163
809.741	0.0149222
809.819	0.0148656
809.897	0.0149979
809.975	0.0151079
810.053	0.0152299
810.131	0.0155549
810.209	0.0156880
810.288	0.0158561
810.366	0.0160002
810.444	0.0160747
810.522	0.0162019
810.600	0.0163203
810.678	0.0166383
810.756	0.0166890
810.834	0.0167523
810.913	0.0169669
810.991	0.0171143
811.069	0.0171806
811.147	0.0169502
811.225	0.0170242
811.303	0.0170925
811.381	0.0168958
811.459	0.0167918
811.538	0.0166126
811.616	0.0166079
811.694	0.0162624
811.772	0.0161753
811.850	0.0160511
811.928	0.0161518
812.006	0.0159168
812.084	0.0158871
812.163	0.0158230
812.241	0.0158319
812.319	0.0159807
812.397	0.0161298
812.475	0.0161545
812.553	0.0159766
812.631	0.0161444
812.709	0.0162137
812.788	0.0161660
812.866	0.0160870
812.944	0.0158836
813.022	0.0158882
813.100	0.0157088
813.178	0.0155197
813.256	0.0155282
813.334	0.0154851
813.413	0.0153147
813.491	0.0153217
813.569	0.0153927
813.647	0.0153503
813.725	0.0152435
813.803	0.0152934
813.881	0.0154805
813.959	0.0157439
814.038	0.0157603
814.116	0.0157230
814.194	0.0159261
814.272	0.0159869
814.350	0.0160146
814.428	0.0162353
814.506	0.0162722
814.584	0.0161938
814.663	0.0163807
814.741	0.0162440
814.819	0.0161101
814.897	0.0161636
814.975	0.0160812
815.053	0.0159583
815.131	0.0157926
815.209	0.0155888
815.288	0.0157282
815.366	0.0154147
815.444	0.0153135
815.522	0.0154050
815.600	0.0153181
815.678	0.0154007
815.756	0.0153614
815.834	0.0155117
815.913	0.0155463
815.991	0.0154666
816.069	0.0155785
816.147	0.0157137
816.225	0.0157739
816.303	0.0157454
816.381	0.0157504
816.459	0.0157168
816.538	0.0158316
816.616	0.0159579
816.694	0.0160657
816.772	0.0160159
816.850	0.0161111
816.928	0.0163154
817.006	0.0165796
817.084	0.0167747
817.163	0.0168993
817.241	0.0170676
817.319	0.0171003
817.397	0.0171634
817.475	0.0170728
817.553	0.0170705
817.631	0.0169804
817.709	0.0169407
817.788	0.0168139
817.866	0.0165620
817.944	0.0163955
818.022	0.0161649
818.100	0.0160004
818.178	0.0158063
818.256	0.0156196
818.334	0.0155833
818.413	0.0155519
818.491	0.0154143
818.569	0.0154774
818.647	0.0153255
818.725	0.0154943
818.803	0.0155002
818.881	0.0157442
818.959	0.0157168
819.038	0.0159229
819.116	0.0159880
819.194	0.0160254
819.272	0.0159499
819.350	0.0161250
819.428	0.0161842
819.506	0.0163177
819.584	0.0163152
819.663	0.0163005
819.741	0.0164261
819.819	0.0162530
819.897	0.0163438
819.975	0.0164799
820.053	0.0163673
820.131	0.0162463
820.209	0.0161093
820.288	0.0161227
820.366	0.0159769
820.444	0.0158444
820.522	0.0158069
820.600	0.0157787
820.678	0.0155553
820.756	0.0153417
820.834	0.0154115
820.913	0.0152826
820.991	0.0152889
821.069	0.0154238
821.147	0.0154320
821.225	0.0154454
821.303	0.0156368
821.381	0.0158190
821.459	0.0158242
821.538	0.0157773
821.616	0.0158839
821.694	0.0160204
821.772	0.0160124
821.850	0.0160952
821.928	0.0160099
822.006	0.0160576
822.084	0.0158809
822.163	0.0158227
822.241	0.0158372
822.319	0.0159454
822.397	0.0160603
822.475	0.0159103
822.553	0.0159254
822.631	0.0160080
822.709	0.0161654
822.788	0.0163107
822.866	0.0162377
822.944	0.0163335
823.022	0.0163349
823.100	0.0163555
823.178	0.0163474
823.256	0.0166090
823.334	0.0165507
823.413	0.0164719
823.491	0.0166882
823.569	0.0164563
823.647	0.0164402
823.725	0.0165119
823.803	0.0164003
823.881	0.0163213
823.959	0.0161382
824.038	0.0160207
824.116	0.0160413
824.194	0.0159081
824.272	0.0158714
824.350	0.0157728
824.428	0.0155892
824.506	0.0155270
824.584	0.0154916
824.663	0.0156223
824.741	0.0156855
824.819	0.0155586
824.897	0.0157405
824.975	0.0156541
825.053	0.0157317
825.131	0.0155508
825.209	0.0156734
825.288	0.0156835
825.366	0.0154889
825.444	0.0156118
825.522	0.0155889
825.600	0.0154488
825.678	0.0155741
825.756	0.0157953
825.834	0.0157652
825.913	0.0158279
825.991	0.0160024
826.069	0.0161523
826.147	0.0161689
826.225	0.0163216
826.303	0.0164233
826.381	0.0163488
826.459	0.0165288
826.538	0.0163458
826.616	0.0163181
826.694	0.0163255
826.772	0.0160668
826.850	0.0159427
826.928	0.0157914
827.006	0.0157831
827.084	0.0156200
827.163	0.0154932
827.241	0.0153574
827.319	0.0154417
827.397	0.0153908
827.475	0.0153023
827.553	0.0153928
827.631	0.0154859
827.709	0.0155679
827.788	0.0158236
827.866	0.0158327
827.944	0.0157769
828.022	0.0161388
828.100	0.0160878
828.178	0.0162001
828.256	0.0163523
828.334	0.0163898
828.413	0.0163120
828.491	0.0163694
828.569	0.0164741
828.647	0.0165838
828.725	0.0166174
828.803	0.0165898
828.881	0.0165664
828.959	0.0166331
829.038	0.0165946
829.116	0.0166773
829.194	0.0165951
829.272	0.0166815
829.350	0.0165308
829.428	0.0165160
829.506	0.0164028
829.584	0.0162608
829.663	0.0160468
829.741	0.0161221
829.819	0.0160104
829.897	0.0159280
829.975	0.0157850
830.053	0.0159910
830.131	0.0159121
830.209	0.0159142
830.288	0.0158765
830.366	0.0159167
830.444	0.0159000
830.522	0.0159212
830.600	0.0158716
830.678	0.0161021
830.756	0.0160571
830.834	0.0159795
830.913	0.0158810
830.991	0.0158257
831.069	0.0159310
831.147	0.0157617
831.225	0.0156660
831.303	0.0155589
831.381	0.0156316
831.459	0.0157053
831.538	0.0157684
831.616	0.0155822
831.694	0.0156487
831.772	0.0156140
831.850	0.0157592
831.928	0.0158145
832.006	0.0157529
832.084	0.0156629
832.163	0.0157686
832.241	0.0159022
832.319	0.0159589
832.397	0.0160416
832.475	0.0158154
832.553	0.0160632
832.631	0.0160700
832.709	0.0161269
832.788	0.0161330
832.866	0.0162323
832.944	0.0160303
833.022	0.0160148
833.100	0.0159730
833.178	0.0160027
833.256	0.0160056
833.334	0.0158176
833.413	0.0157619
833.491	0.0157028
833.569	0.0157636
833.647	0.0158415
833.725	0.0157622
833.803	0.0156418
833.881	0.0155787
833.959	0.0158279
834.038	0.0157374
834.116	0.0158011
834.194	0.0158146
834.272	0.0157009
834.350	0.0157640
834.428	0.0159278
834.506	0.0158321
834.584	0.0158711
834.663	0.0160120
834.741	0.0161605
834.819	0.0162268
834.897	0.0164226
834.975	0.0165523
835.053	0.0168627
835.131	0.0168108
835.209	0.0168797
835.288	0.0169588
835.366	0.0171096
835.444	0.0172995
835.522	0.0171903
835.600	0.0169129
835.678	0.0168944
835.756	0.0166747
835.834	0.0166508
835.913	0.0165758
835.991	0.0163950
836.069	0.0161631
836.147	0.0160549
836.225	0.0159137
836.303	0.0157186
836.381	0.0156979
836.459	0.0155769
836.538	0.0155148
836.616	0.0155068
836.694	0.0154794
836.772	0.0154169
836.850	0.0154149
836.928	0.0154623
837.006	0.0156062
837.084	0.0155779
837.163	0.0156676
837.241	0.0157434
837.319	0.0155393
837.397	0.0158485
837.475	0.0158695
837.553	0.0159958
837.631	0.0160020
837.709	0.0160064
837.788	0.0160159
837.866	0.0160938
837.944	0.0161268
838.022	0.0162435
838.100	0.0162462
838.178	0.0162513
838.256	0.0162853
838.334	0.0162670
838.413	0.0162285
838.491	0.0161811
838.569	0.0161024
838.647	0.0161117
838.725	0.0160841
838.803	0.0158372
838.881	0.0157658
838.959	0.0156989
839.038	0.0156328
839.116	0.0156312
839.194	0.0156312
839.272	0.0155932
839.350	0.0156171
839.428	0.0156709
839.506	0.0155200
839.584	0.0157559
839.663	0.0158698
839.741	0.0158865
839.819	0.0157924
839.897	0.0158015
839.975	0.0159470
840.053	0.0158649
840.131	0.0157726
840.209	0.0157578
840.288	0.0158942
840.366	0.0157530
840.444	0.0157668
840.522	0.0158581
840.600	0.0157024
840.678	0.0158601
840.756	0.0158875
840.834	0.0158422
840.913	0.0160341
840.991	0.0161119
841.069	0.0160973
841.147	0.0161536
841.225	0.0162002
841.303	0.0161086
841.381	0.0161889
841.459	0.0163009
841.538	0.0164178
841.616	0.0162992
841.694	0.0163123
841.772	0.0163551
841.850	0.0162955
841.928	0.0163895
842.006	0.0160674
842.084	0.0160883
842.163	0.0159364
842.241	0.0160469
842.319	0.0160517
842.397	0.0158649
842.475	0.0158218
842.553	0.0158617
842.631	0.0158353
842.709	0.0158643
842.788	0.0158992
842.866	0.0157700
842.944	0.0156813
843.022	0.0156837
843.100	0.0156837
843.178	0.0158943
843.256	0.0156465
843.334	0.0158302
843.413	0.0160106
843.491	0.0157692
843.569	0.0157446
843.647	0.0158319
843.725	0.0160295
843.803	0.0159882
843.881	0.0161369
843.959	0.0162035
844.038	0.0162678
844.116	0.0162792
844.194	0.0163806
844.272	0.0164295
844.350	0.0163885
844.428	0.0164233
844.506	0.0162939
844.584	0.0163461
844.663	0.0163848
844.741	0.0161546
844.819	0.0160358
844.897	0.0159274
844.975	0.0156897
845.053	0.0157184
845.131	0.0155567
845.209	0.0155767
845.288	0.0154029
845.366	0.0154230
845.444	0.0154420
845.522	0.0153393
845.600	0.0153973
845.678	0.0153265
845.756	0.0154013
845.834	0.0154765
845.913	0.0155926
845.991	0.0154642
846.069	0.0155573
846.147	0.0156319
846.225	0.0157275
846.303	0.0156455
846.381	0.0158820
846.459	0.0158594
846.538	0.0157407
846.616	0.0160329
846.694	0.0160243
846.772	0.0159866
846.850	0.0160329
846.928	0.0160938
847.006	0.0160675
847.084	0.0161521
847.163	0.0163219
847.241	0.0161485
847.319	0.0161569
847.397	0.0160001
847.475	0.0160773
847.553	0.0160242
847.631	0.0159168
847.709	0.0158379
847.788	0.0158543
847.866	0.0158055
847.944	0.0157327
848.022	0.0157314
848.100	0.0156348
848.178	0.0156156
848.256	0.0156011
848.334	0.0156020
848.413	0.0156818
848.491	0.0158913
848.569	0.0157819
848.647	0.0157244
848.725	0.0160366
848.803	0.0160942
848.881	0.0162629
848.959	0.0162092
849.038	0.0162117
849.116	0.0163890
849.194	0.0163300
849.272	0.0163308
849.350	0.0162473
849.428	0.0163214
849.506	0.0162123
849.584	0.0161490
849.663	0.0162428
849.741	0.0161332
849.819	0.0160415
849.897	0.0160046
849.975	0.0160506
850.053	0.0161388
850.131	0.0160935
850.209	0.0160056
850.288	0.0160870
850.366	0.0161066
850.444	0.0161750
850.522	0.0161116
850.600	0.0160837
850.678	0.0161975
850.756	0.0161071
850.834	0.0161192
850.913	0.0161448
850.991	0.0161618
851.069	0.0163000
851.147	0.0161697
851.225	0.0162019
851.303	0.0160284
851.381	0.0160873
851.459	0.0161296
851.538	0.0159180
851.616	0.0159104
851.694	0.0159587
851.772	0.0159433
851.850	0.0160269
851.928	0.0158211
852.006	0.0158372
852.084	0.0160766
852.163	0.0159451
852.241	0.0158854
852.319	0.0156645
852.397	0.0160402
852.475	0.0160692
852.553	0.0158728
852.631	0.0159621
852.709	0.0159968
852.788	0.0159333
852.866	0.0160297
852.944	0.0161929
853.022	0.0161179
853.100	0.0162263
853.178	0.0161239
853.256	0.0162785
853.334	0.0161904
853.413	0.0163391
853.491	0.0164059
853.569	0.0163315
853.647	0.0162863
853.725	0.0163988
853.803	0.0162888
853.881	0.0163587
853.959	0.0163585
854.038	0.0161465
854.116	0.0160911
854.194	0.0160999
854.272	0.0158775
854.350	0.0158758
854.428	0.0158338
854.506	0.0156393
854.584	0.0157210
854.663	0.0156932
854.741	0.0155427
854.819	0.0155723
854.897	0.0155591
854.975	0.0156605
855.053	0.0155692
855.131	0.0155041
855.209	0.0155830
855.288	0.0155672
855.366	0.0156122
855.444	0.0155450
855.522	0.0157822
855.600	0.0158522
855.678	0.0155962
855.756	0.0158373
855.834	0.0158862
855.913	0.0158047
855.991	0.0160533
856.069	0.0161052
856.147	0.0160998
856.225	0.0161220
856.303	0.0163922
856.381	0.0162225
856.459	0.0162738
856.538	0.0163240
856.616	0.0160902
856.694	0.0161098
856.772	0.0161097
856.850	0.0160266
856.928	0.0158518
857.006	0.0158667
857.084	0.0160067
857.163	0.0158562
857.241	0.0157623
857.319	0.0157609
857.397	0.0156548
857.475	0.0156694
857.553	0.0157352
857.631	0.0157962
857.709	0.0159333
857.788	0.0158616
857.866	0.0159448
857.944	0.0160202
858.022	0.0160247
858.100	0.0160919
858.178	0.0162204
858.256	0.0163028
858.334	0.0161409
858.413	0.0161678
858.491	0.0162986
858.569	0.0160663
858.647	0.0161446
858.725	0.0159343
858.803	0.0160950
858.881	0.0161652
858.959	0.0161150
859.038	0.0160886
859.116	0.0162233
859.194	0.0161815
859.272	0.0162634
859.350	0.0162413
859.428	0.0163360
859.506	0.0161552
859.584	0.0162287
859.663	0.0164014
859.741	0.0163804
859.819	0.0163841
859.897	0.0163757
859.975	0.0164539
860.053	0.0163400
860.131	0.0163026
860.209	0.0162560
860.288	0.0162223
860.366	0.0160788
860.444	0.0159485
860.522	0.0161078
860.600	0.0160007
860.678	0.0159676
860.756	0.0159205
860.834	0.0158787
860.913	0.0157177
860.991	0.0157445
861.069	0.0156512
861.147	0.0156904
861.225	0.0155523
861.303	0.0156256
861.381	0.0156232
861.459	0.0154721
861.538	0.0154855
861.616	0.0155014
861.694	0.0155042
861.772	0.0156200
861.850	0.0155427
861.928	0.0155005
862.006	0.0155119
862.084	0.0155560
862.163	0.0156763
862.241	0.0156834
862.319	0.0156477
862.397	0.0157587
862.475	0.0157985
862.553	0.0157384
862.631	0.0158855
862.709	0.0159326
862.788	0.0158581
862.866	0.0160442
862.944	0.0159884
863.022	0.0161477
863.100	0.0161593
863.178	0.0160507
863.256	0.0161555
863.334	0.0161195
863.413	0.0158666
863.491	0.0157937
863.569	0.0159316
863.647	0.0159409
863.725	0.0159718
863.803	0.0158707
863.881	0.0158821
863.959	0.0159679
864.038	0.0158743
864.116	0.0159691
864.194	0.0159592
864.272	0.0159011
864.350	0.0159380
864.428	0.0161036
864.506	0.0160817
864.584	0.0160560
864.663	0.0161141
864.741	0.0161698
864.819	0.0161753
864.897	0.0161078
864.975	0.0162461
865.053	0.0162795
865.131	0.0162553
865.209	0.0163097
865.288	0.0164093
865.366	0.0163453
865.444	0.0162949
865.522	0.0163335
865.600	0.0164019
865.678	0.0163880
865.756	0.0163917
865.834	0.0162022
865.913	0.0161884
865.991	0.0163168
866.069	0.0161195
866.147	0.0159811
866.225	0.0158309
866.303	0.0157970
866.381	0.0157758
866.459	0.0157026
866.538	0.0155547
866.616	0.0158279
866.694	0.0158104
866.772	0.0157266
866.850	0.0157232
866.928	0.0157564
867.006	0.0157837
867.084	0.0160229
867.163	0.0159989
867.241	0.0160387
867.319	0.0159817
867.397	0.0159749
867.475	0.0160242
867.553	0.0159099
867.631	0.0161916
867.709	0.0160918
867.788	0.0159667
867.866	0.0158684
867.944	0.0159464
868.022	0.0158746
868.100	0.0158301
868.178	0.0158248
868.256	0.0158497
868.334	0.0159794
868.413	0.0159116
868.491	0.0159159
868.569	0.0159459
868.647	0.0160722
868.725	0.0160317
868.803	0.0160748
868.881	0.0160828
868.959	0.0159826
869.038	0.0160742
869.116	0.0159254
869.194	0.0160888
869.272	0.0160889
869.350	0.0160261
869.428	0.0158794
869.506	0.0157394
869.584	0.0157835
869.663	0.0157685
869.741	0.0158113
869.819	0.0158804
869.897	0.0158575
869.975	0.0157995
870.053	0.0157925
870.131	0.0157781
870.209	0.0157996
870.288	0.0159356
870.366	0.0159584
870.444	0.0158540
870.522	0.0161864
870.600	0.0159837
870.678	0.0159871
870.756	0.0161163
870.834	0.0160870
870.913	0.0161747
870.991	0.0161643
871.069	0.0161150
871.147	0.0159978
871.225	0.0160777
871.303	0.0161034
871.381	0.0160290
871.459	0.0162295
871.538	0.0160810
871.616	0.0162162
871.694	0.0160976
871.772	0.0162598
871.850	0.0161738
871.928	0.0160908
872.006	0.0162954
872.084	0.0160678
872.163	0.0161058
872.241	0.0160775
872.319	0.0160199
872.397	0.0159834
872.475	0.0159238
872.553	0.0158479
872.631	0.0159557
872.709	0.0159646
872.788	0.0158006
872.866	0.0157178
872.944	0.0156938
873.022	0.0157738
873.100	0.0158267
873.178	0.0157069
873.256	0.0157765
873.334	0.0158434
873.413	0.0158244
873.491	0.0160346
873.569	0.0158998
873.647	0.0158819
873.725	0.0161276
873.803	0.0160222
873.881	0.0161884
873.959	0.0162234
874.038	0.0160817
874.116	0.0161158
874.194	0.0161253
874.272	0.0161298
874.350	0.0162150
874.428	0.0162593
874.506	0.0162077
874.584	0.0163161
874.663	0.0161327
874.741	0.0162096
874.819	0.0161544
874.897	0.0161386
874.975	0.0163213
875.053	0.0160864
875.131	0.0162174
875.209	0.0161565
875.288	0.0161759
875.366	0.0162048
875.444	0.0162037
875.522	0.0160857
875.600	0.0161726
875.678	0.0161610
875.756	0.0161991
875.834	0.0160658
875.913	0.0160896
875.991	0.0161301
876.069	0.0163143
876.147	0.0161275
876.225	0.0161522
876.303	0.0162907
876.381	0.0161076
876.459	0.0161338
876.538	0.0160030
876.616	0.0160933
876.694	0.0159541
876.772	0.0159845
876.850	0.0159973
876.928	0.0158832
877.006	0.0158174
877.084	0.0157257
877.163	0.0158530
877.241	0.0157113
877.319	0.0158032
877.397	0.0158367
877.475	0.0157474
877.553	0.0157257
877.631	0.0158590
877.709	0.0159456
877.788	0.0159872
877.866	0.0159779
877.944	0.0161063
878.022	0.0160326
878.100	0.0160023
878.178	0.0161156
878.256	0.0159571
878.334	0.0160969
878.413	0.0161740
878.491	0.0160529
878.569	0.0159585
878.647	0.0159982
878.725	0.0159305
878.803	0.0159363
878.881	0.0159180
878.959	0.0158381
879.038	0.0157787
879.116	0.0157805
879.194	0.0157974
879.272	0.0155952
879.350	0.0156377
879.428	0.0155482
879.506	0.0157351
879.584	0.0156980
879.663	0.0156864
879.741	0.0157271
879.819	0.0156893
879.897	0.0156486
879.975	0.0158379
880.053	0.0157655
880.131	0.0158295
880.209	0.0157987
880.288	0.0160130
880.366	0.0159819
880.444	0.0159068
880.522	0.0160184
880.600	0.0159291
880.678	0.0158921
880.756	0.0160425
880.834	0.0162840
880.913	0.0161779
880.991	0.0163615
881.069	0.0163565
881.147	0.0162218
881.225	0.0165279
881.303	0.0163169
881.381	0.0163531
881.459	0.0164893
881.538	0.0164433
881.616	0.0163268
881.694	0.0162888
881.772	0.0161558
881.850	0.0160764
881.928	0.0160783
882.006	0.0159245
882.084	0.0159687
882.163	0.0156976
882.241	0.0158125
882.319	0.0155859
882.397	0.0155801
882.475	0.0155682
882.553	0.0155972
882.631	0.0155742
882.709	0.0156980
882.788	0.0156346
882.866	0.0159046
882.944	0.0158863
883.022	0.0159261
883.100	0.0159733
883.178	0.0161517
883.256	0.0161874
883.334	0.0163609
883.413	0.0162902
883.491	0.0164635
883.569	0.0164890
883.647	0.0165396
883.725	0.0164706
883.803	0.0165369
883.881	0.0164373
883.959	0.0162764
884.038	0.0163974
884.116	0.0163116
884.194	0.0160990
884.272	0.0159883
884.350	0.0158806
884.428	0.0160011
884.506	0.0157111
884.584	0.0156551
884.663	0.0155495
884.741	0.0155954
884.819	0.0155083
884.897	0.0155006
884.975	0.0155424
885.053	0.0156350
885.131	0.0155956
885.209	0.0156440
885.288	0.0157484
885.366	0.0155344
885.444	0.0156964
885.522	0.0158404
885.600	0.0157809
885.678	0.0158993
885.756	0.0159977
885.834	0.0159167
885.913	0.0159160
885.991	0.0158356
886.069	0.0159267
886.147	0.0158843
886.225	0.0159878
886.303	0.0158939
886.381	0.0158202
886.459	0.0158189
886.538	0.0158115
886.616	0.0157452
886.694	0.0157208
886.772	0.0158514
886.850	0.0159302
886.928	0.0158468
887.006	0.0160147
887.084	0.0160096
887.163	0.0160633
887.241	0.0161728
887.319	0.0161720
887.397	0.0161808
887.475	0.0162203
887.553	0.0162583
887.631	0.0161379
887.709	0.0161790
887.788	0.0163210
887.866	0.0160299
887.944	0.0159517
888.022	0.0159470
888.100	0.0158378
888.178	0.0159352
888.256	0.0159844
888.334	0.0158577
888.413	0.0158476
888.491	0.0157689
888.569	0.0157151
888.647	0.0155812
888.725	0.0156294
888.803	0.0156966
888.881	0.0158194
888.959	0.0155454
889.038	0.0154900
889.116	0.0155884
889.194	0.0156385
889.272	0.0155830
889.350	0.0156682
889.428	0.0156796
889.506	0.0157542
889.584	0.0157323
889.663	0.0157389
889.741	0.0160625
889.819	0.0160203
889.897	0.0161883
889.975	0.0160679
890.053	0.0161618
890.131	0.0162889
890.209	0.0163268
890.288	0.0163391
890.366	0.0162881
890.444	0.0164379
890.522	0.0164063
890.600	0.0163556
890.678	0.0162521
890.756	0.0163640
890.834	0.0164483
890.913	0.0161550
890.991	0.0160838
891.069	0.0161658
891.147	0.0160896
891.225	0.0160275
891.303	0.0158047
891.381	0.0158590
891.459	0.0158123
891.538	0.0157527
891.616	0.0158009
891.694	0.0156651
891.772	0.0156957
891.850	0.0156335
891.928	0.0157759
892.006	0.0157134
892.084	0.0156603
892.163	0.0159026
892.241	0.0159249
892.319	0.0157991
892.397	0.0157896
892.475	0.0158694
892.553	0.0157819
892.631	0.0160011
892.709	0.0159741
892.788	0.0159363
892.866	0.0160625
892.944	0.0161210
893.022	0.0161921
893.100	0.0160047
893.178	0.0162151
893.256	0.0161290
893.334	0.0160830
893.413	0.0160327
893.491	0.0161012
893.569	0.0160004
893.647	0.0160616
893.725	0.0162189
893.803	0.0160552
893.881	0.0161449
893.959	0.0161044
894.038	0.0160680
894.116	0.0160182
894.194	0.0161128
894.272	0.0161124
894.350	0.0159972
894.428	0.0159977
894.506	0.0162122
894.584	0.0160999
894.663	0.0159838
894.741	0.0159516
894.819	0.0160039
894.897	0.0160036
894.975	0.0159864
895.053	0.0159943
895.131	0.0159579
895.209	0.0159069
895.288	0.0159900
895.366	0.0159417
895.444	0.0158591
895.522	0.0158500
895.600	0.0158115
895.678	0.0159056
895.756	0.0158997
895.834	0.0159879
895.913	0.0159441
895.991	0.0161174
896.069	0.0161868
896.147	0.0160415
896.225	0.0161503
896.303	0.0162619
896.381	0.0161887
896.459	0.0163169
896.538	0.0163489
896.616	0.0163325
896.694	0.0162663
896.772	0.0163005
896.850	0.0164024
896.928	0.0162501
897.006	0.0162633
897.084	0.0162273
897.163	0.0162676
897.241	0.0161701
897.319	0.0160888
897.397	0.0162534
897.475	0.0161333
897.553	0.0161671
897.631	0.0162408
897.709	0.0162476
897.788	0.0161562
897.866	0.0161496
897.944	0.0160518
898.022	0.0161249
898.100	0.0161160
898.178	0.0162231
898.256	0.0161482
898.334	0.0159097
898.413	0.0160592
898.491	0.0159696
898.569	0.0160395
898.647	0.0160185
898.725	0.0159518
898.803	0.0161398
898.881	0.0161460
898.959	0.0161897
899.038	0.0162145
899.116	0.0163220
899.194	0.0162955
899.272	0.0163238
899.350	0.0164585
899.428	0.0164858
899.506	0.0164536
899.584	0.0164693
899.663	0.0164347
899.741	0.0164378
899.819	0.0164072
899.897	0.0163085
899.975	0.0162859
900.053	0.0161166
900.131	0.0159605
900.209	0.0160008
900.288	0.0159434
900.366	0.0157300
900.444	0.0157432
900.522	0.0155635
900.600	0.0156156
900.678	0.0155276
900.756	0.0155735
900.834	0.0154741
900.913	0.0154752
900.991	0.0154413
901.069	0.0153879
901.147	0.0155737
901.225	0.0156331
901.303	0.0155491
901.381	0.0157057
901.459	0.0157594
901.538	0.0158216
901.616	0.0159933
901.694	0.0159966
901.772	0.0161221
901.850	0.0162312
901.928	0.0162376
902.006	0.0163314
902.084	0.0162669
902.163	0.0163559
902.241	0.0163523
902.319	0.0164455
902.397	0.0163692
902.475	0.0161990
902.553	0.0163422
902.631	0.0163402
902.709	0.0161673
902.788	0.0161504
902.866	0.0160147
902.944	0.0159052
903.022	0.0158834
903.100	0.0159634
903.178	0.0158424
903.256	0.0158306
903.334	0.0158212
903.413	0.0158167
903.491	0.0158488
903.569	0.0156203
903.647	0.0156570
903.725	0.0159253
903.803	0.0158894
903.881	0.0158867
903.959	0.0159190
904.038	0.0158903
904.116	0.0159554
904.194	0.0159132
904.272	0.0159048
904.350	0.0158718
904.428	0.0159026
904.506	0.0157699
904.584	0.0157800
904.663	0.0159322
904.741	0.0159294
904.819	0.0157222
904.897	0.0157545
904.975	0.0157977
905.053	0.0158334
905.131	0.0157535
905.209	0.0160255
905.288	0.0158138
905.366	0.0159776
905.444	0.0159407
905.522	0.0160031
905.600	0.0159785
905.678	0.0158016
905.756	0.0159851
905.834	0.0159760
905.913	0.0159219
905.991	0.0159795
906.069	0.0161575
906.147	0.0161111
906.225	0.0160250
906.303	0.0160345
906.381	0.0159994
906.459	0.0159581
906.538	0.0159415
906.616	0.0160097
906.694	0.0158875
906.772	0.0158815
906.850	0.0158717
906.928	0.0158557
907.006	0.0158688
907.084	0.0158290
907.163	0.0159151
907.241	0.0158409
907.319	0.0159259
907.397	0.0158872
907.475	0.0159981
907.553	0.0158749
907.631	0.0158588
907.709	0.0159932
907.788	0.0160532
907.866	0.0159311
907.944	0.0159732
908.022	0.0160040
908.100	0.0159834
908.178	0.0160086
908.256	0.0159300
908.334	0.0158450
908.413	0.0160245
908.491	0.0161372
908.569	0.0159506
908.647	0.0160631
908.725	0.0159528
908.803	0.0159764
908.881	0.0160739
908.959	0.0160124
909.038	0.0159975
909.116	0.0160551
909.194	0.0159328
909.272	0.0159979
909.350	0.0158598
909.428	0.0159158
909.506	0.0157729
909.584	0.0156905
909.663	0.0157041
909.741	0.0157235
909.819	0.0157012
909.897	0.0156921
909.975	0.0158691
910.053	0.0155646
910.131	0.0154904
910.209	0.0157462
910.288	0.0157002
910.366	0.0156314
910.444	0.0156236
910.522	0.0158085
910.600	0.0157047
910.678	0.0157891
910.756	0.0159122
910.834	0.0158694
910.913	0.0158938
910.991	0.0158356
911.069	0.0159464
911.147	0.0162131
911.225	0.0161423
911.303	0.0160158
911.381	0.0162024
911.459	0.0162318
911.538	0.0160869
911.616	0.0160827
911.694	0.0161355
911.772	0.0161797
911.850	0.0160310
911.928	0.0159554
912.006	0.0159706
912.084	0.0159009
912.163	0.0158460
912.241	0.0158517
912.319	0.0158641
912.397	0.0158115
912.475	0.0158372
912.553	0.0158421
912.631	0.0157924
912.709	0.0157139
912.788	0.0158531
912.866	0.0158634
912.944	0.0158833
913.022	0.0157684
913.100	0.0159872
913.178	0.0158576
913.256	0.0158347
913.334	0.0158665
913.413	0.0158269
913.491	0.0160138
913.569	0.0158027
913.647	0.0158809
913.725	0.0161012
913.803	0.0159264
913.881	0.0159762
913.959	0.0161720
914.038	0.0160498
914.116	0.0159905
914.194	0.0160054
914.272	0.0159058
914.350	0.0159917
914.428	0.0160860
914.506	0.0161066
914.584	0.0160695
914.663	0.0158968
914.741	0.0159250
914.819	0.0160365
914.897	0.0160349
914.975	0.0159897
915.053	0.0159882
915.131	0.0160896
915.209	0.0161073
915.288	0.0159907
915.366	0.0159601
915.444	0.0159665
915.522	0.0160595
915.600	0.0163080
915.678	0.0160917
915.756	0.0160394
915.834	0.0158160
915.913	0.0160755
915.991	0.0160295
916.069	0.0159888
916.147	0.0159156
916.225	0.0159143
916.303	0.0159341
916.381	0.0158976
916.459	0.0159757
916.538	0.0160037
916.616	0.0159499
916.694	0.0159264
916.772	0.0159338
916.850	0.0160942
916.928	0.0159991
917.006	0.0160635
917.084	0.0160637
917.163	0.0160076
917.241	0.0160925
917.319	0.0161263
917.397	0.0160832
917.475	0.0161089
917.553	0.0160963
917.631	0.0159868
917.709	0.0160561
917.788	0.0160094
917.866	0.0159657
917.944	0.0160677
918.022	0.0159778
918.100	0.0159160
918.178	0.0158833
918.256	0.0160464
918.334	0.0159924
918.413	0.0160764
918.491	0.0160213
918.569	0.0159436
918.647	0.0159090
918.725	0.0158661
918.803	0.0159652
918.881	0.0160048
918.959	0.0159723
919.038	0.0159344
919.116	0.0158660
919.194	0.0158978
919.272	0.0158144
919.350	0.0159486
919.428	0.0158666
919.506	0.0160438
919.584	0.0159239
919.663	0.0159640
919.741	0.0159239
919.819	0.0159667
919.897	0.0161299
