05/20/2022	21:01:38	Ver.	4.1	UNKNOWN
Optical Delay	599.975067	Delta X		0.078125	Sweeps	1	Scan Rate	0/0
Coordinates	Axis 1	NaN	Axis 2	NaN	Axis 3	NaN	Axis 4	NaN	Axis 5	NaN	Axis 6	0.000000
TX Power	0.000000	RX Power	0.000000

599.975	0.0156384
600.053	0.0156497
600.131	0.0157327
600.209	0.0156383
600.288	0.0156876
600.366	0.0157207
600.444	0.0155650
600.522	0.0157950
600.600	0.0157453
600.678	0.0155949
600.756	0.0156556
600.834	0.0156852
600.913	0.0157040
600.991	0.0156776
601.069	0.0157820
601.147	0.0156787
601.225	0.0156365
601.303	0.0156532
601.381	0.0156610
601.459	0.0155612
601.538	0.0155475
601.616	0.0157719
601.694	0.0157003
601.772	0.0157384
601.850	0.0157177
601.928	0.0156126
602.006	0.0157260
602.084	0.0156892
602.163	0.0158408
602.241	0.0156315
602.319	0.0156715
602.397	0.0157787
602.475	0.0156603
602.553	0.0157814
602.631	0.0157407
602.709	0.0158784
602.788	0.0157967
602.866	0.0158499
602.944	0.0158667
603.022	0.0158218
603.100	0.0159797
603.178	0.0158331
603.256	0.0159440
603.334	0.0158237
603.413	0.0157625
603.491	0.0160923
603.569	0.0158529
603.647	0.0158873
603.725	0.0158901
603.803	0.0158360
603.881	0.0159553
603.959	0.0160739
604.038	0.0157523
604.116	0.0159624
604.194	0.0159441
604.272	0.0159234
604.350	0.0158156
604.428	0.0157767
604.506	0.0158942
604.584	0.0159892
604.663	0.0160391
604.741	0.0159361
604.819	0.0158951
604.897	0.0160372
604.975	0.0159022
605.053	0.0158526
605.131	0.0158921
605.209	0.0159605
605.288	0.0159209
605.366	0.0159393
605.444	0.0160651
605.522	0.0159148
605.600	0.0158696
605.678	0.0159789
605.756	0.0160015
605.834	0.0159252
605.913	0.0160701
605.991	0.0159243
606.069	0.0160050
606.147	0.0160772
606.225	0.0160652
606.303	0.0158627
606.381	0.0160692
606.459	0.0159499
606.538	0.0158899
606.616	0.0160244
606.694	0.0159876
606.772	0.0159120
606.850	0.0159831
606.928	0.0160973
607.006	0.0159210
607.084	0.0160796
607.163	0.0160125
607.241	0.0159046
607.319	0.0158989
607.397	0.0159925
607.475	0.0158037
607.553	0.0159483
607.631	0.0159541
607.709	0.0160543
607.788	0.0158784
607.866	0.0159008
607.944	0.0158219
608.022	0.0159727
608.100	0.0159131
608.178	0.0159344
608.256	0.0159966
608.334	0.0159809
608.413	0.0159182
608.491	0.0160217
608.569	0.0159724
608.647	0.0160274
608.725	0.0160155
608.803	0.0158645
608.881	0.0158164
608.959	0.0159482
609.038	0.0160152
609.116	0.0159970
609.194	0.0159282
609.272	0.0159480
609.350	0.0159171
609.428	0.0160868
609.506	0.0160027
609.584	0.0160345
609.663	0.0159200
609.741	0.0160300
609.819	0.0159068
609.897	0.0158780
609.975	0.0158722
610.053	0.0158470
610.131	0.0160347
610.209	0.0159196
610.288	0.0160015
610.366	0.0158997
610.444	0.0159356
610.522	0.0158435
610.600	0.0159264
610.678	0.0159144
610.756	0.0159010
610.834	0.0158818
610.913	0.0159658
610.991	0.0158672
611.069	0.0158377
611.147	0.0158847
611.225	0.0158202
611.303	0.0157562
611.381	0.0158719
611.459	0.0159349
611.538	0.0159104
611.616	0.0157996
611.694	0.0158249
611.772	0.0158709
611.850	0.0159000
611.928	0.0159985
612.006	0.0159083
612.084	0.0159184
612.163	0.0159566
612.241	0.0159221
612.319	0.0158865
612.397	0.0158770
612.475	0.0159392
612.553	0.0159808
612.631	0.0159891
612.709	0.0159631
612.788	0.0159422
612.866	0.0159902
612.944	0.0159313
613.022	0.0157065
613.100	0.0157918
613.178	0.0159092
613.256	0.0158749
613.334	0.0157725
613.413	0.0157935
613.491	0.0159608
613.569	0.0158590
613.647	0.0159114
613.725	0.0160567
613.803	0.0159592
613.881	0.0158367
613.959	0.0158158
614.038	0.0159513
614.116	0.0159007
614.194	0.0157931
614.272	0.0158582
614.350	0.0157565
614.428	0.0158546
614.506	0.0158035
614.584	0.0157511
614.663	0.0159214
614.741	0.0157742
614.819	0.0158141
614.897	0.0158982
614.975	0.0157885
615.053	0.0158481
615.131	0.0157220
615.209	0.0157594
615.288	0.0158707
615.366	0.0156461
615.444	0.0156724
615.522	0.0156910
615.600	0.0157341
615.678	0.0156949
615.756	0.0156136
615.834	0.0156821
615.913	0.0156850
615.991	0.0156625
616.069	0.0156496
616.147	0.0156265
616.225	0.0157075
616.303	0.0158118
616.381	0.0155110
616.459	0.0156755
616.538	0.0156525
616.616	0.0157951
616.694	0.0157477
616.772	0.0155219
616.850	0.0157153
616.928	0.0155257
617.006	0.0155530
617.084	0.0155534
617.163	0.0156240
617.241	0.0157006
617.319	0.0157532
617.397	0.0155622
617.475	0.0155868
617.553	0.0155953
617.631	0.0155884
617.709	0.0155761
617.788	0.0155615
617.866	0.0155962
617.944	0.0155639
618.022	0.0156133
618.100	0.0157211
618.178	0.0156161
618.256	0.0155758
618.334	0.0154976
618.413	0.0156267
618.491	0.0157264
618.569	0.0155906
618.647	0.0156503
618.725	0.0154948
618.803	0.0155265
618.881	0.0156947
618.959	0.0156915
619.038	0.0155827
619.116	0.0156357
619.194	0.0154777
619.272	0.0155773
619.350	0.0156503
619.428	0.0156451
619.506	0.0155753
619.584	0.0155353
619.663	0.0155618
619.741	0.0155843
619.819	0.0157001
619.897	0.0155608
619.975	0.0156882
620.053	0.0154805
620.131	0.0156004
620.209	0.0157188
620.288	0.0157249
620.366	0.0154092
620.444	0.0157028
620.522	0.0156428
620.600	0.0157080
620.678	0.0157552
620.756	0.0156907
620.834	0.0155401
620.913	0.0157198
620.991	0.0156709
621.069	0.0155773
621.147	0.0156461
621.225	0.0156525
621.303	0.0156487
621.381	0.0157296
621.459	0.0156044
621.538	0.0155661
621.616	0.0157005
621.694	0.0157220
621.772	0.0156202
621.850	0.0156384
621.928	0.0157246
622.006	0.0156040
622.084	0.0156974
622.163	0.0156741
622.241	0.0156076
622.319	0.0155414
622.397	0.0156631
622.475	0.0156380
622.553	0.0156081
622.631	0.0156417
622.709	0.0155663
622.788	0.0156981
622.866	0.0156247
622.944	0.0157004
623.022	0.0157113
623.100	0.0156598
623.178	0.0156963
623.256	0.0157301
623.334	0.0156832
623.413	0.0157038
623.491	0.0157339
623.569	0.0156927
623.647	0.0157292
623.725	0.0155799
623.803	0.0157896
623.881	0.0157226
623.959	0.0157416
624.038	0.0157494
624.116	0.0157672
624.194	0.0158237
624.272	0.0157752
624.350	0.0157563
624.428	0.0156857
624.506	0.0157614
624.584	0.0158295
624.663	0.0158219
624.741	0.0157397
624.819	0.0157333
624.897	0.0156987
624.975	0.0158540
625.053	0.0157429
625.131	0.0157186
625.209	0.0158157
625.288	0.0158510
625.366	0.0157850
625.444	0.0157729
625.522	0.0157645
625.600	0.0158085
625.678	0.0158516
625.756	0.0159514
625.834	0.0157541
625.913	0.0158270
625.991	0.0157748
626.069	0.0158036
626.147	0.0159067
626.225	0.0158858
626.303	0.0158703
626.381	0.0159026
626.459	0.0157850
626.538	0.0158867
626.616	0.0159484
626.694	0.0158728
626.772	0.0158668
626.850	0.0158508
626.928	0.0158638
627.006	0.0159412
627.084	0.0159267
627.163	0.0159306
627.241	0.0157506
627.319	0.0157070
627.397	0.0158086
627.475	0.0159405
627.553	0.0158960
627.631	0.0158141
627.709	0.0159647
627.788	0.0159499
627.866	0.0158054
627.944	0.0158920
628.022	0.0159896
628.100	0.0158694
628.178	0.0158772
628.256	0.0158034
628.334	0.0159339
628.413	0.0157977
628.491	0.0159695
628.569	0.0159113
628.647	0.0158873
628.725	0.0158820
628.803	0.0158604
628.881	0.0159292
628.959	0.0159018
629.038	0.0159302
629.116	0.0158486
629.194	0.0159203
629.272	0.0159656
629.350	0.0159861
629.428	0.0159500
629.506	0.0159080
629.584	0.0160426
629.663	0.0158002
629.741	0.0160252
629.819	0.0159426
629.897	0.0158730
629.975	0.0158647
630.053	0.0159232
630.131	0.0158820
630.209	0.0160058
630.288	0.0159721
630.366	0.0158036
630.444	0.0159457
630.522	0.0159694
630.600	0.0158985
630.678	0.0158185
630.756	0.0158764
630.834	0.0160324
630.913	0.0158525
630.991	0.0158034
631.069	0.0158569
631.147	0.0157874
631.225	0.0157270
631.303	0.0159281
631.381	0.0157428
631.459	0.0157579
631.538	0.0159049
631.616	0.0158455
631.694	0.0158723
631.772	0.0159638
631.850	0.0158160
631.928	0.0157648
632.006	0.0156691
632.084	0.0158513
632.163	0.0158784
632.241	0.0157027
632.319	0.0157777
632.397	0.0157930
632.475	0.0159007
632.553	0.0157691
632.631	0.0157540
632.709	0.0158720
632.788	0.0157635
632.866	0.0157510
632.944	0.0158768
633.022	0.0157992
633.100	0.0158775
633.178	0.0158760
633.256	0.0157596
633.334	0.0159608
633.413	0.0158358
633.491	0.0158432
633.569	0.0157811
633.647	0.0158160
633.725	0.0159529
633.803	0.0159335
633.881	0.0157407
633.959	0.0158028
634.038	0.0157159
634.116	0.0158733
634.194	0.0158979
634.272	0.0158909
634.350	0.0159055
634.428	0.0158820
634.506	0.0158170
634.584	0.0157714
634.663	0.0159615
634.741	0.0157754
634.819	0.0157709
634.897	0.0159124
634.975	0.0158310
635.053	0.0158767
635.131	0.0158910
635.209	0.0158366
635.288	0.0158774
635.366	0.0158362
635.444	0.0158987
635.522	0.0158508
635.600	0.0157905
635.678	0.0158872
635.756	0.0159339
635.834	0.0158176
635.913	0.0157655
635.991	0.0158672
636.069	0.0159664
636.147	0.0159297
636.225	0.0158826
636.303	0.0159028
636.381	0.0158488
636.459	0.0158738
636.538	0.0158324
636.616	0.0158892
636.694	0.0157883
636.772	0.0158315
636.850	0.0158274
636.928	0.0158163
637.006	0.0158782
637.084	0.0159729
637.163	0.0159034
637.241	0.0159235
637.319	0.0158710
637.397	0.0158445
637.475	0.0158936
637.553	0.0159117
637.631	0.0158263
637.709	0.0157791
637.788	0.0159319
637.866	0.0157552
637.944	0.0157809
638.022	0.0157164
638.100	0.0159647
638.178	0.0159069
638.256	0.0157190
638.334	0.0157488
638.413	0.0157650
638.491	0.0159048
638.569	0.0159150
638.647	0.0158722
638.725	0.0157700
638.803	0.0158302
638.881	0.0157877
638.959	0.0158037
639.038	0.0157996
639.116	0.0157770
639.194	0.0157233
639.272	0.0157880
639.350	0.0157636
639.428	0.0158520
639.506	0.0157706
639.584	0.0157667
639.663	0.0157783
639.741	0.0158566
639.819	0.0158627
639.897	0.0157771
639.975	0.0158073
640.053	0.0157121
640.131	0.0158047
640.209	0.0157979
640.288	0.0158616
640.366	0.0158035
640.444	0.0158261
640.522	0.0158572
640.600	0.0156566
640.678	0.0157494
640.756	0.0159340
640.834	0.0157861
640.913	0.0158298
640.991	0.0157314
641.069	0.0157964
641.147	0.0157967
641.225	0.0157971
641.303	0.0157333
641.381	0.0156930
641.459	0.0156948
641.538	0.0156863
641.616	0.0158158
641.694	0.0157999
641.772	0.0157679
641.850	0.0157362
641.928	0.0157085
642.006	0.0158482
642.084	0.0158391
642.163	0.0158843
642.241	0.0157324
642.319	0.0157531
642.397	0.0158170
642.475	0.0157285
642.553	0.0156712
642.631	0.0157412
642.709	0.0158010
642.788	0.0157831
642.866	0.0156107
642.944	0.0156563
643.022	0.0157320
643.100	0.0156844
643.178	0.0157649
643.256	0.0158140
643.334	0.0157178
643.413	0.0156820
643.491	0.0157953
643.569	0.0156935
643.647	0.0158149
643.725	0.0157029
643.803	0.0158134
643.881	0.0157029
643.959	0.0156141
644.038	0.0157461
644.116	0.0157420
644.194	0.0157150
644.272	0.0157751
644.350	0.0157614
644.428	0.0158073
644.506	0.0158188
644.584	0.0156799
644.663	0.0157661
644.741	0.0157836
644.819	0.0157664
644.897	0.0158403
644.975	0.0157618
645.053	0.0158119
645.131	0.0156377
645.209	0.0157543
645.288	0.0157006
645.366	0.0157205
645.444	0.0157391
645.522	0.0157024
645.600	0.0158526
645.678	0.0158485
645.756	0.0158074
645.834	0.0157484
645.913	0.0156744
645.991	0.0157081
646.069	0.0156963
646.147	0.0157153
646.225	0.0158660
646.303	0.0156874
646.381	0.0156252
646.459	0.0157266
646.538	0.0157893
646.616	0.0158978
646.694	0.0158314
646.772	0.0157336
646.850	0.0157713
646.928	0.0157761
647.006	0.0157077
647.084	0.0157278
647.163	0.0156773
647.241	0.0157089
647.319	0.0157433
647.397	0.0157240
647.475	0.0157137
647.553	0.0156753
647.631	0.0157815
647.709	0.0158160
647.788	0.0157349
647.866	0.0156964
647.944	0.0158543
648.022	0.0158364
648.100	0.0157871
648.178	0.0157207
648.256	0.0157371
648.334	0.0157602
648.413	0.0158640
648.491	0.0158379
648.569	0.0158447
648.647	0.0158119
648.725	0.0159834
648.803	0.0157137
648.881	0.0157149
648.959	0.0158600
649.038	0.0158459
649.116	0.0156888
649.194	0.0158247
649.272	0.0158990
649.350	0.0158099
649.428	0.0157024
649.506	0.0159014
649.584	0.0157478
649.663	0.0157386
649.741	0.0157972
649.819	0.0158607
649.897	0.0157477
649.975	0.0157657
650.053	0.0158202
650.131	0.0156861
650.209	0.0157844
650.288	0.0158415
650.366	0.0158155
650.444	0.0158253
650.522	0.0156767
650.600	0.0157725
650.678	0.0157513
650.756	0.0158234
650.834	0.0158127
650.913	0.0158521
650.991	0.0157204
651.069	0.0158659
651.147	0.0158629
651.225	0.0159500
651.303	0.0158137
651.381	0.0158004
651.459	0.0158830
651.538	0.0158130
651.616	0.0156564
651.694	0.0158464
651.772	0.0157342
651.850	0.0158992
651.928	0.0158118
652.006	0.0159727
652.084	0.0159296
652.163	0.0158151
652.241	0.0158191
652.319	0.0157897
652.397	0.0158132
652.475	0.0158064
652.553	0.0157303
652.631	0.0158616
652.709	0.0157978
652.788	0.0158415
652.866	0.0157092
652.944	0.0157786
653.022	0.0156838
653.100	0.0157937
653.178	0.0157797
653.256	0.0158091
653.334	0.0156905
653.413	0.0158454
653.491	0.0157594
653.569	0.0158006
653.647	0.0156696
653.725	0.0159298
653.803	0.0158585
653.881	0.0158657
653.959	0.0161149
654.038	0.0159842
654.116	0.0159285
654.194	0.0159847
654.272	0.0160664
654.350	0.0159175
654.428	0.0160892
654.506	0.0161846
654.584	0.0160056
654.663	0.0160933
654.741	0.0160510
654.819	0.0161727
654.897	0.0161533
654.975	0.0161134
655.053	0.0160619
655.131	0.0158778
655.209	0.0158305
655.288	0.0158075
655.366	0.0159834
655.444	0.0157808
655.522	0.0157094
655.600	0.0157300
655.678	0.0155901
655.756	0.0157275
655.834	0.0157372
655.913	0.0156248
655.991	0.0155915
656.069	0.0155347
656.147	0.0155676
656.225	0.0155720
656.303	0.0157642
656.381	0.0156354
656.459	0.0156963
656.538	0.0157322
656.616	0.0158182
656.694	0.0158788
656.772	0.0159224
656.850	0.0158591
656.928	0.0160145
657.006	0.0159589
657.084	0.0159771
657.163	0.0159828
657.241	0.0160016
657.319	0.0161102
657.397	0.0160725
657.475	0.0161150
657.553	0.0160060
657.631	0.0160679
657.709	0.0160542
657.788	0.0161010
657.866	0.0160056
657.944	0.0159334
658.022	0.0158682
658.100	0.0159167
658.178	0.0157738
658.256	0.0157919
658.334	0.0157581
658.413	0.0156133
658.491	0.0157908
658.569	0.0157159
658.647	0.0157518
658.725	0.0157487
658.803	0.0157056
658.881	0.0156294
658.959	0.0156580
659.038	0.0156497
659.116	0.0156315
659.194	0.0157634
659.272	0.0157764
659.350	0.0158012
659.428	0.0158403
659.506	0.0158084
659.584	0.0156953
659.663	0.0158511
659.741	0.0158723
659.819	0.0157807
659.897	0.0156130
659.975	0.0157674
660.053	0.0157951
660.131	0.0158313
660.209	0.0159461
660.288	0.0159193
660.366	0.0156886
660.444	0.0158260
660.522	0.0158020
660.600	0.0159305
660.678	0.0160329
660.756	0.0158644
660.834	0.0159630
660.913	0.0160880
660.991	0.0159385
661.069	0.0160134
661.147	0.0159392
661.225	0.0160561
661.303	0.0160642
661.381	0.0160532
661.459	0.0160434
661.538	0.0159840
661.616	0.0162264
661.694	0.0159991
661.772	0.0159290
661.850	0.0159995
661.928	0.0159488
662.006	0.0159296
662.084	0.0159383
662.163	0.0159777
662.241	0.0160422
662.319	0.0159129
662.397	0.0157873
662.475	0.0157301
662.553	0.0157236
662.631	0.0157178
662.709	0.0156149
662.788	0.0155580
662.866	0.0156277
662.944	0.0156124
663.022	0.0154575
663.100	0.0154854
663.178	0.0155317
663.256	0.0153882
663.334	0.0154601
663.413	0.0154375
663.491	0.0153210
663.569	0.0153263
663.647	0.0153697
663.725	0.0154222
663.803	0.0155828
663.881	0.0154305
663.959	0.0155185
664.038	0.0154610
664.116	0.0156779
664.194	0.0157668
664.272	0.0157150
664.350	0.0157596
664.428	0.0157691
664.506	0.0158190
664.584	0.0159405
664.663	0.0159666
664.741	0.0159536
664.819	0.0161357
664.897	0.0162406
664.975	0.0161298
665.053	0.0162843
665.131	0.0162469
665.209	0.0162380
665.288	0.0163039
665.366	0.0163167
665.444	0.0162799
665.522	0.0162131
665.600	0.0160629
665.678	0.0161591
665.756	0.0162382
665.834	0.0160719
665.913	0.0160143
665.991	0.0159902
666.069	0.0158767
666.147	0.0158271
666.225	0.0156031
666.303	0.0157150
666.381	0.0156642
666.459	0.0154497
666.538	0.0153799
666.616	0.0154694
666.694	0.0154390
666.772	0.0153098
666.850	0.0151848
666.928	0.0153613
667.006	0.0154381
667.084	0.0154041
667.163	0.0152925
667.241	0.0153785
667.319	0.0155787
667.397	0.0155792
667.475	0.0155445
667.553	0.0155132
667.631	0.0156143
667.709	0.0157857
667.788	0.0157203
667.866	0.0157362
667.944	0.0158543
668.022	0.0160269
668.100	0.0160040
668.178	0.0159456
668.256	0.0159708
668.334	0.0160346
668.413	0.0161151
668.491	0.0161440
668.569	0.0160685
668.647	0.0161167
668.725	0.0161597
668.803	0.0162518
668.881	0.0162174
668.959	0.0163184
669.038	0.0163799
669.116	0.0163194
669.194	0.0162945
669.272	0.0161716
669.350	0.0163145
669.428	0.0162121
669.506	0.0162418
669.584	0.0161480
669.663	0.0161920
669.741	0.0159604
669.819	0.0159014
669.897	0.0158715
669.975	0.0158849
670.053	0.0157760
670.131	0.0156389
670.209	0.0158256
670.288	0.0154426
670.366	0.0154087
670.444	0.0154128
670.522	0.0153755
670.600	0.0153365
670.678	0.0152297
670.756	0.0151546
670.834	0.0152560
670.913	0.0153239
670.991	0.0152793
671.069	0.0153610
671.147	0.0153988
671.225	0.0152791
671.303	0.0154817
671.381	0.0156188
671.459	0.0156981
671.538	0.0158251
671.616	0.0159838
671.694	0.0160606
671.772	0.0160464
671.850	0.0160828
671.928	0.0161768
672.006	0.0162917
672.084	0.0162946
672.163	0.0162493
672.241	0.0163732
672.319	0.0164750
672.397	0.0163169
672.475	0.0163076
672.553	0.0162569
672.631	0.0161481
672.709	0.0161669
672.788	0.0161414
672.866	0.0161588
672.944	0.0159559
673.022	0.0158320
673.100	0.0159507
673.178	0.0158342
673.256	0.0157681
673.334	0.0157918
673.413	0.0155645
673.491	0.0155279
673.569	0.0154125
673.647	0.0155286
673.725	0.0155372
673.803	0.0156441
673.881	0.0155787
673.959	0.0155960
674.038	0.0156324
674.116	0.0156615
674.194	0.0156981
674.272	0.0157440
674.350	0.0157525
674.428	0.0158211
674.506	0.0158069
674.584	0.0157996
674.663	0.0157796
674.741	0.0159035
674.819	0.0157748
674.897	0.0155631
674.975	0.0156485
675.053	0.0156513
675.131	0.0156555
675.209	0.0157082
675.288	0.0156457
675.366	0.0155785
675.444	0.0157224
675.522	0.0156602
675.600	0.0156924
675.678	0.0157168
675.756	0.0156349
675.834	0.0157500
675.913	0.0158905
675.991	0.0160381
676.069	0.0158533
676.147	0.0158312
676.225	0.0159815
676.303	0.0159943
676.381	0.0160953
676.459	0.0159584
676.538	0.0160329
676.616	0.0160841
676.694	0.0161100
676.772	0.0159863
676.850	0.0160389
676.928	0.0160839
677.006	0.0158543
677.084	0.0159970
677.163	0.0157874
677.241	0.0159683
677.319	0.0156581
677.397	0.0157023
677.475	0.0157978
677.553	0.0155897
677.631	0.0155751
677.709	0.0156941
677.788	0.0156618
677.866	0.0155112
677.944	0.0155248
678.022	0.0155595
678.100	0.0154975
678.178	0.0154713
678.256	0.0154560
678.334	0.0155920
678.413	0.0156880
678.491	0.0157260
678.569	0.0157816
678.647	0.0158929
678.725	0.0158401
678.803	0.0159044
678.881	0.0158266
678.959	0.0158077
679.038	0.0158340
679.116	0.0158482
679.194	0.0160757
679.272	0.0161573
679.350	0.0159695
679.428	0.0159470
679.506	0.0158296
679.584	0.0158097
679.663	0.0158080
679.741	0.0159834
679.819	0.0158694
679.897	0.0159824
679.975	0.0158305
680.053	0.0157698
680.131	0.0158051
680.209	0.0156844
680.288	0.0158007
680.366	0.0159643
680.444	0.0158459
680.522	0.0159816
680.600	0.0160719
680.678	0.0160778
680.756	0.0159841
680.834	0.0159335
680.913	0.0159086
680.991	0.0157821
681.069	0.0157382
681.147	0.0157496
681.225	0.0155824
681.303	0.0154164
681.381	0.0154208
681.459	0.0152637
681.538	0.0153262
681.616	0.0151079
681.694	0.0151170
681.772	0.0152390
681.850	0.0152547
681.928	0.0154769
682.006	0.0155447
682.084	0.0158492
682.163	0.0159427
682.241	0.0161329
682.319	0.0164555
682.397	0.0165401
682.475	0.0167310
682.553	0.0167966
682.631	0.0169936
682.709	0.0170095
682.788	0.0170148
682.866	0.0169279
682.944	0.0166492
683.022	0.0166121
683.100	0.0163564
683.178	0.0160696
683.256	0.0157744
683.334	0.0155105
683.413	0.0153645
683.491	0.0152551
683.569	0.0150588
683.647	0.0150105
683.725	0.0147984
683.803	0.0149574
683.881	0.0149440
683.959	0.0150373
684.038	0.0151672
684.116	0.0151981
684.194	0.0152965
684.272	0.0154651
684.350	0.0155977
684.428	0.0157093
684.506	0.0157809
684.584	0.0159203
684.663	0.0160577
684.741	0.0159977
684.819	0.0161193
684.897	0.0161465
684.975	0.0160352
685.053	0.0161422
685.131	0.0160443
685.209	0.0161649
685.288	0.0162945
685.366	0.0161769
685.444	0.0161792
685.522	0.0161576
685.600	0.0159550
685.678	0.0161115
685.756	0.0161758
685.834	0.0162287
685.913	0.0161147
685.991	0.0161340
686.069	0.0159045
686.147	0.0160396
686.225	0.0161448
686.303	0.0160195
686.381	0.0158125
686.459	0.0159937
686.538	0.0161805
686.616	0.0161831
686.694	0.0162064
686.772	0.0161753
686.850	0.0162912
686.928	0.0164538
687.006	0.0164075
687.084	0.0163511
687.163	0.0163080
687.241	0.0162302
687.319	0.0162725
687.397	0.0160858
687.475	0.0158825
687.553	0.0154290
687.631	0.0153236
687.709	0.0152505
687.788	0.0147659
687.866	0.0145274
687.944	0.0143452
688.022	0.0139104
688.100	0.0137628
688.178	0.0138553
688.256	0.0137976
688.334	0.0139086
688.413	0.0139601
688.491	0.0142548
688.569	0.0145112
688.647	0.0150794
688.725	0.0154302
688.803	0.0158743
688.881	0.0160787
688.959	0.0165302
689.038	0.0167757
689.116	0.0171353
689.194	0.0172953
689.272	0.0174207
689.350	0.0175731
689.428	0.0175571
689.506	0.0177051
689.584	0.0176279
689.663	0.0174673
689.741	0.0175775
689.819	0.0174611
689.897	0.0175806
689.975	0.0175007
690.053	0.0173602
690.131	0.0175710
690.209	0.0176086
690.288	0.0174185
690.366	0.0172541
690.444	0.0171091
690.522	0.0167765
690.600	0.0165221
690.678	0.0160719
690.756	0.0157491
690.834	0.0151051
690.913	0.0145921
690.991	0.0139814
691.069	0.0136558
691.147	0.0131361
691.225	0.0127014
691.303	0.0125408
691.381	0.0123515
691.459	0.0123758
691.538	0.0125177
691.616	0.0125024
691.694	0.0128750
691.772	0.0132603
691.850	0.0135593
691.928	0.0141837
692.006	0.0146436
692.084	0.0150692
692.163	0.0156077
692.241	0.0160442
692.319	0.0164833
692.397	0.0168421
692.475	0.0172850
692.553	0.0175689
692.631	0.0179762
692.709	0.0180891
692.788	0.0182565
692.866	0.0184319
692.944	0.0185934
693.022	0.0186764
693.100	0.0185884
693.178	0.0185939
693.256	0.0186362
693.334	0.0183578
693.413	0.0181854
693.491	0.0178227
693.569	0.0177480
693.647	0.0174008
693.725	0.0168859
693.803	0.0164931
693.881	0.0160846
693.959	0.0157990
694.038	0.0152703
694.116	0.0149730
694.194	0.0146993
694.272	0.0144718
694.350	0.0145014
694.428	0.0143073
694.506	0.0143198
694.584	0.0144272
694.663	0.0145744
694.741	0.0146912
694.819	0.0148515
694.897	0.0149754
694.975	0.0149105
695.053	0.0148376
695.131	0.0148155
695.209	0.0146642
695.288	0.0145688
695.366	0.0142927
695.444	0.0142066
695.522	0.0140252
695.600	0.0139633
695.678	0.0137759
695.756	0.0138727
695.834	0.0139570
695.913	0.0142088
695.991	0.0145744
696.069	0.0147824
696.147	0.0152690
696.225	0.0155876
696.303	0.0160564
696.381	0.0163956
696.459	0.0168867
696.538	0.0172539
696.616	0.0178855
696.694	0.0180807
696.772	0.0183607
696.850	0.0186462
696.928	0.0187559
697.006	0.0190376
697.084	0.0191636
697.163	0.0191388
697.241	0.0190121
697.319	0.0189419
697.397	0.0186777
697.475	0.0183002
697.553	0.0178079
697.631	0.0172959
697.709	0.0167470
697.788	0.0159122
697.866	0.0153712
697.944	0.0148212
698.022	0.0140598
698.100	0.0135888
698.178	0.0132175
698.256	0.0126812
698.334	0.0124893
698.413	0.0122211
698.491	0.0121751
698.569	0.0121094
698.647	0.0120849
698.725	0.0122218
698.803	0.0122922
698.881	0.0124723
698.959	0.0127400
699.038	0.0132111
699.116	0.0135612
699.194	0.0138678
699.272	0.0143181
699.350	0.0147894
699.428	0.0154707
699.506	0.0158737
699.584	0.0163781
699.663	0.0169959
699.741	0.0177547
699.819	0.0181121
699.897	0.0183652
699.975	0.0187103
700.053	0.0189877
700.131	0.0191843
700.209	0.0191553
700.288	0.0189745
700.366	0.0186549
700.444	0.0184728
700.522	0.0184190
700.600	0.0180346
700.678	0.0176791
700.756	0.0174010
700.834	0.0172130
700.913	0.0169951
700.991	0.0167834
701.069	0.0167645
701.147	0.0164061
701.225	0.0163177
701.303	0.0162562
701.381	0.0159765
701.459	0.0158739
701.538	0.0156191
701.616	0.0151933
701.694	0.0150175
701.772	0.0148146
701.850	0.0145351
701.928	0.0141548
702.006	0.0140261
702.084	0.0139512
702.163	0.0137346
702.241	0.0138015
702.319	0.0138215
702.397	0.0138596
702.475	0.0139221
702.553	0.0139753
702.631	0.0138486
702.709	0.0140854
702.788	0.0141521
702.866	0.0139671
702.944	0.0137876
703.022	0.0137399
703.100	0.0137830
703.178	0.0137993
703.256	0.0139517
703.334	0.0139999
703.413	0.0141232
703.491	0.0144193
703.569	0.0147501
703.647	0.0151307
703.725	0.0155245
703.803	0.0159647
703.881	0.0164433
703.959	0.0166151
704.038	0.0170002
704.116	0.0173557
704.194	0.0175516
704.272	0.0175747
704.350	0.0177293
704.428	0.0178639
704.506	0.0177346
704.584	0.0177958
704.663	0.0178358
704.741	0.0177865
704.819	0.0177151
704.897	0.0176730
704.975	0.0176876
705.053	0.0177056
705.131	0.0178175
705.209	0.0178145
705.288	0.0179233
705.366	0.0179475
705.444	0.0178829
705.522	0.0179913
705.600	0.0180559
705.678	0.0179831
705.756	0.0176601
705.834	0.0174487
705.913	0.0171288
705.991	0.0166418
706.069	0.0162951
706.147	0.0158922
706.225	0.0156348
706.303	0.0151816
706.381	0.0146873
706.459	0.0145499
706.538	0.0142889
706.616	0.0141263
706.694	0.0140297
706.772	0.0138882
706.850	0.0138621
706.928	0.0137826
707.006	0.0137370
707.084	0.0138190
707.163	0.0136212
707.241	0.0134689
707.319	0.0133113
707.397	0.0132968
707.475	0.0131372
707.553	0.0130759
707.631	0.0128285
707.709	0.0129378
707.788	0.0128630
707.866	0.0131462
707.944	0.0133956
708.022	0.0134715
708.100	0.0139520
708.178	0.0142733
708.256	0.0146386
708.334	0.0151237
708.413	0.0155457
708.491	0.0158073
708.569	0.0162940
708.647	0.0168057
708.725	0.0170820
708.803	0.0172984
708.881	0.0177717
708.959	0.0181393
709.038	0.0184720
709.116	0.0187830
709.194	0.0190279
709.272	0.0191035
709.350	0.0191039
709.428	0.0190228
709.506	0.0187733
709.584	0.0183957
709.663	0.0180033
709.741	0.0177065
709.819	0.0170163
709.897	0.0164234
709.975	0.0160229
710.053	0.0156027
710.131	0.0154155
710.209	0.0151205
710.288	0.0151271
710.366	0.0153089
710.444	0.0156094
710.522	0.0160223
710.600	0.0162848
710.678	0.0165254
710.756	0.0168575
710.834	0.0172341
710.913	0.0173482
710.991	0.0174197
711.069	0.0172918
711.147	0.0172868
711.225	0.0168556
711.303	0.0167165
711.381	0.0164109
711.459	0.0161321
711.538	0.0156982
711.616	0.0151606
711.694	0.0148765
711.772	0.0147997
711.850	0.0145882
711.928	0.0140685
712.006	0.0140300
712.084	0.0136014
712.163	0.0132941
712.241	0.0130759
712.319	0.0128403
712.397	0.0127170
712.475	0.0127705
712.553	0.0126917
712.631	0.0129450
712.709	0.0135564
712.788	0.0140414
712.866	0.0145478
712.944	0.0151826
713.022	0.0159496
713.100	0.0167192
713.178	0.0172046
713.256	0.0175836
713.334	0.0179119
713.413	0.0181892
713.491	0.0180856
713.569	0.0178622
713.647	0.0176029
713.725	0.0171764
713.803	0.0167474
713.881	0.0161755
713.959	0.0157095
714.038	0.0151363
714.116	0.0147400
714.194	0.0143999
714.272	0.0141521
714.350	0.0139944
714.428	0.0140070
714.506	0.0141663
714.584	0.0142606
714.663	0.0144431
714.741	0.0146861
714.819	0.0150652
714.897	0.0154088
714.975	0.0158519
715.053	0.0160728
715.131	0.0163112
715.209	0.0164705
715.288	0.0167383
715.366	0.0169443
715.444	0.0169628
715.522	0.0170329
715.600	0.0169511
715.678	0.0168041
715.756	0.0169410
715.834	0.0171000
715.913	0.0170637
715.991	0.0169802
716.069	0.0170617
716.147	0.0171374
716.225	0.0171660
716.303	0.0170132
716.381	0.0168234
716.459	0.0168527
716.538	0.0167215
716.616	0.0167420
716.694	0.0165031
716.772	0.0163017
716.850	0.0160688
716.928	0.0160299
717.006	0.0159211
717.084	0.0158408
717.163	0.0157208
717.241	0.0156976
717.319	0.0158522
717.397	0.0158294
717.475	0.0158547
717.553	0.0157467
717.631	0.0157203
717.709	0.0157346
717.788	0.0155383
717.866	0.0155170
717.944	0.0152730
718.022	0.0151109
718.100	0.0147363
718.178	0.0147469
718.256	0.0144218
718.334	0.0142264
718.413	0.0140306
718.491	0.0138632
718.569	0.0136453
718.647	0.0136219
718.725	0.0138297
718.803	0.0138348
718.881	0.0140366
718.959	0.0141135
719.038	0.0142240
719.116	0.0143688
719.194	0.0145789
719.272	0.0147101
719.350	0.0148386
719.428	0.0149428
719.506	0.0150831
719.584	0.0153489
719.663	0.0155237
719.741	0.0156743
719.819	0.0160318
719.897	0.0160191
719.975	0.0163782
720.053	0.0165829
720.131	0.0167216
720.209	0.0169251
720.288	0.0170970
720.366	0.0171012
720.444	0.0170341
720.522	0.0170967
720.600	0.0170699
720.678	0.0169253
720.756	0.0168488
720.834	0.0167819
720.913	0.0167739
720.991	0.0166044
721.069	0.0166187
721.147	0.0164661
721.225	0.0164713
721.303	0.0164279
721.381	0.0163866
721.459	0.0162689
721.538	0.0161829
721.616	0.0161056
721.694	0.0159148
721.772	0.0158774
721.850	0.0158872
721.928	0.0157577
722.006	0.0155523
722.084	0.0155380
722.163	0.0152889
722.241	0.0153177
722.319	0.0154978
722.397	0.0153941
722.475	0.0155280
722.553	0.0155517
722.631	0.0158533
722.709	0.0159917
722.788	0.0160298
722.866	0.0162794
722.944	0.0163435
723.022	0.0166713
723.100	0.0166817
723.178	0.0167336
723.256	0.0166189
723.334	0.0164661
723.413	0.0161771
723.491	0.0160632
723.569	0.0156890
723.647	0.0153092
723.725	0.0151698
723.803	0.0148589
723.881	0.0148780
723.959	0.0146992
724.038	0.0146687
724.116	0.0148062
724.194	0.0149280
724.272	0.0151822
724.350	0.0152954
724.428	0.0157172
724.506	0.0159095
724.584	0.0160561
724.663	0.0162807
724.741	0.0160671
724.819	0.0159827
724.897	0.0158246
724.975	0.0154829
725.053	0.0152943
725.131	0.0149592
725.209	0.0146021
725.288	0.0143439
725.366	0.0142280
725.444	0.0142488
725.522	0.0140294
725.600	0.0141954
725.678	0.0143418
725.756	0.0145504
725.834	0.0145701
725.913	0.0147911
725.991	0.0150451
726.069	0.0152564
726.147	0.0153908
726.225	0.0153781
726.303	0.0152669
726.381	0.0153012
726.459	0.0153722
726.538	0.0151949
726.616	0.0152509
726.694	0.0153101
726.772	0.0154173
726.850	0.0155487
726.928	0.0157435
727.006	0.0161272
727.084	0.0162717
727.163	0.0165331
727.241	0.0167651
727.319	0.0170869
727.397	0.0170882
727.475	0.0172958
727.553	0.0174867
727.631	0.0174734
727.709	0.0173913
727.788	0.0173954
727.866	0.0173024
727.944	0.0173156
728.022	0.0172820
728.100	0.0174881
728.178	0.0175135
728.256	0.0174286
728.334	0.0176686
728.413	0.0176093
728.491	0.0177585
728.569	0.0177135
728.647	0.0176076
728.725	0.0176276
728.803	0.0174521
728.881	0.0172358
728.959	0.0169217
729.038	0.0166576
729.116	0.0163829
729.194	0.0160902
729.272	0.0158529
729.350	0.0155952
729.428	0.0153511
729.506	0.0154051
729.584	0.0150996
729.663	0.0148132
729.741	0.0148232
729.819	0.0147095
729.897	0.0147382
729.975	0.0145396
730.053	0.0145261
730.131	0.0143796
730.209	0.0144705
730.288	0.0143172
730.366	0.0142595
730.444	0.0141100
730.522	0.0140343
730.600	0.0137025
730.678	0.0136325
730.756	0.0135143
730.834	0.0132543
730.913	0.0132705
730.991	0.0133663
731.069	0.0133759
731.147	0.0134605
731.225	0.0136583
731.303	0.0138628
731.381	0.0141803
731.459	0.0145695
731.538	0.0149655
731.616	0.0152217
731.694	0.0156499
731.772	0.0161469
731.850	0.0161476
731.928	0.0161968
732.006	0.0166527
732.084	0.0166560
732.163	0.0165754
732.241	0.0165755
732.319	0.0165646
732.397	0.0167044
732.475	0.0166497
732.553	0.0164921
732.631	0.0167147
732.709	0.0168528
732.788	0.0170438
732.866	0.0170277
732.944	0.0171278
733.022	0.0173647
733.100	0.0175246
733.178	0.0176249
733.256	0.0178390
733.334	0.0178613
733.413	0.0176101
733.491	0.0174923
733.569	0.0174225
733.647	0.0173525
733.725	0.0172522
733.803	0.0171152
733.881	0.0168839
733.959	0.0169079
734.038	0.0169327
734.116	0.0167776
734.194	0.0169505
734.272	0.0168637
734.350	0.0167519
734.428	0.0167503
734.506	0.0167178
734.584	0.0167337
734.663	0.0165096
734.741	0.0163655
734.819	0.0162989
734.897	0.0160783
734.975	0.0159245
735.053	0.0157118
735.131	0.0155576
735.209	0.0154478
735.288	0.0152402
735.366	0.0151077
735.444	0.0151037
735.522	0.0151115
735.600	0.0150396
735.678	0.0151779
735.756	0.0151170
735.834	0.0151413
735.913	0.0152612
735.991	0.0155018
736.069	0.0152565
736.147	0.0153577
736.225	0.0154156
736.303	0.0155386
736.381	0.0155330
736.459	0.0153812
736.538	0.0153356
736.616	0.0153985
736.694	0.0153483
736.772	0.0153371
736.850	0.0152615
736.928	0.0153098
737.006	0.0153004
737.084	0.0152267
737.163	0.0150883
737.241	0.0148730
737.319	0.0146945
737.397	0.0144913
737.475	0.0144352
737.553	0.0140873
737.631	0.0141401
737.709	0.0139663
737.788	0.0140199
737.866	0.0139862
737.944	0.0141238
738.022	0.0141700
738.100	0.0143339
738.178	0.0147515
738.256	0.0149433
738.334	0.0151151
738.413	0.0153890
738.491	0.0156271
738.569	0.0160041
738.647	0.0160755
738.725	0.0160990
738.803	0.0162469
738.881	0.0164172
738.959	0.0165588
739.038	0.0164489
739.116	0.0165174
739.194	0.0166405
739.272	0.0166577
739.350	0.0167371
739.428	0.0167245
739.506	0.0166736
739.584	0.0167149
739.663	0.0166537
739.741	0.0169184
739.819	0.0169733
739.897	0.0170726
739.975	0.0170924
740.053	0.0172097
740.131	0.0171503
740.209	0.0172302
740.288	0.0169933
740.366	0.0169689
740.444	0.0171316
740.522	0.0168984
740.600	0.0169639
740.678	0.0168365
740.756	0.0168265
740.834	0.0166463
740.913	0.0166222
740.991	0.0164311
741.069	0.0163874
741.147	0.0161660
741.225	0.0161655
741.303	0.0161036
741.381	0.0160227
741.459	0.0158704
741.538	0.0157379
741.616	0.0157534
741.694	0.0156850
741.772	0.0154168
741.850	0.0154427
741.928	0.0153120
742.006	0.0149895
742.084	0.0149161
742.163	0.0148994
742.241	0.0149361
742.319	0.0150108
742.397	0.0148863
742.475	0.0148766
742.553	0.0147569
742.631	0.0148665
742.709	0.0149324
742.788	0.0148724
742.866	0.0149909
742.944	0.0150097
743.022	0.0150226
743.100	0.0151653
743.178	0.0152428
743.256	0.0151617
743.334	0.0150969
743.413	0.0151474
743.491	0.0150360
743.569	0.0149577
743.647	0.0149352
743.725	0.0150122
743.803	0.0149365
743.881	0.0149145
743.959	0.0149124
744.038	0.0148884
744.116	0.0151204
744.194	0.0152789
744.272	0.0153492
744.350	0.0154581
744.428	0.0155159
744.506	0.0156756
744.584	0.0157442
744.663	0.0156547
744.741	0.0157029
744.819	0.0157219
744.897	0.0157426
744.975	0.0156381
745.053	0.0154908
745.131	0.0154279
745.209	0.0154878
745.288	0.0153483
745.366	0.0152339
745.444	0.0152594
745.522	0.0153877
745.600	0.0152314
745.678	0.0153764
745.756	0.0154816
745.834	0.0155194
745.913	0.0155482
745.991	0.0157268
746.069	0.0160570
746.147	0.0158773
746.225	0.0159122
746.303	0.0161989
746.381	0.0162930
746.459	0.0163700
746.538	0.0164565
746.616	0.0166747
746.694	0.0168397
746.772	0.0170161
746.850	0.0169484
746.928	0.0169794
747.006	0.0170189
747.084	0.0169961
747.163	0.0171705
747.241	0.0171031
747.319	0.0170161
747.397	0.0171430
747.475	0.0170569
747.553	0.0170511
747.631	0.0168378
747.709	0.0166985
747.788	0.0166400
747.866	0.0164735
747.944	0.0164057
748.022	0.0163035
748.100	0.0162052
748.178	0.0161539
748.256	0.0161442
748.334	0.0160576
748.413	0.0158972
748.491	0.0155777
748.569	0.0156580
748.647	0.0156892
748.725	0.0152959
748.803	0.0154082
748.881	0.0154494
748.959	0.0155051
749.038	0.0155470
749.116	0.0154749
749.194	0.0155730
749.272	0.0156464
749.350	0.0157151
749.428	0.0157677
749.506	0.0157291
749.584	0.0158375
749.663	0.0157207
749.741	0.0157493
749.819	0.0156245
749.897	0.0155981
749.975	0.0152796
750.053	0.0152183
750.131	0.0152831
750.209	0.0150052
750.288	0.0148488
750.366	0.0147356
750.444	0.0146214
750.522	0.0146962
750.600	0.0145594
750.678	0.0147374
750.756	0.0149409
750.834	0.0149400
750.913	0.0150668
750.991	0.0150569
751.069	0.0152798
751.147	0.0154029
751.225	0.0155974
751.303	0.0156718
751.381	0.0158126
751.459	0.0156915
751.538	0.0157330
751.616	0.0155223
751.694	0.0156596
751.772	0.0156185
751.850	0.0154430
751.928	0.0155675
752.006	0.0154292
752.084	0.0154062
752.163	0.0154082
752.241	0.0155126
752.319	0.0154494
752.397	0.0155453
752.475	0.0155885
752.553	0.0156860
752.631	0.0157008
752.709	0.0157774
752.788	0.0158244
752.866	0.0159760
752.944	0.0159290
753.022	0.0159927
753.100	0.0160055
753.178	0.0160321
753.256	0.0164186
753.334	0.0164211
753.413	0.0163046
753.491	0.0164758
753.569	0.0165797
753.647	0.0167027
753.725	0.0167373
753.803	0.0167101
753.881	0.0168758
753.959	0.0169529
754.038	0.0167767
754.116	0.0167482
754.194	0.0169852
754.272	0.0169673
754.350	0.0169307
754.428	0.0168170
754.506	0.0167631
754.584	0.0165657
754.663	0.0164689
754.741	0.0163529
754.819	0.0161543
754.897	0.0160493
754.975	0.0157887
755.053	0.0156502
755.131	0.0154204
755.209	0.0154048
755.288	0.0153557
755.366	0.0151963
755.444	0.0151089
755.522	0.0151977
755.600	0.0151850
755.678	0.0150712
755.756	0.0151681
755.834	0.0152361
755.913	0.0150824
755.991	0.0152026
756.069	0.0151776
756.147	0.0153062
756.225	0.0153635
756.303	0.0154758
756.381	0.0154564
756.459	0.0156273
756.538	0.0157495
756.616	0.0158687
756.694	0.0158130
756.772	0.0160430
756.850	0.0161076
756.928	0.0160986
757.006	0.0161644
757.084	0.0161095
757.163	0.0161919
757.241	0.0161449
757.319	0.0161295
757.397	0.0161494
757.475	0.0160629
757.553	0.0161010
757.631	0.0161008
757.709	0.0161241
757.788	0.0159105
757.866	0.0158795
757.944	0.0159254
758.022	0.0158424
758.100	0.0158267
758.178	0.0156866
758.256	0.0156213
758.334	0.0156602
758.413	0.0156490
758.491	0.0156514
758.569	0.0155832
758.647	0.0156116
758.725	0.0156622
758.803	0.0156993
758.881	0.0156500
758.959	0.0156007
759.038	0.0156609
759.116	0.0157158
759.194	0.0156032
759.272	0.0157942
759.350	0.0156446
759.428	0.0154700
759.506	0.0156123
759.584	0.0156452
759.663	0.0156062
759.741	0.0156874
759.819	0.0157256
759.897	0.0156778
759.975	0.0158082
760.053	0.0157871
760.131	0.0157410
760.209	0.0157896
760.288	0.0157034
760.366	0.0154559
760.444	0.0154064
760.522	0.0152119
760.600	0.0151864
760.678	0.0150747
760.756	0.0150468
760.834	0.0150072
760.913	0.0151799
760.991	0.0152255
761.069	0.0150051
761.147	0.0152002
761.225	0.0151131
761.303	0.0152449
761.381	0.0153458
761.459	0.0154819
761.538	0.0156747
761.616	0.0157352
761.694	0.0158685
761.772	0.0159230
761.850	0.0160879
761.928	0.0160490
762.006	0.0162002
762.084	0.0161854
762.163	0.0162760
762.241	0.0164294
762.319	0.0164419
762.397	0.0165103
762.475	0.0164990
762.553	0.0164597
762.631	0.0164870
762.709	0.0163404
762.788	0.0164429
762.866	0.0162307
762.944	0.0163560
763.022	0.0162982
763.100	0.0160631
763.178	0.0160642
763.256	0.0160310
763.334	0.0157158
763.413	0.0156825
763.491	0.0158192
763.569	0.0157281
763.647	0.0156522
763.725	0.0156447
763.803	0.0157177
763.881	0.0156865
763.959	0.0156974
764.038	0.0157056
764.116	0.0157571
764.194	0.0157775
764.272	0.0159670
764.350	0.0161500
764.428	0.0161656
764.506	0.0161354
764.584	0.0161948
764.663	0.0164069
764.741	0.0164633
764.819	0.0165234
764.897	0.0164952
764.975	0.0166003
765.053	0.0165804
765.131	0.0165327
765.209	0.0163985
765.288	0.0164260
765.366	0.0163467
765.444	0.0160970
765.522	0.0160029
765.600	0.0158738
765.678	0.0155562
765.756	0.0154742
765.834	0.0153708
765.913	0.0152047
765.991	0.0150539
766.069	0.0149465
766.147	0.0149609
766.225	0.0148244
766.303	0.0148470
766.381	0.0146776
766.459	0.0148141
766.538	0.0147515
766.616	0.0147204
766.694	0.0148328
766.772	0.0147527
766.850	0.0149934
766.928	0.0149848
767.006	0.0151627
767.084	0.0152836
767.163	0.0153357
767.241	0.0154893
767.319	0.0153887
767.397	0.0155275
767.475	0.0155177
767.553	0.0155473
767.631	0.0155726
767.709	0.0156014
767.788	0.0156073
767.866	0.0157193
767.944	0.0159054
768.022	0.0157576
768.100	0.0159400
768.178	0.0160399
768.256	0.0159258
768.334	0.0163358
768.413	0.0161945
768.491	0.0160439
768.569	0.0160618
768.647	0.0160932
768.725	0.0161109
768.803	0.0158973
768.881	0.0160134
768.959	0.0159799
769.038	0.0159847
769.116	0.0159480
769.194	0.0160223
769.272	0.0160347
769.350	0.0159694
769.428	0.0161027
769.506	0.0162340
769.584	0.0162981
769.663	0.0163901
769.741	0.0163663
769.819	0.0164945
769.897	0.0167014
769.975	0.0166904
770.053	0.0167978
770.131	0.0167939
770.209	0.0167191
770.288	0.0168458
770.366	0.0167963
770.444	0.0168726
770.522	0.0166959
770.600	0.0166818
770.678	0.0165369
770.756	0.0164619
770.834	0.0164342
770.913	0.0162256
770.991	0.0161169
771.069	0.0159322
771.147	0.0158274
771.225	0.0159205
771.303	0.0158517
771.381	0.0157645
771.459	0.0156443
771.538	0.0155379
771.616	0.0155941
771.694	0.0156337
771.772	0.0156753
771.850	0.0155788
771.928	0.0154591
772.006	0.0155694
772.084	0.0156211
772.163	0.0154465
772.241	0.0155767
772.319	0.0156818
772.397	0.0154318
772.475	0.0155591
772.553	0.0157295
772.631	0.0157920
772.709	0.0157436
772.788	0.0158652
772.866	0.0161350
772.944	0.0162555
773.022	0.0161914
773.100	0.0162700
773.178	0.0162692
773.256	0.0163406
773.334	0.0161311
773.413	0.0161672
773.491	0.0161388
773.569	0.0159686
773.647	0.0158157
773.725	0.0158190
773.803	0.0156422
773.881	0.0155300
773.959	0.0153296
774.038	0.0150771
774.116	0.0151257
774.194	0.0150133
774.272	0.0148766
774.350	0.0147005
774.428	0.0146491
774.506	0.0145849
774.584	0.0147198
774.663	0.0148116
774.741	0.0147184
774.819	0.0147844
774.897	0.0147751
774.975	0.0150172
775.053	0.0150615
775.131	0.0151176
775.209	0.0150919
775.288	0.0154024
775.366	0.0154566
775.444	0.0156779
775.522	0.0158088
775.600	0.0159914
775.678	0.0159882
775.756	0.0162022
775.834	0.0162962
775.913	0.0163346
775.991	0.0163850
776.069	0.0163318
776.147	0.0163828
776.225	0.0164780
776.303	0.0163714
776.381	0.0162460
776.459	0.0162787
776.538	0.0163123
776.616	0.0161996
776.694	0.0160426
776.772	0.0159587
776.850	0.0158504
776.928	0.0158245
777.006	0.0157500
777.084	0.0159112
777.163	0.0159311
777.241	0.0157703
777.319	0.0159814
777.397	0.0160626
777.475	0.0158887
777.553	0.0160903
777.631	0.0160702
777.709	0.0160622
777.788	0.0161650
777.866	0.0161313
777.944	0.0161671
778.022	0.0161170
778.100	0.0160772
778.178	0.0161555
778.256	0.0160809
778.334	0.0161031
778.413	0.0159590
778.491	0.0156649
778.569	0.0157015
778.647	0.0157595
778.725	0.0157691
778.803	0.0155210
778.881	0.0153985
778.959	0.0154536
779.038	0.0156207
779.116	0.0154823
779.194	0.0155273
779.272	0.0156007
779.350	0.0155643
779.428	0.0158174
779.506	0.0158203
779.584	0.0157700
779.663	0.0157981
779.741	0.0156481
779.819	0.0157932
779.897	0.0157186
779.975	0.0157458
780.053	0.0158214
780.131	0.0157237
780.209	0.0156906
780.288	0.0157233
780.366	0.0156874
780.444	0.0156846
780.522	0.0157334
780.600	0.0157662
780.678	0.0156815
780.756	0.0156541
780.834	0.0155083
780.913	0.0156751
780.991	0.0154618
781.069	0.0153680
781.147	0.0153952
781.225	0.0152612
781.303	0.0152925
781.381	0.0151172
781.459	0.0151496
781.538	0.0152676
781.616	0.0150893
781.694	0.0152096
781.772	0.0152223
781.850	0.0152761
781.928	0.0153951
782.006	0.0153875
782.084	0.0155817
782.163	0.0155425
782.241	0.0157863
782.319	0.0158496
782.397	0.0159310
782.475	0.0158739
782.553	0.0158365
782.631	0.0158936
782.709	0.0159998
782.788	0.0159566
782.866	0.0159372
782.944	0.0159706
783.022	0.0157639
783.100	0.0157206
783.178	0.0156411
783.256	0.0156226
783.334	0.0156657
783.413	0.0158594
783.491	0.0158588
783.569	0.0157080
783.647	0.0157010
783.725	0.0157615
783.803	0.0158652
783.881	0.0159563
783.959	0.0158295
784.038	0.0157695
784.116	0.0158175
784.194	0.0160390
784.272	0.0158877
784.350	0.0158478
784.428	0.0160105
784.506	0.0159387
784.584	0.0160266
784.663	0.0159530
784.741	0.0158817
784.819	0.0160452
784.897	0.0160020
784.975	0.0159062
785.053	0.0158283
785.131	0.0159390
785.209	0.0159776
785.288	0.0157949
785.366	0.0159185
785.444	0.0158402
785.522	0.0158234
785.600	0.0159441
785.678	0.0158831
785.756	0.0158907
785.834	0.0160091
785.913	0.0159333
785.991	0.0160841
786.069	0.0161182
786.147	0.0161610
786.225	0.0163261
786.303	0.0163474
786.381	0.0162277
786.459	0.0161721
786.538	0.0161894
786.616	0.0161529
786.694	0.0159617
786.772	0.0159249
786.850	0.0158263
786.928	0.0156844
787.006	0.0156274
787.084	0.0153996
787.163	0.0152704
787.241	0.0151011
787.319	0.0150525
787.397	0.0150799
787.475	0.0149906
787.553	0.0149342
787.631	0.0151145
787.709	0.0149870
787.788	0.0152095
787.866	0.0153394
787.944	0.0153355
788.022	0.0155753
788.100	0.0156434
788.178	0.0158003
788.256	0.0159583
788.334	0.0161663
788.413	0.0163528
788.491	0.0163059
788.569	0.0165324
788.647	0.0164680
788.725	0.0164789
788.803	0.0165662
788.881	0.0164719
788.959	0.0163181
789.038	0.0161588
789.116	0.0163003
789.194	0.0160719
789.272	0.0161781
789.350	0.0160385
789.428	0.0160782
789.506	0.0158977
789.584	0.0160182
789.663	0.0158459
789.741	0.0156367
789.819	0.0157297
789.897	0.0155448
789.975	0.0155082
790.053	0.0156226
790.131	0.0155488
790.209	0.0154218
790.288	0.0154300
790.366	0.0155276
790.444	0.0154381
790.522	0.0153888
790.600	0.0155499
790.678	0.0155930
790.756	0.0159292
790.834	0.0158826
790.913	0.0161060
790.991	0.0161194
791.069	0.0162780
791.147	0.0164881
791.225	0.0165038
791.303	0.0163889
791.381	0.0164783
791.459	0.0164439
791.538	0.0163581
791.616	0.0160909
791.694	0.0159792
791.772	0.0159805
791.850	0.0154961
791.928	0.0155830
792.006	0.0154274
792.084	0.0151283
792.163	0.0150348
792.241	0.0150719
792.319	0.0149888
792.397	0.0149915
792.475	0.0150667
792.553	0.0153441
792.631	0.0150957
792.709	0.0151859
792.788	0.0152576
792.866	0.0154463
792.944	0.0155330
793.022	0.0156210
793.100	0.0157114
793.178	0.0159693
793.256	0.0160297
793.334	0.0162521
793.413	0.0160336
793.491	0.0162474
793.569	0.0163462
793.647	0.0164104
793.725	0.0162705
793.803	0.0163594
793.881	0.0164465
793.959	0.0163628
794.038	0.0162810
794.116	0.0161780
794.194	0.0161645
794.272	0.0160876
794.350	0.0160181
794.428	0.0157916
794.506	0.0157822
794.584	0.0156689
794.663	0.0156885
794.741	0.0156736
794.819	0.0157622
794.897	0.0157954
794.975	0.0157392
795.053	0.0157008
795.131	0.0157462
795.209	0.0156115
795.288	0.0155507
795.366	0.0155775
795.444	0.0155740
795.522	0.0155229
795.600	0.0156939
795.678	0.0154993
795.756	0.0154570
795.834	0.0153722
795.913	0.0156218
795.991	0.0155001
796.069	0.0156190
796.147	0.0157227
796.225	0.0158450
796.303	0.0159143
796.381	0.0158742
796.459	0.0161679
796.538	0.0161327
796.616	0.0163404
796.694	0.0164085
796.772	0.0164674
796.850	0.0165659
796.928	0.0166995
797.006	0.0167746
797.084	0.0166649
797.163	0.0167286
797.241	0.0167473
797.319	0.0166457
797.397	0.0162970
797.475	0.0161390
797.553	0.0160011
797.631	0.0158744
797.709	0.0157093
797.788	0.0156203
797.866	0.0154788
797.944	0.0152332
798.022	0.0151325
798.100	0.0150755
798.178	0.0150060
798.256	0.0150822
798.334	0.0148700
798.413	0.0149377
798.491	0.0151313
798.569	0.0149935
798.647	0.0151120
798.725	0.0149771
798.803	0.0151612
798.881	0.0150994
798.959	0.0150127
799.038	0.0150813
799.116	0.0151168
799.194	0.0150546
799.272	0.0152110
799.350	0.0153839
799.428	0.0152370
799.506	0.0153650
799.584	0.0154832
799.663	0.0158537
799.741	0.0158273
799.819	0.0159962
799.897	0.0161086
799.975	0.0161692
800.053	0.0161783
800.131	0.0162356
800.209	0.0164857
800.288	0.0164472
800.366	0.0164860
800.444	0.0163813
800.522	0.0163910
800.600	0.0161501
800.678	0.0158962
800.756	0.0160187
800.834	0.0157803
800.913	0.0156759
800.991	0.0156660
801.069	0.0156172
801.147	0.0156770
801.225	0.0155611
801.303	0.0155370
801.381	0.0155139
801.459	0.0156226
801.538	0.0157443
801.616	0.0156863
801.694	0.0155959
801.772	0.0158179
801.850	0.0158130
801.928	0.0159850
802.006	0.0159923
802.084	0.0157997
802.163	0.0158952
802.241	0.0158122
802.319	0.0159248
802.397	0.0160889
802.475	0.0162200
802.553	0.0162952
802.631	0.0162180
802.709	0.0163232
802.788	0.0162074
802.866	0.0163093
802.944	0.0163037
803.022	0.0162814
803.100	0.0161162
803.178	0.0161495
803.256	0.0161058
803.334	0.0160512
803.413	0.0159208
803.491	0.0158016
803.569	0.0157416
803.647	0.0156879
803.725	0.0153403
803.803	0.0153896
803.881	0.0154436
803.959	0.0154652
804.038	0.0153488
804.116	0.0153908
804.194	0.0152452
804.272	0.0151183
804.350	0.0153027
804.428	0.0152559
804.506	0.0152174
804.584	0.0153835
804.663	0.0153952
804.741	0.0153870
804.819	0.0154916
804.897	0.0156667
804.975	0.0156734
805.053	0.0157262
805.131	0.0158433
805.209	0.0158087
805.288	0.0160258
805.366	0.0160007
805.444	0.0160731
805.522	0.0161570
805.600	0.0161860
805.678	0.0163565
805.756	0.0162700
805.834	0.0161210
805.913	0.0161477
805.991	0.0161881
806.069	0.0162892
806.147	0.0161163
806.225	0.0161616
806.303	0.0160463
806.381	0.0162730
806.459	0.0161395
806.538	0.0159710
806.616	0.0160076
806.694	0.0159088
806.772	0.0159614
806.850	0.0159724
806.928	0.0158929
807.006	0.0159254
807.084	0.0158008
807.163	0.0157411
807.241	0.0157436
807.319	0.0156908
807.397	0.0156232
807.475	0.0156260
807.553	0.0154577
807.631	0.0153896
807.709	0.0152360
807.788	0.0151780
807.866	0.0150679
807.944	0.0150257
808.022	0.0150687
808.100	0.0149371
808.178	0.0149643
808.256	0.0149066
808.334	0.0148682
808.413	0.0151605
808.491	0.0153059
808.569	0.0153282
808.647	0.0155881
808.725	0.0156020
808.803	0.0157355
808.881	0.0159798
808.959	0.0160950
809.038	0.0162157
809.116	0.0163333
809.194	0.0163729
809.272	0.0163740
809.350	0.0163204
809.428	0.0161455
809.506	0.0161270
809.584	0.0162686
809.663	0.0159275
809.741	0.0158257
809.819	0.0157361
809.897	0.0155465
809.975	0.0154109
810.053	0.0151379
810.131	0.0151487
810.209	0.0151569
810.288	0.0151419
810.366	0.0151453
810.444	0.0151880
810.522	0.0150637
810.600	0.0152733
810.678	0.0153723
810.756	0.0152937
810.834	0.0152788
810.913	0.0154198
810.991	0.0155533
811.069	0.0157394
811.147	0.0157076
811.225	0.0159072
811.303	0.0162619
811.381	0.0163609
811.459	0.0164152
811.538	0.0165677
811.616	0.0168446
811.694	0.0168327
811.772	0.0168835
811.850	0.0169076
811.928	0.0168768
812.006	0.0168221
812.084	0.0167504
812.163	0.0167535
812.241	0.0164384
812.319	0.0163018
812.397	0.0162338
812.475	0.0160881
812.553	0.0160229
812.631	0.0159887
812.709	0.0157929
812.788	0.0157609
812.866	0.0157657
812.944	0.0156793
813.022	0.0156759
813.100	0.0158206
813.178	0.0157831
813.256	0.0158366
813.334	0.0159274
813.413	0.0159122
813.491	0.0158863
813.569	0.0158923
813.647	0.0157609
813.725	0.0157093
813.803	0.0155777
813.881	0.0154565
813.959	0.0154288
814.038	0.0154956
814.116	0.0152908
814.194	0.0151779
814.272	0.0154057
814.350	0.0152579
814.428	0.0152750
814.506	0.0151913
814.584	0.0153403
814.663	0.0154678
814.741	0.0154868
814.819	0.0155064
814.897	0.0156584
814.975	0.0157433
815.053	0.0156731
815.131	0.0157458
815.209	0.0158957
815.288	0.0159558
815.366	0.0161717
815.444	0.0160007
815.522	0.0159258
815.600	0.0158952
815.678	0.0159570
815.756	0.0157520
815.834	0.0156195
815.913	0.0154408
815.991	0.0153786
816.069	0.0153976
816.147	0.0152996
816.225	0.0151197
816.303	0.0152473
816.381	0.0152882
816.459	0.0152717
816.538	0.0154062
816.616	0.0153543
816.694	0.0153278
816.772	0.0152952
816.850	0.0153418
816.928	0.0154392
817.006	0.0154643
817.084	0.0154905
817.163	0.0155730
817.241	0.0156197
817.319	0.0156631
817.397	0.0159396
817.475	0.0161764
817.553	0.0162516
817.631	0.0163274
817.709	0.0164695
817.788	0.0164695
817.866	0.0166134
817.944	0.0167457
818.022	0.0168498
818.100	0.0168792
818.178	0.0167934
818.256	0.0167009
818.334	0.0165829
818.413	0.0165050
818.491	0.0162671
818.569	0.0160889
818.647	0.0157678
818.725	0.0157560
818.803	0.0155773
818.881	0.0154283
818.959	0.0153555
819.038	0.0152695
819.116	0.0153335
819.194	0.0150828
819.272	0.0151240
819.350	0.0152637
819.428	0.0152101
819.506	0.0152078
819.584	0.0152589
819.663	0.0154077
819.741	0.0153816
819.819	0.0154446
819.897	0.0155992
819.975	0.0157684
820.053	0.0156702
820.131	0.0157762
820.209	0.0159137
820.288	0.0160529
820.366	0.0162015
820.444	0.0161275
820.522	0.0162564
820.600	0.0163026
820.678	0.0163376
820.756	0.0163440
820.834	0.0162496
820.913	0.0161421
820.991	0.0160870
821.069	0.0160183
821.147	0.0157726
821.225	0.0156519
821.303	0.0154119
821.381	0.0153088
821.459	0.0152029
821.538	0.0154115
821.616	0.0151583
821.694	0.0152902
821.772	0.0154207
821.850	0.0152605
821.928	0.0154199
822.006	0.0155157
822.084	0.0157442
822.163	0.0154866
822.241	0.0156923
822.319	0.0156587
822.397	0.0156390
822.475	0.0155754
822.553	0.0155990
822.631	0.0155019
822.709	0.0155516
822.788	0.0154913
822.866	0.0155324
822.944	0.0156332
823.022	0.0156454
823.100	0.0157283
823.178	0.0157443
823.256	0.0157015
823.334	0.0159161
823.413	0.0159891
823.491	0.0159572
823.569	0.0160278
823.647	0.0161972
823.725	0.0163023
823.803	0.0163283
823.881	0.0163741
823.959	0.0163811
824.038	0.0164249
824.116	0.0163895
824.194	0.0163844
824.272	0.0164339
824.350	0.0165675
824.428	0.0163832
824.506	0.0162382
824.584	0.0162253
824.663	0.0159705
824.741	0.0159680
824.819	0.0158604
824.897	0.0159720
824.975	0.0156112
825.053	0.0154830
825.131	0.0156074
825.209	0.0155849
825.288	0.0154837
825.366	0.0156401
825.444	0.0155235
825.522	0.0154826
825.600	0.0155088
825.678	0.0156979
825.756	0.0157008
825.834	0.0154520
825.913	0.0154395
825.991	0.0155513
826.069	0.0155579
826.147	0.0156522
826.225	0.0155714
826.303	0.0155961
826.381	0.0159554
826.459	0.0159898
826.538	0.0159384
826.616	0.0160522
826.694	0.0162083
826.772	0.0163010
826.850	0.0163283
826.928	0.0163795
827.006	0.0162275
827.084	0.0163918
827.163	0.0163609
827.241	0.0163004
827.319	0.0160837
827.397	0.0158674
827.475	0.0158365
827.553	0.0156351
827.631	0.0155241
827.709	0.0154046
827.788	0.0151848
827.866	0.0151392
827.944	0.0149549
828.022	0.0150869
828.100	0.0148842
828.178	0.0148956
828.256	0.0150980
828.334	0.0151072
828.413	0.0152792
828.491	0.0153019
828.569	0.0155791
828.647	0.0155787
828.725	0.0155331
828.803	0.0157301
828.881	0.0158057
828.959	0.0160189
829.038	0.0160529
829.116	0.0163398
829.194	0.0161975
829.272	0.0162575
829.350	0.0165411
829.428	0.0165047
829.506	0.0165620
829.584	0.0166270
829.663	0.0166950
829.741	0.0167338
829.819	0.0166612
829.897	0.0166412
829.975	0.0164059
830.053	0.0163123
830.131	0.0162093
830.209	0.0160546
830.288	0.0160400
830.366	0.0158895
830.444	0.0156860
830.522	0.0157274
830.600	0.0155286
830.678	0.0157117
830.756	0.0156801
830.834	0.0155278
830.913	0.0155853
830.991	0.0157736
831.069	0.0158428
831.147	0.0158926
831.225	0.0158158
831.303	0.0158619
831.381	0.0159399
831.459	0.0157211
831.538	0.0156120
831.616	0.0156889
831.694	0.0156147
831.772	0.0154875
831.850	0.0154867
831.928	0.0153966
832.006	0.0153731
832.084	0.0153213
832.163	0.0154890
832.241	0.0155071
832.319	0.0154953
832.397	0.0155269
832.475	0.0154890
832.553	0.0155101
832.631	0.0155175
832.709	0.0155322
832.788	0.0155058
832.866	0.0156828
832.944	0.0156846
833.022	0.0156279
833.100	0.0157111
833.178	0.0156139
833.256	0.0156390
833.334	0.0157808
833.413	0.0158118
833.491	0.0158936
833.569	0.0157377
833.647	0.0156309
833.725	0.0157781
833.803	0.0157537
833.881	0.0156030
833.959	0.0156277
834.038	0.0155568
834.116	0.0154420
834.194	0.0153564
834.272	0.0154677
834.350	0.0154816
834.428	0.0153177
834.506	0.0154116
834.584	0.0154550
834.663	0.0154422
834.741	0.0154227
834.819	0.0155413
834.897	0.0154293
834.975	0.0154926
835.053	0.0156507
835.131	0.0156166
835.209	0.0156719
835.288	0.0158773
835.366	0.0158427
835.444	0.0160381
835.522	0.0161681
835.600	0.0163672
835.678	0.0164864
835.756	0.0165884
835.834	0.0167139
835.913	0.0166260
835.991	0.0168369
836.069	0.0168522
836.147	0.0167315
836.225	0.0167580
836.303	0.0166020
836.381	0.0165543
836.459	0.0165136
836.538	0.0160643
836.616	0.0160162
836.694	0.0158260
836.772	0.0157732
836.850	0.0154594
836.928	0.0153645
837.006	0.0153088
837.084	0.0152068
837.163	0.0151777
837.241	0.0150819
837.319	0.0151223
837.397	0.0151645
837.475	0.0150280
837.553	0.0152131
837.631	0.0151880
837.709	0.0150995
837.788	0.0153928
837.866	0.0153406
837.944	0.0154659
838.022	0.0154545
838.100	0.0155643
838.178	0.0155335
838.256	0.0155593
838.334	0.0156349
838.413	0.0157287
838.491	0.0158639
838.569	0.0158301
838.647	0.0160315
838.725	0.0159515
838.803	0.0159509
838.881	0.0159517
838.959	0.0159225
839.038	0.0158327
839.116	0.0158009
839.194	0.0157833
839.272	0.0156822
839.350	0.0156809
839.428	0.0154187
839.506	0.0154000
839.584	0.0155988
839.663	0.0154890
839.741	0.0154258
839.819	0.0153793
839.897	0.0154250
839.975	0.0155602
840.053	0.0157093
840.131	0.0156132
840.209	0.0156634
840.288	0.0157370
840.366	0.0156358
840.444	0.0156910
840.522	0.0155968
840.600	0.0155106
840.678	0.0154525
840.756	0.0155379
840.834	0.0154127
840.913	0.0155814
840.991	0.0154173
841.069	0.0153803
841.147	0.0153796
841.225	0.0155466
841.303	0.0154479
841.381	0.0154555
841.459	0.0156158
841.538	0.0155706
841.616	0.0156294
841.694	0.0157487
841.772	0.0157735
841.850	0.0158998
841.928	0.0159771
842.006	0.0160198
842.084	0.0159912
842.163	0.0158669
842.241	0.0161362
842.319	0.0161605
842.397	0.0160284
842.475	0.0160331
842.553	0.0161357
842.631	0.0161945
842.709	0.0159599
842.788	0.0160354
842.866	0.0158313
842.944	0.0157532
843.022	0.0157435
843.100	0.0157855
843.178	0.0156384
843.256	0.0155967
843.334	0.0157980
843.413	0.0156339
843.491	0.0157103
843.569	0.0158076
843.647	0.0157318
843.725	0.0155706
843.803	0.0157186
843.881	0.0156597
843.959	0.0157293
844.038	0.0159528
844.116	0.0157436
844.194	0.0158012
844.272	0.0158318
844.350	0.0157552
844.428	0.0158514
844.506	0.0160110
844.584	0.0162104
844.663	0.0163361
844.741	0.0163921
844.819	0.0164913
844.897	0.0164098
844.975	0.0163304
845.053	0.0165553
845.131	0.0164883
845.209	0.0165189
845.288	0.0163908
845.366	0.0162483
845.444	0.0161076
845.522	0.0159663
845.600	0.0157223
845.678	0.0155885
845.756	0.0156135
845.834	0.0154245
845.913	0.0152500
845.991	0.0151089
846.069	0.0151243
846.147	0.0151606
846.225	0.0151680
846.303	0.0150333
846.381	0.0152351
846.459	0.0151672
846.538	0.0151821
846.616	0.0151806
846.694	0.0154272
846.772	0.0155524
846.850	0.0156644
846.928	0.0156646
847.006	0.0156884
847.084	0.0158305
847.163	0.0158897
847.241	0.0160268
847.319	0.0159859
847.397	0.0162984
847.475	0.0162803
847.553	0.0162477
847.631	0.0164263
847.709	0.0164202
847.788	0.0163065
847.866	0.0163509
847.944	0.0164335
848.022	0.0163541
848.100	0.0161980
848.178	0.0161705
848.256	0.0158754
848.334	0.0158619
848.413	0.0157236
848.491	0.0157100
848.569	0.0155091
848.647	0.0154163
848.725	0.0154630
848.803	0.0152908
848.881	0.0153445
848.959	0.0153532
849.038	0.0154608
849.116	0.0155363
849.194	0.0156238
849.272	0.0156258
849.350	0.0157717
849.428	0.0157266
849.506	0.0158700
849.584	0.0158444
849.663	0.0159573
849.741	0.0160711
849.819	0.0159589
849.897	0.0158421
849.975	0.0158102
850.053	0.0159480
850.131	0.0159917
850.209	0.0160732
850.288	0.0158013
850.366	0.0159536
850.444	0.0160491
850.522	0.0160412
850.600	0.0161851
850.678	0.0160223
850.756	0.0161112
850.834	0.0160133
850.913	0.0159730
850.991	0.0160868
851.069	0.0161642
851.147	0.0161538
851.225	0.0159597
851.303	0.0160406
851.381	0.0160011
851.459	0.0160940
851.538	0.0159217
851.616	0.0159512
851.694	0.0159464
851.772	0.0158912
851.850	0.0158006
851.928	0.0156959
852.006	0.0156591
852.084	0.0156335
852.163	0.0155576
852.241	0.0154512
852.319	0.0154500
852.397	0.0154852
852.475	0.0155081
852.553	0.0155318
852.631	0.0155077
852.709	0.0155301
852.788	0.0154111
852.866	0.0154736
852.944	0.0154555
853.022	0.0155080
853.100	0.0155977
853.178	0.0155383
853.256	0.0154291
853.334	0.0154494
853.413	0.0156645
853.491	0.0156477
853.569	0.0156748
853.647	0.0157564
853.725	0.0157985
853.803	0.0158635
853.881	0.0160020
853.959	0.0161317
854.038	0.0161005
854.116	0.0160231
854.194	0.0163823
854.272	0.0162383
854.350	0.0162243
854.428	0.0161279
854.506	0.0160217
854.584	0.0160252
854.663	0.0158511
854.741	0.0157535
854.819	0.0157464
854.897	0.0157637
854.975	0.0155902
855.053	0.0156251
855.131	0.0155516
855.209	0.0154381
855.288	0.0155058
855.366	0.0154872
855.444	0.0153734
855.522	0.0155038
855.600	0.0154856
855.678	0.0153578
855.756	0.0155356
855.834	0.0155841
855.913	0.0156902
855.991	0.0156845
856.069	0.0157031
856.147	0.0157896
856.225	0.0156644
856.303	0.0158193
856.381	0.0158459
856.459	0.0156292
856.538	0.0158011
856.616	0.0158468
856.694	0.0159754
856.772	0.0159361
856.850	0.0158234
856.928	0.0158894
857.006	0.0159657
857.084	0.0159228
857.163	0.0158670
857.241	0.0157624
857.319	0.0156802
857.397	0.0155736
857.475	0.0156120
857.553	0.0154344
857.631	0.0154532
857.709	0.0154615
857.788	0.0153705
857.866	0.0154635
857.944	0.0155548
858.022	0.0154238
858.100	0.0156030
858.178	0.0156987
858.256	0.0156201
858.334	0.0156638
858.413	0.0157848
858.491	0.0158898
858.569	0.0160581
858.647	0.0160612
858.725	0.0160607
858.803	0.0160599
858.881	0.0160725
858.959	0.0159848
859.038	0.0160004
859.116	0.0159158
859.194	0.0159344
859.272	0.0159807
859.350	0.0159463
859.428	0.0158445
859.506	0.0159385
859.584	0.0159345
859.663	0.0158630
859.741	0.0159578
859.819	0.0161591
859.897	0.0160778
859.975	0.0161322
860.053	0.0160274
860.131	0.0162233
860.209	0.0162304
860.288	0.0164157
860.366	0.0163258
860.444	0.0161349
860.522	0.0163758
860.600	0.0160528
860.678	0.0162048
860.756	0.0160548
860.834	0.0160232
860.913	0.0159516
860.991	0.0159282
861.069	0.0157941
861.147	0.0156985
861.225	0.0156322
861.303	0.0154193
861.381	0.0155495
861.459	0.0154543
861.538	0.0154073
861.616	0.0154716
861.694	0.0153036
861.772	0.0152756
861.850	0.0152024
861.928	0.0153277
862.006	0.0152386
862.084	0.0154195
862.163	0.0153620
862.241	0.0151987
862.319	0.0152535
862.397	0.0153098
862.475	0.0152972
862.553	0.0153511
862.631	0.0155032
862.709	0.0155432
862.788	0.0156041
862.866	0.0155593
862.944	0.0158178
863.022	0.0157986
863.100	0.0158712
863.178	0.0158659
863.256	0.0160415
863.334	0.0160647
863.413	0.0159124
863.491	0.0160674
863.569	0.0161164
863.647	0.0159871
863.725	0.0158061
863.803	0.0159019
863.881	0.0157621
863.959	0.0156670
864.038	0.0156197
864.116	0.0155354
864.194	0.0157137
864.272	0.0157151
864.350	0.0155742
864.428	0.0156498
864.506	0.0155971
864.584	0.0155553
864.663	0.0156539
864.741	0.0156834
864.819	0.0156973
864.897	0.0156574
864.975	0.0155173
865.053	0.0157867
865.131	0.0157829
865.209	0.0158104
865.288	0.0159301
865.366	0.0159647
865.444	0.0160054
865.522	0.0160533
865.600	0.0162041
865.678	0.0162386
865.756	0.0163924
865.834	0.0163024
865.913	0.0164983
865.991	0.0165102
866.069	0.0165189
866.147	0.0164952
866.225	0.0163507
866.303	0.0163438
866.381	0.0163912
866.459	0.0161804
866.538	0.0161155
866.616	0.0159942
866.694	0.0159408
866.772	0.0159686
866.850	0.0158382
866.928	0.0156847
867.006	0.0156223
867.084	0.0157363
867.163	0.0155619
867.241	0.0155814
867.319	0.0155746
867.397	0.0156634
867.475	0.0156905
867.553	0.0158155
867.631	0.0158084
867.709	0.0157394
867.788	0.0158459
867.866	0.0157161
867.944	0.0158813
868.022	0.0158415
868.100	0.0157684
868.178	0.0157986
868.256	0.0158165
868.334	0.0156673
868.413	0.0155984
868.491	0.0157076
868.569	0.0157175
868.647	0.0156167
868.725	0.0156176
868.803	0.0155946
868.881	0.0156934
868.959	0.0156674
869.038	0.0156477
869.116	0.0158182
869.194	0.0157758
869.272	0.0156230
869.350	0.0158524
869.428	0.0159396
869.506	0.0158880
869.584	0.0158113
869.663	0.0160023
869.741	0.0158689
869.819	0.0158729
869.897	0.0157979
869.975	0.0158194
870.053	0.0159055
870.131	0.0158103
870.209	0.0158588
870.288	0.0157581
870.366	0.0157566
870.444	0.0155610
870.522	0.0157352
870.600	0.0156378
870.678	0.0154928
870.756	0.0155700
870.834	0.0156718
870.913	0.0156148
870.991	0.0155597
871.069	0.0155816
871.147	0.0154542
871.225	0.0156186
871.303	0.0155060
871.381	0.0156379
871.459	0.0157344
871.538	0.0157444
871.616	0.0156691
871.694	0.0157639
871.772	0.0157597
871.850	0.0158749
871.928	0.0159752
872.006	0.0159341
872.084	0.0160225
872.163	0.0161626
872.241	0.0163432
872.319	0.0161640
872.397	0.0163801
872.475	0.0163393
872.553	0.0162444
872.631	0.0163033
872.709	0.0161559
872.788	0.0161176
872.866	0.0160605
872.944	0.0160078
873.022	0.0159884
873.100	0.0157632
873.178	0.0157068
873.256	0.0154951
873.334	0.0154921
873.413	0.0154237
873.491	0.0152720
873.569	0.0155112
873.647	0.0153145
873.725	0.0155341
873.803	0.0153502
873.881	0.0153307
873.959	0.0154527
874.038	0.0155209
874.116	0.0154497
874.194	0.0154195
874.272	0.0156959
874.350	0.0158302
874.428	0.0158416
874.506	0.0157484
874.584	0.0158846
874.663	0.0160858
874.741	0.0159122
874.819	0.0159344
874.897	0.0160574
874.975	0.0160884
875.053	0.0161212
875.131	0.0160316
875.209	0.0160130
875.288	0.0159755
875.366	0.0158858
875.444	0.0157917
875.522	0.0159952
875.600	0.0158856
875.678	0.0157906
875.756	0.0158190
875.834	0.0157088
875.913	0.0157539
875.991	0.0157236
876.069	0.0158202
876.147	0.0157608
876.225	0.0156631
876.303	0.0158649
876.381	0.0158339
876.459	0.0159145
876.538	0.0157880
876.616	0.0159165
876.694	0.0160651
876.772	0.0159061
876.850	0.0159098
876.928	0.0160387
877.006	0.0159323
877.084	0.0159673
877.163	0.0159505
877.241	0.0158385
877.319	0.0157970
877.397	0.0158325
877.475	0.0156667
877.553	0.0156548
877.631	0.0157316
877.709	0.0157591
877.788	0.0155217
877.866	0.0155057
877.944	0.0154631
878.022	0.0153733
878.100	0.0156123
878.178	0.0156128
878.256	0.0156152
878.334	0.0156003
878.413	0.0156821
878.491	0.0157178
878.569	0.0156397
878.647	0.0157240
878.725	0.0158234
878.803	0.0157610
878.881	0.0158547
878.959	0.0157909
879.038	0.0156998
879.116	0.0157675
879.194	0.0157133
879.272	0.0156851
879.350	0.0155318
879.428	0.0155762
879.506	0.0157333
879.584	0.0157145
879.663	0.0155479
879.741	0.0156918
879.819	0.0156767
879.897	0.0156423
879.975	0.0156329
880.053	0.0157133
880.131	0.0156774
880.209	0.0156380
880.288	0.0157864
880.366	0.0158365
880.444	0.0158832
880.522	0.0158438
880.600	0.0158461
880.678	0.0158376
880.756	0.0157914
880.834	0.0158210
880.913	0.0158118
880.991	0.0156933
881.069	0.0158131
881.147	0.0157487
881.225	0.0157115
881.303	0.0156812
881.381	0.0157185
881.459	0.0157052
881.538	0.0158964
881.616	0.0159775
881.694	0.0159682
881.772	0.0159565
881.850	0.0159579
881.928	0.0160134
882.006	0.0158411
882.084	0.0158759
882.163	0.0159141
882.241	0.0158838
882.319	0.0157333
882.397	0.0157913
882.475	0.0156889
882.553	0.0156006
882.631	0.0156278
882.709	0.0154699
882.788	0.0155142
882.866	0.0153107
882.944	0.0154046
883.022	0.0153453
883.100	0.0153323
883.178	0.0154744
883.256	0.0156181
883.334	0.0154772
883.413	0.0155103
883.491	0.0154955
883.569	0.0158858
883.647	0.0158297
883.725	0.0159212
883.803	0.0159235
883.881	0.0160123
883.959	0.0161745
884.038	0.0161076
884.116	0.0161727
884.194	0.0161993
884.272	0.0162961
884.350	0.0161857
884.428	0.0160780
884.506	0.0162274
884.584	0.0160414
884.663	0.0158797
884.741	0.0158942
884.819	0.0158984
884.897	0.0158782
884.975	0.0157514
885.053	0.0156905
885.131	0.0155918
885.209	0.0156335
885.288	0.0154036
885.366	0.0154594
885.444	0.0153650
885.522	0.0153611
885.600	0.0153225
885.678	0.0153894
885.756	0.0153006
885.834	0.0152930
885.913	0.0153200
885.991	0.0154356
886.069	0.0154378
886.147	0.0153765
886.225	0.0154675
886.303	0.0156691
886.381	0.0156692
886.459	0.0155918
886.538	0.0157266
886.616	0.0156307
886.694	0.0156731
886.772	0.0156880
886.850	0.0156540
886.928	0.0156615
887.006	0.0156701
887.084	0.0157340
887.163	0.0156545
887.241	0.0156464
887.319	0.0156558
887.397	0.0158569
887.475	0.0157567
887.553	0.0158584
887.631	0.0159985
887.709	0.0160413
887.788	0.0160156
887.866	0.0162518
887.944	0.0161393
888.022	0.0161006
888.100	0.0162069
888.178	0.0161140
888.256	0.0160313
888.334	0.0160470
888.413	0.0158866
888.491	0.0158817
888.569	0.0157150
888.647	0.0156512
888.725	0.0158602
888.803	0.0158457
888.881	0.0158528
888.959	0.0158326
889.038	0.0157334
889.116	0.0156452
889.194	0.0157951
889.272	0.0155954
889.350	0.0155967
889.428	0.0156187
889.506	0.0156469
889.584	0.0156158
889.663	0.0155468
889.741	0.0156020
889.819	0.0155183
889.897	0.0155299
889.975	0.0156976
890.053	0.0156046
890.131	0.0155706
890.209	0.0154646
890.288	0.0157799
890.366	0.0156792
890.444	0.0157803
890.522	0.0159984
890.600	0.0160224
890.678	0.0162805
890.756	0.0162827
890.834	0.0161975
890.913	0.0163025
890.991	0.0163115
891.069	0.0162974
891.147	0.0162802
891.225	0.0162570
891.303	0.0161929
891.381	0.0162791
891.459	0.0160452
891.538	0.0161124
891.616	0.0160011
891.694	0.0159338
891.772	0.0158645
891.850	0.0157290
891.928	0.0155369
892.006	0.0154466
892.084	0.0156328
892.163	0.0154687
892.241	0.0155015
892.319	0.0154831
892.397	0.0155825
892.475	0.0156255
892.553	0.0156645
892.631	0.0157439
892.709	0.0156347
892.788	0.0158405
892.866	0.0159621
892.944	0.0159062
893.022	0.0160211
893.100	0.0162164
893.178	0.0162907
893.256	0.0161846
893.334	0.0162943
893.413	0.0163274
893.491	0.0163713
893.569	0.0162371
893.647	0.0162276
893.725	0.0162358
893.803	0.0161531
893.881	0.0161665
893.959	0.0160829
894.038	0.0160035
894.116	0.0159215
894.194	0.0159167
894.272	0.0157602
894.350	0.0157686
894.428	0.0157516
894.506	0.0155723
894.584	0.0155388
894.663	0.0156626
894.741	0.0156232
894.819	0.0155297
894.897	0.0156805
894.975	0.0155759
895.053	0.0156409
895.131	0.0156112
895.209	0.0156799
895.288	0.0155612
895.366	0.0156927
895.444	0.0156852
895.522	0.0156121
895.600	0.0155886
895.678	0.0157985
895.756	0.0158327
895.834	0.0156374
895.913	0.0157903
895.991	0.0156782
896.069	0.0156255
896.147	0.0156892
896.225	0.0157448
896.303	0.0157539
896.381	0.0157626
896.459	0.0159026
896.538	0.0158414
896.616	0.0158855
896.694	0.0160491
896.772	0.0160962
896.850	0.0160451
896.928	0.0160436
897.006	0.0160796
897.084	0.0160999
897.163	0.0160777
897.241	0.0160876
897.319	0.0160230
897.397	0.0159581
897.475	0.0158111
897.553	0.0158060
897.631	0.0156831
897.709	0.0157538
897.788	0.0154199
897.866	0.0155856
897.944	0.0156293
898.022	0.0154633
898.100	0.0153719
898.178	0.0154333
898.256	0.0154921
898.334	0.0154585
898.413	0.0154496
898.491	0.0155313
898.569	0.0155484
898.647	0.0156314
898.725	0.0155974
898.803	0.0156490
898.881	0.0155943
898.959	0.0157433
899.038	0.0156153
899.116	0.0157358
899.194	0.0156879
899.272	0.0157026
899.350	0.0157677
899.428	0.0156144
899.506	0.0158564
899.584	0.0157972
899.663	0.0157604
899.741	0.0159299
899.819	0.0159156
899.897	0.0159087
899.975	0.0160074
900.053	0.0160513
900.131	0.0161593
900.209	0.0160937
900.288	0.0160742
900.366	0.0161375
900.444	0.0161211
900.522	0.0159975
900.600	0.0158305
900.678	0.0158755
900.756	0.0157393
900.834	0.0159238
900.913	0.0158308
900.991	0.0155996
901.069	0.0155646
901.147	0.0156158
901.225	0.0154147
901.303	0.0154652
901.381	0.0153360
901.459	0.0153706
901.538	0.0153720
901.616	0.0152479
901.694	0.0152605
901.772	0.0153692
901.850	0.0153454
901.928	0.0154492
902.006	0.0153200
902.084	0.0154280
902.163	0.0156505
902.241	0.0157156
902.319	0.0157728
902.397	0.0160174
902.475	0.0160851
902.553	0.0162321
902.631	0.0161163
902.709	0.0160674
902.788	0.0163226
902.866	0.0163363
902.944	0.0162087
903.022	0.0161745
903.100	0.0161301
903.178	0.0161215
903.256	0.0160895
903.334	0.0159879
903.413	0.0159346
903.491	0.0159419
903.569	0.0158569
903.647	0.0156767
903.725	0.0157804
903.803	0.0157233
903.881	0.0156708
903.959	0.0156979
904.038	0.0156219
904.116	0.0156109
904.194	0.0156365
904.272	0.0156319
904.350	0.0156695
904.428	0.0157339
904.506	0.0155695
904.584	0.0156482
904.663	0.0157555
904.741	0.0156757
904.819	0.0158205
904.897	0.0158230
904.975	0.0157072
905.053	0.0157598
905.131	0.0156644
905.209	0.0154926
905.288	0.0155276
905.366	0.0154693
905.444	0.0155331
905.522	0.0153794
905.600	0.0153867
905.678	0.0153785
905.756	0.0153465
905.834	0.0153673
905.913	0.0153307
905.991	0.0154723
906.069	0.0156233
906.147	0.0155222
906.225	0.0156422
906.303	0.0157887
906.381	0.0157877
906.459	0.0158810
906.538	0.0158839
906.616	0.0157931
906.694	0.0158949
906.772	0.0158360
906.850	0.0158868
906.928	0.0159517
907.006	0.0158950
907.084	0.0159361
907.163	0.0158483
907.241	0.0158978
907.319	0.0159549
907.397	0.0158155
907.475	0.0156458
907.553	0.0158492
907.631	0.0158691
907.709	0.0157903
907.788	0.0156815
907.866	0.0157703
907.944	0.0156559
908.022	0.0157352
908.100	0.0158295
908.178	0.0156461
908.256	0.0156551
908.334	0.0156697
908.413	0.0156761
908.491	0.0156368
908.569	0.0156213
908.647	0.0158032
908.725	0.0157458
908.803	0.0157944
908.881	0.0158433
908.959	0.0156937
909.038	0.0157199
909.116	0.0159576
909.194	0.0160120
909.272	0.0159719
909.350	0.0158428
909.428	0.0159344
909.506	0.0159739
909.584	0.0158414
909.663	0.0158701
909.741	0.0158113
909.819	0.0157979
909.897	0.0157207
909.975	0.0156996
910.053	0.0155635
910.131	0.0155251
910.209	0.0154917
910.288	0.0153413
910.366	0.0152933
910.444	0.0153647
910.522	0.0153146
910.600	0.0153896
910.678	0.0153133
910.756	0.0154131
910.834	0.0155318
910.913	0.0153860
910.991	0.0155511
911.069	0.0155768
911.147	0.0155808
911.225	0.0157261
911.303	0.0158499
911.381	0.0158093
911.459	0.0159865
911.538	0.0161111
911.616	0.0161066
911.694	0.0158949
911.772	0.0160999
911.850	0.0162642
911.928	0.0162080
912.006	0.0162328
912.084	0.0163859
912.163	0.0163206
912.241	0.0162695
912.319	0.0159864
912.397	0.0159482
912.475	0.0159196
912.553	0.0159810
912.631	0.0159169
912.709	0.0158306
912.788	0.0156595
912.866	0.0155496
912.944	0.0156071
913.022	0.0156191
913.100	0.0155026
913.178	0.0155355
913.256	0.0155803
913.334	0.0155663
913.413	0.0155585
913.491	0.0156288
913.569	0.0155975
913.647	0.0154699
913.725	0.0156279
913.803	0.0156741
913.881	0.0158247
913.959	0.0158088
914.038	0.0157947
914.116	0.0158654
914.194	0.0158526
914.272	0.0159658
914.350	0.0159177
914.428	0.0158801
914.506	0.0159259
914.584	0.0159316
914.663	0.0158685
914.741	0.0159911
914.819	0.0159399
914.897	0.0159627
914.975	0.0159235
915.053	0.0160161
915.131	0.0158525
915.209	0.0158437
915.288	0.0160138
915.366	0.0160350
915.444	0.0159484
915.522	0.0159016
915.600	0.0158721
915.678	0.0159483
915.756	0.0159798
915.834	0.0158945
915.913	0.0158563
915.991	0.0156708
916.069	0.0160028
916.147	0.0159422
916.225	0.0157503
916.303	0.0158884
916.381	0.0158253
916.459	0.0160076
916.538	0.0158029
916.616	0.0158640
916.694	0.0157361
916.772	0.0157693
916.850	0.0158820
916.928	0.0158152
917.006	0.0157723
917.084	0.0157739
917.163	0.0156708
917.241	0.0158851
917.319	0.0157385
917.397	0.0157386
917.475	0.0157836
917.553	0.0158797
917.631	0.0158440
917.709	0.0157260
917.788	0.0159614
917.866	0.0159642
917.944	0.0159503
918.022	0.0160815
918.100	0.0160207
918.178	0.0159817
918.256	0.0158657
918.334	0.0158858
918.413	0.0158566
918.491	0.0159274
918.569	0.0159641
918.647	0.0158304
918.725	0.0159212
918.803	0.0158755
918.881	0.0157545
918.959	0.0157658
919.038	0.0157488
919.116	0.0159315
919.194	0.0157382
919.272	0.0157493
919.350	0.0155611
919.428	0.0156167
919.506	0.0155238
919.584	0.0155917
919.663	0.0154656
919.741	0.0154592
919.819	0.0155780
919.897	0.0155780
