05/20/2022	21:01:53	Ver.	4.1	UNKNOWN
Optical Delay	599.975067	Delta X		0.078125	Sweeps	1	Scan Rate	0/0
Coordinates	Axis 1	NaN	Axis 2	NaN	Axis 3	NaN	Axis 4	NaN	Axis 5	NaN	Axis 6	0.000000
TX Power	0.000000	RX Power	0.000000

599.975	0.0163841
600.053	0.0164615
600.131	0.0165816
600.209	0.0164611
600.288	0.0166394
600.366	0.0165171
600.444	0.0165284
600.522	0.0165958
600.600	0.0165641
600.678	0.0164507
600.756	0.0165802
600.834	0.0166222
600.913	0.0164841
600.991	0.0165188
601.069	0.0164816
601.147	0.0165754
601.225	0.0164872
601.303	0.0166815
601.381	0.0166272
601.459	0.0166233
601.538	0.0165197
601.616	0.0164532
601.694	0.0167033
601.772	0.0166389
601.850	0.0165908
601.928	0.0164232
602.006	0.0166534
602.084	0.0166044
602.163	0.0166422
602.241	0.0166772
602.319	0.0166602
602.397	0.0165462
602.475	0.0167577
602.553	0.0166228
602.631	0.0166856
602.709	0.0166090
602.788	0.0165036
602.866	0.0166885
602.944	0.0166167
603.022	0.0166109
603.100	0.0166149
603.178	0.0165921
603.256	0.0166062
603.334	0.0166220
603.413	0.0166287
603.491	0.0166385
603.569	0.0165883
603.647	0.0165881
603.725	0.0166334
603.803	0.0166040
603.881	0.0164643
603.959	0.0165359
604.038	0.0166272
604.116	0.0167008
604.194	0.0166530
604.272	0.0165643
604.350	0.0165731
604.428	0.0165754
604.506	0.0165424
604.584	0.0164834
604.663	0.0166805
604.741	0.0165712
604.819	0.0164739
604.897	0.0165358
604.975	0.0165813
605.053	0.0164921
605.131	0.0165231
605.209	0.0166602
605.288	0.0165001
605.366	0.0166405
605.444	0.0166058
605.522	0.0164811
605.600	0.0165073
605.678	0.0166476
605.756	0.0165221
605.834	0.0165185
605.913	0.0164594
605.991	0.0164511
606.069	0.0166068
606.147	0.0165253
606.225	0.0165652
606.303	0.0166091
606.381	0.0165887
606.459	0.0165582
606.538	0.0164230
606.616	0.0166341
606.694	0.0164239
606.772	0.0165335
606.850	0.0164995
606.928	0.0165386
607.006	0.0165392
607.084	0.0164952
607.163	0.0163625
607.241	0.0165678
607.319	0.0164602
607.397	0.0164777
607.475	0.0166107
607.553	0.0163764
607.631	0.0164457
607.709	0.0164869
607.788	0.0164610
607.866	0.0165185
607.944	0.0164461
608.022	0.0165157
608.100	0.0164722
608.178	0.0164101
608.256	0.0165694
608.334	0.0165655
608.413	0.0162673
608.491	0.0164336
608.569	0.0164283
608.647	0.0165307
608.725	0.0163793
608.803	0.0162969
608.881	0.0164526
608.959	0.0165607
609.038	0.0166081
609.116	0.0164712
609.194	0.0165304
609.272	0.0164060
609.350	0.0164510
609.428	0.0164941
609.506	0.0166115
609.584	0.0165850
609.663	0.0164939
609.741	0.0165620
609.819	0.0165724
609.897	0.0166324
609.975	0.0164983
610.053	0.0164063
610.131	0.0164857
610.209	0.0166013
610.288	0.0164903
610.366	0.0164945
610.444	0.0165514
610.522	0.0166578
610.600	0.0164659
610.678	0.0165639
610.756	0.0165619
610.834	0.0164820
610.913	0.0165215
610.991	0.0165595
611.069	0.0164180
611.147	0.0164107
611.225	0.0163711
611.303	0.0164258
611.381	0.0163940
611.459	0.0164497
611.538	0.0164227
611.616	0.0164630
611.694	0.0164589
611.772	0.0165076
611.850	0.0164156
611.928	0.0163600
612.006	0.0164011
612.084	0.0164565
612.163	0.0163303
612.241	0.0164227
612.319	0.0163003
612.397	0.0161895
612.475	0.0163744
612.553	0.0164196
612.631	0.0163140
612.709	0.0162997
612.788	0.0163139
612.866	0.0164014
612.944	0.0163452
613.022	0.0162094
613.100	0.0161822
613.178	0.0162820
613.256	0.0163612
613.334	0.0162370
613.413	0.0160962
613.491	0.0162006
613.569	0.0161922
613.647	0.0162727
613.725	0.0162774
613.803	0.0163510
613.881	0.0162618
613.959	0.0162650
614.038	0.0162931
614.116	0.0161804
614.194	0.0162479
614.272	0.0162638
614.350	0.0162039
614.428	0.0161857
614.506	0.0162884
614.584	0.0162280
614.663	0.0162875
614.741	0.0164053
614.819	0.0163254
614.897	0.0162505
614.975	0.0162702
615.053	0.0162450
615.131	0.0162712
615.209	0.0161515
615.288	0.0161061
615.366	0.0161091
615.444	0.0162753
615.522	0.0162586
615.600	0.0162977
615.678	0.0163731
615.756	0.0162006
615.834	0.0162018
615.913	0.0163663
615.991	0.0162474
616.069	0.0161920
616.147	0.0162782
616.225	0.0161195
616.303	0.0162946
616.381	0.0162238
616.459	0.0162225
616.538	0.0162877
616.616	0.0161823
616.694	0.0162414
616.772	0.0163745
616.850	0.0162547
616.928	0.0163400
617.006	0.0164170
617.084	0.0162914
617.163	0.0162735
617.241	0.0162603
617.319	0.0163095
617.397	0.0162799
617.475	0.0161890
617.553	0.0162974
617.631	0.0163761
617.709	0.0162153
617.788	0.0163412
617.866	0.0162467
617.944	0.0162938
618.022	0.0162722
618.100	0.0163894
618.178	0.0163727
618.256	0.0162336
618.334	0.0162760
618.413	0.0163301
618.491	0.0162720
618.569	0.0163489
618.647	0.0163589
618.725	0.0162458
618.803	0.0163740
618.881	0.0163569
618.959	0.0162463
619.038	0.0163224
619.116	0.0162402
619.194	0.0162286
619.272	0.0162649
619.350	0.0161448
619.428	0.0163197
619.506	0.0163458
619.584	0.0162495
619.663	0.0164257
619.741	0.0162494
619.819	0.0162301
619.897	0.0164335
619.975	0.0162999
620.053	0.0162881
620.131	0.0163300
620.209	0.0164483
620.288	0.0163364
620.366	0.0163812
620.444	0.0164274
620.522	0.0165045
620.600	0.0163739
620.678	0.0164678
620.756	0.0164368
620.834	0.0164484
620.913	0.0164056
620.991	0.0164533
621.069	0.0164449
621.147	0.0164298
621.225	0.0164508
621.303	0.0164366
621.381	0.0164086
621.459	0.0164477
621.538	0.0164909
621.616	0.0163939
621.694	0.0165325
621.772	0.0164344
621.850	0.0165054
621.928	0.0163745
622.006	0.0164304
622.084	0.0165615
622.163	0.0164525
622.241	0.0165604
622.319	0.0164460
622.397	0.0165416
622.475	0.0165468
622.553	0.0163872
622.631	0.0164716
622.709	0.0166373
622.788	0.0164841
622.866	0.0164893
622.944	0.0164027
623.022	0.0164882
623.100	0.0164759
623.178	0.0166721
623.256	0.0165953
623.334	0.0164391
623.413	0.0166762
623.491	0.0165578
623.569	0.0165089
623.647	0.0163840
623.725	0.0166068
623.803	0.0165589
623.881	0.0164145
623.959	0.0164174
624.038	0.0165306
624.116	0.0164792
624.194	0.0164646
624.272	0.0165117
624.350	0.0166153
624.428	0.0166348
624.506	0.0166158
624.584	0.0164452
624.663	0.0165622
624.741	0.0165315
624.819	0.0165978
624.897	0.0166453
624.975	0.0166781
625.053	0.0166310
625.131	0.0164334
625.209	0.0165117
625.288	0.0166855
625.366	0.0166663
625.444	0.0165289
625.522	0.0165750
625.600	0.0166431
625.678	0.0165897
625.756	0.0168062
625.834	0.0166785
625.913	0.0165472
625.991	0.0165272
626.069	0.0165563
626.147	0.0164838
626.225	0.0165376
626.303	0.0164714
626.381	0.0166211
626.459	0.0165474
626.538	0.0164697
626.616	0.0165954
626.694	0.0164145
626.772	0.0164474
626.850	0.0166265
626.928	0.0164594
627.006	0.0164895
627.084	0.0164989
627.163	0.0166540
627.241	0.0165220
627.319	0.0163454
627.397	0.0165430
627.475	0.0164845
627.553	0.0164357
627.631	0.0165092
627.709	0.0165337
627.788	0.0164983
627.866	0.0163648
627.944	0.0165472
628.022	0.0164880
628.100	0.0165724
628.178	0.0165388
628.256	0.0164780
628.334	0.0165105
628.413	0.0164254
628.491	0.0166104
628.569	0.0165746
628.647	0.0164150
628.725	0.0164687
628.803	0.0165321
628.881	0.0164642
628.959	0.0166444
629.038	0.0165041
629.116	0.0164674
629.194	0.0164395
629.272	0.0165510
629.350	0.0163096
629.428	0.0165988
629.506	0.0165456
629.584	0.0165215
629.663	0.0162984
629.741	0.0165230
629.819	0.0164434
629.897	0.0164291
629.975	0.0165204
630.053	0.0164410
630.131	0.0164951
630.209	0.0163924
630.288	0.0164970
630.366	0.0165302
630.444	0.0164715
630.522	0.0164342
630.600	0.0164523
630.678	0.0164989
630.756	0.0165005
630.834	0.0164654
630.913	0.0165131
630.991	0.0164811
631.069	0.0164094
631.147	0.0166180
631.225	0.0166038
631.303	0.0166144
631.381	0.0165567
631.459	0.0165419
631.538	0.0164890
631.616	0.0166402
631.694	0.0165096
631.772	0.0166045
631.850	0.0165987
631.928	0.0163618
632.006	0.0164909
632.084	0.0165417
632.163	0.0164994
632.241	0.0165498
632.319	0.0166759
632.397	0.0165022
632.475	0.0166280
632.553	0.0165192
632.631	0.0165829
632.709	0.0165256
632.788	0.0165820
632.866	0.0163686
632.944	0.0164702
633.022	0.0165427
633.100	0.0164904
633.178	0.0164618
633.256	0.0163099
633.334	0.0165413
633.413	0.0165124
633.491	0.0164065
633.569	0.0163963
633.647	0.0166470
633.725	0.0165361
633.803	0.0164565
633.881	0.0166032
633.959	0.0163352
634.038	0.0166355
634.116	0.0165960
634.194	0.0165320
634.272	0.0165305
634.350	0.0165829
634.428	0.0166280
634.506	0.0164833
634.584	0.0166439
634.663	0.0165827
634.741	0.0165554
634.819	0.0164378
634.897	0.0165837
634.975	0.0165801
635.053	0.0165627
635.131	0.0164749
635.209	0.0163953
635.288	0.0164153
635.366	0.0165356
635.444	0.0163769
635.522	0.0163838
635.600	0.0163772
635.678	0.0164602
635.756	0.0164658
635.834	0.0164207
635.913	0.0164639
635.991	0.0164111
636.069	0.0164562
636.147	0.0164272
636.225	0.0163910
636.303	0.0163696
636.381	0.0164184
636.459	0.0164146
636.538	0.0164604
636.616	0.0165844
636.694	0.0163306
636.772	0.0163178
636.850	0.0165270
636.928	0.0163900
637.006	0.0164556
637.084	0.0164645
637.163	0.0164437
637.241	0.0165246
637.319	0.0163410
637.397	0.0164777
637.475	0.0164159
637.553	0.0164010
637.631	0.0163451
637.709	0.0163445
637.788	0.0163641
637.866	0.0164343
637.944	0.0163295
638.022	0.0164044
638.100	0.0164230
638.178	0.0164520
638.256	0.0163368
638.334	0.0163645
638.413	0.0162161
638.491	0.0162692
638.569	0.0163686
638.647	0.0163972
638.725	0.0164745
638.803	0.0164943
638.881	0.0163782
638.959	0.0164410
639.038	0.0164008
639.116	0.0162350
639.194	0.0163963
639.272	0.0162954
639.350	0.0162878
639.428	0.0163653
639.506	0.0164503
639.584	0.0163414
639.663	0.0164284
639.741	0.0164143
639.819	0.0164445
639.897	0.0162542
639.975	0.0163910
640.053	0.0163643
640.131	0.0163482
640.209	0.0163839
640.288	0.0164795
640.366	0.0162381
640.444	0.0163860
640.522	0.0164014
640.600	0.0163369
640.678	0.0163716
640.756	0.0163834
640.834	0.0163034
640.913	0.0164442
640.991	0.0163306
641.069	0.0164458
641.147	0.0162721
641.225	0.0165305
641.303	0.0164486
641.381	0.0165112
641.459	0.0163549
641.538	0.0164687
641.616	0.0163679
641.694	0.0164212
641.772	0.0164590
641.850	0.0162688
641.928	0.0163942
642.006	0.0163835
642.084	0.0163142
642.163	0.0163333
642.241	0.0163392
642.319	0.0162833
642.397	0.0164384
642.475	0.0164605
642.553	0.0164491
642.631	0.0162489
642.709	0.0163913
642.788	0.0165043
642.866	0.0162423
642.944	0.0163442
643.022	0.0163988
643.100	0.0162752
643.178	0.0163802
643.256	0.0163390
643.334	0.0163061
643.413	0.0163373
643.491	0.0163074
643.569	0.0163217
643.647	0.0162115
643.725	0.0162636
643.803	0.0163067
643.881	0.0162650
643.959	0.0163602
644.038	0.0163899
644.116	0.0163482
644.194	0.0162679
644.272	0.0164337
644.350	0.0164247
644.428	0.0163300
644.506	0.0163704
644.584	0.0163781
644.663	0.0164078
644.741	0.0163163
644.819	0.0164395
644.897	0.0165186
644.975	0.0163504
645.053	0.0163027
645.131	0.0164896
645.209	0.0164980
645.288	0.0163317
645.366	0.0163208
645.444	0.0165520
645.522	0.0165119
645.600	0.0164465
645.678	0.0163739
645.756	0.0164000
645.834	0.0165112
645.913	0.0165748
645.991	0.0164092
646.069	0.0164101
646.147	0.0164375
646.225	0.0164088
646.303	0.0164783
646.381	0.0163944
646.459	0.0164306
646.538	0.0164681
646.616	0.0165393
646.694	0.0164859
646.772	0.0164674
646.850	0.0164359
646.928	0.0164165
647.006	0.0164543
647.084	0.0163741
647.163	0.0164396
647.241	0.0164754
647.319	0.0165633
647.397	0.0164948
647.475	0.0165499
647.553	0.0165565
647.631	0.0164210
647.709	0.0165548
647.788	0.0164890
647.866	0.0165742
647.944	0.0165330
648.022	0.0164563
648.100	0.0164615
648.178	0.0165614
648.256	0.0165596
648.334	0.0164494
648.413	0.0163390
648.491	0.0164145
648.569	0.0165244
648.647	0.0165103
648.725	0.0165159
648.803	0.0163865
648.881	0.0165495
648.959	0.0164709
649.038	0.0164761
649.116	0.0164068
649.194	0.0165584
649.272	0.0164551
649.350	0.0164794
649.428	0.0164775
649.506	0.0164381
649.584	0.0165421
649.663	0.0166161
649.741	0.0164260
649.819	0.0163494
649.897	0.0164963
649.975	0.0164413
650.053	0.0166402
650.131	0.0164375
650.209	0.0165279
650.288	0.0166757
650.366	0.0165066
650.444	0.0166293
650.522	0.0164881
650.600	0.0166538
650.678	0.0165157
650.756	0.0165652
650.834	0.0166660
650.913	0.0165028
650.991	0.0164674
651.069	0.0165327
651.147	0.0164568
651.225	0.0163615
651.303	0.0164378
651.381	0.0164977
651.459	0.0163760
651.538	0.0165405
651.616	0.0165045
651.694	0.0164441
651.772	0.0165441
651.850	0.0165868
651.928	0.0165148
652.006	0.0164446
652.084	0.0164701
652.163	0.0164333
652.241	0.0163677
652.319	0.0164967
652.397	0.0164043
652.475	0.0162423
652.553	0.0164163
652.631	0.0163986
652.709	0.0165802
652.788	0.0165748
652.866	0.0164458
652.944	0.0164861
653.022	0.0164864
653.100	0.0164803
653.178	0.0165848
653.256	0.0167142
653.334	0.0166190
653.413	0.0166920
653.491	0.0165846
653.569	0.0166492
653.647	0.0166776
653.725	0.0167487
653.803	0.0166297
653.881	0.0166856
653.959	0.0166297
654.038	0.0165157
654.116	0.0165160
654.194	0.0165929
654.272	0.0165080
654.350	0.0164522
654.428	0.0165084
654.506	0.0163387
654.584	0.0164257
654.663	0.0164044
654.741	0.0163242
654.819	0.0162265
654.897	0.0162739
654.975	0.0162432
655.053	0.0163029
655.131	0.0162559
655.209	0.0161381
655.288	0.0161799
655.366	0.0163080
655.444	0.0163812
655.522	0.0163423
655.600	0.0164693
655.678	0.0164566
655.756	0.0165411
655.834	0.0166402
655.913	0.0166975
655.991	0.0167029
656.069	0.0166829
656.147	0.0166429
656.225	0.0166132
656.303	0.0167273
656.381	0.0167873
656.459	0.0166940
656.538	0.0165807
656.616	0.0168180
656.694	0.0168883
656.772	0.0166115
656.850	0.0166188
656.928	0.0166458
657.006	0.0166575
657.084	0.0165520
657.163	0.0164857
657.241	0.0164867
657.319	0.0164846
657.397	0.0164448
657.475	0.0164877
657.553	0.0162390
657.631	0.0163979
657.709	0.0163816
657.788	0.0162483
657.866	0.0162827
657.944	0.0163660
658.022	0.0164097
658.100	0.0163431
658.178	0.0163814
658.256	0.0163404
658.334	0.0162575
658.413	0.0164181
658.491	0.0163512
658.569	0.0163081
658.647	0.0163634
658.725	0.0162485
658.803	0.0161855
658.881	0.0162554
658.959	0.0162482
659.038	0.0161876
659.116	0.0162244
659.194	0.0163727
659.272	0.0163127
659.350	0.0162397
659.428	0.0162519
659.506	0.0163305
659.584	0.0162337
659.663	0.0162801
659.741	0.0162835
659.819	0.0163106
659.897	0.0163286
659.975	0.0163933
660.053	0.0163940
660.131	0.0164121
660.209	0.0164542
660.288	0.0165730
660.366	0.0166125
660.444	0.0164912
660.522	0.0165261
660.600	0.0167630
660.678	0.0165237
660.756	0.0165874
660.834	0.0165029
660.913	0.0165200
660.991	0.0164606
661.069	0.0165549
661.147	0.0165345
661.225	0.0164392
661.303	0.0164561
661.381	0.0164922
661.459	0.0164079
661.538	0.0164064
661.616	0.0164365
661.694	0.0162393
661.772	0.0162843
661.850	0.0162734
661.928	0.0163152
662.006	0.0161998
662.084	0.0162447
662.163	0.0161290
662.241	0.0161411
662.319	0.0160928
662.397	0.0161246
662.475	0.0160851
662.553	0.0162088
662.631	0.0161052
662.709	0.0161327
662.788	0.0161585
662.866	0.0161407
662.944	0.0161259
663.022	0.0161749
663.100	0.0163747
663.178	0.0165214
663.256	0.0163608
663.334	0.0163826
663.413	0.0164148
663.491	0.0165862
663.569	0.0166538
663.647	0.0165876
663.725	0.0167237
663.803	0.0169415
663.881	0.0167734
663.959	0.0166665
664.038	0.0167954
664.116	0.0167936
664.194	0.0169487
664.272	0.0169105
664.350	0.0169680
664.428	0.0168054
664.506	0.0169815
664.584	0.0168432
664.663	0.0168604
664.741	0.0167187
664.819	0.0166826
664.897	0.0166231
664.975	0.0165437
665.053	0.0165205
665.131	0.0165283
665.209	0.0164820
665.288	0.0162068
665.366	0.0162218
665.444	0.0162437
665.522	0.0161342
665.600	0.0160203
665.678	0.0160077
665.756	0.0161444
665.834	0.0159885
665.913	0.0160525
665.991	0.0159729
666.069	0.0159812
666.147	0.0160886
666.225	0.0160709
666.303	0.0160861
666.381	0.0161631
666.459	0.0162801
666.538	0.0162881
666.616	0.0164124
666.694	0.0164129
666.772	0.0164301
666.850	0.0164941
666.928	0.0165826
667.006	0.0164634
667.084	0.0165609
667.163	0.0165205
667.241	0.0166303
667.319	0.0166390
667.397	0.0165903
667.475	0.0167417
667.553	0.0168279
667.631	0.0167387
667.709	0.0168453
667.788	0.0168465
667.866	0.0169150
667.944	0.0167722
668.022	0.0168374
668.100	0.0167311
668.178	0.0169160
668.256	0.0168486
668.334	0.0170215
668.413	0.0169568
668.491	0.0167155
668.569	0.0167278
668.647	0.0168824
668.725	0.0166794
668.803	0.0165723
668.881	0.0164185
668.959	0.0164333
669.038	0.0164059
669.116	0.0162698
669.194	0.0163026
669.272	0.0161318
669.350	0.0159912
669.428	0.0160681
669.506	0.0159827
669.584	0.0159737
669.663	0.0158635
669.741	0.0159400
669.819	0.0159207
669.897	0.0158089
669.975	0.0157603
670.053	0.0159200
670.131	0.0159481
670.209	0.0159085
670.288	0.0160081
670.366	0.0160550
670.444	0.0162067
670.522	0.0163271
670.600	0.0164574
670.678	0.0164175
670.756	0.0164406
670.834	0.0166702
670.913	0.0167676
670.991	0.0166843
671.069	0.0168972
671.147	0.0168258
671.225	0.0168186
671.303	0.0170056
671.381	0.0169576
671.459	0.0168096
671.538	0.0169716
671.616	0.0168470
671.694	0.0167760
671.772	0.0167941
671.850	0.0167165
671.928	0.0163922
672.006	0.0164555
672.084	0.0165490
672.163	0.0163338
672.241	0.0163616
672.319	0.0162772
672.397	0.0162701
672.475	0.0163125
672.553	0.0161320
672.631	0.0161625
672.709	0.0161225
672.788	0.0161546
672.866	0.0162073
672.944	0.0161198
673.022	0.0162381
673.100	0.0162283
673.178	0.0162311
673.256	0.0164094
673.334	0.0163569
673.413	0.0163877
673.491	0.0163383
673.569	0.0163934
673.647	0.0164075
673.725	0.0164932
673.803	0.0163857
673.881	0.0163250
673.959	0.0164008
674.038	0.0163407
674.116	0.0163100
674.194	0.0163633
674.272	0.0162868
674.350	0.0162246
674.428	0.0164206
674.506	0.0161874
674.584	0.0162568
674.663	0.0163865
674.741	0.0163665
674.819	0.0164133
674.897	0.0164304
674.975	0.0165095
675.053	0.0164542
675.131	0.0164982
675.209	0.0164573
675.288	0.0166038
675.366	0.0165703
675.444	0.0167345
675.522	0.0167092
675.600	0.0166652
675.678	0.0166482
675.756	0.0167545
675.834	0.0166327
675.913	0.0166988
675.991	0.0166812
676.069	0.0167309
676.147	0.0165358
676.225	0.0164500
676.303	0.0164589
676.381	0.0164960
676.459	0.0163679
676.538	0.0161958
676.616	0.0161869
676.694	0.0162280
676.772	0.0161262
676.850	0.0161567
676.928	0.0161559
677.006	0.0161703
677.084	0.0163197
677.163	0.0161900
677.241	0.0162901
677.319	0.0162301
677.397	0.0162098
677.475	0.0162649
677.553	0.0163091
677.631	0.0161775
677.709	0.0164262
677.788	0.0164491
677.866	0.0163697
677.944	0.0164751
678.022	0.0165580
678.100	0.0163920
678.178	0.0164787
678.256	0.0166431
678.334	0.0166263
678.413	0.0166302
678.491	0.0166224
678.569	0.0165234
678.647	0.0167104
678.725	0.0166002
678.803	0.0166312
678.881	0.0165618
678.959	0.0165657
679.038	0.0165504
679.116	0.0165348
679.194	0.0164843
679.272	0.0163629
679.350	0.0163664
679.428	0.0162429
679.506	0.0161187
679.584	0.0161877
679.663	0.0162904
679.741	0.0161375
679.819	0.0162505
679.897	0.0162679
679.975	0.0163320
680.053	0.0163950
680.131	0.0164661
680.209	0.0164926
680.288	0.0165656
680.366	0.0166408
680.444	0.0167052
680.522	0.0169434
680.600	0.0168072
680.678	0.0167033
680.756	0.0167563
680.834	0.0168478
680.913	0.0167338
680.991	0.0165015
681.069	0.0164115
681.147	0.0163570
681.225	0.0160618
681.303	0.0160381
681.381	0.0160392
681.459	0.0158852
681.538	0.0158016
681.616	0.0158883
681.694	0.0159952
681.772	0.0159995
681.850	0.0162035
681.928	0.0163943
682.006	0.0166492
682.084	0.0167561
682.163	0.0170042
682.241	0.0172315
682.319	0.0173546
682.397	0.0173559
682.475	0.0174403
682.553	0.0172586
682.631	0.0173465
682.709	0.0173001
682.788	0.0171266
682.866	0.0169018
682.944	0.0166917
683.022	0.0165201
683.100	0.0163110
683.178	0.0161282
683.256	0.0159737
683.334	0.0158472
683.413	0.0156865
683.491	0.0156963
683.569	0.0156304
683.647	0.0157340
683.725	0.0156133
683.803	0.0156637
683.881	0.0159055
683.959	0.0159512
684.038	0.0159464
684.116	0.0161472
684.194	0.0162811
684.272	0.0163493
684.350	0.0163824
684.428	0.0164354
684.506	0.0163509
684.584	0.0164230
684.663	0.0166171
684.741	0.0166071
684.819	0.0167513
684.897	0.0167465
684.975	0.0167554
685.053	0.0167873
685.131	0.0168668
685.209	0.0169803
685.288	0.0169151
685.366	0.0169432
685.444	0.0169495
685.522	0.0169170
685.600	0.0169862
685.678	0.0168547
685.756	0.0168704
685.834	0.0168214
685.913	0.0166207
685.991	0.0166970
686.069	0.0165994
686.147	0.0164370
686.225	0.0163618
686.303	0.0164700
686.381	0.0163821
686.459	0.0165353
686.538	0.0164532
686.616	0.0164368
686.694	0.0166263
686.772	0.0167280
686.850	0.0166469
686.928	0.0165733
687.006	0.0167004
687.084	0.0168590
687.163	0.0167960
687.241	0.0166151
687.319	0.0166158
687.397	0.0164298
687.475	0.0160444
687.553	0.0159780
687.631	0.0157283
687.709	0.0153913
687.788	0.0152222
687.866	0.0151754
687.944	0.0150283
688.022	0.0149487
688.100	0.0148801
688.178	0.0150435
688.256	0.0150488
688.334	0.0153684
688.413	0.0155006
688.491	0.0159198
688.569	0.0163017
688.647	0.0165409
688.725	0.0169010
688.803	0.0171414
688.881	0.0175610
688.959	0.0177274
689.038	0.0177850
689.116	0.0179469
689.194	0.0180819
689.272	0.0180601
689.350	0.0178024
689.428	0.0178802
689.506	0.0178357
689.584	0.0178815
689.663	0.0178088
689.741	0.0177589
689.819	0.0179153
689.897	0.0179520
689.975	0.0179941
690.053	0.0180387
690.131	0.0181086
690.209	0.0179896
690.288	0.0179799
690.366	0.0178634
690.444	0.0175698
690.522	0.0169743
690.600	0.0168478
690.678	0.0162738
690.756	0.0157744
690.834	0.0152607
690.913	0.0147855
690.991	0.0142892
691.069	0.0136346
691.147	0.0134303
691.225	0.0130756
691.303	0.0129869
691.381	0.0129252
691.459	0.0127972
691.538	0.0130340
691.616	0.0133263
691.694	0.0136469
691.772	0.0139985
691.850	0.0145136
691.928	0.0150804
692.006	0.0156312
692.084	0.0160746
692.163	0.0165524
692.241	0.0173478
692.319	0.0175765
692.397	0.0178400
692.475	0.0183466
692.553	0.0186466
692.631	0.0189589
692.709	0.0189721
692.788	0.0193841
692.866	0.0193444
692.944	0.0193568
693.022	0.0193851
693.100	0.0193703
693.178	0.0192815
693.256	0.0192195
693.334	0.0189146
693.413	0.0186559
693.491	0.0184369
693.569	0.0180901
693.647	0.0175985
693.725	0.0172050
693.803	0.0168002
693.881	0.0162071
693.959	0.0158811
694.038	0.0155236
694.116	0.0151423
694.194	0.0148404
694.272	0.0145422
694.350	0.0143201
694.428	0.0142323
694.506	0.0142919
694.584	0.0142847
694.663	0.0144456
694.741	0.0146473
694.819	0.0147548
694.897	0.0147762
694.975	0.0148195
695.053	0.0149228
695.131	0.0150142
695.209	0.0149900
695.288	0.0150477
695.366	0.0149780
695.444	0.0150063
695.522	0.0150092
695.600	0.0150517
695.678	0.0151019
695.756	0.0151447
695.834	0.0155003
695.913	0.0154540
695.991	0.0157384
696.069	0.0161961
696.147	0.0162788
696.225	0.0166900
696.303	0.0169217
696.381	0.0172295
696.459	0.0175527
696.538	0.0178293
696.616	0.0182900
696.694	0.0185011
696.772	0.0189632
696.850	0.0192221
696.928	0.0196010
697.006	0.0196145
697.084	0.0196548
697.163	0.0197823
697.241	0.0197464
697.319	0.0195309
697.397	0.0193058
697.475	0.0187189
697.553	0.0181993
697.631	0.0176958
697.709	0.0170915
697.788	0.0165159
697.866	0.0158730
697.944	0.0151463
698.022	0.0146667
698.100	0.0142355
698.178	0.0136746
698.256	0.0131965
698.334	0.0132336
698.413	0.0129866
698.491	0.0128789
698.569	0.0127381
698.647	0.0128773
698.725	0.0129218
698.803	0.0130499
698.881	0.0132427
698.959	0.0135753
699.038	0.0139697
699.116	0.0143121
699.194	0.0148862
699.272	0.0154207
699.350	0.0159557
699.428	0.0164904
699.506	0.0170974
699.584	0.0175059
699.663	0.0181216
699.741	0.0186253
699.819	0.0192223
699.897	0.0193927
699.975	0.0197192
700.053	0.0198108
700.131	0.0199242
700.209	0.0198977
700.288	0.0194950
700.366	0.0193072
700.444	0.0191496
700.522	0.0187174
700.600	0.0183616
700.678	0.0178908
700.756	0.0176573
700.834	0.0173208
700.913	0.0171202
700.991	0.0170206
701.069	0.0167747
701.147	0.0165176
701.225	0.0165457
701.303	0.0164374
701.381	0.0164284
701.459	0.0163976
701.538	0.0161741
701.616	0.0158415
701.694	0.0157136
701.772	0.0154859
701.850	0.0152322
701.928	0.0150320
702.006	0.0150039
702.084	0.0147817
702.163	0.0146111
702.241	0.0145124
702.319	0.0145028
702.397	0.0145564
702.475	0.0147057
702.553	0.0148413
702.631	0.0148094
702.709	0.0148797
702.788	0.0148900
702.866	0.0150102
702.944	0.0148168
703.022	0.0148335
703.100	0.0145345
703.178	0.0145477
703.256	0.0146849
703.334	0.0145714
703.413	0.0146107
703.491	0.0146846
703.569	0.0147668
703.647	0.0151317
703.725	0.0156180
703.803	0.0159352
703.881	0.0164557
703.959	0.0169488
704.038	0.0174446
704.116	0.0179060
704.194	0.0183408
704.272	0.0186145
704.350	0.0190329
704.428	0.0192719
704.506	0.0193390
704.584	0.0194266
704.663	0.0194817
704.741	0.0194658
704.819	0.0192090
704.897	0.0192879
704.975	0.0190775
705.053	0.0189149
705.131	0.0189111
705.209	0.0185342
705.288	0.0183551
705.366	0.0181161
705.444	0.0180521
705.522	0.0177969
705.600	0.0177133
705.678	0.0174918
705.756	0.0173026
705.834	0.0170477
705.913	0.0168603
705.991	0.0165587
706.069	0.0163487
706.147	0.0161211
706.225	0.0157157
706.303	0.0153803
706.381	0.0151992
706.459	0.0150435
706.538	0.0146470
706.616	0.0147144
706.694	0.0145224
706.772	0.0143491
706.850	0.0143944
706.928	0.0145401
707.006	0.0144401
707.084	0.0143596
707.163	0.0144929
707.241	0.0144727
707.319	0.0142388
707.397	0.0143279
707.475	0.0141826
707.553	0.0141834
707.631	0.0140939
707.709	0.0140715
707.788	0.0139415
707.866	0.0141707
707.944	0.0142752
708.022	0.0143868
708.100	0.0146024
708.178	0.0149416
708.256	0.0154134
708.334	0.0156217
708.413	0.0160677
708.491	0.0163937
708.569	0.0167788
708.647	0.0172176
708.725	0.0174541
708.803	0.0177724
708.881	0.0182497
708.959	0.0183344
709.038	0.0188265
709.116	0.0191350
709.194	0.0193692
709.272	0.0195481
709.350	0.0196003
709.428	0.0194875
709.506	0.0192922
709.584	0.0193194
709.663	0.0191839
709.741	0.0187560
709.819	0.0184015
709.897	0.0178426
709.975	0.0175468
710.053	0.0171862
710.131	0.0168710
710.209	0.0166154
710.288	0.0163496
710.366	0.0162238
710.444	0.0162014
710.522	0.0163614
710.600	0.0164442
710.678	0.0168312
710.756	0.0169267
710.834	0.0172791
710.913	0.0172796
710.991	0.0172736
711.069	0.0173653
711.147	0.0171520
711.225	0.0169327
711.303	0.0166734
711.381	0.0163945
711.459	0.0161447
711.538	0.0156679
711.616	0.0155591
711.694	0.0154057
711.772	0.0150880
711.850	0.0149382
711.928	0.0147066
712.006	0.0144991
712.084	0.0143073
712.163	0.0142451
712.241	0.0141022
712.319	0.0139170
712.397	0.0138268
712.475	0.0140417
712.553	0.0139439
712.631	0.0139913
712.709	0.0140581
712.788	0.0142628
712.866	0.0146294
712.944	0.0150284
713.022	0.0154604
713.100	0.0158727
713.178	0.0162032
713.256	0.0167901
713.334	0.0170979
713.413	0.0175608
713.491	0.0176694
713.569	0.0178340
713.647	0.0178638
713.725	0.0177467
713.803	0.0177543
713.881	0.0177046
713.959	0.0175002
714.038	0.0172245
714.116	0.0168193
714.194	0.0166934
714.272	0.0165895
714.350	0.0164424
714.428	0.0164906
714.506	0.0164243
714.584	0.0166843
714.663	0.0167654
714.741	0.0168334
714.819	0.0168509
714.897	0.0170156
714.975	0.0169724
715.053	0.0168364
715.131	0.0168376
715.209	0.0168057
715.288	0.0164710
715.366	0.0163915
715.444	0.0162775
715.522	0.0161599
715.600	0.0163282
715.678	0.0164034
715.756	0.0165073
715.834	0.0166752
715.913	0.0168678
715.991	0.0171564
716.069	0.0172169
716.147	0.0175900
716.225	0.0175483
716.303	0.0176153
716.381	0.0178207
716.459	0.0178136
716.538	0.0178575
716.616	0.0178448
716.694	0.0177343
716.772	0.0176022
716.850	0.0174806
716.928	0.0172917
717.006	0.0170022
717.084	0.0167914
717.163	0.0165582
717.241	0.0162894
717.319	0.0160461
717.397	0.0159035
717.475	0.0158376
717.553	0.0157359
717.631	0.0154902
717.709	0.0154412
717.788	0.0154676
717.866	0.0153380
717.944	0.0151813
718.022	0.0151540
718.100	0.0151067
718.178	0.0148505
718.256	0.0147787
718.334	0.0148899
718.413	0.0148167
718.491	0.0145844
718.569	0.0146288
718.647	0.0147160
718.725	0.0148920
718.803	0.0151308
718.881	0.0152042
718.959	0.0154807
719.038	0.0154152
719.116	0.0156124
719.194	0.0157523
719.272	0.0157278
719.350	0.0157097
719.428	0.0158475
719.506	0.0157906
719.584	0.0158171
719.663	0.0159521
719.741	0.0160903
719.819	0.0163602
719.897	0.0165359
719.975	0.0166877
720.053	0.0168327
720.131	0.0171664
720.209	0.0172156
720.288	0.0174615
720.366	0.0177126
720.444	0.0179045
720.522	0.0180495
720.600	0.0181004
720.678	0.0181052
720.756	0.0181821
720.834	0.0182868
720.913	0.0180783
720.991	0.0179827
721.069	0.0179136
721.147	0.0180658
721.225	0.0180307
721.303	0.0177690
721.381	0.0177908
721.459	0.0176902
721.538	0.0175465
721.616	0.0173356
721.694	0.0170798
721.772	0.0167355
721.850	0.0163679
721.928	0.0158820
722.006	0.0156136
722.084	0.0152806
722.163	0.0148656
722.241	0.0146896
722.319	0.0146976
722.397	0.0146537
722.475	0.0148556
722.553	0.0149738
722.631	0.0152707
722.709	0.0157447
722.788	0.0161462
722.866	0.0165397
722.944	0.0167163
723.022	0.0167899
723.100	0.0169932
723.178	0.0170407
723.256	0.0171138
723.334	0.0170342
723.413	0.0168501
723.491	0.0164648
723.569	0.0162826
723.647	0.0161732
723.725	0.0160608
723.803	0.0157462
723.881	0.0157695
723.959	0.0157738
724.038	0.0158071
724.116	0.0160497
724.194	0.0162852
724.272	0.0163985
724.350	0.0166219
724.428	0.0168265
724.506	0.0170678
724.584	0.0170656
724.663	0.0171282
724.741	0.0171016
724.819	0.0168616
724.897	0.0167528
724.975	0.0167442
725.053	0.0164203
725.131	0.0162212
725.209	0.0158776
725.288	0.0155635
725.366	0.0154494
725.444	0.0153437
725.522	0.0153381
725.600	0.0151527
725.678	0.0150881
725.756	0.0151169
725.834	0.0151225
725.913	0.0152605
725.991	0.0151900
726.069	0.0152718
726.147	0.0155653
726.225	0.0154579
726.303	0.0154243
726.381	0.0155087
726.459	0.0155698
726.538	0.0154832
726.616	0.0155569
726.694	0.0157461
726.772	0.0159649
726.850	0.0160589
726.928	0.0163488
727.006	0.0164724
727.084	0.0168644
727.163	0.0169875
727.241	0.0172440
727.319	0.0175706
727.397	0.0177356
727.475	0.0177651
727.553	0.0178480
727.631	0.0179463
727.709	0.0178809
727.788	0.0178706
727.866	0.0177684
727.944	0.0178899
728.022	0.0177777
728.100	0.0175990
728.178	0.0177458
728.256	0.0177803
728.334	0.0178654
728.413	0.0180739
728.491	0.0179382
728.569	0.0180927
728.647	0.0181799
728.725	0.0183224
728.803	0.0182779
728.881	0.0180671
728.959	0.0180701
729.038	0.0179861
729.116	0.0177908
729.194	0.0175501
729.272	0.0173248
729.350	0.0172471
729.428	0.0168169
729.506	0.0164865
729.584	0.0163965
729.663	0.0159931
729.741	0.0158029
729.819	0.0157615
729.897	0.0156512
729.975	0.0154969
730.053	0.0152849
730.131	0.0150657
730.209	0.0150640
730.288	0.0149355
730.366	0.0149252
730.444	0.0146988
730.522	0.0144157
730.600	0.0144971
730.678	0.0142908
730.756	0.0143762
730.834	0.0141657
730.913	0.0140722
730.991	0.0142117
731.069	0.0142956
731.147	0.0143981
731.225	0.0147557
731.303	0.0149361
731.381	0.0150773
731.459	0.0152806
731.538	0.0155624
731.616	0.0157403
731.694	0.0160252
731.772	0.0163046
731.850	0.0164499
731.928	0.0165477
732.006	0.0165918
732.084	0.0167937
732.163	0.0168931
732.241	0.0168279
732.319	0.0169265
732.397	0.0170130
732.475	0.0171216
732.553	0.0171654
732.631	0.0172272
732.709	0.0175044
732.788	0.0176680
732.866	0.0178470
732.944	0.0179003
733.022	0.0179787
733.100	0.0180444
733.178	0.0181590
733.256	0.0180654
733.334	0.0180354
733.413	0.0180019
733.491	0.0177550
733.569	0.0177564
733.647	0.0176029
733.725	0.0173994
733.803	0.0170600
733.881	0.0172166
733.959	0.0171085
734.038	0.0171555
734.116	0.0169663
734.194	0.0170167
734.272	0.0170464
734.350	0.0170915
734.428	0.0172212
734.506	0.0171453
734.584	0.0171549
734.663	0.0170483
734.741	0.0169930
734.819	0.0170300
734.897	0.0167130
734.975	0.0166119
735.053	0.0164079
735.131	0.0162794
735.209	0.0161706
735.288	0.0161346
735.366	0.0158532
735.444	0.0159220
735.522	0.0158589
735.600	0.0158462
735.678	0.0157478
735.756	0.0157922
735.834	0.0160019
735.913	0.0160039
735.991	0.0158533
736.069	0.0158021
736.147	0.0160201
736.225	0.0158408
736.303	0.0158897
736.381	0.0160184
736.459	0.0159348
736.538	0.0159564
736.616	0.0161562
736.694	0.0159351
736.772	0.0160890
736.850	0.0160849
736.928	0.0157702
737.006	0.0159183
737.084	0.0158218
737.163	0.0155699
737.241	0.0153622
737.319	0.0152138
737.397	0.0149985
737.475	0.0147826
737.553	0.0148521
737.631	0.0147211
737.709	0.0147119
737.788	0.0147364
737.866	0.0147028
737.944	0.0148610
738.022	0.0150971
738.100	0.0150931
738.178	0.0152190
738.256	0.0154348
738.334	0.0156161
738.413	0.0157781
738.491	0.0158444
738.569	0.0162427
738.647	0.0163653
738.725	0.0164252
738.803	0.0167348
738.881	0.0168020
738.959	0.0167677
739.038	0.0169743
739.116	0.0171375
739.194	0.0170281
739.272	0.0171349
739.350	0.0172639
739.428	0.0173098
739.506	0.0173191
739.584	0.0173589
739.663	0.0172684
739.741	0.0173257
739.819	0.0173930
739.897	0.0173958
739.975	0.0174476
740.053	0.0174106
740.131	0.0175830
740.209	0.0173584
740.288	0.0175295
740.366	0.0175826
740.444	0.0176553
740.522	0.0177193
740.600	0.0175825
740.678	0.0176717
740.756	0.0175815
740.834	0.0174928
740.913	0.0175687
740.991	0.0173883
741.069	0.0173505
741.147	0.0171788
741.225	0.0170465
741.303	0.0171003
741.381	0.0170380
741.459	0.0169503
741.538	0.0168283
741.616	0.0165199
741.694	0.0165231
741.772	0.0164089
741.850	0.0160990
741.928	0.0160133
742.006	0.0158443
742.084	0.0157314
742.163	0.0155403
742.241	0.0155501
742.319	0.0153336
742.397	0.0153624
742.475	0.0153114
742.553	0.0152351
742.631	0.0153383
742.709	0.0154277
742.788	0.0153960
742.866	0.0154303
742.944	0.0158104
743.022	0.0159133
743.100	0.0159332
743.178	0.0161248
743.256	0.0160511
743.334	0.0162244
743.413	0.0162703
743.491	0.0163397
743.569	0.0162013
743.647	0.0162506
743.725	0.0162130
743.803	0.0161817
743.881	0.0160473
743.959	0.0161633
744.038	0.0161515
744.116	0.0160738
744.194	0.0160790
744.272	0.0160011
744.350	0.0159669
744.428	0.0159711
744.506	0.0160719
744.584	0.0161076
744.663	0.0160121
744.741	0.0158994
744.819	0.0160911
744.897	0.0160205
744.975	0.0158475
745.053	0.0158862
745.131	0.0157940
745.209	0.0157838
745.288	0.0159297
745.366	0.0158982
745.444	0.0159026
745.522	0.0160316
745.600	0.0162057
745.678	0.0161819
745.756	0.0163367
745.834	0.0164016
745.913	0.0164265
745.991	0.0165264
746.069	0.0167442
746.147	0.0169068
746.225	0.0168743
746.303	0.0169798
746.381	0.0171231
746.459	0.0171493
746.538	0.0172787
746.616	0.0173446
746.694	0.0173712
746.772	0.0173758
746.850	0.0174372
746.928	0.0174878
747.006	0.0174554
747.084	0.0175270
747.163	0.0175225
747.241	0.0177087
747.319	0.0177609
747.397	0.0176453
747.475	0.0175062
747.553	0.0176090
747.631	0.0176407
747.709	0.0176685
747.788	0.0176083
747.866	0.0174131
747.944	0.0173320
748.022	0.0172646
748.100	0.0170831
748.178	0.0170525
748.256	0.0167189
748.334	0.0163950
748.413	0.0162731
748.491	0.0162795
748.569	0.0160913
748.647	0.0160284
748.725	0.0161465
748.803	0.0159914
748.881	0.0160469
748.959	0.0161703
749.038	0.0161967
749.116	0.0161153
749.194	0.0164784
749.272	0.0165563
749.350	0.0164357
749.428	0.0165147
749.506	0.0165650
749.584	0.0165592
749.663	0.0164137
749.741	0.0164193
749.819	0.0162864
749.897	0.0162146
749.975	0.0161168
750.053	0.0159121
750.131	0.0157887
750.209	0.0157028
750.288	0.0155521
750.366	0.0154184
750.444	0.0153801
750.522	0.0153587
750.600	0.0152145
750.678	0.0153167
750.756	0.0151936
750.834	0.0150366
750.913	0.0151683
750.991	0.0154557
751.069	0.0153719
751.147	0.0152826
751.225	0.0154622
751.303	0.0158510
751.381	0.0159818
751.459	0.0161057
751.538	0.0164571
751.616	0.0164353
751.694	0.0166018
751.772	0.0166961
751.850	0.0168719
751.928	0.0169017
752.006	0.0168927
752.084	0.0169164
752.163	0.0168029
752.241	0.0166631
752.319	0.0165513
752.397	0.0166197
752.475	0.0163833
752.553	0.0164186
752.631	0.0163745
752.709	0.0163292
752.788	0.0163629
752.866	0.0162370
752.944	0.0163208
753.022	0.0164281
753.100	0.0165151
753.178	0.0165246
753.256	0.0166544
753.334	0.0167382
753.413	0.0166705
753.491	0.0169727
753.569	0.0171423
753.647	0.0171896
753.725	0.0172986
753.803	0.0174162
753.881	0.0175242
753.959	0.0176601
754.038	0.0177152
754.116	0.0175978
754.194	0.0177184
754.272	0.0178214
754.350	0.0174821
754.428	0.0174989
754.506	0.0173584
754.584	0.0170298
754.663	0.0168448
754.741	0.0167059
754.819	0.0164225
754.897	0.0164357
754.975	0.0162958
755.053	0.0162227
755.131	0.0161413
755.209	0.0159770
755.288	0.0158766
755.366	0.0157743
755.444	0.0158302
755.522	0.0159508
755.600	0.0160016
755.678	0.0159084
755.756	0.0160068
755.834	0.0160915
755.913	0.0160009
755.991	0.0160579
756.069	0.0160025
756.147	0.0160104
756.225	0.0159628
756.303	0.0160124
756.381	0.0160603
756.459	0.0160836
756.538	0.0159052
756.616	0.0159825
756.694	0.0160838
756.772	0.0162534
756.850	0.0163438
756.928	0.0163320
757.006	0.0165626
757.084	0.0164932
757.163	0.0165265
757.241	0.0164735
757.319	0.0166252
757.397	0.0166364
757.475	0.0165291
757.553	0.0166125
757.631	0.0166674
757.709	0.0167099
757.788	0.0166557
757.866	0.0165640
757.944	0.0165688
758.022	0.0164429
758.100	0.0163709
758.178	0.0163916
758.256	0.0164791
758.334	0.0163554
758.413	0.0162672
758.491	0.0162231
758.569	0.0162225
758.647	0.0161782
758.725	0.0161606
758.803	0.0161034
758.881	0.0161501
758.959	0.0160930
759.038	0.0161705
759.116	0.0161499
759.194	0.0160110
759.272	0.0162063
759.350	0.0161645
759.428	0.0160585
759.506	0.0162431
759.584	0.0162299
759.663	0.0164082
759.741	0.0164591
759.819	0.0165170
759.897	0.0166045
759.975	0.0166414
760.053	0.0167412
760.131	0.0167200
760.209	0.0166813
760.288	0.0166331
760.366	0.0165710
760.444	0.0163599
760.522	0.0162368
760.600	0.0161541
760.678	0.0159114
760.756	0.0158456
760.834	0.0157847
760.913	0.0157140
760.991	0.0156910
761.069	0.0156522
761.147	0.0156516
761.225	0.0158161
761.303	0.0159496
761.381	0.0162277
761.459	0.0163205
761.538	0.0165464
761.616	0.0166394
761.694	0.0168477
761.772	0.0170251
761.850	0.0171037
761.928	0.0171793
762.006	0.0171732
762.084	0.0171667
762.163	0.0170962
762.241	0.0172138
762.319	0.0171787
762.397	0.0171680
762.475	0.0170702
762.553	0.0169746
762.631	0.0169365
762.709	0.0170586
762.788	0.0169811
762.866	0.0169030
762.944	0.0168793
763.022	0.0169136
763.100	0.0166395
763.178	0.0166655
763.256	0.0167447
763.334	0.0165917
763.413	0.0164958
763.491	0.0164560
763.569	0.0163242
763.647	0.0165025
763.725	0.0164340
763.803	0.0166607
763.881	0.0164536
763.959	0.0164463
764.038	0.0165718
764.116	0.0166915
764.194	0.0167983
764.272	0.0168258
764.350	0.0169565
764.428	0.0170837
764.506	0.0171629
764.584	0.0172941
764.663	0.0172755
764.741	0.0172581
764.819	0.0171333
764.897	0.0170946
764.975	0.0170132
765.053	0.0168803
765.131	0.0168054
765.209	0.0167240
765.288	0.0165348
765.366	0.0162632
765.444	0.0160567
765.522	0.0161280
765.600	0.0161204
765.678	0.0159578
765.756	0.0158224
765.834	0.0159834
765.913	0.0157834
765.991	0.0157523
766.069	0.0158495
766.147	0.0157805
766.225	0.0157394
766.303	0.0156127
766.381	0.0157108
766.459	0.0157631
766.538	0.0158105
766.616	0.0158568
766.694	0.0157827
766.772	0.0159268
766.850	0.0159918
766.928	0.0160352
767.006	0.0159334
767.084	0.0160127
767.163	0.0159972
767.241	0.0160725
767.319	0.0161611
767.397	0.0160129
767.475	0.0160918
767.553	0.0160923
767.631	0.0161622
767.709	0.0162749
767.788	0.0162400
767.866	0.0163735
767.944	0.0164735
768.022	0.0165548
768.100	0.0165729
768.178	0.0166611
768.256	0.0169383
768.334	0.0167039
768.413	0.0167666
768.491	0.0168779
768.569	0.0167233
768.647	0.0167309
768.725	0.0167346
768.803	0.0167428
768.881	0.0165951
768.959	0.0165094
769.038	0.0165374
769.116	0.0164642
769.194	0.0166309
769.272	0.0167720
769.350	0.0166611
769.428	0.0167604
769.506	0.0167910
769.584	0.0168301
769.663	0.0171143
769.741	0.0170437
769.819	0.0170667
769.897	0.0172504
769.975	0.0172446
770.053	0.0172401
770.131	0.0174695
770.209	0.0173221
770.288	0.0172894
770.366	0.0174187
770.444	0.0172453
770.522	0.0171001
770.600	0.0170759
770.678	0.0169276
770.756	0.0168963
770.834	0.0166166
770.913	0.0167104
770.991	0.0165398
771.069	0.0164767
771.147	0.0164645
771.225	0.0163364
771.303	0.0163145
771.381	0.0162096
771.459	0.0162302
771.538	0.0164162
771.616	0.0162215
771.694	0.0159417
771.772	0.0160240
771.850	0.0160295
771.928	0.0160390
772.006	0.0159586
772.084	0.0161875
772.163	0.0159941
772.241	0.0160828
772.319	0.0162112
772.397	0.0162057
772.475	0.0163083
772.553	0.0164574
772.631	0.0165916
772.709	0.0166850
772.788	0.0167642
772.866	0.0168343
772.944	0.0169505
773.022	0.0170017
773.100	0.0169780
773.178	0.0167572
773.256	0.0166713
773.334	0.0166508
773.413	0.0165537
773.491	0.0162368
773.569	0.0163445
773.647	0.0161285
773.725	0.0159090
773.803	0.0157497
773.881	0.0156595
773.959	0.0155456
774.038	0.0153534
774.116	0.0154140
774.194	0.0152287
774.272	0.0152949
774.350	0.0152245
774.428	0.0155356
774.506	0.0155013
774.584	0.0154122
774.663	0.0157330
774.741	0.0157059
774.819	0.0156647
774.897	0.0158356
774.975	0.0158508
775.053	0.0158063
775.131	0.0161579
775.209	0.0162625
775.288	0.0162801
775.366	0.0162406
775.444	0.0163335
775.522	0.0163615
775.600	0.0166157
775.678	0.0166512
775.756	0.0166309
775.834	0.0166982
775.913	0.0166953
775.991	0.0167043
776.069	0.0167342
776.147	0.0168246
776.225	0.0165890
776.303	0.0167033
776.381	0.0166933
776.459	0.0168367
776.538	0.0167558
776.616	0.0167132
776.694	0.0167165
776.772	0.0167863
776.850	0.0167125
776.928	0.0168474
777.006	0.0167798
777.084	0.0165842
777.163	0.0168062
777.241	0.0167102
777.319	0.0166512
777.397	0.0167517
777.475	0.0166356
777.553	0.0166974
777.631	0.0167129
777.709	0.0167746
777.788	0.0168436
777.866	0.0167126
777.944	0.0167596
778.022	0.0168072
778.100	0.0167735
778.178	0.0167441
778.256	0.0166644
778.334	0.0166618
778.413	0.0165607
778.491	0.0167300
778.569	0.0165963
778.647	0.0165421
778.725	0.0165614
778.803	0.0164640
778.881	0.0165429
778.959	0.0164174
779.038	0.0165676
779.116	0.0164706
779.194	0.0164883
779.272	0.0165417
779.350	0.0165343
779.428	0.0164965
779.506	0.0164123
779.584	0.0164075
779.663	0.0163603
779.741	0.0164314
779.819	0.0162154
779.897	0.0162531
779.975	0.0163254
780.053	0.0162096
780.131	0.0162485
780.209	0.0163042
780.288	0.0161665
780.366	0.0160844
780.444	0.0162740
780.522	0.0161546
780.600	0.0160696
780.678	0.0160775
780.756	0.0161299
780.834	0.0161197
780.913	0.0159251
780.991	0.0159365
781.069	0.0157858
781.147	0.0157884
781.225	0.0157367
781.303	0.0157361
781.381	0.0157516
781.459	0.0157424
781.538	0.0158949
781.616	0.0159089
781.694	0.0158601
781.772	0.0159972
781.850	0.0160360
781.928	0.0161059
782.006	0.0162340
782.084	0.0163911
782.163	0.0162785
782.241	0.0162293
782.319	0.0163744
782.397	0.0164841
782.475	0.0164456
782.553	0.0165392
782.631	0.0164484
782.709	0.0163186
782.788	0.0163265
782.866	0.0163246
782.944	0.0162390
783.022	0.0161993
783.100	0.0162561
783.178	0.0163107
783.256	0.0162526
783.334	0.0164443
783.413	0.0165901
783.491	0.0163870
783.569	0.0164677
783.647	0.0165120
783.725	0.0166079
783.803	0.0167204
783.881	0.0166982
783.959	0.0168311
784.038	0.0168568
784.116	0.0166921
784.194	0.0168397
784.272	0.0167976
784.350	0.0167781
784.428	0.0168044
784.506	0.0167661
784.584	0.0167635
784.663	0.0167083
784.741	0.0168808
784.819	0.0167701
784.897	0.0166391
784.975	0.0166546
785.053	0.0166576
785.131	0.0165527
785.209	0.0164629
785.288	0.0165289
785.366	0.0166252
785.444	0.0165694
785.522	0.0166004
785.600	0.0166518
785.678	0.0164167
785.756	0.0165714
785.834	0.0165989
785.913	0.0166073
785.991	0.0166671
786.069	0.0165533
786.147	0.0168388
786.225	0.0168391
786.303	0.0167359
786.381	0.0166574
786.459	0.0167444
786.538	0.0166998
786.616	0.0166884
786.694	0.0168499
786.772	0.0166489
786.850	0.0166007
786.928	0.0164739
787.006	0.0162949
787.084	0.0161352
787.163	0.0159981
787.241	0.0160068
787.319	0.0159244
787.397	0.0157847
787.475	0.0158095
787.553	0.0155982
787.631	0.0157864
787.709	0.0158593
787.788	0.0158539
787.866	0.0159454
787.944	0.0161157
788.022	0.0161793
788.100	0.0161502
788.178	0.0165011
788.256	0.0164043
788.334	0.0166061
788.413	0.0166544
788.491	0.0167894
788.569	0.0167545
788.647	0.0167212
788.725	0.0168412
788.803	0.0169461
788.881	0.0167795
788.959	0.0166661
789.038	0.0165378
789.116	0.0165844
789.194	0.0165782
789.272	0.0164917
789.350	0.0164101
789.428	0.0164850
789.506	0.0164431
789.584	0.0162389
789.663	0.0163200
789.741	0.0162593
789.819	0.0162150
789.897	0.0162337
789.975	0.0162527
790.053	0.0163067
790.131	0.0163235
790.209	0.0162171
790.288	0.0163908
790.366	0.0164101
790.444	0.0164483
790.522	0.0164675
790.600	0.0166006
790.678	0.0166544
790.756	0.0166389
790.834	0.0166513
790.913	0.0166719
790.991	0.0167632
791.069	0.0167509
791.147	0.0168679
791.225	0.0167905
791.303	0.0166885
791.381	0.0166412
791.459	0.0167470
791.538	0.0164169
791.616	0.0163933
791.694	0.0161862
791.772	0.0161182
791.850	0.0161432
791.928	0.0159579
792.006	0.0158369
792.084	0.0157748
792.163	0.0157037
792.241	0.0157861
792.319	0.0159293
792.397	0.0158498
792.475	0.0160687
792.553	0.0161161
792.631	0.0160849
792.709	0.0163217
792.788	0.0165166
792.866	0.0165022
792.944	0.0165396
793.022	0.0167203
793.100	0.0167546
793.178	0.0169246
793.256	0.0170814
793.334	0.0170325
793.413	0.0170028
793.491	0.0170455
793.569	0.0170757
793.647	0.0170540
793.725	0.0169391
793.803	0.0168813
793.881	0.0168699
793.959	0.0166071
794.038	0.0166970
794.116	0.0166146
794.194	0.0165003
794.272	0.0163335
794.350	0.0162234
794.428	0.0162323
794.506	0.0162359
794.584	0.0161665
794.663	0.0160847
794.741	0.0161173
794.819	0.0162983
794.897	0.0162135
794.975	0.0161803
795.053	0.0162312
795.131	0.0161914
795.209	0.0162105
795.288	0.0161736
795.366	0.0161614
795.444	0.0161821
795.522	0.0162177
795.600	0.0160474
795.678	0.0160918
795.756	0.0161322
795.834	0.0160256
795.913	0.0160672
795.991	0.0161491
796.069	0.0161382
796.147	0.0161619
796.225	0.0162298
796.303	0.0163780
796.381	0.0164787
796.459	0.0166016
796.538	0.0167696
796.616	0.0168504
796.694	0.0168958
796.772	0.0170125
796.850	0.0171352
796.928	0.0172144
797.006	0.0171725
797.084	0.0170981
797.163	0.0172365
797.241	0.0170796
797.319	0.0169485
797.397	0.0168246
797.475	0.0166246
797.553	0.0163677
797.631	0.0163466
797.709	0.0162135
797.788	0.0159576
797.866	0.0159103
797.944	0.0158894
798.022	0.0158124
798.100	0.0156617
798.178	0.0155669
798.256	0.0157251
798.334	0.0157984
798.413	0.0156754
798.491	0.0156338
798.569	0.0156307
798.647	0.0157266
798.725	0.0157185
798.803	0.0157313
798.881	0.0157834
798.959	0.0159765
799.038	0.0159711
799.116	0.0160323
799.194	0.0162733
799.272	0.0163461
799.350	0.0164131
799.428	0.0164532
799.506	0.0165438
799.584	0.0168433
799.663	0.0169345
799.741	0.0168672
799.819	0.0168958
799.897	0.0170261
799.975	0.0170971
800.053	0.0170541
800.131	0.0171867
800.209	0.0169272
800.288	0.0168620
800.366	0.0168209
800.444	0.0169402
800.522	0.0166524
800.600	0.0166999
800.678	0.0164684
800.756	0.0164298
800.834	0.0165524
800.913	0.0165315
800.991	0.0164317
801.069	0.0165265
801.147	0.0164782
801.225	0.0165311
801.303	0.0166191
801.381	0.0166165
801.459	0.0165670
801.538	0.0165412
801.616	0.0167016
801.694	0.0165181
801.772	0.0165684
801.850	0.0165173
801.928	0.0164213
802.006	0.0165434
802.084	0.0166241
802.163	0.0164150
802.241	0.0164145
802.319	0.0164089
802.397	0.0164817
802.475	0.0164860
802.553	0.0164454
802.631	0.0163554
802.709	0.0164695
802.788	0.0164444
802.866	0.0163886
802.944	0.0164693
803.022	0.0162643
803.100	0.0162445
803.178	0.0163655
803.256	0.0163033
803.334	0.0162134
803.413	0.0161235
803.491	0.0161419
803.569	0.0161251
803.647	0.0162032
803.725	0.0160742
803.803	0.0158678
803.881	0.0159631
803.959	0.0159587
804.038	0.0159499
804.116	0.0158018
804.194	0.0159085
804.272	0.0158271
804.350	0.0157335
804.428	0.0158062
804.506	0.0158420
804.584	0.0157506
804.663	0.0157956
804.741	0.0159657
804.819	0.0160175
804.897	0.0161132
804.975	0.0161572
805.053	0.0163668
805.131	0.0164625
805.209	0.0167183
805.288	0.0167972
805.366	0.0167152
805.444	0.0168952
805.522	0.0170882
805.600	0.0170575
805.678	0.0171172
805.756	0.0172499
805.834	0.0169704
805.913	0.0169915
805.991	0.0169901
806.069	0.0169039
806.147	0.0169288
806.225	0.0169286
806.303	0.0165760
806.381	0.0165540
806.459	0.0166953
806.538	0.0164687
806.616	0.0164495
806.694	0.0163633
806.772	0.0163834
806.850	0.0164521
806.928	0.0164580
807.006	0.0163963
807.084	0.0165096
807.163	0.0163989
807.241	0.0163574
807.319	0.0163546
807.397	0.0163116
807.475	0.0162495
807.553	0.0161850
807.631	0.0161446
807.709	0.0160082
807.788	0.0158675
807.866	0.0158965
807.944	0.0158991
808.022	0.0158801
808.100	0.0159251
808.178	0.0159923
808.256	0.0159670
808.334	0.0161020
808.413	0.0162301
808.491	0.0162030
808.569	0.0163034
808.647	0.0164304
808.725	0.0166102
808.803	0.0166179
808.881	0.0167529
808.959	0.0168667
809.038	0.0167223
809.116	0.0167707
809.194	0.0167551
809.272	0.0168730
809.350	0.0166798
809.428	0.0166946
809.506	0.0165421
809.584	0.0165747
809.663	0.0165394
809.741	0.0165154
809.819	0.0164130
809.897	0.0163010
809.975	0.0163141
810.053	0.0162497
810.131	0.0163042
810.209	0.0162106
810.288	0.0160958
810.366	0.0161181
810.444	0.0159760
810.522	0.0160311
810.600	0.0159400
810.678	0.0160056
810.756	0.0160143
810.834	0.0161110
810.913	0.0161969
810.991	0.0162013
811.069	0.0163277
811.147	0.0165647
811.225	0.0165273
811.303	0.0166656
811.381	0.0168452
811.459	0.0168629
811.538	0.0168769
811.616	0.0170969
811.694	0.0170073
811.772	0.0171049
811.850	0.0171581
811.928	0.0170692
812.006	0.0169788
812.084	0.0168697
812.163	0.0168392
812.241	0.0167887
812.319	0.0167862
812.397	0.0165820
812.475	0.0165189
812.553	0.0166283
812.631	0.0165461
812.709	0.0165131
812.788	0.0165216
812.866	0.0164935
812.944	0.0164771
813.022	0.0163990
813.100	0.0163094
813.178	0.0163158
813.256	0.0162985
813.334	0.0162649
813.413	0.0161868
813.491	0.0161327
813.569	0.0160397
813.647	0.0160953
813.725	0.0161015
813.803	0.0159373
813.881	0.0160056
813.959	0.0160205
814.038	0.0160487
814.116	0.0160820
814.194	0.0159911
814.272	0.0160090
814.350	0.0159599
814.428	0.0159816
814.506	0.0160290
814.584	0.0160028
814.663	0.0160715
814.741	0.0162220
814.819	0.0162463
814.897	0.0161029
814.975	0.0162893
815.053	0.0163908
815.131	0.0164227
815.209	0.0165132
815.288	0.0164843
815.366	0.0164342
815.444	0.0165398
815.522	0.0166002
815.600	0.0165316
815.678	0.0164015
815.756	0.0162241
815.834	0.0161945
815.913	0.0163440
815.991	0.0162884
816.069	0.0161215
816.147	0.0161240
816.225	0.0159701
816.303	0.0160808
816.381	0.0159636
816.459	0.0160191
816.538	0.0159322
816.616	0.0158463
816.694	0.0159424
816.772	0.0159683
816.850	0.0161208
816.928	0.0159367
817.006	0.0161654
817.084	0.0161805
817.163	0.0163232
817.241	0.0165257
817.319	0.0166452
817.397	0.0167091
817.475	0.0168404
817.553	0.0170310
817.631	0.0171786
817.709	0.0172836
817.788	0.0174305
817.866	0.0173861
817.944	0.0173235
818.022	0.0172147
818.100	0.0171577
818.178	0.0170847
818.256	0.0170251
818.334	0.0168388
818.413	0.0166349
818.491	0.0164574
818.569	0.0164346
818.647	0.0163104
818.725	0.0161901
818.803	0.0161037
818.881	0.0159019
818.959	0.0159154
819.038	0.0157315
819.116	0.0158685
819.194	0.0157536
819.272	0.0157390
819.350	0.0157173
819.428	0.0158645
819.506	0.0158588
819.584	0.0159132
819.663	0.0159992
819.741	0.0160043
819.819	0.0161195
819.897	0.0162135
819.975	0.0164487
820.053	0.0165898
820.131	0.0165616
820.209	0.0168489
820.288	0.0169826
820.366	0.0170158
820.444	0.0170219
820.522	0.0172375
820.600	0.0171418
820.678	0.0170477
820.756	0.0170337
820.834	0.0169611
820.913	0.0168370
820.991	0.0167446
821.069	0.0165558
821.147	0.0165235
821.225	0.0163199
821.303	0.0161988
821.381	0.0162494
821.459	0.0163783
821.538	0.0163068
821.616	0.0162839
821.694	0.0162689
821.772	0.0162065
821.850	0.0163036
821.928	0.0163390
822.006	0.0164196
822.084	0.0161729
822.163	0.0162969
822.241	0.0163518
822.319	0.0162487
822.397	0.0162444
822.475	0.0161299
822.553	0.0161684
822.631	0.0159346
822.709	0.0160631
822.788	0.0160194
822.866	0.0162132
822.944	0.0163003
823.022	0.0161119
823.100	0.0162675
823.178	0.0163581
823.256	0.0164872
823.334	0.0164289
823.413	0.0165012
823.491	0.0166066
823.569	0.0166779
823.647	0.0167847
823.725	0.0168116
823.803	0.0170107
823.881	0.0169371
823.959	0.0169588
824.038	0.0169902
824.116	0.0169357
824.194	0.0171432
824.272	0.0170713
824.350	0.0169707
824.428	0.0169443
824.506	0.0168761
824.584	0.0167105
824.663	0.0166399
824.741	0.0165078
824.819	0.0164631
824.897	0.0162820
824.975	0.0163113
825.053	0.0161301
825.131	0.0161771
825.209	0.0162034
825.288	0.0160780
825.366	0.0160801
825.444	0.0159612
825.522	0.0160068
825.600	0.0160674
825.678	0.0160133
825.756	0.0160931
825.834	0.0159558
825.913	0.0161029
825.991	0.0161250
826.069	0.0162383
826.147	0.0163760
826.225	0.0164537
826.303	0.0165115
826.381	0.0166302
826.459	0.0165965
826.538	0.0168117
826.616	0.0168851
826.694	0.0168981
826.772	0.0169600
826.850	0.0169401
826.928	0.0168746
827.006	0.0169176
827.084	0.0167667
827.163	0.0166867
827.241	0.0165993
827.319	0.0165339
827.397	0.0164831
827.475	0.0163524
827.553	0.0161288
827.631	0.0159431
827.709	0.0159656
827.788	0.0158970
827.866	0.0155914
827.944	0.0156270
828.022	0.0156641
828.100	0.0156905
828.178	0.0156955
828.256	0.0157386
828.334	0.0157380
828.413	0.0158577
828.491	0.0160654
828.569	0.0160047
828.647	0.0160954
828.725	0.0163190
828.803	0.0164226
828.881	0.0164787
828.959	0.0165553
829.038	0.0166083
829.116	0.0167921
829.194	0.0170044
829.272	0.0169577
829.350	0.0171546
829.428	0.0172633
829.506	0.0171455
829.584	0.0172356
829.663	0.0173322
829.741	0.0171144
829.819	0.0171326
829.897	0.0169995
829.975	0.0169620
830.053	0.0167915
830.131	0.0166776
830.209	0.0164487
830.288	0.0164537
830.366	0.0165085
830.444	0.0163369
830.522	0.0165070
830.600	0.0163187
830.678	0.0161002
830.756	0.0164177
830.834	0.0165300
830.913	0.0162944
830.991	0.0163553
831.069	0.0164658
831.147	0.0165045
831.225	0.0163705
831.303	0.0164217
831.381	0.0162882
831.459	0.0163148
831.538	0.0163074
831.616	0.0163083
831.694	0.0161825
831.772	0.0160743
831.850	0.0162090
831.928	0.0162309
832.006	0.0161057
832.084	0.0161478
832.163	0.0160631
832.241	0.0160454
832.319	0.0162042
832.397	0.0163206
832.475	0.0163136
832.553	0.0162479
832.631	0.0163165
832.709	0.0162556
832.788	0.0162571
832.866	0.0163834
832.944	0.0163702
833.022	0.0162859
833.100	0.0165079
833.178	0.0163837
833.256	0.0164612
833.334	0.0162743
833.413	0.0164884
833.491	0.0162052
833.569	0.0161954
833.647	0.0161190
833.725	0.0160677
833.803	0.0159698
833.881	0.0158635
833.959	0.0157256
834.038	0.0158883
834.116	0.0160300
834.194	0.0157673
834.272	0.0158824
834.350	0.0158781
834.428	0.0157665
834.506	0.0157512
834.584	0.0158397
834.663	0.0159235
834.741	0.0160062
834.819	0.0159541
834.897	0.0161434
834.975	0.0163120
835.053	0.0163133
835.131	0.0162944
835.209	0.0164883
835.288	0.0165430
835.366	0.0167844
835.444	0.0168771
835.522	0.0169089
835.600	0.0170462
835.678	0.0170892
835.756	0.0173595
835.834	0.0173097
835.913	0.0173879
835.991	0.0172936
836.069	0.0172616
836.147	0.0170648
836.225	0.0170837
836.303	0.0170802
836.381	0.0170175
836.459	0.0167282
836.538	0.0165866
836.616	0.0164151
836.694	0.0162891
836.772	0.0162435
836.850	0.0160992
836.928	0.0160049
837.006	0.0158704
837.084	0.0158468
837.163	0.0158560
837.241	0.0158309
837.319	0.0159019
837.397	0.0158312
837.475	0.0159454
837.553	0.0158784
837.631	0.0160709
837.709	0.0162531
837.788	0.0161888
837.866	0.0161985
837.944	0.0163427
838.022	0.0163120
838.100	0.0162848
838.178	0.0163453
838.256	0.0165892
838.334	0.0164310
838.413	0.0165971
838.491	0.0165541
838.569	0.0164539
838.647	0.0165417
838.725	0.0167679
838.803	0.0164820
838.881	0.0164030
838.959	0.0164998
839.038	0.0163751
839.116	0.0162518
839.194	0.0163032
839.272	0.0161000
839.350	0.0162170
839.428	0.0163427
839.506	0.0161068
839.584	0.0161087
839.663	0.0161737
839.741	0.0161655
839.819	0.0163336
839.897	0.0162417
839.975	0.0163350
840.053	0.0163729
840.131	0.0164474
840.209	0.0164639
840.288	0.0164559
840.366	0.0164105
840.444	0.0164167
840.522	0.0163717
840.600	0.0162161
840.678	0.0162938
840.756	0.0160806
840.834	0.0161134
840.913	0.0161470
840.991	0.0160892
841.069	0.0160307
841.147	0.0160172
841.225	0.0160905
841.303	0.0162106
841.381	0.0163007
841.459	0.0163438
841.538	0.0163806
841.616	0.0164905
841.694	0.0165681
841.772	0.0166542
841.850	0.0168646
841.928	0.0169260
842.006	0.0169252
842.084	0.0170422
842.163	0.0170686
842.241	0.0169978
842.319	0.0170969
842.397	0.0170726
842.475	0.0168921
842.553	0.0169337
842.631	0.0167757
842.709	0.0166846
842.788	0.0166536
842.866	0.0166663
842.944	0.0164032
843.022	0.0164603
843.100	0.0165631
843.178	0.0164781
843.256	0.0165396
843.334	0.0162192
843.413	0.0162954
843.491	0.0163900
843.569	0.0162715
843.647	0.0162807
843.725	0.0163969
843.803	0.0163439
843.881	0.0162553
843.959	0.0164461
844.038	0.0163609
844.116	0.0163406
844.194	0.0164204
844.272	0.0164429
844.350	0.0166370
844.428	0.0167198
844.506	0.0167562
844.584	0.0167614
844.663	0.0168413
844.741	0.0167733
844.819	0.0170536
844.897	0.0170583
844.975	0.0171565
845.053	0.0170889
845.131	0.0170589
845.209	0.0169537
845.288	0.0169149
845.366	0.0167741
845.444	0.0166990
845.522	0.0163873
845.600	0.0163599
845.678	0.0162141
845.756	0.0161386
845.834	0.0158675
845.913	0.0156376
845.991	0.0157467
846.069	0.0156560
846.147	0.0155880
846.225	0.0155177
846.303	0.0155915
846.381	0.0156513
846.459	0.0156865
846.538	0.0158382
846.616	0.0159491
846.694	0.0158871
846.772	0.0160265
846.850	0.0160346
846.928	0.0161282
847.006	0.0162271
847.084	0.0163224
847.163	0.0165614
847.241	0.0164972
847.319	0.0165957
847.397	0.0167580
847.475	0.0168167
847.553	0.0169415
847.631	0.0170025
847.709	0.0169428
847.788	0.0168521
847.866	0.0168264
847.944	0.0167586
848.022	0.0167127
848.100	0.0166641
848.178	0.0164135
848.256	0.0164457
848.334	0.0163144
848.413	0.0162081
848.491	0.0160870
848.569	0.0159492
848.647	0.0159437
848.725	0.0160123
848.803	0.0159490
848.881	0.0159841
848.959	0.0159290
849.038	0.0161482
849.116	0.0162831
849.194	0.0162392
849.272	0.0161941
849.350	0.0162262
849.428	0.0162704
849.506	0.0162668
849.584	0.0163265
849.663	0.0163495
849.741	0.0163620
849.819	0.0164552
849.897	0.0163602
849.975	0.0164765
850.053	0.0164602
850.131	0.0163802
850.209	0.0164402
850.288	0.0164094
850.366	0.0165071
850.444	0.0165705
850.522	0.0163963
850.600	0.0166520
850.678	0.0167180
850.756	0.0168300
850.834	0.0167850
850.913	0.0168106
850.991	0.0167756
851.069	0.0168558
851.147	0.0168067
851.225	0.0166628
851.303	0.0166965
851.381	0.0165626
851.459	0.0166311
851.538	0.0165769
851.616	0.0165269
851.694	0.0165026
851.772	0.0163351
851.850	0.0163585
851.928	0.0162719
852.006	0.0161726
852.084	0.0160690
852.163	0.0161222
852.241	0.0159622
852.319	0.0159530
852.397	0.0159626
852.475	0.0160117
852.553	0.0160277
852.631	0.0158438
852.709	0.0158324
852.788	0.0158575
852.866	0.0159628
852.944	0.0160572
853.022	0.0160853
853.100	0.0160738
853.178	0.0161369
853.256	0.0162960
853.334	0.0163352
853.413	0.0163419
853.491	0.0164171
853.569	0.0164616
853.647	0.0167000
853.725	0.0167200
853.803	0.0169106
853.881	0.0168801
853.959	0.0169933
854.038	0.0170199
854.116	0.0169733
854.194	0.0168729
854.272	0.0169629
854.350	0.0168864
854.428	0.0168528
854.506	0.0167103
854.584	0.0166596
854.663	0.0166241
854.741	0.0163793
854.819	0.0162488
854.897	0.0162265
854.975	0.0160986
855.053	0.0161311
855.131	0.0159361
855.209	0.0160846
855.288	0.0159724
855.366	0.0160201
855.444	0.0158978
855.522	0.0161910
855.600	0.0159787
855.678	0.0161286
855.756	0.0160497
855.834	0.0162115
855.913	0.0162044
855.991	0.0162475
856.069	0.0163917
856.147	0.0165073
856.225	0.0164526
856.303	0.0164351
856.381	0.0166909
856.459	0.0166500
856.538	0.0166953
856.616	0.0167179
856.694	0.0166862
856.772	0.0168609
856.850	0.0166192
856.928	0.0166258
857.006	0.0164865
857.084	0.0166541
857.163	0.0164751
857.241	0.0164473
857.319	0.0162907
857.397	0.0161510
857.475	0.0160474
857.553	0.0159396
857.631	0.0160578
857.709	0.0161124
857.788	0.0159702
857.866	0.0159356
857.944	0.0161062
858.022	0.0162849
858.100	0.0163177
858.178	0.0162484
858.256	0.0163958
858.334	0.0164594
858.413	0.0166712
858.491	0.0167624
858.569	0.0166129
858.647	0.0165637
858.725	0.0166164
858.803	0.0166657
858.881	0.0165482
858.959	0.0166205
859.038	0.0165328
859.116	0.0164762
859.194	0.0165938
859.272	0.0164513
859.350	0.0164378
859.428	0.0165469
859.506	0.0164285
859.584	0.0164913
859.663	0.0165527
859.741	0.0165885
859.819	0.0165588
859.897	0.0167400
859.975	0.0166264
860.053	0.0167551
860.131	0.0168742
860.209	0.0168143
860.288	0.0167984
860.366	0.0167729
860.444	0.0167219
860.522	0.0167053
860.600	0.0166039
860.678	0.0165539
860.756	0.0166564
860.834	0.0165668
860.913	0.0164149
860.991	0.0164651
861.069	0.0164361
861.147	0.0163969
861.225	0.0162246
861.303	0.0162779
861.381	0.0162577
861.459	0.0161865
861.538	0.0162235
861.616	0.0161680
861.694	0.0162380
861.772	0.0162012
861.850	0.0163794
861.928	0.0162420
862.006	0.0161729
862.084	0.0162920
862.163	0.0162951
862.241	0.0162616
862.319	0.0164622
862.397	0.0163045
862.475	0.0163193
862.553	0.0164169
862.631	0.0163789
862.709	0.0164219
862.788	0.0166097
862.866	0.0166222
862.944	0.0167060
863.022	0.0165187
863.100	0.0167146
863.178	0.0166888
863.256	0.0166382
863.334	0.0166573
863.413	0.0167139
863.491	0.0165546
863.569	0.0164453
863.647	0.0165620
863.725	0.0162125
863.803	0.0162644
863.881	0.0163072
863.959	0.0162432
864.038	0.0162693
864.116	0.0162096
864.194	0.0160706
864.272	0.0160187
864.350	0.0160198
864.428	0.0161272
864.506	0.0161514
864.584	0.0162177
864.663	0.0161860
864.741	0.0161238
864.819	0.0162273
864.897	0.0163090
864.975	0.0163721
865.053	0.0164392
865.131	0.0163036
865.209	0.0164268
865.288	0.0165149
865.366	0.0166763
865.444	0.0167386
865.522	0.0167030
865.600	0.0166899
865.678	0.0170423
865.756	0.0168325
865.834	0.0169538
865.913	0.0169132
865.991	0.0168880
866.069	0.0169847
866.147	0.0170419
866.225	0.0168724
866.303	0.0168333
866.381	0.0166405
866.459	0.0167294
866.538	0.0165874
866.616	0.0164912
866.694	0.0164091
866.772	0.0164771
866.850	0.0164778
866.928	0.0163158
867.006	0.0164382
867.084	0.0164381
867.163	0.0164253
867.241	0.0164094
867.319	0.0163431
867.397	0.0164833
867.475	0.0164672
867.553	0.0164600
867.631	0.0166132
867.709	0.0165805
867.788	0.0164794
867.866	0.0162675
867.944	0.0164279
868.022	0.0163570
868.100	0.0163386
868.178	0.0162214
868.256	0.0162234
868.334	0.0160820
868.413	0.0163198
868.491	0.0161734
868.569	0.0161791
868.647	0.0162392
868.725	0.0163665
868.803	0.0164759
868.881	0.0163559
868.959	0.0166109
869.038	0.0164990
869.116	0.0166243
869.194	0.0165995
869.272	0.0164996
869.350	0.0165919
869.428	0.0168223
869.506	0.0167313
869.584	0.0165710
869.663	0.0165034
869.741	0.0165572
869.819	0.0164315
869.897	0.0164961
869.975	0.0163512
870.053	0.0162769
870.131	0.0162778
870.209	0.0162135
870.288	0.0161504
870.366	0.0161764
870.444	0.0162260
870.522	0.0159341
870.600	0.0161118
870.678	0.0161006
870.756	0.0160902
870.834	0.0161722
870.913	0.0160926
870.991	0.0160586
871.069	0.0162737
871.147	0.0161252
871.225	0.0162001
871.303	0.0161813
871.381	0.0162644
871.459	0.0162351
871.538	0.0163670
871.616	0.0163613
871.694	0.0164384
871.772	0.0164642
871.850	0.0166748
871.928	0.0166925
872.006	0.0167943
872.084	0.0167109
872.163	0.0169525
872.241	0.0169998
872.319	0.0169334
872.397	0.0170206
872.475	0.0168893
872.553	0.0168271
872.631	0.0168014
872.709	0.0167303
872.788	0.0166631
872.866	0.0165285
872.944	0.0165102
873.022	0.0163265
873.100	0.0162007
873.178	0.0160742
873.256	0.0160716
873.334	0.0158971
873.413	0.0159157
873.491	0.0160469
873.569	0.0158360
873.647	0.0157925
873.725	0.0159570
873.803	0.0159685
873.881	0.0160470
873.959	0.0159995
874.038	0.0159998
874.116	0.0161961
874.194	0.0161356
874.272	0.0162853
874.350	0.0163846
874.428	0.0164528
874.506	0.0165891
874.584	0.0166447
874.663	0.0166642
874.741	0.0166818
874.819	0.0168718
874.897	0.0168871
874.975	0.0168977
875.053	0.0169433
875.131	0.0168877
875.209	0.0167381
875.288	0.0167219
875.366	0.0166110
875.444	0.0166031
875.522	0.0165794
875.600	0.0166728
875.678	0.0163907
875.756	0.0163225
875.834	0.0163038
875.913	0.0163350
875.991	0.0163747
876.069	0.0163618
876.147	0.0164716
876.225	0.0163504
876.303	0.0165119
876.381	0.0164613
876.459	0.0165403
876.538	0.0165668
876.616	0.0166331
876.694	0.0166520
876.772	0.0166427
876.850	0.0165228
876.928	0.0165807
877.006	0.0165023
877.084	0.0165724
877.163	0.0166141
877.241	0.0164212
877.319	0.0162766
877.397	0.0162228
877.475	0.0164876
877.553	0.0161827
877.631	0.0161529
877.709	0.0162140
877.788	0.0161298
877.866	0.0160989
877.944	0.0163187
878.022	0.0161092
878.100	0.0162571
878.178	0.0162692
878.256	0.0161762
878.334	0.0163535
878.413	0.0163833
878.491	0.0164315
878.569	0.0164306
878.647	0.0164085
878.725	0.0164105
878.803	0.0165419
878.881	0.0164525
878.959	0.0163638
879.038	0.0164552
879.116	0.0162421
879.194	0.0161734
879.272	0.0162531
879.350	0.0162276
879.428	0.0160699
879.506	0.0162112
879.584	0.0161915
879.663	0.0161470
879.741	0.0161501
879.819	0.0159734
879.897	0.0160059
879.975	0.0160810
880.053	0.0161172
880.131	0.0161694
880.209	0.0162782
880.288	0.0161348
880.366	0.0162346
880.444	0.0162643
880.522	0.0163396
880.600	0.0163232
880.678	0.0162753
880.756	0.0163138
880.834	0.0164860
880.913	0.0164450
880.991	0.0164923
881.069	0.0164331
881.147	0.0164669
881.225	0.0164447
881.303	0.0165379
881.381	0.0165466
881.459	0.0166292
881.538	0.0168035
881.616	0.0167460
881.694	0.0166817
881.772	0.0167472
881.850	0.0166114
881.928	0.0165611
882.006	0.0165847
882.084	0.0166147
882.163	0.0165540
882.241	0.0165052
882.319	0.0162462
882.397	0.0162347
882.475	0.0161182
882.553	0.0160839
882.631	0.0159866
882.709	0.0160429
882.788	0.0160648
882.866	0.0160207
882.944	0.0160818
883.022	0.0162148
883.100	0.0161374
883.178	0.0162624
883.256	0.0163078
883.334	0.0165083
883.413	0.0165860
883.491	0.0166283
883.569	0.0167576
883.647	0.0169132
883.725	0.0169545
883.803	0.0170741
883.881	0.0170143
883.959	0.0170808
884.038	0.0172269
884.116	0.0170950
884.194	0.0171564
884.272	0.0171452
884.350	0.0169277
884.428	0.0169160
884.506	0.0166927
884.584	0.0167136
884.663	0.0167216
884.741	0.0164768
884.819	0.0163521
884.897	0.0163634
884.975	0.0160387
885.053	0.0161974
885.131	0.0161165
885.209	0.0161224
885.288	0.0159933
885.366	0.0159097
885.444	0.0160390
885.522	0.0159370
885.600	0.0159652
885.678	0.0161712
885.756	0.0160828
885.834	0.0161505
885.913	0.0160911
885.991	0.0162846
886.069	0.0162466
886.147	0.0162678
886.225	0.0163499
886.303	0.0163757
886.381	0.0163545
886.459	0.0164387
886.538	0.0163954
886.616	0.0163739
886.694	0.0163342
886.772	0.0165072
886.850	0.0165508
886.928	0.0166714
887.006	0.0164575
887.084	0.0165526
887.163	0.0165796
887.241	0.0165110
887.319	0.0164873
887.397	0.0167818
887.475	0.0167923
887.553	0.0167177
887.631	0.0167310
887.709	0.0167467
887.788	0.0168237
887.866	0.0167829
887.944	0.0166827
888.022	0.0167211
888.100	0.0166832
888.178	0.0167590
888.256	0.0165703
888.334	0.0167417
888.413	0.0166298
888.491	0.0163573
888.569	0.0167180
888.647	0.0166355
888.725	0.0166516
888.803	0.0166341
888.881	0.0166907
888.959	0.0165361
889.038	0.0167042
889.116	0.0167032
889.194	0.0166516
889.272	0.0168317
889.350	0.0167397
889.428	0.0165478
889.506	0.0163554
889.584	0.0163930
889.663	0.0163689
889.741	0.0161947
889.819	0.0161815
889.897	0.0163161
889.975	0.0163053
890.053	0.0162099
890.131	0.0164103
890.209	0.0164942
890.288	0.0165660
890.366	0.0166467
890.444	0.0166696
890.522	0.0165748
890.600	0.0167528
890.678	0.0167992
890.756	0.0170968
890.834	0.0170266
890.913	0.0170269
890.991	0.0171271
891.069	0.0170625
891.147	0.0168219
891.225	0.0169667
891.303	0.0168417
891.381	0.0168169
891.459	0.0167656
891.538	0.0166640
891.616	0.0164437
891.694	0.0165343
891.772	0.0165108
891.850	0.0163123
891.928	0.0162982
892.006	0.0161340
892.084	0.0161246
892.163	0.0161428
892.241	0.0162734
892.319	0.0160989
892.397	0.0160413
892.475	0.0159995
892.553	0.0160829
892.631	0.0160791
892.709	0.0163197
892.788	0.0162610
892.866	0.0163306
892.944	0.0165213
893.022	0.0164642
893.100	0.0165169
893.178	0.0166974
893.256	0.0166509
893.334	0.0167086
893.413	0.0167019
893.491	0.0166151
893.569	0.0165857
893.647	0.0166864
893.725	0.0165291
893.803	0.0165735
893.881	0.0165380
893.959	0.0163613
894.038	0.0163548
894.116	0.0161884
894.194	0.0161465
894.272	0.0160910
894.350	0.0160947
894.428	0.0161789
894.506	0.0161396
894.584	0.0160717
894.663	0.0161987
894.741	0.0159725
894.819	0.0161818
894.897	0.0160767
894.975	0.0162775
895.053	0.0160641
895.131	0.0162712
895.209	0.0161541
895.288	0.0160721
895.366	0.0159847
895.444	0.0160879
895.522	0.0161419
895.600	0.0163075
895.678	0.0162091
895.756	0.0161711
895.834	0.0163548
895.913	0.0163033
895.991	0.0164108
896.069	0.0163451
896.147	0.0164678
896.225	0.0165108
896.303	0.0164960
896.381	0.0164206
896.459	0.0166064
896.538	0.0166819
896.616	0.0167744
896.694	0.0167532
896.772	0.0165659
896.850	0.0167085
896.928	0.0168245
897.006	0.0166472
897.084	0.0166100
897.163	0.0166187
897.241	0.0167180
897.319	0.0167049
897.397	0.0165194
897.475	0.0163966
897.553	0.0164061
897.631	0.0163160
897.709	0.0162454
897.788	0.0162776
897.866	0.0161539
897.944	0.0162724
898.022	0.0161896
898.100	0.0161158
898.178	0.0161761
898.256	0.0162516
898.334	0.0162171
898.413	0.0161579
898.491	0.0161197
898.569	0.0163335
898.647	0.0163049
898.725	0.0162858
898.803	0.0163495
898.881	0.0163512
898.959	0.0163423
899.038	0.0164900
899.116	0.0164595
899.194	0.0163970
899.272	0.0163950
899.350	0.0165594
899.428	0.0164688
899.506	0.0165857
899.584	0.0165163
899.663	0.0166662
899.741	0.0166125
899.819	0.0165681
899.897	0.0168058
899.975	0.0167968
900.053	0.0166920
900.131	0.0166543
900.209	0.0166648
900.288	0.0166879
900.366	0.0165963
900.444	0.0164414
900.522	0.0163814
900.600	0.0163775
900.678	0.0164143
900.756	0.0162991
900.834	0.0161145
900.913	0.0162310
900.991	0.0161857
901.069	0.0161772
901.147	0.0161000
901.225	0.0159945
901.303	0.0158712
901.381	0.0159410
901.459	0.0160603
901.538	0.0159424
901.616	0.0159259
901.694	0.0158957
901.772	0.0161018
901.850	0.0159441
901.928	0.0160564
902.006	0.0160825
902.084	0.0160960
902.163	0.0162725
902.241	0.0163747
902.319	0.0166592
902.397	0.0166055
902.475	0.0167697
902.553	0.0167313
902.631	0.0169151
902.709	0.0170118
902.788	0.0167838
902.866	0.0167522
902.944	0.0168484
903.022	0.0168150
903.100	0.0166707
903.178	0.0165735
903.256	0.0164783
903.334	0.0165508
903.413	0.0163924
903.491	0.0164154
903.569	0.0163583
903.647	0.0162267
903.725	0.0162814
903.803	0.0161926
903.881	0.0161980
903.959	0.0161867
904.038	0.0162993
904.116	0.0162424
904.194	0.0162265
904.272	0.0161935
904.350	0.0162562
904.428	0.0163879
904.506	0.0162307
904.584	0.0163009
904.663	0.0161949
904.741	0.0162656
904.819	0.0164407
904.897	0.0163257
904.975	0.0163529
905.053	0.0163606
905.131	0.0163329
905.209	0.0163956
905.288	0.0162473
905.366	0.0163369
905.444	0.0162922
905.522	0.0163255
905.600	0.0162112
905.678	0.0162176
905.756	0.0163159
905.834	0.0164211
905.913	0.0162562
905.991	0.0162733
906.069	0.0164067
906.147	0.0164290
906.225	0.0164741
906.303	0.0164854
906.381	0.0165643
906.459	0.0164561
906.538	0.0165096
906.616	0.0164890
906.694	0.0166339
906.772	0.0165370
906.850	0.0165859
906.928	0.0165575
907.006	0.0166627
907.084	0.0165411
907.163	0.0164726
907.241	0.0164814
907.319	0.0164811
907.397	0.0164862
907.475	0.0164160
907.553	0.0163859
907.631	0.0165794
907.709	0.0165675
907.788	0.0165681
907.866	0.0163051
907.944	0.0163804
908.022	0.0164336
908.100	0.0164252
908.178	0.0165434
908.256	0.0164352
908.334	0.0163698
908.413	0.0164078
908.491	0.0163949
908.569	0.0164439
908.647	0.0163187
908.725	0.0164655
908.803	0.0164120
908.881	0.0165197
908.959	0.0165192
909.038	0.0164386
909.116	0.0165794
909.194	0.0165340
909.272	0.0165981
909.350	0.0166905
909.428	0.0166727
909.506	0.0167472
909.584	0.0166386
909.663	0.0166360
909.741	0.0165691
909.819	0.0165315
909.897	0.0164571
909.975	0.0162815
910.053	0.0163685
910.131	0.0163702
910.209	0.0163116
910.288	0.0161192
910.366	0.0161771
910.444	0.0161114
910.522	0.0161905
910.600	0.0161977
910.678	0.0163441
910.756	0.0162635
910.834	0.0163914
910.913	0.0163442
910.991	0.0164206
911.069	0.0164471
911.147	0.0164735
911.225	0.0165159
911.303	0.0166961
911.381	0.0166528
911.459	0.0165373
911.538	0.0166229
911.616	0.0166750
911.694	0.0167201
911.772	0.0166169
911.850	0.0166693
911.928	0.0169025
912.006	0.0168817
912.084	0.0167551
912.163	0.0168219
912.241	0.0167731
912.319	0.0167123
912.397	0.0166270
912.475	0.0167092
912.553	0.0165697
912.631	0.0164654
912.709	0.0164130
912.788	0.0163712
912.866	0.0165272
912.944	0.0162776
913.022	0.0161465
913.100	0.0162283
913.178	0.0161082
913.256	0.0160735
913.334	0.0162302
913.413	0.0162347
913.491	0.0162447
913.569	0.0162299
913.647	0.0161686
913.725	0.0163478
913.803	0.0163615
913.881	0.0163336
913.959	0.0162714
914.038	0.0163517
914.116	0.0164993
914.194	0.0165455
914.272	0.0165941
914.350	0.0164107
914.428	0.0166809
914.506	0.0165452
914.584	0.0166875
914.663	0.0166961
914.741	0.0166461
914.819	0.0168007
914.897	0.0166725
914.975	0.0166510
915.053	0.0165836
915.131	0.0165956
915.209	0.0165616
915.288	0.0167568
915.366	0.0167563
915.444	0.0165913
915.522	0.0163995
915.600	0.0163404
915.678	0.0163517
915.756	0.0163997
915.834	0.0162756
915.913	0.0162004
915.991	0.0163076
916.069	0.0163052
916.147	0.0162934
916.225	0.0161732
916.303	0.0163541
916.381	0.0162457
916.459	0.0161407
916.538	0.0162140
916.616	0.0163435
916.694	0.0163496
916.772	0.0163205
916.850	0.0163004
916.928	0.0162778
917.006	0.0163348
917.084	0.0162920
917.163	0.0163195
917.241	0.0162617
917.319	0.0163448
917.397	0.0161668
917.475	0.0164412
917.553	0.0164868
917.631	0.0165926
917.709	0.0165683
917.788	0.0164973
917.866	0.0165596
917.944	0.0167057
918.022	0.0167368
918.100	0.0166865
918.178	0.0167198
918.256	0.0166458
918.334	0.0166354
918.413	0.0166905
918.491	0.0164346
918.569	0.0164890
918.647	0.0164519
918.725	0.0163756
918.803	0.0163704
918.881	0.0163299
918.959	0.0163078
919.038	0.0163664
919.116	0.0162120
919.194	0.0163029
919.272	0.0162162
919.350	0.0162242
919.428	0.0162555
919.506	0.0162755
919.584	0.0162632
919.663	0.0163484
919.741	0.0163326
919.819	0.0163705
919.897	0.0163153
