05/20/2022	21:02:43	Ver.	4.1	UNKNOWN
Optical Delay	599.975067	Delta X		0.078125	Sweeps	1	Scan Rate	0/0
Coordinates	Axis 1	NaN	Axis 2	NaN	Axis 3	NaN	Axis 4	NaN	Axis 5	NaN	Axis 6	0.000000
TX Power	0.000000	RX Power	0.000000

599.975	0.0160908
600.053	0.0161015
600.131	0.0161836
600.209	0.0160033
600.288	0.0161364
600.366	0.0161917
600.444	0.0160644
600.522	0.0161440
600.600	0.0159618
600.678	0.0162303
600.756	0.0160425
600.834	0.0160100
600.913	0.0162367
600.991	0.0161110
601.069	0.0160421
601.147	0.0160974
601.225	0.0159702
601.303	0.0160144
601.381	0.0159977
601.459	0.0160370
601.538	0.0160530
601.616	0.0159101
601.694	0.0159659
601.772	0.0160879
601.850	0.0159383
601.928	0.0159647
602.006	0.0160016
602.084	0.0159218
602.163	0.0158932
602.241	0.0160532
602.319	0.0160870
602.397	0.0160345
602.475	0.0160544
602.553	0.0160626
602.631	0.0160564
602.709	0.0160271
602.788	0.0159737
602.866	0.0159380
602.944	0.0158917
603.022	0.0160538
603.100	0.0159323
603.178	0.0159307
603.256	0.0158942
603.334	0.0159801
603.413	0.0159816
603.491	0.0160776
603.569	0.0160085
603.647	0.0159074
603.725	0.0159322
603.803	0.0160335
603.881	0.0160097
603.959	0.0159065
604.038	0.0161134
604.116	0.0159441
604.194	0.0159897
604.272	0.0160223
604.350	0.0159591
604.428	0.0160049
604.506	0.0159341
604.584	0.0160024
604.663	0.0161823
604.741	0.0160160
604.819	0.0160423
604.897	0.0160921
604.975	0.0160393
605.053	0.0160811
605.131	0.0159971
605.209	0.0161447
605.288	0.0160574
605.366	0.0160564
605.444	0.0159335
605.522	0.0159339
605.600	0.0159509
605.678	0.0159125
605.756	0.0160050
605.834	0.0159598
605.913	0.0159676
605.991	0.0159893
606.069	0.0159251
606.147	0.0160423
606.225	0.0159633
606.303	0.0158836
606.381	0.0159379
606.459	0.0161121
606.538	0.0159750
606.616	0.0159324
606.694	0.0159889
606.772	0.0160122
606.850	0.0158391
606.928	0.0158646
607.006	0.0158678
607.084	0.0157580
607.163	0.0158155
607.241	0.0158910
607.319	0.0159073
607.397	0.0158437
607.475	0.0157202
607.553	0.0157173
607.631	0.0157207
607.709	0.0157243
607.788	0.0157437
607.866	0.0156984
607.944	0.0158603
608.022	0.0158344
608.100	0.0158038
608.178	0.0158212
608.256	0.0157796
608.334	0.0158540
608.413	0.0156489
608.491	0.0157697
608.569	0.0158923
608.647	0.0157110
608.725	0.0157442
608.803	0.0158292
608.881	0.0157851
608.959	0.0158924
609.038	0.0156776
609.116	0.0158010
609.194	0.0157466
609.272	0.0157389
609.350	0.0157310
609.428	0.0158104
609.506	0.0156427
609.584	0.0156257
609.663	0.0156781
609.741	0.0158202
609.819	0.0157464
609.897	0.0158521
609.975	0.0157053
610.053	0.0156870
610.131	0.0157391
610.209	0.0157413
610.288	0.0156825
610.366	0.0157292
610.444	0.0159478
610.522	0.0156223
610.600	0.0157324
610.678	0.0157264
610.756	0.0157243
610.834	0.0156955
610.913	0.0155919
610.991	0.0157431
611.069	0.0157874
611.147	0.0156721
611.225	0.0157757
611.303	0.0156780
611.381	0.0156161
611.459	0.0157645
611.538	0.0158829
611.616	0.0156982
611.694	0.0156923
611.772	0.0157211
611.850	0.0158192
611.928	0.0157616
612.006	0.0158333
612.084	0.0158578
612.163	0.0157990
612.241	0.0158400
612.319	0.0156804
612.397	0.0155848
612.475	0.0157498
612.553	0.0157884
612.631	0.0158843
612.709	0.0157439
612.788	0.0158099
612.866	0.0157759
612.944	0.0158549
613.022	0.0158258
613.100	0.0158328
613.178	0.0158942
613.256	0.0158521
613.334	0.0158982
613.413	0.0157772
613.491	0.0157614
613.569	0.0156839
613.647	0.0158095
613.725	0.0158037
613.803	0.0159180
613.881	0.0157121
613.959	0.0158719
614.038	0.0157616
614.116	0.0156994
614.194	0.0157928
614.272	0.0156786
614.350	0.0158424
614.428	0.0158600
614.506	0.0158987
614.584	0.0157951
614.663	0.0157492
614.741	0.0157726
614.819	0.0159206
614.897	0.0159396
614.975	0.0158648
615.053	0.0158382
615.131	0.0157592
615.209	0.0159344
615.288	0.0158847
615.366	0.0158426
615.444	0.0158199
615.522	0.0158422
615.600	0.0159687
615.678	0.0158408
615.756	0.0158364
615.834	0.0157143
615.913	0.0158922
615.991	0.0159956
616.069	0.0158800
616.147	0.0158068
616.225	0.0159191
616.303	0.0158978
616.381	0.0158581
616.459	0.0159409
616.538	0.0159061
616.616	0.0157880
616.694	0.0158485
616.772	0.0160572
616.850	0.0159947
616.928	0.0158766
617.006	0.0158970
617.084	0.0161148
617.163	0.0159643
617.241	0.0160432
617.319	0.0160066
617.397	0.0157659
617.475	0.0159558
617.553	0.0160469
617.631	0.0159066
617.709	0.0159890
617.788	0.0160550
617.866	0.0159372
617.944	0.0159152
618.022	0.0157867
618.100	0.0158525
618.178	0.0158088
618.256	0.0158842
618.334	0.0159595
618.413	0.0159885
618.491	0.0159010
618.569	0.0159793
618.647	0.0160232
618.725	0.0159518
618.803	0.0160035
618.881	0.0160315
618.959	0.0159863
619.038	0.0159647
619.116	0.0160486
619.194	0.0159610
619.272	0.0160967
619.350	0.0160561
619.428	0.0160210
619.506	0.0159736
619.584	0.0160858
619.663	0.0161755
619.741	0.0160985
619.819	0.0159027
619.897	0.0160188
619.975	0.0159270
620.053	0.0160161
620.131	0.0160028
620.209	0.0160480
620.288	0.0160511
620.366	0.0160963
620.444	0.0159911
620.522	0.0159898
620.600	0.0159502
620.678	0.0159177
620.756	0.0159874
620.834	0.0160121
620.913	0.0161945
620.991	0.0160419
621.069	0.0160639
621.147	0.0160534
621.225	0.0159578
621.303	0.0159054
621.381	0.0160455
621.459	0.0160929
621.538	0.0159921
621.616	0.0160445
621.694	0.0160161
621.772	0.0158984
621.850	0.0159666
621.928	0.0160365
622.006	0.0160549
622.084	0.0159537
622.163	0.0159102
622.241	0.0161391
622.319	0.0161106
622.397	0.0158870
622.475	0.0158311
622.553	0.0159332
622.631	0.0158805
622.709	0.0160111
622.788	0.0160759
622.866	0.0159961
622.944	0.0159358
623.022	0.0159367
623.100	0.0158244
623.178	0.0158951
623.256	0.0158848
623.334	0.0159366
623.413	0.0160056
623.491	0.0159765
623.569	0.0159350
623.647	0.0159816
623.725	0.0159892
623.803	0.0160041
623.881	0.0159627
623.959	0.0160713
624.038	0.0159695
624.116	0.0159505
624.194	0.0160254
624.272	0.0159601
624.350	0.0158603
624.428	0.0159582
624.506	0.0159869
624.584	0.0160727
624.663	0.0159762
624.741	0.0158409
624.819	0.0159590
624.897	0.0160737
624.975	0.0159727
625.053	0.0158673
625.131	0.0160024
625.209	0.0160575
625.288	0.0159129
625.366	0.0159224
625.444	0.0159609
625.522	0.0158195
625.600	0.0160793
625.678	0.0160740
625.756	0.0159583
625.834	0.0158661
625.913	0.0159523
625.991	0.0158942
626.069	0.0160255
626.147	0.0159180
626.225	0.0160320
626.303	0.0160616
626.381	0.0159499
626.459	0.0159924
626.538	0.0160588
626.616	0.0160223
626.694	0.0158833
626.772	0.0160060
626.850	0.0159056
626.928	0.0159521
627.006	0.0159969
627.084	0.0159821
627.163	0.0159874
627.241	0.0160427
627.319	0.0160411
627.397	0.0160426
627.475	0.0159298
627.553	0.0161435
627.631	0.0160279
627.709	0.0160152
627.788	0.0160305
627.866	0.0160533
627.944	0.0158749
628.022	0.0159299
628.100	0.0160209
628.178	0.0159352
628.256	0.0160538
628.334	0.0158418
628.413	0.0160586
628.491	0.0159839
628.569	0.0160824
628.647	0.0159020
628.725	0.0158987
628.803	0.0159106
628.881	0.0160296
628.959	0.0158720
629.038	0.0159223
629.116	0.0160675
629.194	0.0160216
629.272	0.0160983
629.350	0.0160397
629.428	0.0159402
629.506	0.0159691
629.584	0.0159595
629.663	0.0159779
629.741	0.0158878
629.819	0.0159884
629.897	0.0159579
629.975	0.0158698
630.053	0.0161053
630.131	0.0160365
630.209	0.0158860
630.288	0.0159336
630.366	0.0159262
630.444	0.0160496
630.522	0.0160711
630.600	0.0160765
630.678	0.0159915
630.756	0.0159630
630.834	0.0159151
630.913	0.0159263
630.991	0.0160389
631.069	0.0160277
631.147	0.0159579
631.225	0.0159250
631.303	0.0160582
631.381	0.0159698
631.459	0.0160432
631.538	0.0158167
631.616	0.0160298
631.694	0.0158906
631.772	0.0158219
631.850	0.0160516
631.928	0.0157520
632.006	0.0158607
632.084	0.0159082
632.163	0.0158273
632.241	0.0157499
632.319	0.0159175
632.397	0.0159381
632.475	0.0159621
632.553	0.0159280
632.631	0.0158634
632.709	0.0157368
632.788	0.0159251
632.866	0.0159048
632.944	0.0158688
633.022	0.0159176
633.100	0.0159038
633.178	0.0158058
633.256	0.0158225
633.334	0.0159747
633.413	0.0158508
633.491	0.0159632
633.569	0.0158662
633.647	0.0157695
633.725	0.0159210
633.803	0.0158391
633.881	0.0157481
633.959	0.0159267
634.038	0.0159546
634.116	0.0156957
634.194	0.0158458
634.272	0.0160069
634.350	0.0159587
634.428	0.0158123
634.506	0.0159312
634.584	0.0160003
634.663	0.0158598
634.741	0.0157709
634.819	0.0158255
634.897	0.0158682
634.975	0.0158421
635.053	0.0158890
635.131	0.0158938
635.209	0.0157719
635.288	0.0159032
635.366	0.0159354
635.444	0.0159638
635.522	0.0158529
635.600	0.0157886
635.678	0.0157684
635.756	0.0159439
635.834	0.0156780
635.913	0.0157862
635.991	0.0158753
636.069	0.0158816
636.147	0.0159291
636.225	0.0158145
636.303	0.0159309
636.381	0.0158646
636.459	0.0157378
636.538	0.0159080
636.616	0.0158189
636.694	0.0158676
636.772	0.0160142
636.850	0.0159120
636.928	0.0158039
637.006	0.0157197
637.084	0.0157649
637.163	0.0159189
637.241	0.0159030
637.319	0.0158637
637.397	0.0159066
637.475	0.0158084
637.553	0.0159556
637.631	0.0157804
637.709	0.0157539
637.788	0.0157444
637.866	0.0159093
637.944	0.0158178
638.022	0.0156671
638.100	0.0158511
638.178	0.0159269
638.256	0.0157784
638.334	0.0157362
638.413	0.0158547
638.491	0.0159312
638.569	0.0157228
638.647	0.0158760
638.725	0.0157241
638.803	0.0157598
638.881	0.0158648
638.959	0.0158405
639.038	0.0158471
639.116	0.0158926
639.194	0.0159380
639.272	0.0158107
639.350	0.0158981
639.428	0.0158855
639.506	0.0159267
639.584	0.0159424
639.663	0.0159320
639.741	0.0159068
639.819	0.0158908
639.897	0.0159650
639.975	0.0159625
640.053	0.0158664
640.131	0.0157738
640.209	0.0159654
640.288	0.0159293
640.366	0.0159350
640.444	0.0158411
640.522	0.0157660
640.600	0.0158641
640.678	0.0160103
640.756	0.0160407
640.834	0.0159062
640.913	0.0159992
640.991	0.0158777
641.069	0.0159297
641.147	0.0159694
641.225	0.0159236
641.303	0.0159076
641.381	0.0159209
641.459	0.0158754
641.538	0.0158924
641.616	0.0160326
641.694	0.0160477
641.772	0.0159803
641.850	0.0160030
641.928	0.0159705
642.006	0.0159032
642.084	0.0158179
642.163	0.0159381
642.241	0.0158942
642.319	0.0159956
642.397	0.0160471
642.475	0.0159977
642.553	0.0159067
642.631	0.0159715
642.709	0.0160285
642.788	0.0159836
642.866	0.0158438
642.944	0.0159248
643.022	0.0160227
643.100	0.0159898
643.178	0.0159701
643.256	0.0158588
643.334	0.0159820
643.413	0.0160850
643.491	0.0159504
643.569	0.0159110
643.647	0.0160166
643.725	0.0159559
643.803	0.0159330
643.881	0.0159217
643.959	0.0160227
644.038	0.0160729
644.116	0.0160191
644.194	0.0158909
644.272	0.0160374
644.350	0.0159605
644.428	0.0159997
644.506	0.0161298
644.584	0.0160897
644.663	0.0159152
644.741	0.0158356
644.819	0.0159368
644.897	0.0159776
644.975	0.0160015
645.053	0.0160679
645.131	0.0159735
645.209	0.0159249
645.288	0.0159830
645.366	0.0160044
645.444	0.0160772
645.522	0.0160612
645.600	0.0161002
645.678	0.0160673
645.756	0.0159439
645.834	0.0160054
645.913	0.0160203
645.991	0.0161563
646.069	0.0160929
646.147	0.0161479
646.225	0.0160955
646.303	0.0160519
646.381	0.0159304
646.459	0.0159767
646.538	0.0159789
646.616	0.0160106
646.694	0.0159837
646.772	0.0158983
646.850	0.0159625
646.928	0.0159689
647.006	0.0159907
647.084	0.0158868
647.163	0.0160358
647.241	0.0160033
647.319	0.0161142
647.397	0.0160690
647.475	0.0160455
647.553	0.0159960
647.631	0.0159591
647.709	0.0159435
647.788	0.0160041
647.866	0.0159756
647.944	0.0160564
648.022	0.0159752
648.100	0.0158971
648.178	0.0159774
648.256	0.0160017
648.334	0.0159908
648.413	0.0159848
648.491	0.0160858
648.569	0.0159341
648.647	0.0160667
648.725	0.0159563
648.803	0.0160668
648.881	0.0161048
648.959	0.0159353
649.038	0.0159774
649.116	0.0160444
649.194	0.0160526
649.272	0.0159447
649.350	0.0160018
649.428	0.0161401
649.506	0.0160394
649.584	0.0160307
649.663	0.0160406
649.741	0.0158854
649.819	0.0159763
649.897	0.0159444
649.975	0.0158683
650.053	0.0159425
650.131	0.0160616
650.209	0.0159157
650.288	0.0157845
650.366	0.0158461
650.444	0.0159122
650.522	0.0158612
650.600	0.0158626
650.678	0.0158498
650.756	0.0160651
650.834	0.0159457
650.913	0.0159345
650.991	0.0158465
651.069	0.0159513
651.147	0.0161358
651.225	0.0159432
651.303	0.0160241
651.381	0.0162087
651.459	0.0161001
651.538	0.0161374
651.616	0.0160711
651.694	0.0162276
651.772	0.0162264
651.850	0.0161643
651.928	0.0161420
652.006	0.0160610
652.084	0.0161841
652.163	0.0162010
652.241	0.0160985
652.319	0.0160122
652.397	0.0161025
652.475	0.0160108
652.553	0.0158997
652.631	0.0159153
652.709	0.0157623
652.788	0.0158511
652.866	0.0158768
652.944	0.0156104
653.022	0.0157053
653.100	0.0157597
653.178	0.0156946
653.256	0.0157914
653.334	0.0156416
653.413	0.0156841
653.491	0.0158775
653.569	0.0158646
653.647	0.0158510
653.725	0.0159305
653.803	0.0159415
653.881	0.0158624
653.959	0.0160451
654.038	0.0160999
654.116	0.0160187
654.194	0.0160886
654.272	0.0160576
654.350	0.0162068
654.428	0.0160186
654.506	0.0159048
654.584	0.0161845
654.663	0.0161719
654.741	0.0160620
654.819	0.0160430
654.897	0.0160943
654.975	0.0160773
655.053	0.0159018
655.131	0.0159846
655.209	0.0159805
655.288	0.0158414
655.366	0.0158168
655.444	0.0158589
655.522	0.0156364
655.600	0.0156931
655.678	0.0157903
655.756	0.0156962
655.834	0.0158520
655.913	0.0156826
655.991	0.0158057
656.069	0.0157136
656.147	0.0158228
656.225	0.0159534
656.303	0.0157618
656.381	0.0157588
656.459	0.0158603
656.538	0.0158548
656.616	0.0158821
656.694	0.0159111
656.772	0.0159242
656.850	0.0158681
656.928	0.0159240
657.006	0.0159173
657.084	0.0157871
657.163	0.0157233
657.241	0.0157938
657.319	0.0157047
657.397	0.0157912
657.475	0.0157897
657.553	0.0157891
657.631	0.0158239
657.709	0.0158615
657.788	0.0159149
657.866	0.0158528
657.944	0.0160368
658.022	0.0159705
658.100	0.0159116
658.178	0.0158580
658.256	0.0161584
658.334	0.0161953
658.413	0.0161176
658.491	0.0161980
658.569	0.0161237
658.647	0.0161839
658.725	0.0162343
658.803	0.0162083
658.881	0.0159823
658.959	0.0162012
659.038	0.0160973
659.116	0.0162204
659.194	0.0159248
659.272	0.0162000
659.350	0.0161848
659.428	0.0162188
659.506	0.0160452
659.584	0.0160482
659.663	0.0161057
659.741	0.0159907
659.819	0.0159052
659.897	0.0158833
659.975	0.0159154
660.053	0.0158610
660.131	0.0157528
660.209	0.0158466
660.288	0.0157641
660.366	0.0157476
660.444	0.0158669
660.522	0.0156012
660.600	0.0157616
660.678	0.0156910
660.756	0.0157210
660.834	0.0158981
660.913	0.0158079
660.991	0.0157526
661.069	0.0159562
661.147	0.0158245
661.225	0.0158811
661.303	0.0159813
661.381	0.0160744
661.459	0.0159326
661.538	0.0160690
661.616	0.0161575
661.694	0.0159860
661.772	0.0162113
661.850	0.0161507
661.928	0.0162543
662.006	0.0163531
662.084	0.0163286
662.163	0.0163466
662.241	0.0165240
662.319	0.0164462
662.397	0.0165405
662.475	0.0163686
662.553	0.0164575
662.631	0.0163909
662.709	0.0163132
662.788	0.0163969
662.866	0.0162547
662.944	0.0161605
663.022	0.0161326
663.100	0.0161727
663.178	0.0159632
663.256	0.0158723
663.334	0.0158013
663.413	0.0158047
663.491	0.0158730
663.569	0.0156523
663.647	0.0155909
663.725	0.0154871
663.803	0.0155900
663.881	0.0156123
663.959	0.0154342
664.038	0.0154514
664.116	0.0154424
664.194	0.0154630
664.272	0.0156567
664.350	0.0155727
664.428	0.0156422
664.506	0.0155487
664.584	0.0156998
664.663	0.0158041
664.741	0.0156960
664.819	0.0157505
664.897	0.0158679
664.975	0.0158560
665.053	0.0158567
665.131	0.0160404
665.209	0.0160539
665.288	0.0159799
665.366	0.0160955
665.444	0.0159908
665.522	0.0160867
665.600	0.0161082
665.678	0.0161917
665.756	0.0162415
665.834	0.0162243
665.913	0.0161716
665.991	0.0161494
666.069	0.0162464
666.147	0.0163331
666.225	0.0162141
666.303	0.0163942
666.381	0.0162579
666.459	0.0162658
666.538	0.0164613
666.616	0.0164047
666.694	0.0163091
666.772	0.0160760
666.850	0.0162350
666.928	0.0161104
667.006	0.0159312
667.084	0.0160754
667.163	0.0159048
667.241	0.0159492
667.319	0.0157497
667.397	0.0155508
667.475	0.0155832
667.553	0.0156199
667.631	0.0155813
667.709	0.0153756
667.788	0.0152899
667.866	0.0154681
667.944	0.0153732
668.022	0.0155054
668.100	0.0153861
668.178	0.0153956
668.256	0.0153026
668.334	0.0153782
668.413	0.0155369
668.491	0.0156094
668.569	0.0155965
668.647	0.0157509
668.725	0.0158422
668.803	0.0157851
668.881	0.0160280
668.959	0.0162698
669.038	0.0162350
669.116	0.0163385
669.194	0.0164767
669.272	0.0163699
669.350	0.0163876
669.428	0.0164042
669.506	0.0164464
669.584	0.0164349
669.663	0.0163902
669.741	0.0163939
669.819	0.0163513
669.897	0.0162545
669.975	0.0161033
670.053	0.0160828
670.131	0.0160524
670.209	0.0158172
670.288	0.0158432
670.366	0.0159229
670.444	0.0158001
670.522	0.0157484
670.600	0.0158118
670.678	0.0156796
670.756	0.0157275
670.834	0.0157877
670.913	0.0157192
670.991	0.0157616
671.069	0.0157745
671.147	0.0159126
671.225	0.0158270
671.303	0.0157952
671.381	0.0158262
671.459	0.0157869
671.538	0.0157377
671.616	0.0160338
671.694	0.0158918
671.772	0.0158666
671.850	0.0158930
671.928	0.0159518
672.006	0.0158870
672.084	0.0159042
672.163	0.0158591
672.241	0.0158741
672.319	0.0159708
672.397	0.0158958
672.475	0.0158558
672.553	0.0157753
672.631	0.0158465
672.709	0.0158681
672.788	0.0158776
672.866	0.0159512
672.944	0.0158902
673.022	0.0158620
673.100	0.0160456
673.178	0.0161102
673.256	0.0160437
673.334	0.0160395
673.413	0.0161149
673.491	0.0161642
673.569	0.0161597
673.647	0.0161003
673.725	0.0161104
673.803	0.0161995
673.881	0.0161639
673.959	0.0162077
674.038	0.0162321
674.116	0.0161047
674.194	0.0161184
674.272	0.0159499
674.350	0.0160325
674.428	0.0160582
674.506	0.0160130
674.584	0.0158517
674.663	0.0156592
674.741	0.0158891
674.819	0.0159794
674.897	0.0156943
674.975	0.0155975
675.053	0.0157021
675.131	0.0157026
675.209	0.0157307
675.288	0.0157363
675.366	0.0157432
675.444	0.0157720
675.522	0.0159664
675.600	0.0158307
675.678	0.0158474
675.756	0.0159724
675.834	0.0158562
675.913	0.0158823
675.991	0.0160102
676.069	0.0161276
676.147	0.0162622
676.225	0.0161285
676.303	0.0161443
676.381	0.0162811
676.459	0.0160834
676.538	0.0161047
676.616	0.0160574
676.694	0.0161359
676.772	0.0162159
676.850	0.0161819
676.928	0.0160546
677.006	0.0159959
677.084	0.0159630
677.163	0.0161884
677.241	0.0161030
677.319	0.0161095
677.397	0.0158620
677.475	0.0159976
677.553	0.0159007
677.631	0.0158729
677.709	0.0159077
677.788	0.0157722
677.866	0.0159216
677.944	0.0156676
678.022	0.0157247
678.100	0.0158047
678.178	0.0157537
678.256	0.0159650
678.334	0.0156969
678.413	0.0158357
678.491	0.0157970
678.569	0.0159315
678.647	0.0159367
678.725	0.0158849
678.803	0.0159701
678.881	0.0159117
678.959	0.0160554
679.038	0.0162222
679.116	0.0162720
679.194	0.0163317
679.272	0.0163470
679.350	0.0163717
679.428	0.0162953
679.506	0.0163427
679.584	0.0161909
679.663	0.0162590
679.741	0.0162272
679.819	0.0159627
679.897	0.0158665
679.975	0.0158173
680.053	0.0156812
680.131	0.0155158
680.209	0.0154335
680.288	0.0153010
680.366	0.0151780
680.444	0.0153819
680.522	0.0153558
680.600	0.0153199
680.678	0.0155028
680.756	0.0157430
680.834	0.0158002
680.913	0.0160123
680.991	0.0162720
681.069	0.0162589
681.147	0.0164803
681.225	0.0167428
681.303	0.0169272
681.381	0.0169908
681.459	0.0171187
681.538	0.0169877
681.616	0.0168896
681.694	0.0169144
681.772	0.0167839
681.850	0.0165621
681.928	0.0162609
682.006	0.0161171
682.084	0.0157129
682.163	0.0156792
682.241	0.0154009
682.319	0.0150021
682.397	0.0149609
682.475	0.0150486
682.553	0.0148548
682.631	0.0148278
682.709	0.0149608
682.788	0.0149531
682.866	0.0150984
682.944	0.0153146
683.022	0.0154475
683.100	0.0155488
683.178	0.0156882
683.256	0.0158018
683.334	0.0159930
683.413	0.0161175
683.491	0.0163725
683.569	0.0164282
683.647	0.0164668
683.725	0.0163324
683.803	0.0166062
683.881	0.0165263
683.959	0.0165936
684.038	0.0166723
684.116	0.0166743
684.194	0.0166213
684.272	0.0167047
684.350	0.0167413
684.428	0.0165572
684.506	0.0165087
684.584	0.0163668
684.663	0.0163274
684.741	0.0162999
684.819	0.0161079
684.897	0.0159508
684.975	0.0158000
685.053	0.0158429
685.131	0.0156052
685.209	0.0155139
685.288	0.0154814
685.366	0.0154399
685.444	0.0154787
685.522	0.0154517
685.600	0.0157481
685.678	0.0159807
685.756	0.0160025
685.834	0.0161832
685.913	0.0163374
685.991	0.0165273
686.069	0.0166468
686.147	0.0165377
686.225	0.0165302
686.303	0.0164066
686.381	0.0164049
686.459	0.0161501
686.538	0.0158801
686.616	0.0156215
686.694	0.0153577
686.772	0.0150441
686.850	0.0148799
686.928	0.0145634
687.006	0.0143114
687.084	0.0143011
687.163	0.0144089
687.241	0.0145461
687.319	0.0146776
687.397	0.0147903
687.475	0.0149014
687.553	0.0152162
687.631	0.0155394
687.709	0.0158158
687.788	0.0161729
687.866	0.0164776
687.944	0.0167654
688.022	0.0169273
688.100	0.0171655
688.178	0.0171712
688.256	0.0171288
688.334	0.0171980
688.413	0.0172504
688.491	0.0171944
688.569	0.0173733
688.647	0.0172633
688.725	0.0172598
688.803	0.0172417
688.881	0.0173530
688.959	0.0175806
689.038	0.0176067
689.116	0.0173965
689.194	0.0173497
689.272	0.0173662
689.350	0.0173270
689.428	0.0170443
689.506	0.0168604
689.584	0.0164220
689.663	0.0159848
689.741	0.0155930
689.819	0.0149410
689.897	0.0144998
689.975	0.0139806
690.053	0.0134373
690.131	0.0131313
690.209	0.0127372
690.288	0.0124860
690.366	0.0122519
690.444	0.0121678
690.522	0.0120997
690.600	0.0123212
690.678	0.0125509
690.756	0.0130293
690.834	0.0134015
690.913	0.0138576
690.991	0.0143925
691.069	0.0150055
691.147	0.0154003
691.225	0.0161013
691.303	0.0167337
691.381	0.0171603
691.459	0.0176019
691.538	0.0179714
691.616	0.0183585
691.694	0.0187427
691.772	0.0188303
691.850	0.0189896
691.928	0.0191455
692.006	0.0191969
692.084	0.0192606
692.163	0.0192813
692.241	0.0191373
692.319	0.0188059
692.397	0.0184991
692.475	0.0184306
692.553	0.0181473
692.631	0.0179035
692.709	0.0174561
692.788	0.0171368
692.866	0.0166543
692.944	0.0161400
693.022	0.0158306
693.100	0.0151867
693.178	0.0147276
693.256	0.0144539
693.334	0.0140006
693.413	0.0136272
693.491	0.0135650
693.569	0.0133660
693.647	0.0132327
693.725	0.0133155
693.803	0.0131298
693.881	0.0134248
693.959	0.0135569
694.038	0.0138752
694.116	0.0140756
694.194	0.0143008
694.272	0.0146120
694.350	0.0148186
694.428	0.0150033
694.506	0.0151595
694.584	0.0153664
694.663	0.0155326
694.741	0.0156706
694.819	0.0157875
694.897	0.0158540
694.975	0.0157663
695.053	0.0159077
695.131	0.0159129
695.209	0.0159326
695.288	0.0160261
695.366	0.0160670
695.444	0.0162184
695.522	0.0163738
695.600	0.0164772
695.678	0.0168920
695.756	0.0171830
695.834	0.0173676
695.913	0.0179691
695.991	0.0184888
696.069	0.0187048
696.147	0.0189699
696.225	0.0192271
696.303	0.0193430
696.381	0.0194681
696.459	0.0193159
696.538	0.0188527
696.616	0.0185223
696.694	0.0181366
696.772	0.0175931
696.850	0.0171347
696.928	0.0164438
697.006	0.0158566
697.084	0.0151852
697.163	0.0145840
697.241	0.0139012
697.319	0.0133318
697.397	0.0131943
697.475	0.0126888
697.553	0.0124851
697.631	0.0123122
697.709	0.0120874
697.788	0.0121431
697.866	0.0120853
697.944	0.0121455
698.022	0.0124942
698.100	0.0126320
698.178	0.0131928
698.256	0.0135271
698.334	0.0138831
698.413	0.0146034
698.491	0.0151682
698.569	0.0157971
698.647	0.0164504
698.725	0.0171232
698.803	0.0177798
698.881	0.0183651
698.959	0.0189272
699.038	0.0191096
699.116	0.0195029
699.194	0.0196997
699.272	0.0197507
699.350	0.0195882
699.428	0.0195547
699.506	0.0192089
699.584	0.0187850
699.663	0.0184478
699.741	0.0178355
699.819	0.0174528
699.897	0.0169641
699.975	0.0165445
700.053	0.0162238
700.131	0.0159867
700.209	0.0156776
700.288	0.0157257
700.366	0.0155515
700.444	0.0154489
700.522	0.0153358
700.600	0.0155332
700.678	0.0153590
700.756	0.0152778
700.834	0.0153193
700.913	0.0151627
700.991	0.0152625
701.069	0.0151125
701.147	0.0149409
701.225	0.0147269
701.303	0.0146788
701.381	0.0145559
701.459	0.0144649
701.538	0.0145231
701.616	0.0143562
701.694	0.0144875
701.772	0.0144979
701.850	0.0145393
701.928	0.0145062
702.006	0.0145240
702.084	0.0146272
702.163	0.0145798
702.241	0.0145264
702.319	0.0144267
702.397	0.0143666
702.475	0.0142811
702.553	0.0142640
702.631	0.0142536
702.709	0.0143317
702.788	0.0143240
702.866	0.0144221
702.944	0.0148691
703.022	0.0151170
703.100	0.0153819
703.178	0.0159805
703.256	0.0164659
703.334	0.0170380
703.413	0.0177596
703.491	0.0182355
703.569	0.0186889
703.647	0.0191252
703.725	0.0195422
703.803	0.0198420
703.881	0.0200848
703.959	0.0200600
704.038	0.0199585
704.116	0.0198595
704.194	0.0196048
704.272	0.0193424
704.350	0.0188480
704.428	0.0184312
704.506	0.0178598
704.584	0.0176424
704.663	0.0171661
704.741	0.0166700
704.819	0.0163623
704.897	0.0159502
704.975	0.0156139
705.053	0.0153152
705.131	0.0150895
705.209	0.0149206
705.288	0.0147570
705.366	0.0146319
705.444	0.0145167
705.522	0.0143446
705.600	0.0142450
705.678	0.0140692
705.756	0.0139999
705.834	0.0138305
705.913	0.0138635
705.991	0.0138974
706.069	0.0137974
706.147	0.0137286
706.225	0.0137826
706.303	0.0139715
706.381	0.0139046
706.459	0.0139796
706.538	0.0141106
706.616	0.0143834
706.694	0.0142818
706.772	0.0143310
706.850	0.0142599
706.928	0.0144492
707.006	0.0145296
707.084	0.0144407
707.163	0.0143690
707.241	0.0144453
707.319	0.0147086
707.397	0.0146940
707.475	0.0147845
707.553	0.0152053
707.631	0.0152558
707.709	0.0157001
707.788	0.0159959
707.866	0.0163808
707.944	0.0168678
708.022	0.0173196
708.100	0.0176569
708.178	0.0179110
708.256	0.0180966
708.334	0.0182169
708.413	0.0184059
708.491	0.0182958
708.569	0.0183088
708.647	0.0183289
708.725	0.0183945
708.803	0.0181206
708.881	0.0179000
708.959	0.0179781
709.038	0.0177921
709.116	0.0177811
709.194	0.0176956
709.272	0.0174021
709.350	0.0174046
709.428	0.0172408
709.506	0.0171429
709.584	0.0169441
709.663	0.0168651
709.741	0.0167491
709.819	0.0166531
709.897	0.0164861
709.975	0.0163795
710.053	0.0163723
710.131	0.0163064
710.209	0.0160246
710.288	0.0159742
710.366	0.0158502
710.444	0.0156922
710.522	0.0155474
710.600	0.0152622
710.678	0.0150003
710.756	0.0147881
710.834	0.0145983
710.913	0.0143200
710.991	0.0141306
711.069	0.0140857
711.147	0.0139541
711.225	0.0140053
711.303	0.0138948
711.381	0.0138961
711.459	0.0138573
711.538	0.0138303
711.616	0.0137825
711.694	0.0140067
711.772	0.0140775
711.850	0.0140548
711.928	0.0141817
712.006	0.0143113
712.084	0.0144433
712.163	0.0144650
712.241	0.0149326
712.319	0.0150860
712.397	0.0153156
712.475	0.0155161
712.553	0.0156728
712.631	0.0157082
712.709	0.0162273
712.788	0.0162086
712.866	0.0162329
712.944	0.0162135
713.022	0.0162484
713.100	0.0161849
713.178	0.0161154
713.256	0.0160184
713.334	0.0160146
713.413	0.0161655
713.491	0.0162900
713.569	0.0167976
713.647	0.0171584
713.725	0.0174337
713.803	0.0179343
713.881	0.0184843
713.959	0.0185744
714.038	0.0186158
714.116	0.0187463
714.194	0.0184097
714.272	0.0181058
714.350	0.0175784
714.428	0.0170570
714.506	0.0164907
714.584	0.0160017
714.663	0.0154192
714.741	0.0149468
714.819	0.0147411
714.897	0.0145390
714.975	0.0145485
715.053	0.0147085
715.131	0.0150609
715.209	0.0153190
715.288	0.0155443
715.366	0.0159901
715.444	0.0162875
715.522	0.0166553
715.600	0.0168353
715.678	0.0169721
715.756	0.0172185
715.834	0.0170722
715.913	0.0172754
715.991	0.0171696
716.069	0.0169347
716.147	0.0167941
716.225	0.0165542
716.303	0.0163857
716.381	0.0162708
716.459	0.0160065
716.538	0.0158734
716.616	0.0157632
716.694	0.0156088
716.772	0.0153999
716.850	0.0151838
716.928	0.0150736
717.006	0.0149454
717.084	0.0145925
717.163	0.0143842
717.241	0.0143649
717.319	0.0140713
717.397	0.0138372
717.475	0.0139773
717.553	0.0138485
717.631	0.0138495
717.709	0.0139703
717.788	0.0141496
717.866	0.0145248
717.944	0.0146508
718.022	0.0149651
718.100	0.0150816
718.178	0.0153586
718.256	0.0156779
718.334	0.0158317
718.413	0.0159735
718.491	0.0161749
718.569	0.0161454
718.647	0.0160715
718.725	0.0160666
718.803	0.0160738
718.881	0.0159483
718.959	0.0157967
719.038	0.0157794
719.116	0.0157434
719.194	0.0158965
719.272	0.0159262
719.350	0.0160868
719.428	0.0161203
719.506	0.0163724
719.584	0.0166008
719.663	0.0166853
719.741	0.0169462
719.819	0.0170270
719.897	0.0172839
719.975	0.0174520
720.053	0.0176420
720.131	0.0178093
720.209	0.0178321
720.288	0.0179230
720.366	0.0179259
720.444	0.0180315
720.522	0.0180576
720.600	0.0179845
720.678	0.0178288
720.756	0.0175530
720.834	0.0172324
720.913	0.0171094
720.991	0.0165888
721.069	0.0161733
721.147	0.0158295
721.225	0.0153447
721.303	0.0149562
721.381	0.0148763
721.459	0.0145602
721.538	0.0142404
721.616	0.0140714
721.694	0.0139420
721.772	0.0139049
721.850	0.0138915
721.928	0.0140911
722.006	0.0142047
722.084	0.0144263
722.163	0.0147069
722.241	0.0149162
722.319	0.0153084
722.397	0.0155196
722.475	0.0156657
722.553	0.0160102
722.631	0.0160913
722.709	0.0160742
722.788	0.0160156
722.866	0.0159856
722.944	0.0160036
723.022	0.0159776
723.100	0.0160933
723.178	0.0160107
723.256	0.0160099
723.334	0.0162537
723.413	0.0163086
723.491	0.0165266
723.569	0.0166709
723.647	0.0168552
723.725	0.0169319
723.803	0.0169241
723.881	0.0167902
723.959	0.0168760
724.038	0.0166912
724.116	0.0166110
724.194	0.0166077
724.272	0.0161238
724.350	0.0159891
724.428	0.0159372
724.506	0.0160208
724.584	0.0157975
724.663	0.0155487
724.741	0.0156907
724.819	0.0157265
724.897	0.0155144
724.975	0.0156445
725.053	0.0155099
725.131	0.0155431
725.209	0.0155100
725.288	0.0152093
725.366	0.0151395
725.444	0.0148005
725.522	0.0147726
725.600	0.0145412
725.678	0.0144974
725.756	0.0144727
725.834	0.0145849
725.913	0.0145601
725.991	0.0148853
726.069	0.0150753
726.147	0.0154638
726.225	0.0158540
726.303	0.0159717
726.381	0.0164530
726.459	0.0167278
726.538	0.0169154
726.616	0.0169942
726.694	0.0171896
726.772	0.0172899
726.850	0.0173905
726.928	0.0173794
727.006	0.0173119
727.084	0.0173605
727.163	0.0172547
727.241	0.0171606
727.319	0.0169481
727.397	0.0170542
727.475	0.0172543
727.553	0.0172610
727.631	0.0172541
727.709	0.0171098
727.788	0.0170370
727.866	0.0170444
727.944	0.0170989
728.022	0.0170708
728.100	0.0169656
728.178	0.0170675
728.256	0.0170415
728.334	0.0169931
728.413	0.0169205
728.491	0.0168054
728.569	0.0167632
728.647	0.0166274
728.725	0.0164397
728.803	0.0162306
728.881	0.0159534
728.959	0.0157624
729.038	0.0156264
729.116	0.0154874
729.194	0.0153322
729.272	0.0150974
729.350	0.0148772
729.428	0.0146253
729.506	0.0145359
729.584	0.0144701
729.663	0.0142909
729.741	0.0142798
729.819	0.0140380
729.897	0.0140080
729.975	0.0139043
730.053	0.0138705
730.131	0.0138463
730.209	0.0141135
730.288	0.0140873
730.366	0.0140226
730.444	0.0143835
730.522	0.0145515
730.600	0.0147968
730.678	0.0148681
730.756	0.0150969
730.834	0.0155006
730.913	0.0155479
730.991	0.0154094
731.069	0.0156100
731.147	0.0156673
731.225	0.0156825
731.303	0.0156835
731.381	0.0156318
731.459	0.0156003
731.538	0.0157078
731.616	0.0159620
731.694	0.0159807
731.772	0.0161691
731.850	0.0164814
731.928	0.0166767
732.006	0.0171084
732.084	0.0173280
732.163	0.0174722
732.241	0.0176637
732.319	0.0177933
732.397	0.0176124
732.475	0.0176200
732.553	0.0175452
732.631	0.0174734
732.709	0.0171542
732.788	0.0169685
732.866	0.0167335
732.944	0.0164056
733.022	0.0162729
733.100	0.0161939
733.178	0.0162658
733.256	0.0161541
733.334	0.0159847
733.413	0.0159450
733.491	0.0159161
733.569	0.0160759
733.647	0.0162592
733.725	0.0162226
733.803	0.0162630
733.881	0.0161703
733.959	0.0162067
734.038	0.0161822
734.116	0.0160731
734.194	0.0160206
734.272	0.0159771
734.350	0.0159293
734.428	0.0159350
734.506	0.0161523
734.584	0.0160414
734.663	0.0159127
734.741	0.0159622
734.819	0.0160870
734.897	0.0161004
734.975	0.0160979
735.053	0.0158890
735.131	0.0159409
735.209	0.0159036
735.288	0.0158081
735.366	0.0156737
735.444	0.0155097
735.522	0.0155466
735.600	0.0154980
735.678	0.0154943
735.756	0.0153320
735.834	0.0152647
735.913	0.0153642
735.991	0.0153233
736.069	0.0153236
736.147	0.0152299
736.225	0.0151705
736.303	0.0150735
736.381	0.0148981
736.459	0.0147898
736.538	0.0147543
736.616	0.0146750
736.694	0.0145260
736.772	0.0144392
736.850	0.0145210
736.928	0.0145804
737.006	0.0146325
737.084	0.0147909
737.163	0.0150595
737.241	0.0150296
737.319	0.0152985
737.397	0.0153696
737.475	0.0155065
737.553	0.0156265
737.631	0.0155435
737.709	0.0157934
737.788	0.0158364
737.866	0.0159487
737.944	0.0158617
738.022	0.0159997
738.100	0.0160018
738.178	0.0160515
738.256	0.0161092
738.334	0.0162447
738.413	0.0163346
738.491	0.0163445
738.569	0.0163436
738.647	0.0166808
738.725	0.0166870
738.803	0.0167748
738.881	0.0168726
738.959	0.0169672
739.038	0.0169668
739.116	0.0170569
739.194	0.0171441
739.272	0.0169943
739.350	0.0170499
739.428	0.0172775
739.506	0.0170911
739.584	0.0170795
739.663	0.0171946
739.741	0.0171941
739.819	0.0171344
739.897	0.0171645
739.975	0.0170538
740.053	0.0170658
740.131	0.0171223
740.209	0.0169211
740.288	0.0168932
740.366	0.0167812
740.444	0.0166728
740.522	0.0166532
740.600	0.0165388
740.678	0.0165466
740.756	0.0162323
740.834	0.0162592
740.913	0.0162315
740.991	0.0159915
741.069	0.0158546
741.147	0.0157253
741.225	0.0158055
741.303	0.0154614
741.381	0.0152846
741.459	0.0153708
741.538	0.0152122
741.616	0.0150967
741.694	0.0149813
741.772	0.0150948
741.850	0.0149641
741.928	0.0152865
742.006	0.0153188
742.084	0.0153951
742.163	0.0154790
742.241	0.0156364
742.319	0.0157516
742.397	0.0158311
742.475	0.0158062
742.553	0.0157080
742.631	0.0158562
742.709	0.0157439
742.788	0.0159580
742.866	0.0157920
742.944	0.0158378
743.022	0.0157582
743.100	0.0157534
743.178	0.0156361
743.256	0.0159300
743.334	0.0158029
743.413	0.0155989
743.491	0.0155310
743.569	0.0156548
743.647	0.0155556
743.725	0.0154244
743.803	0.0152051
743.881	0.0150427
743.959	0.0150113
744.038	0.0149590
744.116	0.0149093
744.194	0.0148248
744.272	0.0147571
744.350	0.0149188
744.428	0.0149001
744.506	0.0150097
744.584	0.0152136
744.663	0.0153735
744.741	0.0155104
744.819	0.0154798
744.897	0.0157738
744.975	0.0159914
745.053	0.0161761
745.131	0.0163554
745.209	0.0163262
745.288	0.0163520
745.366	0.0165684
745.444	0.0167760
745.522	0.0166677
745.600	0.0168217
745.678	0.0168851
745.756	0.0169148
745.834	0.0168915
745.913	0.0169141
745.991	0.0168433
746.069	0.0168365
746.147	0.0168524
746.225	0.0168320
746.303	0.0168784
746.381	0.0168700
746.459	0.0168957
746.538	0.0167928
746.616	0.0169749
746.694	0.0170636
746.772	0.0171454
746.850	0.0170144
746.928	0.0171751
747.006	0.0171320
747.084	0.0170401
747.163	0.0171037
747.241	0.0169633
747.319	0.0167690
747.397	0.0167610
747.475	0.0166579
747.553	0.0163914
747.631	0.0162376
747.709	0.0158545
747.788	0.0158405
747.866	0.0157201
747.944	0.0157532
748.022	0.0156744
748.100	0.0157363
748.178	0.0155775
748.256	0.0156817
748.334	0.0156654
748.413	0.0156167
748.491	0.0156687
748.569	0.0156794
748.647	0.0155371
748.725	0.0158818
748.803	0.0158699
748.881	0.0155032
748.959	0.0154070
749.038	0.0155679
749.116	0.0155618
749.194	0.0155158
749.272	0.0155063
749.350	0.0154289
749.428	0.0152557
749.506	0.0153819
749.584	0.0151804
749.663	0.0150938
749.741	0.0151140
749.819	0.0150050
749.897	0.0149826
749.975	0.0148284
750.053	0.0146648
750.131	0.0147096
750.209	0.0148064
750.288	0.0147475
750.366	0.0147015
750.444	0.0146938
750.522	0.0149040
750.600	0.0150078
750.678	0.0153001
750.756	0.0154631
750.834	0.0157163
750.913	0.0158742
750.991	0.0159676
751.069	0.0163776
751.147	0.0163465
751.225	0.0164124
751.303	0.0165823
751.381	0.0165355
751.459	0.0164911
751.538	0.0163613
751.616	0.0163384
751.694	0.0161140
751.772	0.0161005
751.850	0.0160025
751.928	0.0158651
752.006	0.0158055
752.084	0.0158435
752.163	0.0159000
752.241	0.0158459
752.319	0.0158054
752.397	0.0158603
752.475	0.0158459
752.553	0.0159904
752.631	0.0159847
752.709	0.0162466
752.788	0.0164539
752.866	0.0163254
752.944	0.0166492
753.022	0.0167206
753.100	0.0168750
753.178	0.0169575
753.256	0.0170613
753.334	0.0171526
753.413	0.0170840
753.491	0.0171289
753.569	0.0171509
753.647	0.0167169
753.725	0.0166601
753.803	0.0164498
753.881	0.0164193
753.959	0.0163105
754.038	0.0159296
754.116	0.0158700
754.194	0.0157926
754.272	0.0155408
754.350	0.0155513
754.428	0.0155495
754.506	0.0154378
754.584	0.0154715
754.663	0.0154659
754.741	0.0154841
754.819	0.0156448
754.897	0.0156296
754.975	0.0156550
755.053	0.0157021
755.131	0.0158382
755.209	0.0157543
755.288	0.0156373
755.366	0.0157061
755.444	0.0156508
755.522	0.0157398
755.600	0.0158136
755.678	0.0157093
755.756	0.0157985
755.834	0.0156174
755.913	0.0157030
755.991	0.0157557
756.069	0.0157051
756.147	0.0158076
756.225	0.0158318
756.303	0.0158955
756.381	0.0160671
756.459	0.0160733
756.538	0.0160007
756.616	0.0159644
756.694	0.0159597
756.772	0.0160082
756.850	0.0158044
756.928	0.0158778
757.006	0.0159706
757.084	0.0159669
757.163	0.0158363
757.241	0.0158665
757.319	0.0158447
757.397	0.0157710
757.475	0.0157146
757.553	0.0157995
757.631	0.0158241
757.709	0.0158856
757.788	0.0158187
757.866	0.0158612
757.944	0.0157777
758.022	0.0160522
758.100	0.0158961
758.178	0.0159077
758.256	0.0158324
758.334	0.0160477
758.413	0.0160242
758.491	0.0159354
758.569	0.0159818
758.647	0.0157924
758.725	0.0158537
758.803	0.0160414
758.881	0.0159264
758.959	0.0160138
759.038	0.0160698
759.116	0.0159669
759.194	0.0161353
759.272	0.0160998
759.350	0.0159660
759.428	0.0159985
759.506	0.0160952
759.584	0.0160922
759.663	0.0160387
759.741	0.0160085
759.819	0.0158102
759.897	0.0158254
759.975	0.0158282
760.053	0.0157665
760.131	0.0155814
760.209	0.0155109
760.288	0.0155713
760.366	0.0154472
760.444	0.0155447
760.522	0.0155338
760.600	0.0157665
760.678	0.0157769
760.756	0.0159406
760.834	0.0161474
760.913	0.0162397
760.991	0.0164980
761.069	0.0166673
761.147	0.0167616
761.225	0.0168643
761.303	0.0169286
761.381	0.0169760
761.459	0.0169779
761.538	0.0169184
761.616	0.0168935
761.694	0.0167719
761.772	0.0166933
761.850	0.0164793
761.928	0.0163795
762.006	0.0163084
762.084	0.0161909
762.163	0.0160435
762.241	0.0161486
762.319	0.0160789
762.397	0.0161364
762.475	0.0160107
762.553	0.0159985
762.631	0.0160300
762.709	0.0159441
762.788	0.0160956
762.866	0.0160812
762.944	0.0161058
763.022	0.0160042
763.100	0.0161057
763.178	0.0161087
763.256	0.0164085
763.334	0.0163324
763.413	0.0162098
763.491	0.0163582
763.569	0.0164854
763.647	0.0164157
763.725	0.0166579
763.803	0.0164952
763.881	0.0165402
763.959	0.0163113
764.038	0.0163058
764.116	0.0161700
764.194	0.0160749
764.272	0.0160097
764.350	0.0158237
764.428	0.0156288
764.506	0.0155209
764.584	0.0155413
764.663	0.0154870
764.741	0.0153535
764.819	0.0152946
764.897	0.0153162
764.975	0.0152791
765.053	0.0154303
765.131	0.0154354
765.209	0.0154653
765.288	0.0153503
765.366	0.0155171
765.444	0.0156324
765.522	0.0156369
765.600	0.0157254
765.678	0.0156680
765.756	0.0158411
765.834	0.0160073
765.913	0.0158154
765.991	0.0158675
766.069	0.0157149
766.147	0.0158122
766.225	0.0157886
766.303	0.0156661
766.381	0.0156548
766.459	0.0154252
766.538	0.0155270
766.616	0.0154953
766.694	0.0154926
766.772	0.0155439
766.850	0.0156729
766.928	0.0156992
767.006	0.0158046
767.084	0.0158082
767.163	0.0158424
767.241	0.0159984
767.319	0.0159872
767.397	0.0160101
767.475	0.0161198
767.553	0.0161661
767.631	0.0161097
767.709	0.0160920
767.788	0.0159198
767.866	0.0157770
767.944	0.0160114
768.022	0.0158644
768.100	0.0156304
768.178	0.0156126
768.256	0.0158206
768.334	0.0156538
768.413	0.0158220
768.491	0.0158607
768.569	0.0160312
768.647	0.0160805
768.725	0.0164005
768.803	0.0162980
768.881	0.0164928
768.959	0.0165926
769.038	0.0166149
769.116	0.0167940
769.194	0.0168697
769.272	0.0168068
769.350	0.0167608
769.428	0.0166660
769.506	0.0166716
769.584	0.0167101
769.663	0.0165569
769.741	0.0165007
769.819	0.0163768
769.897	0.0162277
769.975	0.0162408
770.053	0.0159712
770.131	0.0160712
770.209	0.0160220
770.288	0.0158079
770.366	0.0159325
770.444	0.0158869
770.522	0.0156975
770.600	0.0157444
770.678	0.0156300
770.756	0.0154487
770.834	0.0155978
770.913	0.0154283
770.991	0.0152750
771.069	0.0154576
771.147	0.0154116
771.225	0.0155607
771.303	0.0155217
771.381	0.0155791
771.459	0.0158554
771.538	0.0157753
771.616	0.0160515
771.694	0.0160129
771.772	0.0162502
771.850	0.0163759
771.928	0.0164247
772.006	0.0165260
772.084	0.0165441
772.163	0.0164291
772.241	0.0165118
772.319	0.0164819
772.397	0.0161238
772.475	0.0161921
772.553	0.0161568
772.631	0.0159601
772.709	0.0158240
772.788	0.0155960
772.866	0.0154564
772.944	0.0152795
773.022	0.0152843
773.100	0.0151684
773.178	0.0151733
773.256	0.0149511
773.334	0.0149667
773.413	0.0150297
773.491	0.0152225
773.569	0.0151904
773.647	0.0151830
773.725	0.0152871
773.803	0.0154588
773.881	0.0154885
773.959	0.0154840
774.038	0.0156802
774.116	0.0157505
774.194	0.0157745
774.272	0.0158608
774.350	0.0158280
774.428	0.0160453
774.506	0.0160023
774.584	0.0159267
774.663	0.0159807
774.741	0.0159293
774.819	0.0158281
774.897	0.0158821
774.975	0.0158055
775.053	0.0157963
775.131	0.0158456
775.209	0.0157809
775.288	0.0158555
775.366	0.0159653
775.444	0.0158353
775.522	0.0158310
775.600	0.0159473
775.678	0.0159425
775.756	0.0162791
775.834	0.0162605
775.913	0.0162447
775.991	0.0162553
776.069	0.0162672
776.147	0.0162465
776.225	0.0162234
776.303	0.0163188
776.381	0.0163235
776.459	0.0163667
776.538	0.0162196
776.616	0.0162625
776.694	0.0164474
776.772	0.0163589
776.850	0.0164201
776.928	0.0163665
777.006	0.0163644
777.084	0.0164810
777.163	0.0163293
777.241	0.0165970
777.319	0.0163828
777.397	0.0164968
777.475	0.0163197
777.553	0.0164132
777.631	0.0162290
777.709	0.0162827
777.788	0.0162743
777.866	0.0163960
777.944	0.0162407
778.022	0.0161770
778.100	0.0162167
778.178	0.0161443
778.256	0.0160355
778.334	0.0160634
778.413	0.0161104
778.491	0.0160148
778.569	0.0159161
778.647	0.0156798
778.725	0.0157201
778.803	0.0157660
778.881	0.0156321
778.959	0.0156114
779.038	0.0156089
779.116	0.0157751
779.194	0.0157515
779.272	0.0157265
779.350	0.0157523
779.428	0.0158476
779.506	0.0157332
779.584	0.0156653
779.663	0.0157971
779.741	0.0157590
779.819	0.0157060
779.897	0.0156649
779.975	0.0157259
780.053	0.0157685
780.131	0.0157158
780.209	0.0158307
780.288	0.0156301
780.366	0.0157447
780.444	0.0157130
780.522	0.0157024
780.600	0.0155362
780.678	0.0155501
780.756	0.0158475
780.834	0.0157578
780.913	0.0158717
780.991	0.0157368
781.069	0.0158413
781.147	0.0158429
781.225	0.0159071
781.303	0.0158600
781.381	0.0159561
781.459	0.0158624
781.538	0.0159277
781.616	0.0160264
781.694	0.0158378
781.772	0.0159207
781.850	0.0160285
781.928	0.0159715
782.006	0.0159135
782.084	0.0159917
782.163	0.0160189
782.241	0.0159480
782.319	0.0158951
782.397	0.0160508
782.475	0.0160233
782.553	0.0159774
782.631	0.0158908
782.709	0.0158697
782.788	0.0159527
782.866	0.0159727
782.944	0.0160825
783.022	0.0160740
783.100	0.0161449
783.178	0.0160667
783.256	0.0161630
783.334	0.0162466
783.413	0.0162566
783.491	0.0161732
783.569	0.0163179
783.647	0.0164366
783.725	0.0164156
783.803	0.0163729
783.881	0.0163434
783.959	0.0164027
784.038	0.0161927
784.116	0.0162901
784.194	0.0162693
784.272	0.0163033
784.350	0.0163486
784.428	0.0162183
784.506	0.0161101
784.584	0.0162990
784.663	0.0163817
784.741	0.0163647
784.819	0.0162906
784.897	0.0162251
784.975	0.0162725
785.053	0.0162916
785.131	0.0161534
785.209	0.0161466
785.288	0.0162411
785.366	0.0160292
785.444	0.0161608
785.522	0.0161288
785.600	0.0160059
785.678	0.0160931
785.756	0.0161185
785.834	0.0159995
785.913	0.0160712
785.991	0.0159906
786.069	0.0159927
786.147	0.0161160
786.225	0.0158826
786.303	0.0157138
786.381	0.0158490
786.459	0.0157478
786.538	0.0156706
786.616	0.0157039
786.694	0.0155431
786.772	0.0156556
786.850	0.0155788
786.928	0.0154881
787.006	0.0156081
787.084	0.0156022
787.163	0.0156127
787.241	0.0156293
787.319	0.0156176
787.397	0.0158171
787.475	0.0158824
787.553	0.0157526
787.631	0.0160305
787.709	0.0160238
787.788	0.0161250
787.866	0.0161926
787.944	0.0161430
788.022	0.0161282
788.100	0.0160625
788.178	0.0162257
788.256	0.0161478
788.334	0.0160815
788.413	0.0161307
788.491	0.0159251
788.569	0.0158889
788.647	0.0158582
788.725	0.0158840
788.803	0.0158055
788.881	0.0157115
788.959	0.0159057
789.038	0.0158421
789.116	0.0159074
789.194	0.0158497
789.272	0.0159669
789.350	0.0161397
789.428	0.0161451
789.506	0.0160548
789.584	0.0160973
789.663	0.0160931
789.741	0.0162180
789.819	0.0160369
789.897	0.0160027
789.975	0.0160011
790.053	0.0161228
790.131	0.0162156
790.209	0.0160426
790.288	0.0158356
790.366	0.0158408
790.444	0.0159061
790.522	0.0158123
790.600	0.0158088
790.678	0.0155705
790.756	0.0155870
790.834	0.0156023
790.913	0.0157052
790.991	0.0155560
791.069	0.0154948
791.147	0.0156232
791.225	0.0153756
791.303	0.0155088
791.381	0.0155264
791.459	0.0155889
791.538	0.0156693
791.616	0.0158375
791.694	0.0157327
791.772	0.0157104
791.850	0.0159534
791.928	0.0161086
792.006	0.0161910
792.084	0.0163526
792.163	0.0163824
792.241	0.0163409
792.319	0.0164511
792.397	0.0166122
792.475	0.0165952
792.553	0.0165471
792.631	0.0165171
792.709	0.0165532
792.788	0.0164831
792.866	0.0164049
792.944	0.0163463
793.022	0.0160942
793.100	0.0161024
793.178	0.0161446
793.256	0.0161215
793.334	0.0159551
793.413	0.0159498
793.491	0.0158371
793.569	0.0158562
793.647	0.0157361
793.725	0.0157446
793.803	0.0158051
793.881	0.0157156
793.959	0.0158762
794.038	0.0157755
794.116	0.0156653
794.194	0.0157512
794.272	0.0157796
794.350	0.0158331
794.428	0.0157952
794.506	0.0156708
794.584	0.0157514
794.663	0.0158225
794.741	0.0158512
794.819	0.0158880
794.897	0.0158538
794.975	0.0159827
795.053	0.0158672
795.131	0.0158008
795.209	0.0158529
795.288	0.0159003
795.366	0.0159535
795.444	0.0161981
795.522	0.0161923
795.600	0.0162637
795.678	0.0163747
795.756	0.0165926
795.834	0.0165704
795.913	0.0168216
795.991	0.0166398
796.069	0.0166570
796.147	0.0168553
796.225	0.0166624
796.303	0.0166302
796.381	0.0165284
796.459	0.0164189
796.538	0.0163414
796.616	0.0160349
796.694	0.0158544
796.772	0.0158441
796.850	0.0155336
796.928	0.0153461
797.006	0.0154916
797.084	0.0154074
797.163	0.0152405
797.241	0.0151368
797.319	0.0152016
797.397	0.0151329
797.475	0.0150236
797.553	0.0149831
797.631	0.0151286
797.709	0.0152465
797.788	0.0150737
797.866	0.0154158
797.944	0.0153319
798.022	0.0152293
798.100	0.0154577
798.178	0.0156702
798.256	0.0156576
798.334	0.0158091
798.413	0.0158997
798.491	0.0159519
798.569	0.0159962
798.647	0.0161797
798.725	0.0163103
798.803	0.0161878
798.881	0.0161405
798.959	0.0161259
799.038	0.0163018
799.116	0.0162430
799.194	0.0160762
799.272	0.0158815
799.350	0.0159827
799.428	0.0159732
799.506	0.0157166
799.584	0.0158466
799.663	0.0158751
799.741	0.0157881
799.819	0.0157052
799.897	0.0157732
799.975	0.0158735
800.053	0.0158307
800.131	0.0161518
800.209	0.0160665
800.288	0.0160340
800.366	0.0160661
800.444	0.0163748
800.522	0.0163422
800.600	0.0163555
800.678	0.0163732
800.756	0.0162681
800.834	0.0164449
800.913	0.0162428
800.991	0.0162874
801.069	0.0163080
801.147	0.0163678
801.225	0.0160648
801.303	0.0161005
801.381	0.0161478
801.459	0.0159490
801.538	0.0158817
801.616	0.0158214
801.694	0.0158253
801.772	0.0157285
801.850	0.0157681
801.928	0.0157732
802.006	0.0156021
802.084	0.0156717
802.163	0.0156194
802.241	0.0157588
802.319	0.0155904
802.397	0.0157088
802.475	0.0158871
802.553	0.0159045
802.631	0.0157172
802.709	0.0159554
802.788	0.0158935
802.866	0.0159049
802.944	0.0159170
803.022	0.0159816
803.100	0.0158736
803.178	0.0158373
803.256	0.0157442
803.334	0.0155657
803.413	0.0157102
803.491	0.0155338
803.569	0.0155069
803.647	0.0155436
803.725	0.0155273
803.803	0.0155571
803.881	0.0155566
803.959	0.0155521
804.038	0.0156976
804.116	0.0156727
804.194	0.0157497
804.272	0.0158419
804.350	0.0159423
804.428	0.0159277
804.506	0.0162525
804.584	0.0163590
804.663	0.0164166
804.741	0.0164068
804.819	0.0163951
804.897	0.0165571
804.975	0.0165977
805.053	0.0166993
805.131	0.0166608
805.209	0.0164187
805.288	0.0165191
805.366	0.0162772
805.444	0.0161254
805.522	0.0160172
805.600	0.0159672
805.678	0.0158606
805.756	0.0158028
805.834	0.0157437
805.913	0.0157092
805.991	0.0157951
806.069	0.0156741
806.147	0.0156637
806.225	0.0157456
806.303	0.0159203
806.381	0.0157461
806.459	0.0156976
806.538	0.0158489
806.616	0.0158310
806.694	0.0157416
806.772	0.0158164
806.850	0.0157468
806.928	0.0156137
807.006	0.0158683
807.084	0.0158514
807.163	0.0158135
807.241	0.0158158
807.319	0.0158720
807.397	0.0159122
807.475	0.0159953
807.553	0.0159583
807.631	0.0158302
807.709	0.0159072
807.788	0.0161951
807.866	0.0161700
807.944	0.0160763
808.022	0.0160719
808.100	0.0160892
808.178	0.0160856
808.256	0.0160744
808.334	0.0160485
808.413	0.0158927
808.491	0.0160278
808.569	0.0160702
808.647	0.0158323
808.725	0.0157907
808.803	0.0158028
808.881	0.0157294
808.959	0.0158311
809.038	0.0159013
809.116	0.0158663
809.194	0.0157124
809.272	0.0156731
809.350	0.0158342
809.428	0.0158462
809.506	0.0157485
809.584	0.0156831
809.663	0.0156195
809.741	0.0155740
809.819	0.0156564
809.897	0.0156351
809.975	0.0157057
810.053	0.0156128
810.131	0.0157228
810.209	0.0159338
810.288	0.0160234
810.366	0.0159573
810.444	0.0161265
810.522	0.0161482
810.600	0.0161336
810.678	0.0162971
810.756	0.0163647
810.834	0.0163890
810.913	0.0166096
810.991	0.0165226
811.069	0.0164367
811.147	0.0163825
811.225	0.0164197
811.303	0.0164657
811.381	0.0163754
811.459	0.0163546
811.538	0.0163732
811.616	0.0164082
811.694	0.0163779
811.772	0.0162147
811.850	0.0161261
811.928	0.0160592
812.006	0.0160609
812.084	0.0160427
812.163	0.0158401
812.241	0.0158123
812.319	0.0157401
812.397	0.0156418
812.475	0.0156239
812.553	0.0153697
812.631	0.0153822
812.709	0.0153943
812.788	0.0154029
812.866	0.0152713
812.944	0.0154826
813.022	0.0155004
813.100	0.0154486
813.178	0.0154939
813.256	0.0155702
813.334	0.0156679
813.413	0.0156583
813.491	0.0157184
813.569	0.0158503
813.647	0.0157546
813.725	0.0159015
813.803	0.0159188
813.881	0.0158745
813.959	0.0157875
814.038	0.0158047
814.116	0.0160043
814.194	0.0159552
814.272	0.0159283
814.350	0.0158726
814.428	0.0159322
814.506	0.0159108
814.584	0.0159866
814.663	0.0159149
814.741	0.0160585
814.819	0.0160705
814.897	0.0160613
814.975	0.0160160
815.053	0.0158427
815.131	0.0158836
815.209	0.0160294
815.288	0.0157971
815.366	0.0159438
815.444	0.0158985
815.522	0.0157718
815.600	0.0156732
815.678	0.0156499
815.756	0.0155653
815.834	0.0156525
815.913	0.0155817
815.991	0.0158000
816.069	0.0160136
816.147	0.0158477
816.225	0.0160087
816.303	0.0162974
816.381	0.0162300
816.459	0.0165030
816.538	0.0165862
816.616	0.0166606
816.694	0.0166892
816.772	0.0168464
816.850	0.0167152
816.928	0.0167832
817.006	0.0168438
817.084	0.0167435
817.163	0.0167281
817.241	0.0165856
817.319	0.0164706
817.397	0.0163555
817.475	0.0162808
817.553	0.0162173
817.631	0.0160581
817.709	0.0159398
817.788	0.0158894
817.866	0.0158042
817.944	0.0156963
818.022	0.0155816
818.100	0.0156470
818.178	0.0153427
818.256	0.0154919
818.334	0.0154655
818.413	0.0154819
818.491	0.0154045
818.569	0.0154137
818.647	0.0154954
818.725	0.0153172
818.803	0.0155600
818.881	0.0156145
818.959	0.0157544
819.038	0.0157664
819.116	0.0158573
819.194	0.0160728
819.272	0.0161154
819.350	0.0162518
819.428	0.0162375
819.506	0.0164009
819.584	0.0164258
819.663	0.0164760
819.741	0.0164691
819.819	0.0163219
819.897	0.0162603
819.975	0.0162506
820.053	0.0161209
820.131	0.0162183
820.209	0.0160004
820.288	0.0160130
820.366	0.0160421
820.444	0.0159666
820.522	0.0158955
820.600	0.0158253
820.678	0.0158765
820.756	0.0157407
820.834	0.0157772
820.913	0.0158635
820.991	0.0157729
821.069	0.0158229
821.147	0.0157778
821.225	0.0157059
821.303	0.0157219
821.381	0.0157470
821.459	0.0158523
821.538	0.0156174
821.616	0.0157343
821.694	0.0157434
821.772	0.0157509
821.850	0.0157487
821.928	0.0156834
822.006	0.0157830
822.084	0.0158682
822.163	0.0159534
822.241	0.0160580
822.319	0.0161029
822.397	0.0162634
822.475	0.0161520
822.553	0.0161855
822.631	0.0164765
822.709	0.0163796
822.788	0.0164171
822.866	0.0163776
822.944	0.0163908
823.022	0.0164850
823.100	0.0164711
823.178	0.0164396
823.256	0.0164399
823.334	0.0163116
823.413	0.0163512
823.491	0.0163181
823.569	0.0161845
823.647	0.0162331
823.725	0.0162116
823.803	0.0161516
823.881	0.0160793
823.959	0.0160844
824.038	0.0160020
824.116	0.0158569
824.194	0.0158152
824.272	0.0157288
824.350	0.0156297
824.428	0.0156637
824.506	0.0154448
824.584	0.0154952
824.663	0.0155096
824.741	0.0155476
824.819	0.0156229
824.897	0.0155885
824.975	0.0155950
825.053	0.0156741
825.131	0.0157056
825.209	0.0156836
825.288	0.0159714
825.366	0.0160205
825.444	0.0161739
825.522	0.0160283
825.600	0.0161292
825.678	0.0162961
825.756	0.0163492
825.834	0.0162762
825.913	0.0162485
825.991	0.0162526
826.069	0.0161180
826.147	0.0162910
826.225	0.0162859
826.303	0.0160780
826.381	0.0159103
826.459	0.0157913
826.538	0.0157594
826.616	0.0156456
826.694	0.0157381
826.772	0.0155228
826.850	0.0154202
826.928	0.0154379
827.006	0.0155279
827.084	0.0153745
827.163	0.0152201
827.241	0.0153979
827.319	0.0154083
827.397	0.0152534
827.475	0.0152808
827.553	0.0155150
827.631	0.0155084
827.709	0.0155231
827.788	0.0155771
827.866	0.0157077
827.944	0.0157246
828.022	0.0159182
828.100	0.0159811
828.178	0.0160429
828.256	0.0162794
828.334	0.0164797
828.413	0.0164941
828.491	0.0164629
828.569	0.0164673
828.647	0.0164877
828.725	0.0166671
828.803	0.0164594
828.881	0.0164389
828.959	0.0162907
829.038	0.0163337
829.116	0.0161211
829.194	0.0160834
829.272	0.0159813
829.350	0.0160811
829.428	0.0159331
829.506	0.0158746
829.584	0.0159850
829.663	0.0159171
829.741	0.0158660
829.819	0.0159380
829.897	0.0158937
829.975	0.0158527
830.053	0.0158959
830.131	0.0158226
830.209	0.0157844
830.288	0.0158662
830.366	0.0158064
830.444	0.0157751
830.522	0.0157774
830.600	0.0158102
830.678	0.0156628
830.756	0.0156098
830.834	0.0156685
830.913	0.0156422
830.991	0.0156606
831.069	0.0157050
831.147	0.0156138
831.225	0.0156952
831.303	0.0156342
831.381	0.0157106
831.459	0.0156322
831.538	0.0158275
831.616	0.0158162
831.694	0.0157690
831.772	0.0157905
831.850	0.0159068
831.928	0.0158160
832.006	0.0158114
832.084	0.0157806
832.163	0.0156578
832.241	0.0159791
832.319	0.0160683
832.397	0.0159259
832.475	0.0159598
832.553	0.0159778
832.631	0.0159344
832.709	0.0158053
832.788	0.0158463
832.866	0.0156275
832.944	0.0158178
833.022	0.0157577
833.100	0.0155089
833.178	0.0155694
833.256	0.0155146
833.334	0.0153236
833.413	0.0155340
833.491	0.0154669
833.569	0.0155560
833.647	0.0155328
833.725	0.0154153
833.803	0.0155455
833.881	0.0155436
833.959	0.0155783
834.038	0.0155711
834.116	0.0158221
834.194	0.0157444
834.272	0.0159241
834.350	0.0160995
834.428	0.0161346
834.506	0.0163685
834.584	0.0165089
834.663	0.0165136
834.741	0.0165534
834.819	0.0166384
834.897	0.0167374
834.975	0.0166322
835.053	0.0166122
835.131	0.0165823
835.209	0.0165409
835.288	0.0165308
835.366	0.0165488
835.444	0.0164082
835.522	0.0163161
835.600	0.0162907
835.678	0.0160815
835.756	0.0160446
835.834	0.0159774
835.913	0.0158108
835.991	0.0157303
836.069	0.0157560
836.147	0.0156420
836.225	0.0154620
836.303	0.0154562
836.381	0.0155333
836.459	0.0154689
836.538	0.0154388
836.616	0.0154946
836.694	0.0157133
836.772	0.0157021
836.850	0.0158272
836.928	0.0158540
837.006	0.0159521
837.084	0.0160965
837.163	0.0160902
837.241	0.0162535
837.319	0.0163592
837.397	0.0164798
837.475	0.0165504
837.553	0.0165659
837.631	0.0164262
837.709	0.0164561
837.788	0.0165209
837.866	0.0164452
837.944	0.0162528
838.022	0.0163500
838.100	0.0160635
838.178	0.0159309
838.256	0.0160416
838.334	0.0160476
838.413	0.0158479
838.491	0.0159601
838.569	0.0157603
838.647	0.0158449
838.725	0.0159203
838.803	0.0158072
838.881	0.0157883
838.959	0.0159267
839.038	0.0159910
839.116	0.0160135
839.194	0.0158829
839.272	0.0158768
839.350	0.0159286
839.428	0.0157278
839.506	0.0158868
839.584	0.0158862
839.663	0.0158326
839.741	0.0157849
839.819	0.0156906
839.897	0.0157847
839.975	0.0158330
840.053	0.0156483
840.131	0.0156954
840.209	0.0156367
840.288	0.0156828
840.366	0.0157323
840.444	0.0157502
840.522	0.0157866
840.600	0.0158637
840.678	0.0159608
840.756	0.0158727
840.834	0.0159456
840.913	0.0161567
840.991	0.0161180
841.069	0.0161713
841.147	0.0162405
841.225	0.0162514
841.303	0.0162484
841.381	0.0162911
841.459	0.0163105
841.538	0.0163002
841.616	0.0162499
841.694	0.0161335
841.772	0.0161788
841.850	0.0161557
841.928	0.0159991
842.006	0.0158389
842.084	0.0156704
842.163	0.0159122
842.241	0.0157312
842.319	0.0156870
842.397	0.0158253
842.475	0.0157539
842.553	0.0157953
842.631	0.0157287
842.709	0.0157602
842.788	0.0156982
842.866	0.0158346
842.944	0.0158172
843.022	0.0159840
843.100	0.0158595
843.178	0.0158635
843.256	0.0159916
843.334	0.0159517
843.413	0.0159953
843.491	0.0161462
843.569	0.0163366
843.647	0.0162325
843.725	0.0163092
843.803	0.0165319
843.881	0.0163289
843.959	0.0163596
844.038	0.0163644
844.116	0.0163714
844.194	0.0164468
844.272	0.0164056
844.350	0.0162480
844.428	0.0161848
844.506	0.0161114
844.584	0.0160293
844.663	0.0159749
844.741	0.0157368
844.819	0.0157488
844.897	0.0155423
844.975	0.0155540
845.053	0.0152802
845.131	0.0153214
845.209	0.0153590
845.288	0.0152529
845.366	0.0152485
845.444	0.0152274
845.522	0.0152505
845.600	0.0153101
845.678	0.0153843
845.756	0.0154177
845.834	0.0156055
845.913	0.0155297
845.991	0.0156546
846.069	0.0157071
846.147	0.0156755
846.225	0.0160842
846.303	0.0159929
846.381	0.0159483
846.459	0.0160519
846.538	0.0162127
846.616	0.0162227
846.694	0.0163849
846.772	0.0162581
846.850	0.0161786
846.928	0.0162803
847.006	0.0162617
847.084	0.0162534
847.163	0.0161527
847.241	0.0160638
847.319	0.0158865
847.397	0.0158677
847.475	0.0158037
847.553	0.0158166
847.631	0.0157893
847.709	0.0157767
847.788	0.0157197
847.866	0.0158112
847.944	0.0158479
848.022	0.0157606
848.100	0.0158120
848.178	0.0157252
848.256	0.0158608
848.334	0.0158280
848.413	0.0158781
848.491	0.0158253
848.569	0.0158320
848.647	0.0157184
848.725	0.0157561
848.803	0.0157710
848.881	0.0158477
848.959	0.0158593
849.038	0.0158878
849.116	0.0157885
849.194	0.0158269
849.272	0.0158864
849.350	0.0158971
849.428	0.0157610
849.506	0.0159504
849.584	0.0159587
849.663	0.0160136
849.741	0.0160204
849.819	0.0161620
849.897	0.0161650
849.975	0.0162177
850.053	0.0162387
850.131	0.0161305
850.209	0.0163115
850.288	0.0162506
850.366	0.0162174
850.444	0.0163631
850.522	0.0163129
850.600	0.0161289
850.678	0.0160846
850.756	0.0160439
850.834	0.0158315
850.913	0.0157374
850.991	0.0158807
851.069	0.0157088
851.147	0.0156883
851.225	0.0156617
851.303	0.0158341
851.381	0.0155120
851.459	0.0155917
851.538	0.0155918
851.616	0.0155662
851.694	0.0155200
851.772	0.0156045
851.850	0.0155313
851.928	0.0155438
852.006	0.0156467
852.084	0.0157156
852.163	0.0158940
852.241	0.0156871
852.319	0.0158556
852.397	0.0160475
852.475	0.0159444
852.553	0.0160664
852.631	0.0162817
852.709	0.0163708
852.788	0.0165728
852.866	0.0165371
852.944	0.0165914
853.022	0.0167596
853.100	0.0166685
853.178	0.0165390
853.256	0.0166323
853.334	0.0163844
853.413	0.0164637
853.491	0.0164113
853.569	0.0161411
853.647	0.0161797
853.725	0.0158862
853.803	0.0157227
853.881	0.0155708
853.959	0.0155022
854.038	0.0154471
854.116	0.0152747
854.194	0.0150995
854.272	0.0151469
854.350	0.0151856
854.428	0.0153296
854.506	0.0151662
854.584	0.0153029
854.663	0.0152596
854.741	0.0153424
854.819	0.0153011
854.897	0.0154658
854.975	0.0156927
855.053	0.0157823
855.131	0.0158899
855.209	0.0159085
855.288	0.0159334
855.366	0.0161137
855.444	0.0162345
855.522	0.0162708
855.600	0.0163095
855.678	0.0163805
855.756	0.0162484
855.834	0.0162871
855.913	0.0164204
855.991	0.0163115
856.069	0.0162663
856.147	0.0161113
856.225	0.0161526
856.303	0.0161887
856.381	0.0161025
856.459	0.0158806
856.538	0.0159935
856.616	0.0158385
856.694	0.0156928
856.772	0.0158203
856.850	0.0158430
856.928	0.0157603
857.006	0.0157503
857.084	0.0158624
857.163	0.0159090
857.241	0.0158125
857.319	0.0160339
857.397	0.0160548
857.475	0.0161118
857.553	0.0160983
857.631	0.0160833
857.709	0.0161053
857.788	0.0160857
857.866	0.0161391
857.944	0.0159974
858.022	0.0160642
858.100	0.0160985
858.178	0.0161797
858.256	0.0159302
858.334	0.0160131
858.413	0.0161432
858.491	0.0160416
858.569	0.0160202
858.647	0.0160744
858.725	0.0161226
858.803	0.0160492
858.881	0.0160709
858.959	0.0161247
859.038	0.0161995
859.116	0.0162833
859.194	0.0163027
859.272	0.0163494
859.350	0.0162263
859.428	0.0162947
859.506	0.0163462
859.584	0.0162899
859.663	0.0162758
859.741	0.0162239
859.819	0.0162567
859.897	0.0160793
859.975	0.0160755
860.053	0.0161093
860.131	0.0161006
860.209	0.0159853
860.288	0.0159215
860.366	0.0158186
860.444	0.0157507
860.522	0.0158448
860.600	0.0156121
860.678	0.0156522
860.756	0.0156356
860.834	0.0155911
860.913	0.0156551
860.991	0.0155868
861.069	0.0156256
861.147	0.0156873
861.225	0.0156434
861.303	0.0156456
861.381	0.0155955
861.459	0.0157784
861.538	0.0158414
861.616	0.0157921
861.694	0.0158597
861.772	0.0159692
861.850	0.0160568
861.928	0.0160561
862.006	0.0160220
862.084	0.0161872
862.163	0.0163363
862.241	0.0161580
862.319	0.0162025
862.397	0.0163606
862.475	0.0162917
862.553	0.0162025
862.631	0.0162356
862.709	0.0161452
862.788	0.0160128
862.866	0.0159846
862.944	0.0160468
863.022	0.0160511
863.100	0.0159208
863.178	0.0158225
863.256	0.0157075
863.334	0.0156168
863.413	0.0156339
863.491	0.0156362
863.569	0.0156738
863.647	0.0156290
863.725	0.0156766
863.803	0.0155948
863.881	0.0157542
863.959	0.0158018
864.038	0.0157551
864.116	0.0159811
864.194	0.0159306
864.272	0.0159959
864.350	0.0159766
864.428	0.0161718
864.506	0.0164162
864.584	0.0163075
864.663	0.0163127
864.741	0.0164249
864.819	0.0164260
864.897	0.0165007
864.975	0.0164986
865.053	0.0164948
865.131	0.0164522
865.209	0.0162740
865.288	0.0162049
865.366	0.0160541
865.444	0.0161874
865.522	0.0160481
865.600	0.0159937
865.678	0.0159399
865.756	0.0159338
865.834	0.0158425
865.913	0.0157166
865.991	0.0156539
866.069	0.0157874
866.147	0.0156585
866.225	0.0157079
866.303	0.0158372
866.381	0.0158692
866.459	0.0158712
866.538	0.0158173
866.616	0.0157914
866.694	0.0158608
866.772	0.0159422
866.850	0.0157455
866.928	0.0159322
867.006	0.0158784
867.084	0.0158231
867.163	0.0158963
867.241	0.0158073
867.319	0.0160165
867.397	0.0158923
867.475	0.0157967
867.553	0.0159899
867.631	0.0158820
867.709	0.0158274
867.788	0.0158978
867.866	0.0159253
867.944	0.0159330
868.022	0.0159752
868.100	0.0161221
868.178	0.0159969
868.256	0.0159729
868.334	0.0160738
868.413	0.0160562
868.491	0.0160822
868.569	0.0160387
868.647	0.0161210
868.725	0.0160400
868.803	0.0159388
868.881	0.0159471
868.959	0.0158437
869.038	0.0158553
869.116	0.0157056
869.194	0.0158267
869.272	0.0157201
869.350	0.0159289
869.428	0.0157726
869.506	0.0156695
869.584	0.0156982
869.663	0.0157292
869.741	0.0156985
869.819	0.0155359
869.897	0.0156664
869.975	0.0157745
870.053	0.0158083
870.131	0.0156833
870.209	0.0156397
870.288	0.0158359
870.366	0.0158023
870.444	0.0158557
870.522	0.0157776
870.600	0.0157240
870.678	0.0157555
870.756	0.0158882
870.834	0.0158631
870.913	0.0161150
870.991	0.0160057
871.069	0.0160799
871.147	0.0161931
871.225	0.0163977
871.303	0.0162019
871.381	0.0162924
871.459	0.0163699
871.538	0.0163866
871.616	0.0163197
871.694	0.0162527
871.772	0.0160526
871.850	0.0161868
871.928	0.0161555
872.006	0.0159607
872.084	0.0159319
872.163	0.0160152
872.241	0.0157458
872.319	0.0157088
872.397	0.0156225
872.475	0.0157282
872.553	0.0157470
872.631	0.0156194
872.709	0.0155647
872.788	0.0156086
872.866	0.0156019
872.944	0.0156016
873.022	0.0156085
873.100	0.0155000
873.178	0.0154506
873.256	0.0157176
873.334	0.0157349
873.413	0.0157342
873.491	0.0158977
873.569	0.0159978
873.647	0.0160647
873.725	0.0160033
873.803	0.0160593
873.881	0.0161497
873.959	0.0163042
874.038	0.0163637
874.116	0.0162408
874.194	0.0163442
874.272	0.0163449
874.350	0.0163210
874.428	0.0162903
874.506	0.0161073
874.584	0.0160964
874.663	0.0161532
874.741	0.0159814
874.819	0.0159418
874.897	0.0158439
874.975	0.0157172
875.053	0.0157109
875.131	0.0157692
875.209	0.0157397
875.288	0.0156693
875.366	0.0155537
875.444	0.0157179
875.522	0.0157667
875.600	0.0157347
875.678	0.0158578
875.756	0.0158091
875.834	0.0158692
875.913	0.0158479
875.991	0.0158170
876.069	0.0157484
876.147	0.0158447
876.225	0.0159409
876.303	0.0159264
876.381	0.0158125
876.459	0.0157925
876.538	0.0158545
876.616	0.0158398
876.694	0.0158141
876.772	0.0157764
876.850	0.0158456
876.928	0.0159027
877.006	0.0159798
877.084	0.0159286
877.163	0.0160613
877.241	0.0161787
877.319	0.0160344
877.397	0.0160390
877.475	0.0161201
877.553	0.0161446
877.631	0.0162895
877.709	0.0161842
877.788	0.0159782
877.866	0.0160175
877.944	0.0160432
878.022	0.0159362
878.100	0.0159427
878.178	0.0158829
878.256	0.0157732
878.334	0.0156229
878.413	0.0157095
878.491	0.0157414
878.569	0.0156956
878.647	0.0156866
878.725	0.0157791
878.803	0.0156770
878.881	0.0157548
878.959	0.0157327
879.038	0.0158088
879.116	0.0159590
879.194	0.0159350
879.272	0.0159530
879.350	0.0159603
879.428	0.0160905
879.506	0.0160297
879.584	0.0160825
879.663	0.0160357
879.741	0.0161058
879.819	0.0159896
879.897	0.0160345
879.975	0.0163178
880.053	0.0162262
880.131	0.0159811
880.209	0.0161654
880.288	0.0162432
880.366	0.0161883
880.444	0.0162074
880.522	0.0163054
880.600	0.0162722
880.678	0.0162102
880.756	0.0162617
880.834	0.0164423
880.913	0.0163387
880.991	0.0160960
881.069	0.0160548
881.147	0.0159375
881.225	0.0158057
881.303	0.0158331
881.381	0.0156465
881.459	0.0156100
881.538	0.0156311
881.616	0.0155316
881.694	0.0155428
881.772	0.0156436
881.850	0.0155362
881.928	0.0155091
882.006	0.0156192
882.084	0.0155701
882.163	0.0156063
882.241	0.0158257
882.319	0.0158105
882.397	0.0160897
882.475	0.0161948
882.553	0.0162128
882.631	0.0164002
882.709	0.0163155
882.788	0.0165482
882.866	0.0167712
882.944	0.0168212
883.022	0.0168295
883.100	0.0167672
883.178	0.0168511
883.256	0.0167041
883.334	0.0166555
883.413	0.0166776
883.491	0.0166001
883.569	0.0163887
883.647	0.0163082
883.725	0.0163759
883.803	0.0161980
883.881	0.0160947
883.959	0.0160124
884.038	0.0159012
884.116	0.0157470
884.194	0.0158099
884.272	0.0158781
884.350	0.0158011
884.428	0.0158059
884.506	0.0158702
884.584	0.0157285
884.663	0.0157693
884.741	0.0158628
884.819	0.0158909
884.897	0.0158434
884.975	0.0157660
885.053	0.0158795
885.131	0.0158000
885.209	0.0159044
885.288	0.0158472
885.366	0.0158631
885.444	0.0160107
885.522	0.0158370
885.600	0.0159282
885.678	0.0158299
885.756	0.0158601
885.834	0.0158855
885.913	0.0159917
885.991	0.0159813
886.069	0.0160395
886.147	0.0160745
886.225	0.0161081
886.303	0.0161555
886.381	0.0160987
886.459	0.0161848
886.538	0.0162912
886.616	0.0163274
886.694	0.0163786
886.772	0.0163448
886.850	0.0161941
886.928	0.0162348
887.006	0.0163398
887.084	0.0161064
887.163	0.0161335
887.241	0.0160453
887.319	0.0159740
887.397	0.0158714
887.475	0.0159222
887.553	0.0159303
887.631	0.0158820
887.709	0.0158155
887.788	0.0158990
887.866	0.0159257
887.944	0.0158145
888.022	0.0159247
888.100	0.0159432
888.178	0.0160231
888.256	0.0159399
888.334	0.0158775
888.413	0.0158111
888.491	0.0157712
888.569	0.0158086
888.647	0.0155670
888.725	0.0156159
888.803	0.0155099
888.881	0.0154730
888.959	0.0154100
889.038	0.0155658
889.116	0.0156242
889.194	0.0154823
889.272	0.0156740
889.350	0.0156495
889.428	0.0157711
889.506	0.0158710
889.584	0.0159625
889.663	0.0160281
889.741	0.0161542
889.819	0.0161632
889.897	0.0161958
889.975	0.0161842
890.053	0.0162896
890.131	0.0163101
890.209	0.0162328
890.288	0.0161762
890.366	0.0162270
890.444	0.0162702
890.522	0.0161972
890.600	0.0161435
890.678	0.0159286
890.756	0.0160046
890.834	0.0159160
890.913	0.0158065
890.991	0.0157965
891.069	0.0156471
891.147	0.0155866
891.225	0.0156532
891.303	0.0154232
891.381	0.0156854
891.459	0.0154725
891.538	0.0156036
891.616	0.0154436
891.694	0.0155309
891.772	0.0155500
891.850	0.0156619
891.928	0.0158292
892.006	0.0156390
892.084	0.0158720
892.163	0.0158235
892.241	0.0161553
892.319	0.0163381
892.397	0.0160861
892.475	0.0162343
892.553	0.0162640
892.631	0.0162264
892.709	0.0162029
892.788	0.0161045
892.866	0.0160998
892.944	0.0160089
893.022	0.0160255
893.100	0.0158724
893.178	0.0160506
893.256	0.0157535
893.334	0.0156245
893.413	0.0158765
893.491	0.0158678
893.569	0.0156167
893.647	0.0155978
893.725	0.0157101
893.803	0.0157620
893.881	0.0158333
893.959	0.0158596
894.038	0.0158518
894.116	0.0158524
894.194	0.0158553
894.272	0.0156926
894.350	0.0158613
894.428	0.0157046
894.506	0.0157291
894.584	0.0156363
894.663	0.0156209
894.741	0.0157087
894.819	0.0156084
894.897	0.0155670
894.975	0.0156575
895.053	0.0157743
895.131	0.0158837
895.209	0.0159052
895.288	0.0160217
895.366	0.0161467
895.444	0.0161947
895.522	0.0163937
895.600	0.0162357
895.678	0.0163572
895.756	0.0163634
895.834	0.0163940
895.913	0.0163428
895.991	0.0163984
896.069	0.0163470
896.147	0.0160825
896.225	0.0160644
896.303	0.0160893
896.381	0.0159854
896.459	0.0159859
896.538	0.0157647
896.616	0.0158287
896.694	0.0157397
896.772	0.0158212
896.850	0.0156046
896.928	0.0156588
897.006	0.0156710
897.084	0.0157374
897.163	0.0156387
897.241	0.0157372
897.319	0.0158144
897.397	0.0156297
897.475	0.0156212
897.553	0.0156693
897.631	0.0156519
897.709	0.0156544
897.788	0.0156982
897.866	0.0158518
897.944	0.0158274
898.022	0.0157043
898.100	0.0158067
898.178	0.0157808
898.256	0.0157472
898.334	0.0159621
898.413	0.0160544
898.491	0.0160887
898.569	0.0161291
898.647	0.0160978
898.725	0.0161499
898.803	0.0160645
898.881	0.0161881
898.959	0.0163329
899.038	0.0161195
899.116	0.0160594
899.194	0.0160574
899.272	0.0160847
899.350	0.0159515
899.428	0.0160197
899.506	0.0157446
899.584	0.0157664
899.663	0.0157060
899.741	0.0157509
899.819	0.0158126
899.897	0.0157854
899.975	0.0155766
900.053	0.0156441
900.131	0.0156484
900.209	0.0155753
900.288	0.0156304
900.366	0.0155708
900.444	0.0156374
900.522	0.0157112
900.600	0.0157946
900.678	0.0157865
900.756	0.0159157
900.834	0.0159526
900.913	0.0159669
900.991	0.0160777
901.069	0.0160976
901.147	0.0161494
901.225	0.0160650
901.303	0.0161698
901.381	0.0162074
901.459	0.0163621
901.538	0.0162965
901.616	0.0163062
901.694	0.0163317
901.772	0.0162523
901.850	0.0161935
901.928	0.0161011
902.006	0.0160871
902.084	0.0161552
902.163	0.0161021
902.241	0.0159481
902.319	0.0159213
902.397	0.0158311
902.475	0.0158790
902.553	0.0157930
902.631	0.0158459
902.709	0.0157413
902.788	0.0156331
902.866	0.0156271
902.944	0.0156350
903.022	0.0157267
903.100	0.0156588
903.178	0.0157980
903.256	0.0158305
903.334	0.0158739
903.413	0.0158782
903.491	0.0159068
903.569	0.0157539
903.647	0.0158760
903.725	0.0158727
903.803	0.0159245
903.881	0.0159397
903.959	0.0159216
904.038	0.0159229
904.116	0.0157946
904.194	0.0158533
904.272	0.0159275
904.350	0.0160124
904.428	0.0159553
904.506	0.0160005
904.584	0.0160327
904.663	0.0160561
904.741	0.0160601
904.819	0.0160847
904.897	0.0161765
904.975	0.0161563
905.053	0.0160280
905.131	0.0160191
905.209	0.0161177
905.288	0.0160052
905.366	0.0159919
905.444	0.0161041
905.522	0.0160347
905.600	0.0158945
905.678	0.0161540
905.756	0.0160078
905.834	0.0159453
905.913	0.0159392
905.991	0.0160178
906.069	0.0158201
906.147	0.0158291
906.225	0.0158559
906.303	0.0158264
906.381	0.0159582
906.459	0.0158527
906.538	0.0158665
906.616	0.0157685
906.694	0.0158001
906.772	0.0158086
906.850	0.0159638
906.928	0.0159184
907.006	0.0159850
907.084	0.0158553
907.163	0.0160649
907.241	0.0160498
907.319	0.0159900
907.397	0.0160646
907.475	0.0160551
907.553	0.0160903
907.631	0.0159824
907.709	0.0159235
907.788	0.0161007
907.866	0.0160509
907.944	0.0160581
908.022	0.0161536
908.100	0.0161344
908.178	0.0162954
908.256	0.0161222
908.334	0.0161337
908.413	0.0161035
908.491	0.0161600
908.569	0.0161165
908.647	0.0161108
908.725	0.0161765
908.803	0.0160952
908.881	0.0159083
908.959	0.0158618
909.038	0.0157017
909.116	0.0155228
909.194	0.0157030
909.272	0.0156432
909.350	0.0156286
909.428	0.0155904
909.506	0.0157487
909.584	0.0155483
909.663	0.0157047
909.741	0.0158080
909.819	0.0156953
909.897	0.0158046
909.975	0.0157480
910.053	0.0158321
910.131	0.0158632
910.209	0.0159695
910.288	0.0158372
910.366	0.0159383
910.444	0.0159518
910.522	0.0159762
910.600	0.0159363
910.678	0.0160748
910.756	0.0159439
910.834	0.0160953
910.913	0.0160796
910.991	0.0162122
911.069	0.0161627
911.147	0.0160867
911.225	0.0161070
911.303	0.0161330
911.381	0.0161965
911.459	0.0160220
911.538	0.0160464
911.616	0.0161384
911.694	0.0160439
911.772	0.0160071
911.850	0.0160422
911.928	0.0159338
912.006	0.0158186
912.084	0.0157685
912.163	0.0159070
912.241	0.0157475
912.319	0.0156293
912.397	0.0157509
912.475	0.0157287
912.553	0.0157762
912.631	0.0158089
912.709	0.0157008
912.788	0.0158378
912.866	0.0158028
912.944	0.0158374
913.022	0.0157664
913.100	0.0156799
913.178	0.0158759
913.256	0.0156931
913.334	0.0157602
913.413	0.0158183
913.491	0.0157504
913.569	0.0158054
913.647	0.0160133
913.725	0.0160725
913.803	0.0160604
913.881	0.0159866
913.959	0.0162367
914.038	0.0162419
914.116	0.0162206
914.194	0.0162714
914.272	0.0162289
914.350	0.0163060
914.428	0.0163175
914.506	0.0161932
914.584	0.0161882
914.663	0.0160924
914.741	0.0160436
914.819	0.0159152
914.897	0.0157545
914.975	0.0158771
915.053	0.0156801
915.131	0.0157635
915.209	0.0157938
915.288	0.0158363
915.366	0.0159624
915.444	0.0158919
915.522	0.0158247
915.600	0.0157799
915.678	0.0159248
915.756	0.0160709
915.834	0.0160320
915.913	0.0158009
915.991	0.0159184
916.069	0.0158689
916.147	0.0158907
916.225	0.0160255
916.303	0.0160808
916.381	0.0160353
916.459	0.0159946
916.538	0.0160279
916.616	0.0160527
916.694	0.0162048
916.772	0.0161147
916.850	0.0161700
916.928	0.0162324
917.006	0.0161397
917.084	0.0162965
917.163	0.0162002
917.241	0.0163751
917.319	0.0164276
917.397	0.0163957
917.475	0.0163319
917.553	0.0164714
917.631	0.0163446
917.709	0.0162419
917.788	0.0162008
917.866	0.0160596
917.944	0.0161677
918.022	0.0161920
918.100	0.0158675
918.178	0.0159357
918.256	0.0159322
918.334	0.0158301
918.413	0.0157473
918.491	0.0157942
918.569	0.0157635
918.647	0.0157835
918.725	0.0158430
918.803	0.0156446
918.881	0.0157156
918.959	0.0157085
919.038	0.0159538
919.116	0.0157035
919.194	0.0157951
919.272	0.0159815
919.350	0.0160004
919.428	0.0161269
919.506	0.0160406
919.584	0.0160674
919.663	0.0161362
919.741	0.0160767
919.819	0.0162944
919.897	0.0164719
