05/20/2022	21:04:43	Ver.	4.1	UNKNOWN
Optical Delay	599.975067	Delta X		0.078125	Sweeps	1	Scan Rate	0/0
Coordinates	Axis 1	NaN	Axis 2	NaN	Axis 3	NaN	Axis 4	NaN	Axis 5	NaN	Axis 6	0.000000
TX Power	0.000000	RX Power	0.000000

599.975	0.0154272
600.053	0.0155382
600.131	0.0155018
600.209	0.0155223
600.288	0.0153020
600.366	0.0154418
600.444	0.0154453
600.522	0.0154179
600.600	0.0153556
600.678	0.0155136
600.756	0.0153694
600.834	0.0152588
600.913	0.0153232
600.991	0.0154485
601.069	0.0153490
601.147	0.0154475
601.225	0.0154289
601.303	0.0152814
601.381	0.0153776
601.459	0.0154089
601.538	0.0153665
601.616	0.0153290
601.694	0.0153407
601.772	0.0152857
601.850	0.0153522
601.928	0.0153687
602.006	0.0152383
602.084	0.0154073
602.163	0.0152834
602.241	0.0154793
602.319	0.0153304
602.397	0.0152644
602.475	0.0153661
602.553	0.0154298
602.631	0.0154563
602.709	0.0153288
602.788	0.0152312
602.866	0.0153484
602.944	0.0154527
603.022	0.0154226
603.100	0.0154033
603.178	0.0152677
603.256	0.0153867
603.334	0.0153305
603.413	0.0152460
603.491	0.0152796
603.569	0.0153566
603.647	0.0153186
603.725	0.0154101
603.803	0.0154843
603.881	0.0154652
603.959	0.0154004
604.038	0.0153099
604.116	0.0154337
604.194	0.0154444
604.272	0.0154687
604.350	0.0153503
604.428	0.0154781
604.506	0.0153980
604.584	0.0154178
604.663	0.0155058
604.741	0.0152776
604.819	0.0152469
604.897	0.0154030
604.975	0.0153877
605.053	0.0153480
605.131	0.0152198
605.209	0.0153513
605.288	0.0154565
605.366	0.0154459
605.444	0.0153680
605.522	0.0152203
605.600	0.0153770
605.678	0.0151378
605.756	0.0153514
605.834	0.0154100
605.913	0.0152731
605.991	0.0153883
606.069	0.0153458
606.147	0.0154460
606.225	0.0152306
606.303	0.0153349
606.381	0.0152744
606.459	0.0153716
606.538	0.0153648
606.616	0.0154445
606.694	0.0153735
606.772	0.0153972
606.850	0.0153441
606.928	0.0154971
607.006	0.0154110
607.084	0.0153793
607.163	0.0153146
607.241	0.0154044
607.319	0.0153320
607.397	0.0153040
607.475	0.0153784
607.553	0.0154194
607.631	0.0152429
607.709	0.0152139
607.788	0.0153077
607.866	0.0152863
607.944	0.0152908
608.022	0.0153260
608.100	0.0152280
608.178	0.0152884
608.256	0.0152458
608.334	0.0153215
608.413	0.0153210
608.491	0.0153540
608.569	0.0152611
608.647	0.0154002
608.725	0.0152417
608.803	0.0153491
608.881	0.0151664
608.959	0.0153722
609.038	0.0153658
609.116	0.0154170
609.194	0.0153462
609.272	0.0153373
609.350	0.0153096
609.428	0.0151976
609.506	0.0153055
609.584	0.0152509
609.663	0.0152812
609.741	0.0152882
609.819	0.0153086
609.897	0.0152846
609.975	0.0152252
610.053	0.0153053
610.131	0.0153733
610.209	0.0153474
610.288	0.0151664
610.366	0.0153038
610.444	0.0152618
610.522	0.0152551
610.600	0.0151334
610.678	0.0152022
610.756	0.0152150
610.834	0.0152285
610.913	0.0152631
610.991	0.0153011
611.069	0.0151672
611.147	0.0151233
611.225	0.0151305
611.303	0.0152151
611.381	0.0153449
611.459	0.0151855
611.538	0.0153205
611.616	0.0152767
611.694	0.0152091
611.772	0.0152207
611.850	0.0153033
611.928	0.0151369
612.006	0.0152506
612.084	0.0152612
612.163	0.0152291
612.241	0.0152444
612.319	0.0151843
612.397	0.0152332
612.475	0.0152724
612.553	0.0152644
612.631	0.0151797
612.709	0.0151470
612.788	0.0151793
612.866	0.0153046
612.944	0.0151985
613.022	0.0152185
613.100	0.0151684
613.178	0.0152188
613.256	0.0153168
613.334	0.0151931
613.413	0.0151769
613.491	0.0151196
613.569	0.0153094
613.647	0.0151142
613.725	0.0152367
613.803	0.0152682
613.881	0.0151697
613.959	0.0152313
614.038	0.0152628
614.116	0.0151624
614.194	0.0152073
614.272	0.0151493
614.350	0.0152588
614.428	0.0152523
614.506	0.0152111
614.584	0.0152672
614.663	0.0152001
614.741	0.0151292
614.819	0.0152911
614.897	0.0152256
614.975	0.0152105
615.053	0.0151235
615.131	0.0151656
615.209	0.0151265
615.288	0.0152240
615.366	0.0153381
615.444	0.0151719
615.522	0.0151124
615.600	0.0153211
615.678	0.0152376
615.756	0.0152701
615.834	0.0152557
615.913	0.0152871
615.991	0.0152576
616.069	0.0152229
616.147	0.0152071
616.225	0.0150640
616.303	0.0151378
616.381	0.0151798
616.459	0.0152132
616.538	0.0153951
616.616	0.0152994
616.694	0.0152838
616.772	0.0153172
616.850	0.0152704
616.928	0.0154254
617.006	0.0153671
617.084	0.0152403
617.163	0.0152588
617.241	0.0153206
617.319	0.0152498
617.397	0.0153149
617.475	0.0154441
617.553	0.0152134
617.631	0.0152579
617.709	0.0153509
617.788	0.0154233
617.866	0.0152743
617.944	0.0151960
618.022	0.0153772
618.100	0.0153468
618.178	0.0153512
618.256	0.0152008
618.334	0.0152701
618.413	0.0153223
618.491	0.0154132
618.569	0.0152959
618.647	0.0153146
618.725	0.0152793
618.803	0.0153384
618.881	0.0153007
618.959	0.0153099
619.038	0.0154392
619.116	0.0153358
619.194	0.0152465
619.272	0.0153401
619.350	0.0154707
619.428	0.0152202
619.506	0.0152013
619.584	0.0153295
619.663	0.0154039
619.741	0.0152864
619.819	0.0152417
619.897	0.0152838
619.975	0.0154395
620.053	0.0154204
620.131	0.0152601
620.209	0.0153572
620.288	0.0153602
620.366	0.0153370
620.444	0.0151270
620.522	0.0153854
620.600	0.0153429
620.678	0.0152556
620.756	0.0151595
620.834	0.0153864
620.913	0.0152074
620.991	0.0153442
621.069	0.0152099
621.147	0.0152482
621.225	0.0153127
621.303	0.0153923
621.381	0.0152606
621.459	0.0154131
621.538	0.0154055
621.616	0.0153967
621.694	0.0152549
621.772	0.0151464
621.850	0.0153354
621.928	0.0154810
622.006	0.0152232
622.084	0.0152760
622.163	0.0154397
622.241	0.0152235
622.319	0.0154681
622.397	0.0153775
622.475	0.0153326
622.553	0.0153996
622.631	0.0154308
622.709	0.0154418
622.788	0.0153166
622.866	0.0153441
622.944	0.0153342
623.022	0.0154056
623.100	0.0153801
623.178	0.0156589
623.256	0.0153707
623.334	0.0153342
623.413	0.0153042
623.491	0.0153325
623.569	0.0155154
623.647	0.0154486
623.725	0.0154831
623.803	0.0154591
623.881	0.0154020
623.959	0.0153483
624.038	0.0154438
624.116	0.0154118
624.194	0.0155219
624.272	0.0154295
624.350	0.0152964
624.428	0.0153841
624.506	0.0155054
624.584	0.0155309
624.663	0.0155022
624.741	0.0154863
624.819	0.0155375
624.897	0.0154427
624.975	0.0154027
625.053	0.0153823
625.131	0.0154228
625.209	0.0153234
625.288	0.0153837
625.366	0.0154703
625.444	0.0154467
625.522	0.0154060
625.600	0.0153157
625.678	0.0154907
625.756	0.0154512
625.834	0.0153664
625.913	0.0152727
625.991	0.0152724
626.069	0.0153812
626.147	0.0153935
626.225	0.0153741
626.303	0.0153083
626.381	0.0154591
626.459	0.0153242
626.538	0.0153908
626.616	0.0153685
626.694	0.0152162
626.772	0.0154686
626.850	0.0154649
626.928	0.0153149
627.006	0.0152522
627.084	0.0153806
627.163	0.0153415
627.241	0.0152271
627.319	0.0154263
627.397	0.0153061
627.475	0.0152724
627.553	0.0154172
627.631	0.0152967
627.709	0.0153450
627.788	0.0153085
627.866	0.0153920
627.944	0.0152808
628.022	0.0153638
628.100	0.0153566
628.178	0.0152479
628.256	0.0152264
628.334	0.0154271
628.413	0.0153671
628.491	0.0152919
628.569	0.0153461
628.647	0.0153488
628.725	0.0152576
628.803	0.0154361
628.881	0.0153524
628.959	0.0154108
629.038	0.0154453
629.116	0.0153330
629.194	0.0154615
629.272	0.0154967
629.350	0.0153542
629.428	0.0153719
629.506	0.0153085
629.584	0.0153590
629.663	0.0153340
629.741	0.0153358
629.819	0.0153588
629.897	0.0153733
629.975	0.0153230
630.053	0.0152968
630.131	0.0153923
630.209	0.0154413
630.288	0.0154072
630.366	0.0152914
630.444	0.0153542
630.522	0.0154493
630.600	0.0154443
630.678	0.0153902
630.756	0.0153458
630.834	0.0153558
630.913	0.0153301
630.991	0.0153255
631.069	0.0154108
631.147	0.0153536
631.225	0.0152563
631.303	0.0153564
631.381	0.0154069
631.459	0.0152271
631.538	0.0154777
631.616	0.0153881
631.694	0.0153511
631.772	0.0152800
631.850	0.0154565
631.928	0.0153025
632.006	0.0153606
632.084	0.0153701
632.163	0.0153037
632.241	0.0153002
632.319	0.0153117
632.397	0.0153401
632.475	0.0152125
632.553	0.0153795
632.631	0.0153651
632.709	0.0153254
632.788	0.0151360
632.866	0.0153012
632.944	0.0153471
633.022	0.0151752
633.100	0.0153137
633.178	0.0151659
633.256	0.0153681
633.334	0.0152461
633.413	0.0152444
633.491	0.0153564
633.569	0.0152895
633.647	0.0152430
633.725	0.0152470
633.803	0.0153090
633.881	0.0152785
633.959	0.0152518
634.038	0.0152003
634.116	0.0151443
634.194	0.0153759
634.272	0.0153833
634.350	0.0152597
634.428	0.0152837
634.506	0.0152849
634.584	0.0153152
634.663	0.0153310
634.741	0.0153779
634.819	0.0152584
634.897	0.0154133
634.975	0.0154720
635.053	0.0154090
635.131	0.0154177
635.209	0.0152581
635.288	0.0152866
635.366	0.0152475
635.444	0.0151313
635.522	0.0153787
635.600	0.0152531
635.678	0.0152818
635.756	0.0151469
635.834	0.0154385
635.913	0.0152783
635.991	0.0153540
636.069	0.0154120
636.147	0.0153318
636.225	0.0153336
636.303	0.0153809
636.381	0.0153377
636.459	0.0153295
636.538	0.0154145
636.616	0.0153024
636.694	0.0153278
636.772	0.0152150
636.850	0.0151666
636.928	0.0153280
637.006	0.0153520
637.084	0.0153845
637.163	0.0154527
637.241	0.0153767
637.319	0.0153999
637.397	0.0152781
637.475	0.0153732
637.553	0.0153589
637.631	0.0153100
637.709	0.0153891
637.788	0.0155291
637.866	0.0154470
637.944	0.0153819
638.022	0.0152650
638.100	0.0153697
638.178	0.0154501
638.256	0.0153706
638.334	0.0152910
638.413	0.0153444
638.491	0.0153929
638.569	0.0154645
638.647	0.0153957
638.725	0.0153913
638.803	0.0153513
638.881	0.0154707
638.959	0.0154406
639.038	0.0154126
639.116	0.0153928
639.194	0.0154143
639.272	0.0153754
639.350	0.0153599
639.428	0.0154447
639.506	0.0155070
639.584	0.0153535
639.663	0.0154839
639.741	0.0153812
639.819	0.0152106
639.897	0.0153675
639.975	0.0154032
640.053	0.0153632
640.131	0.0154276
640.209	0.0153702
640.288	0.0153889
640.366	0.0152386
640.444	0.0154121
640.522	0.0153541
640.600	0.0153205
640.678	0.0153174
640.756	0.0152340
640.834	0.0153340
640.913	0.0153348
640.991	0.0153272
641.069	0.0153146
641.147	0.0153654
641.225	0.0153019
641.303	0.0153072
641.381	0.0153151
641.459	0.0152924
641.538	0.0152527
641.616	0.0152349
641.694	0.0154139
641.772	0.0153241
641.850	0.0155386
641.928	0.0154149
642.006	0.0153589
642.084	0.0153745
642.163	0.0154172
642.241	0.0154256
642.319	0.0152682
642.397	0.0153422
642.475	0.0154124
642.553	0.0152415
642.631	0.0152551
642.709	0.0152917
642.788	0.0153297
642.866	0.0153437
642.944	0.0153601
643.022	0.0153339
643.100	0.0153970
643.178	0.0152670
643.256	0.0154653
643.334	0.0152187
643.413	0.0153297
643.491	0.0153613
643.569	0.0153397
643.647	0.0154691
643.725	0.0154128
643.803	0.0154533
643.881	0.0153645
643.959	0.0153847
644.038	0.0152396
644.116	0.0154881
644.194	0.0153926
644.272	0.0153089
644.350	0.0152393
644.428	0.0152763
644.506	0.0152837
644.584	0.0151855
644.663	0.0153925
644.741	0.0151556
644.819	0.0153453
644.897	0.0152933
644.975	0.0153161
645.053	0.0151326
645.131	0.0154053
645.209	0.0153697
645.288	0.0153802
645.366	0.0153080
645.444	0.0155184
645.522	0.0155033
645.600	0.0153238
645.678	0.0153933
645.756	0.0154954
645.834	0.0154210
645.913	0.0154922
645.991	0.0154109
646.069	0.0155707
646.147	0.0155298
646.225	0.0153877
646.303	0.0154781
646.381	0.0155273
646.459	0.0155435
646.538	0.0153082
646.616	0.0154475
646.694	0.0154078
646.772	0.0153314
646.850	0.0152150
646.928	0.0152655
647.006	0.0152921
647.084	0.0152341
647.163	0.0153191
647.241	0.0151263
647.319	0.0150939
647.397	0.0150764
647.475	0.0152512
647.553	0.0150442
647.631	0.0150722
647.709	0.0151107
647.788	0.0152321
647.866	0.0150905
647.944	0.0153161
648.022	0.0151909
648.100	0.0153029
648.178	0.0153724
648.256	0.0154488
648.334	0.0153671
648.413	0.0153840
648.491	0.0154443
648.569	0.0155577
648.647	0.0154049
648.725	0.0154164
648.803	0.0153062
648.881	0.0155307
648.959	0.0154114
649.038	0.0154774
649.116	0.0155249
649.194	0.0154539
649.272	0.0154167
649.350	0.0154336
649.428	0.0153551
649.506	0.0153812
649.584	0.0153349
649.663	0.0153345
649.741	0.0152156
649.819	0.0152721
649.897	0.0153415
649.975	0.0152860
650.053	0.0152365
650.131	0.0153004
650.209	0.0153485
650.288	0.0153967
650.366	0.0154245
650.444	0.0152735
650.522	0.0153008
650.600	0.0152786
650.678	0.0153917
650.756	0.0153793
650.834	0.0154576
650.913	0.0152231
650.991	0.0153267
651.069	0.0152393
651.147	0.0152454
651.225	0.0153013
651.303	0.0151985
651.381	0.0151521
651.459	0.0152695
651.538	0.0152129
651.616	0.0152037
651.694	0.0152995
651.772	0.0153201
651.850	0.0151775
651.928	0.0152757
652.006	0.0152250
652.084	0.0153034
652.163	0.0152615
652.241	0.0153202
652.319	0.0153826
652.397	0.0153198
652.475	0.0153915
652.553	0.0153973
652.631	0.0154645
652.709	0.0155701
652.788	0.0155669
652.866	0.0156834
652.944	0.0155635
653.022	0.0156052
653.100	0.0155440
653.178	0.0156030
653.256	0.0154860
653.334	0.0155431
653.413	0.0156226
653.491	0.0155093
653.569	0.0155159
653.647	0.0154774
653.725	0.0154251
653.803	0.0154379
653.881	0.0153569
653.959	0.0153444
654.038	0.0153388
654.116	0.0152938
654.194	0.0154575
654.272	0.0153516
654.350	0.0152644
654.428	0.0151082
654.506	0.0152027
654.584	0.0152059
654.663	0.0152309
654.741	0.0151614
654.819	0.0151248
654.897	0.0150666
654.975	0.0151956
655.053	0.0151437
655.131	0.0150565
655.209	0.0150787
655.288	0.0151527
655.366	0.0150957
655.444	0.0151355
655.522	0.0151029
655.600	0.0153099
655.678	0.0153340
655.756	0.0153877
655.834	0.0154487
655.913	0.0154556
655.991	0.0154939
656.069	0.0155936
656.147	0.0155925
656.225	0.0155835
656.303	0.0155499
656.381	0.0157673
656.459	0.0157300
656.538	0.0156602
656.616	0.0156728
656.694	0.0158815
656.772	0.0157153
656.850	0.0157962
656.928	0.0157315
657.006	0.0157180
657.084	0.0157495
657.163	0.0157508
657.241	0.0157558
657.319	0.0156011
657.397	0.0154423
657.475	0.0154527
657.553	0.0154320
657.631	0.0153280
657.709	0.0154212
657.788	0.0152432
657.866	0.0152225
657.944	0.0152390
658.022	0.0151405
658.100	0.0150441
658.178	0.0150337
658.256	0.0150017
658.334	0.0149791
658.413	0.0150138
658.491	0.0149339
658.569	0.0150778
658.647	0.0151794
658.725	0.0150418
658.803	0.0151325
658.881	0.0151904
658.959	0.0152048
659.038	0.0152332
659.116	0.0152522
659.194	0.0152598
659.272	0.0152679
659.350	0.0153676
659.428	0.0153719
659.506	0.0152561
659.584	0.0153918
659.663	0.0154549
659.741	0.0155090
659.819	0.0153239
659.897	0.0154370
659.975	0.0156442
660.053	0.0155899
660.131	0.0156930
660.209	0.0155771
660.288	0.0156048
660.366	0.0157073
660.444	0.0156667
660.522	0.0156135
660.600	0.0157234
660.678	0.0157979
660.756	0.0157314
660.834	0.0157519
660.913	0.0157950
660.991	0.0158688
661.069	0.0157156
661.147	0.0156256
661.225	0.0156308
661.303	0.0156177
661.381	0.0155353
661.459	0.0154237
661.538	0.0152287
661.616	0.0153743
661.694	0.0153951
661.772	0.0152652
661.850	0.0152256
661.928	0.0152060
662.006	0.0150067
662.084	0.0150438
662.163	0.0151215
662.241	0.0149799
662.319	0.0149261
662.397	0.0149326
662.475	0.0149634
662.553	0.0150046
662.631	0.0150728
662.709	0.0150151
662.788	0.0150952
662.866	0.0149890
662.944	0.0152195
663.022	0.0151389
663.100	0.0152180
663.178	0.0154003
663.256	0.0152673
663.334	0.0152969
663.413	0.0155532
663.491	0.0155176
663.569	0.0155267
663.647	0.0155059
663.725	0.0155831
663.803	0.0156056
663.881	0.0156544
663.959	0.0155199
664.038	0.0157516
664.116	0.0157035
664.194	0.0157170
664.272	0.0156720
664.350	0.0155697
664.428	0.0155081
664.506	0.0155183
664.584	0.0154840
664.663	0.0154189
664.741	0.0155139
664.819	0.0153537
664.897	0.0152934
664.975	0.0154727
665.053	0.0153585
665.131	0.0153397
665.209	0.0153959
665.288	0.0154185
665.366	0.0152116
665.444	0.0151945
665.522	0.0153882
665.600	0.0153465
665.678	0.0152147
665.756	0.0152837
665.834	0.0151810
665.913	0.0152602
665.991	0.0151023
666.069	0.0152044
666.147	0.0152757
666.225	0.0151206
666.303	0.0150800
666.381	0.0151040
666.459	0.0151922
666.538	0.0151691
666.616	0.0151152
666.694	0.0152830
666.772	0.0151286
666.850	0.0150745
666.928	0.0151212
667.006	0.0153148
667.084	0.0150201
667.163	0.0151550
667.241	0.0152740
667.319	0.0152147
667.397	0.0152034
667.475	0.0153091
667.553	0.0153001
667.631	0.0152776
667.709	0.0152903
667.788	0.0153081
667.866	0.0152184
667.944	0.0153199
668.022	0.0154391
668.100	0.0154589
668.178	0.0152428
668.256	0.0154175
668.334	0.0154180
668.413	0.0151764
668.491	0.0153516
668.569	0.0152471
668.647	0.0152940
668.725	0.0152953
668.803	0.0152074
668.881	0.0150998
668.959	0.0152158
669.038	0.0152999
669.116	0.0153182
669.194	0.0152673
669.272	0.0151721
669.350	0.0150781
669.428	0.0150967
669.506	0.0150719
669.584	0.0151997
669.663	0.0151553
669.741	0.0150831
669.819	0.0151294
669.897	0.0153270
669.975	0.0151732
670.053	0.0151298
670.131	0.0152478
670.209	0.0152858
670.288	0.0153317
670.366	0.0153393
670.444	0.0153094
670.522	0.0154620
670.600	0.0152689
670.678	0.0151924
670.756	0.0152761
670.834	0.0154840
670.913	0.0153998
670.991	0.0152152
671.069	0.0151584
671.147	0.0153129
671.225	0.0153390
671.303	0.0151699
671.381	0.0152781
671.459	0.0153189
671.538	0.0152013
671.616	0.0152702
671.694	0.0151765
671.772	0.0152882
671.850	0.0153127
671.928	0.0153379
672.006	0.0152985
672.084	0.0152468
672.163	0.0152840
672.241	0.0152078
672.319	0.0152634
672.397	0.0152349
672.475	0.0152567
672.553	0.0153503
672.631	0.0154475
672.709	0.0153091
672.788	0.0154926
672.866	0.0153085
672.944	0.0153635
673.022	0.0154135
673.100	0.0154065
673.178	0.0155053
673.256	0.0154194
673.334	0.0154722
673.413	0.0155831
673.491	0.0154186
673.569	0.0154782
673.647	0.0154194
673.725	0.0154282
673.803	0.0153637
673.881	0.0155000
673.959	0.0153833
674.038	0.0153978
674.116	0.0152654
674.194	0.0152209
674.272	0.0152367
674.350	0.0152940
674.428	0.0151925
674.506	0.0153756
674.584	0.0152084
674.663	0.0151347
674.741	0.0152970
674.819	0.0153012
674.897	0.0153739
674.975	0.0152448
675.053	0.0153160
675.131	0.0153723
675.209	0.0153944
675.288	0.0154760
675.366	0.0154781
675.444	0.0153884
675.522	0.0153749
675.600	0.0153240
675.678	0.0154021
675.756	0.0154830
675.834	0.0154304
675.913	0.0153683
675.991	0.0154143
676.069	0.0154369
676.147	0.0152938
676.225	0.0153516
676.303	0.0152740
676.381	0.0152419
676.459	0.0153030
676.538	0.0151839
676.616	0.0152410
676.694	0.0151974
676.772	0.0152901
676.850	0.0153006
676.928	0.0152560
677.006	0.0152003
677.084	0.0152227
677.163	0.0152363
677.241	0.0152024
677.319	0.0153709
677.397	0.0154944
677.475	0.0153551
677.553	0.0151208
677.631	0.0155264
677.709	0.0154860
677.788	0.0153493
677.866	0.0155959
677.944	0.0155652
678.022	0.0156059
678.100	0.0155377
678.178	0.0156938
678.256	0.0154774
678.334	0.0155648
678.413	0.0157403
678.491	0.0154110
678.569	0.0154169
678.647	0.0154362
678.725	0.0153585
678.803	0.0150426
678.881	0.0150563
678.959	0.0150002
679.038	0.0149770
679.116	0.0148404
679.194	0.0146346
679.272	0.0148042
679.350	0.0147574
679.428	0.0147907
679.506	0.0148073
679.584	0.0149241
679.663	0.0148525
679.741	0.0150206
679.819	0.0153345
679.897	0.0152686
679.975	0.0156894
680.053	0.0158534
680.131	0.0160497
680.209	0.0162154
680.288	0.0162939
680.366	0.0162244
680.444	0.0164176
680.522	0.0161965
680.600	0.0162067
680.678	0.0160177
680.756	0.0158403
680.834	0.0158176
680.913	0.0154514
680.991	0.0151687
681.069	0.0150701
681.147	0.0149094
681.225	0.0146769
681.303	0.0145519
681.381	0.0143618
681.459	0.0141682
681.538	0.0142277
681.616	0.0141068
681.694	0.0142239
681.772	0.0142513
681.850	0.0145182
681.928	0.0146854
682.006	0.0147448
682.084	0.0147987
682.163	0.0152457
682.241	0.0155139
682.319	0.0155486
682.397	0.0159196
682.475	0.0160788
682.553	0.0161490
682.631	0.0161916
682.709	0.0163157
682.788	0.0163617
682.866	0.0162513
682.944	0.0162881
683.022	0.0162933
683.100	0.0162212
683.178	0.0161320
683.256	0.0161462
683.334	0.0160995
683.413	0.0158809
683.491	0.0157124
683.569	0.0157156
683.647	0.0155145
683.725	0.0155270
683.803	0.0154665
683.881	0.0152161
683.959	0.0151313
684.038	0.0147810
684.116	0.0148318
684.194	0.0147044
684.272	0.0146664
684.350	0.0144402
684.428	0.0144313
684.506	0.0144830
684.584	0.0144286
684.663	0.0143890
684.741	0.0143760
684.819	0.0146301
684.897	0.0144656
684.975	0.0148434
685.053	0.0149646
685.131	0.0151259
685.209	0.0152867
685.288	0.0155737
685.366	0.0155858
685.444	0.0157348
685.522	0.0158286
685.600	0.0157531
685.678	0.0158433
685.756	0.0156596
685.834	0.0155296
685.913	0.0154246
685.991	0.0153972
686.069	0.0152669
686.147	0.0150788
686.225	0.0150838
686.303	0.0149902
686.381	0.0149100
686.459	0.0148756
686.538	0.0149348
686.616	0.0147871
686.694	0.0150853
686.772	0.0150580
686.850	0.0149582
686.928	0.0150993
687.006	0.0151352
687.084	0.0151949
687.163	0.0152849
687.241	0.0151392
687.319	0.0152685
687.397	0.0152963
687.475	0.0154523
687.553	0.0154259
687.631	0.0155227
687.709	0.0156570
687.788	0.0157693
687.866	0.0159674
687.944	0.0159297
688.022	0.0160556
688.100	0.0163421
688.178	0.0165588
688.256	0.0166782
688.334	0.0169076
688.413	0.0169854
688.491	0.0170617
688.569	0.0169435
688.647	0.0167765
688.725	0.0167162
688.803	0.0166218
688.881	0.0161734
688.959	0.0157850
689.038	0.0154935
689.116	0.0150761
689.194	0.0144680
689.272	0.0140575
689.350	0.0137621
689.428	0.0135037
689.506	0.0130772
689.584	0.0128419
689.663	0.0126572
689.741	0.0124199
689.819	0.0123515
689.897	0.0122759
689.975	0.0124022
690.053	0.0125376
690.131	0.0124399
690.209	0.0126752
690.288	0.0129794
690.366	0.0133092
690.444	0.0134523
690.522	0.0136698
690.600	0.0140790
690.678	0.0144212
690.756	0.0150466
690.834	0.0155180
690.913	0.0159996
690.991	0.0165092
691.069	0.0172527
691.147	0.0178107
691.225	0.0180080
691.303	0.0183619
691.381	0.0188532
691.459	0.0192069
691.538	0.0192831
691.616	0.0194563
691.694	0.0192614
691.772	0.0191621
691.850	0.0188284
691.928	0.0183998
692.006	0.0180472
692.084	0.0176022
692.163	0.0169601
692.241	0.0164678
692.319	0.0157488
692.397	0.0153442
692.475	0.0148512
692.553	0.0143880
692.631	0.0139677
692.709	0.0134492
692.788	0.0131300
692.866	0.0127873
692.944	0.0126034
693.022	0.0125105
693.100	0.0121920
693.178	0.0122327
693.256	0.0121720
693.334	0.0121897
693.413	0.0122173
693.491	0.0123999
693.569	0.0123705
693.647	0.0125959
693.725	0.0130174
693.803	0.0131111
693.881	0.0133627
693.959	0.0137677
694.038	0.0139705
694.116	0.0142036
694.194	0.0144821
694.272	0.0147601
694.350	0.0150266
694.428	0.0150449
694.506	0.0151849
694.584	0.0155463
694.663	0.0157708
694.741	0.0158356
694.819	0.0161240
694.897	0.0161970
694.975	0.0165823
695.053	0.0168587
695.131	0.0171027
695.209	0.0172182
695.288	0.0176194
695.366	0.0180291
695.444	0.0182007
695.522	0.0182050
695.600	0.0183190
695.678	0.0184072
695.756	0.0182085
695.834	0.0181041
695.913	0.0177466
695.991	0.0173621
696.069	0.0171136
696.147	0.0165323
696.225	0.0160312
696.303	0.0155658
696.381	0.0152645
696.459	0.0150105
696.538	0.0147126
696.616	0.0146538
696.694	0.0144135
696.772	0.0143446
696.850	0.0144965
696.928	0.0144483
697.006	0.0144911
697.084	0.0145105
697.163	0.0146397
697.241	0.0145016
697.319	0.0143571
697.397	0.0142716
697.475	0.0141896
697.553	0.0140671
697.631	0.0137320
697.709	0.0135873
697.788	0.0133562
697.866	0.0132793
697.944	0.0130518
698.022	0.0131461
698.100	0.0131612
698.178	0.0129851
698.256	0.0131799
698.334	0.0132921
698.413	0.0135428
698.491	0.0136691
698.569	0.0138331
698.647	0.0141324
698.725	0.0144578
698.803	0.0148911
698.881	0.0152087
698.959	0.0155890
699.038	0.0159345
699.116	0.0164184
699.194	0.0168522
699.272	0.0171177
699.350	0.0176928
699.428	0.0183190
699.506	0.0185332
699.584	0.0186599
699.663	0.0187958
699.741	0.0190426
699.819	0.0188994
699.897	0.0186325
699.975	0.0185417
700.053	0.0182925
700.131	0.0177965
700.209	0.0172763
700.288	0.0166952
700.366	0.0161366
700.444	0.0156763
700.522	0.0150007
700.600	0.0145269
700.678	0.0139655
700.756	0.0136218
700.834	0.0133005
700.913	0.0129620
700.991	0.0128062
701.069	0.0126824
701.147	0.0127136
701.225	0.0127032
701.303	0.0128358
701.381	0.0128542
701.459	0.0129843
701.538	0.0133194
701.616	0.0134495
701.694	0.0136091
701.772	0.0138215
701.850	0.0142049
701.928	0.0142064
702.006	0.0144070
702.084	0.0146766
702.163	0.0146384
702.241	0.0148058
702.319	0.0148772
702.397	0.0150619
702.475	0.0152075
702.553	0.0156202
702.631	0.0155704
702.709	0.0158279
702.788	0.0159996
702.866	0.0163330
702.944	0.0165775
703.022	0.0168455
703.100	0.0168908
703.178	0.0171159
703.256	0.0172764
703.334	0.0171810
703.413	0.0171619
703.491	0.0172303
703.569	0.0172300
703.647	0.0171371
703.725	0.0168246
703.803	0.0167268
703.881	0.0165516
703.959	0.0164388
704.038	0.0162764
704.116	0.0161199
704.194	0.0159854
704.272	0.0158676
704.350	0.0158266
704.428	0.0156927
704.506	0.0155063
704.584	0.0155580
704.663	0.0153397
704.741	0.0151797
704.819	0.0150992
704.897	0.0150465
704.975	0.0149807
705.053	0.0149157
705.131	0.0149509
705.209	0.0150068
705.288	0.0149041
705.366	0.0149912
705.444	0.0150259
705.522	0.0151010
705.600	0.0150425
705.678	0.0150362
705.756	0.0152330
705.834	0.0149369
705.913	0.0147110
705.991	0.0146158
706.069	0.0144273
706.147	0.0142707
706.225	0.0139699
706.303	0.0137849
706.381	0.0135693
706.459	0.0134149
706.538	0.0133640
706.616	0.0134747
706.694	0.0135545
706.772	0.0136193
706.850	0.0140987
706.928	0.0142774
707.006	0.0145322
707.084	0.0146711
707.163	0.0146532
707.241	0.0150018
707.319	0.0150901
707.397	0.0151367
707.475	0.0150375
707.553	0.0154150
707.631	0.0155780
707.709	0.0156794
707.788	0.0159662
707.866	0.0161265
707.944	0.0163380
708.022	0.0167102
708.100	0.0170399
708.178	0.0172612
708.256	0.0174654
708.334	0.0175985
708.413	0.0176471
708.491	0.0178193
708.569	0.0176840
708.647	0.0174397
708.725	0.0173220
708.803	0.0169627
708.881	0.0167714
708.959	0.0166038
709.038	0.0163689
709.116	0.0161647
709.194	0.0159375
709.272	0.0158479
709.350	0.0156629
709.428	0.0157262
709.506	0.0155620
709.584	0.0153043
709.663	0.0152560
709.741	0.0151304
709.819	0.0149348
709.897	0.0147694
709.975	0.0143044
710.053	0.0142174
710.131	0.0141146
710.209	0.0139422
710.288	0.0137303
710.366	0.0137699
710.444	0.0136510
710.522	0.0137997
710.600	0.0139406
710.678	0.0139362
710.756	0.0140615
710.834	0.0143276
710.913	0.0145389
710.991	0.0146774
711.069	0.0150504
711.147	0.0150280
711.225	0.0151257
711.303	0.0152383
711.381	0.0152112
711.459	0.0153114
711.538	0.0152328
711.616	0.0153306
711.694	0.0153788
711.772	0.0153371
711.850	0.0152011
711.928	0.0151909
712.006	0.0152043
712.084	0.0151572
712.163	0.0149942
712.241	0.0148857
712.319	0.0148512
712.397	0.0146831
712.475	0.0145676
712.553	0.0142683
712.631	0.0142683
712.709	0.0140559
712.788	0.0139156
712.866	0.0138958
712.944	0.0139676
713.022	0.0140711
713.100	0.0140314
713.178	0.0141028
713.256	0.0143561
713.334	0.0145750
713.413	0.0149004
713.491	0.0151027
713.569	0.0155566
713.647	0.0158609
713.725	0.0161983
713.803	0.0165227
713.881	0.0166426
713.959	0.0169561
714.038	0.0170908
714.116	0.0171607
714.194	0.0174583
714.272	0.0173092
714.350	0.0172942
714.428	0.0173331
714.506	0.0171060
714.584	0.0172652
714.663	0.0171055
714.741	0.0169684
714.819	0.0169402
714.897	0.0168977
714.975	0.0168082
715.053	0.0166749
715.131	0.0166039
715.209	0.0164881
715.288	0.0164148
715.366	0.0163292
715.444	0.0160989
715.522	0.0157498
715.600	0.0157380
715.678	0.0154612
715.756	0.0152377
715.834	0.0151616
715.913	0.0148681
715.991	0.0148333
716.069	0.0144456
716.147	0.0144210
716.225	0.0144502
716.303	0.0143688
716.381	0.0143169
716.459	0.0143968
716.538	0.0142089
716.616	0.0143237
716.694	0.0141994
716.772	0.0140459
716.850	0.0140514
716.928	0.0139658
717.006	0.0138227
717.084	0.0137258
717.163	0.0136160
717.241	0.0135211
717.319	0.0132943
717.397	0.0132514
717.475	0.0132674
717.553	0.0129472
717.631	0.0129001
717.709	0.0130073
717.788	0.0131091
717.866	0.0131619
717.944	0.0134496
718.022	0.0137446
718.100	0.0140669
718.178	0.0146610
718.256	0.0150733
718.334	0.0155685
718.413	0.0159820
718.491	0.0163874
718.569	0.0166687
718.647	0.0170029
718.725	0.0170568
718.803	0.0171208
718.881	0.0172433
718.959	0.0171439
719.038	0.0170921
719.116	0.0171143
719.194	0.0170516
719.272	0.0168241
719.350	0.0167698
719.428	0.0167890
719.506	0.0169265
719.584	0.0170008
719.663	0.0169549
719.741	0.0170841
719.819	0.0170317
719.897	0.0171843
719.975	0.0171632
720.053	0.0170746
720.131	0.0170036
720.209	0.0167058
720.288	0.0163027
720.366	0.0161258
720.444	0.0158201
720.522	0.0156102
720.600	0.0151494
720.678	0.0150317
720.756	0.0148491
720.834	0.0146047
720.913	0.0145810
720.991	0.0147141
721.069	0.0147916
721.147	0.0149174
721.225	0.0150216
721.303	0.0150949
721.381	0.0154165
721.459	0.0155975
721.538	0.0157033
721.616	0.0155648
721.694	0.0155770
721.772	0.0155302
721.850	0.0153055
721.928	0.0151654
722.006	0.0149034
722.084	0.0147141
722.163	0.0145573
722.241	0.0143167
722.319	0.0143011
722.397	0.0141946
722.475	0.0141246
722.553	0.0142190
722.631	0.0143297
722.709	0.0143169
722.788	0.0144611
722.866	0.0146415
722.944	0.0145422
723.022	0.0145716
723.100	0.0145316
723.178	0.0144581
723.256	0.0142498
723.334	0.0140240
723.413	0.0138780
723.491	0.0137511
723.569	0.0136359
723.647	0.0134789
723.725	0.0135032
723.803	0.0136015
723.881	0.0136794
723.959	0.0139880
724.038	0.0143641
724.116	0.0145210
724.194	0.0151285
724.272	0.0155043
724.350	0.0159769
724.428	0.0161313
724.506	0.0163713
724.584	0.0167414
724.663	0.0169199
724.741	0.0171508
724.819	0.0172612
724.897	0.0172281
724.975	0.0172302
725.053	0.0174200
725.131	0.0173769
725.209	0.0171174
725.288	0.0170848
725.366	0.0169460
725.444	0.0167280
725.522	0.0165181
725.600	0.0164192
725.678	0.0162040
725.756	0.0159834
725.834	0.0157743
725.913	0.0156635
725.991	0.0156601
726.069	0.0154698
726.147	0.0153532
726.225	0.0152198
726.303	0.0152058
726.381	0.0151537
726.459	0.0149484
726.538	0.0149681
726.616	0.0149676
726.694	0.0149088
726.772	0.0150520
726.850	0.0150187
726.928	0.0150236
727.006	0.0151202
727.084	0.0151646
727.163	0.0153383
727.241	0.0155944
727.319	0.0155154
727.397	0.0155967
727.475	0.0156023
727.553	0.0155156
727.631	0.0154443
727.709	0.0155475
727.788	0.0154092
727.866	0.0154258
727.944	0.0151679
728.022	0.0150340
728.100	0.0147898
728.178	0.0144219
728.256	0.0141939
728.334	0.0141807
728.413	0.0139073
728.491	0.0138374
728.569	0.0136903
728.647	0.0136579
728.725	0.0136104
728.803	0.0135822
728.881	0.0138489
728.959	0.0139290
729.038	0.0140400
729.116	0.0141831
729.194	0.0144277
729.272	0.0146493
729.350	0.0147990
729.428	0.0150422
729.506	0.0154678
729.584	0.0156686
729.663	0.0157444
729.741	0.0160493
729.819	0.0161786
729.897	0.0164944
729.975	0.0164521
730.053	0.0164378
730.131	0.0165344
730.209	0.0165668
730.288	0.0164906
730.366	0.0164291
730.444	0.0164004
730.522	0.0163384
730.600	0.0162712
730.678	0.0159885
730.756	0.0157470
730.834	0.0158663
730.913	0.0156704
730.991	0.0156364
731.069	0.0152978
731.147	0.0153326
731.225	0.0153458
731.303	0.0153777
731.381	0.0155156
731.459	0.0153593
731.538	0.0153635
731.616	0.0155062
731.694	0.0155367
731.772	0.0155038
731.850	0.0154009
731.928	0.0152846
732.006	0.0151495
732.084	0.0150677
732.163	0.0150084
732.241	0.0148448
732.319	0.0147520
732.397	0.0146691
732.475	0.0146144
732.553	0.0146349
732.631	0.0146131
732.709	0.0146615
732.788	0.0147588
732.866	0.0150214
732.944	0.0149174
733.022	0.0150106
733.100	0.0149929
733.178	0.0152003
733.256	0.0151959
733.334	0.0150959
733.413	0.0150741
733.491	0.0149231
733.569	0.0150748
733.647	0.0152548
733.725	0.0152776
733.803	0.0155189
733.881	0.0154858
733.959	0.0157669
734.038	0.0159046
734.116	0.0160369
734.194	0.0161211
734.272	0.0160963
734.350	0.0162615
734.428	0.0160780
734.506	0.0162044
734.584	0.0160204
734.663	0.0159013
734.741	0.0155901
734.819	0.0154610
734.897	0.0153858
734.975	0.0151372
735.053	0.0150609
735.131	0.0148211
735.209	0.0146970
735.288	0.0147900
735.366	0.0146812
735.444	0.0146562
735.522	0.0148054
735.600	0.0148502
735.678	0.0148811
735.756	0.0149591
735.834	0.0151376
735.913	0.0150444
735.991	0.0152191
736.069	0.0152105
736.147	0.0153366
736.225	0.0154070
736.303	0.0154171
736.381	0.0155087
736.459	0.0157282
736.538	0.0158850
736.616	0.0158913
736.694	0.0159516
736.772	0.0160475
736.850	0.0162532
736.928	0.0161430
737.006	0.0162172
737.084	0.0160071
737.163	0.0160494
737.241	0.0160545
737.319	0.0160130
737.397	0.0157707
737.475	0.0156640
737.553	0.0154419
737.631	0.0154102
737.709	0.0151622
737.788	0.0148938
737.866	0.0148874
737.944	0.0150222
738.022	0.0147797
738.100	0.0148837
738.178	0.0148199
738.256	0.0148131
738.334	0.0148998
738.413	0.0148232
738.491	0.0147995
738.569	0.0148328
738.647	0.0149020
738.725	0.0147375
738.803	0.0146358
738.881	0.0147128
738.959	0.0145872
739.038	0.0147726
739.116	0.0146817
739.194	0.0149392
739.272	0.0150507
739.350	0.0151926
739.428	0.0153899
739.506	0.0155238
739.584	0.0158605
739.663	0.0159394
739.741	0.0159562
739.819	0.0161470
739.897	0.0160988
739.975	0.0161450
740.053	0.0160485
740.131	0.0160502
740.209	0.0160165
740.288	0.0158510
740.366	0.0156545
740.444	0.0158033
740.522	0.0156982
740.600	0.0155564
740.678	0.0153909
740.756	0.0154346
740.834	0.0154412
740.913	0.0152873
740.991	0.0152437
741.069	0.0151685
741.147	0.0150872
741.225	0.0148997
741.303	0.0150720
741.381	0.0150120
741.459	0.0150433
741.538	0.0149501
741.616	0.0150847
741.694	0.0152915
741.772	0.0154056
741.850	0.0155116
741.928	0.0155824
742.006	0.0158191
742.084	0.0158930
742.163	0.0160798
742.241	0.0159937
742.319	0.0160309
742.397	0.0159428
742.475	0.0159302
742.553	0.0158360
742.631	0.0157325
742.709	0.0156317
742.788	0.0156235
742.866	0.0155595
742.944	0.0155423
743.022	0.0153995
743.100	0.0154655
743.178	0.0155544
743.256	0.0153559
743.334	0.0153340
743.413	0.0153927
743.491	0.0153768
743.569	0.0152685
743.647	0.0153383
743.725	0.0153158
743.803	0.0153191
743.881	0.0153545
743.959	0.0155125
744.038	0.0155546
744.116	0.0152693
744.194	0.0153329
744.272	0.0152975
744.350	0.0153526
744.428	0.0152254
744.506	0.0150631
744.584	0.0149867
744.663	0.0149373
744.741	0.0148082
744.819	0.0145589
744.897	0.0145319
744.975	0.0144466
745.053	0.0144455
745.131	0.0144078
745.209	0.0143317
745.288	0.0144324
745.366	0.0143679
745.444	0.0144302
745.522	0.0145069
745.600	0.0145586
745.678	0.0145081
745.756	0.0146957
745.834	0.0147320
745.913	0.0145940
745.991	0.0149219
746.069	0.0149139
746.147	0.0151146
746.225	0.0151298
746.303	0.0153511
746.381	0.0154292
746.459	0.0154301
746.538	0.0155448
746.616	0.0155779
746.694	0.0156828
746.772	0.0157669
746.850	0.0158012
746.928	0.0155553
747.006	0.0156332
747.084	0.0155683
747.163	0.0156054
747.241	0.0156302
747.319	0.0156348
747.397	0.0155605
747.475	0.0156477
747.553	0.0156997
747.631	0.0158544
747.709	0.0159526
747.788	0.0159041
747.866	0.0159446
747.944	0.0159608
748.022	0.0158553
748.100	0.0160021
748.178	0.0160503
748.256	0.0159921
748.334	0.0158193
748.413	0.0158285
748.491	0.0157098
748.569	0.0157454
748.647	0.0156572
748.725	0.0155918
748.803	0.0155889
748.881	0.0156055
748.959	0.0154066
749.038	0.0155906
749.116	0.0155125
749.194	0.0155157
749.272	0.0153039
749.350	0.0152778
749.428	0.0153709
749.506	0.0153083
749.584	0.0152387
749.663	0.0151105
749.741	0.0149539
749.819	0.0148801
749.897	0.0148868
749.975	0.0148090
750.053	0.0147930
750.131	0.0146408
750.209	0.0146766
750.288	0.0145678
750.366	0.0145558
750.444	0.0144112
750.522	0.0145574
750.600	0.0144371
750.678	0.0145139
750.756	0.0146386
750.834	0.0144999
750.913	0.0144295
750.991	0.0143683
751.069	0.0143726
751.147	0.0144720
751.225	0.0145635
751.303	0.0144637
751.381	0.0145426
751.459	0.0145983
751.538	0.0147345
751.616	0.0148389
751.694	0.0147176
751.772	0.0149733
751.850	0.0152254
751.928	0.0153546
752.006	0.0154790
752.084	0.0156741
752.163	0.0157533
752.241	0.0158910
752.319	0.0160630
752.397	0.0161164
752.475	0.0161086
752.553	0.0161426
752.631	0.0161950
752.709	0.0160339
752.788	0.0160744
752.866	0.0160046
752.944	0.0158717
753.022	0.0159094
753.100	0.0157172
753.178	0.0156407
753.256	0.0154817
753.334	0.0153645
753.413	0.0155459
753.491	0.0152610
753.569	0.0151628
753.647	0.0150665
753.725	0.0151040
753.803	0.0149902
753.881	0.0149506
753.959	0.0150530
754.038	0.0149342
754.116	0.0148976
754.194	0.0150821
754.272	0.0150047
754.350	0.0151009
754.428	0.0151240
754.506	0.0151189
754.584	0.0152656
754.663	0.0152333
754.741	0.0152404
754.819	0.0153973
754.897	0.0153463
754.975	0.0153905
755.053	0.0154420
755.131	0.0155537
755.209	0.0155803
755.288	0.0154677
755.366	0.0156466
755.444	0.0156893
755.522	0.0155643
755.600	0.0155802
755.678	0.0154517
755.756	0.0155614
755.834	0.0156303
755.913	0.0155444
755.991	0.0155400
756.069	0.0154230
756.147	0.0154996
756.225	0.0154917
756.303	0.0153119
756.381	0.0153358
756.459	0.0154067
756.538	0.0153573
756.616	0.0154542
756.694	0.0155637
756.772	0.0155856
756.850	0.0156369
756.928	0.0156788
757.006	0.0157710
757.084	0.0159019
757.163	0.0158124
757.241	0.0157658
757.319	0.0157858
757.397	0.0158049
757.475	0.0155318
757.553	0.0156448
757.631	0.0155446
757.709	0.0153455
757.788	0.0152472
757.866	0.0150185
757.944	0.0149673
758.022	0.0147766
758.100	0.0146615
758.178	0.0146206
758.256	0.0146848
758.334	0.0144775
758.413	0.0145574
758.491	0.0144246
758.569	0.0144631
758.647	0.0145441
758.725	0.0145702
758.803	0.0146335
758.881	0.0148531
758.959	0.0147423
759.038	0.0148577
759.116	0.0148963
759.194	0.0149342
759.272	0.0150728
759.350	0.0151363
759.428	0.0150210
759.506	0.0152162
759.584	0.0150280
759.663	0.0152439
759.741	0.0152317
759.819	0.0151882
759.897	0.0151549
759.975	0.0152954
760.053	0.0153358
760.131	0.0153754
760.209	0.0154812
760.288	0.0154578
760.366	0.0154272
760.444	0.0155045
760.522	0.0154276
760.600	0.0156075
760.678	0.0157507
760.756	0.0156332
760.834	0.0157471
760.913	0.0156123
760.991	0.0155750
761.069	0.0154105
761.147	0.0155025
761.225	0.0153854
761.303	0.0153931
761.381	0.0153761
761.459	0.0153316
761.538	0.0153911
761.616	0.0154897
761.694	0.0156106
761.772	0.0158534
761.850	0.0157576
761.928	0.0158426
762.006	0.0159732
762.084	0.0160996
762.163	0.0160765
762.241	0.0161076
762.319	0.0161363
762.397	0.0160600
762.475	0.0160003
762.553	0.0160349
762.631	0.0158869
762.709	0.0157128
762.788	0.0157148
762.866	0.0156018
762.944	0.0156590
763.022	0.0154456
763.100	0.0154939
763.178	0.0152754
763.256	0.0152973
763.334	0.0150626
763.413	0.0151223
763.491	0.0151624
763.569	0.0150826
763.647	0.0151156
763.725	0.0150429
763.803	0.0150002
763.881	0.0149693
763.959	0.0151427
764.038	0.0151279
764.116	0.0150871
764.194	0.0150571
764.272	0.0152721
764.350	0.0153268
764.428	0.0154106
764.506	0.0154342
764.584	0.0155717
764.663	0.0154442
764.741	0.0153799
764.819	0.0154950
764.897	0.0156629
764.975	0.0153067
765.053	0.0154192
765.131	0.0153464
765.209	0.0152138
765.288	0.0151839
765.366	0.0150732
765.444	0.0149893
765.522	0.0148813
765.600	0.0149021
765.678	0.0147499
765.756	0.0146991
765.834	0.0147666
765.913	0.0148566
765.991	0.0147772
766.069	0.0148511
766.147	0.0147965
766.225	0.0148551
766.303	0.0149928
766.381	0.0150592
766.459	0.0152497
766.538	0.0151798
766.616	0.0151525
766.694	0.0152063
766.772	0.0152228
766.850	0.0153944
766.928	0.0153193
767.006	0.0155111
767.084	0.0155470
767.163	0.0154122
767.241	0.0155605
767.319	0.0155375
767.397	0.0156501
767.475	0.0156192
767.553	0.0157861
767.631	0.0157549
767.709	0.0155059
767.788	0.0154761
767.866	0.0153843
767.944	0.0153623
768.022	0.0152863
768.100	0.0152457
768.178	0.0151215
768.256	0.0149732
768.334	0.0149217
768.413	0.0149504
768.491	0.0148952
768.569	0.0150691
768.647	0.0149259
768.725	0.0149760
768.803	0.0150690
768.881	0.0151563
768.959	0.0153342
769.038	0.0153532
769.116	0.0155047
769.194	0.0154205
769.272	0.0154877
769.350	0.0154837
769.428	0.0155363
769.506	0.0156047
769.584	0.0157281
769.663	0.0156310
769.741	0.0156129
769.819	0.0156714
769.897	0.0156763
769.975	0.0157012
770.053	0.0156262
770.131	0.0157781
770.209	0.0156564
770.288	0.0157706
770.366	0.0157354
770.444	0.0155778
770.522	0.0155685
770.600	0.0156919
770.678	0.0156667
770.756	0.0155492
770.834	0.0156960
770.913	0.0156924
770.991	0.0154053
771.069	0.0154809
771.147	0.0156547
771.225	0.0154230
771.303	0.0154056
771.381	0.0152051
771.459	0.0153055
771.538	0.0152406
771.616	0.0153073
771.694	0.0153094
771.772	0.0150568
771.850	0.0152348
771.928	0.0152878
772.006	0.0152235
772.084	0.0151806
772.163	0.0151483
772.241	0.0151778
772.319	0.0151083
772.397	0.0151215
772.475	0.0152354
772.553	0.0151138
772.631	0.0150103
772.709	0.0151527
772.788	0.0151331
772.866	0.0150130
772.944	0.0150352
773.022	0.0150479
773.100	0.0150519
773.178	0.0151386
773.256	0.0152113
773.334	0.0154042
773.413	0.0153188
773.491	0.0153906
773.569	0.0151970
773.647	0.0153345
773.725	0.0153578
773.803	0.0153908
773.881	0.0153545
773.959	0.0152060
774.038	0.0151858
774.116	0.0150913
774.194	0.0151613
774.272	0.0150476
774.350	0.0149912
774.428	0.0151226
774.506	0.0150787
774.584	0.0150855
774.663	0.0151113
774.741	0.0151306
774.819	0.0153356
774.897	0.0152335
774.975	0.0152757
775.053	0.0151495
775.131	0.0152496
775.209	0.0151345
775.288	0.0152536
775.366	0.0153370
775.444	0.0153400
775.522	0.0154122
775.600	0.0154288
775.678	0.0155390
775.756	0.0154340
775.834	0.0155059
775.913	0.0155402
775.991	0.0156268
776.069	0.0156002
776.147	0.0157785
776.225	0.0156937
776.303	0.0158363
776.381	0.0157621
776.459	0.0158494
776.538	0.0158626
776.616	0.0158369
776.694	0.0157093
776.772	0.0157995
776.850	0.0157112
776.928	0.0157497
777.006	0.0156110
777.084	0.0155656
777.163	0.0155294
777.241	0.0155147
777.319	0.0153602
777.397	0.0153595
777.475	0.0154148
777.553	0.0152319
777.631	0.0152462
777.709	0.0152547
777.788	0.0153165
777.866	0.0152510
777.944	0.0152197
778.022	0.0152209
778.100	0.0151984
778.178	0.0152139
778.256	0.0151080
778.334	0.0151157
778.413	0.0153219
778.491	0.0150749
778.569	0.0152636
778.647	0.0153103
778.725	0.0152505
778.803	0.0152712
778.881	0.0152702
778.959	0.0153084
779.038	0.0154855
779.116	0.0155602
779.194	0.0154971
779.272	0.0154803
779.350	0.0156560
779.428	0.0155502
779.506	0.0154497
779.584	0.0156268
779.663	0.0157255
779.741	0.0154607
779.819	0.0153718
779.897	0.0154814
779.975	0.0153570
780.053	0.0152750
780.131	0.0151288
780.209	0.0150176
780.288	0.0150442
780.366	0.0149971
780.444	0.0148991
780.522	0.0148210
780.600	0.0148286
780.678	0.0148950
780.756	0.0147401
780.834	0.0148392
780.913	0.0148556
780.991	0.0147849
781.069	0.0150159
781.147	0.0150443
781.225	0.0150476
781.303	0.0150784
781.381	0.0150756
781.459	0.0151419
781.538	0.0151608
781.616	0.0151661
781.694	0.0151996
781.772	0.0152735
781.850	0.0153883
781.928	0.0153418
782.006	0.0153419
782.084	0.0152992
782.163	0.0155449
782.241	0.0155016
782.319	0.0153985
782.397	0.0154901
782.475	0.0154404
782.553	0.0155235
782.631	0.0153876
782.709	0.0154842
782.788	0.0154142
782.866	0.0154861
782.944	0.0153873
783.022	0.0153757
783.100	0.0152361
783.178	0.0152541
783.256	0.0152968
783.334	0.0153072
783.413	0.0153015
783.491	0.0152973
783.569	0.0153379
783.647	0.0152385
783.725	0.0154913
783.803	0.0154842
783.881	0.0155894
783.959	0.0155264
784.038	0.0156315
784.116	0.0156298
784.194	0.0156115
784.272	0.0156612
784.350	0.0158289
784.428	0.0158606
784.506	0.0158047
784.584	0.0158859
784.663	0.0158223
784.741	0.0160307
784.819	0.0160736
784.897	0.0158601
784.975	0.0157813
785.053	0.0157520
785.131	0.0158228
785.209	0.0155925
785.288	0.0154805
785.366	0.0153433
785.444	0.0154131
785.522	0.0152963
785.600	0.0151179
785.678	0.0150338
785.756	0.0151353
785.834	0.0149751
785.913	0.0150246
785.991	0.0150581
786.069	0.0150247
786.147	0.0150699
786.225	0.0148524
786.303	0.0150870
786.381	0.0150340
786.459	0.0150952
786.538	0.0150726
786.616	0.0151377
786.694	0.0151514
786.772	0.0151482
786.850	0.0153033
786.928	0.0153570
787.006	0.0153292
787.084	0.0153301
787.163	0.0154167
787.241	0.0153915
787.319	0.0154388
787.397	0.0155431
787.475	0.0154120
787.553	0.0154610
787.631	0.0153217
787.709	0.0153177
787.788	0.0154002
787.866	0.0153488
787.944	0.0154089
788.022	0.0153152
788.100	0.0153210
788.178	0.0153780
788.256	0.0152650
788.334	0.0153759
788.413	0.0153918
788.491	0.0152721
788.569	0.0153933
788.647	0.0153062
788.725	0.0152802
788.803	0.0153290
788.881	0.0153825
788.959	0.0153228
789.038	0.0153609
789.116	0.0153173
789.194	0.0153086
789.272	0.0152666
789.350	0.0153724
789.428	0.0152940
789.506	0.0153033
789.584	0.0149481
789.663	0.0150839
789.741	0.0152638
789.819	0.0150500
789.897	0.0149348
789.975	0.0150523
790.053	0.0149166
790.131	0.0148312
790.209	0.0148827
790.288	0.0148312
790.366	0.0146860
790.444	0.0147704
790.522	0.0148272
790.600	0.0148164
790.678	0.0149908
790.756	0.0149087
790.834	0.0149782
790.913	0.0149922
790.991	0.0152209
791.069	0.0152760
791.147	0.0151958
791.225	0.0153034
791.303	0.0153787
791.381	0.0154860
791.459	0.0154051
791.538	0.0155233
791.616	0.0155091
791.694	0.0157627
791.772	0.0158035
791.850	0.0157935
791.928	0.0157561
792.006	0.0157428
792.084	0.0159341
792.163	0.0159184
792.241	0.0160413
792.319	0.0160860
792.397	0.0161142
792.475	0.0162388
792.553	0.0161259
792.631	0.0160783
792.709	0.0161257
792.788	0.0160695
792.866	0.0158042
792.944	0.0159377
793.022	0.0156506
793.100	0.0156380
793.178	0.0155584
793.256	0.0153967
793.334	0.0153457
793.413	0.0153318
793.491	0.0151610
793.569	0.0150562
793.647	0.0151569
793.725	0.0150688
793.803	0.0149609
793.881	0.0150161
793.959	0.0148986
794.038	0.0148874
794.116	0.0149640
794.194	0.0148254
794.272	0.0148714
794.350	0.0148757
794.428	0.0148547
794.506	0.0148392
794.584	0.0149731
794.663	0.0149083
794.741	0.0150337
794.819	0.0149746
794.897	0.0150927
794.975	0.0152861
795.053	0.0153455
795.131	0.0152808
795.209	0.0153893
795.288	0.0154987
795.366	0.0154638
795.444	0.0155365
795.522	0.0156945
795.600	0.0157360
795.678	0.0157059
795.756	0.0157399
795.834	0.0156599
795.913	0.0158652
795.991	0.0157932
796.069	0.0157159
796.147	0.0155441
796.225	0.0156367
796.303	0.0155803
796.381	0.0154942
796.459	0.0155980
796.538	0.0153416
796.616	0.0152701
796.694	0.0153975
796.772	0.0152959
796.850	0.0152058
796.928	0.0151727
797.006	0.0151979
797.084	0.0152400
797.163	0.0152641
797.241	0.0153515
797.319	0.0152473
797.397	0.0151195
797.475	0.0151556
797.553	0.0152898
797.631	0.0150092
797.709	0.0151974
797.788	0.0152238
797.866	0.0152187
797.944	0.0151989
798.022	0.0150804
798.100	0.0150851
798.178	0.0149478
798.256	0.0150626
798.334	0.0149646
798.413	0.0149921
798.491	0.0150300
798.569	0.0150936
798.647	0.0151385
798.725	0.0151483
798.803	0.0152218
798.881	0.0151716
798.959	0.0153412
799.038	0.0153432
799.116	0.0154874
799.194	0.0155312
799.272	0.0154980
799.350	0.0155132
799.428	0.0156897
799.506	0.0157700
799.584	0.0158514
799.663	0.0158083
799.741	0.0158414
799.819	0.0158356
799.897	0.0158794
799.975	0.0158668
800.053	0.0158659
800.131	0.0159254
800.209	0.0159027
800.288	0.0157932
800.366	0.0157106
800.444	0.0158209
800.522	0.0157185
800.600	0.0156768
800.678	0.0156078
800.756	0.0156023
800.834	0.0155908
800.913	0.0154673
800.991	0.0155784
801.069	0.0155239
801.147	0.0155182
801.225	0.0153508
801.303	0.0155698
801.381	0.0155978
801.459	0.0155101
801.538	0.0154942
801.616	0.0153322
801.694	0.0153905
801.772	0.0154007
801.850	0.0154263
801.928	0.0153332
802.006	0.0154281
802.084	0.0152890
802.163	0.0151481
802.241	0.0151915
802.319	0.0151149
802.397	0.0151745
802.475	0.0149473
802.553	0.0150186
802.631	0.0150106
802.709	0.0150111
802.788	0.0149818
802.866	0.0149111
802.944	0.0148998
803.022	0.0150034
803.100	0.0149637
803.178	0.0151348
803.256	0.0151189
803.334	0.0150737
803.413	0.0150144
803.491	0.0152963
803.569	0.0154177
803.647	0.0152553
803.725	0.0152161
803.803	0.0153720
803.881	0.0154194
803.959	0.0154603
804.038	0.0155196
804.116	0.0154494
804.194	0.0153633
804.272	0.0154338
804.350	0.0154113
804.428	0.0153263
804.506	0.0154485
804.584	0.0154113
804.663	0.0154029
804.741	0.0152216
804.819	0.0153351
804.897	0.0152422
804.975	0.0152360
805.053	0.0153813
805.131	0.0153477
805.209	0.0152731
805.288	0.0152509
805.366	0.0152765
805.444	0.0152863
805.522	0.0152438
805.600	0.0152302
805.678	0.0153632
805.756	0.0153108
805.834	0.0153359
805.913	0.0153049
805.991	0.0154572
806.069	0.0155841
806.147	0.0154970
806.225	0.0153664
806.303	0.0154023
806.381	0.0155157
806.459	0.0153886
806.538	0.0154918
806.616	0.0154155
806.694	0.0154031
806.772	0.0153493
806.850	0.0153119
806.928	0.0152875
807.006	0.0152234
807.084	0.0151631
807.163	0.0152696
807.241	0.0153266
807.319	0.0151069
807.397	0.0151849
807.475	0.0150400
807.553	0.0152031
807.631	0.0151210
807.709	0.0150847
807.788	0.0152389
807.866	0.0153216
807.944	0.0151453
808.022	0.0153197
808.100	0.0153554
808.178	0.0154038
808.256	0.0154700
808.334	0.0155106
808.413	0.0154343
808.491	0.0154748
808.569	0.0153548
808.647	0.0154657
808.725	0.0153797
808.803	0.0153573
808.881	0.0154575
808.959	0.0153848
809.038	0.0154115
809.116	0.0152334
809.194	0.0152193
809.272	0.0152259
809.350	0.0152364
809.428	0.0153477
809.506	0.0151852
809.584	0.0151672
809.663	0.0152209
809.741	0.0152746
809.819	0.0152927
809.897	0.0151926
809.975	0.0153506
810.053	0.0153792
810.131	0.0152450
810.209	0.0153593
810.288	0.0153907
810.366	0.0155223
810.444	0.0154432
810.522	0.0154128
810.600	0.0153077
810.678	0.0152302
810.756	0.0154239
810.834	0.0152504
810.913	0.0152140
810.991	0.0152465
811.069	0.0153056
811.147	0.0153165
811.225	0.0152151
811.303	0.0154797
811.381	0.0153009
811.459	0.0152047
811.538	0.0151739
811.616	0.0151179
811.694	0.0152563
811.772	0.0152332
811.850	0.0153487
811.928	0.0153362
812.006	0.0153348
812.084	0.0153374
812.163	0.0152367
812.241	0.0152283
812.319	0.0152737
812.397	0.0152860
812.475	0.0153833
812.553	0.0152998
812.631	0.0152313
812.709	0.0152535
812.788	0.0151585
812.866	0.0152469
812.944	0.0152353
813.022	0.0152820
813.100	0.0151258
813.178	0.0150252
813.256	0.0151585
813.334	0.0150761
813.413	0.0150551
813.491	0.0148901
813.569	0.0148579
813.647	0.0148946
813.725	0.0148689
813.803	0.0148810
813.881	0.0149113
813.959	0.0149716
814.038	0.0148224
814.116	0.0149194
814.194	0.0149175
814.272	0.0150259
814.350	0.0148852
814.428	0.0150858
814.506	0.0151871
814.584	0.0153180
814.663	0.0152339
814.741	0.0153296
814.819	0.0154058
814.897	0.0154332
814.975	0.0155303
815.053	0.0157273
815.131	0.0156503
815.209	0.0157471
815.288	0.0157621
815.366	0.0157298
815.444	0.0159984
815.522	0.0158180
815.600	0.0157660
815.678	0.0159961
815.756	0.0158546
815.834	0.0159834
815.913	0.0161142
815.991	0.0159371
816.069	0.0160755
816.147	0.0160715
816.225	0.0160055
816.303	0.0159514
816.381	0.0159958
816.459	0.0159116
816.538	0.0159298
816.616	0.0159348
816.694	0.0156544
816.772	0.0157259
816.850	0.0157298
816.928	0.0155540
817.006	0.0155745
817.084	0.0155254
817.163	0.0154707
817.241	0.0152451
817.319	0.0154497
817.397	0.0153308
817.475	0.0154238
817.553	0.0154144
817.631	0.0153784
817.709	0.0153590
817.788	0.0151048
817.866	0.0154591
817.944	0.0154890
818.022	0.0154441
818.100	0.0153750
818.178	0.0154403
818.256	0.0152232
818.334	0.0154290
818.413	0.0154687
818.491	0.0154366
818.569	0.0153634
818.647	0.0153535
818.725	0.0153473
818.803	0.0153547
818.881	0.0154648
818.959	0.0153311
819.038	0.0153352
819.116	0.0152234
819.194	0.0152856
819.272	0.0152580
819.350	0.0151907
819.428	0.0152251
819.506	0.0151595
819.584	0.0150816
819.663	0.0151069
819.741	0.0150640
819.819	0.0150233
819.897	0.0150536
819.975	0.0149126
820.053	0.0148873
820.131	0.0149646
820.209	0.0151252
820.288	0.0150402
820.366	0.0149120
820.444	0.0150385
820.522	0.0151238
820.600	0.0151312
820.678	0.0151529
820.756	0.0151534
820.834	0.0150405
820.913	0.0152049
820.991	0.0154505
821.069	0.0155376
821.147	0.0154088
821.225	0.0154980
821.303	0.0155586
821.381	0.0156451
821.459	0.0156087
821.538	0.0158037
821.616	0.0157613
821.694	0.0156641
821.772	0.0157420
821.850	0.0156901
821.928	0.0156680
822.006	0.0156260
822.084	0.0156310
822.163	0.0154788
822.241	0.0155445
822.319	0.0153768
822.397	0.0154890
822.475	0.0154601
822.553	0.0154300
822.631	0.0153156
822.709	0.0152674
822.788	0.0152509
822.866	0.0154034
822.944	0.0154386
823.022	0.0154776
823.100	0.0152605
823.178	0.0153080
823.256	0.0151686
823.334	0.0152878
823.413	0.0151849
823.491	0.0152090
823.569	0.0152853
823.647	0.0153052
823.725	0.0154244
823.803	0.0152416
823.881	0.0153445
823.959	0.0152406
824.038	0.0153246
824.116	0.0152856
824.194	0.0155010
824.272	0.0152544
824.350	0.0154060
824.428	0.0153765
824.506	0.0153999
824.584	0.0152922
824.663	0.0153268
824.741	0.0154822
824.819	0.0152695
824.897	0.0153640
824.975	0.0154090
825.053	0.0152339
825.131	0.0153796
825.209	0.0153649
825.288	0.0152116
825.366	0.0153217
825.444	0.0153075
825.522	0.0151640
825.600	0.0151105
825.678	0.0152381
825.756	0.0150814
825.834	0.0152288
825.913	0.0151147
825.991	0.0151134
826.069	0.0152083
826.147	0.0152352
826.225	0.0152884
826.303	0.0151676
826.381	0.0151625
826.459	0.0150583
826.538	0.0152869
826.616	0.0151884
826.694	0.0152512
826.772	0.0151897
826.850	0.0153520
826.928	0.0153432
827.006	0.0153317
827.084	0.0154263
827.163	0.0156265
827.241	0.0154950
827.319	0.0155284
827.397	0.0156000
827.475	0.0154707
827.553	0.0156413
827.631	0.0157716
827.709	0.0155962
827.788	0.0155960
827.866	0.0157118
827.944	0.0156567
828.022	0.0155740
828.100	0.0157212
828.178	0.0155864
828.256	0.0155003
828.334	0.0155138
828.413	0.0154932
828.491	0.0153835
828.569	0.0153407
828.647	0.0152496
828.725	0.0152149
828.803	0.0152286
828.881	0.0152920
828.959	0.0151567
829.038	0.0151443
829.116	0.0150385
829.194	0.0151742
829.272	0.0149924
829.350	0.0149762
829.428	0.0151502
829.506	0.0149881
829.584	0.0151147
829.663	0.0151648
829.741	0.0153091
829.819	0.0152377
829.897	0.0153139
829.975	0.0154065
830.053	0.0154301
830.131	0.0153902
830.209	0.0155369
830.288	0.0154395
830.366	0.0154418
830.444	0.0153699
830.522	0.0154693
830.600	0.0153023
830.678	0.0152585
830.756	0.0152984
830.834	0.0152431
830.913	0.0151170
830.991	0.0152401
831.069	0.0152601
831.147	0.0150961
831.225	0.0150951
831.303	0.0151423
831.381	0.0151546
831.459	0.0151005
831.538	0.0151582
831.616	0.0151057
831.694	0.0150903
831.772	0.0150904
831.850	0.0150863
831.928	0.0150820
832.006	0.0151801
832.084	0.0152720
832.163	0.0152969
832.241	0.0154048
832.319	0.0153148
832.397	0.0153144
832.475	0.0152608
832.553	0.0155058
832.631	0.0154305
832.709	0.0154852
832.788	0.0154115
832.866	0.0153440
832.944	0.0155912
833.022	0.0154066
833.100	0.0155871
833.178	0.0155567
833.256	0.0155016
833.334	0.0156357
833.413	0.0155042
833.491	0.0155538
833.569	0.0156413
833.647	0.0155468
833.725	0.0155989
833.803	0.0157079
833.881	0.0157594
833.959	0.0156700
834.038	0.0157470
834.116	0.0155515
834.194	0.0155306
834.272	0.0155125
834.350	0.0154051
834.428	0.0154116
834.506	0.0154690
834.584	0.0155018
834.663	0.0155553
834.741	0.0153970
834.819	0.0151942
834.897	0.0152272
834.975	0.0152303
835.053	0.0152262
835.131	0.0151062
835.209	0.0151082
835.288	0.0151195
835.366	0.0151419
835.444	0.0151102
835.522	0.0152042
835.600	0.0151904
835.678	0.0151080
835.756	0.0151146
835.834	0.0150968
835.913	0.0151320
835.991	0.0151607
836.069	0.0152144
836.147	0.0152476
836.225	0.0152987
836.303	0.0153555
836.381	0.0153925
836.459	0.0153471
836.538	0.0153861
836.616	0.0154666
836.694	0.0153642
836.772	0.0154692
836.850	0.0154046
836.928	0.0153421
837.006	0.0154089
837.084	0.0152905
837.163	0.0152908
837.241	0.0153360
837.319	0.0150763
837.397	0.0151539
837.475	0.0153708
837.553	0.0153442
837.631	0.0154092
837.709	0.0152932
837.788	0.0153214
837.866	0.0153859
837.944	0.0154736
838.022	0.0155157
838.100	0.0155443
838.178	0.0155910
838.256	0.0154523
838.334	0.0156016
838.413	0.0156135
838.491	0.0157028
838.569	0.0155009
838.647	0.0156623
838.725	0.0157322
838.803	0.0155227
838.881	0.0154897
838.959	0.0156223
839.038	0.0156492
839.116	0.0155368
839.194	0.0155965
839.272	0.0155544
839.350	0.0153960
839.428	0.0155074
839.506	0.0154842
839.584	0.0154767
839.663	0.0155038
839.741	0.0154715
839.819	0.0153113
839.897	0.0153543
839.975	0.0152497
840.053	0.0152667
840.131	0.0153347
840.209	0.0153899
840.288	0.0154456
840.366	0.0153127
840.444	0.0153325
840.522	0.0155277
840.600	0.0154640
840.678	0.0153719
840.756	0.0153170
840.834	0.0153910
840.913	0.0153011
840.991	0.0153119
841.069	0.0154781
841.147	0.0153187
841.225	0.0153107
841.303	0.0152688
841.381	0.0152671
841.459	0.0153104
841.538	0.0152577
841.616	0.0152135
841.694	0.0150953
841.772	0.0152000
841.850	0.0153083
841.928	0.0151379
842.006	0.0152419
842.084	0.0153297
842.163	0.0152360
842.241	0.0153967
842.319	0.0151707
842.397	0.0154186
842.475	0.0154491
842.553	0.0153494
842.631	0.0154668
842.709	0.0154951
842.788	0.0155007
842.866	0.0154963
842.944	0.0156800
843.022	0.0156396
843.100	0.0155076
843.178	0.0154728
843.256	0.0155061
843.334	0.0155115
843.413	0.0154939
843.491	0.0154347
843.569	0.0154626
843.647	0.0153775
843.725	0.0152629
843.803	0.0153462
843.881	0.0153213
843.959	0.0152550
844.038	0.0151711
844.116	0.0151009
844.194	0.0152500
844.272	0.0153064
844.350	0.0152851
844.428	0.0152115
844.506	0.0153389
844.584	0.0151580
844.663	0.0151059
844.741	0.0153308
844.819	0.0152549
844.897	0.0152030
844.975	0.0152417
845.053	0.0153300
845.131	0.0154563
845.209	0.0151511
845.288	0.0154231
845.366	0.0153586
845.444	0.0153112
845.522	0.0153635
845.600	0.0153311
845.678	0.0152996
845.756	0.0152806
845.834	0.0153081
845.913	0.0152450
845.991	0.0153207
846.069	0.0152975
846.147	0.0153498
846.225	0.0153191
846.303	0.0154116
846.381	0.0151324
846.459	0.0151125
846.538	0.0152203
846.616	0.0152243
846.694	0.0152952
846.772	0.0151325
846.850	0.0153775
846.928	0.0153466
847.006	0.0153453
847.084	0.0153450
847.163	0.0153925
847.241	0.0154088
847.319	0.0151796
847.397	0.0151987
847.475	0.0152354
847.553	0.0152086
847.631	0.0152263
847.709	0.0152344
847.788	0.0152022
847.866	0.0151909
847.944	0.0152036
848.022	0.0152447
848.100	0.0151600
848.178	0.0152433
848.256	0.0151247
848.334	0.0151249
848.413	0.0151330
848.491	0.0152201
848.569	0.0152779
848.647	0.0153123
848.725	0.0152944
848.803	0.0152289
848.881	0.0152091
848.959	0.0152487
849.038	0.0155639
849.116	0.0154008
849.194	0.0153365
849.272	0.0152682
849.350	0.0152045
849.428	0.0153944
849.506	0.0153318
849.584	0.0152302
849.663	0.0153053
849.741	0.0152563
849.819	0.0151516
849.897	0.0153901
849.975	0.0151996
850.053	0.0152415
850.131	0.0153016
850.209	0.0152714
850.288	0.0151706
850.366	0.0153133
850.444	0.0152220
850.522	0.0151437
850.600	0.0152007
850.678	0.0150256
850.756	0.0151312
850.834	0.0152451
850.913	0.0151871
850.991	0.0151810
851.069	0.0152004
851.147	0.0152542
851.225	0.0152599
851.303	0.0151454
851.381	0.0152348
851.459	0.0152895
851.538	0.0152463
851.616	0.0154356
851.694	0.0154811
851.772	0.0155389
851.850	0.0154572
851.928	0.0153681
852.006	0.0155167
852.084	0.0156421
852.163	0.0155791
852.241	0.0154351
852.319	0.0153751
852.397	0.0154009
852.475	0.0152302
852.553	0.0153426
852.631	0.0154560
852.709	0.0153466
852.788	0.0152912
852.866	0.0151579
852.944	0.0151543
853.022	0.0152131
853.100	0.0150357
853.178	0.0151055
853.256	0.0151096
853.334	0.0151510
853.413	0.0151727
853.491	0.0151852
853.569	0.0150032
853.647	0.0151187
853.725	0.0152585
853.803	0.0152793
853.881	0.0151888
853.959	0.0150289
854.038	0.0151562
854.116	0.0150320
854.194	0.0151957
854.272	0.0150720
854.350	0.0151358
854.428	0.0149989
854.506	0.0151205
854.584	0.0152142
854.663	0.0151939
854.741	0.0152156
854.819	0.0151555
854.897	0.0150908
854.975	0.0151640
855.053	0.0152273
855.131	0.0151550
855.209	0.0150950
855.288	0.0150065
855.366	0.0151352
855.444	0.0149781
855.522	0.0150371
855.600	0.0151344
855.678	0.0150534
855.756	0.0152113
855.834	0.0152210
855.913	0.0152605
855.991	0.0152859
856.069	0.0153412
856.147	0.0153026
856.225	0.0154986
856.303	0.0153795
856.381	0.0154625
856.459	0.0155099
856.538	0.0153097
856.616	0.0154407
856.694	0.0153910
856.772	0.0153439
856.850	0.0153304
856.928	0.0153841
857.006	0.0154358
857.084	0.0153077
857.163	0.0153689
857.241	0.0153909
857.319	0.0154885
857.397	0.0153758
857.475	0.0153341
857.553	0.0154351
857.631	0.0153040
857.709	0.0153947
857.788	0.0154224
857.866	0.0154073
857.944	0.0154263
858.022	0.0155260
858.100	0.0154394
858.178	0.0155051
858.256	0.0153667
858.334	0.0155077
858.413	0.0155643
858.491	0.0155785
858.569	0.0155690
858.647	0.0156965
858.725	0.0156288
858.803	0.0157303
858.881	0.0157442
858.959	0.0157471
859.038	0.0157883
859.116	0.0156516
859.194	0.0157612
859.272	0.0155232
859.350	0.0156229
859.428	0.0154610
859.506	0.0155681
859.584	0.0154929
859.663	0.0155177
859.741	0.0153465
859.819	0.0154668
859.897	0.0153217
859.975	0.0152976
860.053	0.0153191
860.131	0.0152175
860.209	0.0151884
860.288	0.0152821
860.366	0.0151934
860.444	0.0152262
860.522	0.0152016
860.600	0.0151111
860.678	0.0152316
860.756	0.0152786
860.834	0.0152341
860.913	0.0151572
860.991	0.0152056
861.069	0.0154907
861.147	0.0155188
861.225	0.0152626
861.303	0.0153746
861.381	0.0153860
861.459	0.0152706
861.538	0.0154214
861.616	0.0155302
861.694	0.0153549
861.772	0.0153731
861.850	0.0154128
861.928	0.0154288
862.006	0.0153817
862.084	0.0155354
862.163	0.0154787
862.241	0.0154930
862.319	0.0153382
862.397	0.0154817
862.475	0.0154837
862.553	0.0155451
862.631	0.0154772
862.709	0.0155412
862.788	0.0154568
862.866	0.0154755
862.944	0.0155689
863.022	0.0155186
863.100	0.0155271
863.178	0.0156860
863.256	0.0155714
863.334	0.0156184
863.413	0.0155513
863.491	0.0155984
863.569	0.0157019
863.647	0.0156358
863.725	0.0155932
863.803	0.0154546
863.881	0.0155403
863.959	0.0156194
864.038	0.0155756
864.116	0.0154778
864.194	0.0154965
864.272	0.0154710
864.350	0.0156555
864.428	0.0154366
864.506	0.0154306
864.584	0.0153838
864.663	0.0152116
864.741	0.0153130
864.819	0.0154681
864.897	0.0153865
864.975	0.0155244
865.053	0.0154232
865.131	0.0155394
865.209	0.0155042
865.288	0.0154686
865.366	0.0155035
865.444	0.0155214
865.522	0.0154929
865.600	0.0154523
865.678	0.0154358
865.756	0.0154268
865.834	0.0154404
865.913	0.0153310
865.991	0.0152854
866.069	0.0152583
866.147	0.0151928
866.225	0.0151299
866.303	0.0152517
866.381	0.0153484
866.459	0.0151316
866.538	0.0151553
866.616	0.0151545
866.694	0.0152354
866.772	0.0152156
866.850	0.0151942
866.928	0.0153185
867.006	0.0152406
867.084	0.0151795
867.163	0.0151317
867.241	0.0151871
867.319	0.0151631
867.397	0.0151392
867.475	0.0152697
867.553	0.0150764
867.631	0.0151125
867.709	0.0150866
867.788	0.0151875
867.866	0.0151736
867.944	0.0151846
868.022	0.0150766
868.100	0.0151842
868.178	0.0150702
868.256	0.0150190
868.334	0.0150469
868.413	0.0152190
868.491	0.0151426
868.569	0.0151447
868.647	0.0151309
868.725	0.0151825
868.803	0.0150189
868.881	0.0150598
868.959	0.0150568
869.038	0.0150908
869.116	0.0150817
869.194	0.0149110
869.272	0.0149027
869.350	0.0149658
869.428	0.0150047
869.506	0.0151271
869.584	0.0151646
869.663	0.0150400
869.741	0.0152341
869.819	0.0152592
869.897	0.0152316
869.975	0.0151544
870.053	0.0152829
870.131	0.0152809
870.209	0.0152654
870.288	0.0152942
870.366	0.0152219
870.444	0.0152682
870.522	0.0153828
870.600	0.0152240
870.678	0.0152599
870.756	0.0152048
870.834	0.0151421
870.913	0.0152841
870.991	0.0152660
871.069	0.0152993
871.147	0.0152720
871.225	0.0153935
871.303	0.0152805
871.381	0.0153589
871.459	0.0155407
871.538	0.0154958
871.616	0.0154060
871.694	0.0154999
871.772	0.0154182
871.850	0.0153737
871.928	0.0154758
872.006	0.0154824
872.084	0.0156368
872.163	0.0155144
872.241	0.0155222
872.319	0.0153935
872.397	0.0153370
872.475	0.0153683
872.553	0.0152405
872.631	0.0154091
872.709	0.0153677
872.788	0.0152165
872.866	0.0152861
872.944	0.0152149
873.022	0.0151733
873.100	0.0151774
873.178	0.0151491
873.256	0.0152084
873.334	0.0153094
873.413	0.0150262
873.491	0.0150872
873.569	0.0152743
873.647	0.0151876
873.725	0.0152920
873.803	0.0152896
873.881	0.0151978
873.959	0.0152811
874.038	0.0152665
874.116	0.0153937
874.194	0.0153483
874.272	0.0153655
874.350	0.0153942
874.428	0.0153781
874.506	0.0154412
874.584	0.0154775
874.663	0.0152525
874.741	0.0152247
874.819	0.0152895
874.897	0.0154138
874.975	0.0153393
875.053	0.0153291
875.131	0.0152709
875.209	0.0153690
875.288	0.0153510
875.366	0.0154004
875.444	0.0152068
875.522	0.0151740
875.600	0.0152952
875.678	0.0153428
875.756	0.0152718
875.834	0.0152286
875.913	0.0152829
875.991	0.0154099
876.069	0.0152605
876.147	0.0152960
876.225	0.0151632
876.303	0.0151581
876.381	0.0152025
876.459	0.0153225
876.538	0.0152612
876.616	0.0153162
876.694	0.0153637
876.772	0.0151952
876.850	0.0152213
876.928	0.0152224
877.006	0.0153140
877.084	0.0152791
877.163	0.0152587
877.241	0.0153349
877.319	0.0154021
877.397	0.0153595
877.475	0.0150763
877.553	0.0152113
877.631	0.0151373
877.709	0.0150365
877.788	0.0150357
877.866	0.0149614
877.944	0.0150313
878.022	0.0149919
878.100	0.0150830
878.178	0.0149055
878.256	0.0149974
878.334	0.0150023
878.413	0.0150420
878.491	0.0150793
878.569	0.0150455
878.647	0.0150385
878.725	0.0152814
878.803	0.0150690
878.881	0.0151588
878.959	0.0152811
879.038	0.0152785
879.116	0.0153527
879.194	0.0154095
879.272	0.0153717
879.350	0.0154462
879.428	0.0154435
879.506	0.0154823
879.584	0.0154566
879.663	0.0156647
879.741	0.0155949
879.819	0.0154741
879.897	0.0154540
879.975	0.0154594
880.053	0.0155377
880.131	0.0156048
880.209	0.0153918
880.288	0.0153828
880.366	0.0152188
880.444	0.0152068
880.522	0.0151379
880.600	0.0151453
880.678	0.0149829
880.756	0.0151156
880.834	0.0152435
880.913	0.0150697
880.991	0.0150737
881.069	0.0151237
881.147	0.0151917
881.225	0.0152121
881.303	0.0152118
881.381	0.0153120
881.459	0.0153419
881.538	0.0154141
881.616	0.0156581
881.694	0.0156783
881.772	0.0155385
881.850	0.0154758
881.928	0.0155630
882.006	0.0156065
882.084	0.0155560
882.163	0.0154471
882.241	0.0155326
882.319	0.0154723
882.397	0.0154880
882.475	0.0154082
882.553	0.0153533
882.631	0.0154303
882.709	0.0154446
882.788	0.0154175
882.866	0.0155268
882.944	0.0155396
883.022	0.0154197
883.100	0.0154817
883.178	0.0154667
883.256	0.0154555
883.334	0.0155375
883.413	0.0154276
883.491	0.0153484
883.569	0.0153542
883.647	0.0154692
883.725	0.0154221
883.803	0.0153405
883.881	0.0152109
883.959	0.0152493
884.038	0.0152113
884.116	0.0152247
884.194	0.0150727
884.272	0.0151393
884.350	0.0153267
884.428	0.0153058
884.506	0.0152130
884.584	0.0150066
884.663	0.0152014
884.741	0.0152592
884.819	0.0151445
884.897	0.0151810
884.975	0.0151375
885.053	0.0152142
885.131	0.0152639
885.209	0.0152998
885.288	0.0153281
885.366	0.0154832
885.444	0.0153761
885.522	0.0154326
885.600	0.0156440
885.678	0.0154858
885.756	0.0156308
885.834	0.0154313
885.913	0.0154504
885.991	0.0155231
886.069	0.0155847
886.147	0.0155271
886.225	0.0156025
886.303	0.0156280
886.381	0.0155974
886.459	0.0157836
886.538	0.0155187
886.616	0.0155242
886.694	0.0155273
886.772	0.0156123
886.850	0.0156340
886.928	0.0156802
887.006	0.0155159
887.084	0.0155452
887.163	0.0156590
887.241	0.0156384
887.319	0.0154292
887.397	0.0154173
887.475	0.0152551
887.553	0.0154337
887.631	0.0153136
887.709	0.0152382
887.788	0.0150913
887.866	0.0150577
887.944	0.0150636
888.022	0.0150390
888.100	0.0150713
888.178	0.0149326
888.256	0.0148846
888.334	0.0150611
888.413	0.0150636
888.491	0.0152452
888.569	0.0152416
888.647	0.0152687
888.725	0.0155416
888.803	0.0154803
888.881	0.0155711
888.959	0.0154516
889.038	0.0155846
889.116	0.0154417
889.194	0.0153450
889.272	0.0151396
889.350	0.0153684
889.428	0.0153530
889.506	0.0152239
889.584	0.0151809
889.663	0.0151517
889.741	0.0151900
889.819	0.0151720
889.897	0.0152146
889.975	0.0151751
890.053	0.0150943
890.131	0.0152866
890.209	0.0153141
890.288	0.0154490
890.366	0.0155666
890.444	0.0153033
890.522	0.0154248
890.600	0.0155511
890.678	0.0155244
890.756	0.0154268
890.834	0.0156713
890.913	0.0155968
890.991	0.0154578
891.069	0.0156300
891.147	0.0156284
891.225	0.0155199
891.303	0.0156139
891.381	0.0154699
891.459	0.0154638
891.538	0.0155510
891.616	0.0154437
891.694	0.0154782
891.772	0.0154248
891.850	0.0151890
891.928	0.0153800
892.006	0.0152739
892.084	0.0152958
892.163	0.0153014
892.241	0.0152176
892.319	0.0151820
892.397	0.0151942
892.475	0.0152466
892.553	0.0151398
892.631	0.0152228
892.709	0.0152199
892.788	0.0153069
892.866	0.0153094
892.944	0.0152595
893.022	0.0152354
893.100	0.0153581
893.178	0.0154119
893.256	0.0153933
893.334	0.0153541
893.413	0.0152382
893.491	0.0152615
893.569	0.0151462
893.647	0.0151909
893.725	0.0150459
893.803	0.0150373
893.881	0.0150744
893.959	0.0150586
894.038	0.0149709
894.116	0.0150828
894.194	0.0151012
894.272	0.0151181
894.350	0.0151973
894.428	0.0152200
894.506	0.0152496
894.584	0.0153603
894.663	0.0153692
894.741	0.0154739
894.819	0.0156165
894.897	0.0156668
894.975	0.0155642
895.053	0.0156978
895.131	0.0156746
895.209	0.0158194
895.288	0.0158415
895.366	0.0158141
895.444	0.0156528
895.522	0.0157372
895.600	0.0157590
895.678	0.0157102
895.756	0.0157224
895.834	0.0156100
895.913	0.0155301
895.991	0.0156641
896.069	0.0154660
896.147	0.0153924
896.225	0.0155222
896.303	0.0155195
896.381	0.0153615
896.459	0.0152823
896.538	0.0152624
896.616	0.0153307
896.694	0.0153153
896.772	0.0153011
896.850	0.0152109
896.928	0.0152436
897.006	0.0153448
897.084	0.0153328
897.163	0.0152695
897.241	0.0152209
897.319	0.0152795
897.397	0.0152312
897.475	0.0152355
897.553	0.0152401
897.631	0.0153742
897.709	0.0153298
897.788	0.0152792
897.866	0.0152470
897.944	0.0151636
898.022	0.0152534
898.100	0.0152425
898.178	0.0152205
898.256	0.0152081
898.334	0.0153262
898.413	0.0153095
898.491	0.0152625
898.569	0.0153458
898.647	0.0154018
898.725	0.0153951
898.803	0.0152770
898.881	0.0154015
898.959	0.0152641
899.038	0.0153699
899.116	0.0152954
899.194	0.0152813
899.272	0.0150772
899.350	0.0149548
899.428	0.0150148
899.506	0.0150328
899.584	0.0150634
899.663	0.0152351
899.741	0.0151312
899.819	0.0152841
899.897	0.0152402
899.975	0.0152206
900.053	0.0153400
900.131	0.0153255
900.209	0.0154383
900.288	0.0155027
900.366	0.0154774
900.444	0.0154825
900.522	0.0154186
900.600	0.0154253
900.678	0.0155663
900.756	0.0154319
900.834	0.0154383
900.913	0.0154260
900.991	0.0155234
901.069	0.0154570
901.147	0.0154164
901.225	0.0154205
901.303	0.0154546
901.381	0.0154267
901.459	0.0154393
901.538	0.0154449
901.616	0.0154780
901.694	0.0152929
901.772	0.0154150
901.850	0.0154047
901.928	0.0152319
902.006	0.0152201
902.084	0.0153527
902.163	0.0152086
902.241	0.0151400
902.319	0.0153351
902.397	0.0151968
902.475	0.0150500
902.553	0.0150784
902.631	0.0152142
902.709	0.0152474
902.788	0.0152625
902.866	0.0151700
902.944	0.0151077
903.022	0.0151048
903.100	0.0151563
903.178	0.0151740
903.256	0.0153124
903.334	0.0152150
903.413	0.0150388
903.491	0.0152746
903.569	0.0152853
903.647	0.0151602
903.725	0.0150768
903.803	0.0151682
903.881	0.0151663
903.959	0.0152618
904.038	0.0151536
904.116	0.0151937
904.194	0.0152333
904.272	0.0152105
904.350	0.0151912
904.428	0.0151580
904.506	0.0151364
904.584	0.0151203
904.663	0.0151765
904.741	0.0152161
904.819	0.0151331
904.897	0.0152397
904.975	0.0151200
905.053	0.0151892
905.131	0.0150630
905.209	0.0151559
905.288	0.0150941
905.366	0.0151907
905.444	0.0151607
905.522	0.0151062
905.600	0.0151962
905.678	0.0151516
905.756	0.0152439
905.834	0.0151258
905.913	0.0151407
905.991	0.0150329
906.069	0.0152744
906.147	0.0151790
906.225	0.0152632
906.303	0.0151974
906.381	0.0151941
906.459	0.0152591
906.538	0.0153440
906.616	0.0152986
906.694	0.0154745
906.772	0.0152403
906.850	0.0154808
906.928	0.0154235
907.006	0.0155198
907.084	0.0155147
907.163	0.0154566
907.241	0.0153854
907.319	0.0156287
907.397	0.0155089
907.475	0.0155032
907.553	0.0154644
907.631	0.0154372
907.709	0.0154836
907.788	0.0154636
907.866	0.0153863
907.944	0.0154467
908.022	0.0153266
908.100	0.0152770
908.178	0.0153640
908.256	0.0151936
908.334	0.0152819
908.413	0.0152551
908.491	0.0151223
908.569	0.0152253
908.647	0.0152731
908.725	0.0151648
908.803	0.0151015
908.881	0.0149838
908.959	0.0149563
909.038	0.0151315
909.116	0.0151268
909.194	0.0152222
909.272	0.0152123
909.350	0.0152589
909.428	0.0152005
909.506	0.0152513
909.584	0.0151646
909.663	0.0152861
909.741	0.0154059
909.819	0.0154198
909.897	0.0153711
909.975	0.0153895
910.053	0.0154523
910.131	0.0155604
910.209	0.0155456
910.288	0.0155280
910.366	0.0156316
910.444	0.0156017
910.522	0.0154677
910.600	0.0155013
910.678	0.0156132
910.756	0.0153809
910.834	0.0154253
910.913	0.0152685
910.991	0.0152916
911.069	0.0152356
911.147	0.0153262
911.225	0.0151752
911.303	0.0151994
911.381	0.0152802
911.459	0.0153152
911.538	0.0153181
911.616	0.0154466
911.694	0.0154455
911.772	0.0154264
911.850	0.0153983
911.928	0.0152706
912.006	0.0154300
912.084	0.0155135
912.163	0.0154893
912.241	0.0154220
912.319	0.0154768
912.397	0.0153820
912.475	0.0154747
912.553	0.0153864
912.631	0.0154797
912.709	0.0154662
912.788	0.0155742
912.866	0.0154276
912.944	0.0156047
913.022	0.0156544
913.100	0.0156824
913.178	0.0156942
913.256	0.0156208
913.334	0.0155333
913.413	0.0155484
913.491	0.0155006
913.569	0.0155131
913.647	0.0154690
913.725	0.0154122
913.803	0.0154366
913.881	0.0153998
913.959	0.0153892
914.038	0.0154069
914.116	0.0152798
914.194	0.0152779
914.272	0.0151904
914.350	0.0154655
914.428	0.0153387
914.506	0.0154621
914.584	0.0155387
914.663	0.0154768
914.741	0.0154868
914.819	0.0155048
914.897	0.0155106
914.975	0.0156129
915.053	0.0154973
915.131	0.0152776
915.209	0.0153855
915.288	0.0152888
915.366	0.0153780
915.444	0.0153159
915.522	0.0153768
915.600	0.0152306
915.678	0.0152556
915.756	0.0154257
915.834	0.0154195
915.913	0.0153320
915.991	0.0153993
916.069	0.0153806
916.147	0.0153411
916.225	0.0154022
916.303	0.0155154
916.381	0.0153468
916.459	0.0154034
916.538	0.0153065
916.616	0.0154644
916.694	0.0155147
916.772	0.0154933
916.850	0.0152560
916.928	0.0153732
917.006	0.0153032
917.084	0.0153502
917.163	0.0153989
917.241	0.0154231
917.319	0.0153403
917.397	0.0152826
917.475	0.0153209
917.553	0.0152946
917.631	0.0152916
917.709	0.0153306
917.788	0.0154256
917.866	0.0152765
917.944	0.0152675
918.022	0.0151951
918.100	0.0152840
918.178	0.0153349
918.256	0.0153635
918.334	0.0153728
918.413	0.0153246
918.491	0.0153909
918.569	0.0152821
918.647	0.0153678
918.725	0.0154671
918.803	0.0154990
918.881	0.0155484
918.959	0.0155750
919.038	0.0154189
919.116	0.0155381
919.194	0.0155420
919.272	0.0155204
919.350	0.0155445
919.428	0.0154184
919.506	0.0156334
919.584	0.0155775
919.663	0.0156889
919.741	0.0156774
919.819	0.0155928
919.897	0.0155765
