05/20/2022	21:05:53	Ver.	4.1	UNKNOWN
Optical Delay	599.975067	Delta X		0.078125	Sweeps	1	Scan Rate	0/0
Coordinates	Axis 1	NaN	Axis 2	NaN	Axis 3	NaN	Axis 4	NaN	Axis 5	NaN	Axis 6	0.000000
TX Power	0.000000	RX Power	0.000000

599.975	0.0153085
600.053	0.0151950
600.131	0.0153392
600.209	0.0152137
600.288	0.0152979
600.366	0.0151396
600.444	0.0153087
600.522	0.0153180
600.600	0.0153936
600.678	0.0152235
600.756	0.0152464
600.834	0.0153072
600.913	0.0152753
600.991	0.0152503
601.069	0.0152793
601.147	0.0153275
601.225	0.0151727
601.303	0.0152382
601.381	0.0152892
601.459	0.0153598
601.538	0.0153129
601.616	0.0153245
601.694	0.0153767
601.772	0.0153249
601.850	0.0154787
601.928	0.0152918
602.006	0.0153703
602.084	0.0153574
602.163	0.0153495
602.241	0.0153205
602.319	0.0154025
602.397	0.0154424
602.475	0.0151741
602.553	0.0153947
602.631	0.0154535
602.709	0.0153569
602.788	0.0153252
602.866	0.0154434
602.944	0.0155187
603.022	0.0155886
603.100	0.0154582
603.178	0.0154121
603.256	0.0154461
603.334	0.0154138
603.413	0.0153150
603.491	0.0155204
603.569	0.0154329
603.647	0.0154469
603.725	0.0152200
603.803	0.0152792
603.881	0.0154527
603.959	0.0153062
604.038	0.0153597
604.116	0.0153912
604.194	0.0154202
604.272	0.0155057
604.350	0.0153828
604.428	0.0152080
604.506	0.0153831
604.584	0.0154012
604.663	0.0153642
604.741	0.0153680
604.819	0.0153180
604.897	0.0153372
604.975	0.0154243
605.053	0.0153369
605.131	0.0154238
605.209	0.0154098
605.288	0.0153964
605.366	0.0153947
605.444	0.0154023
605.522	0.0153671
605.600	0.0153409
605.678	0.0152979
605.756	0.0153448
605.834	0.0154176
605.913	0.0153968
605.991	0.0153236
606.069	0.0154163
606.147	0.0152259
606.225	0.0153308
606.303	0.0153770
606.381	0.0153760
606.459	0.0154385
606.538	0.0153015
606.616	0.0153764
606.694	0.0154652
606.772	0.0153259
606.850	0.0154347
606.928	0.0153587
607.006	0.0155066
607.084	0.0154038
607.163	0.0153230
607.241	0.0154664
607.319	0.0153920
607.397	0.0155123
607.475	0.0154271
607.553	0.0155280
607.631	0.0154705
607.709	0.0153854
607.788	0.0153764
607.866	0.0154272
607.944	0.0155043
608.022	0.0154673
608.100	0.0155285
608.178	0.0154545
608.256	0.0152874
608.334	0.0154678
608.413	0.0154656
608.491	0.0154031
608.569	0.0154366
608.647	0.0154509
608.725	0.0155700
608.803	0.0153615
608.881	0.0153131
608.959	0.0154646
609.038	0.0154800
609.116	0.0154443
609.194	0.0155769
609.272	0.0154985
609.350	0.0154810
609.428	0.0154881
609.506	0.0154961
609.584	0.0154242
609.663	0.0155080
609.741	0.0155239
609.819	0.0155846
609.897	0.0155515
609.975	0.0154919
610.053	0.0155361
610.131	0.0155853
610.209	0.0155431
610.288	0.0155199
610.366	0.0154616
610.444	0.0154420
610.522	0.0155716
610.600	0.0155096
610.678	0.0155129
610.756	0.0154804
610.834	0.0154571
610.913	0.0154501
610.991	0.0153756
611.069	0.0155419
611.147	0.0155116
611.225	0.0153755
611.303	0.0154539
611.381	0.0155028
611.459	0.0153625
611.538	0.0152908
611.616	0.0153771
611.694	0.0153584
611.772	0.0154755
611.850	0.0154992
611.928	0.0154393
612.006	0.0154835
612.084	0.0153884
612.163	0.0153262
612.241	0.0154227
612.319	0.0154100
612.397	0.0153983
612.475	0.0154002
612.553	0.0154160
612.631	0.0153927
612.709	0.0152928
612.788	0.0153558
612.866	0.0154739
612.944	0.0153027
613.022	0.0152174
613.100	0.0152242
613.178	0.0155122
613.256	0.0155022
613.334	0.0154403
613.413	0.0155492
613.491	0.0154259
613.569	0.0152052
613.647	0.0153751
613.725	0.0154290
613.803	0.0153423
613.881	0.0153796
613.959	0.0154210
614.038	0.0152679
614.116	0.0153400
614.194	0.0153063
614.272	0.0153716
614.350	0.0154403
614.428	0.0154267
614.506	0.0153263
614.584	0.0152900
614.663	0.0152927
614.741	0.0153177
614.819	0.0153987
614.897	0.0153384
614.975	0.0154456
615.053	0.0154772
615.131	0.0155634
615.209	0.0154002
615.288	0.0154829
615.366	0.0154385
615.444	0.0153890
615.522	0.0156355
615.600	0.0154236
615.678	0.0153075
615.756	0.0153710
615.834	0.0154201
615.913	0.0154125
615.991	0.0153947
616.069	0.0155083
616.147	0.0155615
616.225	0.0153666
616.303	0.0152872
616.381	0.0153255
616.459	0.0155113
616.538	0.0153683
616.616	0.0155134
616.694	0.0153429
616.772	0.0155478
616.850	0.0153904
616.928	0.0152731
617.006	0.0154649
617.084	0.0153357
617.163	0.0153667
617.241	0.0153659
617.319	0.0153687
617.397	0.0154333
617.475	0.0153196
617.553	0.0153567
617.631	0.0154702
617.709	0.0153638
617.788	0.0154049
617.866	0.0153738
617.944	0.0153527
618.022	0.0155102
618.100	0.0153472
618.178	0.0154623
618.256	0.0154104
618.334	0.0154597
618.413	0.0154071
618.491	0.0153894
618.569	0.0154274
618.647	0.0154058
618.725	0.0153307
618.803	0.0153678
618.881	0.0153561
618.959	0.0153731
619.038	0.0154756
619.116	0.0154239
619.194	0.0153230
619.272	0.0154034
619.350	0.0153032
619.428	0.0154255
619.506	0.0152930
619.584	0.0152920
619.663	0.0153149
619.741	0.0154253
619.819	0.0153909
619.897	0.0153967
619.975	0.0153449
620.053	0.0153756
620.131	0.0153658
620.209	0.0153673
620.288	0.0153546
620.366	0.0153423
620.444	0.0153754
620.522	0.0152403
620.600	0.0153199
620.678	0.0154801
620.756	0.0155231
620.834	0.0152872
620.913	0.0152994
620.991	0.0154383
621.069	0.0154223
621.147	0.0152403
621.225	0.0153507
621.303	0.0153189
621.381	0.0153030
621.459	0.0155011
621.538	0.0154218
621.616	0.0153259
621.694	0.0152657
621.772	0.0154086
621.850	0.0154351
621.928	0.0154094
622.006	0.0153905
622.084	0.0153895
622.163	0.0154684
622.241	0.0156013
622.319	0.0154491
622.397	0.0153093
622.475	0.0154269
622.553	0.0154238
622.631	0.0153584
622.709	0.0155008
622.788	0.0155249
622.866	0.0154158
622.944	0.0154689
623.022	0.0153507
623.100	0.0155070
623.178	0.0154444
623.256	0.0153765
623.334	0.0154189
623.413	0.0155260
623.491	0.0154424
623.569	0.0155019
623.647	0.0154182
623.725	0.0154910
623.803	0.0153544
623.881	0.0155090
623.959	0.0155516
624.038	0.0154467
624.116	0.0155237
624.194	0.0154487
624.272	0.0155743
624.350	0.0155747
624.428	0.0154092
624.506	0.0153248
624.584	0.0154075
624.663	0.0152776
624.741	0.0153327
624.819	0.0153966
624.897	0.0153435
624.975	0.0155674
625.053	0.0154877
625.131	0.0154678
625.209	0.0153674
625.288	0.0154172
625.366	0.0155147
625.444	0.0155135
625.522	0.0153592
625.600	0.0154314
625.678	0.0153920
625.756	0.0155155
625.834	0.0155180
625.913	0.0154739
625.991	0.0155997
626.069	0.0154488
626.147	0.0155456
626.225	0.0154466
626.303	0.0154474
626.381	0.0154376
626.459	0.0154180
626.538	0.0155214
626.616	0.0154749
626.694	0.0153483
626.772	0.0155345
626.850	0.0153937
626.928	0.0154157
627.006	0.0154564
627.084	0.0154872
627.163	0.0153342
627.241	0.0153872
627.319	0.0154489
627.397	0.0153871
627.475	0.0155690
627.553	0.0154569
627.631	0.0153102
627.709	0.0153673
627.788	0.0153812
627.866	0.0153998
627.944	0.0154832
628.022	0.0155185
628.100	0.0154372
628.178	0.0154409
628.256	0.0155919
628.334	0.0153269
628.413	0.0155349
628.491	0.0155150
628.569	0.0153414
628.647	0.0155358
628.725	0.0154722
628.803	0.0153210
628.881	0.0154652
628.959	0.0154088
629.038	0.0154161
629.116	0.0154772
629.194	0.0154675
629.272	0.0153208
629.350	0.0154009
629.428	0.0153708
629.506	0.0153674
629.584	0.0155065
629.663	0.0154917
629.741	0.0154664
629.819	0.0153666
629.897	0.0153860
629.975	0.0153912
630.053	0.0154196
630.131	0.0154234
630.209	0.0152680
630.288	0.0153210
630.366	0.0153780
630.444	0.0154443
630.522	0.0154928
630.600	0.0153204
630.678	0.0153234
630.756	0.0154681
630.834	0.0153822
630.913	0.0153340
630.991	0.0154369
631.069	0.0155853
631.147	0.0155461
631.225	0.0154127
631.303	0.0153761
631.381	0.0152728
631.459	0.0153732
631.538	0.0153886
631.616	0.0153960
631.694	0.0155188
631.772	0.0153871
631.850	0.0153099
631.928	0.0154338
632.006	0.0154423
632.084	0.0154593
632.163	0.0154156
632.241	0.0153840
632.319	0.0152910
632.397	0.0154839
632.475	0.0154934
632.553	0.0153922
632.631	0.0154019
632.709	0.0154702
632.788	0.0155608
632.866	0.0153954
632.944	0.0154080
633.022	0.0154404
633.100	0.0153091
633.178	0.0153548
633.256	0.0154099
633.334	0.0154717
633.413	0.0153652
633.491	0.0154237
633.569	0.0154739
633.647	0.0154456
633.725	0.0154988
633.803	0.0153986
633.881	0.0154272
633.959	0.0154395
634.038	0.0154112
634.116	0.0154687
634.194	0.0153255
634.272	0.0153664
634.350	0.0154482
634.428	0.0153876
634.506	0.0153582
634.584	0.0154015
634.663	0.0154408
634.741	0.0154762
634.819	0.0154440
634.897	0.0153403
634.975	0.0152145
635.053	0.0155042
635.131	0.0154226
635.209	0.0154012
635.288	0.0153358
635.366	0.0153833
635.444	0.0154549
635.522	0.0155120
635.600	0.0154875
635.678	0.0153738
635.756	0.0155526
635.834	0.0153956
635.913	0.0154844
635.991	0.0154236
636.069	0.0153159
636.147	0.0154353
636.225	0.0154863
636.303	0.0153980
636.381	0.0154387
636.459	0.0153082
636.538	0.0154147
636.616	0.0154339
636.694	0.0154418
636.772	0.0154292
636.850	0.0154022
636.928	0.0153508
637.006	0.0153957
637.084	0.0154118
637.163	0.0153248
637.241	0.0153854
637.319	0.0152054
637.397	0.0153515
637.475	0.0152068
637.553	0.0153000
637.631	0.0154429
637.709	0.0153424
637.788	0.0152509
637.866	0.0153606
637.944	0.0153751
638.022	0.0154210
638.100	0.0154063
638.178	0.0153820
638.256	0.0153687
638.334	0.0154041
638.413	0.0154194
638.491	0.0154123
638.569	0.0154234
638.647	0.0152792
638.725	0.0154621
638.803	0.0154861
638.881	0.0154491
638.959	0.0155659
639.038	0.0154958
639.116	0.0154282
639.194	0.0154150
639.272	0.0154726
639.350	0.0154280
639.428	0.0155156
639.506	0.0154604
639.584	0.0154607
639.663	0.0154055
639.741	0.0154061
639.819	0.0155015
639.897	0.0154059
639.975	0.0154064
640.053	0.0152444
640.131	0.0153429
640.209	0.0154619
640.288	0.0152959
640.366	0.0154078
640.444	0.0154567
640.522	0.0153672
640.600	0.0154194
640.678	0.0154055
640.756	0.0154082
640.834	0.0154115
640.913	0.0153869
640.991	0.0153813
641.069	0.0153845
641.147	0.0156185
641.225	0.0155061
641.303	0.0155526
641.381	0.0155006
641.459	0.0154294
641.538	0.0155586
641.616	0.0155302
641.694	0.0155754
641.772	0.0154721
641.850	0.0154559
641.928	0.0155356
642.006	0.0155322
642.084	0.0155628
642.163	0.0153791
642.241	0.0154388
642.319	0.0155139
642.397	0.0155119
642.475	0.0153988
642.553	0.0153860
642.631	0.0153411
642.709	0.0154250
642.788	0.0153548
642.866	0.0152472
642.944	0.0153549
643.022	0.0153410
643.100	0.0154082
643.178	0.0152773
643.256	0.0152969
643.334	0.0153455
643.413	0.0153526
643.491	0.0154330
643.569	0.0154120
643.647	0.0155621
643.725	0.0154806
643.803	0.0154178
643.881	0.0156324
643.959	0.0155830
644.038	0.0155611
644.116	0.0155176
644.194	0.0154948
644.272	0.0156578
644.350	0.0155534
644.428	0.0155755
644.506	0.0156490
644.584	0.0155705
644.663	0.0156459
644.741	0.0154669
644.819	0.0155090
644.897	0.0154591
644.975	0.0154687
645.053	0.0154023
645.131	0.0153961
645.209	0.0153538
645.288	0.0154264
645.366	0.0154730
645.444	0.0154799
645.522	0.0154399
645.600	0.0154372
645.678	0.0154626
645.756	0.0155148
645.834	0.0155643
645.913	0.0154006
645.991	0.0154475
646.069	0.0154289
646.147	0.0154032
646.225	0.0155195
646.303	0.0155765
646.381	0.0153693
646.459	0.0154776
646.538	0.0154567
646.616	0.0154631
646.694	0.0154208
646.772	0.0153447
646.850	0.0154486
646.928	0.0153852
647.006	0.0153211
647.084	0.0154707
647.163	0.0153109
647.241	0.0152749
647.319	0.0154955
647.397	0.0154121
647.475	0.0153440
647.553	0.0153650
647.631	0.0154852
647.709	0.0155405
647.788	0.0154989
647.866	0.0156293
647.944	0.0155009
648.022	0.0154321
648.100	0.0156043
648.178	0.0155876
648.256	0.0156424
648.334	0.0154107
648.413	0.0156071
648.491	0.0156765
648.569	0.0156274
648.647	0.0155900
648.725	0.0154446
648.803	0.0155727
648.881	0.0155885
648.959	0.0155482
649.038	0.0155064
649.116	0.0155878
649.194	0.0155207
649.272	0.0154821
649.350	0.0155862
649.428	0.0154862
649.506	0.0155157
649.584	0.0155047
649.663	0.0154024
649.741	0.0154758
649.819	0.0154508
649.897	0.0154164
649.975	0.0153030
650.053	0.0153898
650.131	0.0152744
650.209	0.0151190
650.288	0.0153642
650.366	0.0152694
650.444	0.0152676
650.522	0.0152940
650.600	0.0152552
650.678	0.0152692
650.756	0.0153841
650.834	0.0152118
650.913	0.0151847
650.991	0.0152983
651.069	0.0152620
651.147	0.0153313
651.225	0.0152905
651.303	0.0153581
651.381	0.0154068
651.459	0.0155706
651.538	0.0154006
651.616	0.0153154
651.694	0.0156116
651.772	0.0154971
651.850	0.0156987
651.928	0.0157339
652.006	0.0155847
652.084	0.0154840
652.163	0.0155828
652.241	0.0155912
652.319	0.0157497
652.397	0.0156924
652.475	0.0155810
652.553	0.0155885
652.631	0.0155357
652.709	0.0156620
652.788	0.0155585
652.866	0.0155672
652.944	0.0155727
653.022	0.0153983
653.100	0.0154202
653.178	0.0152431
653.256	0.0152658
653.334	0.0152316
653.413	0.0151661
653.491	0.0151652
653.569	0.0152408
653.647	0.0151110
653.725	0.0149601
653.803	0.0150006
653.881	0.0149889
653.959	0.0150118
654.038	0.0150759
654.116	0.0149177
654.194	0.0150172
654.272	0.0150767
654.350	0.0151942
654.428	0.0151826
654.506	0.0151300
654.584	0.0151214
654.663	0.0151081
654.741	0.0151041
654.819	0.0152818
654.897	0.0151590
654.975	0.0152248
655.053	0.0152078
655.131	0.0152721
655.209	0.0152914
655.288	0.0152773
655.366	0.0152935
655.444	0.0154070
655.522	0.0154385
655.600	0.0153903
655.678	0.0154735
655.756	0.0154258
655.834	0.0154765
655.913	0.0155174
655.991	0.0155370
656.069	0.0155115
656.147	0.0155883
656.225	0.0156957
656.303	0.0156039
656.381	0.0155452
656.459	0.0156640
656.538	0.0155843
656.616	0.0156638
656.694	0.0156116
656.772	0.0156073
656.850	0.0155368
656.928	0.0155182
657.006	0.0155127
657.084	0.0154897
657.163	0.0152735
657.241	0.0152564
657.319	0.0153352
657.397	0.0153000
657.475	0.0152576
657.553	0.0151310
657.631	0.0151083
657.709	0.0152506
657.788	0.0152784
657.866	0.0151212
657.944	0.0151613
658.022	0.0151814
658.100	0.0150661
658.178	0.0152632
658.256	0.0152676
658.334	0.0152180
658.413	0.0152398
658.491	0.0153000
658.569	0.0152621
658.647	0.0152602
658.725	0.0153631
658.803	0.0156110
658.881	0.0155093
658.959	0.0155280
659.038	0.0154607
659.116	0.0156361
659.194	0.0156324
659.272	0.0156541
659.350	0.0155096
659.428	0.0155984
659.506	0.0156385
659.584	0.0157127
659.663	0.0155130
659.741	0.0153344
659.819	0.0155489
659.897	0.0155230
659.975	0.0155418
660.053	0.0154766
660.131	0.0155148
660.209	0.0155877
660.288	0.0155088
660.366	0.0154805
660.444	0.0155752
660.522	0.0154273
660.600	0.0154360
660.678	0.0154208
660.756	0.0154852
660.834	0.0153324
660.913	0.0154926
660.991	0.0155683
661.069	0.0154292
661.147	0.0155079
661.225	0.0155119
661.303	0.0154133
661.381	0.0153376
661.459	0.0155162
661.538	0.0154405
661.616	0.0154943
661.694	0.0153596
661.772	0.0154335
661.850	0.0153867
661.928	0.0153377
662.006	0.0153059
662.084	0.0152348
662.163	0.0152858
662.241	0.0152790
662.319	0.0153503
662.397	0.0154556
662.475	0.0153484
662.553	0.0153744
662.631	0.0153967
662.709	0.0154839
662.788	0.0154517
662.866	0.0155260
662.944	0.0155329
663.022	0.0154975
663.100	0.0155238
663.178	0.0155296
663.256	0.0155560
663.334	0.0156187
663.413	0.0156490
663.491	0.0156623
663.569	0.0155221
663.647	0.0155907
663.725	0.0155559
663.803	0.0155676
663.881	0.0155380
663.959	0.0152715
664.038	0.0155118
664.116	0.0155101
664.194	0.0154507
664.272	0.0153844
664.350	0.0155058
664.428	0.0154468
664.506	0.0153525
664.584	0.0153786
664.663	0.0153251
664.741	0.0154284
664.819	0.0154387
664.897	0.0153232
664.975	0.0153834
665.053	0.0152990
665.131	0.0155147
665.209	0.0154273
665.288	0.0153298
665.366	0.0154024
665.444	0.0155389
665.522	0.0152917
665.600	0.0154630
665.678	0.0155147
665.756	0.0154092
665.834	0.0155602
665.913	0.0154499
665.991	0.0155102
666.069	0.0154989
666.147	0.0155137
666.225	0.0153168
666.303	0.0155221
666.381	0.0155652
666.459	0.0155915
666.538	0.0154374
666.616	0.0154620
666.694	0.0154911
666.772	0.0153641
666.850	0.0152698
666.928	0.0154086
667.006	0.0153770
667.084	0.0153991
667.163	0.0152670
667.241	0.0151796
667.319	0.0151846
667.397	0.0153069
667.475	0.0153030
667.553	0.0152941
667.631	0.0153867
667.709	0.0151630
667.788	0.0153596
667.866	0.0153339
667.944	0.0154502
668.022	0.0152182
668.100	0.0152783
668.178	0.0154907
668.256	0.0155019
668.334	0.0155406
668.413	0.0155613
668.491	0.0155224
668.569	0.0154182
668.647	0.0153546
668.725	0.0154969
668.803	0.0154906
668.881	0.0155420
668.959	0.0155202
669.038	0.0156012
669.116	0.0154502
669.194	0.0154397
669.272	0.0153587
669.350	0.0154472
669.428	0.0154066
669.506	0.0152883
669.584	0.0154854
669.663	0.0153343
669.741	0.0151804
669.819	0.0152226
669.897	0.0153810
669.975	0.0153739
670.053	0.0151971
670.131	0.0151917
670.209	0.0153635
670.288	0.0152055
670.366	0.0152872
670.444	0.0153765
670.522	0.0152618
670.600	0.0153533
670.678	0.0154295
670.756	0.0152731
670.834	0.0154114
670.913	0.0154245
670.991	0.0153136
671.069	0.0155075
671.147	0.0154225
671.225	0.0153736
671.303	0.0154093
671.381	0.0154900
671.459	0.0153473
671.538	0.0154040
671.616	0.0153856
671.694	0.0154746
671.772	0.0153656
671.850	0.0153953
671.928	0.0152995
672.006	0.0153887
672.084	0.0153233
672.163	0.0151186
672.241	0.0152927
672.319	0.0152474
672.397	0.0151745
672.475	0.0152615
672.553	0.0151860
672.631	0.0151746
672.709	0.0152383
672.788	0.0152288
672.866	0.0152744
672.944	0.0153065
673.022	0.0153691
673.100	0.0154012
673.178	0.0155940
673.256	0.0156032
673.334	0.0155006
673.413	0.0153925
673.491	0.0155204
673.569	0.0154732
673.647	0.0155854
673.725	0.0154378
673.803	0.0154967
673.881	0.0155636
673.959	0.0153848
674.038	0.0153338
674.116	0.0154305
674.194	0.0153359
674.272	0.0153780
674.350	0.0154372
674.428	0.0153900
674.506	0.0152878
674.584	0.0152565
674.663	0.0153815
674.741	0.0152163
674.819	0.0152562
674.897	0.0152426
674.975	0.0152460
675.053	0.0151287
675.131	0.0150586
675.209	0.0151267
675.288	0.0152585
675.366	0.0152743
675.444	0.0150523
675.522	0.0150428
675.600	0.0151160
675.678	0.0151743
675.756	0.0150931
675.834	0.0152967
675.913	0.0152492
675.991	0.0153148
676.069	0.0152495
676.147	0.0153681
676.225	0.0153921
676.303	0.0152878
676.381	0.0153279
676.459	0.0153811
676.538	0.0153332
676.616	0.0152872
676.694	0.0153345
676.772	0.0153101
676.850	0.0152945
676.928	0.0153205
677.006	0.0152074
677.084	0.0150341
677.163	0.0149344
677.241	0.0150256
677.319	0.0149963
677.397	0.0149144
677.475	0.0149490
677.553	0.0149023
677.631	0.0148034
677.709	0.0149099
677.788	0.0150771
677.866	0.0151633
677.944	0.0153341
678.022	0.0153423
678.100	0.0154620
678.178	0.0156657
678.256	0.0156628
678.334	0.0159062
678.413	0.0160114
678.491	0.0160194
678.569	0.0161280
678.647	0.0162036
678.725	0.0162576
678.803	0.0163737
678.881	0.0162502
678.959	0.0160651
679.038	0.0159699
679.116	0.0157666
679.194	0.0154350
679.272	0.0152810
679.350	0.0151794
679.428	0.0148191
679.506	0.0145127
679.584	0.0144990
679.663	0.0144087
679.741	0.0141296
679.819	0.0141612
679.897	0.0141712
679.975	0.0140758
680.053	0.0140836
680.131	0.0142213
680.209	0.0145541
680.288	0.0146233
680.366	0.0147854
680.444	0.0149023
680.522	0.0152603
680.600	0.0154018
680.678	0.0157098
680.756	0.0158830
680.834	0.0161078
680.913	0.0162370
680.991	0.0162754
681.069	0.0164746
681.147	0.0165329
681.225	0.0165890
681.303	0.0165472
681.381	0.0165303
681.459	0.0163736
681.538	0.0164861
681.616	0.0162468
681.694	0.0161286
681.772	0.0160475
681.850	0.0158562
681.928	0.0157031
682.006	0.0156800
682.084	0.0153362
682.163	0.0151520
682.241	0.0150993
682.319	0.0149483
682.397	0.0148156
682.475	0.0147383
682.553	0.0145527
682.631	0.0146075
682.709	0.0145070
682.788	0.0145251
682.866	0.0145091
682.944	0.0144952
683.022	0.0145947
683.100	0.0146410
683.178	0.0146099
683.256	0.0147947
683.334	0.0148701
683.413	0.0149380
683.491	0.0151756
683.569	0.0152847
683.647	0.0153996
683.725	0.0155151
683.803	0.0156982
683.881	0.0157592
683.959	0.0157852
684.038	0.0159392
684.116	0.0160332
684.194	0.0162406
684.272	0.0160681
684.350	0.0162015
684.428	0.0160962
684.506	0.0160935
684.584	0.0160001
684.663	0.0159762
684.741	0.0158891
684.819	0.0157346
684.897	0.0156819
684.975	0.0155183
685.053	0.0153809
685.131	0.0152989
685.209	0.0151920
685.288	0.0151039
685.366	0.0148783
685.444	0.0149441
685.522	0.0148546
685.600	0.0147428
685.678	0.0147013
685.756	0.0147157
685.834	0.0147968
685.913	0.0147115
685.991	0.0148602
686.069	0.0148928
686.147	0.0148494
686.225	0.0151391
686.303	0.0153780
686.381	0.0152891
686.459	0.0155049
686.538	0.0158401
686.616	0.0159538
686.694	0.0160873
686.772	0.0165293
686.850	0.0166863
686.928	0.0167687
687.006	0.0170155
687.084	0.0170127
687.163	0.0169838
687.241	0.0169547
687.319	0.0168593
687.397	0.0167168
687.475	0.0164080
687.553	0.0160744
687.631	0.0156242
687.709	0.0152931
687.788	0.0148350
687.866	0.0142908
687.944	0.0140625
688.022	0.0136494
688.100	0.0131416
688.178	0.0128001
688.256	0.0125860
688.334	0.0124802
688.413	0.0124837
688.491	0.0124422
688.569	0.0124960
688.647	0.0126894
688.725	0.0129104
688.803	0.0132636
688.881	0.0135533
688.959	0.0139652
689.038	0.0144595
689.116	0.0149512
689.194	0.0152227
689.272	0.0157308
689.350	0.0162260
689.428	0.0165219
689.506	0.0168926
689.584	0.0172443
689.663	0.0176024
689.741	0.0179357
689.819	0.0183071
689.897	0.0184280
689.975	0.0186598
690.053	0.0186421
690.131	0.0187666
690.209	0.0186849
690.288	0.0187295
690.366	0.0183595
690.444	0.0181480
690.522	0.0179340
690.600	0.0176924
690.678	0.0171468
690.756	0.0168526
690.834	0.0163812
690.913	0.0159064
690.991	0.0154094
691.069	0.0150578
691.147	0.0147284
691.225	0.0143614
691.303	0.0139851
691.381	0.0136492
691.459	0.0135067
691.538	0.0132352
691.616	0.0130962
691.694	0.0131332
691.772	0.0130743
691.850	0.0131657
691.928	0.0132785
692.006	0.0132824
692.084	0.0133608
692.163	0.0134662
692.241	0.0136520
692.319	0.0135953
692.397	0.0136988
692.475	0.0138109
692.553	0.0139674
692.631	0.0139397
692.709	0.0140482
692.788	0.0141740
692.866	0.0140641
692.944	0.0142425
693.022	0.0143042
693.100	0.0143541
693.178	0.0142518
693.256	0.0145984
693.334	0.0146207
693.413	0.0147266
693.491	0.0150647
693.569	0.0153505
693.647	0.0157925
693.725	0.0159813
693.803	0.0164526
693.881	0.0168297
693.959	0.0172953
694.038	0.0176839
694.116	0.0181295
694.194	0.0184473
694.272	0.0187264
694.350	0.0190346
694.428	0.0192546
694.506	0.0190824
694.584	0.0189554
694.663	0.0189047
694.741	0.0185838
694.819	0.0182581
694.897	0.0177675
694.975	0.0172888
695.053	0.0168716
695.131	0.0163041
695.209	0.0158006
695.288	0.0152486
695.366	0.0148177
695.444	0.0144068
695.522	0.0139189
695.600	0.0137910
695.678	0.0134855
695.756	0.0130706
695.834	0.0128947
695.913	0.0126585
695.991	0.0126129
696.069	0.0123644
696.147	0.0123017
696.225	0.0123118
696.303	0.0124392
696.381	0.0125100
696.459	0.0125076
696.538	0.0128107
696.616	0.0131399
696.694	0.0133708
696.772	0.0136163
696.850	0.0139331
696.928	0.0142625
697.006	0.0145673
697.084	0.0147948
697.163	0.0150115
697.241	0.0151660
697.319	0.0153609
697.397	0.0154890
697.475	0.0157117
697.553	0.0157566
697.631	0.0158287
697.709	0.0157559
697.788	0.0159059
697.866	0.0161557
697.944	0.0162775
698.022	0.0163904
698.100	0.0164648
698.178	0.0166553
698.256	0.0167064
698.334	0.0168365
698.413	0.0168787
698.491	0.0169520
698.569	0.0170867
698.647	0.0171239
698.725	0.0171987
698.803	0.0171806
698.881	0.0171514
698.959	0.0171129
699.038	0.0171841
699.116	0.0169739
699.194	0.0167657
699.272	0.0168323
699.350	0.0167818
699.428	0.0164252
699.506	0.0162030
699.584	0.0160487
699.663	0.0158395
699.741	0.0156091
699.819	0.0151977
699.897	0.0150396
699.975	0.0148989
700.053	0.0144707
700.131	0.0142095
700.209	0.0139059
700.288	0.0135928
700.366	0.0133820
700.444	0.0132381
700.522	0.0129223
700.600	0.0127911
700.678	0.0128609
700.756	0.0125964
700.834	0.0128044
700.913	0.0129044
700.991	0.0131267
701.069	0.0133391
701.147	0.0137605
701.225	0.0141560
701.303	0.0144184
701.381	0.0147291
701.459	0.0152810
701.538	0.0157276
701.616	0.0162406
701.694	0.0164604
701.772	0.0167901
701.850	0.0170996
701.928	0.0172982
702.006	0.0173948
702.084	0.0176484
702.163	0.0176528
702.241	0.0176569
702.319	0.0177142
702.397	0.0177294
702.475	0.0175867
702.553	0.0174271
702.631	0.0173339
702.709	0.0172060
702.788	0.0169257
702.866	0.0168215
702.944	0.0166830
703.022	0.0163865
703.100	0.0160576
703.178	0.0158458
703.256	0.0155105
703.334	0.0151299
703.413	0.0147266
703.491	0.0144794
703.569	0.0141866
703.647	0.0138244
703.725	0.0136908
703.803	0.0133988
703.881	0.0131028
703.959	0.0130791
704.038	0.0132938
704.116	0.0130785
704.194	0.0132933
704.272	0.0136888
704.350	0.0138117
704.428	0.0142096
704.506	0.0143957
704.584	0.0148577
704.663	0.0152758
704.741	0.0156160
704.819	0.0157907
704.897	0.0159956
704.975	0.0162287
705.053	0.0163189
705.131	0.0165360
705.209	0.0167551
705.288	0.0167712
705.366	0.0169406
705.444	0.0169753
705.522	0.0168787
705.600	0.0171907
705.678	0.0171604
705.756	0.0171057
705.834	0.0171475
705.913	0.0169511
705.991	0.0167426
706.069	0.0165826
706.147	0.0161295
706.225	0.0157700
706.303	0.0153622
706.381	0.0148679
706.459	0.0146523
706.538	0.0140765
706.616	0.0137491
706.694	0.0134566
706.772	0.0132394
706.850	0.0132943
706.928	0.0133949
707.006	0.0133239
707.084	0.0135482
707.163	0.0137196
707.241	0.0140482
707.319	0.0144096
707.397	0.0146287
707.475	0.0150446
707.553	0.0154469
707.631	0.0159406
707.709	0.0164162
707.788	0.0168475
707.866	0.0173640
707.944	0.0177357
708.022	0.0180621
708.100	0.0182656
708.178	0.0185001
708.256	0.0187237
708.334	0.0186782
708.413	0.0185857
708.491	0.0183212
708.569	0.0179631
708.647	0.0174408
708.725	0.0168525
708.803	0.0162232
708.881	0.0157690
708.959	0.0151545
709.038	0.0144699
709.116	0.0137663
709.194	0.0132082
709.272	0.0129856
709.350	0.0125020
709.428	0.0124121
709.506	0.0120226
709.584	0.0118673
709.663	0.0118880
709.741	0.0122266
709.819	0.0123915
709.897	0.0126181
709.975	0.0129959
710.053	0.0132462
710.131	0.0136181
710.209	0.0140857
710.288	0.0144936
710.366	0.0148797
710.444	0.0151464
710.522	0.0156903
710.600	0.0160700
710.678	0.0163927
710.756	0.0164704
710.834	0.0165926
710.913	0.0168948
710.991	0.0170930
711.069	0.0169449
711.147	0.0170930
711.225	0.0171115
711.303	0.0171038
711.381	0.0170361
711.459	0.0168314
711.538	0.0168147
711.616	0.0165807
711.694	0.0163142
711.772	0.0162945
711.850	0.0162196
711.928	0.0158459
712.006	0.0157231
712.084	0.0157407
712.163	0.0155202
712.241	0.0155262
712.319	0.0152039
712.397	0.0151085
712.475	0.0149798
712.553	0.0147887
712.631	0.0146943
712.709	0.0147732
712.788	0.0146076
712.866	0.0144500
712.944	0.0142765
713.022	0.0143913
713.100	0.0143831
713.178	0.0141600
713.256	0.0144232
713.334	0.0145558
713.413	0.0146275
713.491	0.0148190
713.569	0.0149228
713.647	0.0151812
713.725	0.0152892
713.803	0.0153899
713.881	0.0158335
713.959	0.0158885
714.038	0.0159702
714.116	0.0161522
714.194	0.0161917
714.272	0.0162419
714.350	0.0163464
714.428	0.0162559
714.506	0.0163533
714.584	0.0165700
714.663	0.0163750
714.741	0.0163177
714.819	0.0163924
714.897	0.0164466
714.975	0.0163688
715.053	0.0163036
715.131	0.0161079
715.209	0.0162095
715.288	0.0160432
715.366	0.0159695
715.444	0.0158608
715.522	0.0156005
715.600	0.0154460
715.678	0.0153191
715.756	0.0150321
715.834	0.0150763
715.913	0.0147850
715.991	0.0148197
716.069	0.0145901
716.147	0.0145049
716.225	0.0145277
716.303	0.0144601
716.381	0.0143587
716.459	0.0140767
716.538	0.0140701
716.616	0.0140157
716.694	0.0137236
716.772	0.0137817
716.850	0.0137316
716.928	0.0134743
717.006	0.0135159
717.084	0.0134375
717.163	0.0134560
717.241	0.0134277
717.319	0.0135761
717.397	0.0137334
717.475	0.0140629
717.553	0.0140314
717.631	0.0144722
717.709	0.0148127
717.788	0.0151069
717.866	0.0156609
717.944	0.0159163
718.022	0.0163059
718.100	0.0167998
718.178	0.0170477
718.256	0.0172465
718.334	0.0175178
718.413	0.0176723
718.491	0.0176653
718.569	0.0177683
718.647	0.0174757
718.725	0.0172260
718.803	0.0167716
718.881	0.0162222
718.959	0.0160896
719.038	0.0159100
719.116	0.0154042
719.194	0.0150540
719.272	0.0150008
719.350	0.0149220
719.428	0.0148072
719.506	0.0149174
719.584	0.0150874
719.663	0.0154241
719.741	0.0158376
719.819	0.0161981
719.897	0.0164722
719.975	0.0169834
720.053	0.0172826
720.131	0.0176154
720.209	0.0177739
720.288	0.0179552
720.366	0.0180511
720.444	0.0180278
720.522	0.0176961
720.600	0.0176225
720.678	0.0172816
720.756	0.0167078
720.834	0.0164233
720.913	0.0160652
720.991	0.0155531
721.069	0.0151200
721.147	0.0146995
721.225	0.0144034
721.303	0.0138132
721.381	0.0135558
721.459	0.0134705
721.538	0.0132034
721.616	0.0130365
721.694	0.0129821
721.772	0.0129268
721.850	0.0130190
721.928	0.0131745
722.006	0.0133043
722.084	0.0133900
722.163	0.0135723
722.241	0.0135447
722.319	0.0137215
722.397	0.0139082
722.475	0.0138702
722.553	0.0140305
722.631	0.0141631
722.709	0.0141822
722.788	0.0143368
722.866	0.0141984
722.944	0.0142176
723.022	0.0143134
723.100	0.0144633
723.178	0.0144289
723.256	0.0147239
723.334	0.0147830
723.413	0.0148672
723.491	0.0151645
723.569	0.0155219
723.647	0.0157541
723.725	0.0159960
723.803	0.0163618
723.881	0.0166051
723.959	0.0167763
724.038	0.0170128
724.116	0.0171675
724.194	0.0173427
724.272	0.0175249
724.350	0.0176492
724.428	0.0176019
724.506	0.0176319
724.584	0.0178427
724.663	0.0178139
724.741	0.0178421
724.819	0.0177621
724.897	0.0176836
724.975	0.0176744
725.053	0.0175774
725.131	0.0173886
725.209	0.0172792
725.288	0.0170860
725.366	0.0169817
725.444	0.0168566
725.522	0.0166582
725.600	0.0163924
725.678	0.0161823
725.756	0.0159405
725.834	0.0159143
725.913	0.0156693
725.991	0.0153394
726.069	0.0150082
726.147	0.0148215
726.225	0.0146785
726.303	0.0143192
726.381	0.0140459
726.459	0.0138759
726.538	0.0135419
726.616	0.0134507
726.694	0.0133635
726.772	0.0132935
726.850	0.0132233
726.928	0.0132922
727.006	0.0134057
727.084	0.0134557
727.163	0.0136929
727.241	0.0136668
727.319	0.0140911
727.397	0.0143497
727.475	0.0146261
727.553	0.0149692
727.631	0.0151344
727.709	0.0152283
727.788	0.0153466
727.866	0.0153979
727.944	0.0156785
728.022	0.0156249
728.100	0.0155035
728.178	0.0155459
728.256	0.0155810
728.334	0.0154778
728.413	0.0154346
728.491	0.0153014
728.569	0.0153614
728.647	0.0153040
728.725	0.0152294
728.803	0.0151479
728.881	0.0150739
728.959	0.0150812
729.038	0.0149046
729.116	0.0150919
729.194	0.0150157
729.272	0.0149725
729.350	0.0148445
729.428	0.0148914
729.506	0.0150227
729.584	0.0150968
729.663	0.0151866
729.741	0.0154898
729.819	0.0158236
729.897	0.0160665
729.975	0.0163657
730.053	0.0166643
730.131	0.0169188
730.209	0.0174516
730.288	0.0175816
730.366	0.0178221
730.444	0.0179676
730.522	0.0178881
730.600	0.0179398
730.678	0.0178736
730.756	0.0174004
730.834	0.0171609
730.913	0.0168433
730.991	0.0163113
731.069	0.0159018
731.147	0.0155922
731.225	0.0151830
731.303	0.0148275
731.381	0.0144814
731.459	0.0141833
731.538	0.0139374
731.616	0.0138110
731.694	0.0139301
731.772	0.0139009
731.850	0.0140541
731.928	0.0141125
732.006	0.0144418
732.084	0.0147051
732.163	0.0147676
732.241	0.0149316
732.319	0.0151122
732.397	0.0152930
732.475	0.0153452
732.553	0.0154394
732.631	0.0152899
732.709	0.0153608
732.788	0.0153033
732.866	0.0149525
732.944	0.0148814
733.022	0.0148886
733.100	0.0146978
733.178	0.0146090
733.256	0.0145307
733.334	0.0146249
733.413	0.0146122
733.491	0.0145863
733.569	0.0147134
733.647	0.0146323
733.725	0.0147994
733.803	0.0150198
733.881	0.0150558
733.959	0.0150462
734.038	0.0152120
734.116	0.0151400
734.194	0.0151978
734.272	0.0152155
734.350	0.0151484
734.428	0.0152890
734.506	0.0150837
734.584	0.0151009
734.663	0.0153085
734.741	0.0153371
734.819	0.0153766
734.897	0.0154493
734.975	0.0154472
735.053	0.0156842
735.131	0.0156677
735.209	0.0156116
735.288	0.0155888
735.366	0.0159102
735.444	0.0156993
735.522	0.0157734
735.600	0.0159062
735.678	0.0159529
735.756	0.0158585
735.834	0.0158588
735.913	0.0158113
735.991	0.0157581
736.069	0.0156145
736.147	0.0155878
736.225	0.0154639
736.303	0.0155109
736.381	0.0153782
736.459	0.0155264
736.538	0.0155336
736.616	0.0154922
736.694	0.0154723
736.772	0.0154884
736.850	0.0155882
736.928	0.0156731
737.006	0.0156328
737.084	0.0155255
737.163	0.0156774
737.241	0.0157321
737.319	0.0155911
737.397	0.0155585
737.475	0.0153828
737.553	0.0154169
737.631	0.0154073
737.709	0.0155057
737.788	0.0153582
737.866	0.0155653
737.944	0.0154694
738.022	0.0154821
738.100	0.0154587
738.178	0.0154276
738.256	0.0155221
738.334	0.0154299
738.413	0.0152812
738.491	0.0152556
738.569	0.0151370
738.647	0.0149588
738.725	0.0148112
738.803	0.0148654
738.881	0.0148022
738.959	0.0147250
739.038	0.0147454
739.116	0.0147448
739.194	0.0150146
739.272	0.0148940
739.350	0.0150275
739.428	0.0151090
739.506	0.0152990
739.584	0.0150644
739.663	0.0153381
739.741	0.0152567
739.819	0.0152969
739.897	0.0152291
739.975	0.0151465
740.053	0.0150446
740.131	0.0149455
740.209	0.0149798
740.288	0.0148644
740.366	0.0149979
740.444	0.0150706
740.522	0.0151206
740.600	0.0150655
740.678	0.0150637
740.756	0.0153019
740.834	0.0152994
740.913	0.0153519
740.991	0.0153195
741.069	0.0152525
741.147	0.0153623
741.225	0.0152984
741.303	0.0150602
741.381	0.0151573
741.459	0.0151615
741.538	0.0151864
741.616	0.0151476
741.694	0.0152112
741.772	0.0151835
741.850	0.0152878
741.928	0.0153428
742.006	0.0154444
742.084	0.0155373
742.163	0.0156617
742.241	0.0158772
742.319	0.0160618
742.397	0.0162286
742.475	0.0164024
742.553	0.0165208
742.631	0.0166410
742.709	0.0165958
742.788	0.0167799
742.866	0.0166934
742.944	0.0166269
743.022	0.0164927
743.100	0.0163745
743.178	0.0163427
743.256	0.0162399
743.334	0.0160616
743.413	0.0159660
743.491	0.0157989
743.569	0.0157683
743.647	0.0156111
743.725	0.0155273
743.803	0.0153458
743.881	0.0152132
743.959	0.0151550
744.038	0.0151160
744.116	0.0149808
744.194	0.0148635
744.272	0.0145792
744.350	0.0145840
744.428	0.0145878
744.506	0.0145795
744.584	0.0144695
744.663	0.0144810
744.741	0.0145258
744.819	0.0144690
744.897	0.0145457
744.975	0.0145805
745.053	0.0147067
745.131	0.0146897
745.209	0.0145944
745.288	0.0145486
745.366	0.0145551
745.444	0.0145428
745.522	0.0145406
745.600	0.0146430
745.678	0.0147072
745.756	0.0147258
745.834	0.0147932
745.913	0.0148409
745.991	0.0149135
746.069	0.0151033
746.147	0.0151874
746.225	0.0152508
746.303	0.0154624
746.381	0.0153825
746.459	0.0154513
746.538	0.0156938
746.616	0.0157453
746.694	0.0157236
746.772	0.0156815
746.850	0.0158377
746.928	0.0157168
747.006	0.0158160
747.084	0.0157291
747.163	0.0157656
747.241	0.0158208
747.319	0.0159782
747.397	0.0160019
747.475	0.0160130
747.553	0.0159450
747.631	0.0160712
747.709	0.0159757
747.788	0.0161490
747.866	0.0161338
747.944	0.0163385
748.022	0.0161845
748.100	0.0162570
748.178	0.0161214
748.256	0.0160718
748.334	0.0160899
748.413	0.0159229
748.491	0.0160386
748.569	0.0160765
748.647	0.0159859
748.725	0.0159310
748.803	0.0160458
748.881	0.0158183
748.959	0.0157705
749.038	0.0158928
749.116	0.0158453
749.194	0.0158775
749.272	0.0157578
749.350	0.0156425
749.428	0.0156181
749.506	0.0153059
749.584	0.0153391
749.663	0.0152608
749.741	0.0151121
749.819	0.0151498
749.897	0.0149496
749.975	0.0148167
750.053	0.0150630
750.131	0.0148135
750.209	0.0146342
750.288	0.0148347
750.366	0.0146612
750.444	0.0146774
750.522	0.0146613
750.600	0.0146146
750.678	0.0148781
750.756	0.0149590
750.834	0.0150016
750.913	0.0151695
750.991	0.0153445
751.069	0.0154090
751.147	0.0154311
751.225	0.0155394
751.303	0.0154243
751.381	0.0154879
751.459	0.0154173
751.538	0.0152510
751.616	0.0152076
751.694	0.0150819
751.772	0.0150687
751.850	0.0150963
751.928	0.0150286
752.006	0.0149926
752.084	0.0151410
752.163	0.0151372
752.241	0.0150253
752.319	0.0151915
752.397	0.0153549
752.475	0.0153733
752.553	0.0155229
752.631	0.0155996
752.709	0.0155265
752.788	0.0156559
752.866	0.0156403
752.944	0.0157565
753.022	0.0157764
753.100	0.0156738
753.178	0.0158226
753.256	0.0157959
753.334	0.0158141
753.413	0.0157405
753.491	0.0156537
753.569	0.0155289
753.647	0.0155553
753.725	0.0155701
753.803	0.0154150
753.881	0.0151794
753.959	0.0153459
754.038	0.0151472
754.116	0.0150995
754.194	0.0150978
754.272	0.0151207
754.350	0.0150854
754.428	0.0150838
754.506	0.0150813
754.584	0.0152227
754.663	0.0151925
754.741	0.0152626
754.819	0.0152462
754.897	0.0153421
754.975	0.0151141
755.053	0.0154157
755.131	0.0154182
755.209	0.0154325
755.288	0.0155019
755.366	0.0155045
755.444	0.0153775
755.522	0.0155614
755.600	0.0155885
755.678	0.0157104
755.756	0.0158627
755.834	0.0156360
755.913	0.0156438
755.991	0.0157391
756.069	0.0155891
756.147	0.0158028
756.225	0.0158044
756.303	0.0156237
756.381	0.0155000
756.459	0.0155114
756.538	0.0154739
756.616	0.0154129
756.694	0.0155468
756.772	0.0151904
756.850	0.0153459
756.928	0.0152401
757.006	0.0151506
757.084	0.0150636
757.163	0.0151603
757.241	0.0152599
757.319	0.0151511
757.397	0.0153083
757.475	0.0152513
757.553	0.0153722
757.631	0.0153210
757.709	0.0153410
757.788	0.0153204
757.866	0.0152904
757.944	0.0154702
758.022	0.0152755
758.100	0.0152170
758.178	0.0151762
758.256	0.0153584
758.334	0.0151455
758.413	0.0149545
758.491	0.0150385
758.569	0.0148652
758.647	0.0148387
758.725	0.0146968
758.803	0.0146227
758.881	0.0145361
758.959	0.0144430
759.038	0.0145808
759.116	0.0145465
759.194	0.0145998
759.272	0.0145874
759.350	0.0146563
759.428	0.0147758
759.506	0.0149504
759.584	0.0149319
759.663	0.0149105
759.741	0.0151373
759.819	0.0151250
759.897	0.0153548
759.975	0.0154066
760.053	0.0156767
760.131	0.0155548
760.209	0.0157081
760.288	0.0157604
760.366	0.0158939
760.444	0.0159920
760.522	0.0160726
760.600	0.0160573
760.678	0.0159957
760.756	0.0161775
760.834	0.0161004
760.913	0.0161371
760.991	0.0161323
761.069	0.0158669
761.147	0.0160564
761.225	0.0160963
761.303	0.0161151
761.381	0.0159337
761.459	0.0159390
761.538	0.0158241
761.616	0.0158977
761.694	0.0157151
761.772	0.0157748
761.850	0.0155270
761.928	0.0155526
762.006	0.0155276
762.084	0.0155200
762.163	0.0155283
762.241	0.0155427
762.319	0.0154267
762.397	0.0155306
762.475	0.0155995
762.553	0.0157948
762.631	0.0155972
762.709	0.0155555
762.788	0.0157040
762.866	0.0155285
762.944	0.0152972
763.022	0.0152878
763.100	0.0153015
763.178	0.0152147
763.256	0.0152947
763.334	0.0150230
763.413	0.0152277
763.491	0.0151791
763.569	0.0152300
763.647	0.0151215
763.725	0.0150229
763.803	0.0150647
763.881	0.0150645
763.959	0.0149882
764.038	0.0147980
764.116	0.0148405
764.194	0.0147049
764.272	0.0145987
764.350	0.0146264
764.428	0.0145131
764.506	0.0143491
764.584	0.0146108
764.663	0.0144768
764.741	0.0144762
764.819	0.0144534
764.897	0.0145355
764.975	0.0146828
765.053	0.0147207
765.131	0.0148620
765.209	0.0147655
765.288	0.0148019
765.366	0.0150124
765.444	0.0151521
765.522	0.0152164
765.600	0.0151646
765.678	0.0154880
765.756	0.0154741
765.834	0.0155547
765.913	0.0156534
765.991	0.0156904
766.069	0.0157671
766.147	0.0157856
766.225	0.0157317
766.303	0.0157114
766.381	0.0156834
766.459	0.0157145
766.538	0.0156281
766.616	0.0156493
766.694	0.0154577
766.772	0.0153244
766.850	0.0152644
766.928	0.0152244
767.006	0.0150363
767.084	0.0151559
767.163	0.0152695
767.241	0.0151938
767.319	0.0151068
767.397	0.0153010
767.475	0.0152783
767.553	0.0153701
767.631	0.0154650
767.709	0.0154123
767.788	0.0154512
767.866	0.0154579
767.944	0.0153638
768.022	0.0152785
768.100	0.0154132
768.178	0.0154395
768.256	0.0152468
768.334	0.0154388
768.413	0.0154752
768.491	0.0153432
768.569	0.0155045
768.647	0.0156660
768.725	0.0156654
768.803	0.0156661
768.881	0.0157102
768.959	0.0160135
769.038	0.0161027
769.116	0.0160773
769.194	0.0161008
769.272	0.0161749
769.350	0.0162126
769.428	0.0160123
769.506	0.0161204
769.584	0.0160749
769.663	0.0160311
769.741	0.0158089
769.819	0.0157822
769.897	0.0156526
769.975	0.0156458
770.053	0.0155695
770.131	0.0154137
770.209	0.0153589
770.288	0.0153062
770.366	0.0151824
770.444	0.0151370
770.522	0.0151266
770.600	0.0150971
770.678	0.0150217
770.756	0.0150993
770.834	0.0150219
770.913	0.0149938
770.991	0.0151236
771.069	0.0149244
771.147	0.0149700
771.225	0.0150668
771.303	0.0152105
771.381	0.0153419
771.459	0.0151839
771.538	0.0151269
771.616	0.0152566
771.694	0.0151757
771.772	0.0152264
771.850	0.0152393
771.928	0.0153773
772.006	0.0152177
772.084	0.0152873
772.163	0.0152734
772.241	0.0152254
772.319	0.0150907
772.397	0.0151427
772.475	0.0150873
772.553	0.0150582
772.631	0.0148969
772.709	0.0149475
772.788	0.0150729
772.866	0.0148651
772.944	0.0149606
773.022	0.0147576
773.100	0.0148359
773.178	0.0148447
773.256	0.0147242
773.334	0.0148699
773.413	0.0149345
773.491	0.0149166
773.569	0.0150008
773.647	0.0149474
773.725	0.0151611
773.803	0.0152879
773.881	0.0152258
773.959	0.0152498
774.038	0.0156031
774.116	0.0155752
774.194	0.0157566
774.272	0.0156419
774.350	0.0157256
774.428	0.0159086
774.506	0.0158875
774.584	0.0159869
774.663	0.0159477
774.741	0.0159814
774.819	0.0159737
774.897	0.0158842
774.975	0.0157929
775.053	0.0158452
775.131	0.0156840
775.209	0.0156596
775.288	0.0156194
775.366	0.0155139
775.444	0.0153587
775.522	0.0153818
775.600	0.0151592
775.678	0.0151094
775.756	0.0151073
775.834	0.0150211
775.913	0.0151582
775.991	0.0152895
776.069	0.0153750
776.147	0.0152901
776.225	0.0154730
776.303	0.0156789
776.381	0.0157234
776.459	0.0157472
776.538	0.0158311
776.616	0.0159449
776.694	0.0160104
776.772	0.0159280
776.850	0.0159390
776.928	0.0159272
777.006	0.0158734
777.084	0.0158116
777.163	0.0157468
777.241	0.0156696
777.319	0.0156102
777.397	0.0156936
777.475	0.0155125
777.553	0.0155556
777.631	0.0154011
777.709	0.0154281
777.788	0.0153608
777.866	0.0154605
777.944	0.0152981
778.022	0.0152677
778.100	0.0151502
778.178	0.0152703
778.256	0.0151425
778.334	0.0150764
778.413	0.0149588
778.491	0.0150304
778.569	0.0149831
778.647	0.0148693
778.725	0.0148983
778.803	0.0148985
778.881	0.0150328
778.959	0.0149554
779.038	0.0150932
779.116	0.0152122
779.194	0.0152946
779.272	0.0153188
779.350	0.0153360
779.428	0.0153778
779.506	0.0153804
779.584	0.0154343
779.663	0.0153886
779.741	0.0153529
779.819	0.0154028
779.897	0.0154590
779.975	0.0152399
780.053	0.0151475
780.131	0.0153375
780.209	0.0152579
780.288	0.0151321
780.366	0.0152311
780.444	0.0153524
780.522	0.0152439
780.600	0.0151613
780.678	0.0151711
780.756	0.0153073
780.834	0.0153725
780.913	0.0153050
780.991	0.0153907
781.069	0.0153424
781.147	0.0154287
781.225	0.0155082
781.303	0.0153742
781.381	0.0154308
781.459	0.0156299
781.538	0.0155284
781.616	0.0154864
781.694	0.0154800
781.772	0.0155225
781.850	0.0156133
781.928	0.0156696
782.006	0.0155474
782.084	0.0155678
782.163	0.0157353
782.241	0.0155734
782.319	0.0156380
782.397	0.0155637
782.475	0.0155182
782.553	0.0155612
782.631	0.0156193
782.709	0.0155829
782.788	0.0154509
782.866	0.0153217
782.944	0.0153876
783.022	0.0153230
783.100	0.0154669
783.178	0.0154978
783.256	0.0154706
783.334	0.0154923
783.413	0.0155309
783.491	0.0156173
783.569	0.0154790
783.647	0.0155963
783.725	0.0157010
783.803	0.0155752
783.881	0.0155940
783.959	0.0155257
784.038	0.0154873
784.116	0.0154069
784.194	0.0155964
784.272	0.0154757
784.350	0.0154730
784.428	0.0154497
784.506	0.0153947
784.584	0.0155592
784.663	0.0154688
784.741	0.0154407
784.819	0.0153370
784.897	0.0154076
784.975	0.0153785
785.053	0.0154725
785.131	0.0154123
785.209	0.0154336
785.288	0.0154547
785.366	0.0156111
785.444	0.0155122
785.522	0.0153471
785.600	0.0153760
785.678	0.0154671
785.756	0.0152937
785.834	0.0154095
785.913	0.0155064
785.991	0.0154805
786.069	0.0153893
786.147	0.0153656
786.225	0.0156493
786.303	0.0154710
786.381	0.0155037
786.459	0.0156480
786.538	0.0158098
786.616	0.0158893
786.694	0.0157221
786.772	0.0158633
786.850	0.0158047
786.928	0.0157054
787.006	0.0157268
787.084	0.0156145
787.163	0.0155817
787.241	0.0154211
787.319	0.0154264
787.397	0.0152793
787.475	0.0151452
787.553	0.0152129
787.631	0.0151038
787.709	0.0150417
787.788	0.0149962
787.866	0.0149845
787.944	0.0148543
788.022	0.0147790
788.100	0.0148232
788.178	0.0147274
788.256	0.0147050
788.334	0.0147239
788.413	0.0148255
788.491	0.0147316
788.569	0.0146337
788.647	0.0146539
788.725	0.0146922
788.803	0.0146574
788.881	0.0146234
788.959	0.0146567
789.038	0.0146751
789.116	0.0147002
789.194	0.0149400
789.272	0.0150249
789.350	0.0151620
789.428	0.0151716
789.506	0.0151672
789.584	0.0152425
789.663	0.0154147
789.741	0.0154218
789.819	0.0154826
789.897	0.0154245
789.975	0.0153935
790.053	0.0154901
790.131	0.0155281
790.209	0.0155827
790.288	0.0156072
790.366	0.0157613
790.444	0.0157416
790.522	0.0156583
790.600	0.0156841
790.678	0.0158528
790.756	0.0158643
790.834	0.0158365
790.913	0.0158765
790.991	0.0159518
791.069	0.0159615
791.147	0.0160307
791.225	0.0159551
791.303	0.0159824
791.381	0.0159040
791.459	0.0158599
791.538	0.0157394
791.616	0.0157794
791.694	0.0157115
791.772	0.0155565
791.850	0.0156667
791.928	0.0156909
792.006	0.0156589
792.084	0.0156800
792.163	0.0155985
792.241	0.0155328
792.319	0.0154450
792.397	0.0154278
792.475	0.0155236
792.553	0.0154073
792.631	0.0151297
792.709	0.0151846
792.788	0.0153481
792.866	0.0150977
792.944	0.0149763
793.022	0.0149710
793.100	0.0149765
793.178	0.0149406
793.256	0.0149517
793.334	0.0150167
793.413	0.0148930
793.491	0.0151151
793.569	0.0151649
793.647	0.0151400
793.725	0.0151008
793.803	0.0151166
793.881	0.0153970
793.959	0.0152515
794.038	0.0153846
794.116	0.0154134
794.194	0.0154446
794.272	0.0154669
794.350	0.0154767
794.428	0.0155132
794.506	0.0154134
794.584	0.0154430
794.663	0.0154379
794.741	0.0155483
794.819	0.0155760
794.897	0.0155455
794.975	0.0153523
795.053	0.0155418
795.131	0.0155177
795.209	0.0156459
795.288	0.0155301
795.366	0.0155889
795.444	0.0156697
795.522	0.0155649
795.600	0.0153932
795.678	0.0155823
795.756	0.0154914
795.834	0.0154939
795.913	0.0155830
795.991	0.0154156
796.069	0.0152100
796.147	0.0151440
796.225	0.0151246
796.303	0.0150218
796.381	0.0150770
796.459	0.0149311
796.538	0.0148905
796.616	0.0147914
796.694	0.0149450
796.772	0.0147311
796.850	0.0147742
796.928	0.0148163
797.006	0.0148490
797.084	0.0148306
797.163	0.0148612
797.241	0.0149664
797.319	0.0150254
797.397	0.0149677
797.475	0.0150487
797.553	0.0151549
797.631	0.0150990
797.709	0.0152243
797.788	0.0153464
797.866	0.0154292
797.944	0.0155380
798.022	0.0155522
798.100	0.0156792
798.178	0.0157425
798.256	0.0158247
798.334	0.0157083
798.413	0.0158465
798.491	0.0158801
798.569	0.0158111
798.647	0.0156815
798.725	0.0157375
798.803	0.0159134
798.881	0.0155996
798.959	0.0154517
799.038	0.0155930
799.116	0.0156190
799.194	0.0154597
799.272	0.0154559
799.350	0.0155478
799.428	0.0154181
799.506	0.0154208
799.584	0.0155054
799.663	0.0153632
799.741	0.0154674
799.819	0.0153721
799.897	0.0153673
799.975	0.0154333
800.053	0.0153309
800.131	0.0153353
800.209	0.0153429
800.288	0.0153502
800.366	0.0153716
800.444	0.0153855
800.522	0.0153528
800.600	0.0154669
800.678	0.0154005
800.756	0.0155559
800.834	0.0155563
800.913	0.0155984
800.991	0.0155815
801.069	0.0156643
801.147	0.0156038
801.225	0.0157571
801.303	0.0157691
801.381	0.0157471
801.459	0.0157413
801.538	0.0157557
801.616	0.0157628
801.694	0.0157086
801.772	0.0156213
801.850	0.0156713
801.928	0.0155555
802.006	0.0155524
802.084	0.0156459
802.163	0.0155094
802.241	0.0155729
802.319	0.0154963
802.397	0.0155769
802.475	0.0155768
802.553	0.0156348
802.631	0.0156866
802.709	0.0155507
802.788	0.0155406
802.866	0.0155447
802.944	0.0154297
803.022	0.0153149
803.100	0.0153626
803.178	0.0153492
803.256	0.0153184
803.334	0.0152531
803.413	0.0151099
803.491	0.0152478
803.569	0.0150939
803.647	0.0150430
803.725	0.0150893
803.803	0.0152670
803.881	0.0151122
803.959	0.0151336
804.038	0.0152263
804.116	0.0152213
804.194	0.0152218
804.272	0.0152366
804.350	0.0154032
804.428	0.0154772
804.506	0.0156126
804.584	0.0155607
804.663	0.0155938
804.741	0.0154955
804.819	0.0155470
804.897	0.0156833
804.975	0.0155553
805.053	0.0154820
805.131	0.0155077
805.209	0.0155855
805.288	0.0155583
805.366	0.0153958
805.444	0.0153765
805.522	0.0154983
805.600	0.0154469
805.678	0.0153011
805.756	0.0154072
805.834	0.0155633
805.913	0.0154012
805.991	0.0154652
806.069	0.0154175
806.147	0.0153374
806.225	0.0155968
806.303	0.0153427
806.381	0.0152294
806.459	0.0153243
806.538	0.0153570
806.616	0.0152622
806.694	0.0151807
806.772	0.0152467
806.850	0.0152972
806.928	0.0151406
807.006	0.0153634
807.084	0.0153894
807.163	0.0154120
807.241	0.0155657
807.319	0.0154153
807.397	0.0154892
807.475	0.0154226
807.553	0.0156622
807.631	0.0155632
807.709	0.0155531
807.788	0.0157986
807.866	0.0156878
807.944	0.0157278
808.022	0.0156952
808.100	0.0156618
808.178	0.0156965
808.256	0.0156091
808.334	0.0154033
808.413	0.0154546
808.491	0.0155016
808.569	0.0154076
808.647	0.0154465
808.725	0.0152998
808.803	0.0154458
808.881	0.0152836
808.959	0.0153128
809.038	0.0152631
809.116	0.0150566
809.194	0.0151421
809.272	0.0151338
809.350	0.0150858
809.428	0.0150848
809.506	0.0151273
809.584	0.0151768
809.663	0.0152036
809.741	0.0150893
809.819	0.0152048
809.897	0.0152541
809.975	0.0152634
810.053	0.0151781
810.131	0.0153393
810.209	0.0153935
810.288	0.0153604
810.366	0.0153499
810.444	0.0152739
810.522	0.0152347
810.600	0.0153536
810.678	0.0153470
810.756	0.0154369
810.834	0.0153667
810.913	0.0153533
810.991	0.0154427
811.069	0.0154907
811.147	0.0155199
811.225	0.0155491
811.303	0.0154604
811.381	0.0155296
811.459	0.0156478
811.538	0.0154798
811.616	0.0155341
811.694	0.0154932
811.772	0.0153661
811.850	0.0153907
811.928	0.0153484
812.006	0.0153226
812.084	0.0153213
812.163	0.0152914
812.241	0.0152301
812.319	0.0153249
812.397	0.0151240
812.475	0.0150336
812.553	0.0151727
812.631	0.0150689
812.709	0.0151619
812.788	0.0150729
812.866	0.0148844
812.944	0.0150130
813.022	0.0150829
813.100	0.0149427
813.178	0.0150735
813.256	0.0148762
813.334	0.0150239
813.413	0.0150269
813.491	0.0150804
813.569	0.0149045
813.647	0.0151001
813.725	0.0149945
813.803	0.0149886
813.881	0.0153133
813.959	0.0152016
814.038	0.0150814
814.116	0.0152928
814.194	0.0153735
814.272	0.0152966
814.350	0.0152474
814.428	0.0153703
814.506	0.0153105
814.584	0.0154139
814.663	0.0154939
814.741	0.0155462
814.819	0.0156721
814.897	0.0157187
814.975	0.0155280
815.053	0.0155812
815.131	0.0156170
815.209	0.0156880
815.288	0.0156184
815.366	0.0155814
815.444	0.0157330
815.522	0.0156174
815.600	0.0155589
815.678	0.0157238
815.756	0.0155647
815.834	0.0157310
815.913	0.0156338
815.991	0.0156095
816.069	0.0156482
816.147	0.0158334
816.225	0.0158695
816.303	0.0157996
816.381	0.0159534
816.459	0.0161179
816.538	0.0160057
816.616	0.0158309
816.694	0.0158298
816.772	0.0157274
816.850	0.0157705
816.928	0.0158064
817.006	0.0156506
817.084	0.0155885
817.163	0.0154766
817.241	0.0155242
817.319	0.0154243
817.397	0.0153243
817.475	0.0153159
817.553	0.0151785
817.631	0.0153451
817.709	0.0150882
817.788	0.0149848
817.866	0.0150634
817.944	0.0149918
818.022	0.0148605
818.100	0.0148856
818.178	0.0149205
818.256	0.0148629
818.334	0.0148422
818.413	0.0148848
818.491	0.0149016
818.569	0.0147935
818.647	0.0149527
818.725	0.0149626
818.803	0.0150336
818.881	0.0152956
818.959	0.0150422
819.038	0.0149201
819.116	0.0151136
819.194	0.0149965
819.272	0.0149258
819.350	0.0150977
819.428	0.0148872
819.506	0.0149714
819.584	0.0150609
819.663	0.0150485
819.741	0.0151100
819.819	0.0149703
819.897	0.0152129
819.975	0.0151997
820.053	0.0151896
820.131	0.0152711
820.209	0.0153951
820.288	0.0154893
820.366	0.0155496
820.444	0.0156869
820.522	0.0156254
820.600	0.0157001
820.678	0.0157366
820.756	0.0158707
820.834	0.0158420
820.913	0.0158651
820.991	0.0159505
821.069	0.0160141
821.147	0.0159122
821.225	0.0159674
821.303	0.0160429
821.381	0.0160827
821.459	0.0159212
821.538	0.0160079
821.616	0.0159787
821.694	0.0159929
821.772	0.0158506
821.850	0.0157093
821.928	0.0157218
822.006	0.0157672
822.084	0.0155681
822.163	0.0155857
822.241	0.0155630
822.319	0.0156257
822.397	0.0155526
822.475	0.0155070
822.553	0.0154908
822.631	0.0153545
822.709	0.0154346
822.788	0.0152951
822.866	0.0154227
822.944	0.0154192
823.022	0.0153466
823.100	0.0152841
823.178	0.0152731
823.256	0.0152805
823.334	0.0153391
823.413	0.0152982
823.491	0.0151888
823.569	0.0152357
823.647	0.0152621
823.725	0.0153568
823.803	0.0152203
823.881	0.0150947
823.959	0.0153066
824.038	0.0152746
824.116	0.0151711
824.194	0.0153235
824.272	0.0151924
824.350	0.0152107
824.428	0.0153077
824.506	0.0153630
824.584	0.0152316
824.663	0.0154130
824.741	0.0153996
824.819	0.0154124
824.897	0.0153582
824.975	0.0153844
825.053	0.0154926
825.131	0.0155076
825.209	0.0153902
825.288	0.0154848
825.366	0.0154010
825.444	0.0154871
825.522	0.0153576
825.600	0.0154190
825.678	0.0154032
825.756	0.0154016
825.834	0.0153252
825.913	0.0154046
825.991	0.0153310
826.069	0.0154273
826.147	0.0155466
826.225	0.0154182
826.303	0.0153365
826.381	0.0155901
826.459	0.0155334
826.538	0.0155196
826.616	0.0157431
826.694	0.0157198
826.772	0.0157147
826.850	0.0157651
826.928	0.0158993
827.006	0.0158972
827.084	0.0159718
827.163	0.0159531
827.241	0.0159903
827.319	0.0159258
827.397	0.0160354
827.475	0.0158910
827.553	0.0158043
827.631	0.0156955
827.709	0.0157633
827.788	0.0157698
827.866	0.0156558
827.944	0.0155016
828.022	0.0154066
828.100	0.0154832
828.178	0.0153558
828.256	0.0152477
828.334	0.0153530
828.413	0.0153415
828.491	0.0151984
828.569	0.0150708
828.647	0.0152204
828.725	0.0151257
828.803	0.0150575
828.881	0.0150600
828.959	0.0150840
829.038	0.0151212
829.116	0.0152835
829.194	0.0150642
829.272	0.0151524
829.350	0.0150626
829.428	0.0150681
829.506	0.0150190
829.584	0.0150985
829.663	0.0150828
829.741	0.0151030
829.819	0.0152007
829.897	0.0151452
829.975	0.0152087
830.053	0.0152888
830.131	0.0151646
830.209	0.0151793
830.288	0.0152618
830.366	0.0152026
830.444	0.0151776
830.522	0.0152866
830.600	0.0152196
830.678	0.0152609
830.756	0.0152101
830.834	0.0151544
830.913	0.0152583
830.991	0.0153231
831.069	0.0153681
831.147	0.0153831
831.225	0.0153287
831.303	0.0154484
831.381	0.0153247
831.459	0.0154910
831.538	0.0155303
831.616	0.0155042
831.694	0.0155713
831.772	0.0155391
831.850	0.0156731
831.928	0.0155723
832.006	0.0156334
832.084	0.0155547
832.163	0.0156340
832.241	0.0156314
832.319	0.0156428
832.397	0.0155685
832.475	0.0156710
832.553	0.0156535
832.631	0.0156107
832.709	0.0156443
832.788	0.0156061
832.866	0.0155563
832.944	0.0155669
833.022	0.0156521
833.100	0.0156561
833.178	0.0154786
833.256	0.0154538
833.334	0.0155526
833.413	0.0154720
833.491	0.0155035
833.569	0.0153336
833.647	0.0153085
833.725	0.0154720
833.803	0.0152979
833.881	0.0152770
833.959	0.0153002
834.038	0.0152961
834.116	0.0152435
834.194	0.0151451
834.272	0.0151759
834.350	0.0152254
834.428	0.0153466
834.506	0.0151959
834.584	0.0152102
834.663	0.0151717
834.741	0.0152187
834.819	0.0152509
834.897	0.0152065
834.975	0.0150974
835.053	0.0151700
835.131	0.0151057
835.209	0.0151012
835.288	0.0150580
835.366	0.0150881
835.444	0.0150262
835.522	0.0150491
835.600	0.0150761
835.678	0.0151270
835.756	0.0152546
835.834	0.0152456
835.913	0.0152527
835.991	0.0152197
836.069	0.0150465
836.147	0.0152605
836.225	0.0151038
836.303	0.0151726
836.381	0.0152053
836.459	0.0152193
836.538	0.0152251
836.616	0.0151026
836.694	0.0153437
836.772	0.0152434
836.850	0.0150981
836.928	0.0151637
837.006	0.0152092
837.084	0.0151698
837.163	0.0152083
837.241	0.0152355
837.319	0.0151978
837.397	0.0151050
837.475	0.0152695
837.553	0.0153696
837.631	0.0152397
837.709	0.0153439
837.788	0.0152527
837.866	0.0152717
837.944	0.0155060
838.022	0.0153635
838.100	0.0154196
838.178	0.0154298
838.256	0.0154721
838.334	0.0152318
838.413	0.0155332
838.491	0.0155611
838.569	0.0155433
838.647	0.0155981
838.725	0.0156837
838.803	0.0156640
838.881	0.0156670
838.959	0.0155407
839.038	0.0156685
839.116	0.0154373
839.194	0.0155075
839.272	0.0154951
839.350	0.0154955
839.428	0.0154894
839.506	0.0155550
839.584	0.0153178
839.663	0.0153025
839.741	0.0153495
839.819	0.0153081
839.897	0.0152531
839.975	0.0152795
840.053	0.0152699
840.131	0.0152316
840.209	0.0151875
840.288	0.0152982
840.366	0.0152125
840.444	0.0152197
840.522	0.0152397
840.600	0.0153151
840.678	0.0151578
840.756	0.0152723
840.834	0.0152352
840.913	0.0153023
840.991	0.0152561
841.069	0.0153085
841.147	0.0153476
841.225	0.0152586
841.303	0.0152785
841.381	0.0152554
841.459	0.0152721
841.538	0.0152337
841.616	0.0152634
841.694	0.0152697
841.772	0.0152046
841.850	0.0152363
841.928	0.0152273
842.006	0.0151956
842.084	0.0151519
842.163	0.0152281
842.241	0.0152926
842.319	0.0151892
842.397	0.0152976
842.475	0.0152357
842.553	0.0152671
842.631	0.0153329
842.709	0.0152388
842.788	0.0153215
842.866	0.0153820
842.944	0.0153533
843.022	0.0155090
843.100	0.0154143
843.178	0.0154690
843.256	0.0153671
843.334	0.0154529
843.413	0.0155923
843.491	0.0154670
843.569	0.0155627
843.647	0.0155868
843.725	0.0155534
843.803	0.0155945
843.881	0.0155891
843.959	0.0155827
844.038	0.0156097
844.116	0.0155703
844.194	0.0156803
844.272	0.0156853
844.350	0.0156833
844.428	0.0156892
844.506	0.0156329
844.584	0.0157129
844.663	0.0155974
844.741	0.0156758
844.819	0.0156282
844.897	0.0156603
844.975	0.0156692
845.053	0.0155838
845.131	0.0156998
845.209	0.0155772
845.288	0.0154961
845.366	0.0157327
845.444	0.0156561
845.522	0.0154876
845.600	0.0155786
845.678	0.0155232
845.756	0.0155037
845.834	0.0153704
845.913	0.0153996
845.991	0.0154655
846.069	0.0154615
846.147	0.0153729
846.225	0.0153127
846.303	0.0152848
846.381	0.0153998
846.459	0.0154130
846.538	0.0154164
846.616	0.0154237
846.694	0.0153148
846.772	0.0154228
846.850	0.0154234
846.928	0.0153816
847.006	0.0155906
847.084	0.0156237
847.163	0.0156465
847.241	0.0155757
847.319	0.0155565
847.397	0.0155465
847.475	0.0157039
847.553	0.0155588
847.631	0.0156721
847.709	0.0155753
847.788	0.0156181
847.866	0.0156020
847.944	0.0154414
848.022	0.0155689
848.100	0.0155932
848.178	0.0156829
848.256	0.0156190
848.334	0.0155846
848.413	0.0154786
848.491	0.0155085
848.569	0.0155531
848.647	0.0155600
848.725	0.0156390
848.803	0.0156551
848.881	0.0153889
848.959	0.0157120
849.038	0.0156306
849.116	0.0155808
849.194	0.0154106
849.272	0.0156474
849.350	0.0155346
849.428	0.0156551
849.506	0.0155427
849.584	0.0154896
849.663	0.0155862
849.741	0.0155485
849.819	0.0155695
849.897	0.0155632
849.975	0.0155894
850.053	0.0155170
850.131	0.0154966
850.209	0.0156755
850.288	0.0157063
850.366	0.0156523
850.444	0.0156076
850.522	0.0156344
850.600	0.0156950
850.678	0.0155929
850.756	0.0157018
850.834	0.0155564
850.913	0.0155560
850.991	0.0156493
851.069	0.0156089
851.147	0.0155742
851.225	0.0156894
851.303	0.0154459
851.381	0.0155004
851.459	0.0155478
851.538	0.0154869
851.616	0.0154765
851.694	0.0154694
851.772	0.0154302
851.850	0.0154031
851.928	0.0152270
852.006	0.0154197
852.084	0.0152512
852.163	0.0151183
852.241	0.0151511
852.319	0.0152087
852.397	0.0151760
852.475	0.0152005
852.553	0.0151705
852.631	0.0151086
852.709	0.0152828
852.788	0.0151431
852.866	0.0151037
852.944	0.0149136
853.022	0.0149477
853.100	0.0149879
853.178	0.0149993
853.256	0.0149318
853.334	0.0147803
853.413	0.0149968
853.491	0.0150742
853.569	0.0149735
853.647	0.0151188
853.725	0.0150304
853.803	0.0151577
853.881	0.0153083
853.959	0.0151656
854.038	0.0151934
854.116	0.0151933
854.194	0.0153347
854.272	0.0154414
854.350	0.0153886
854.428	0.0152213
854.506	0.0153512
854.584	0.0153610
854.663	0.0153697
854.741	0.0153242
854.819	0.0150899
854.897	0.0153036
854.975	0.0151823
855.053	0.0151520
855.131	0.0151762
855.209	0.0151003
855.288	0.0150587
855.366	0.0151524
855.444	0.0149722
855.522	0.0151091
855.600	0.0151068
855.678	0.0151165
855.756	0.0150746
855.834	0.0150254
855.913	0.0151569
855.991	0.0150925
856.069	0.0151308
856.147	0.0153194
856.225	0.0154651
856.303	0.0154667
856.381	0.0154114
856.459	0.0154773
856.538	0.0155388
856.616	0.0156562
856.694	0.0156185
856.772	0.0156508
856.850	0.0156703
856.928	0.0156825
857.006	0.0157571
857.084	0.0156420
857.163	0.0155774
857.241	0.0155944
857.319	0.0155839
857.397	0.0156537
857.475	0.0154314
857.553	0.0155038
857.631	0.0154172
857.709	0.0154806
857.788	0.0153368
857.866	0.0154182
857.944	0.0152644
858.022	0.0152052
858.100	0.0153355
858.178	0.0154024
858.256	0.0152464
858.334	0.0152538
858.413	0.0151762
858.491	0.0151948
858.569	0.0152013
858.647	0.0152045
858.725	0.0154025
858.803	0.0153944
858.881	0.0150866
858.959	0.0151975
859.038	0.0154316
859.116	0.0152846
859.194	0.0150282
859.272	0.0152195
859.350	0.0152724
859.428	0.0153268
859.506	0.0152659
859.584	0.0153735
859.663	0.0152406
859.741	0.0153227
859.819	0.0153245
859.897	0.0154053
859.975	0.0152384
860.053	0.0151794
860.131	0.0153781
860.209	0.0154322
860.288	0.0153101
860.366	0.0152119
860.444	0.0153692
860.522	0.0153938
860.600	0.0152627
860.678	0.0153179
860.756	0.0152604
860.834	0.0153145
860.913	0.0152824
860.991	0.0153117
861.069	0.0152494
861.147	0.0152834
861.225	0.0152966
861.303	0.0151140
861.381	0.0151407
861.459	0.0153266
861.538	0.0152041
861.616	0.0150843
861.694	0.0151833
861.772	0.0152568
861.850	0.0153166
861.928	0.0151884
862.006	0.0152853
862.084	0.0153510
862.163	0.0152763
862.241	0.0153622
862.319	0.0154238
862.397	0.0154529
862.475	0.0154272
862.553	0.0154115
862.631	0.0154950
862.709	0.0154536
862.788	0.0155241
862.866	0.0154988
862.944	0.0154888
863.022	0.0153910
863.100	0.0154929
863.178	0.0153291
863.256	0.0154024
863.334	0.0153491
863.413	0.0154835
863.491	0.0154876
863.569	0.0152682
863.647	0.0152657
863.725	0.0152871
863.803	0.0153622
863.881	0.0152820
863.959	0.0151466
864.038	0.0151122
864.116	0.0150857
864.194	0.0150715
864.272	0.0151619
864.350	0.0151679
864.428	0.0151379
864.506	0.0150961
864.584	0.0152599
864.663	0.0152262
864.741	0.0153006
864.819	0.0153130
864.897	0.0154323
864.975	0.0154292
865.053	0.0154695
865.131	0.0153246
865.209	0.0154235
865.288	0.0155709
865.366	0.0155907
865.444	0.0156113
865.522	0.0154713
865.600	0.0155518
865.678	0.0154377
865.756	0.0153947
865.834	0.0156035
865.913	0.0153550
865.991	0.0153592
866.069	0.0154388
866.147	0.0154258
866.225	0.0153768
866.303	0.0152851
866.381	0.0153727
866.459	0.0152959
866.538	0.0153223
866.616	0.0153761
866.694	0.0152878
866.772	0.0152495
866.850	0.0155241
866.928	0.0152580
867.006	0.0152856
867.084	0.0153623
867.163	0.0153414
867.241	0.0153165
867.319	0.0152728
867.397	0.0152431
867.475	0.0153677
867.553	0.0153794
867.631	0.0152768
867.709	0.0151780
867.788	0.0152603
867.866	0.0152747
867.944	0.0152440
868.022	0.0152186
868.100	0.0152204
868.178	0.0153593
868.256	0.0152570
868.334	0.0151538
868.413	0.0153406
868.491	0.0152876
868.569	0.0153039
868.647	0.0152146
868.725	0.0152937
868.803	0.0151864
868.881	0.0153255
868.959	0.0153813
869.038	0.0152541
869.116	0.0155631
869.194	0.0154542
869.272	0.0153716
869.350	0.0154424
869.428	0.0154937
869.506	0.0155334
869.584	0.0156397
869.663	0.0155695
869.741	0.0155746
869.819	0.0155623
869.897	0.0156388
869.975	0.0157207
870.053	0.0156214
870.131	0.0155354
870.209	0.0156884
870.288	0.0156438
870.366	0.0155250
870.444	0.0155291
870.522	0.0154322
870.600	0.0155057
870.678	0.0155001
870.756	0.0154253
870.834	0.0153993
870.913	0.0153118
870.991	0.0153912
871.069	0.0153452
871.147	0.0153360
871.225	0.0152579
871.303	0.0153701
871.381	0.0153034
871.459	0.0154149
871.538	0.0153819
871.616	0.0152747
871.694	0.0152564
871.772	0.0155040
871.850	0.0154556
871.928	0.0153770
872.006	0.0154168
872.084	0.0154199
872.163	0.0155826
872.241	0.0154974
872.319	0.0155580
872.397	0.0155288
872.475	0.0155045
872.553	0.0155591
872.631	0.0154929
872.709	0.0155599
872.788	0.0153945
872.866	0.0154477
872.944	0.0154078
873.022	0.0154803
873.100	0.0154009
873.178	0.0153837
873.256	0.0156532
873.334	0.0153839
873.413	0.0152734
873.491	0.0154069
873.569	0.0155442
873.647	0.0154601
873.725	0.0154346
873.803	0.0153828
873.881	0.0153492
873.959	0.0155037
874.038	0.0155428
874.116	0.0155104
874.194	0.0155537
874.272	0.0156477
874.350	0.0154346
874.428	0.0156019
874.506	0.0154758
874.584	0.0155329
874.663	0.0155228
874.741	0.0154508
874.819	0.0154658
874.897	0.0154822
874.975	0.0155163
875.053	0.0152850
875.131	0.0153394
875.209	0.0152850
875.288	0.0151740
875.366	0.0151973
875.444	0.0153624
875.522	0.0153639
875.600	0.0153604
875.678	0.0153142
875.756	0.0154295
875.834	0.0152760
875.913	0.0154703
875.991	0.0153334
876.069	0.0153352
876.147	0.0153669
876.225	0.0153350
876.303	0.0152641
876.381	0.0153765
876.459	0.0152805
876.538	0.0153529
876.616	0.0151951
876.694	0.0153328
876.772	0.0152650
876.850	0.0152528
876.928	0.0152035
877.006	0.0151216
877.084	0.0152577
877.163	0.0152821
877.241	0.0151494
877.319	0.0153231
877.397	0.0152054
877.475	0.0151692
877.553	0.0152982
877.631	0.0152175
877.709	0.0151206
877.788	0.0152586
877.866	0.0154172
877.944	0.0153247
878.022	0.0153079
878.100	0.0152927
878.178	0.0154058
878.256	0.0154330
878.334	0.0154633
878.413	0.0153382
878.491	0.0155457
878.569	0.0154015
878.647	0.0154192
878.725	0.0154456
878.803	0.0153846
878.881	0.0153089
878.959	0.0153490
879.038	0.0153909
879.116	0.0153339
879.194	0.0153654
879.272	0.0153735
879.350	0.0153137
879.428	0.0153468
879.506	0.0151055
879.584	0.0151201
879.663	0.0153399
879.741	0.0152379
879.819	0.0152550
879.897	0.0152880
879.975	0.0153357
880.053	0.0154823
880.131	0.0153423
880.209	0.0156065
880.288	0.0156971
880.366	0.0157224
880.444	0.0156709
880.522	0.0155618
880.600	0.0157391
880.678	0.0157848
880.756	0.0155820
880.834	0.0158108
880.913	0.0157050
880.991	0.0157420
881.069	0.0157914
881.147	0.0157323
881.225	0.0156855
881.303	0.0156387
881.381	0.0156528
881.459	0.0155219
881.538	0.0155549
881.616	0.0155282
881.694	0.0155804
881.772	0.0154755
881.850	0.0153538
881.928	0.0153179
882.006	0.0153908
882.084	0.0153632
882.163	0.0153352
882.241	0.0151443
882.319	0.0151864
882.397	0.0150986
882.475	0.0150854
882.553	0.0151805
882.631	0.0150344
882.709	0.0151201
882.788	0.0150955
882.866	0.0152748
882.944	0.0152137
883.022	0.0151991
883.100	0.0152853
883.178	0.0152361
883.256	0.0152473
883.334	0.0152405
883.413	0.0152939
883.491	0.0153099
883.569	0.0153181
883.647	0.0152201
883.725	0.0152856
883.803	0.0154785
883.881	0.0152826
883.959	0.0153065
884.038	0.0154224
884.116	0.0154068
884.194	0.0152776
884.272	0.0152843
884.350	0.0152719
884.428	0.0153348
884.506	0.0152982
884.584	0.0153057
884.663	0.0152424
884.741	0.0154205
884.819	0.0153333
884.897	0.0153822
884.975	0.0154213
885.053	0.0153086
885.131	0.0152144
885.209	0.0153575
885.288	0.0153228
885.366	0.0153121
885.444	0.0154752
885.522	0.0154047
885.600	0.0153363
885.678	0.0152708
885.756	0.0154387
885.834	0.0153680
885.913	0.0155068
885.991	0.0154501
886.069	0.0155267
886.147	0.0155318
886.225	0.0153782
886.303	0.0154312
886.381	0.0154334
886.459	0.0153844
886.538	0.0154220
886.616	0.0154247
886.694	0.0154050
886.772	0.0153831
886.850	0.0153362
886.928	0.0153270
887.006	0.0153800
887.084	0.0153323
887.163	0.0152521
887.241	0.0153315
887.319	0.0153429
887.397	0.0152903
887.475	0.0153463
887.553	0.0153182
887.631	0.0154049
887.709	0.0152819
887.788	0.0153890
887.866	0.0153193
887.944	0.0152375
888.022	0.0152828
888.100	0.0153721
888.178	0.0152756
888.256	0.0153049
888.334	0.0152898
888.413	0.0155414
888.491	0.0152308
888.569	0.0154058
888.647	0.0153769
888.725	0.0153606
888.803	0.0153784
888.881	0.0154605
888.959	0.0153245
889.038	0.0153052
889.116	0.0152871
889.194	0.0152263
889.272	0.0152614
889.350	0.0151707
889.428	0.0152941
889.506	0.0151322
889.584	0.0153522
889.663	0.0151891
889.741	0.0152600
889.819	0.0151795
889.897	0.0152467
889.975	0.0151875
890.053	0.0151980
890.131	0.0153078
890.209	0.0153684
890.288	0.0152704
890.366	0.0152784
890.444	0.0153598
890.522	0.0152808
890.600	0.0153369
890.678	0.0154269
890.756	0.0154579
890.834	0.0154542
890.913	0.0153959
890.991	0.0153307
891.069	0.0154790
891.147	0.0155453
891.225	0.0153909
891.303	0.0153206
891.381	0.0153717
891.459	0.0152420
891.538	0.0153402
891.616	0.0152146
891.694	0.0151704
891.772	0.0151536
891.850	0.0151041
891.928	0.0150356
892.006	0.0150260
892.084	0.0151186
892.163	0.0150594
892.241	0.0149708
892.319	0.0150071
892.397	0.0150056
892.475	0.0151388
892.553	0.0150986
892.631	0.0151359
892.709	0.0152339
892.788	0.0153165
892.866	0.0153645
892.944	0.0154446
893.022	0.0154363
893.100	0.0154123
893.178	0.0154701
893.256	0.0156544
893.334	0.0155091
893.413	0.0155394
893.491	0.0155239
893.569	0.0155483
893.647	0.0155938
893.725	0.0153899
893.803	0.0155354
893.881	0.0154899
893.959	0.0155517
894.038	0.0154004
894.116	0.0153612
894.194	0.0153519
894.272	0.0153693
894.350	0.0154430
894.428	0.0153461
894.506	0.0153288
894.584	0.0152740
894.663	0.0153703
894.741	0.0154881
894.819	0.0153470
894.897	0.0152985
894.975	0.0153270
895.053	0.0152937
895.131	0.0153080
895.209	0.0151897
895.288	0.0152661
895.366	0.0152892
895.444	0.0152518
895.522	0.0152554
895.600	0.0152835
895.678	0.0151254
895.756	0.0152594
895.834	0.0153352
895.913	0.0153555
895.991	0.0153465
896.069	0.0155019
896.147	0.0155118
896.225	0.0156680
896.303	0.0156017
896.381	0.0156345
896.459	0.0156910
896.538	0.0156821
896.616	0.0156416
896.694	0.0157095
896.772	0.0156639
896.850	0.0155865
896.928	0.0155386
897.006	0.0154462
897.084	0.0155202
897.163	0.0155639
897.241	0.0153541
897.319	0.0153840
897.397	0.0153518
897.475	0.0154010
897.553	0.0152845
897.631	0.0154257
897.709	0.0152253
897.788	0.0152923
897.866	0.0154695
897.944	0.0154614
898.022	0.0155180
898.100	0.0152765
898.178	0.0153979
898.256	0.0153455
898.334	0.0152736
898.413	0.0154730
898.491	0.0152763
898.569	0.0153246
898.647	0.0153450
898.725	0.0155008
898.803	0.0153472
898.881	0.0155561
898.959	0.0156833
899.038	0.0155068
899.116	0.0155224
899.194	0.0155948
899.272	0.0156158
899.350	0.0156598
899.428	0.0156276
899.506	0.0155253
899.584	0.0157164
899.663	0.0155596
899.741	0.0155234
899.819	0.0156258
899.897	0.0154881
899.975	0.0153719
900.053	0.0154056
900.131	0.0154217
900.209	0.0153690
900.288	0.0151592
900.366	0.0150387
900.444	0.0152693
900.522	0.0150629
900.600	0.0150594
900.678	0.0148823
900.756	0.0148288
900.834	0.0149530
900.913	0.0147691
900.991	0.0149440
901.069	0.0149686
901.147	0.0148341
901.225	0.0150750
901.303	0.0151824
901.381	0.0151649
901.459	0.0153260
901.538	0.0152454
901.616	0.0155073
901.694	0.0155148
901.772	0.0156220
901.850	0.0157059
901.928	0.0155616
902.006	0.0157180
902.084	0.0156071
902.163	0.0157777
902.241	0.0158521
902.319	0.0157708
902.397	0.0157758
902.475	0.0158553
902.553	0.0157454
902.631	0.0157265
902.709	0.0157088
902.788	0.0156034
902.866	0.0156210
902.944	0.0157116
903.022	0.0155724
903.100	0.0154752
903.178	0.0155106
903.256	0.0153658
903.334	0.0155071
903.413	0.0153648
903.491	0.0154163
903.569	0.0153584
903.647	0.0152074
903.725	0.0153917
903.803	0.0154661
903.881	0.0153112
903.959	0.0152133
904.038	0.0152912
904.116	0.0152819
904.194	0.0153581
904.272	0.0153538
904.350	0.0152370
904.428	0.0151665
904.506	0.0151961
904.584	0.0153296
904.663	0.0154242
904.741	0.0153694
904.819	0.0153909
904.897	0.0154400
904.975	0.0154665
905.053	0.0154935
905.131	0.0156386
905.209	0.0156448
905.288	0.0156512
905.366	0.0156638
905.444	0.0158091
905.522	0.0155102
905.600	0.0157201
905.678	0.0158260
905.756	0.0158080
905.834	0.0157195
905.913	0.0157294
905.991	0.0156435
906.069	0.0156431
906.147	0.0153807
906.225	0.0154912
906.303	0.0154484
906.381	0.0153536
906.459	0.0153571
906.538	0.0153510
906.616	0.0153306
906.694	0.0153317
906.772	0.0152833
906.850	0.0151975
906.928	0.0152200
907.006	0.0152536
907.084	0.0152404
907.163	0.0152102
907.241	0.0154873
907.319	0.0154362
907.397	0.0153088
907.475	0.0153839
907.553	0.0155206
907.631	0.0154415
907.709	0.0153641
907.788	0.0154353
907.866	0.0155130
907.944	0.0153751
908.022	0.0155056
908.100	0.0155035
908.178	0.0153454
908.256	0.0154868
908.334	0.0154972
908.413	0.0153826
908.491	0.0153878
908.569	0.0154938
908.647	0.0154118
908.725	0.0155528
908.803	0.0153709
908.881	0.0154356
908.959	0.0153914
909.038	0.0153805
909.116	0.0154565
909.194	0.0155228
909.272	0.0155028
909.350	0.0154519
909.428	0.0153983
909.506	0.0155721
909.584	0.0156005
909.663	0.0155444
909.741	0.0154287
909.819	0.0155254
909.897	0.0155309
909.975	0.0155318
910.053	0.0155619
910.131	0.0154783
910.209	0.0153866
910.288	0.0152948
910.366	0.0152805
910.444	0.0153633
910.522	0.0152849
910.600	0.0150525
910.678	0.0151297
910.756	0.0152438
910.834	0.0151559
910.913	0.0150081
910.991	0.0150303
911.069	0.0150357
911.147	0.0150384
911.225	0.0151675
911.303	0.0152794
911.381	0.0152605
911.459	0.0152447
911.538	0.0153770
911.616	0.0155269
911.694	0.0154463
911.772	0.0156728
911.850	0.0155577
911.928	0.0156703
912.006	0.0157682
912.084	0.0157418
912.163	0.0158342
912.241	0.0157132
912.319	0.0156715
912.397	0.0156231
912.475	0.0155845
912.553	0.0155566
912.631	0.0153570
912.709	0.0153807
912.788	0.0153615
912.866	0.0153473
912.944	0.0153698
913.022	0.0153160
913.100	0.0151122
913.178	0.0152676
913.256	0.0152872
913.334	0.0152734
913.413	0.0152496
913.491	0.0152449
913.569	0.0152842
913.647	0.0153371
913.725	0.0152836
913.803	0.0152446
913.881	0.0151913
913.959	0.0152505
914.038	0.0150681
914.116	0.0151779
914.194	0.0150280
914.272	0.0151325
914.350	0.0152648
914.428	0.0150947
914.506	0.0153292
914.584	0.0152187
914.663	0.0151864
914.741	0.0150942
914.819	0.0152034
914.897	0.0154037
914.975	0.0152809
915.053	0.0153635
915.131	0.0153198
915.209	0.0153115
915.288	0.0153158
915.366	0.0153273
915.444	0.0153581
915.522	0.0154927
915.600	0.0153455
915.678	0.0154006
915.756	0.0153900
915.834	0.0152992
915.913	0.0153426
915.991	0.0153685
916.069	0.0152126
916.147	0.0153365
916.225	0.0153248
916.303	0.0152369
916.381	0.0151151
916.459	0.0152016
916.538	0.0150262
916.616	0.0151506
916.694	0.0150333
916.772	0.0150677
916.850	0.0152367
916.928	0.0149605
917.006	0.0149756
917.084	0.0149742
917.163	0.0149285
917.241	0.0149134
917.319	0.0150632
917.397	0.0151803
917.475	0.0151089
917.553	0.0150658
917.631	0.0151050
917.709	0.0152406
917.788	0.0152674
917.866	0.0153797
917.944	0.0153560
918.022	0.0152487
918.100	0.0154417
918.178	0.0154520
918.256	0.0154346
918.334	0.0154723
918.413	0.0153506
918.491	0.0153849
918.569	0.0153674
918.647	0.0154544
918.725	0.0154117
918.803	0.0154101
918.881	0.0154312
918.959	0.0154696
919.038	0.0155757
919.116	0.0153465
919.194	0.0155502
919.272	0.0154543
919.350	0.0154353
919.428	0.0154800
919.506	0.0153197
919.584	0.0153054
919.663	0.0153299
919.741	0.0153188
919.819	0.0153053
919.897	0.0152924
