05/20/2022	21:06:18	Ver.	4.1	UNKNOWN
Optical Delay	599.975067	Delta X		0.078125	Sweeps	1	Scan Rate	0/0
Coordinates	Axis 1	NaN	Axis 2	NaN	Axis 3	NaN	Axis 4	NaN	Axis 5	NaN	Axis 6	0.000000
TX Power	0.000000	RX Power	0.000000

599.975	0.0155597
600.053	0.0155100
600.131	0.0156122
600.209	0.0155273
600.288	0.0156062
600.366	0.0154833
600.444	0.0155777
600.522	0.0155647
600.600	0.0155772
600.678	0.0155708
600.756	0.0156058
600.834	0.0155000
600.913	0.0155251
600.991	0.0157571
601.069	0.0156194
601.147	0.0156835
601.225	0.0155214
601.303	0.0154965
601.381	0.0155913
601.459	0.0157642
601.538	0.0154530
601.616	0.0155290
601.694	0.0156303
601.772	0.0156806
601.850	0.0156451
601.928	0.0155475
602.006	0.0156218
602.084	0.0155145
602.163	0.0156596
602.241	0.0157239
602.319	0.0156314
602.397	0.0155717
602.475	0.0156274
602.553	0.0156752
602.631	0.0157853
602.709	0.0155630
602.788	0.0156871
602.866	0.0156820
602.944	0.0157310
603.022	0.0157828
603.100	0.0157010
603.178	0.0155669
603.256	0.0156807
603.334	0.0156328
603.413	0.0157013
603.491	0.0155901
603.569	0.0156768
603.647	0.0157050
603.725	0.0157494
603.803	0.0156741
603.881	0.0156058
603.959	0.0156151
604.038	0.0157598
604.116	0.0157628
604.194	0.0158032
604.272	0.0156965
604.350	0.0156747
604.428	0.0157519
604.506	0.0156526
604.584	0.0156084
604.663	0.0157394
604.741	0.0155801
604.819	0.0156356
604.897	0.0157153
604.975	0.0157587
605.053	0.0155920
605.131	0.0156750
605.209	0.0157180
605.288	0.0157202
605.366	0.0156509
605.444	0.0156361
605.522	0.0156212
605.600	0.0156791
605.678	0.0156667
605.756	0.0156145
605.834	0.0155978
605.913	0.0156992
605.991	0.0156160
606.069	0.0155052
606.147	0.0155166
606.225	0.0157410
606.303	0.0156306
606.381	0.0156844
606.459	0.0156584
606.538	0.0154239
606.616	0.0155199
606.694	0.0155827
606.772	0.0156104
606.850	0.0156946
606.928	0.0156430
607.006	0.0155680
607.084	0.0155289
607.163	0.0156779
607.241	0.0155473
607.319	0.0156890
607.397	0.0156568
607.475	0.0154622
607.553	0.0155273
607.631	0.0155073
607.709	0.0155786
607.788	0.0155550
607.866	0.0155958
607.944	0.0156316
608.022	0.0154623
608.100	0.0154831
608.178	0.0155859
608.256	0.0155779
608.334	0.0155860
608.413	0.0156494
608.491	0.0154827
608.569	0.0154391
608.647	0.0153891
608.725	0.0157561
608.803	0.0154575
608.881	0.0155462
608.959	0.0155254
609.038	0.0154157
609.116	0.0154498
609.194	0.0156195
609.272	0.0153768
609.350	0.0154234
609.428	0.0155937
609.506	0.0155296
609.584	0.0155508
609.663	0.0155813
609.741	0.0154907
609.819	0.0155580
609.897	0.0155672
609.975	0.0155109
610.053	0.0156464
610.131	0.0155936
610.209	0.0156363
610.288	0.0155944
610.366	0.0155105
610.444	0.0154876
610.522	0.0155904
610.600	0.0156073
610.678	0.0157409
610.756	0.0156779
610.834	0.0155655
610.913	0.0155419
610.991	0.0156087
611.069	0.0157310
611.147	0.0157080
611.225	0.0156365
611.303	0.0157192
611.381	0.0157020
611.459	0.0157269
611.538	0.0157027
611.616	0.0157093
611.694	0.0157010
611.772	0.0155546
611.850	0.0155994
611.928	0.0154901
612.006	0.0157086
612.084	0.0156415
612.163	0.0157053
612.241	0.0156693
612.319	0.0155020
612.397	0.0156085
612.475	0.0156142
612.553	0.0155305
612.631	0.0154498
612.709	0.0155761
612.788	0.0156418
612.866	0.0154272
612.944	0.0156169
613.022	0.0155173
613.100	0.0155979
613.178	0.0155158
613.256	0.0154604
613.334	0.0155711
613.413	0.0156648
613.491	0.0155137
613.569	0.0154395
613.647	0.0155414
613.725	0.0155921
613.803	0.0155550
613.881	0.0154092
613.959	0.0155075
614.038	0.0155427
614.116	0.0155247
614.194	0.0154623
614.272	0.0154473
614.350	0.0157417
614.428	0.0155549
614.506	0.0155950
614.584	0.0155473
614.663	0.0156624
614.741	0.0156246
614.819	0.0156490
614.897	0.0155157
614.975	0.0155886
615.053	0.0155972
615.131	0.0155370
615.209	0.0155894
615.288	0.0156237
615.366	0.0155932
615.444	0.0154955
615.522	0.0155383
615.600	0.0156182
615.678	0.0156721
615.756	0.0155793
615.834	0.0156152
615.913	0.0156551
615.991	0.0155378
616.069	0.0156212
616.147	0.0155733
616.225	0.0157989
616.303	0.0155997
616.381	0.0155075
616.459	0.0156026
616.538	0.0155200
616.616	0.0156915
616.694	0.0156093
616.772	0.0156297
616.850	0.0156088
616.928	0.0156157
617.006	0.0155834
617.084	0.0156483
617.163	0.0155251
617.241	0.0155262
617.319	0.0157061
617.397	0.0156036
617.475	0.0155887
617.553	0.0155984
617.631	0.0154991
617.709	0.0157087
617.788	0.0156361
617.866	0.0156252
617.944	0.0156022
618.022	0.0156138
618.100	0.0156722
618.178	0.0156524
618.256	0.0156366
618.334	0.0155794
618.413	0.0155020
618.491	0.0156481
618.569	0.0156962
618.647	0.0154898
618.725	0.0155179
618.803	0.0156024
618.881	0.0156339
618.959	0.0157159
619.038	0.0157781
619.116	0.0156049
619.194	0.0156376
619.272	0.0157084
619.350	0.0154665
619.428	0.0155589
619.506	0.0157074
619.584	0.0155701
619.663	0.0155278
619.741	0.0156782
619.819	0.0157581
619.897	0.0155976
619.975	0.0156421
620.053	0.0156403
620.131	0.0156623
620.209	0.0154704
620.288	0.0155063
620.366	0.0155070
620.444	0.0156663
620.522	0.0156780
620.600	0.0155058
620.678	0.0155113
620.756	0.0155753
620.834	0.0155930
620.913	0.0155587
620.991	0.0155849
621.069	0.0154894
621.147	0.0156252
621.225	0.0156185
621.303	0.0156564
621.381	0.0155154
621.459	0.0154518
621.538	0.0156431
621.616	0.0156392
621.694	0.0155151
621.772	0.0154231
621.850	0.0155659
621.928	0.0157088
622.006	0.0155647
622.084	0.0155726
622.163	0.0156203
622.241	0.0155524
622.319	0.0156790
622.397	0.0156293
622.475	0.0154681
622.553	0.0154869
622.631	0.0155658
622.709	0.0156775
622.788	0.0156116
622.866	0.0154630
622.944	0.0154980
623.022	0.0155997
623.100	0.0156117
623.178	0.0156802
623.256	0.0155939
623.334	0.0155358
623.413	0.0155093
623.491	0.0156171
623.569	0.0156165
623.647	0.0155941
623.725	0.0156558
623.803	0.0155983
623.881	0.0155624
623.959	0.0154778
624.038	0.0155169
624.116	0.0157259
624.194	0.0155692
624.272	0.0156182
624.350	0.0155733
624.428	0.0156345
624.506	0.0154890
624.584	0.0155482
624.663	0.0156744
624.741	0.0154585
624.819	0.0156135
624.897	0.0156110
624.975	0.0154944
625.053	0.0155647
625.131	0.0155019
625.209	0.0155529
625.288	0.0154827
625.366	0.0155742
625.444	0.0155821
625.522	0.0155951
625.600	0.0155055
625.678	0.0155859
625.756	0.0155259
625.834	0.0156680
625.913	0.0155010
625.991	0.0154771
626.069	0.0155742
626.147	0.0156648
626.225	0.0154626
626.303	0.0157539
626.381	0.0155428
626.459	0.0155579
626.538	0.0155162
626.616	0.0155626
626.694	0.0155456
626.772	0.0155318
626.850	0.0156875
626.928	0.0155746
627.006	0.0155421
627.084	0.0155238
627.163	0.0155891
627.241	0.0157132
627.319	0.0155127
627.397	0.0155975
627.475	0.0154954
627.553	0.0155035
627.631	0.0156299
627.709	0.0154823
627.788	0.0155355
627.866	0.0156438
627.944	0.0156519
628.022	0.0154869
628.100	0.0154643
628.178	0.0155840
628.256	0.0155751
628.334	0.0155292
628.413	0.0156551
628.491	0.0155555
628.569	0.0155229
628.647	0.0154604
628.725	0.0155387
628.803	0.0156794
628.881	0.0157651
628.959	0.0155295
629.038	0.0156525
629.116	0.0155364
629.194	0.0155862
629.272	0.0156750
629.350	0.0155466
629.428	0.0156416
629.506	0.0156762
629.584	0.0155600
629.663	0.0156193
629.741	0.0156541
629.819	0.0156593
629.897	0.0156933
629.975	0.0156667
630.053	0.0155245
630.131	0.0156120
630.209	0.0156106
630.288	0.0155876
630.366	0.0155750
630.444	0.0155118
630.522	0.0155396
630.600	0.0155977
630.678	0.0155450
630.756	0.0155898
630.834	0.0155499
630.913	0.0155276
630.991	0.0155794
631.069	0.0157424
631.147	0.0155268
631.225	0.0155102
631.303	0.0154756
631.381	0.0155353
631.459	0.0156264
631.538	0.0154935
631.616	0.0153432
631.694	0.0154712
631.772	0.0154913
631.850	0.0155403
631.928	0.0155339
632.006	0.0155074
632.084	0.0156095
632.163	0.0156149
632.241	0.0156412
632.319	0.0156094
632.397	0.0154313
632.475	0.0155326
632.553	0.0154581
632.631	0.0155267
632.709	0.0155658
632.788	0.0154547
632.866	0.0154236
632.944	0.0155807
633.022	0.0156294
633.100	0.0155116
633.178	0.0155294
633.256	0.0156630
633.334	0.0157015
633.413	0.0155580
633.491	0.0155280
633.569	0.0155630
633.647	0.0154978
633.725	0.0157152
633.803	0.0156949
633.881	0.0156390
633.959	0.0154985
634.038	0.0156954
634.116	0.0156106
634.194	0.0156139
634.272	0.0155556
634.350	0.0154938
634.428	0.0155466
634.506	0.0156028
634.584	0.0155258
634.663	0.0155968
634.741	0.0156017
634.819	0.0155392
634.897	0.0155132
634.975	0.0155638
635.053	0.0155250
635.131	0.0155611
635.209	0.0156206
635.288	0.0156009
635.366	0.0153697
635.444	0.0156184
635.522	0.0155950
635.600	0.0154213
635.678	0.0156021
635.756	0.0156590
635.834	0.0156162
635.913	0.0155373
635.991	0.0155345
636.069	0.0155908
636.147	0.0156187
636.225	0.0156287
636.303	0.0157406
636.381	0.0156051
636.459	0.0156138
636.538	0.0157285
636.616	0.0155840
636.694	0.0156170
636.772	0.0155856
636.850	0.0155497
636.928	0.0155191
637.006	0.0157920
637.084	0.0156849
637.163	0.0155173
637.241	0.0157124
637.319	0.0156310
637.397	0.0155983
637.475	0.0158620
637.553	0.0156319
637.631	0.0156295
637.709	0.0156866
637.788	0.0157195
637.866	0.0157176
637.944	0.0157991
638.022	0.0157132
638.100	0.0156463
638.178	0.0157220
638.256	0.0156760
638.334	0.0157534
638.413	0.0157496
638.491	0.0155793
638.569	0.0156694
638.647	0.0157475
638.725	0.0156587
638.803	0.0157533
638.881	0.0156698
638.959	0.0155226
639.038	0.0156374
639.116	0.0155849
639.194	0.0156395
639.272	0.0156926
639.350	0.0157207
639.428	0.0157127
639.506	0.0156439
639.584	0.0155481
639.663	0.0156643
639.741	0.0157306
639.819	0.0157162
639.897	0.0156772
639.975	0.0156981
640.053	0.0156921
640.131	0.0157557
640.209	0.0157483
640.288	0.0156089
640.366	0.0156722
640.444	0.0157151
640.522	0.0156169
640.600	0.0156357
640.678	0.0157703
640.756	0.0157191
640.834	0.0156692
640.913	0.0158639
640.991	0.0156670
641.069	0.0155753
641.147	0.0157220
641.225	0.0155674
641.303	0.0156725
641.381	0.0157717
641.459	0.0155813
641.538	0.0156079
641.616	0.0155830
641.694	0.0155777
641.772	0.0155269
641.850	0.0155695
641.928	0.0155496
642.006	0.0155118
642.084	0.0154915
642.163	0.0155992
642.241	0.0154692
642.319	0.0155326
642.397	0.0155455
642.475	0.0155611
642.553	0.0157346
642.631	0.0155923
642.709	0.0156829
642.788	0.0157122
642.866	0.0156389
642.944	0.0156608
643.022	0.0159467
643.100	0.0156895
643.178	0.0157899
643.256	0.0156917
643.334	0.0156057
643.413	0.0156406
643.491	0.0156915
643.569	0.0158010
643.647	0.0157351
643.725	0.0157243
643.803	0.0157466
643.881	0.0156984
643.959	0.0156931
644.038	0.0156390
644.116	0.0156477
644.194	0.0156695
644.272	0.0155991
644.350	0.0155534
644.428	0.0155908
644.506	0.0155898
644.584	0.0155588
644.663	0.0155836
644.741	0.0156390
644.819	0.0154582
644.897	0.0156145
644.975	0.0158159
645.053	0.0156817
645.131	0.0156996
645.209	0.0155787
645.288	0.0157172
645.366	0.0155488
645.444	0.0156598
645.522	0.0155897
645.600	0.0154886
645.678	0.0156937
645.756	0.0155665
645.834	0.0155918
645.913	0.0154856
645.991	0.0154306
646.069	0.0154167
646.147	0.0155425
646.225	0.0155782
646.303	0.0155080
646.381	0.0154770
646.459	0.0155894
646.538	0.0156283
646.616	0.0156535
646.694	0.0156869
646.772	0.0155018
646.850	0.0156120
646.928	0.0157026
647.006	0.0155698
647.084	0.0156646
647.163	0.0157693
647.241	0.0156217
647.319	0.0157476
647.397	0.0156438
647.475	0.0157330
647.553	0.0156525
647.631	0.0157510
647.709	0.0156001
647.788	0.0156870
647.866	0.0157896
647.944	0.0156427
648.022	0.0155711
648.100	0.0156207
648.178	0.0156026
648.256	0.0155203
648.334	0.0156316
648.413	0.0155732
648.491	0.0153933
648.569	0.0154134
648.647	0.0154337
648.725	0.0153819
648.803	0.0153269
648.881	0.0154688
648.959	0.0154382
649.038	0.0154408
649.116	0.0152167
649.194	0.0154317
649.272	0.0155911
649.350	0.0152682
649.428	0.0152430
649.506	0.0152256
649.584	0.0151730
649.663	0.0152631
649.741	0.0152917
649.819	0.0153756
649.897	0.0153600
649.975	0.0153863
650.053	0.0153558
650.131	0.0153165
650.209	0.0153938
650.288	0.0154874
650.366	0.0154720
650.444	0.0155427
650.522	0.0155636
650.600	0.0155877
650.678	0.0157055
650.756	0.0156184
650.834	0.0157611
650.913	0.0157731
650.991	0.0157020
651.069	0.0157632
651.147	0.0158731
651.225	0.0158504
651.303	0.0157765
651.381	0.0158112
651.459	0.0158213
651.538	0.0158195
651.616	0.0158403
651.694	0.0158040
651.772	0.0158682
651.850	0.0158368
651.928	0.0156740
652.006	0.0155474
652.084	0.0156242
652.163	0.0156824
652.241	0.0156271
652.319	0.0155619
652.397	0.0155362
652.475	0.0154642
652.553	0.0154430
652.631	0.0154463
652.709	0.0154161
652.788	0.0154548
652.866	0.0154327
652.944	0.0153819
653.022	0.0154786
653.100	0.0154664
653.178	0.0154387
653.256	0.0155452
653.334	0.0154656
653.413	0.0153947
653.491	0.0154333
653.569	0.0155911
653.647	0.0154946
653.725	0.0155781
653.803	0.0155326
653.881	0.0156208
653.959	0.0156846
654.038	0.0155859
654.116	0.0155466
654.194	0.0155898
654.272	0.0156112
654.350	0.0154546
654.428	0.0156216
654.506	0.0156458
654.584	0.0157362
654.663	0.0157814
654.741	0.0157300
654.819	0.0157436
654.897	0.0159010
654.975	0.0158092
655.053	0.0158113
655.131	0.0158460
655.209	0.0159061
655.288	0.0159981
655.366	0.0157934
655.444	0.0159003
655.522	0.0159475
655.600	0.0158241
655.678	0.0156980
655.756	0.0157065
655.834	0.0159180
655.913	0.0157917
655.991	0.0156736
656.069	0.0156307
656.147	0.0156207
656.225	0.0155545
656.303	0.0153320
656.381	0.0154184
656.459	0.0154597
656.538	0.0153511
656.616	0.0153674
656.694	0.0154456
656.772	0.0152522
656.850	0.0153018
656.928	0.0154578
657.006	0.0153787
657.084	0.0153460
657.163	0.0153693
657.241	0.0154691
657.319	0.0154836
657.397	0.0155004
657.475	0.0155362
657.553	0.0153503
657.631	0.0155041
657.709	0.0156586
657.788	0.0157428
657.866	0.0157129
657.944	0.0158321
658.022	0.0157375
658.100	0.0157581
658.178	0.0157474
658.256	0.0157441
658.334	0.0157877
658.413	0.0157958
658.491	0.0157527
658.569	0.0157250
658.647	0.0157315
658.725	0.0154717
658.803	0.0156194
658.881	0.0157403
658.959	0.0155961
659.038	0.0156689
659.116	0.0157114
659.194	0.0156921
659.272	0.0157642
659.350	0.0155837
659.428	0.0158369
659.506	0.0156774
659.584	0.0155672
659.663	0.0156684
659.741	0.0155444
659.819	0.0156593
659.897	0.0158086
659.975	0.0157157
660.053	0.0156139
660.131	0.0157550
660.209	0.0156979
660.288	0.0156766
660.366	0.0155936
660.444	0.0156463
660.522	0.0156001
660.600	0.0156208
660.678	0.0156180
660.756	0.0156888
660.834	0.0155801
660.913	0.0154422
660.991	0.0154883
661.069	0.0155508
661.147	0.0154509
661.225	0.0154226
661.303	0.0155926
661.381	0.0155630
661.459	0.0156223
661.538	0.0154800
661.616	0.0156376
661.694	0.0154985
661.772	0.0155493
661.850	0.0157047
661.928	0.0157613
662.006	0.0155919
662.084	0.0156778
662.163	0.0156735
662.241	0.0157181
662.319	0.0157959
662.397	0.0157358
662.475	0.0157964
662.553	0.0157922
662.631	0.0158286
662.709	0.0158099
662.788	0.0156281
662.866	0.0156384
662.944	0.0157463
663.022	0.0155696
663.100	0.0156185
663.178	0.0157138
663.256	0.0155774
663.334	0.0155021
663.413	0.0155673
663.491	0.0154153
663.569	0.0154922
663.647	0.0153649
663.725	0.0154372
663.803	0.0155437
663.881	0.0154494
663.959	0.0155086
664.038	0.0155062
664.116	0.0154866
664.194	0.0154258
664.272	0.0155075
664.350	0.0155354
664.428	0.0155378
664.506	0.0155442
664.584	0.0157141
664.663	0.0156587
664.741	0.0156001
664.819	0.0156730
664.897	0.0155569
664.975	0.0156057
665.053	0.0155337
665.131	0.0156658
665.209	0.0156419
665.288	0.0157191
665.366	0.0156038
665.444	0.0156449
665.522	0.0154235
665.600	0.0156290
665.678	0.0155814
665.756	0.0154028
665.834	0.0154794
665.913	0.0155443
665.991	0.0156067
666.069	0.0154710
666.147	0.0153796
666.225	0.0153654
666.303	0.0154682
666.381	0.0154266
666.459	0.0153775
666.538	0.0153439
666.616	0.0154100
666.694	0.0153927
666.772	0.0154720
666.850	0.0155589
666.928	0.0156628
667.006	0.0154523
667.084	0.0153802
667.163	0.0155809
667.241	0.0155421
667.319	0.0155698
667.397	0.0156441
667.475	0.0156762
667.553	0.0157806
667.631	0.0157242
667.709	0.0156567
667.788	0.0157169
667.866	0.0157493
667.944	0.0155426
668.022	0.0155788
668.100	0.0156907
668.178	0.0156789
668.256	0.0156372
668.334	0.0155585
668.413	0.0156319
668.491	0.0156797
668.569	0.0156630
668.647	0.0155300
668.725	0.0155964
668.803	0.0155772
668.881	0.0155325
668.959	0.0154358
669.038	0.0153266
669.116	0.0154144
669.194	0.0154124
669.272	0.0153825
669.350	0.0153127
669.428	0.0153503
669.506	0.0155493
669.584	0.0154847
669.663	0.0155228
669.741	0.0155294
669.819	0.0155495
669.897	0.0155736
669.975	0.0154842
670.053	0.0156662
670.131	0.0154630
670.209	0.0155087
670.288	0.0155567
670.366	0.0155672
670.444	0.0154435
670.522	0.0154482
670.600	0.0155684
670.678	0.0154470
670.756	0.0154765
670.834	0.0154176
670.913	0.0153339
670.991	0.0152879
671.069	0.0153233
671.147	0.0152206
671.225	0.0153793
671.303	0.0153431
671.381	0.0152887
671.459	0.0151833
671.538	0.0153978
671.616	0.0152012
671.694	0.0153221
671.772	0.0154506
671.850	0.0154527
671.928	0.0155267
672.006	0.0156396
672.084	0.0155168
672.163	0.0154924
672.241	0.0157647
672.319	0.0157510
672.397	0.0155940
672.475	0.0157579
672.553	0.0158356
672.631	0.0157629
672.709	0.0158708
672.788	0.0157185
672.866	0.0157719
672.944	0.0158035
673.022	0.0156584
673.100	0.0156071
673.178	0.0156496
673.256	0.0156379
673.334	0.0154848
673.413	0.0154137
673.491	0.0153200
673.569	0.0153914
673.647	0.0154025
673.725	0.0153929
673.803	0.0152418
673.881	0.0153553
673.959	0.0154660
674.038	0.0153947
674.116	0.0153958
674.194	0.0154729
674.272	0.0153280
674.350	0.0154272
674.428	0.0155154
674.506	0.0153721
674.584	0.0155587
674.663	0.0156248
674.741	0.0156542
674.819	0.0155589
674.897	0.0156469
674.975	0.0156348
675.053	0.0156349
675.131	0.0156670
675.209	0.0155289
675.288	0.0153999
675.366	0.0154143
675.444	0.0156262
675.522	0.0155431
675.600	0.0154913
675.678	0.0155106
675.756	0.0155813
675.834	0.0155038
675.913	0.0155327
675.991	0.0155703
676.069	0.0156790
676.147	0.0157370
676.225	0.0157036
676.303	0.0157503
676.381	0.0157455
676.459	0.0158726
676.538	0.0157239
676.616	0.0157993
676.694	0.0158716
676.772	0.0157869
676.850	0.0158514
676.928	0.0157745
677.006	0.0156409
677.084	0.0155128
677.163	0.0155008
677.241	0.0155624
677.319	0.0153703
677.397	0.0153640
677.475	0.0152470
677.553	0.0152458
677.631	0.0152095
677.709	0.0153663
677.788	0.0151173
677.866	0.0152865
677.944	0.0155403
678.022	0.0156310
678.100	0.0156503
678.178	0.0157726
678.256	0.0158705
678.334	0.0158633
678.413	0.0161773
678.491	0.0162163
678.569	0.0163943
678.647	0.0164729
678.725	0.0162923
678.803	0.0163972
678.881	0.0164753
678.959	0.0163846
679.038	0.0162263
679.116	0.0161415
679.194	0.0160196
679.272	0.0158555
679.350	0.0153395
679.428	0.0153257
679.506	0.0151803
679.584	0.0149383
679.663	0.0147347
679.741	0.0144903
679.819	0.0144316
679.897	0.0143615
679.975	0.0143341
680.053	0.0142839
680.131	0.0144820
680.209	0.0144460
680.288	0.0146828
680.366	0.0147927
680.444	0.0149280
680.522	0.0151791
680.600	0.0153635
680.678	0.0156249
680.756	0.0159458
680.834	0.0161098
680.913	0.0165420
680.991	0.0166661
681.069	0.0167360
681.147	0.0169015
681.225	0.0168719
681.303	0.0168437
681.381	0.0169817
681.459	0.0169528
681.538	0.0167354
681.616	0.0166588
681.694	0.0165283
681.772	0.0162704
681.850	0.0161105
681.928	0.0158413
682.006	0.0158276
682.084	0.0155061
682.163	0.0152639
682.241	0.0152316
682.319	0.0151945
682.397	0.0149862
682.475	0.0147942
682.553	0.0146452
682.631	0.0145982
682.709	0.0146796
682.788	0.0147005
682.866	0.0147812
682.944	0.0146329
683.022	0.0146427
683.100	0.0148993
683.178	0.0148017
683.256	0.0150691
683.334	0.0150358
683.413	0.0151180
683.491	0.0153334
683.569	0.0154127
683.647	0.0154404
683.725	0.0156166
683.803	0.0157408
683.881	0.0158334
683.959	0.0159435
684.038	0.0160930
684.116	0.0162086
684.194	0.0163225
684.272	0.0162896
684.350	0.0164888
684.428	0.0164565
684.506	0.0165537
684.584	0.0164566
684.663	0.0164081
684.741	0.0162300
684.819	0.0163890
684.897	0.0162192
684.975	0.0160581
685.053	0.0159973
685.131	0.0158837
685.209	0.0157391
685.288	0.0155468
685.366	0.0154499
685.444	0.0153184
685.522	0.0150719
685.600	0.0150805
685.678	0.0149310
685.756	0.0149091
685.834	0.0149402
685.913	0.0147870
685.991	0.0149507
686.069	0.0150204
686.147	0.0149985
686.225	0.0151614
686.303	0.0152359
686.381	0.0154248
686.459	0.0155421
686.538	0.0156492
686.616	0.0159362
686.694	0.0162174
686.772	0.0163528
686.850	0.0164213
686.928	0.0166906
687.006	0.0169765
687.084	0.0169096
687.163	0.0170823
687.241	0.0172210
687.319	0.0170999
687.397	0.0170083
687.475	0.0168794
687.553	0.0165865
687.631	0.0165667
687.709	0.0161658
687.788	0.0158745
687.866	0.0153288
687.944	0.0151218
688.022	0.0147405
688.100	0.0142091
688.178	0.0137562
688.256	0.0133693
688.334	0.0129565
688.413	0.0126872
688.491	0.0126141
688.569	0.0124823
688.647	0.0123942
688.725	0.0125287
688.803	0.0125540
688.881	0.0128843
688.959	0.0132866
689.038	0.0136723
689.116	0.0140840
689.194	0.0145745
689.272	0.0150894
689.350	0.0154192
689.428	0.0159888
689.506	0.0162967
689.584	0.0167880
689.663	0.0171192
689.741	0.0174026
689.819	0.0178625
689.897	0.0180369
689.975	0.0182224
690.053	0.0183942
690.131	0.0185828
690.209	0.0185732
690.288	0.0185365
690.366	0.0183903
690.444	0.0182204
690.522	0.0180126
690.600	0.0177834
690.678	0.0175188
690.756	0.0171294
690.834	0.0167324
690.913	0.0163146
690.991	0.0159701
691.069	0.0156515
691.147	0.0152959
691.225	0.0149012
691.303	0.0147140
691.381	0.0143394
691.459	0.0142451
691.538	0.0140656
691.616	0.0139519
691.694	0.0137453
691.772	0.0137060
691.850	0.0136650
691.928	0.0138065
692.006	0.0138364
692.084	0.0139248
692.163	0.0137133
692.241	0.0137510
692.319	0.0139039
692.397	0.0140092
692.475	0.0141299
692.553	0.0138889
692.631	0.0138508
692.709	0.0139147
692.788	0.0138435
692.866	0.0137905
692.944	0.0139475
693.022	0.0139314
693.100	0.0140931
693.178	0.0141239
693.256	0.0142831
693.334	0.0144653
693.413	0.0145025
693.491	0.0148489
693.569	0.0150929
693.647	0.0154758
693.725	0.0157010
693.803	0.0160635
693.881	0.0162799
693.959	0.0167563
694.038	0.0169483
694.116	0.0174207
694.194	0.0177935
694.272	0.0180960
694.350	0.0183844
694.428	0.0186822
694.506	0.0188292
694.584	0.0189964
694.663	0.0192098
694.741	0.0190932
694.819	0.0188705
694.897	0.0189634
694.975	0.0187196
695.053	0.0184869
695.131	0.0180516
695.209	0.0176896
695.288	0.0172736
695.366	0.0168126
695.444	0.0164072
695.522	0.0158720
695.600	0.0154230
695.678	0.0150587
695.756	0.0146270
695.834	0.0143296
695.913	0.0140331
695.991	0.0136136
696.069	0.0132391
696.147	0.0128398
696.225	0.0127179
696.303	0.0123070
696.381	0.0121993
696.459	0.0122077
696.538	0.0120795
696.616	0.0120441
696.694	0.0123023
696.772	0.0123226
696.850	0.0124876
696.928	0.0129708
697.006	0.0132278
697.084	0.0134837
697.163	0.0139161
697.241	0.0144447
697.319	0.0149053
697.397	0.0152394
697.475	0.0155712
697.553	0.0161946
697.631	0.0163171
697.709	0.0166106
697.788	0.0169299
697.866	0.0171941
697.944	0.0173248
698.022	0.0175916
698.100	0.0174828
698.178	0.0176026
698.256	0.0175753
698.334	0.0174384
698.413	0.0175011
698.491	0.0173035
698.569	0.0169672
698.647	0.0169965
698.725	0.0167834
698.803	0.0167909
698.881	0.0165022
698.959	0.0165443
699.038	0.0165415
699.116	0.0165007
699.194	0.0165636
699.272	0.0165757
699.350	0.0166605
699.428	0.0166603
699.506	0.0167965
699.584	0.0168269
699.663	0.0167537
699.741	0.0167285
699.819	0.0168201
699.897	0.0167601
699.975	0.0165086
700.053	0.0163693
700.131	0.0162152
700.209	0.0159354
700.288	0.0156361
700.366	0.0154285
700.444	0.0148969
700.522	0.0145766
700.600	0.0142319
700.678	0.0139407
700.756	0.0135020
700.834	0.0132621
700.913	0.0129926
700.991	0.0129636
701.069	0.0128822
701.147	0.0128983
701.225	0.0130277
701.303	0.0133306
701.381	0.0135673
701.459	0.0138547
701.538	0.0140067
701.616	0.0144329
701.694	0.0148236
701.772	0.0152665
701.850	0.0155772
701.928	0.0160319
702.006	0.0163852
702.084	0.0166840
702.163	0.0169108
702.241	0.0171189
702.319	0.0174081
702.397	0.0173093
702.475	0.0175141
702.553	0.0177016
702.631	0.0176243
702.709	0.0178442
702.788	0.0176649
702.866	0.0176266
702.944	0.0175382
703.022	0.0175294
703.100	0.0173199
703.178	0.0171265
703.256	0.0168785
703.334	0.0165898
703.413	0.0163116
703.491	0.0160403
703.569	0.0157417
703.647	0.0152786
703.725	0.0148626
703.803	0.0144997
703.881	0.0142745
703.959	0.0138734
704.038	0.0136359
704.116	0.0135686
704.194	0.0132333
704.272	0.0132990
704.350	0.0131552
704.428	0.0132116
704.506	0.0133921
704.584	0.0135795
704.663	0.0138130
704.741	0.0140288
704.819	0.0143182
704.897	0.0145424
704.975	0.0148817
705.053	0.0152287
705.131	0.0154845
705.209	0.0158518
705.288	0.0162508
705.366	0.0164793
705.444	0.0167340
705.522	0.0169231
705.600	0.0171028
705.678	0.0172056
705.756	0.0174527
705.834	0.0177225
705.913	0.0179047
705.991	0.0177390
706.069	0.0177459
706.147	0.0177220
706.225	0.0177024
706.303	0.0176213
706.381	0.0174668
706.459	0.0170636
706.538	0.0166184
706.616	0.0162462
706.694	0.0156857
706.772	0.0152267
706.850	0.0147963
706.928	0.0142938
707.006	0.0139439
707.084	0.0135147
707.163	0.0131976
707.241	0.0130101
707.319	0.0129675
707.397	0.0128979
707.475	0.0131152
707.553	0.0130005
707.631	0.0132802
707.709	0.0137038
707.788	0.0140614
707.866	0.0145699
707.944	0.0151019
708.022	0.0154618
708.100	0.0159760
708.178	0.0165866
708.256	0.0170346
708.334	0.0175633
708.413	0.0179747
708.491	0.0182098
708.569	0.0184747
708.647	0.0184809
708.725	0.0185355
708.803	0.0185814
708.881	0.0182048
708.959	0.0180138
709.038	0.0176450
709.116	0.0170168
709.194	0.0165780
709.272	0.0160630
709.350	0.0153651
709.428	0.0149812
709.506	0.0145801
709.584	0.0139823
709.663	0.0136169
709.741	0.0133293
709.819	0.0131308
709.897	0.0130350
709.975	0.0130858
710.053	0.0129607
710.131	0.0130560
710.209	0.0132951
710.288	0.0133884
710.366	0.0135670
710.444	0.0138496
710.522	0.0141348
710.600	0.0144022
710.678	0.0146003
710.756	0.0149046
710.834	0.0151451
710.913	0.0154980
710.991	0.0158338
711.069	0.0157751
711.147	0.0159640
711.225	0.0162687
711.303	0.0163981
711.381	0.0164705
711.459	0.0167282
711.538	0.0169147
711.616	0.0169001
711.694	0.0168138
711.772	0.0171282
711.850	0.0171050
711.928	0.0171211
712.006	0.0171469
712.084	0.0170758
712.163	0.0172316
712.241	0.0171289
712.319	0.0172147
712.397	0.0169958
712.475	0.0168772
712.553	0.0166576
712.631	0.0166183
712.709	0.0163319
712.788	0.0160461
712.866	0.0157726
712.944	0.0155074
713.022	0.0152949
713.100	0.0150326
713.178	0.0147984
713.256	0.0147301
713.334	0.0145652
713.413	0.0143736
713.491	0.0143892
713.569	0.0142522
713.647	0.0142026
713.725	0.0142136
713.803	0.0143511
713.881	0.0144456
713.959	0.0145076
714.038	0.0145824
714.116	0.0147400
714.194	0.0148901
714.272	0.0150140
714.350	0.0150932
714.428	0.0152193
714.506	0.0153292
714.584	0.0154103
714.663	0.0156685
714.741	0.0155851
714.819	0.0157691
714.897	0.0159235
714.975	0.0162554
715.053	0.0162022
715.131	0.0162966
715.209	0.0164528
715.288	0.0164447
715.366	0.0165900
715.444	0.0166546
715.522	0.0166467
715.600	0.0166651
715.678	0.0168969
715.756	0.0168837
715.834	0.0167793
715.913	0.0167517
715.991	0.0167159
716.069	0.0168192
716.147	0.0165157
716.225	0.0165704
716.303	0.0164893
716.381	0.0165249
716.459	0.0162712
716.538	0.0162038
716.616	0.0160484
716.694	0.0158984
716.772	0.0159210
716.850	0.0156555
716.928	0.0155231
717.006	0.0153894
717.084	0.0152455
717.163	0.0147270
717.241	0.0144483
717.319	0.0142370
717.397	0.0138479
717.475	0.0134344
717.553	0.0131049
717.631	0.0126769
717.709	0.0126001
717.788	0.0123937
717.866	0.0122929
717.944	0.0124496
718.022	0.0128259
718.100	0.0130090
718.178	0.0136882
718.256	0.0142509
718.334	0.0148162
718.413	0.0157034
718.491	0.0162000
718.569	0.0168349
718.647	0.0173447
718.725	0.0178423
718.803	0.0180466
718.881	0.0183015
718.959	0.0182227
719.038	0.0182008
719.116	0.0179642
719.194	0.0177323
719.272	0.0171724
719.350	0.0170044
719.428	0.0165159
719.506	0.0161955
719.584	0.0159100
719.663	0.0157381
719.741	0.0154882
719.819	0.0155615
719.897	0.0156304
719.975	0.0156039
720.053	0.0160773
720.131	0.0161015
720.209	0.0161372
720.288	0.0163997
720.366	0.0166718
720.444	0.0170242
720.522	0.0172047
720.600	0.0171629
720.678	0.0171542
720.756	0.0172459
720.834	0.0172426
720.913	0.0172293
720.991	0.0173096
721.069	0.0171445
721.147	0.0167316
721.225	0.0168093
721.303	0.0166854
721.381	0.0164978
721.459	0.0163412
721.538	0.0161540
721.616	0.0158735
721.694	0.0156260
721.772	0.0153619
721.850	0.0150898
721.928	0.0148077
722.006	0.0145888
722.084	0.0143562
722.163	0.0140186
722.241	0.0138734
722.319	0.0137225
722.397	0.0135297
722.475	0.0132350
722.553	0.0131687
722.631	0.0130789
722.709	0.0130792
722.788	0.0131202
722.866	0.0132452
722.944	0.0132199
723.022	0.0133476
723.100	0.0134740
723.178	0.0136861
723.256	0.0139207
723.334	0.0140397
723.413	0.0143132
723.491	0.0143516
723.569	0.0146038
723.647	0.0147517
723.725	0.0147942
723.803	0.0150516
723.881	0.0153850
723.959	0.0155465
724.038	0.0156139
724.116	0.0159886
724.194	0.0164391
724.272	0.0166553
724.350	0.0170812
724.428	0.0172891
724.506	0.0175961
724.584	0.0178075
724.663	0.0180547
724.741	0.0180938
724.819	0.0182598
724.897	0.0181806
724.975	0.0182152
725.053	0.0181699
725.131	0.0178691
725.209	0.0175981
725.288	0.0175072
725.366	0.0172880
725.444	0.0171202
725.522	0.0170866
725.600	0.0168771
725.678	0.0168520
725.756	0.0167858
725.834	0.0167280
725.913	0.0168541
725.991	0.0168764
726.069	0.0168571
726.147	0.0167412
726.225	0.0168338
726.303	0.0165298
726.381	0.0163721
726.459	0.0162549
726.538	0.0158108
726.616	0.0155425
726.694	0.0153541
726.772	0.0149468
726.850	0.0145525
726.928	0.0142269
727.006	0.0137759
727.084	0.0135184
727.163	0.0135790
727.241	0.0132842
727.319	0.0130483
727.397	0.0131141
727.475	0.0129926
727.553	0.0130972
727.631	0.0131995
727.709	0.0132864
727.788	0.0136251
727.866	0.0136904
727.944	0.0137702
728.022	0.0139782
728.100	0.0143730
728.178	0.0144220
728.256	0.0145773
728.334	0.0148199
728.413	0.0149945
728.491	0.0151571
728.569	0.0153336
728.647	0.0155012
728.725	0.0157610
728.803	0.0159158
728.881	0.0160715
728.959	0.0160609
729.038	0.0160941
729.116	0.0161177
729.194	0.0161404
729.272	0.0160234
729.350	0.0158041
729.428	0.0157219
729.506	0.0155178
729.584	0.0153339
729.663	0.0151722
729.741	0.0148900
729.819	0.0149373
729.897	0.0149775
729.975	0.0150706
730.053	0.0151376
730.131	0.0153126
730.209	0.0153651
730.288	0.0158597
730.366	0.0160397
730.444	0.0163331
730.522	0.0165079
730.600	0.0168699
730.678	0.0169051
730.756	0.0171572
730.834	0.0173033
730.913	0.0175391
730.991	0.0175652
731.069	0.0177244
731.147	0.0174738
731.225	0.0174409
731.303	0.0174361
731.381	0.0172678
731.459	0.0171762
731.538	0.0168620
731.616	0.0164257
731.694	0.0162356
731.772	0.0159053
731.850	0.0155840
731.928	0.0153317
732.006	0.0152586
732.084	0.0150635
732.163	0.0150752
732.241	0.0150600
732.319	0.0150297
732.397	0.0150047
732.475	0.0148162
732.553	0.0151264
732.631	0.0150278
732.709	0.0152331
732.788	0.0150491
732.866	0.0151456
732.944	0.0150316
733.022	0.0148192
733.100	0.0147111
733.178	0.0145708
733.256	0.0144223
733.334	0.0144309
733.413	0.0142366
733.491	0.0141792
733.569	0.0140412
733.647	0.0141805
733.725	0.0144182
733.803	0.0144280
733.881	0.0144309
733.959	0.0145241
734.038	0.0148647
734.116	0.0151271
734.194	0.0151408
734.272	0.0152637
734.350	0.0153551
734.428	0.0155129
734.506	0.0154729
734.584	0.0154622
734.663	0.0156051
734.741	0.0157089
734.819	0.0157720
734.897	0.0157594
734.975	0.0158218
735.053	0.0158631
735.131	0.0160204
735.209	0.0160414
735.288	0.0159928
735.366	0.0159406
735.444	0.0159209
735.522	0.0157585
735.600	0.0156046
735.678	0.0156208
735.756	0.0156898
735.834	0.0156022
735.913	0.0155046
735.991	0.0155708
736.069	0.0154785
736.147	0.0155162
736.225	0.0154424
736.303	0.0155457
736.381	0.0154236
736.459	0.0154502
736.538	0.0155209
736.616	0.0157758
736.694	0.0158717
736.772	0.0158508
736.850	0.0160771
736.928	0.0161420
737.006	0.0161493
737.084	0.0162241
737.163	0.0161670
737.241	0.0162399
737.319	0.0162317
737.397	0.0161311
737.475	0.0161710
737.553	0.0160965
737.631	0.0160402
737.709	0.0160114
737.788	0.0158978
737.866	0.0158686
737.944	0.0155676
738.022	0.0155460
738.100	0.0154762
738.178	0.0152908
738.256	0.0153446
738.334	0.0153094
738.413	0.0150487
738.491	0.0151711
738.569	0.0151263
738.647	0.0150486
738.725	0.0151534
738.803	0.0151368
738.881	0.0151392
738.959	0.0152214
739.038	0.0154005
739.116	0.0152286
739.194	0.0154455
739.272	0.0154870
739.350	0.0155598
739.428	0.0158095
739.506	0.0157464
739.584	0.0158878
739.663	0.0159917
739.741	0.0159551
739.819	0.0159372
739.897	0.0161037
739.975	0.0159901
740.053	0.0159657
740.131	0.0159553
740.209	0.0158082
740.288	0.0156615
740.366	0.0154536
740.444	0.0152666
740.522	0.0150587
740.600	0.0149619
740.678	0.0148873
740.756	0.0144903
740.834	0.0144374
740.913	0.0144495
740.991	0.0145323
741.069	0.0145758
741.147	0.0145789
741.225	0.0146658
741.303	0.0147278
741.381	0.0150209
741.459	0.0151527
741.538	0.0153889
741.616	0.0153934
741.694	0.0155074
741.772	0.0156140
741.850	0.0154364
741.928	0.0154807
742.006	0.0154801
742.084	0.0157085
742.163	0.0156036
742.241	0.0156837
742.319	0.0158105
742.397	0.0157092
742.475	0.0158398
742.553	0.0160006
742.631	0.0161775
742.709	0.0163229
742.788	0.0163200
742.866	0.0165907
742.944	0.0165936
743.022	0.0165817
743.100	0.0163877
743.178	0.0164104
743.256	0.0164960
743.334	0.0165656
743.413	0.0164390
743.491	0.0163948
743.569	0.0166389
743.647	0.0165934
743.725	0.0165948
743.803	0.0165336
743.881	0.0165544
743.959	0.0166865
744.038	0.0165148
744.116	0.0164334
744.194	0.0162520
744.272	0.0162170
744.350	0.0162033
744.428	0.0158018
744.506	0.0156342
744.584	0.0156193
744.663	0.0153214
744.741	0.0151817
744.819	0.0151894
744.897	0.0151793
744.975	0.0152818
745.053	0.0150497
745.131	0.0149974
745.209	0.0149043
745.288	0.0151631
745.366	0.0149335
745.444	0.0150723
745.522	0.0151333
745.600	0.0149852
745.678	0.0150416
745.756	0.0148698
745.834	0.0149429
745.913	0.0149242
745.991	0.0147126
746.069	0.0148700
746.147	0.0148802
746.225	0.0148528
746.303	0.0148578
746.381	0.0147632
746.459	0.0147647
746.538	0.0147074
746.616	0.0149434
746.694	0.0149863
746.772	0.0148240
746.850	0.0148594
746.928	0.0149297
747.006	0.0149966
747.084	0.0150363
747.163	0.0151002
747.241	0.0153506
747.319	0.0155467
747.397	0.0155602
747.475	0.0157880
747.553	0.0159977
747.631	0.0159979
747.709	0.0161755
747.788	0.0162655
747.866	0.0162503
747.944	0.0163629
748.022	0.0164957
748.100	0.0164540
748.178	0.0165469
748.256	0.0162611
748.334	0.0163193
748.413	0.0165113
748.491	0.0163503
748.569	0.0163520
748.647	0.0161987
748.725	0.0160318
748.803	0.0160850
748.881	0.0159114
748.959	0.0159239
749.038	0.0158501
749.116	0.0158422
749.194	0.0157583
749.272	0.0154756
749.350	0.0156118
749.428	0.0157439
749.506	0.0157673
749.584	0.0157678
749.663	0.0157893
749.741	0.0157455
749.819	0.0160705
749.897	0.0162780
749.975	0.0161918
750.053	0.0161799
750.131	0.0161550
750.209	0.0161275
750.288	0.0161712
750.366	0.0158221
750.444	0.0156705
750.522	0.0154788
750.600	0.0151465
750.678	0.0148320
750.756	0.0147522
750.834	0.0144778
750.913	0.0143352
750.991	0.0141352
751.069	0.0143192
751.147	0.0143210
751.225	0.0143616
751.303	0.0143813
751.381	0.0145615
751.459	0.0146982
751.538	0.0149412
751.616	0.0150479
751.694	0.0150723
751.772	0.0152157
751.850	0.0153083
751.928	0.0153084
752.006	0.0154063
752.084	0.0152822
752.163	0.0153121
752.241	0.0153149
752.319	0.0152130
752.397	0.0152871
752.475	0.0151734
752.553	0.0150996
752.631	0.0152912
752.709	0.0152562
752.788	0.0151242
752.866	0.0153290
752.944	0.0153328
753.022	0.0155142
753.100	0.0155014
753.178	0.0157175
753.256	0.0156174
753.334	0.0157353
753.413	0.0159864
753.491	0.0160415
753.569	0.0160256
753.647	0.0161036
753.725	0.0162205
753.803	0.0162292
753.881	0.0162309
753.959	0.0162778
754.038	0.0163447
754.116	0.0161942
754.194	0.0162556
754.272	0.0161894
754.350	0.0161612
754.428	0.0162239
754.506	0.0159901
754.584	0.0160014
754.663	0.0158384
754.741	0.0156320
754.819	0.0155585
754.897	0.0155739
754.975	0.0153944
755.053	0.0153284
755.131	0.0154636
755.209	0.0153280
755.288	0.0155412
755.366	0.0155884
755.444	0.0154720
755.522	0.0156186
755.600	0.0157796
755.678	0.0159280
755.756	0.0161098
755.834	0.0161143
755.913	0.0162017
755.991	0.0162376
756.069	0.0161696
756.147	0.0161261
756.225	0.0161156
756.303	0.0160249
756.381	0.0156910
756.459	0.0156644
756.538	0.0155007
756.616	0.0152635
756.694	0.0152456
756.772	0.0151275
756.850	0.0149249
756.928	0.0147700
757.006	0.0149363
757.084	0.0149643
757.163	0.0150202
757.241	0.0150166
757.319	0.0152634
757.397	0.0154391
757.475	0.0155353
757.553	0.0156348
757.631	0.0155682
757.709	0.0158228
757.788	0.0158285
757.866	0.0159465
757.944	0.0160609
758.022	0.0160067
758.100	0.0159325
758.178	0.0158400
758.256	0.0159045
758.334	0.0158835
758.413	0.0156576
758.491	0.0156740
758.569	0.0152221
758.647	0.0152379
758.725	0.0149745
758.803	0.0147337
758.881	0.0148453
758.959	0.0146600
759.038	0.0143656
759.116	0.0145238
759.194	0.0145528
759.272	0.0143898
759.350	0.0144155
759.428	0.0146664
759.506	0.0146375
759.584	0.0146955
759.663	0.0148209
759.741	0.0148106
759.819	0.0149849
759.897	0.0151105
759.975	0.0152773
760.053	0.0153008
760.131	0.0153944
760.209	0.0154317
760.288	0.0153690
760.366	0.0155689
760.444	0.0157597
760.522	0.0156892
760.600	0.0157687
760.678	0.0158469
760.756	0.0157978
760.834	0.0159115
760.913	0.0160792
760.991	0.0160134
761.069	0.0159763
761.147	0.0158298
761.225	0.0160358
761.303	0.0160473
761.381	0.0160270
761.459	0.0158543
761.538	0.0159538
761.616	0.0159441
761.694	0.0159813
761.772	0.0159991
761.850	0.0160103
761.928	0.0159824
762.006	0.0159903
762.084	0.0158674
762.163	0.0158638
762.241	0.0159818
762.319	0.0160487
762.397	0.0161771
762.475	0.0160242
762.553	0.0161104
762.631	0.0162625
762.709	0.0161817
762.788	0.0161585
762.866	0.0161017
762.944	0.0161857
763.022	0.0162025
763.100	0.0160081
763.178	0.0159431
763.256	0.0159280
763.334	0.0157740
763.413	0.0156132
763.491	0.0156354
763.569	0.0157926
763.647	0.0155634
763.725	0.0154512
763.803	0.0155520
763.881	0.0154591
763.959	0.0154196
764.038	0.0153424
764.116	0.0153474
764.194	0.0153038
764.272	0.0153142
764.350	0.0151793
764.428	0.0152199
764.506	0.0150938
764.584	0.0149834
764.663	0.0149313
764.741	0.0147720
764.819	0.0149114
764.897	0.0147604
764.975	0.0146635
765.053	0.0145760
765.131	0.0147587
765.209	0.0146968
765.288	0.0148301
765.366	0.0148457
765.444	0.0149912
765.522	0.0150457
765.600	0.0151498
765.678	0.0152576
765.756	0.0155781
765.834	0.0155561
765.913	0.0155573
765.991	0.0158401
766.069	0.0159365
766.147	0.0159875
766.225	0.0160231
766.303	0.0160055
766.381	0.0159312
766.459	0.0160044
766.538	0.0159966
766.616	0.0158821
766.694	0.0156951
766.772	0.0156506
766.850	0.0154048
766.928	0.0154112
767.006	0.0152798
767.084	0.0151734
767.163	0.0150296
767.241	0.0149574
767.319	0.0150331
767.397	0.0150367
767.475	0.0149503
767.553	0.0151840
767.631	0.0153215
767.709	0.0154012
767.788	0.0153284
767.866	0.0155267
767.944	0.0156908
768.022	0.0157740
768.100	0.0159989
768.178	0.0159110
768.256	0.0160619
768.334	0.0159924
768.413	0.0160109
768.491	0.0159986
768.569	0.0161362
768.647	0.0159989
768.725	0.0158712
768.803	0.0157061
768.881	0.0158353
768.959	0.0157749
769.038	0.0158425
769.116	0.0157162
769.194	0.0156994
769.272	0.0156743
769.350	0.0157361
769.428	0.0156224
769.506	0.0156429
769.584	0.0157995
769.663	0.0155735
769.741	0.0157634
769.819	0.0157561
769.897	0.0159234
769.975	0.0159047
770.053	0.0159534
770.131	0.0160151
770.209	0.0159940
770.288	0.0159688
770.366	0.0161310
770.444	0.0161728
770.522	0.0160369
770.600	0.0160115
770.678	0.0160593
770.756	0.0159988
770.834	0.0159110
770.913	0.0158514
770.991	0.0159344
771.069	0.0157067
771.147	0.0158073
771.225	0.0156357
771.303	0.0156845
771.381	0.0155683
771.459	0.0155019
771.538	0.0154350
771.616	0.0153371
771.694	0.0151331
771.772	0.0151695
771.850	0.0150617
771.928	0.0151279
772.006	0.0149564
772.084	0.0150397
772.163	0.0149951
772.241	0.0151299
772.319	0.0151594
772.397	0.0153823
772.475	0.0154077
772.553	0.0152112
772.631	0.0153122
772.709	0.0154825
772.788	0.0154126
772.866	0.0156381
772.944	0.0156776
773.022	0.0157765
773.100	0.0154827
773.178	0.0154380
773.256	0.0155207
773.334	0.0153001
773.413	0.0153472
773.491	0.0152303
773.569	0.0153353
773.647	0.0153153
773.725	0.0151020
773.803	0.0151105
773.881	0.0150598
773.959	0.0150835
774.038	0.0151168
774.116	0.0151740
774.194	0.0151409
774.272	0.0152217
774.350	0.0152744
774.428	0.0154578
774.506	0.0156702
774.584	0.0155346
774.663	0.0157355
774.741	0.0158090
774.819	0.0158220
774.897	0.0158275
774.975	0.0160388
775.053	0.0159567
775.131	0.0158771
775.209	0.0160137
775.288	0.0158557
775.366	0.0158873
775.444	0.0158661
775.522	0.0158100
775.600	0.0158432
775.678	0.0157301
775.756	0.0156862
775.834	0.0156171
775.913	0.0154704
775.991	0.0155479
776.069	0.0153951
776.147	0.0155245
776.225	0.0155460
776.303	0.0157352
776.381	0.0157292
776.459	0.0157645
776.538	0.0158317
776.616	0.0158235
776.694	0.0159454
776.772	0.0160008
776.850	0.0159848
776.928	0.0160062
777.006	0.0160338
777.084	0.0161410
777.163	0.0160281
777.241	0.0161783
777.319	0.0161040
777.397	0.0160647
777.475	0.0161205
777.553	0.0161443
777.631	0.0161701
777.709	0.0162276
777.788	0.0161971
777.866	0.0160445
777.944	0.0160234
778.022	0.0160213
778.100	0.0161273
778.178	0.0160349
778.256	0.0159975
778.334	0.0156779
778.413	0.0156192
778.491	0.0156384
778.569	0.0154742
778.647	0.0153345
778.725	0.0152150
778.803	0.0150504
778.881	0.0150819
778.959	0.0149516
779.038	0.0149768
779.116	0.0151131
779.194	0.0150562
779.272	0.0150395
779.350	0.0151267
779.428	0.0150983
779.506	0.0152711
779.584	0.0152856
779.663	0.0153213
779.741	0.0155272
779.819	0.0155647
779.897	0.0155828
779.975	0.0157232
780.053	0.0156824
780.131	0.0157896
780.209	0.0155375
780.288	0.0156792
780.366	0.0156532
780.444	0.0157704
780.522	0.0156655
780.600	0.0155599
780.678	0.0156434
780.756	0.0155042
780.834	0.0157015
780.913	0.0156748
780.991	0.0157862
781.069	0.0154915
781.147	0.0155076
781.225	0.0157034
781.303	0.0155523
781.381	0.0155596
781.459	0.0154774
781.538	0.0154393
781.616	0.0153421
781.694	0.0153654
781.772	0.0153791
781.850	0.0154369
781.928	0.0153785
782.006	0.0151996
782.084	0.0151727
782.163	0.0152335
782.241	0.0151443
782.319	0.0153078
782.397	0.0152583
782.475	0.0152806
782.553	0.0152208
782.631	0.0154080
782.709	0.0154295
782.788	0.0157217
782.866	0.0154077
782.944	0.0155138
783.022	0.0158051
783.100	0.0156509
783.178	0.0157991
783.256	0.0157635
783.334	0.0156932
783.413	0.0156930
783.491	0.0158627
783.569	0.0157714
783.647	0.0156485
783.725	0.0157426
783.803	0.0157465
783.881	0.0155524
783.959	0.0154830
784.038	0.0155663
784.116	0.0155228
784.194	0.0153199
784.272	0.0153388
784.350	0.0153968
784.428	0.0153681
784.506	0.0154605
784.584	0.0154145
784.663	0.0154173
784.741	0.0154789
784.819	0.0154173
784.897	0.0155405
784.975	0.0157275
785.053	0.0157086
785.131	0.0157334
785.209	0.0159052
785.288	0.0158456
785.366	0.0158339
785.444	0.0158530
785.522	0.0158440
785.600	0.0157977
785.678	0.0156795
785.756	0.0155904
785.834	0.0156498
785.913	0.0155646
785.991	0.0155807
786.069	0.0154710
786.147	0.0155202
786.225	0.0156273
786.303	0.0157664
786.381	0.0157629
786.459	0.0157572
786.538	0.0158047
786.616	0.0157848
786.694	0.0159293
786.772	0.0158902
786.850	0.0159236
786.928	0.0160622
787.006	0.0160226
787.084	0.0159875
787.163	0.0159599
787.241	0.0159013
787.319	0.0157874
787.397	0.0157373
787.475	0.0156956
787.553	0.0156529
787.631	0.0155729
787.709	0.0153973
787.788	0.0154266
787.866	0.0153571
787.944	0.0153573
788.022	0.0152792
788.100	0.0152462
788.178	0.0151759
788.256	0.0152129
788.334	0.0151192
788.413	0.0151947
788.491	0.0151120
788.569	0.0151306
788.647	0.0150456
788.725	0.0149844
788.803	0.0148716
788.881	0.0149534
788.959	0.0150309
789.038	0.0148636
789.116	0.0151041
789.194	0.0151461
789.272	0.0150539
789.350	0.0150005
789.428	0.0151188
789.506	0.0151942
789.584	0.0152431
789.663	0.0153668
789.741	0.0154478
789.819	0.0155377
789.897	0.0156762
789.975	0.0156164
790.053	0.0157219
790.131	0.0157358
790.209	0.0156480
790.288	0.0158789
790.366	0.0159554
790.444	0.0158699
790.522	0.0159364
790.600	0.0159147
790.678	0.0159516
790.756	0.0159981
790.834	0.0158013
790.913	0.0158054
790.991	0.0158616
791.069	0.0158487
791.147	0.0158989
791.225	0.0158311
791.303	0.0159300
791.381	0.0158486
791.459	0.0157774
791.538	0.0158430
791.616	0.0156597
791.694	0.0156683
791.772	0.0156329
791.850	0.0156740
791.928	0.0157663
792.006	0.0156521
792.084	0.0156681
792.163	0.0155437
792.241	0.0156489
792.319	0.0157652
792.397	0.0155914
792.475	0.0155727
792.553	0.0155512
792.631	0.0157072
792.709	0.0156116
792.788	0.0156184
792.866	0.0154050
792.944	0.0153391
793.022	0.0152718
793.100	0.0154331
793.178	0.0154949
793.256	0.0152782
793.334	0.0153091
793.413	0.0151437
793.491	0.0151420
793.569	0.0151927
793.647	0.0153318
793.725	0.0152970
793.803	0.0152386
793.881	0.0154038
793.959	0.0155170
794.038	0.0155908
794.116	0.0155118
794.194	0.0156743
794.272	0.0157929
794.350	0.0157557
794.428	0.0158202
794.506	0.0158465
794.584	0.0156939
794.663	0.0157307
794.741	0.0159216
794.819	0.0158926
794.897	0.0158715
794.975	0.0159103
795.053	0.0158611
795.131	0.0159684
795.209	0.0158916
795.288	0.0158926
795.366	0.0159481
795.444	0.0160187
795.522	0.0159603
795.600	0.0159932
795.678	0.0160121
795.756	0.0159062
795.834	0.0158820
795.913	0.0159492
795.991	0.0157622
796.069	0.0157937
796.147	0.0157831
796.225	0.0154712
796.303	0.0155568
796.381	0.0156039
796.459	0.0154926
796.538	0.0151542
796.616	0.0152779
796.694	0.0153403
796.772	0.0152483
796.850	0.0152464
796.928	0.0152262
797.006	0.0152966
797.084	0.0152522
797.163	0.0154510
797.241	0.0153786
797.319	0.0154456
797.397	0.0153214
797.475	0.0154185
797.553	0.0155714
797.631	0.0151908
797.709	0.0152627
797.788	0.0153823
797.866	0.0153580
797.944	0.0154932
798.022	0.0154022
798.100	0.0154865
798.178	0.0156073
798.256	0.0157219
798.334	0.0157120
798.413	0.0157537
798.491	0.0158231
798.569	0.0158699
798.647	0.0158714
798.725	0.0159294
798.803	0.0160258
798.881	0.0158296
798.959	0.0160052
799.038	0.0159619
799.116	0.0160325
799.194	0.0158368
799.272	0.0156960
799.350	0.0156761
799.428	0.0158470
799.506	0.0159554
799.584	0.0158717
799.663	0.0156809
799.741	0.0156039
799.819	0.0158464
799.897	0.0157641
799.975	0.0157467
800.053	0.0158923
800.131	0.0156731
800.209	0.0158312
800.288	0.0158984
800.366	0.0158050
800.444	0.0158831
800.522	0.0158033
800.600	0.0156501
800.678	0.0155881
800.756	0.0156981
800.834	0.0155888
800.913	0.0156699
800.991	0.0157518
801.069	0.0156969
801.147	0.0157757
801.225	0.0157670
801.303	0.0157511
801.381	0.0157426
801.459	0.0157758
801.538	0.0157733
801.616	0.0158147
801.694	0.0157857
801.772	0.0157407
801.850	0.0155573
801.928	0.0156273
802.006	0.0157048
802.084	0.0156506
802.163	0.0156049
802.241	0.0154254
802.319	0.0154687
802.397	0.0155935
802.475	0.0154329
802.553	0.0154819
802.631	0.0155371
802.709	0.0155168
802.788	0.0154904
802.866	0.0155483
802.944	0.0154755
803.022	0.0156167
803.100	0.0155246
803.178	0.0156223
803.256	0.0155854
803.334	0.0153381
803.413	0.0154981
803.491	0.0153404
803.569	0.0153133
803.647	0.0153379
803.725	0.0152943
803.803	0.0151493
803.881	0.0151552
803.959	0.0151751
804.038	0.0150983
804.116	0.0151903
804.194	0.0150986
804.272	0.0151626
804.350	0.0153586
804.428	0.0155058
804.506	0.0153336
804.584	0.0152990
804.663	0.0154389
804.741	0.0154596
804.819	0.0155459
804.897	0.0155009
804.975	0.0156717
805.053	0.0155648
805.131	0.0154535
805.209	0.0156075
805.288	0.0157445
805.366	0.0155881
805.444	0.0154630
805.522	0.0154544
805.600	0.0155571
805.678	0.0153738
805.756	0.0153165
805.834	0.0154648
805.913	0.0153767
805.991	0.0154439
806.069	0.0155005
806.147	0.0155094
806.225	0.0154794
806.303	0.0156159
806.381	0.0154116
806.459	0.0154890
806.538	0.0153786
806.616	0.0154092
806.694	0.0154910
806.772	0.0154213
806.850	0.0154668
806.928	0.0156237
807.006	0.0154150
807.084	0.0154079
807.163	0.0154622
807.241	0.0155666
807.319	0.0154868
807.397	0.0155507
807.475	0.0154948
807.553	0.0155977
807.631	0.0154575
807.709	0.0155219
807.788	0.0154903
807.866	0.0155666
807.944	0.0156379
808.022	0.0157173
808.100	0.0156173
808.178	0.0157117
808.256	0.0157380
808.334	0.0156449
808.413	0.0157805
808.491	0.0157855
808.569	0.0158497
808.647	0.0158662
808.725	0.0159193
808.803	0.0157846
808.881	0.0159664
808.959	0.0159558
809.038	0.0158237
809.116	0.0156969
809.194	0.0156535
809.272	0.0156821
809.350	0.0154573
809.428	0.0153339
809.506	0.0153960
809.584	0.0153435
809.663	0.0153357
809.741	0.0153400
809.819	0.0153865
809.897	0.0151860
809.975	0.0152633
810.053	0.0155712
810.131	0.0153777
810.209	0.0153690
810.288	0.0154333
810.366	0.0154098
810.444	0.0154975
810.522	0.0153787
810.600	0.0154417
810.678	0.0154641
810.756	0.0154694
810.834	0.0155652
810.913	0.0156129
810.991	0.0155912
811.069	0.0155248
811.147	0.0155711
811.225	0.0156805
811.303	0.0156485
811.381	0.0157052
811.459	0.0158314
811.538	0.0158073
811.616	0.0158331
811.694	0.0157713
811.772	0.0157826
811.850	0.0156753
811.928	0.0156209
812.006	0.0156644
812.084	0.0156709
812.163	0.0155357
812.241	0.0154961
812.319	0.0155081
812.397	0.0155044
812.475	0.0153346
812.553	0.0154564
812.631	0.0154623
812.709	0.0153976
812.788	0.0154944
812.866	0.0154353
812.944	0.0153990
813.022	0.0153817
813.100	0.0153651
813.178	0.0155490
813.256	0.0155295
813.334	0.0155927
813.413	0.0155150
813.491	0.0154736
813.569	0.0155767
813.647	0.0154766
813.725	0.0155274
813.803	0.0154542
813.881	0.0155363
813.959	0.0153793
814.038	0.0152419
814.116	0.0153365
814.194	0.0153948
814.272	0.0153164
814.350	0.0153264
814.428	0.0153754
814.506	0.0152287
814.584	0.0151848
814.663	0.0153431
814.741	0.0155265
814.819	0.0153583
814.897	0.0155177
814.975	0.0155324
815.053	0.0155441
815.131	0.0155523
815.209	0.0155615
815.288	0.0156316
815.366	0.0155734
815.444	0.0156607
815.522	0.0155739
815.600	0.0156838
815.678	0.0155741
815.756	0.0154998
815.834	0.0155888
815.913	0.0157365
815.991	0.0158084
816.069	0.0158635
816.147	0.0158706
816.225	0.0158189
816.303	0.0159351
816.381	0.0161774
816.459	0.0162339
816.538	0.0161445
816.616	0.0161623
816.694	0.0161682
816.772	0.0162693
816.850	0.0161943
816.928	0.0163422
817.006	0.0162800
817.084	0.0162099
817.163	0.0159739
817.241	0.0161820
817.319	0.0162231
817.397	0.0161259
817.475	0.0160437
817.553	0.0160048
817.631	0.0158736
817.709	0.0157748
817.788	0.0158449
817.866	0.0157201
817.944	0.0155061
818.022	0.0156987
818.100	0.0154350
818.178	0.0153243
818.256	0.0153435
818.334	0.0153448
818.413	0.0152135
818.491	0.0150916
818.569	0.0151600
818.647	0.0151154
818.725	0.0151190
818.803	0.0152277
818.881	0.0152910
818.959	0.0152480
819.038	0.0152843
819.116	0.0153027
819.194	0.0154002
819.272	0.0153510
819.350	0.0154491
819.428	0.0154789
819.506	0.0153609
819.584	0.0153263
819.663	0.0153164
819.741	0.0154037
819.819	0.0154971
819.897	0.0153800
819.975	0.0151923
820.053	0.0153559
820.131	0.0155035
820.209	0.0155335
820.288	0.0153743
820.366	0.0155650
820.444	0.0155347
820.522	0.0154929
820.600	0.0154619
820.678	0.0155259
820.756	0.0155373
820.834	0.0157764
820.913	0.0157275
820.991	0.0157574
821.069	0.0158006
821.147	0.0159650
821.225	0.0158762
821.303	0.0159303
821.381	0.0160546
821.459	0.0161430
821.538	0.0161057
821.616	0.0161246
821.694	0.0162209
821.772	0.0161011
821.850	0.0160754
821.928	0.0161068
822.006	0.0160561
822.084	0.0160878
822.163	0.0160304
822.241	0.0160970
822.319	0.0159696
822.397	0.0159901
822.475	0.0158433
822.553	0.0160106
822.631	0.0159878
822.709	0.0158515
822.788	0.0157442
822.866	0.0158631
822.944	0.0157156
823.022	0.0155053
823.100	0.0154384
823.178	0.0155628
823.256	0.0154543
823.334	0.0154523
823.413	0.0153981
823.491	0.0153744
823.569	0.0152327
823.647	0.0152580
823.725	0.0153015
823.803	0.0153461
823.881	0.0153555
823.959	0.0153320
824.038	0.0152479
824.116	0.0152753
824.194	0.0153044
824.272	0.0152290
824.350	0.0152612
824.428	0.0153443
824.506	0.0151804
824.584	0.0151385
824.663	0.0151757
824.741	0.0153301
824.819	0.0153442
824.897	0.0154305
824.975	0.0154027
825.053	0.0154216
825.131	0.0154161
825.209	0.0154374
825.288	0.0155555
825.366	0.0154260
825.444	0.0155549
825.522	0.0155513
825.600	0.0154601
825.678	0.0155677
825.756	0.0155218
825.834	0.0155670
825.913	0.0155037
825.991	0.0154942
826.069	0.0153984
826.147	0.0152625
826.225	0.0153908
826.303	0.0154529
826.381	0.0153490
826.459	0.0153699
826.538	0.0154617
826.616	0.0154974
826.694	0.0154613
826.772	0.0154591
826.850	0.0155478
826.928	0.0157262
827.006	0.0156612
827.084	0.0158517
827.163	0.0157745
827.241	0.0158645
827.319	0.0158001
827.397	0.0158239
827.475	0.0160306
827.553	0.0159723
827.631	0.0159384
827.709	0.0158916
827.788	0.0159589
827.866	0.0158222
827.944	0.0159267
828.022	0.0159504
828.100	0.0158043
828.178	0.0158218
828.256	0.0157087
828.334	0.0156355
828.413	0.0157801
828.491	0.0154263
828.569	0.0153448
828.647	0.0152899
828.725	0.0154253
828.803	0.0154848
828.881	0.0153445
828.959	0.0152100
829.038	0.0152755
829.116	0.0150831
829.194	0.0152119
829.272	0.0154217
829.350	0.0153232
829.428	0.0151460
829.506	0.0152795
829.584	0.0151125
829.663	0.0151463
829.741	0.0150972
829.819	0.0150782
829.897	0.0150426
829.975	0.0151612
830.053	0.0151228
830.131	0.0151218
830.209	0.0151546
830.288	0.0152714
830.366	0.0151781
830.444	0.0151517
830.522	0.0153158
830.600	0.0153095
830.678	0.0153279
830.756	0.0153375
830.834	0.0152333
830.913	0.0151978
830.991	0.0151788
831.069	0.0153075
831.147	0.0152235
831.225	0.0152081
831.303	0.0152747
831.381	0.0154737
831.459	0.0153849
831.538	0.0154817
831.616	0.0154816
831.694	0.0155025
831.772	0.0156652
831.850	0.0157249
831.928	0.0157672
832.006	0.0157401
832.084	0.0158189
832.163	0.0157002
832.241	0.0157829
832.319	0.0157339
832.397	0.0157868
832.475	0.0159116
832.553	0.0157864
832.631	0.0159104
832.709	0.0159367
832.788	0.0158137
832.866	0.0158937
832.944	0.0158955
833.022	0.0157832
833.100	0.0158936
833.178	0.0156968
833.256	0.0158442
833.334	0.0158647
833.413	0.0156207
833.491	0.0155909
833.569	0.0156323
833.647	0.0154947
833.725	0.0155568
833.803	0.0155386
833.881	0.0154504
833.959	0.0154798
834.038	0.0154366
834.116	0.0154665
834.194	0.0154101
834.272	0.0153922
834.350	0.0154176
834.428	0.0153064
834.506	0.0153520
834.584	0.0154347
834.663	0.0152723
834.741	0.0153590
834.819	0.0154240
834.897	0.0152349
834.975	0.0152534
835.053	0.0154836
835.131	0.0153893
835.209	0.0152727
835.288	0.0154687
835.366	0.0152824
835.444	0.0153503
835.522	0.0153896
835.600	0.0152447
835.678	0.0154111
835.756	0.0153476
835.834	0.0154626
835.913	0.0152987
835.991	0.0154186
836.069	0.0155114
836.147	0.0153963
836.225	0.0152916
836.303	0.0153384
836.381	0.0155402
836.459	0.0153528
836.538	0.0153877
836.616	0.0152641
836.694	0.0153101
836.772	0.0154498
836.850	0.0154504
836.928	0.0153778
837.006	0.0153699
837.084	0.0154844
837.163	0.0156221
837.241	0.0153745
837.319	0.0153084
837.397	0.0154567
837.475	0.0154685
837.553	0.0155414
837.631	0.0157468
837.709	0.0155054
837.788	0.0156585
837.866	0.0156525
837.944	0.0157240
838.022	0.0156412
838.100	0.0157221
838.178	0.0156384
838.256	0.0157912
838.334	0.0157896
838.413	0.0157773
838.491	0.0158443
838.569	0.0157374
838.647	0.0158434
838.725	0.0159287
838.803	0.0157555
838.881	0.0157184
838.959	0.0158336
839.038	0.0158311
839.116	0.0158394
839.194	0.0157850
839.272	0.0157868
839.350	0.0157172
839.428	0.0159858
839.506	0.0157964
839.584	0.0157889
839.663	0.0158218
839.741	0.0158018
839.819	0.0156291
839.897	0.0156432
839.975	0.0157711
840.053	0.0157855
840.131	0.0157098
840.209	0.0157611
840.288	0.0155329
840.366	0.0157406
840.444	0.0156233
840.522	0.0157751
840.600	0.0158584
840.678	0.0156686
840.756	0.0157162
840.834	0.0158456
840.913	0.0157888
840.991	0.0157420
841.069	0.0157465
841.147	0.0159238
841.225	0.0158025
841.303	0.0158389
841.381	0.0157303
841.459	0.0157677
841.538	0.0157121
841.616	0.0157895
841.694	0.0157255
841.772	0.0157873
841.850	0.0158898
841.928	0.0156139
842.006	0.0156784
842.084	0.0158062
842.163	0.0154949
842.241	0.0155842
842.319	0.0155173
842.397	0.0155759
842.475	0.0155769
842.553	0.0155882
842.631	0.0156513
842.709	0.0153714
842.788	0.0153938
842.866	0.0155370
842.944	0.0155791
843.022	0.0156423
843.100	0.0156783
843.178	0.0156838
843.256	0.0157494
843.334	0.0157218
843.413	0.0157199
843.491	0.0157249
843.569	0.0158649
843.647	0.0159048
843.725	0.0158252
843.803	0.0158756
843.881	0.0156979
843.959	0.0156168
844.038	0.0157483
844.116	0.0158121
844.194	0.0158204
844.272	0.0157103
844.350	0.0157571
844.428	0.0156876
844.506	0.0158447
844.584	0.0158296
844.663	0.0157301
844.741	0.0158350
844.819	0.0159523
844.897	0.0158382
844.975	0.0159285
845.053	0.0158856
845.131	0.0158729
845.209	0.0160383
845.288	0.0159934
845.366	0.0159770
845.444	0.0160529
845.522	0.0159561
845.600	0.0157854
845.678	0.0157955
845.756	0.0158471
845.834	0.0158302
845.913	0.0158710
845.991	0.0156631
846.069	0.0156288
846.147	0.0158592
846.225	0.0158392
846.303	0.0156249
846.381	0.0156259
846.459	0.0155794
846.538	0.0155962
846.616	0.0155788
846.694	0.0155585
846.772	0.0154848
846.850	0.0154752
846.928	0.0154628
847.006	0.0154317
847.084	0.0153566
847.163	0.0153577
847.241	0.0152335
847.319	0.0152601
847.397	0.0151666
847.475	0.0152365
847.553	0.0152324
847.631	0.0152190
847.709	0.0150568
847.788	0.0152412
847.866	0.0152057
847.944	0.0151504
848.022	0.0153128
848.100	0.0153853
848.178	0.0153126
848.256	0.0153151
848.334	0.0151057
848.413	0.0152660
848.491	0.0154037
848.569	0.0154953
848.647	0.0153886
848.725	0.0153256
848.803	0.0155158
848.881	0.0155119
848.959	0.0154028
849.038	0.0154271
849.116	0.0156129
849.194	0.0154434
849.272	0.0155093
849.350	0.0155042
849.428	0.0155232
849.506	0.0154902
849.584	0.0155086
849.663	0.0153720
849.741	0.0155179
849.819	0.0153583
849.897	0.0155606
849.975	0.0156492
850.053	0.0155106
850.131	0.0156393
850.209	0.0155095
850.288	0.0154818
850.366	0.0153536
850.444	0.0156336
850.522	0.0155296
850.600	0.0155283
850.678	0.0156242
850.756	0.0155300
850.834	0.0154784
850.913	0.0155878
850.991	0.0154996
851.069	0.0155481
851.147	0.0155831
851.225	0.0155504
851.303	0.0155126
851.381	0.0156425
851.459	0.0155428
851.538	0.0154642
851.616	0.0156441
851.694	0.0155490
851.772	0.0155974
851.850	0.0156063
851.928	0.0157144
852.006	0.0155277
852.084	0.0155083
852.163	0.0154602
852.241	0.0156041
852.319	0.0155375
852.397	0.0154264
852.475	0.0154002
852.553	0.0153693
852.631	0.0153466
852.709	0.0154074
852.788	0.0154697
852.866	0.0154974
852.944	0.0152855
853.022	0.0153806
853.100	0.0153411
853.178	0.0154508
853.256	0.0153529
853.334	0.0154639
853.413	0.0153041
853.491	0.0153852
853.569	0.0152963
853.647	0.0153568
853.725	0.0154856
853.803	0.0154163
853.881	0.0154794
853.959	0.0153712
854.038	0.0155526
854.116	0.0156733
854.194	0.0157513
854.272	0.0156207
854.350	0.0156351
854.428	0.0155335
854.506	0.0157511
854.584	0.0156295
854.663	0.0156376
854.741	0.0155133
854.819	0.0155356
854.897	0.0155790
854.975	0.0156546
855.053	0.0155688
855.131	0.0154927
855.209	0.0154954
855.288	0.0155218
855.366	0.0155155
855.444	0.0152811
855.522	0.0154282
855.600	0.0155022
855.678	0.0154015
855.756	0.0155154
855.834	0.0154626
855.913	0.0155111
855.991	0.0155550
856.069	0.0155499
856.147	0.0154229
856.225	0.0154568
856.303	0.0154460
856.381	0.0155206
856.459	0.0154498
856.538	0.0155314
856.616	0.0155992
856.694	0.0154140
856.772	0.0156019
856.850	0.0155219
856.928	0.0155788
857.006	0.0156434
857.084	0.0155237
857.163	0.0156570
857.241	0.0157265
857.319	0.0157997
857.397	0.0156652
857.475	0.0156107
857.553	0.0158459
857.631	0.0156530
857.709	0.0157283
857.788	0.0156633
857.866	0.0155846
857.944	0.0156876
858.022	0.0157219
858.100	0.0156405
858.178	0.0155905
858.256	0.0156786
858.334	0.0157001
858.413	0.0154376
858.491	0.0155676
858.569	0.0154960
858.647	0.0154269
858.725	0.0155747
858.803	0.0155325
858.881	0.0153646
858.959	0.0155436
859.038	0.0154052
859.116	0.0154031
859.194	0.0155116
859.272	0.0155419
859.350	0.0155039
859.428	0.0154212
859.506	0.0154163
859.584	0.0154570
859.663	0.0154654
859.741	0.0153471
859.819	0.0155910
859.897	0.0155299
859.975	0.0154666
860.053	0.0154129
860.131	0.0155016
860.209	0.0155740
860.288	0.0155663
860.366	0.0155206
860.444	0.0155189
860.522	0.0154767
860.600	0.0154922
860.678	0.0154868
860.756	0.0153571
860.834	0.0153940
860.913	0.0153807
860.991	0.0154229
861.069	0.0154892
861.147	0.0153139
861.225	0.0154486
861.303	0.0154074
861.381	0.0155035
861.459	0.0153828
861.538	0.0154596
861.616	0.0153823
861.694	0.0155494
861.772	0.0153646
861.850	0.0154530
861.928	0.0155083
862.006	0.0153892
862.084	0.0154221
862.163	0.0155112
862.241	0.0154588
862.319	0.0154912
862.397	0.0155878
862.475	0.0154420
862.553	0.0154601
862.631	0.0155331
862.709	0.0156366
862.788	0.0155402
862.866	0.0156722
862.944	0.0155717
863.022	0.0158441
863.100	0.0157702
863.178	0.0157199
863.256	0.0156754
863.334	0.0157829
863.413	0.0157325
863.491	0.0158236
863.569	0.0159425
863.647	0.0158048
863.725	0.0157883
863.803	0.0158807
863.881	0.0158610
863.959	0.0157278
864.038	0.0157642
864.116	0.0158038
864.194	0.0157138
864.272	0.0156337
864.350	0.0156406
864.428	0.0156541
864.506	0.0157705
864.584	0.0155405
864.663	0.0156342
864.741	0.0156188
864.819	0.0154865
864.897	0.0155756
864.975	0.0154713
865.053	0.0154119
865.131	0.0154297
865.209	0.0154640
865.288	0.0155701
865.366	0.0156224
865.444	0.0154673
865.522	0.0153987
865.600	0.0155013
865.678	0.0155225
865.756	0.0156294
865.834	0.0156499
865.913	0.0156472
865.991	0.0157883
866.069	0.0157938
866.147	0.0157600
866.225	0.0157492
866.303	0.0158230
866.381	0.0158209
866.459	0.0158067
866.538	0.0159288
866.616	0.0160658
866.694	0.0158282
866.772	0.0159191
866.850	0.0158237
866.928	0.0158958
867.006	0.0159087
867.084	0.0157850
867.163	0.0155953
867.241	0.0156101
867.319	0.0156097
867.397	0.0156962
867.475	0.0157130
867.553	0.0157151
867.631	0.0156722
867.709	0.0157268
867.788	0.0156379
867.866	0.0155660
867.944	0.0155510
868.022	0.0155256
868.100	0.0154736
868.178	0.0155686
868.256	0.0154600
868.334	0.0154580
868.413	0.0154012
868.491	0.0154623
868.569	0.0154305
868.647	0.0153967
868.725	0.0154710
868.803	0.0155900
868.881	0.0154816
868.959	0.0155047
869.038	0.0155308
869.116	0.0154493
869.194	0.0156848
869.272	0.0155587
869.350	0.0156142
869.428	0.0157864
869.506	0.0155013
869.584	0.0156081
869.663	0.0156013
869.741	0.0156928
869.819	0.0156725
869.897	0.0156838
869.975	0.0156691
870.053	0.0156630
870.131	0.0157076
870.209	0.0156502
870.288	0.0156441
870.366	0.0158090
870.444	0.0158237
870.522	0.0156586
870.600	0.0157469
870.678	0.0157055
870.756	0.0155546
870.834	0.0156841
870.913	0.0157068
870.991	0.0158097
871.069	0.0156180
871.147	0.0157139
871.225	0.0156591
871.303	0.0156977
871.381	0.0155579
871.459	0.0156478
871.538	0.0154353
871.616	0.0154520
871.694	0.0156351
871.772	0.0154401
871.850	0.0154259
871.928	0.0154626
872.006	0.0156544
872.084	0.0154542
872.163	0.0154623
872.241	0.0155816
872.319	0.0156226
872.397	0.0155745
872.475	0.0155090
872.553	0.0156386
872.631	0.0155753
872.709	0.0156780
872.788	0.0155264
872.866	0.0156499
872.944	0.0155925
873.022	0.0155054
873.100	0.0155637
873.178	0.0155560
873.256	0.0156950
873.334	0.0157193
873.413	0.0156303
873.491	0.0157098
873.569	0.0156985
873.647	0.0156223
873.725	0.0157787
873.803	0.0157381
873.881	0.0157384
873.959	0.0157933
874.038	0.0157696
874.116	0.0157416
874.194	0.0157922
874.272	0.0158526
874.350	0.0157738
874.428	0.0157055
874.506	0.0156290
874.584	0.0156683
874.663	0.0157163
874.741	0.0156973
874.819	0.0156552
874.897	0.0156146
874.975	0.0157336
875.053	0.0156239
875.131	0.0155258
875.209	0.0156727
875.288	0.0155473
875.366	0.0156528
875.444	0.0157109
875.522	0.0156548
875.600	0.0155448
875.678	0.0155851
875.756	0.0155861
875.834	0.0155972
875.913	0.0156289
875.991	0.0156422
876.069	0.0155914
876.147	0.0156545
876.225	0.0156053
876.303	0.0154726
876.381	0.0154855
876.459	0.0156360
876.538	0.0155364
876.616	0.0153871
876.694	0.0155185
876.772	0.0154559
876.850	0.0153951
876.928	0.0153418
877.006	0.0154894
877.084	0.0155845
877.163	0.0156190
877.241	0.0155453
877.319	0.0153370
877.397	0.0155023
877.475	0.0154622
877.553	0.0154518
877.631	0.0155310
877.709	0.0155206
877.788	0.0154860
877.866	0.0154535
877.944	0.0154833
878.022	0.0155411
878.100	0.0156004
878.178	0.0155342
878.256	0.0156280
878.334	0.0154651
878.413	0.0154976
878.491	0.0155699
878.569	0.0154961
878.647	0.0156859
878.725	0.0156869
878.803	0.0156071
878.881	0.0155740
878.959	0.0155042
879.038	0.0158028
879.116	0.0156069
879.194	0.0155289
879.272	0.0154646
879.350	0.0155795
879.428	0.0155409
879.506	0.0155351
879.584	0.0154812
879.663	0.0154133
879.741	0.0155629
879.819	0.0154629
879.897	0.0154201
879.975	0.0153008
880.053	0.0153777
880.131	0.0154223
880.209	0.0153858
880.288	0.0154520
880.366	0.0155963
880.444	0.0155380
880.522	0.0156292
880.600	0.0154857
880.678	0.0155504
880.756	0.0156804
880.834	0.0156765
880.913	0.0160001
880.991	0.0158698
881.069	0.0159478
881.147	0.0159431
881.225	0.0159167
881.303	0.0159642
881.381	0.0160324
881.459	0.0159558
881.538	0.0158869
881.616	0.0159910
881.694	0.0160252
881.772	0.0159624
881.850	0.0160928
881.928	0.0158482
882.006	0.0158038
882.084	0.0158849
882.163	0.0158031
882.241	0.0156566
882.319	0.0157031
882.397	0.0156797
882.475	0.0154929
882.553	0.0154636
882.631	0.0153384
882.709	0.0153652
882.788	0.0153263
882.866	0.0152714
882.944	0.0153306
883.022	0.0152283
883.100	0.0152098
883.178	0.0152692
883.256	0.0154028
883.334	0.0153433
883.413	0.0151743
883.491	0.0153092
883.569	0.0152230
883.647	0.0152866
883.725	0.0153134
883.803	0.0154655
883.881	0.0154482
883.959	0.0153415
884.038	0.0154046
884.116	0.0154807
884.194	0.0154259
884.272	0.0154930
884.350	0.0155343
884.428	0.0154169
884.506	0.0155839
884.584	0.0153764
884.663	0.0153303
884.741	0.0154644
884.819	0.0154111
884.897	0.0155095
884.975	0.0153210
885.053	0.0156063
885.131	0.0155177
885.209	0.0154298
885.288	0.0155097
885.366	0.0154892
885.444	0.0154794
885.522	0.0154579
885.600	0.0154869
885.678	0.0155093
885.756	0.0155096
885.834	0.0155628
885.913	0.0153461
885.991	0.0155024
886.069	0.0155372
886.147	0.0155225
886.225	0.0154305
886.303	0.0156393
886.381	0.0156390
886.459	0.0155311
886.538	0.0156808
886.616	0.0155160
886.694	0.0153717
886.772	0.0155980
886.850	0.0156703
886.928	0.0156304
887.006	0.0156444
887.084	0.0156452
887.163	0.0155299
887.241	0.0154398
887.319	0.0155773
887.397	0.0154605
887.475	0.0154473
887.553	0.0155093
887.631	0.0154746
887.709	0.0154132
887.788	0.0153742
887.866	0.0153631
887.944	0.0154529
888.022	0.0152615
888.100	0.0154202
888.178	0.0153384
888.256	0.0153698
888.334	0.0153210
888.413	0.0154387
888.491	0.0153590
888.569	0.0153739
888.647	0.0154424
888.725	0.0155167
888.803	0.0156344
888.881	0.0157346
888.959	0.0158357
889.038	0.0158345
889.116	0.0157473
889.194	0.0158427
889.272	0.0157942
889.350	0.0158189
889.428	0.0158273
889.506	0.0157793
889.584	0.0157256
889.663	0.0157323
889.741	0.0157380
889.819	0.0156155
889.897	0.0157390
889.975	0.0157111
890.053	0.0157302
890.131	0.0156182
890.209	0.0156270
890.288	0.0155649
890.366	0.0155324
890.444	0.0156767
890.522	0.0157965
890.600	0.0156416
890.678	0.0156586
890.756	0.0157549
890.834	0.0158680
890.913	0.0156852
890.991	0.0157485
891.069	0.0158025
891.147	0.0159805
891.225	0.0159206
891.303	0.0158533
891.381	0.0157697
891.459	0.0159539
891.538	0.0160046
891.616	0.0158398
891.694	0.0158332
891.772	0.0157580
891.850	0.0156674
891.928	0.0156743
892.006	0.0156268
892.084	0.0156496
892.163	0.0156763
892.241	0.0155586
892.319	0.0154772
892.397	0.0154197
892.475	0.0152493
892.553	0.0154099
892.631	0.0153902
892.709	0.0154169
892.788	0.0155196
892.866	0.0154285
892.944	0.0154713
893.022	0.0157641
893.100	0.0156191
893.178	0.0155933
893.256	0.0157651
893.334	0.0157989
893.413	0.0158308
893.491	0.0158505
893.569	0.0157816
893.647	0.0159324
893.725	0.0158266
893.803	0.0158111
893.881	0.0155922
893.959	0.0155208
894.038	0.0156570
894.116	0.0157716
894.194	0.0158058
894.272	0.0156473
894.350	0.0156362
894.428	0.0155724
894.506	0.0155402
894.584	0.0156757
894.663	0.0156242
894.741	0.0155009
894.819	0.0153596
894.897	0.0155354
894.975	0.0156259
895.053	0.0153485
895.131	0.0154654
895.209	0.0155799
895.288	0.0154253
895.366	0.0153970
895.444	0.0154530
895.522	0.0153529
895.600	0.0153952
895.678	0.0154322
895.756	0.0153571
895.834	0.0154464
895.913	0.0155335
895.991	0.0155180
896.069	0.0156110
896.147	0.0156801
896.225	0.0156559
896.303	0.0156227
896.381	0.0157202
896.459	0.0158479
896.538	0.0159027
896.616	0.0158138
896.694	0.0158998
896.772	0.0159078
896.850	0.0159709
896.928	0.0159721
897.006	0.0158210
897.084	0.0158024
897.163	0.0157845
897.241	0.0156396
897.319	0.0157759
897.397	0.0157906
897.475	0.0156708
897.553	0.0157845
897.631	0.0156725
897.709	0.0157005
897.788	0.0155978
897.866	0.0155973
897.944	0.0156189
898.022	0.0156242
898.100	0.0155161
898.178	0.0156956
898.256	0.0156402
898.334	0.0155276
898.413	0.0155959
898.491	0.0154981
898.569	0.0155193
898.647	0.0156607
898.725	0.0155962
898.803	0.0155047
898.881	0.0156664
898.959	0.0155699
899.038	0.0155112
899.116	0.0156287
899.194	0.0157938
899.272	0.0156978
899.350	0.0158035
899.428	0.0160023
899.506	0.0158572
899.584	0.0159648
899.663	0.0159493
899.741	0.0160371
899.819	0.0160970
899.897	0.0158698
899.975	0.0159303
900.053	0.0158180
900.131	0.0159715
900.209	0.0157591
900.288	0.0158150
900.366	0.0157181
900.444	0.0157611
900.522	0.0154272
900.600	0.0154094
900.678	0.0153831
900.756	0.0154488
900.834	0.0153374
900.913	0.0150748
900.991	0.0152248
901.069	0.0150522
901.147	0.0149563
901.225	0.0150132
901.303	0.0151944
901.381	0.0151258
901.459	0.0150977
901.538	0.0151698
901.616	0.0153593
901.694	0.0153767
901.772	0.0154462
901.850	0.0154562
901.928	0.0155462
902.006	0.0156693
902.084	0.0156283
902.163	0.0157021
902.241	0.0157345
902.319	0.0156808
902.397	0.0157835
902.475	0.0159135
902.553	0.0158549
902.631	0.0159658
902.709	0.0159511
902.788	0.0158847
902.866	0.0158514
902.944	0.0159624
903.022	0.0159319
903.100	0.0158248
903.178	0.0156913
903.256	0.0158014
903.334	0.0157032
903.413	0.0156281
903.491	0.0156525
903.569	0.0156969
903.647	0.0155904
903.725	0.0156935
903.803	0.0155165
903.881	0.0154633
903.959	0.0155489
904.038	0.0153979
904.116	0.0154360
904.194	0.0154062
904.272	0.0154523
904.350	0.0154910
904.428	0.0154208
904.506	0.0154176
904.584	0.0154600
904.663	0.0153317
904.741	0.0153521
904.819	0.0153653
904.897	0.0154951
904.975	0.0154757
905.053	0.0154301
905.131	0.0157635
905.209	0.0154921
905.288	0.0154764
905.366	0.0155875
905.444	0.0156408
905.522	0.0156447
905.600	0.0156435
905.678	0.0156577
905.756	0.0156660
905.834	0.0157133
905.913	0.0156490
905.991	0.0158225
906.069	0.0157904
906.147	0.0157530
906.225	0.0157566
906.303	0.0157648
906.381	0.0158027
906.459	0.0156602
906.538	0.0156957
906.616	0.0156364
906.694	0.0156618
906.772	0.0156571
906.850	0.0155748
906.928	0.0154828
907.006	0.0155543
907.084	0.0154858
907.163	0.0156062
907.241	0.0156561
907.319	0.0155242
907.397	0.0153388
907.475	0.0153831
907.553	0.0155106
907.631	0.0154942
907.709	0.0154454
907.788	0.0154410
907.866	0.0154836
907.944	0.0154281
908.022	0.0154390
908.100	0.0155059
908.178	0.0155828
908.256	0.0156559
908.334	0.0154292
908.413	0.0156256
908.491	0.0155862
908.569	0.0154787
908.647	0.0156535
908.725	0.0156873
908.803	0.0156062
908.881	0.0156070
908.959	0.0157491
909.038	0.0154617
909.116	0.0154333
909.194	0.0155998
909.272	0.0155997
909.350	0.0154366
909.428	0.0155037
909.506	0.0155424
909.584	0.0153719
909.663	0.0152962
909.741	0.0154682
909.819	0.0155169
909.897	0.0155585
909.975	0.0155931
910.053	0.0155612
910.131	0.0156277
910.209	0.0156168
910.288	0.0157159
910.366	0.0156555
910.444	0.0156576
910.522	0.0156689
910.600	0.0156475
910.678	0.0155856
910.756	0.0153985
910.834	0.0155376
910.913	0.0152576
910.991	0.0152056
911.069	0.0152191
911.147	0.0152155
911.225	0.0151742
911.303	0.0151051
911.381	0.0151163
911.459	0.0152036
911.538	0.0152070
911.616	0.0153101
911.694	0.0154351
911.772	0.0154152
911.850	0.0155202
911.928	0.0155962
912.006	0.0155276
912.084	0.0157624
912.163	0.0157899
912.241	0.0157537
912.319	0.0159692
912.397	0.0158733
912.475	0.0158795
912.553	0.0157353
912.631	0.0156937
912.709	0.0157394
912.788	0.0157468
912.866	0.0157537
912.944	0.0155557
913.022	0.0154982
913.100	0.0155952
913.178	0.0157021
913.256	0.0154712
913.334	0.0155181
913.413	0.0155376
913.491	0.0155170
913.569	0.0154784
913.647	0.0154078
913.725	0.0154964
913.803	0.0154354
913.881	0.0154412
913.959	0.0153465
914.038	0.0152212
914.116	0.0154956
914.194	0.0153765
914.272	0.0154507
914.350	0.0153524
914.428	0.0155041
914.506	0.0156087
914.584	0.0154953
914.663	0.0153710
914.741	0.0154861
914.819	0.0155656
914.897	0.0156319
914.975	0.0156207
915.053	0.0155998
915.131	0.0157001
915.209	0.0156731
915.288	0.0156095
915.366	0.0157575
915.444	0.0156928
915.522	0.0156519
915.600	0.0157577
915.678	0.0155923
915.756	0.0155783
915.834	0.0155872
915.913	0.0155811
915.991	0.0155502
916.069	0.0155692
916.147	0.0156005
916.225	0.0155942
916.303	0.0155350
916.381	0.0156432
916.459	0.0155202
916.538	0.0157205
916.616	0.0154900
916.694	0.0153540
916.772	0.0153773
916.850	0.0153485
916.928	0.0153567
917.006	0.0153019
917.084	0.0153782
917.163	0.0154163
917.241	0.0153569
917.319	0.0152880
917.397	0.0153088
917.475	0.0153761
917.553	0.0153730
917.631	0.0153957
917.709	0.0154132
917.788	0.0154132
917.866	0.0155549
917.944	0.0156042
918.022	0.0153810
918.100	0.0154922
918.178	0.0157388
918.256	0.0155820
918.334	0.0156606
918.413	0.0156738
918.491	0.0155925
918.569	0.0156141
918.647	0.0157536
918.725	0.0156154
918.803	0.0156795
918.881	0.0156628
918.959	0.0157515
919.038	0.0158298
919.116	0.0157729
919.194	0.0157034
919.272	0.0157616
919.350	0.0158311
919.428	0.0157946
919.506	0.0158309
919.584	0.0158799
919.663	0.0159464
919.741	0.0158955
919.819	0.0159830
919.897	0.0158324
