05/20/2022	21:06:53	Ver.	4.1	UNKNOWN
Optical Delay	599.975067	Delta X		0.078125	Sweeps	1	Scan Rate	0/0
Coordinates	Axis 1	NaN	Axis 2	NaN	Axis 3	NaN	Axis 4	NaN	Axis 5	NaN	Axis 6	0.000000
TX Power	0.000000	RX Power	0.000000

599.975	0.0152418
600.053	0.0150632
600.131	0.0149851
600.209	0.0151689
600.288	0.0151318
600.366	0.0151490
600.444	0.0151617
600.522	0.0152125
600.600	0.0151990
600.678	0.0151147
600.756	0.0151828
600.834	0.0152312
600.913	0.0153371
600.991	0.0153422
601.069	0.0151216
601.147	0.0152476
601.225	0.0151126
601.303	0.0152924
601.381	0.0153472
601.459	0.0152152
601.538	0.0152841
601.616	0.0152071
601.694	0.0153857
601.772	0.0152969
601.850	0.0152523
601.928	0.0151183
602.006	0.0152003
602.084	0.0151774
602.163	0.0151472
602.241	0.0153760
602.319	0.0152946
602.397	0.0152351
602.475	0.0151866
602.553	0.0152535
602.631	0.0153103
602.709	0.0151370
602.788	0.0152149
602.866	0.0152661
602.944	0.0152222
603.022	0.0153637
603.100	0.0152817
603.178	0.0152334
603.256	0.0152641
603.334	0.0153062
603.413	0.0152599
603.491	0.0153360
603.569	0.0153202
603.647	0.0152926
603.725	0.0152473
603.803	0.0151693
603.881	0.0153160
603.959	0.0153738
604.038	0.0152792
604.116	0.0152497
604.194	0.0152946
604.272	0.0151423
604.350	0.0152669
604.428	0.0152031
604.506	0.0151514
604.584	0.0152100
604.663	0.0152497
604.741	0.0152634
604.819	0.0154448
604.897	0.0152438
604.975	0.0151819
605.053	0.0152567
605.131	0.0152373
605.209	0.0151395
605.288	0.0153822
605.366	0.0153309
605.444	0.0152470
605.522	0.0153596
605.600	0.0152677
605.678	0.0153237
605.756	0.0152448
605.834	0.0152528
605.913	0.0152836
605.991	0.0152892
606.069	0.0151674
606.147	0.0152009
606.225	0.0154161
606.303	0.0151900
606.381	0.0152224
606.459	0.0153153
606.538	0.0153127
606.616	0.0152363
606.694	0.0152838
606.772	0.0151156
606.850	0.0152795
606.928	0.0153285
607.006	0.0152728
607.084	0.0152094
607.163	0.0152796
607.241	0.0152357
607.319	0.0152483
607.397	0.0152171
607.475	0.0152275
607.553	0.0153860
607.631	0.0153171
607.709	0.0152235
607.788	0.0152062
607.866	0.0152477
607.944	0.0154402
608.022	0.0153551
608.100	0.0152621
608.178	0.0152904
608.256	0.0152628
608.334	0.0154210
608.413	0.0152005
608.491	0.0152076
608.569	0.0152438
608.647	0.0153070
608.725	0.0153294
608.803	0.0152168
608.881	0.0152319
608.959	0.0152464
609.038	0.0153689
609.116	0.0152884
609.194	0.0150714
609.272	0.0152570
609.350	0.0153501
609.428	0.0152653
609.506	0.0152861
609.584	0.0151405
609.663	0.0152957
609.741	0.0153090
609.819	0.0152784
609.897	0.0152805
609.975	0.0151849
610.053	0.0154026
610.131	0.0153864
610.209	0.0151348
610.288	0.0153503
610.366	0.0153898
610.444	0.0152773
610.522	0.0153071
610.600	0.0152626
610.678	0.0152541
610.756	0.0152820
610.834	0.0151723
610.913	0.0152911
610.991	0.0154340
611.069	0.0152882
611.147	0.0153180
611.225	0.0152080
611.303	0.0153240
611.381	0.0153149
611.459	0.0152691
611.538	0.0153148
611.616	0.0152753
611.694	0.0154115
611.772	0.0151659
611.850	0.0154208
611.928	0.0151804
612.006	0.0152032
612.084	0.0154190
612.163	0.0153307
612.241	0.0153181
612.319	0.0152822
612.397	0.0152533
612.475	0.0152789
612.553	0.0153470
612.631	0.0153590
612.709	0.0151402
612.788	0.0152757
612.866	0.0153664
612.944	0.0151728
613.022	0.0153168
613.100	0.0154531
613.178	0.0152054
613.256	0.0153666
613.334	0.0152698
613.413	0.0152909
613.491	0.0152487
613.569	0.0153086
613.647	0.0152177
613.725	0.0151847
613.803	0.0151008
613.881	0.0151524
613.959	0.0152576
614.038	0.0151913
614.116	0.0152286
614.194	0.0151814
614.272	0.0152417
614.350	0.0151674
614.428	0.0152502
614.506	0.0152036
614.584	0.0152566
614.663	0.0153040
614.741	0.0152596
614.819	0.0151838
614.897	0.0151930
614.975	0.0152313
615.053	0.0152755
615.131	0.0152908
615.209	0.0152930
615.288	0.0151723
615.366	0.0151199
615.444	0.0152321
615.522	0.0152883
615.600	0.0151775
615.678	0.0150949
615.756	0.0152127
615.834	0.0153063
615.913	0.0150603
615.991	0.0152556
616.069	0.0151456
616.147	0.0150766
616.225	0.0151102
616.303	0.0153042
616.381	0.0150765
616.459	0.0152098
616.538	0.0151747
616.616	0.0152691
616.694	0.0151132
616.772	0.0153510
616.850	0.0152127
616.928	0.0150357
617.006	0.0150647
617.084	0.0150889
617.163	0.0151670
617.241	0.0152411
617.319	0.0151851
617.397	0.0152412
617.475	0.0151856
617.553	0.0150823
617.631	0.0152168
617.709	0.0152077
617.788	0.0150346
617.866	0.0151283
617.944	0.0153648
618.022	0.0151045
618.100	0.0151286
618.178	0.0151318
618.256	0.0151225
618.334	0.0151357
618.413	0.0151436
618.491	0.0152728
618.569	0.0152241
618.647	0.0152029
618.725	0.0150898
618.803	0.0151544
618.881	0.0153129
618.959	0.0151940
619.038	0.0152398
619.116	0.0151733
619.194	0.0151912
619.272	0.0153024
619.350	0.0152987
619.428	0.0152272
619.506	0.0152091
619.584	0.0152243
619.663	0.0152259
619.741	0.0152291
619.819	0.0152149
619.897	0.0151914
619.975	0.0151271
620.053	0.0152786
620.131	0.0152727
620.209	0.0152538
620.288	0.0152077
620.366	0.0151816
620.444	0.0152173
620.522	0.0151982
620.600	0.0152808
620.678	0.0152897
620.756	0.0153209
620.834	0.0151781
620.913	0.0152332
620.991	0.0152420
621.069	0.0151639
621.147	0.0152296
621.225	0.0152619
621.303	0.0152520
621.381	0.0153143
621.459	0.0152715
621.538	0.0153172
621.616	0.0153880
621.694	0.0152732
621.772	0.0152349
621.850	0.0154647
621.928	0.0153196
622.006	0.0150916
622.084	0.0152487
622.163	0.0153371
622.241	0.0152629
622.319	0.0151481
622.397	0.0151138
622.475	0.0151616
622.553	0.0153080
622.631	0.0153287
622.709	0.0152028
622.788	0.0151321
622.866	0.0151838
622.944	0.0151917
623.022	0.0152138
623.100	0.0152719
623.178	0.0152299
623.256	0.0150499
623.334	0.0152185
623.413	0.0152583
623.491	0.0152023
623.569	0.0152964
623.647	0.0153126
623.725	0.0153967
623.803	0.0152262
623.881	0.0152882
623.959	0.0154002
624.038	0.0152188
624.116	0.0152198
624.194	0.0151815
624.272	0.0152001
624.350	0.0152935
624.428	0.0152727
624.506	0.0153078
624.584	0.0151453
624.663	0.0152802
624.741	0.0153373
624.819	0.0152899
624.897	0.0153472
624.975	0.0152293
625.053	0.0152439
625.131	0.0151555
625.209	0.0152603
625.288	0.0151968
625.366	0.0153185
625.444	0.0151971
625.522	0.0152283
625.600	0.0153752
625.678	0.0153299
625.756	0.0152745
625.834	0.0151759
625.913	0.0152920
625.991	0.0153973
626.069	0.0152744
626.147	0.0151912
626.225	0.0153271
626.303	0.0152809
626.381	0.0153192
626.459	0.0154448
626.538	0.0152474
626.616	0.0152440
626.694	0.0153372
626.772	0.0152328
626.850	0.0152484
626.928	0.0152027
627.006	0.0153788
627.084	0.0153172
627.163	0.0152395
627.241	0.0151713
627.319	0.0152724
627.397	0.0151870
627.475	0.0150573
627.553	0.0151804
627.631	0.0150976
627.709	0.0152888
627.788	0.0153706
627.866	0.0152215
627.944	0.0152123
628.022	0.0153745
628.100	0.0152827
628.178	0.0153569
628.256	0.0153069
628.334	0.0153333
628.413	0.0152628
628.491	0.0154042
628.569	0.0152304
628.647	0.0152514
628.725	0.0153639
628.803	0.0153189
628.881	0.0153849
628.959	0.0152254
629.038	0.0153668
629.116	0.0152397
629.194	0.0152519
629.272	0.0153308
629.350	0.0153496
629.428	0.0154422
629.506	0.0154674
629.584	0.0153866
629.663	0.0153065
629.741	0.0153596
629.819	0.0152821
629.897	0.0154052
629.975	0.0152920
630.053	0.0153117
630.131	0.0152451
630.209	0.0153632
630.288	0.0153371
630.366	0.0152140
630.444	0.0153555
630.522	0.0151931
630.600	0.0153513
630.678	0.0153447
630.756	0.0152025
630.834	0.0153350
630.913	0.0153974
630.991	0.0153600
631.069	0.0152116
631.147	0.0152382
631.225	0.0152710
631.303	0.0153344
631.381	0.0153889
631.459	0.0153047
631.538	0.0151422
631.616	0.0152345
631.694	0.0152946
631.772	0.0152283
631.850	0.0152540
631.928	0.0152480
632.006	0.0153118
632.084	0.0153263
632.163	0.0152307
632.241	0.0153428
632.319	0.0153791
632.397	0.0152184
632.475	0.0152917
632.553	0.0152844
632.631	0.0152393
632.709	0.0153999
632.788	0.0151352
632.866	0.0153804
632.944	0.0154361
633.022	0.0152656
633.100	0.0153209
633.178	0.0153677
633.256	0.0153966
633.334	0.0152196
633.413	0.0152951
633.491	0.0153053
633.569	0.0154214
633.647	0.0153299
633.725	0.0152521
633.803	0.0152870
633.881	0.0153645
633.959	0.0153860
634.038	0.0153590
634.116	0.0153923
634.194	0.0152932
634.272	0.0153339
634.350	0.0152399
634.428	0.0152515
634.506	0.0153465
634.584	0.0153834
634.663	0.0151534
634.741	0.0152493
634.819	0.0153757
634.897	0.0152544
634.975	0.0152435
635.053	0.0152844
635.131	0.0152576
635.209	0.0151313
635.288	0.0152374
635.366	0.0152254
635.444	0.0152541
635.522	0.0151550
635.600	0.0153597
635.678	0.0153947
635.756	0.0152334
635.834	0.0151547
635.913	0.0152177
635.991	0.0152259
636.069	0.0153243
636.147	0.0151942
636.225	0.0153271
636.303	0.0153413
636.381	0.0152762
636.459	0.0151826
636.538	0.0152463
636.616	0.0153225
636.694	0.0152988
636.772	0.0152026
636.850	0.0152973
636.928	0.0151308
637.006	0.0150705
637.084	0.0153789
637.163	0.0153896
637.241	0.0151761
637.319	0.0151509
637.397	0.0152391
637.475	0.0151536
637.553	0.0152726
637.631	0.0153446
637.709	0.0153137
637.788	0.0153033
637.866	0.0152236
637.944	0.0152505
638.022	0.0152380
638.100	0.0152968
638.178	0.0153265
638.256	0.0152515
638.334	0.0151850
638.413	0.0152305
638.491	0.0152311
638.569	0.0152216
638.647	0.0151678
638.725	0.0151321
638.803	0.0150658
638.881	0.0152475
638.959	0.0150812
639.038	0.0151153
639.116	0.0150196
639.194	0.0150258
639.272	0.0150666
639.350	0.0152125
639.428	0.0151580
639.506	0.0150195
639.584	0.0150893
639.663	0.0150236
639.741	0.0151523
639.819	0.0149706
639.897	0.0150794
639.975	0.0151033
640.053	0.0151299
640.131	0.0150816
640.209	0.0150912
640.288	0.0152248
640.366	0.0152794
640.444	0.0151373
640.522	0.0152909
640.600	0.0152389
640.678	0.0151079
640.756	0.0152638
640.834	0.0151835
640.913	0.0151559
640.991	0.0152798
641.069	0.0152404
641.147	0.0152342
641.225	0.0152187
641.303	0.0151411
641.381	0.0151499
641.459	0.0150946
641.538	0.0151242
641.616	0.0152119
641.694	0.0150540
641.772	0.0152373
641.850	0.0152094
641.928	0.0150350
642.006	0.0151264
642.084	0.0151926
642.163	0.0150928
642.241	0.0151073
642.319	0.0150744
642.397	0.0151457
642.475	0.0150111
642.553	0.0151347
642.631	0.0150439
642.709	0.0150542
642.788	0.0151316
642.866	0.0151721
642.944	0.0151270
643.022	0.0151584
643.100	0.0152171
643.178	0.0150011
643.256	0.0151013
643.334	0.0150676
643.413	0.0150167
643.491	0.0152142
643.569	0.0151738
643.647	0.0150765
643.725	0.0151134
643.803	0.0151054
643.881	0.0151233
643.959	0.0150387
644.038	0.0151365
644.116	0.0150775
644.194	0.0151933
644.272	0.0152049
644.350	0.0152872
644.428	0.0152423
644.506	0.0152771
644.584	0.0153098
644.663	0.0152485
644.741	0.0153708
644.819	0.0153141
644.897	0.0155517
644.975	0.0154778
645.053	0.0152909
645.131	0.0153797
645.209	0.0153951
645.288	0.0153911
645.366	0.0153699
645.444	0.0153933
645.522	0.0154563
645.600	0.0153748
645.678	0.0154283
645.756	0.0153598
645.834	0.0153191
645.913	0.0153420
645.991	0.0152898
646.069	0.0153241
646.147	0.0151788
646.225	0.0151594
646.303	0.0151600
646.381	0.0151524
646.459	0.0152301
646.538	0.0151096
646.616	0.0151762
646.694	0.0152185
646.772	0.0151507
646.850	0.0151469
646.928	0.0151777
647.006	0.0150912
647.084	0.0150423
647.163	0.0150928
647.241	0.0149334
647.319	0.0151283
647.397	0.0150903
647.475	0.0151138
647.553	0.0150858
647.631	0.0152149
647.709	0.0152284
647.788	0.0152328
647.866	0.0152480
647.944	0.0151429
648.022	0.0153162
648.100	0.0153135
648.178	0.0154433
648.256	0.0153409
648.334	0.0153230
648.413	0.0153094
648.491	0.0154527
648.569	0.0154298
648.647	0.0153648
648.725	0.0153789
648.803	0.0155125
648.881	0.0154232
648.959	0.0153577
649.038	0.0155547
649.116	0.0156364
649.194	0.0154410
649.272	0.0155831
649.350	0.0154695
649.428	0.0153795
649.506	0.0154012
649.584	0.0154266
649.663	0.0152413
649.741	0.0152221
649.819	0.0153314
649.897	0.0151383
649.975	0.0151761
650.053	0.0151061
650.131	0.0150170
650.209	0.0151217
650.288	0.0151299
650.366	0.0150234
650.444	0.0150340
650.522	0.0149834
650.600	0.0151304
650.678	0.0151469
650.756	0.0151196
650.834	0.0151075
650.913	0.0150862
650.991	0.0151398
651.069	0.0152246
651.147	0.0151176
651.225	0.0151422
651.303	0.0151556
651.381	0.0151149
651.459	0.0151662
651.538	0.0152556
651.616	0.0153314
651.694	0.0153047
651.772	0.0152350
651.850	0.0152951
651.928	0.0152834
652.006	0.0152641
652.084	0.0152401
652.163	0.0152726
652.241	0.0153225
652.319	0.0153674
652.397	0.0153468
652.475	0.0153532
652.553	0.0153494
652.631	0.0154140
652.709	0.0154462
652.788	0.0155687
652.866	0.0155520
652.944	0.0153809
653.022	0.0154865
653.100	0.0155103
653.178	0.0153830
653.256	0.0153300
653.334	0.0153960
653.413	0.0153629
653.491	0.0152466
653.569	0.0153072
653.647	0.0151836
653.725	0.0151081
653.803	0.0151614
653.881	0.0151865
653.959	0.0150720
654.038	0.0149880
654.116	0.0150912
654.194	0.0149595
654.272	0.0148370
654.350	0.0148438
654.428	0.0148539
654.506	0.0149109
654.584	0.0148927
654.663	0.0148837
654.741	0.0148930
654.819	0.0150472
654.897	0.0151063
654.975	0.0150127
655.053	0.0150809
655.131	0.0151014
655.209	0.0151994
655.288	0.0152441
655.366	0.0153033
655.444	0.0151828
655.522	0.0153724
655.600	0.0153835
655.678	0.0152246
655.756	0.0152531
655.834	0.0153555
655.913	0.0152985
655.991	0.0152313
656.069	0.0152386
656.147	0.0151806
656.225	0.0152628
656.303	0.0152259
656.381	0.0151492
656.459	0.0150925
656.538	0.0153331
656.616	0.0152238
656.694	0.0151706
656.772	0.0152029
656.850	0.0152212
656.928	0.0152135
657.006	0.0152383
657.084	0.0151910
657.163	0.0152942
657.241	0.0151937
657.319	0.0152557
657.397	0.0152447
657.475	0.0151854
657.553	0.0153115
657.631	0.0152941
657.709	0.0152776
657.788	0.0152248
657.866	0.0152676
657.944	0.0152833
658.022	0.0152020
658.100	0.0151726
658.178	0.0152888
658.256	0.0151408
658.334	0.0151303
658.413	0.0150716
658.491	0.0150964
658.569	0.0150892
658.647	0.0151215
658.725	0.0150871
658.803	0.0149195
658.881	0.0150532
658.959	0.0149361
659.038	0.0149961
659.116	0.0150186
659.194	0.0151147
659.272	0.0151975
659.350	0.0151626
659.428	0.0152998
659.506	0.0152351
659.584	0.0152622
659.663	0.0150593
659.741	0.0153105
659.819	0.0154693
659.897	0.0153223
659.975	0.0153196
660.053	0.0154015
660.131	0.0154063
660.209	0.0152238
660.288	0.0153021
660.366	0.0153510
660.444	0.0152731
660.522	0.0152418
660.600	0.0152193
660.678	0.0152312
660.756	0.0151151
660.834	0.0150801
660.913	0.0150774
660.991	0.0151540
661.069	0.0149941
661.147	0.0150971
661.225	0.0151026
661.303	0.0150114
661.381	0.0150565
661.459	0.0150294
661.538	0.0150721
661.616	0.0150124
661.694	0.0149877
661.772	0.0150037
661.850	0.0149860
661.928	0.0150084
662.006	0.0151591
662.084	0.0150523
662.163	0.0151382
662.241	0.0151586
662.319	0.0151454
662.397	0.0151126
662.475	0.0150731
662.553	0.0152547
662.631	0.0150771
662.709	0.0150017
662.788	0.0152453
662.866	0.0151307
662.944	0.0150529
663.022	0.0151127
663.100	0.0151013
663.178	0.0151952
663.256	0.0151291
663.334	0.0151423
663.413	0.0150685
663.491	0.0150525
663.569	0.0150735
663.647	0.0150999
663.725	0.0149534
663.803	0.0151495
663.881	0.0151524
663.959	0.0150492
664.038	0.0150574
664.116	0.0148098
664.194	0.0149915
664.272	0.0150832
664.350	0.0150884
664.428	0.0150040
664.506	0.0150298
664.584	0.0150796
664.663	0.0151765
664.741	0.0152184
664.819	0.0150957
664.897	0.0151740
664.975	0.0151754
665.053	0.0151627
665.131	0.0151373
665.209	0.0153371
665.288	0.0152021
665.366	0.0152280
665.444	0.0152715
665.522	0.0151991
665.600	0.0152444
665.678	0.0153233
665.756	0.0152042
665.834	0.0151839
665.913	0.0152917
665.991	0.0152329
666.069	0.0152801
666.147	0.0152947
666.225	0.0150250
666.303	0.0151385
666.381	0.0153106
666.459	0.0151034
666.538	0.0151302
666.616	0.0150780
666.694	0.0151183
666.772	0.0151082
666.850	0.0152084
666.928	0.0152450
667.006	0.0151615
667.084	0.0152024
667.163	0.0151962
667.241	0.0152576
667.319	0.0152386
667.397	0.0152497
667.475	0.0152454
667.553	0.0153621
667.631	0.0154117
667.709	0.0153774
667.788	0.0153501
667.866	0.0153822
667.944	0.0152400
668.022	0.0153107
668.100	0.0154233
668.178	0.0153888
668.256	0.0152654
668.334	0.0154444
668.413	0.0153170
668.491	0.0152407
668.569	0.0151997
668.647	0.0152334
668.725	0.0153214
668.803	0.0151570
668.881	0.0150964
668.959	0.0149981
669.038	0.0150603
669.116	0.0150590
669.194	0.0150402
669.272	0.0150813
669.350	0.0150236
669.428	0.0149558
669.506	0.0151379
669.584	0.0149733
669.663	0.0151026
669.741	0.0151486
669.819	0.0151922
669.897	0.0151985
669.975	0.0153819
670.053	0.0153184
670.131	0.0153175
670.209	0.0154911
670.288	0.0154449
670.366	0.0155372
670.444	0.0154382
670.522	0.0154153
670.600	0.0153942
670.678	0.0155345
670.756	0.0153748
670.834	0.0154379
670.913	0.0153938
670.991	0.0153496
671.069	0.0152361
671.147	0.0152135
671.225	0.0151663
671.303	0.0150667
671.381	0.0151785
671.459	0.0152232
671.538	0.0151382
671.616	0.0150750
671.694	0.0150950
671.772	0.0152332
671.850	0.0153056
671.928	0.0151102
672.006	0.0153027
672.084	0.0151604
672.163	0.0153764
672.241	0.0152734
672.319	0.0152420
672.397	0.0151720
672.475	0.0151427
672.553	0.0152368
672.631	0.0151722
672.709	0.0152412
672.788	0.0151209
672.866	0.0153059
672.944	0.0152833
673.022	0.0151967
673.100	0.0151794
673.178	0.0151473
673.256	0.0150700
673.334	0.0151257
673.413	0.0150150
673.491	0.0152676
673.569	0.0150065
673.647	0.0151149
673.725	0.0150692
673.803	0.0151483
673.881	0.0152316
673.959	0.0152955
674.038	0.0151925
674.116	0.0153771
674.194	0.0152943
674.272	0.0151993
674.350	0.0154261
674.428	0.0152770
674.506	0.0153167
674.584	0.0152721
674.663	0.0153689
674.741	0.0152792
674.819	0.0153263
674.897	0.0153970
674.975	0.0153244
675.053	0.0152809
675.131	0.0153841
675.209	0.0153967
675.288	0.0153973
675.366	0.0153889
675.444	0.0154583
675.522	0.0154183
675.600	0.0154976
675.678	0.0154241
675.756	0.0153551
675.834	0.0155239
675.913	0.0153001
675.991	0.0154698
676.069	0.0152254
676.147	0.0151620
676.225	0.0153119
676.303	0.0152488
676.381	0.0152002
676.459	0.0149704
676.538	0.0149776
676.616	0.0149159
676.694	0.0151279
676.772	0.0149553
676.850	0.0149126
676.928	0.0149942
677.006	0.0148595
677.084	0.0151155
677.163	0.0151368
677.241	0.0150946
677.319	0.0152551
677.397	0.0152381
677.475	0.0153414
677.553	0.0154733
677.631	0.0156306
677.709	0.0156886
677.788	0.0159142
677.866	0.0158671
677.944	0.0158399
678.022	0.0159029
678.100	0.0159180
678.178	0.0160654
678.256	0.0158439
678.334	0.0158217
678.413	0.0158124
678.491	0.0157573
678.569	0.0155287
678.647	0.0153162
678.725	0.0151062
678.803	0.0150739
678.881	0.0147118
678.959	0.0146211
679.038	0.0144835
679.116	0.0144346
679.194	0.0140829
679.272	0.0140168
679.350	0.0139127
679.428	0.0140668
679.506	0.0140218
679.584	0.0139891
679.663	0.0142852
679.741	0.0144046
679.819	0.0146018
679.897	0.0147162
679.975	0.0149866
680.053	0.0151557
680.131	0.0155068
680.209	0.0157150
680.288	0.0159615
680.366	0.0160115
680.444	0.0161131
680.522	0.0163198
680.600	0.0164111
680.678	0.0166013
680.756	0.0166109
680.834	0.0164743
680.913	0.0165319
680.991	0.0162978
681.069	0.0161552
681.147	0.0161236
681.225	0.0158395
681.303	0.0156796
681.381	0.0154650
681.459	0.0151297
681.538	0.0149317
681.616	0.0148279
681.694	0.0145014
681.772	0.0144747
681.850	0.0142194
681.928	0.0140805
682.006	0.0140043
682.084	0.0139336
682.163	0.0139323
682.241	0.0139931
682.319	0.0140366
682.397	0.0141189
682.475	0.0142505
682.553	0.0142484
682.631	0.0144033
682.709	0.0144201
682.788	0.0145586
682.866	0.0146434
682.944	0.0147940
683.022	0.0148622
683.100	0.0149442
683.178	0.0151357
683.256	0.0152039
683.334	0.0154008
683.413	0.0154808
683.491	0.0155487
683.569	0.0156408
683.647	0.0159242
683.725	0.0159959
683.803	0.0158562
683.881	0.0159394
683.959	0.0160286
684.038	0.0160526
684.116	0.0160468
684.194	0.0162505
684.272	0.0160095
684.350	0.0159021
684.428	0.0158974
684.506	0.0157755
684.584	0.0157864
684.663	0.0156396
684.741	0.0153340
684.819	0.0152392
684.897	0.0150894
684.975	0.0147597
685.053	0.0147789
685.131	0.0146059
685.209	0.0144732
685.288	0.0144112
685.366	0.0143043
685.444	0.0142514
685.522	0.0142740
685.600	0.0144022
685.678	0.0145031
685.756	0.0144648
685.834	0.0147198
685.913	0.0148284
685.991	0.0149547
686.069	0.0150845
686.147	0.0153613
686.225	0.0155060
686.303	0.0156738
686.381	0.0158795
686.459	0.0161787
686.538	0.0162271
686.616	0.0162108
686.694	0.0164049
686.772	0.0163779
686.850	0.0164262
686.928	0.0164914
687.006	0.0163575
687.084	0.0161986
687.163	0.0160657
687.241	0.0160399
687.319	0.0157667
687.397	0.0153065
687.475	0.0151705
687.553	0.0148792
687.631	0.0144138
687.709	0.0141351
687.788	0.0138080
687.866	0.0134837
687.944	0.0130535
688.022	0.0129974
688.100	0.0129291
688.178	0.0126794
688.256	0.0125612
688.334	0.0126871
688.413	0.0130259
688.491	0.0132973
688.569	0.0135258
688.647	0.0140618
688.725	0.0142938
688.803	0.0146632
688.881	0.0151545
688.959	0.0156927
689.038	0.0160224
689.116	0.0165074
689.194	0.0169950
689.272	0.0173855
689.350	0.0175652
689.428	0.0178529
689.506	0.0180386
689.584	0.0180263
689.663	0.0182613
689.741	0.0181503
689.819	0.0180257
689.897	0.0179688
689.975	0.0178011
690.053	0.0175201
690.131	0.0172394
690.209	0.0169051
690.288	0.0164566
690.366	0.0161087
690.444	0.0158589
690.522	0.0154869
690.600	0.0151505
690.678	0.0146513
690.756	0.0145313
690.834	0.0142709
690.913	0.0141776
690.991	0.0141137
691.069	0.0139889
691.147	0.0139106
691.225	0.0140933
691.303	0.0141783
691.381	0.0141691
691.459	0.0140904
691.538	0.0141869
691.616	0.0141875
691.694	0.0142932
691.772	0.0142816
691.850	0.0142864
691.928	0.0142280
692.006	0.0141145
692.084	0.0139143
692.163	0.0138859
692.241	0.0136680
692.319	0.0135278
692.397	0.0135490
692.475	0.0133877
692.553	0.0134809
692.631	0.0135726
692.709	0.0137420
692.788	0.0137518
692.866	0.0139108
692.944	0.0141966
693.022	0.0144415
693.100	0.0149572
693.178	0.0153181
693.256	0.0153709
693.334	0.0157281
693.413	0.0160625
693.491	0.0162970
693.569	0.0165630
693.647	0.0167921
693.725	0.0171323
693.803	0.0173586
693.881	0.0175090
693.959	0.0177289
694.038	0.0177267
694.116	0.0179183
694.194	0.0181316
694.272	0.0180402
694.350	0.0180695
694.428	0.0182098
694.506	0.0181756
694.584	0.0180154
694.663	0.0179597
694.741	0.0177859
694.819	0.0175464
694.897	0.0174723
694.975	0.0170083
695.053	0.0168765
695.131	0.0165575
695.209	0.0161875
695.288	0.0156099
695.366	0.0154190
695.444	0.0149670
695.522	0.0145906
695.600	0.0142812
695.678	0.0135976
695.756	0.0132405
695.834	0.0127571
695.913	0.0123962
695.991	0.0119470
696.069	0.0115424
696.147	0.0111926
696.225	0.0110574
696.303	0.0107096
696.381	0.0107032
696.459	0.0107709
696.538	0.0108497
696.616	0.0112140
696.694	0.0114703
696.772	0.0117340
696.850	0.0121899
696.928	0.0128117
697.006	0.0133196
697.084	0.0139509
697.163	0.0147321
697.241	0.0151865
697.319	0.0158334
697.397	0.0166474
697.475	0.0171585
697.553	0.0176245
697.631	0.0181371
697.709	0.0185305
697.788	0.0187386
697.866	0.0189642
697.944	0.0189313
698.022	0.0189012
698.100	0.0187724
698.178	0.0183961
698.256	0.0180405
698.334	0.0176767
698.413	0.0173766
698.491	0.0169488
698.569	0.0164982
698.647	0.0161771
698.725	0.0158075
698.803	0.0157302
698.881	0.0153886
698.959	0.0152263
699.038	0.0151499
699.116	0.0151080
699.194	0.0148508
699.272	0.0149583
699.350	0.0149898
699.428	0.0151352
699.506	0.0149466
699.584	0.0149712
699.663	0.0152194
699.741	0.0151232
699.819	0.0151160
699.897	0.0149622
699.975	0.0147985
700.053	0.0148231
700.131	0.0148077
700.209	0.0146149
700.288	0.0146033
700.366	0.0145209
700.444	0.0143453
700.522	0.0141634
700.600	0.0139619
700.678	0.0140786
700.756	0.0140894
700.834	0.0140443
700.913	0.0139164
700.991	0.0137482
701.069	0.0140020
701.147	0.0138408
701.225	0.0139748
701.303	0.0140060
701.381	0.0140757
701.459	0.0140602
701.538	0.0143407
701.616	0.0143460
701.694	0.0145161
701.772	0.0146594
701.850	0.0148965
701.928	0.0151212
702.006	0.0155167
702.084	0.0155991
702.163	0.0159248
702.241	0.0162753
702.319	0.0165701
702.397	0.0168902
702.475	0.0171434
702.553	0.0172390
702.631	0.0174448
702.709	0.0173815
702.788	0.0174495
702.866	0.0172174
702.944	0.0170556
703.022	0.0167660
703.100	0.0163680
703.178	0.0160682
703.256	0.0157744
703.334	0.0153342
703.413	0.0149487
703.491	0.0147998
703.569	0.0146002
703.647	0.0142548
703.725	0.0140765
703.803	0.0140187
703.881	0.0138966
703.959	0.0137449
704.038	0.0138068
704.116	0.0138815
704.194	0.0139441
704.272	0.0140376
704.350	0.0140521
704.428	0.0139462
704.506	0.0141862
704.584	0.0144295
704.663	0.0143256
704.741	0.0145016
704.819	0.0146775
704.897	0.0148483
704.975	0.0151064
705.053	0.0152316
705.131	0.0155007
705.209	0.0158440
705.288	0.0162156
705.366	0.0164453
705.444	0.0168915
705.522	0.0171545
705.600	0.0175175
705.678	0.0175905
705.756	0.0179760
705.834	0.0180463
705.913	0.0180007
705.991	0.0180606
706.069	0.0179934
706.147	0.0177347
706.225	0.0174400
706.303	0.0169258
706.381	0.0166293
706.459	0.0161775
706.538	0.0155050
706.616	0.0149751
706.694	0.0142730
706.772	0.0138541
706.850	0.0133926
706.928	0.0129996
707.006	0.0125671
707.084	0.0124065
707.163	0.0123055
707.241	0.0124604
707.319	0.0125193
707.397	0.0128631
707.475	0.0130240
707.553	0.0133298
707.631	0.0138013
707.709	0.0141888
707.788	0.0145931
707.866	0.0150073
707.944	0.0152120
708.022	0.0155942
708.100	0.0159839
708.178	0.0161830
708.256	0.0164124
708.334	0.0164336
708.413	0.0163972
708.491	0.0163426
708.569	0.0162805
708.647	0.0164039
708.725	0.0162225
708.803	0.0160875
708.881	0.0159954
708.959	0.0159157
709.038	0.0158644
709.116	0.0157355
709.194	0.0157175
709.272	0.0157129
709.350	0.0157224
709.428	0.0156895
709.506	0.0155692
709.584	0.0153850
709.663	0.0151769
709.741	0.0151044
709.819	0.0149033
709.897	0.0148467
709.975	0.0145865
710.053	0.0144980
710.131	0.0143778
710.209	0.0143243
710.288	0.0142339
710.366	0.0144022
710.444	0.0145453
710.522	0.0146514
710.600	0.0146328
710.678	0.0149703
710.756	0.0150455
710.834	0.0151254
710.913	0.0152280
710.991	0.0153638
711.069	0.0153380
711.147	0.0153690
711.225	0.0155453
711.303	0.0153710
711.381	0.0153857
711.459	0.0155147
711.538	0.0157127
711.616	0.0156934
711.694	0.0159949
711.772	0.0161706
711.850	0.0161375
711.928	0.0164421
712.006	0.0165479
712.084	0.0165022
712.163	0.0166702
712.241	0.0164637
712.319	0.0163992
712.397	0.0164472
712.475	0.0160619
712.553	0.0160738
712.631	0.0157991
712.709	0.0157062
712.788	0.0155281
712.866	0.0153236
712.944	0.0149856
713.022	0.0151847
713.100	0.0148871
713.178	0.0147916
713.256	0.0147087
713.334	0.0146778
713.413	0.0145312
713.491	0.0145667
713.569	0.0143017
713.647	0.0143506
713.725	0.0143108
713.803	0.0141433
713.881	0.0142068
713.959	0.0142474
714.038	0.0141586
714.116	0.0142392
714.194	0.0142104
714.272	0.0143266
714.350	0.0144876
714.428	0.0145928
714.506	0.0146529
714.584	0.0146909
714.663	0.0148463
714.741	0.0149084
714.819	0.0148695
714.897	0.0151291
714.975	0.0151040
715.053	0.0152052
715.131	0.0151066
715.209	0.0150453
715.288	0.0152693
715.366	0.0151678
715.444	0.0152768
715.522	0.0154057
715.600	0.0155263
715.678	0.0155998
715.756	0.0159673
715.834	0.0161827
715.913	0.0164643
715.991	0.0166147
716.069	0.0168768
716.147	0.0172316
716.225	0.0176181
716.303	0.0176920
716.381	0.0180641
716.459	0.0181159
716.538	0.0181823
716.616	0.0181580
716.694	0.0178936
716.772	0.0176714
716.850	0.0174965
716.928	0.0170507
717.006	0.0164756
717.084	0.0159646
717.163	0.0152367
717.241	0.0146384
717.319	0.0140577
717.397	0.0133578
717.475	0.0127348
717.553	0.0123323
717.631	0.0119434
717.709	0.0115609
717.788	0.0114027
717.866	0.0113739
717.944	0.0113155
718.022	0.0114258
718.100	0.0116795
718.178	0.0119067
718.256	0.0122169
718.334	0.0126147
718.413	0.0128370
718.491	0.0131489
718.569	0.0135882
718.647	0.0140456
718.725	0.0142554
718.803	0.0146608
718.881	0.0149593
718.959	0.0151338
719.038	0.0156863
719.116	0.0159863
719.194	0.0163665
719.272	0.0167367
719.350	0.0169288
719.428	0.0171407
719.506	0.0174053
719.584	0.0175304
719.663	0.0176939
719.741	0.0177092
719.819	0.0177055
719.897	0.0176274
719.975	0.0175964
720.053	0.0175348
720.131	0.0174521
720.209	0.0173898
720.288	0.0173524
720.366	0.0173450
720.444	0.0174027
720.522	0.0171777
720.600	0.0170776
720.678	0.0168953
720.756	0.0166321
720.834	0.0164892
720.913	0.0161989
720.991	0.0159680
721.069	0.0155927
721.147	0.0151199
721.225	0.0148165
721.303	0.0144490
721.381	0.0142596
721.459	0.0138872
721.538	0.0137357
721.616	0.0135192
721.694	0.0134995
721.772	0.0136050
721.850	0.0134163
721.928	0.0136938
722.006	0.0137225
722.084	0.0138927
722.163	0.0138967
722.241	0.0142161
722.319	0.0142888
722.397	0.0141676
722.475	0.0143556
722.553	0.0144004
722.631	0.0144199
722.709	0.0144299
722.788	0.0143890
722.866	0.0144617
722.944	0.0142506
723.022	0.0142445
723.100	0.0141131
723.178	0.0139485
723.256	0.0138420
723.334	0.0138203
723.413	0.0135247
723.491	0.0135783
723.569	0.0134212
723.647	0.0133955
723.725	0.0134509
723.803	0.0136783
723.881	0.0138025
723.959	0.0142962
724.038	0.0144904
724.116	0.0147103
724.194	0.0151204
724.272	0.0156353
724.350	0.0159699
724.428	0.0163992
724.506	0.0166803
724.584	0.0167954
724.663	0.0171793
724.741	0.0173259
724.819	0.0173894
724.897	0.0173420
724.975	0.0175437
725.053	0.0173267
725.131	0.0171351
725.209	0.0168317
725.288	0.0169066
725.366	0.0167218
725.444	0.0166251
725.522	0.0164250
725.600	0.0164158
725.678	0.0165633
725.756	0.0163338
725.834	0.0164101
725.913	0.0164642
725.991	0.0165202
726.069	0.0164642
726.147	0.0166499
726.225	0.0166505
726.303	0.0164822
726.381	0.0165392
726.459	0.0164356
726.538	0.0163239
726.616	0.0162480
726.694	0.0159918
726.772	0.0158134
726.850	0.0154301
726.928	0.0152749
727.006	0.0149039
727.084	0.0145872
727.163	0.0143163
727.241	0.0140193
727.319	0.0137717
727.397	0.0135509
727.475	0.0130656
727.553	0.0127795
727.631	0.0127709
727.709	0.0123779
727.788	0.0125076
727.866	0.0124438
727.944	0.0125255
728.022	0.0125755
728.100	0.0128568
728.178	0.0131129
728.256	0.0135280
728.334	0.0136327
728.413	0.0138659
728.491	0.0143040
728.569	0.0144764
728.647	0.0145139
728.725	0.0148865
728.803	0.0148981
728.881	0.0148776
728.959	0.0149722
729.038	0.0150117
729.116	0.0149689
729.194	0.0149139
729.272	0.0150387
729.350	0.0150521
729.428	0.0149856
729.506	0.0151032
729.584	0.0151789
729.663	0.0154155
729.741	0.0154931
729.819	0.0156087
729.897	0.0156569
729.975	0.0160339
730.053	0.0158948
730.131	0.0161350
730.209	0.0162945
730.288	0.0165067
730.366	0.0165487
730.444	0.0168661
730.522	0.0168405
730.600	0.0170948
730.678	0.0171091
730.756	0.0170338
730.834	0.0170516
730.913	0.0171134
730.991	0.0169933
731.069	0.0169063
731.147	0.0166252
731.225	0.0165827
731.303	0.0164685
731.381	0.0161159
731.459	0.0161259
731.538	0.0159354
731.616	0.0156881
731.694	0.0156219
731.772	0.0154771
731.850	0.0153420
731.928	0.0153156
732.006	0.0153314
732.084	0.0152628
732.163	0.0152287
732.241	0.0152278
732.319	0.0152090
732.397	0.0150793
732.475	0.0150901
732.553	0.0150003
732.631	0.0148745
732.709	0.0148081
732.788	0.0148245
732.866	0.0146737
732.944	0.0146976
733.022	0.0143777
733.100	0.0143107
733.178	0.0141917
733.256	0.0140730
733.334	0.0140949
733.413	0.0140523
733.491	0.0139993
733.569	0.0139423
733.647	0.0137435
733.725	0.0137858
733.803	0.0137241
733.881	0.0136927
733.959	0.0137219
734.038	0.0137428
734.116	0.0139245
734.194	0.0140121
734.272	0.0140739
734.350	0.0143758
734.428	0.0144471
734.506	0.0147485
734.584	0.0148360
734.663	0.0151105
734.741	0.0155089
734.819	0.0157246
734.897	0.0160449
734.975	0.0161113
735.053	0.0162622
735.131	0.0165118
735.209	0.0164572
735.288	0.0165766
735.366	0.0165961
735.444	0.0165131
735.522	0.0164365
735.600	0.0162428
735.678	0.0161449
735.756	0.0161079
735.834	0.0159321
735.913	0.0157183
735.991	0.0157455
736.069	0.0156225
736.147	0.0155759
736.225	0.0154144
736.303	0.0154480
736.381	0.0152335
736.459	0.0150433
736.538	0.0151203
736.616	0.0149727
736.694	0.0149626
736.772	0.0148870
736.850	0.0149883
736.928	0.0150134
737.006	0.0152531
737.084	0.0154060
737.163	0.0156407
737.241	0.0158313
737.319	0.0159451
737.397	0.0162514
737.475	0.0163776
737.553	0.0165658
737.631	0.0166047
737.709	0.0167044
737.788	0.0167816
737.866	0.0165981
737.944	0.0165622
738.022	0.0165147
738.100	0.0162702
738.178	0.0159818
738.256	0.0157374
738.334	0.0154421
738.413	0.0150844
738.491	0.0147742
738.569	0.0144528
738.647	0.0141283
738.725	0.0137835
738.803	0.0135766
738.881	0.0135606
738.959	0.0134477
739.038	0.0134448
739.116	0.0134762
739.194	0.0137630
739.272	0.0138783
739.350	0.0142608
739.428	0.0145651
739.506	0.0146790
739.584	0.0149892
739.663	0.0153654
739.741	0.0155793
739.819	0.0158286
739.897	0.0160441
739.975	0.0160522
740.053	0.0161540
740.131	0.0159180
740.209	0.0157903
740.288	0.0158297
740.366	0.0154939
740.444	0.0152872
740.522	0.0150361
740.600	0.0149248
740.678	0.0148795
740.756	0.0146024
740.834	0.0145172
740.913	0.0144410
740.991	0.0142757
741.069	0.0142958
741.147	0.0142118
741.225	0.0142300
741.303	0.0142989
741.381	0.0144353
741.459	0.0144109
741.538	0.0143266
741.616	0.0144395
741.694	0.0145856
741.772	0.0147047
741.850	0.0148850
741.928	0.0150757
742.006	0.0152456
742.084	0.0153059
742.163	0.0154512
742.241	0.0157234
742.319	0.0155947
742.397	0.0157420
742.475	0.0158263
742.553	0.0158100
742.631	0.0157739
742.709	0.0158228
742.788	0.0158940
742.866	0.0158819
742.944	0.0160072
743.022	0.0159232
743.100	0.0158701
743.178	0.0160692
743.256	0.0159083
743.334	0.0160450
743.413	0.0159743
743.491	0.0158671
743.569	0.0157072
743.647	0.0156264
743.725	0.0154824
743.803	0.0152555
743.881	0.0152129
743.959	0.0152592
744.038	0.0150804
744.116	0.0152063
744.194	0.0153365
744.272	0.0153944
744.350	0.0155557
744.428	0.0157122
744.506	0.0159071
744.584	0.0158308
744.663	0.0158883
744.741	0.0160995
744.819	0.0160621
744.897	0.0160102
744.975	0.0159837
745.053	0.0158185
745.131	0.0155691
745.209	0.0154831
745.288	0.0152864
745.366	0.0151558
745.444	0.0147804
745.522	0.0148856
745.600	0.0146989
745.678	0.0147649
745.756	0.0148088
745.834	0.0146378
745.913	0.0144557
745.991	0.0145574
746.069	0.0144362
746.147	0.0142821
746.225	0.0143292
746.303	0.0142043
746.381	0.0141209
746.459	0.0139953
746.538	0.0139091
746.616	0.0139984
746.694	0.0141813
746.772	0.0140072
746.850	0.0141425
746.928	0.0142411
747.006	0.0144572
747.084	0.0144719
747.163	0.0146858
747.241	0.0149029
747.319	0.0149511
747.397	0.0151368
747.475	0.0150821
747.553	0.0154616
747.631	0.0156023
747.709	0.0154244
747.788	0.0154915
747.866	0.0154939
747.944	0.0155240
748.022	0.0154195
748.100	0.0153921
748.178	0.0153690
748.256	0.0153700
748.334	0.0153516
748.413	0.0154488
748.491	0.0153401
748.569	0.0154424
748.647	0.0154346
748.725	0.0154519
748.803	0.0155875
748.881	0.0154845
748.959	0.0156178
749.038	0.0158191
749.116	0.0158144
749.194	0.0160511
749.272	0.0160439
749.350	0.0161739
749.428	0.0162563
749.506	0.0161765
749.584	0.0162037
749.663	0.0162201
749.741	0.0161665
749.819	0.0161100
749.897	0.0160313
749.975	0.0160093
750.053	0.0157838
750.131	0.0159483
750.209	0.0159949
750.288	0.0156528
750.366	0.0155540
750.444	0.0154366
750.522	0.0153534
750.600	0.0151719
750.678	0.0151660
750.756	0.0148930
750.834	0.0145998
750.913	0.0146638
750.991	0.0146521
751.069	0.0145821
751.147	0.0143745
751.225	0.0142525
751.303	0.0143331
751.381	0.0142195
751.459	0.0141181
751.538	0.0142334
751.616	0.0140748
751.694	0.0139981
751.772	0.0140125
751.850	0.0139108
751.928	0.0140849
752.006	0.0142519
752.084	0.0142179
752.163	0.0141956
752.241	0.0143997
752.319	0.0143909
752.397	0.0144257
752.475	0.0146201
752.553	0.0147636
752.631	0.0147971
752.709	0.0147059
752.788	0.0150725
752.866	0.0151273
752.944	0.0151710
753.022	0.0153081
753.100	0.0152275
753.178	0.0152233
753.256	0.0153400
753.334	0.0152033
753.413	0.0151640
753.491	0.0151852
753.569	0.0150811
753.647	0.0151207
753.725	0.0151371
753.803	0.0150677
753.881	0.0151150
753.959	0.0151859
754.038	0.0151751
754.116	0.0151473
754.194	0.0152061
754.272	0.0152283
754.350	0.0153202
754.428	0.0154073
754.506	0.0154866
754.584	0.0156303
754.663	0.0155431
754.741	0.0156445
754.819	0.0157074
754.897	0.0156712
754.975	0.0157150
755.053	0.0156904
755.131	0.0157760
755.209	0.0158572
755.288	0.0157430
755.366	0.0157262
755.444	0.0158067
755.522	0.0158380
755.600	0.0157071
755.678	0.0157710
755.756	0.0157472
755.834	0.0157469
755.913	0.0154191
755.991	0.0155205
756.069	0.0154223
756.147	0.0152619
756.225	0.0152106
756.303	0.0151545
756.381	0.0150639
756.459	0.0148727
756.538	0.0149711
756.616	0.0150376
756.694	0.0150464
756.772	0.0150633
756.850	0.0150886
756.928	0.0150124
757.006	0.0150332
757.084	0.0151600
757.163	0.0152327
757.241	0.0152465
757.319	0.0150977
757.397	0.0150463
757.475	0.0149021
757.553	0.0149955
757.631	0.0150021
757.709	0.0148951
757.788	0.0151331
757.866	0.0150381
757.944	0.0149471
758.022	0.0150511
758.100	0.0150315
758.178	0.0151414
758.256	0.0151170
758.334	0.0150520
758.413	0.0152231
758.491	0.0153522
758.569	0.0151047
758.647	0.0152316
758.725	0.0150481
758.803	0.0151431
758.881	0.0150506
758.959	0.0147089
759.038	0.0147332
759.116	0.0147687
759.194	0.0146251
759.272	0.0144509
759.350	0.0145304
759.428	0.0143881
759.506	0.0143534
759.584	0.0145370
759.663	0.0143715
759.741	0.0144098
759.819	0.0145813
759.897	0.0147449
759.975	0.0148959
760.053	0.0150240
760.131	0.0150817
760.209	0.0151555
760.288	0.0153188
760.366	0.0153814
760.444	0.0152921
760.522	0.0154033
760.600	0.0154136
760.678	0.0153793
760.756	0.0154758
760.834	0.0157002
760.913	0.0154770
760.991	0.0154541
761.069	0.0154755
761.147	0.0155068
761.225	0.0154704
761.303	0.0155453
761.381	0.0155151
761.459	0.0153731
761.538	0.0154817
761.616	0.0156001
761.694	0.0155491
761.772	0.0154953
761.850	0.0156348
761.928	0.0155618
762.006	0.0157300
762.084	0.0157316
762.163	0.0157457
762.241	0.0158764
762.319	0.0158338
762.397	0.0157731
762.475	0.0159248
762.553	0.0159186
762.631	0.0157888
762.709	0.0159273
762.788	0.0158806
762.866	0.0158587
762.944	0.0160477
763.022	0.0159583
763.100	0.0160468
763.178	0.0157798
763.256	0.0157586
763.334	0.0158230
763.413	0.0157404
763.491	0.0155609
763.569	0.0155089
763.647	0.0154888
763.725	0.0152827
763.803	0.0153262
763.881	0.0150893
763.959	0.0148613
764.038	0.0147430
764.116	0.0145802
764.194	0.0145773
764.272	0.0146930
764.350	0.0144743
764.428	0.0145271
764.506	0.0142173
764.584	0.0143526
764.663	0.0144848
764.741	0.0143419
764.819	0.0143527
764.897	0.0144376
764.975	0.0145561
765.053	0.0146384
765.131	0.0146306
765.209	0.0148065
765.288	0.0148689
765.366	0.0151049
765.444	0.0151692
765.522	0.0152634
765.600	0.0152362
765.678	0.0153748
765.756	0.0153747
765.834	0.0155306
765.913	0.0156446
765.991	0.0154707
766.069	0.0156305
766.147	0.0155730
766.225	0.0155239
766.303	0.0156736
766.381	0.0155027
766.459	0.0155167
766.538	0.0153674
766.616	0.0153699
766.694	0.0152345
766.772	0.0150874
766.850	0.0150177
766.928	0.0150388
767.006	0.0150378
767.084	0.0150327
767.163	0.0149752
767.241	0.0149774
767.319	0.0151630
767.397	0.0151373
767.475	0.0152805
767.553	0.0153078
767.631	0.0154396
767.709	0.0157333
767.788	0.0155829
767.866	0.0158177
767.944	0.0160763
768.022	0.0159014
768.100	0.0158278
768.178	0.0157750
768.256	0.0158186
768.334	0.0157906
768.413	0.0157212
768.491	0.0156107
768.569	0.0155366
768.647	0.0153993
768.725	0.0153603
768.803	0.0153105
768.881	0.0151510
768.959	0.0150401
769.038	0.0148706
769.116	0.0148898
769.194	0.0149566
769.272	0.0148120
769.350	0.0149839
769.428	0.0150546
769.506	0.0149567
769.584	0.0152178
769.663	0.0151785
769.741	0.0151431
769.819	0.0153545
769.897	0.0153617
769.975	0.0152917
770.053	0.0154203
770.131	0.0154623
770.209	0.0154283
770.288	0.0153929
770.366	0.0153635
770.444	0.0155859
770.522	0.0158104
770.600	0.0156851
770.678	0.0158517
770.756	0.0157337
770.834	0.0157543
770.913	0.0158999
770.991	0.0159943
771.069	0.0160656
771.147	0.0158950
771.225	0.0157541
771.303	0.0155865
771.381	0.0154848
771.459	0.0153447
771.538	0.0153815
771.616	0.0151888
771.694	0.0151479
771.772	0.0148796
771.850	0.0149873
771.928	0.0151068
772.006	0.0147635
772.084	0.0147675
772.163	0.0148157
772.241	0.0149679
772.319	0.0149233
772.397	0.0148976
772.475	0.0148789
772.553	0.0149676
772.631	0.0148907
772.709	0.0149005
772.788	0.0150677
772.866	0.0150722
772.944	0.0148438
773.022	0.0147983
773.100	0.0148657
773.178	0.0146614
773.256	0.0148504
773.334	0.0148002
773.413	0.0148360
773.491	0.0147071
773.569	0.0146764
773.647	0.0149624
773.725	0.0149332
773.803	0.0147791
773.881	0.0149659
773.959	0.0149697
774.038	0.0150269
774.116	0.0149833
774.194	0.0150655
774.272	0.0150695
774.350	0.0151968
774.428	0.0150388
774.506	0.0149866
774.584	0.0150562
774.663	0.0147665
774.741	0.0148920
774.819	0.0147642
774.897	0.0149883
774.975	0.0149139
775.053	0.0147782
775.131	0.0149232
775.209	0.0149199
775.288	0.0149007
775.366	0.0148703
775.444	0.0151991
775.522	0.0151723
775.600	0.0152676
775.678	0.0151913
775.756	0.0152347
775.834	0.0153523
775.913	0.0154408
775.991	0.0154443
776.069	0.0154190
776.147	0.0155704
776.225	0.0155849
776.303	0.0154251
776.381	0.0154712
776.459	0.0154629
776.538	0.0153992
776.616	0.0153358
776.694	0.0156364
776.772	0.0155661
776.850	0.0154210
776.928	0.0156200
777.006	0.0155350
777.084	0.0156178
777.163	0.0155750
777.241	0.0157191
777.319	0.0156657
777.397	0.0155690
777.475	0.0157369
777.553	0.0157239
777.631	0.0156721
777.709	0.0155924
777.788	0.0155779
777.866	0.0155118
777.944	0.0154299
778.022	0.0156118
778.100	0.0154532
778.178	0.0153657
778.256	0.0153369
778.334	0.0152383
778.413	0.0153038
778.491	0.0152608
778.569	0.0152036
778.647	0.0150529
778.725	0.0150960
778.803	0.0149390
778.881	0.0149496
778.959	0.0149171
779.038	0.0149570
779.116	0.0148672
779.194	0.0149548
779.272	0.0147881
779.350	0.0148485
779.428	0.0147157
779.506	0.0148684
779.584	0.0148594
779.663	0.0148811
779.741	0.0148215
779.819	0.0150433
779.897	0.0150046
779.975	0.0149972
780.053	0.0151229
780.131	0.0151130
780.209	0.0150163
780.288	0.0152710
780.366	0.0155096
780.444	0.0155030
780.522	0.0153505
780.600	0.0153207
780.678	0.0154706
780.756	0.0155664
780.834	0.0156295
780.913	0.0156043
780.991	0.0155418
781.069	0.0155327
781.147	0.0154763
781.225	0.0155581
781.303	0.0154973
781.381	0.0152947
781.459	0.0151908
781.538	0.0150266
781.616	0.0148736
781.694	0.0148318
781.772	0.0148237
781.850	0.0148332
781.928	0.0147641
782.006	0.0146432
782.084	0.0146239
782.163	0.0147757
782.241	0.0148753
782.319	0.0148072
782.397	0.0149380
782.475	0.0149980
782.553	0.0150732
782.631	0.0152418
782.709	0.0152530
782.788	0.0153963
782.866	0.0154214
782.944	0.0153824
783.022	0.0153570
783.100	0.0154694
783.178	0.0155327
783.256	0.0155595
783.334	0.0155660
783.413	0.0153528
783.491	0.0153930
783.569	0.0152805
783.647	0.0152923
783.725	0.0153516
783.803	0.0152865
783.881	0.0150476
783.959	0.0150684
784.038	0.0150936
784.116	0.0150067
784.194	0.0148856
784.272	0.0148822
784.350	0.0149828
784.428	0.0150101
784.506	0.0149889
784.584	0.0151254
784.663	0.0152304
784.741	0.0152122
784.819	0.0152250
784.897	0.0152129
784.975	0.0152522
785.053	0.0154191
785.131	0.0152901
785.209	0.0153991
785.288	0.0155035
785.366	0.0155514
785.444	0.0154938
785.522	0.0155258
785.600	0.0155907
785.678	0.0156857
785.756	0.0156869
785.834	0.0156256
785.913	0.0157207
785.991	0.0159184
786.069	0.0158644
786.147	0.0159464
786.225	0.0157928
786.303	0.0159336
786.381	0.0161740
786.459	0.0160138
786.538	0.0160109
786.616	0.0159763
786.694	0.0159133
786.772	0.0157682
786.850	0.0157846
786.928	0.0156283
787.006	0.0155576
787.084	0.0155259
787.163	0.0153894
787.241	0.0152401
787.319	0.0152094
787.397	0.0151054
787.475	0.0149973
787.553	0.0150696
787.631	0.0150359
787.709	0.0149271
787.788	0.0150666
787.866	0.0149724
787.944	0.0149609
788.022	0.0148848
788.100	0.0149768
788.178	0.0149075
788.256	0.0148947
788.334	0.0149664
788.413	0.0149866
788.491	0.0148065
788.569	0.0146786
788.647	0.0146487
788.725	0.0145844
788.803	0.0145450
788.881	0.0145834
788.959	0.0146014
789.038	0.0147118
789.116	0.0146551
789.194	0.0145848
789.272	0.0147658
789.350	0.0147812
789.428	0.0149043
789.506	0.0150949
789.584	0.0152727
789.663	0.0152631
789.741	0.0153291
789.819	0.0155311
789.897	0.0155397
789.975	0.0156031
790.053	0.0156850
790.131	0.0156844
790.209	0.0156419
790.288	0.0155802
790.366	0.0156460
790.444	0.0155924
790.522	0.0156836
790.600	0.0157394
790.678	0.0157234
790.756	0.0157256
790.834	0.0156744
790.913	0.0158166
790.991	0.0158981
791.069	0.0158643
791.147	0.0156913
791.225	0.0159622
791.303	0.0160120
791.381	0.0159083
791.459	0.0157586
791.538	0.0158768
791.616	0.0157370
791.694	0.0156602
791.772	0.0154929
791.850	0.0155619
791.928	0.0155484
792.006	0.0154929
792.084	0.0154183
792.163	0.0152333
792.241	0.0152817
792.319	0.0150700
792.397	0.0150101
792.475	0.0150482
792.553	0.0149422
792.631	0.0148232
792.709	0.0148458
792.788	0.0147433
792.866	0.0146801
792.944	0.0146876
793.022	0.0147427
793.100	0.0148460
793.178	0.0149360
793.256	0.0147137
793.334	0.0148725
793.413	0.0148743
793.491	0.0149026
793.569	0.0149993
793.647	0.0150302
793.725	0.0152383
793.803	0.0150269
793.881	0.0150985
793.959	0.0150665
794.038	0.0152711
794.116	0.0153051
794.194	0.0152843
794.272	0.0154918
794.350	0.0154642
794.428	0.0156863
794.506	0.0157277
794.584	0.0156522
794.663	0.0157053
794.741	0.0158590
794.819	0.0157115
794.897	0.0158534
794.975	0.0157221
795.053	0.0157734
795.131	0.0158165
795.209	0.0156614
795.288	0.0155531
795.366	0.0155563
795.444	0.0155134
795.522	0.0154186
795.600	0.0151862
795.678	0.0152113
795.756	0.0152538
795.834	0.0149759
795.913	0.0149654
795.991	0.0150238
796.069	0.0149816
796.147	0.0147422
796.225	0.0147572
796.303	0.0148675
796.381	0.0148029
796.459	0.0147520
796.538	0.0147469
796.616	0.0147903
796.694	0.0146489
796.772	0.0146500
796.850	0.0145432
796.928	0.0146167
797.006	0.0145791
797.084	0.0145267
797.163	0.0144079
797.241	0.0143575
797.319	0.0144576
797.397	0.0142821
797.475	0.0145181
797.553	0.0144003
797.631	0.0144923
797.709	0.0146082
797.788	0.0147259
797.866	0.0147988
797.944	0.0150577
798.022	0.0150638
798.100	0.0152688
798.178	0.0153266
798.256	0.0154660
798.334	0.0156330
798.413	0.0156651
798.491	0.0156731
798.569	0.0157056
798.647	0.0157580
798.725	0.0157278
798.803	0.0155966
798.881	0.0157518
798.959	0.0157539
799.038	0.0154691
799.116	0.0153297
799.194	0.0154522
799.272	0.0154397
799.350	0.0153059
799.428	0.0152100
799.506	0.0151711
799.584	0.0150553
799.663	0.0151715
799.741	0.0151046
799.819	0.0151197
799.897	0.0150029
799.975	0.0148834
800.053	0.0151775
800.131	0.0151647
800.209	0.0151629
800.288	0.0151495
800.366	0.0151281
800.444	0.0152536
800.522	0.0152704
800.600	0.0153056
800.678	0.0153651
800.756	0.0153558
800.834	0.0152922
800.913	0.0155923
800.991	0.0154852
801.069	0.0154105
801.147	0.0154936
801.225	0.0154733
801.303	0.0153484
801.381	0.0154195
801.459	0.0152737
801.538	0.0153092
801.616	0.0151208
801.694	0.0151398
801.772	0.0151617
801.850	0.0152518
801.928	0.0152666
802.006	0.0152184
802.084	0.0150921
802.163	0.0151807
802.241	0.0151077
802.319	0.0151963
802.397	0.0153665
802.475	0.0153884
802.553	0.0154658
802.631	0.0152557
802.709	0.0152057
802.788	0.0152508
802.866	0.0152995
802.944	0.0151801
803.022	0.0151707
803.100	0.0151727
803.178	0.0150584
803.256	0.0151370
803.334	0.0150800
803.413	0.0150945
803.491	0.0150557
803.569	0.0149653
803.647	0.0149937
803.725	0.0149543
803.803	0.0151295
803.881	0.0150591
803.959	0.0150073
804.038	0.0149948
804.116	0.0150150
804.194	0.0149673
804.272	0.0148559
804.350	0.0150738
804.428	0.0149906
804.506	0.0150500
804.584	0.0149451
804.663	0.0150002
804.741	0.0151649
804.819	0.0149196
804.897	0.0150379
804.975	0.0150204
805.053	0.0153326
805.131	0.0153156
805.209	0.0150728
805.288	0.0152275
805.366	0.0152509
805.444	0.0152013
805.522	0.0154357
805.600	0.0153712
805.678	0.0155535
805.756	0.0154211
805.834	0.0153606
805.913	0.0153795
805.991	0.0154353
806.069	0.0152059
806.147	0.0153167
806.225	0.0153801
806.303	0.0150170
806.381	0.0152996
806.459	0.0152408
806.538	0.0151457
806.616	0.0153777
806.694	0.0153149
806.772	0.0152786
806.850	0.0154115
806.928	0.0153944
807.006	0.0154202
807.084	0.0153845
807.163	0.0154458
807.241	0.0153162
807.319	0.0153138
807.397	0.0151727
807.475	0.0152258
807.553	0.0152722
807.631	0.0151467
807.709	0.0151192
807.788	0.0151060
807.866	0.0153574
807.944	0.0151096
808.022	0.0152667
808.100	0.0152753
808.178	0.0151686
808.256	0.0153410
808.334	0.0156309
808.413	0.0153352
808.491	0.0154802
808.569	0.0156172
808.647	0.0155422
808.725	0.0156120
808.803	0.0154875
808.881	0.0155244
808.959	0.0154536
809.038	0.0155458
809.116	0.0153448
809.194	0.0153826
809.272	0.0153762
809.350	0.0154386
809.428	0.0153214
809.506	0.0152813
809.584	0.0154380
809.663	0.0154507
809.741	0.0153771
809.819	0.0153400
809.897	0.0153362
809.975	0.0153029
810.053	0.0154522
810.131	0.0154976
810.209	0.0153939
810.288	0.0153276
810.366	0.0152492
810.444	0.0151485
810.522	0.0151588
810.600	0.0153123
810.678	0.0151791
810.756	0.0152363
810.834	0.0151176
810.913	0.0152544
810.991	0.0152964
811.069	0.0153206
811.147	0.0153313
811.225	0.0153360
811.303	0.0153860
811.381	0.0154372
811.459	0.0154170
811.538	0.0154865
811.616	0.0153628
811.694	0.0153908
811.772	0.0153767
811.850	0.0152589
811.928	0.0153082
812.006	0.0152138
812.084	0.0151537
812.163	0.0151115
812.241	0.0152047
812.319	0.0152381
812.397	0.0152671
812.475	0.0152622
812.553	0.0153762
812.631	0.0154319
812.709	0.0153491
812.788	0.0153230
812.866	0.0154696
812.944	0.0154913
813.022	0.0154694
813.100	0.0154155
813.178	0.0153934
813.256	0.0154889
813.334	0.0153430
813.413	0.0153468
813.491	0.0151818
813.569	0.0152431
813.647	0.0151033
813.725	0.0150917
813.803	0.0150413
813.881	0.0150262
813.959	0.0149298
814.038	0.0149812
814.116	0.0149811
814.194	0.0150396
814.272	0.0148282
814.350	0.0148740
814.428	0.0149603
814.506	0.0149638
814.584	0.0149622
814.663	0.0149581
814.741	0.0150951
814.819	0.0148521
814.897	0.0148985
814.975	0.0150006
815.053	0.0149203
815.131	0.0149731
815.209	0.0149799
815.288	0.0149997
815.366	0.0150161
815.444	0.0149438
815.522	0.0150685
815.600	0.0151144
815.678	0.0154054
815.756	0.0154036
815.834	0.0153096
815.913	0.0156575
815.991	0.0155640
816.069	0.0157651
816.147	0.0157813
816.225	0.0158147
816.303	0.0157412
816.381	0.0159826
816.459	0.0159053
816.538	0.0158297
816.616	0.0158231
816.694	0.0157573
816.772	0.0158119
816.850	0.0156929
816.928	0.0157607
817.006	0.0158427
817.084	0.0157919
817.163	0.0155276
817.241	0.0156274
817.319	0.0155584
817.397	0.0154433
817.475	0.0153603
817.553	0.0153710
817.631	0.0152053
817.709	0.0151560
817.788	0.0151923
817.866	0.0150048
817.944	0.0149519
818.022	0.0148376
818.100	0.0148094
818.178	0.0149389
818.256	0.0146690
818.334	0.0147364
818.413	0.0148337
818.491	0.0149382
818.569	0.0148792
818.647	0.0149422
818.725	0.0149507
818.803	0.0148294
818.881	0.0147472
818.959	0.0149688
819.038	0.0148393
819.116	0.0147883
819.194	0.0148285
819.272	0.0148211
819.350	0.0147815
819.428	0.0147129
819.506	0.0148232
819.584	0.0146613
819.663	0.0146674
819.741	0.0148418
819.819	0.0147887
819.897	0.0148337
819.975	0.0148651
820.053	0.0147995
820.131	0.0148235
820.209	0.0149345
820.288	0.0148692
820.366	0.0149094
820.444	0.0149451
820.522	0.0151145
820.600	0.0150512
820.678	0.0149965
820.756	0.0152100
820.834	0.0152621
820.913	0.0152764
820.991	0.0152708
821.069	0.0153099
821.147	0.0154040
821.225	0.0154275
821.303	0.0155509
821.381	0.0154827
821.459	0.0154899
821.538	0.0154941
821.616	0.0154874
821.694	0.0155875
821.772	0.0156509
821.850	0.0155157
821.928	0.0156011
822.006	0.0156333
822.084	0.0156604
822.163	0.0155888
822.241	0.0154215
822.319	0.0155522
822.397	0.0156142
822.475	0.0155104
822.553	0.0153081
822.631	0.0153104
822.709	0.0152461
822.788	0.0152572
822.866	0.0151302
822.944	0.0150058
823.022	0.0150476
823.100	0.0151070
823.178	0.0149801
823.256	0.0148250
823.334	0.0148392
823.413	0.0148608
823.491	0.0149546
823.569	0.0149020
823.647	0.0148814
823.725	0.0148390
823.803	0.0150116
823.881	0.0148484
823.959	0.0148278
824.038	0.0148309
824.116	0.0149136
824.194	0.0147355
824.272	0.0147449
824.350	0.0148107
824.428	0.0148114
824.506	0.0147234
824.584	0.0149541
824.663	0.0149767
824.741	0.0149604
824.819	0.0150306
824.897	0.0149364
824.975	0.0149612
825.053	0.0151479
825.131	0.0151250
825.209	0.0150941
825.288	0.0150926
825.366	0.0151253
825.444	0.0148695
825.522	0.0149780
825.600	0.0150380
825.678	0.0151070
825.756	0.0150989
825.834	0.0150845
825.913	0.0151600
825.991	0.0151734
826.069	0.0150774
826.147	0.0150955
826.225	0.0151271
826.303	0.0152108
826.381	0.0152140
826.459	0.0154004
826.538	0.0153284
826.616	0.0153667
826.694	0.0153093
826.772	0.0153964
826.850	0.0154729
826.928	0.0153014
827.006	0.0153253
827.084	0.0154319
827.163	0.0154199
827.241	0.0154298
827.319	0.0155612
827.397	0.0155634
827.475	0.0155885
827.553	0.0156239
827.631	0.0156680
827.709	0.0157111
827.788	0.0155398
827.866	0.0155596
827.944	0.0155508
828.022	0.0155065
828.100	0.0152317
828.178	0.0153787
828.256	0.0153058
828.334	0.0154226
828.413	0.0150683
828.491	0.0150399
828.569	0.0149453
828.647	0.0149878
828.725	0.0151067
828.803	0.0149828
828.881	0.0148694
828.959	0.0148798
829.038	0.0148605
829.116	0.0148309
829.194	0.0149431
829.272	0.0148891
829.350	0.0149236
829.428	0.0148673
829.506	0.0147316
829.584	0.0148443
829.663	0.0148274
829.741	0.0149506
829.819	0.0149362
829.897	0.0149872
829.975	0.0148733
830.053	0.0149554
830.131	0.0150645
830.209	0.0151015
830.288	0.0150254
830.366	0.0151084
830.444	0.0150895
830.522	0.0152727
830.600	0.0151667
830.678	0.0151149
830.756	0.0152404
830.834	0.0152152
830.913	0.0153096
830.991	0.0153686
831.069	0.0152489
831.147	0.0154247
831.225	0.0155176
831.303	0.0153940
831.381	0.0154346
831.459	0.0154369
831.538	0.0154637
831.616	0.0154330
831.694	0.0155611
831.772	0.0154259
831.850	0.0154942
831.928	0.0154047
832.006	0.0154728
832.084	0.0156282
832.163	0.0154829
832.241	0.0156504
832.319	0.0155299
832.397	0.0156217
832.475	0.0156071
832.553	0.0155276
832.631	0.0155126
832.709	0.0156070
832.788	0.0155053
832.866	0.0156974
832.944	0.0157213
833.022	0.0156364
833.100	0.0155493
833.178	0.0154976
833.256	0.0156475
833.334	0.0156430
833.413	0.0155959
833.491	0.0156065
833.569	0.0155846
833.647	0.0155028
833.725	0.0155186
833.803	0.0155563
833.881	0.0155891
833.959	0.0154501
834.038	0.0155241
834.116	0.0154285
834.194	0.0154626
834.272	0.0153705
834.350	0.0153739
834.428	0.0152341
834.506	0.0152078
834.584	0.0151989
834.663	0.0152338
834.741	0.0151325
834.819	0.0151559
834.897	0.0152258
834.975	0.0151667
835.053	0.0151704
835.131	0.0152856
835.209	0.0152743
835.288	0.0150818
835.366	0.0153594
835.444	0.0152405
835.522	0.0151770
835.600	0.0152843
835.678	0.0152837
835.756	0.0152384
835.834	0.0152493
835.913	0.0152073
835.991	0.0153931
836.069	0.0153405
836.147	0.0153677
836.225	0.0151343
836.303	0.0153311
836.381	0.0154520
836.459	0.0153557
836.538	0.0153446
836.616	0.0152251
836.694	0.0153307
836.772	0.0154581
836.850	0.0153511
836.928	0.0153256
837.006	0.0150961
837.084	0.0151957
837.163	0.0152234
837.241	0.0150928
837.319	0.0151503
837.397	0.0151118
837.475	0.0150431
837.553	0.0150673
837.631	0.0149767
837.709	0.0151534
837.788	0.0149715
837.866	0.0149889
837.944	0.0151219
838.022	0.0150897
838.100	0.0149279
838.178	0.0150957
838.256	0.0151805
838.334	0.0151186
838.413	0.0151144
838.491	0.0152633
838.569	0.0150814
838.647	0.0152824
838.725	0.0151244
838.803	0.0151348
838.881	0.0151252
838.959	0.0152336
839.038	0.0152469
839.116	0.0153825
839.194	0.0151626
839.272	0.0152638
839.350	0.0154238
839.428	0.0154704
839.506	0.0153046
839.584	0.0153213
839.663	0.0152817
839.741	0.0154189
839.819	0.0153300
839.897	0.0153419
839.975	0.0153337
840.053	0.0152361
840.131	0.0153762
840.209	0.0154127
840.288	0.0154717
840.366	0.0153240
840.444	0.0153255
840.522	0.0154312
840.600	0.0153054
840.678	0.0152816
840.756	0.0152246
840.834	0.0151746
840.913	0.0152722
840.991	0.0153080
841.069	0.0152287
841.147	0.0151199
841.225	0.0151470
841.303	0.0152158
841.381	0.0149855
841.459	0.0152473
841.538	0.0151057
841.616	0.0150307
841.694	0.0149667
841.772	0.0151793
841.850	0.0149697
841.928	0.0148546
842.006	0.0149340
842.084	0.0148756
842.163	0.0148343
842.241	0.0148550
842.319	0.0148990
842.397	0.0147775
842.475	0.0148713
842.553	0.0148670
842.631	0.0149533
842.709	0.0150214
842.788	0.0150864
842.866	0.0150240
842.944	0.0149277
843.022	0.0150723
843.100	0.0149679
843.178	0.0150796
843.256	0.0150217
843.334	0.0150244
843.413	0.0151105
843.491	0.0151333
843.569	0.0150927
843.647	0.0151366
843.725	0.0151103
843.803	0.0151235
843.881	0.0151926
843.959	0.0152527
844.038	0.0153408
844.116	0.0153072
844.194	0.0152062
844.272	0.0151782
844.350	0.0151256
844.428	0.0152918
844.506	0.0153200
844.584	0.0152294
844.663	0.0150217
844.741	0.0152161
844.819	0.0151991
844.897	0.0152661
844.975	0.0151110
845.053	0.0150111
845.131	0.0150427
845.209	0.0150076
845.288	0.0151715
845.366	0.0152186
845.444	0.0151916
845.522	0.0152645
845.600	0.0151601
845.678	0.0151770
845.756	0.0153144
845.834	0.0153133
845.913	0.0153768
845.991	0.0153898
846.069	0.0154179
846.147	0.0155103
846.225	0.0155490
846.303	0.0155094
846.381	0.0154906
846.459	0.0154675
846.538	0.0154581
846.616	0.0153822
846.694	0.0154899
846.772	0.0154789
846.850	0.0154736
846.928	0.0154190
847.006	0.0153396
847.084	0.0152092
847.163	0.0153389
847.241	0.0152118
847.319	0.0150855
847.397	0.0150861
847.475	0.0151376
847.553	0.0150153
847.631	0.0153134
847.709	0.0150966
847.788	0.0150498
847.866	0.0149969
847.944	0.0149776
848.022	0.0150182
848.100	0.0149824
848.178	0.0149004
848.256	0.0150004
848.334	0.0151634
848.413	0.0151583
848.491	0.0151360
848.569	0.0151318
848.647	0.0150574
848.725	0.0151706
848.803	0.0151532
848.881	0.0152448
848.959	0.0151500
849.038	0.0152837
849.116	0.0152872
849.194	0.0151876
849.272	0.0153797
849.350	0.0154417
849.428	0.0152934
849.506	0.0153330
849.584	0.0154169
849.663	0.0153227
849.741	0.0152524
849.819	0.0153060
849.897	0.0152820
849.975	0.0151559
850.053	0.0151878
850.131	0.0151508
850.209	0.0151051
850.288	0.0151962
850.366	0.0150580
850.444	0.0150542
850.522	0.0150942
850.600	0.0151327
850.678	0.0151038
850.756	0.0151099
850.834	0.0151425
850.913	0.0150458
850.991	0.0152525
851.069	0.0151990
851.147	0.0151722
851.225	0.0151962
851.303	0.0152345
851.381	0.0152578
851.459	0.0153719
851.538	0.0152722
851.616	0.0152867
851.694	0.0153391
851.772	0.0152633
851.850	0.0152437
851.928	0.0153404
852.006	0.0153267
852.084	0.0154120
852.163	0.0152615
852.241	0.0153667
852.319	0.0152856
852.397	0.0152442
852.475	0.0152509
852.553	0.0151424
852.631	0.0151011
852.709	0.0152542
852.788	0.0151777
852.866	0.0151368
852.944	0.0151044
853.022	0.0152101
853.100	0.0152171
853.178	0.0151944
853.256	0.0149789
853.334	0.0151318
853.413	0.0151316
853.491	0.0150483
853.569	0.0151279
853.647	0.0152937
853.725	0.0152558
853.803	0.0152718
853.881	0.0153419
853.959	0.0151907
854.038	0.0151212
854.116	0.0152810
854.194	0.0153181
854.272	0.0150423
854.350	0.0152423
854.428	0.0152181
854.506	0.0151877
854.584	0.0152402
854.663	0.0152917
854.741	0.0153049
854.819	0.0152538
854.897	0.0152193
854.975	0.0152596
855.053	0.0151477
855.131	0.0152921
855.209	0.0154387
855.288	0.0152992
855.366	0.0152711
855.444	0.0153066
855.522	0.0152555
855.600	0.0151981
855.678	0.0152249
855.756	0.0151377
855.834	0.0150815
855.913	0.0152039
855.991	0.0151729
856.069	0.0151727
856.147	0.0151826
856.225	0.0151125
856.303	0.0151841
856.381	0.0151384
856.459	0.0151783
856.538	0.0152303
856.616	0.0152991
856.694	0.0152571
856.772	0.0152413
856.850	0.0153977
856.928	0.0154047
857.006	0.0154623
857.084	0.0155266
857.163	0.0156447
857.241	0.0155668
857.319	0.0154127
857.397	0.0154221
857.475	0.0154560
857.553	0.0155772
857.631	0.0155803
857.709	0.0154167
857.788	0.0154295
857.866	0.0153362
857.944	0.0153295
858.022	0.0152752
858.100	0.0152710
858.178	0.0153108
858.256	0.0152577
858.334	0.0150925
858.413	0.0152872
858.491	0.0152910
858.569	0.0153104
858.647	0.0151535
858.725	0.0150525
858.803	0.0151293
858.881	0.0152679
858.959	0.0153642
859.038	0.0153318
859.116	0.0152779
859.194	0.0152872
859.272	0.0154539
859.350	0.0153780
859.428	0.0154794
859.506	0.0155363
859.584	0.0154517
859.663	0.0152969
859.741	0.0154324
859.819	0.0154031
859.897	0.0153938
859.975	0.0154189
860.053	0.0155347
860.131	0.0153822
860.209	0.0152914
860.288	0.0152917
860.366	0.0152757
860.444	0.0152299
860.522	0.0153197
860.600	0.0153127
860.678	0.0153212
860.756	0.0151448
860.834	0.0151384
860.913	0.0151912
860.991	0.0152331
861.069	0.0151611
861.147	0.0152304
861.225	0.0151618
861.303	0.0151266
861.381	0.0151506
861.459	0.0151008
861.538	0.0151756
861.616	0.0151559
861.694	0.0151144
861.772	0.0151823
861.850	0.0152296
861.928	0.0152789
862.006	0.0152177
862.084	0.0151623
862.163	0.0151713
862.241	0.0151632
862.319	0.0151052
862.397	0.0152551
862.475	0.0153127
862.553	0.0151501
862.631	0.0152942
862.709	0.0153863
862.788	0.0151624
862.866	0.0154170
862.944	0.0152204
863.022	0.0150953
863.100	0.0152346
863.178	0.0152843
863.256	0.0152502
863.334	0.0152771
863.413	0.0153335
863.491	0.0154996
863.569	0.0152769
863.647	0.0154755
863.725	0.0153894
863.803	0.0153781
863.881	0.0153968
863.959	0.0154546
864.038	0.0154683
864.116	0.0154303
864.194	0.0156194
864.272	0.0154859
864.350	0.0155090
864.428	0.0154725
864.506	0.0155679
864.584	0.0154834
864.663	0.0154904
864.741	0.0153995
864.819	0.0154239
864.897	0.0153817
864.975	0.0153172
865.053	0.0151351
865.131	0.0153130
865.209	0.0152398
865.288	0.0151260
865.366	0.0151994
865.444	0.0151495
865.522	0.0151147
865.600	0.0151376
865.678	0.0152457
865.756	0.0151160
865.834	0.0151197
865.913	0.0152462
865.991	0.0152225
866.069	0.0152307
866.147	0.0152847
866.225	0.0153199
866.303	0.0152412
866.381	0.0153362
866.459	0.0153542
866.538	0.0152621
866.616	0.0153176
866.694	0.0153095
866.772	0.0153019
866.850	0.0154266
866.928	0.0153542
867.006	0.0154820
867.084	0.0153541
867.163	0.0154838
867.241	0.0153104
867.319	0.0152694
867.397	0.0152556
867.475	0.0151132
867.553	0.0152749
867.631	0.0151054
867.709	0.0151626
867.788	0.0151336
867.866	0.0151807
867.944	0.0151683
868.022	0.0151257
868.100	0.0150465
868.178	0.0151843
868.256	0.0150424
868.334	0.0151147
868.413	0.0149397
868.491	0.0151547
868.569	0.0151216
868.647	0.0151121
868.725	0.0151555
868.803	0.0152282
868.881	0.0152378
868.959	0.0152061
869.038	0.0152095
869.116	0.0152129
869.194	0.0152083
869.272	0.0153979
869.350	0.0152497
869.428	0.0152216
869.506	0.0152173
869.584	0.0153275
869.663	0.0153090
869.741	0.0152180
869.819	0.0152515
869.897	0.0153405
869.975	0.0153433
870.053	0.0154278
870.131	0.0151972
870.209	0.0153506
870.288	0.0153754
870.366	0.0151465
870.444	0.0152782
870.522	0.0153126
870.600	0.0151748
870.678	0.0150726
870.756	0.0153038
870.834	0.0152673
870.913	0.0151921
870.991	0.0150215
871.069	0.0150948
871.147	0.0150420
871.225	0.0151395
871.303	0.0152556
871.381	0.0153243
871.459	0.0150325
871.538	0.0149803
871.616	0.0150904
871.694	0.0152485
871.772	0.0151109
871.850	0.0149231
871.928	0.0150448
872.006	0.0150986
872.084	0.0150443
872.163	0.0147630
872.241	0.0149675
872.319	0.0149595
872.397	0.0150172
872.475	0.0150600
872.553	0.0149590
872.631	0.0150896
872.709	0.0150778
872.788	0.0151297
872.866	0.0150739
872.944	0.0152634
873.022	0.0152844
873.100	0.0152775
873.178	0.0152470
873.256	0.0153871
873.334	0.0154508
873.413	0.0154845
873.491	0.0154623
873.569	0.0153866
873.647	0.0155340
873.725	0.0153885
873.803	0.0154135
873.881	0.0154038
873.959	0.0152548
874.038	0.0152004
874.116	0.0151883
874.194	0.0152240
874.272	0.0151404
874.350	0.0152244
874.428	0.0151994
874.506	0.0151830
874.584	0.0149700
874.663	0.0149342
874.741	0.0150706
874.819	0.0151112
874.897	0.0149802
874.975	0.0149673
875.053	0.0150477
875.131	0.0150494
875.209	0.0151125
875.288	0.0152422
875.366	0.0150763
875.444	0.0151437
875.522	0.0150759
875.600	0.0152747
875.678	0.0151058
875.756	0.0151575
875.834	0.0151599
875.913	0.0152686
875.991	0.0150594
876.069	0.0151584
876.147	0.0150758
876.225	0.0150844
876.303	0.0151950
876.381	0.0151352
876.459	0.0149345
876.538	0.0148134
876.616	0.0150038
876.694	0.0149253
876.772	0.0150119
876.850	0.0149895
876.928	0.0149318
877.006	0.0148972
877.084	0.0149261
877.163	0.0149669
877.241	0.0149400
877.319	0.0151722
877.397	0.0151482
877.475	0.0150044
877.553	0.0150253
877.631	0.0151864
877.709	0.0151437
877.788	0.0151834
877.866	0.0151488
877.944	0.0152616
878.022	0.0152256
878.100	0.0151462
878.178	0.0151093
878.256	0.0151875
878.334	0.0152972
878.413	0.0151155
878.491	0.0151502
878.569	0.0151601
878.647	0.0152232
878.725	0.0150617
878.803	0.0151450
878.881	0.0150543
878.959	0.0151856
879.038	0.0152114
879.116	0.0150735
879.194	0.0153590
879.272	0.0151807
879.350	0.0149973
879.428	0.0152664
879.506	0.0152885
879.584	0.0153084
879.663	0.0152216
879.741	0.0151796
879.819	0.0153368
879.897	0.0152911
879.975	0.0151431
880.053	0.0151454
880.131	0.0151690
880.209	0.0152171
880.288	0.0150915
880.366	0.0151467
880.444	0.0151915
880.522	0.0152410
880.600	0.0151997
880.678	0.0151409
880.756	0.0151027
880.834	0.0152253
880.913	0.0152366
880.991	0.0151874
881.069	0.0152529
881.147	0.0152576
881.225	0.0154948
881.303	0.0155606
881.381	0.0155074
881.459	0.0155392
881.538	0.0155119
881.616	0.0156239
881.694	0.0155308
881.772	0.0155582
881.850	0.0153236
881.928	0.0154203
882.006	0.0155413
882.084	0.0153414
882.163	0.0155309
882.241	0.0154643
882.319	0.0153745
882.397	0.0154124
882.475	0.0153355
882.553	0.0154876
882.631	0.0153723
882.709	0.0153945
882.788	0.0153637
882.866	0.0154787
882.944	0.0153375
883.022	0.0153529
883.100	0.0153580
883.178	0.0153288
883.256	0.0153233
883.334	0.0152808
883.413	0.0153772
883.491	0.0152359
883.569	0.0152636
883.647	0.0153268
883.725	0.0152055
883.803	0.0152666
883.881	0.0151463
883.959	0.0152953
884.038	0.0151604
884.116	0.0153426
884.194	0.0154129
884.272	0.0152927
884.350	0.0153033
884.428	0.0152392
884.506	0.0152991
884.584	0.0155444
884.663	0.0154840
884.741	0.0153204
884.819	0.0153170
884.897	0.0153344
884.975	0.0153186
885.053	0.0151994
885.131	0.0152418
885.209	0.0152990
885.288	0.0152231
885.366	0.0152406
885.444	0.0151180
885.522	0.0152060
885.600	0.0151410
885.678	0.0150925
885.756	0.0151690
885.834	0.0149935
885.913	0.0150038
885.991	0.0153043
886.069	0.0153575
886.147	0.0152660
886.225	0.0153325
886.303	0.0153021
886.381	0.0154395
886.459	0.0153587
886.538	0.0155172
886.616	0.0153906
886.694	0.0152990
886.772	0.0155128
886.850	0.0154775
886.928	0.0153008
887.006	0.0152264
887.084	0.0154088
887.163	0.0154335
887.241	0.0153557
887.319	0.0151256
887.397	0.0154089
887.475	0.0152451
887.553	0.0152082
887.631	0.0153130
887.709	0.0150780
887.788	0.0151109
887.866	0.0150086
887.944	0.0149982
888.022	0.0151438
888.100	0.0152023
888.178	0.0152065
888.256	0.0151809
888.334	0.0151991
888.413	0.0152171
888.491	0.0153886
888.569	0.0155403
888.647	0.0154233
888.725	0.0155568
888.803	0.0155135
888.881	0.0155086
888.959	0.0156251
889.038	0.0155807
889.116	0.0155546
889.194	0.0154510
889.272	0.0155466
889.350	0.0154947
889.428	0.0154512
889.506	0.0153419
889.584	0.0155477
889.663	0.0153410
889.741	0.0152886
889.819	0.0153837
889.897	0.0152956
889.975	0.0153305
890.053	0.0151727
890.131	0.0150530
890.209	0.0151349
890.288	0.0152110
890.366	0.0152274
890.444	0.0150966
890.522	0.0151649
890.600	0.0151772
890.678	0.0153300
890.756	0.0152703
890.834	0.0152245
890.913	0.0152929
890.991	0.0152216
891.069	0.0154220
891.147	0.0154110
891.225	0.0152158
891.303	0.0152763
891.381	0.0153672
891.459	0.0152468
891.538	0.0153986
891.616	0.0152795
891.694	0.0152675
891.772	0.0152904
891.850	0.0154613
891.928	0.0152998
892.006	0.0152683
892.084	0.0154756
892.163	0.0154523
892.241	0.0153676
892.319	0.0153415
892.397	0.0152726
892.475	0.0153071
892.553	0.0152277
892.631	0.0151960
892.709	0.0152486
892.788	0.0153566
892.866	0.0152289
892.944	0.0152599
893.022	0.0152815
893.100	0.0152690
893.178	0.0152179
893.256	0.0152705
893.334	0.0152496
893.413	0.0154666
893.491	0.0153024
893.569	0.0152391
893.647	0.0152742
893.725	0.0153748
893.803	0.0153986
893.881	0.0153724
893.959	0.0152803
894.038	0.0153883
894.116	0.0153548
894.194	0.0153754
894.272	0.0152982
894.350	0.0153469
894.428	0.0153172
894.506	0.0151659
894.584	0.0151866
894.663	0.0152103
894.741	0.0150975
894.819	0.0149674
894.897	0.0150832
894.975	0.0150969
895.053	0.0149172
895.131	0.0150774
895.209	0.0150064
895.288	0.0149796
895.366	0.0149831
895.444	0.0150519
895.522	0.0149548
895.600	0.0150265
895.678	0.0151280
895.756	0.0151588
895.834	0.0151722
895.913	0.0152393
895.991	0.0151879
896.069	0.0151275
896.147	0.0152321
896.225	0.0154099
896.303	0.0151827
896.381	0.0152413
896.459	0.0152183
896.538	0.0153442
896.616	0.0152135
896.694	0.0152686
896.772	0.0152682
896.850	0.0153212
896.928	0.0152957
897.006	0.0152161
897.084	0.0152275
897.163	0.0152392
897.241	0.0153041
897.319	0.0153706
897.397	0.0153592
897.475	0.0152515
897.553	0.0152785
897.631	0.0152749
897.709	0.0152069
897.788	0.0154750
897.866	0.0152441
897.944	0.0152728
898.022	0.0151619
898.100	0.0151291
898.178	0.0152167
898.256	0.0151009
898.334	0.0149978
898.413	0.0150603
898.491	0.0149107
898.569	0.0149986
898.647	0.0149699
898.725	0.0149144
898.803	0.0150794
898.881	0.0150517
898.959	0.0151427
899.038	0.0151164
899.116	0.0152402
899.194	0.0153173
899.272	0.0153975
899.350	0.0153342
899.428	0.0152936
899.506	0.0154439
899.584	0.0154721
899.663	0.0155099
899.741	0.0154326
899.819	0.0153651
899.897	0.0152859
899.975	0.0153111
900.053	0.0150687
900.131	0.0151296
900.209	0.0151551
900.288	0.0149908
900.366	0.0148996
900.444	0.0149435
900.522	0.0148605
900.600	0.0149619
900.678	0.0148434
900.756	0.0148132
900.834	0.0147079
900.913	0.0148717
900.991	0.0148042
901.069	0.0147708
901.147	0.0147338
901.225	0.0147080
901.303	0.0148055
901.381	0.0149173
901.459	0.0149008
901.538	0.0150824
901.616	0.0149756
901.694	0.0148269
901.772	0.0151125
901.850	0.0148880
901.928	0.0149002
902.006	0.0150803
902.084	0.0152547
902.163	0.0152201
902.241	0.0153014
902.319	0.0151557
902.397	0.0153168
902.475	0.0154066
902.553	0.0155318
902.631	0.0154568
902.709	0.0154044
902.788	0.0153626
902.866	0.0153764
902.944	0.0154910
903.022	0.0153587
903.100	0.0152505
903.178	0.0151663
903.256	0.0152323
903.334	0.0152419
903.413	0.0151809
903.491	0.0151286
903.569	0.0151978
903.647	0.0152101
903.725	0.0151904
903.803	0.0150004
903.881	0.0150933
903.959	0.0150901
904.038	0.0151109
904.116	0.0151769
904.194	0.0151617
904.272	0.0151277
904.350	0.0151259
904.428	0.0149542
904.506	0.0150993
904.584	0.0151468
904.663	0.0151412
904.741	0.0151592
904.819	0.0150977
904.897	0.0152311
904.975	0.0152693
905.053	0.0151884
905.131	0.0152373
905.209	0.0151730
905.288	0.0152158
905.366	0.0153053
905.444	0.0152777
905.522	0.0153230
905.600	0.0153206
905.678	0.0152191
905.756	0.0152654
905.834	0.0152111
905.913	0.0151723
905.991	0.0153209
906.069	0.0152969
906.147	0.0152583
906.225	0.0152699
906.303	0.0152779
906.381	0.0152007
906.459	0.0152278
906.538	0.0151295
906.616	0.0151691
906.694	0.0153270
906.772	0.0152541
906.850	0.0153573
906.928	0.0153099
907.006	0.0151675
907.084	0.0152618
907.163	0.0154307
907.241	0.0154052
907.319	0.0151946
907.397	0.0152124
907.475	0.0152444
907.553	0.0152628
907.631	0.0153696
907.709	0.0153194
907.788	0.0153817
907.866	0.0153211
907.944	0.0153362
908.022	0.0154510
908.100	0.0154713
908.178	0.0152656
908.256	0.0153682
908.334	0.0153999
908.413	0.0152080
908.491	0.0152685
908.569	0.0153572
908.647	0.0152086
908.725	0.0152146
908.803	0.0151531
908.881	0.0150619
908.959	0.0149543
909.038	0.0150721
909.116	0.0150161
909.194	0.0149432
909.272	0.0150851
909.350	0.0151024
909.428	0.0149608
909.506	0.0150832
909.584	0.0151508
909.663	0.0151928
909.741	0.0152103
909.819	0.0151524
909.897	0.0153766
909.975	0.0152616
910.053	0.0153239
910.131	0.0153069
910.209	0.0155264
910.288	0.0155686
910.366	0.0152359
910.444	0.0152498
910.522	0.0153337
910.600	0.0153208
910.678	0.0152914
910.756	0.0154533
910.834	0.0153210
910.913	0.0153215
910.991	0.0153123
911.069	0.0152297
911.147	0.0151746
911.225	0.0152514
911.303	0.0153770
911.381	0.0153444
911.459	0.0152821
911.538	0.0152058
911.616	0.0151913
911.694	0.0153729
911.772	0.0152299
911.850	0.0152237
911.928	0.0152295
912.006	0.0152120
912.084	0.0152238
912.163	0.0153613
912.241	0.0152884
912.319	0.0153341
912.397	0.0153327
912.475	0.0155253
912.553	0.0153480
912.631	0.0153922
912.709	0.0153806
912.788	0.0153394
912.866	0.0152926
912.944	0.0154101
913.022	0.0153561
913.100	0.0153175
913.178	0.0153682
913.256	0.0152603
913.334	0.0153025
913.413	0.0153241
913.491	0.0153458
913.569	0.0154348
913.647	0.0154874
913.725	0.0154495
913.803	0.0153546
913.881	0.0154552
913.959	0.0154058
914.038	0.0155036
914.116	0.0154103
914.194	0.0154890
914.272	0.0155982
914.350	0.0154762
914.428	0.0155463
914.506	0.0153716
914.584	0.0153944
914.663	0.0154279
914.741	0.0154573
914.819	0.0153625
914.897	0.0155374
914.975	0.0153376
915.053	0.0153974
915.131	0.0153453
915.209	0.0154146
915.288	0.0152538
915.366	0.0153783
915.444	0.0153308
915.522	0.0153531
915.600	0.0153172
915.678	0.0152612
915.756	0.0153306
915.834	0.0153564
915.913	0.0152589
915.991	0.0151298
916.069	0.0152119
916.147	0.0152282
916.225	0.0151833
916.303	0.0150557
916.381	0.0149603
916.459	0.0149666
916.538	0.0148562
916.616	0.0148628
916.694	0.0149683
916.772	0.0149179
916.850	0.0148722
916.928	0.0148018
917.006	0.0147990
917.084	0.0148809
917.163	0.0148176
917.241	0.0149524
917.319	0.0150060
917.397	0.0150532
917.475	0.0150043
917.553	0.0149146
917.631	0.0150613
917.709	0.0150633
917.788	0.0152646
917.866	0.0153440
917.944	0.0152515
918.022	0.0153609
918.100	0.0153857
918.178	0.0153910
918.256	0.0154296
918.334	0.0152970
918.413	0.0154771
918.491	0.0153621
918.569	0.0154740
918.647	0.0153941
918.725	0.0153886
918.803	0.0154272
918.881	0.0154264
918.959	0.0154253
919.038	0.0152910
919.116	0.0153455
919.194	0.0152868
919.272	0.0151851
919.350	0.0152268
919.428	0.0152909
919.506	0.0153083
919.584	0.0152151
919.663	0.0150088
919.741	0.0150744
919.819	0.0151356
919.897	0.0151666
