05/20/2022	21:08:08	Ver.	4.1	UNKNOWN
Optical Delay	599.975067	Delta X		0.078125	Sweeps	1	Scan Rate	0/0
Coordinates	Axis 1	NaN	Axis 2	NaN	Axis 3	NaN	Axis 4	NaN	Axis 5	NaN	Axis 6	0.000000
TX Power	0.000000	RX Power	0.000000

599.975	0.0154628
600.053	0.0156443
600.131	0.0156232
600.209	0.0155996
600.288	0.0155765
600.366	0.0154559
600.444	0.0154747
600.522	0.0154739
600.600	0.0155676
600.678	0.0155460
600.756	0.0153685
600.834	0.0155114
600.913	0.0155724
600.991	0.0155098
601.069	0.0155476
601.147	0.0154707
601.225	0.0154498
601.303	0.0155006
601.381	0.0156310
601.459	0.0155182
601.538	0.0154842
601.616	0.0154266
601.694	0.0155249
601.772	0.0154963
601.850	0.0155101
601.928	0.0156075
602.006	0.0156035
602.084	0.0154192
602.163	0.0154106
602.241	0.0155710
602.319	0.0155806
602.397	0.0154467
602.475	0.0154716
602.553	0.0156052
602.631	0.0154910
602.709	0.0154070
602.788	0.0154227
602.866	0.0154363
602.944	0.0155081
603.022	0.0154393
603.100	0.0155389
603.178	0.0156383
603.256	0.0154557
603.334	0.0153849
603.413	0.0155062
603.491	0.0155758
603.569	0.0156133
603.647	0.0153331
603.725	0.0155627
603.803	0.0155305
603.881	0.0155244
603.959	0.0154984
604.038	0.0155302
604.116	0.0155206
604.194	0.0155620
604.272	0.0155814
604.350	0.0154726
604.428	0.0155066
604.506	0.0154971
604.584	0.0154728
604.663	0.0155129
604.741	0.0155520
604.819	0.0154224
604.897	0.0154478
604.975	0.0154958
605.053	0.0155875
605.131	0.0155045
605.209	0.0155068
605.288	0.0155651
605.366	0.0156119
605.444	0.0155275
605.522	0.0155032
605.600	0.0155282
605.678	0.0156026
605.756	0.0156374
605.834	0.0154855
605.913	0.0156274
605.991	0.0156107
606.069	0.0155216
606.147	0.0154887
606.225	0.0155448
606.303	0.0155508
606.381	0.0156418
606.459	0.0156254
606.538	0.0155243
606.616	0.0155434
606.694	0.0154772
606.772	0.0156038
606.850	0.0155186
606.928	0.0155051
607.006	0.0154780
607.084	0.0153955
607.163	0.0155740
607.241	0.0153976
607.319	0.0155798
607.397	0.0155574
607.475	0.0155116
607.553	0.0155716
607.631	0.0155109
607.709	0.0155127
607.788	0.0156277
607.866	0.0155618
607.944	0.0155542
608.022	0.0154454
608.100	0.0154537
608.178	0.0156384
608.256	0.0155643
608.334	0.0155406
608.413	0.0155997
608.491	0.0155823
608.569	0.0155369
608.647	0.0155489
608.725	0.0156522
608.803	0.0156325
608.881	0.0155960
608.959	0.0156788
609.038	0.0155619
609.116	0.0155839
609.194	0.0156578
609.272	0.0156323
609.350	0.0156957
609.428	0.0157182
609.506	0.0155849
609.584	0.0156954
609.663	0.0157487
609.741	0.0156758
609.819	0.0154552
609.897	0.0157915
609.975	0.0157701
610.053	0.0157445
610.131	0.0156097
610.209	0.0154909
610.288	0.0156983
610.366	0.0155252
610.444	0.0156779
610.522	0.0156709
610.600	0.0155753
610.678	0.0155709
610.756	0.0157249
610.834	0.0157198
610.913	0.0155603
610.991	0.0156094
611.069	0.0156484
611.147	0.0156688
611.225	0.0156325
611.303	0.0156285
611.381	0.0156077
611.459	0.0156261
611.538	0.0156853
611.616	0.0155426
611.694	0.0157220
611.772	0.0155690
611.850	0.0156687
611.928	0.0156133
612.006	0.0156009
612.084	0.0156937
612.163	0.0157313
612.241	0.0155849
612.319	0.0155872
612.397	0.0156112
612.475	0.0155572
612.553	0.0155947
612.631	0.0155294
612.709	0.0156799
612.788	0.0157407
612.866	0.0156595
612.944	0.0156497
613.022	0.0156252
613.100	0.0157243
613.178	0.0155198
613.256	0.0156641
613.334	0.0157525
613.413	0.0156678
613.491	0.0155375
613.569	0.0155166
613.647	0.0156082
613.725	0.0156410
613.803	0.0155356
613.881	0.0154967
613.959	0.0155772
614.038	0.0157249
614.116	0.0156834
614.194	0.0156190
614.272	0.0156346
614.350	0.0155421
614.428	0.0156439
614.506	0.0156274
614.584	0.0157074
614.663	0.0155132
614.741	0.0156922
614.819	0.0156251
614.897	0.0155814
614.975	0.0156083
615.053	0.0155007
615.131	0.0156217
615.209	0.0156814
615.288	0.0155942
615.366	0.0155081
615.444	0.0155299
615.522	0.0156169
615.600	0.0156317
615.678	0.0155784
615.756	0.0156055
615.834	0.0155434
615.913	0.0155598
615.991	0.0154726
616.069	0.0155401
616.147	0.0156019
616.225	0.0155192
616.303	0.0155487
616.381	0.0156233
616.459	0.0154996
616.538	0.0156641
616.616	0.0156522
616.694	0.0155204
616.772	0.0155144
616.850	0.0155865
616.928	0.0155814
617.006	0.0155756
617.084	0.0155233
617.163	0.0154768
617.241	0.0154982
617.319	0.0154488
617.397	0.0155575
617.475	0.0156345
617.553	0.0155270
617.631	0.0155396
617.709	0.0155445
617.788	0.0155819
617.866	0.0155274
617.944	0.0155890
618.022	0.0154659
618.100	0.0155093
618.178	0.0154062
618.256	0.0154435
618.334	0.0156302
618.413	0.0155661
618.491	0.0154181
618.569	0.0155513
618.647	0.0155422
618.725	0.0154172
618.803	0.0155643
618.881	0.0155518
618.959	0.0155130
619.038	0.0154838
619.116	0.0155882
619.194	0.0153223
619.272	0.0154687
619.350	0.0154300
619.428	0.0154400
619.506	0.0154827
619.584	0.0155093
619.663	0.0154935
619.741	0.0153641
619.819	0.0154394
619.897	0.0154385
619.975	0.0155962
620.053	0.0154324
620.131	0.0154060
620.209	0.0155379
620.288	0.0154291
620.366	0.0154693
620.444	0.0154659
620.522	0.0153693
620.600	0.0154406
620.678	0.0154160
620.756	0.0154899
620.834	0.0154694
620.913	0.0154784
620.991	0.0155175
621.069	0.0156124
621.147	0.0155190
621.225	0.0155791
621.303	0.0153917
621.381	0.0154361
621.459	0.0156243
621.538	0.0155145
621.616	0.0153555
621.694	0.0155124
621.772	0.0155045
621.850	0.0155122
621.928	0.0154410
622.006	0.0154778
622.084	0.0155061
622.163	0.0154733
622.241	0.0154694
622.319	0.0154267
622.397	0.0153903
622.475	0.0155280
622.553	0.0153889
622.631	0.0154849
622.709	0.0155379
622.788	0.0153902
622.866	0.0155035
622.944	0.0154760
623.022	0.0153801
623.100	0.0154092
623.178	0.0154456
623.256	0.0154627
623.334	0.0154490
623.413	0.0153825
623.491	0.0155143
623.569	0.0154810
623.647	0.0154449
623.725	0.0155677
623.803	0.0154169
623.881	0.0153737
623.959	0.0154149
624.038	0.0155635
624.116	0.0153861
624.194	0.0155517
624.272	0.0155599
624.350	0.0154911
624.428	0.0155569
624.506	0.0155566
624.584	0.0154893
624.663	0.0154440
624.741	0.0153409
624.819	0.0154332
624.897	0.0155121
624.975	0.0154385
625.053	0.0154329
625.131	0.0152991
625.209	0.0154910
625.288	0.0154538
625.366	0.0154016
625.444	0.0154352
625.522	0.0154656
625.600	0.0154451
625.678	0.0154582
625.756	0.0154881
625.834	0.0154407
625.913	0.0154932
625.991	0.0154265
626.069	0.0154753
626.147	0.0154749
626.225	0.0155808
626.303	0.0156035
626.381	0.0155394
626.459	0.0154280
626.538	0.0154985
626.616	0.0154374
626.694	0.0156011
626.772	0.0154343
626.850	0.0154451
626.928	0.0154050
627.006	0.0155467
627.084	0.0155183
627.163	0.0155912
627.241	0.0155253
627.319	0.0155123
627.397	0.0154590
627.475	0.0154327
627.553	0.0155270
627.631	0.0155736
627.709	0.0154932
627.788	0.0153944
627.866	0.0155522
627.944	0.0154787
628.022	0.0155987
628.100	0.0154516
628.178	0.0154939
628.256	0.0154987
628.334	0.0154258
628.413	0.0154192
628.491	0.0154862
628.569	0.0155397
628.647	0.0155650
628.725	0.0154823
628.803	0.0155134
628.881	0.0155324
628.959	0.0154807
629.038	0.0154877
629.116	0.0155561
629.194	0.0154845
629.272	0.0155139
629.350	0.0155652
629.428	0.0155036
629.506	0.0156333
629.584	0.0155946
629.663	0.0155140
629.741	0.0155486
629.819	0.0155644
629.897	0.0156984
629.975	0.0155535
630.053	0.0155460
630.131	0.0156099
630.209	0.0156040
630.288	0.0156162
630.366	0.0155372
630.444	0.0155901
630.522	0.0155798
630.600	0.0153671
630.678	0.0154865
630.756	0.0155392
630.834	0.0155795
630.913	0.0154957
630.991	0.0154752
631.069	0.0155978
631.147	0.0155299
631.225	0.0153922
631.303	0.0154225
631.381	0.0155764
631.459	0.0155135
631.538	0.0152997
631.616	0.0155225
631.694	0.0156960
631.772	0.0156142
631.850	0.0156731
631.928	0.0154412
632.006	0.0156633
632.084	0.0156019
632.163	0.0154700
632.241	0.0155478
632.319	0.0155675
632.397	0.0155695
632.475	0.0155098
632.553	0.0154916
632.631	0.0156087
632.709	0.0155093
632.788	0.0156357
632.866	0.0155835
632.944	0.0155286
633.022	0.0155909
633.100	0.0155295
633.178	0.0155154
633.256	0.0154365
633.334	0.0155262
633.413	0.0155375
633.491	0.0154044
633.569	0.0153545
633.647	0.0154875
633.725	0.0154777
633.803	0.0154918
633.881	0.0154906
633.959	0.0154276
634.038	0.0153822
634.116	0.0153408
634.194	0.0153773
634.272	0.0153576
634.350	0.0154716
634.428	0.0153932
634.506	0.0154635
634.584	0.0154173
634.663	0.0154090
634.741	0.0154095
634.819	0.0154772
634.897	0.0155604
634.975	0.0156950
635.053	0.0155569
635.131	0.0156386
635.209	0.0155581
635.288	0.0155825
635.366	0.0157410
635.444	0.0156127
635.522	0.0155075
635.600	0.0157447
635.678	0.0155211
635.756	0.0155051
635.834	0.0154618
635.913	0.0155457
635.991	0.0155313
636.069	0.0155536
636.147	0.0155823
636.225	0.0155108
636.303	0.0155550
636.381	0.0154723
636.459	0.0153844
636.538	0.0154194
636.616	0.0155460
636.694	0.0154324
636.772	0.0154745
636.850	0.0154080
636.928	0.0156038
637.006	0.0154192
637.084	0.0153822
637.163	0.0152931
637.241	0.0153794
637.319	0.0154525
637.397	0.0155596
637.475	0.0154643
637.553	0.0154291
637.631	0.0153591
637.709	0.0154301
637.788	0.0154591
637.866	0.0154899
637.944	0.0155414
638.022	0.0153167
638.100	0.0153027
638.178	0.0153617
638.256	0.0155129
638.334	0.0152753
638.413	0.0153646
638.491	0.0154086
638.569	0.0152885
638.647	0.0152523
638.725	0.0153929
638.803	0.0155497
638.881	0.0154141
638.959	0.0155376
639.038	0.0153748
639.116	0.0155248
639.194	0.0155213
639.272	0.0155174
639.350	0.0156125
639.428	0.0156007
639.506	0.0155122
639.584	0.0154155
639.663	0.0156443
639.741	0.0156483
639.819	0.0153543
639.897	0.0155433
639.975	0.0155605
640.053	0.0156254
640.131	0.0155724
640.209	0.0156778
640.288	0.0157816
640.366	0.0155751
640.444	0.0156430
640.522	0.0156182
640.600	0.0156131
640.678	0.0155675
640.756	0.0155569
640.834	0.0155796
640.913	0.0155085
640.991	0.0154958
641.069	0.0154752
641.147	0.0154892
641.225	0.0155128
641.303	0.0155170
641.381	0.0154575
641.459	0.0153778
641.538	0.0154081
641.616	0.0154260
641.694	0.0152960
641.772	0.0152035
641.850	0.0153110
641.928	0.0153394
642.006	0.0152975
642.084	0.0154025
642.163	0.0152482
642.241	0.0153136
642.319	0.0152984
642.397	0.0154013
642.475	0.0153238
642.553	0.0153345
642.631	0.0153821
642.709	0.0153448
642.788	0.0153289
642.866	0.0155042
642.944	0.0154529
643.022	0.0154832
643.100	0.0155552
643.178	0.0157459
643.256	0.0155738
643.334	0.0156717
643.413	0.0156020
643.491	0.0156169
643.569	0.0156154
643.647	0.0155462
643.725	0.0156322
643.803	0.0155302
643.881	0.0154504
643.959	0.0155650
644.038	0.0155879
644.116	0.0155334
644.194	0.0154465
644.272	0.0155074
644.350	0.0154665
644.428	0.0154586
644.506	0.0154043
644.584	0.0153899
644.663	0.0154154
644.741	0.0153951
644.819	0.0152688
644.897	0.0152678
644.975	0.0153308
645.053	0.0153057
645.131	0.0153901
645.209	0.0153141
645.288	0.0154222
645.366	0.0153814
645.444	0.0153792
645.522	0.0152612
645.600	0.0153573
645.678	0.0154253
645.756	0.0154000
645.834	0.0152985
645.913	0.0153996
645.991	0.0153513
646.069	0.0154792
646.147	0.0154845
646.225	0.0154925
646.303	0.0152103
646.381	0.0153733
646.459	0.0155373
646.538	0.0154465
646.616	0.0155867
646.694	0.0153969
646.772	0.0154614
646.850	0.0154565
646.928	0.0153883
647.006	0.0154045
647.084	0.0155228
647.163	0.0155338
647.241	0.0156216
647.319	0.0155952
647.397	0.0156258
647.475	0.0156072
647.553	0.0155594
647.631	0.0157317
647.709	0.0156242
647.788	0.0157096
647.866	0.0157040
647.944	0.0156626
648.022	0.0157005
648.100	0.0157355
648.178	0.0155961
648.256	0.0156824
648.334	0.0155992
648.413	0.0154813
648.491	0.0156494
648.569	0.0155013
648.647	0.0154414
648.725	0.0153867
648.803	0.0155302
648.881	0.0154301
648.959	0.0154350
649.038	0.0155245
649.116	0.0153991
649.194	0.0155006
649.272	0.0154160
649.350	0.0154449
649.428	0.0154093
649.506	0.0152955
649.584	0.0153038
649.663	0.0154107
649.741	0.0154748
649.819	0.0155210
649.897	0.0153542
649.975	0.0155188
650.053	0.0155654
650.131	0.0154333
650.209	0.0155495
650.288	0.0155525
650.366	0.0155343
650.444	0.0155271
650.522	0.0155276
650.600	0.0155238
650.678	0.0155682
650.756	0.0156919
650.834	0.0156982
650.913	0.0157199
650.991	0.0155962
651.069	0.0155827
651.147	0.0156610
651.225	0.0154960
651.303	0.0155447
651.381	0.0154829
651.459	0.0154633
651.538	0.0156091
651.616	0.0154276
651.694	0.0155356
651.772	0.0155019
651.850	0.0153976
651.928	0.0154324
652.006	0.0155518
652.084	0.0155648
652.163	0.0155384
652.241	0.0155341
652.319	0.0155848
652.397	0.0157673
652.475	0.0156863
652.553	0.0156560
652.631	0.0156059
652.709	0.0155565
652.788	0.0157401
652.866	0.0157587
652.944	0.0155940
653.022	0.0155618
653.100	0.0154654
653.178	0.0155710
653.256	0.0155550
653.334	0.0155076
653.413	0.0155650
653.491	0.0155952
653.569	0.0153547
653.647	0.0154905
653.725	0.0152451
653.803	0.0153868
653.881	0.0154741
653.959	0.0153544
654.038	0.0152806
654.116	0.0152892
654.194	0.0153397
654.272	0.0154525
654.350	0.0155728
654.428	0.0156361
654.506	0.0154585
654.584	0.0155526
654.663	0.0156065
654.741	0.0154301
654.819	0.0154882
654.897	0.0157527
654.975	0.0156812
655.053	0.0156257
655.131	0.0156644
655.209	0.0155941
655.288	0.0155738
655.366	0.0155950
655.444	0.0156191
655.522	0.0156267
655.600	0.0155000
655.678	0.0155068
655.756	0.0155686
655.834	0.0156098
655.913	0.0155910
655.991	0.0153806
656.069	0.0154581
656.147	0.0154840
656.225	0.0153409
656.303	0.0154079
656.381	0.0154706
656.459	0.0155075
656.538	0.0153664
656.616	0.0154405
656.694	0.0154886
656.772	0.0155285
656.850	0.0154900
656.928	0.0156142
657.006	0.0155175
657.084	0.0156947
657.163	0.0156386
657.241	0.0156325
657.319	0.0156452
657.397	0.0157134
657.475	0.0156438
657.553	0.0156815
657.631	0.0156099
657.709	0.0157283
657.788	0.0154747
657.866	0.0156551
657.944	0.0156766
658.022	0.0155795
658.100	0.0155955
658.178	0.0154797
658.256	0.0155232
658.334	0.0153887
658.413	0.0154492
658.491	0.0154311
658.569	0.0154805
658.647	0.0152989
658.725	0.0153958
658.803	0.0154526
658.881	0.0152807
658.959	0.0154784
659.038	0.0155690
659.116	0.0154958
659.194	0.0154138
659.272	0.0154211
659.350	0.0155533
659.428	0.0154503
659.506	0.0155261
659.584	0.0153255
659.663	0.0153656
659.741	0.0154192
659.819	0.0154486
659.897	0.0155334
659.975	0.0155492
660.053	0.0154258
660.131	0.0155679
660.209	0.0156728
660.288	0.0155988
660.366	0.0155350
660.444	0.0156332
660.522	0.0153861
660.600	0.0155691
660.678	0.0155093
660.756	0.0156042
660.834	0.0155667
660.913	0.0156269
660.991	0.0156440
661.069	0.0155566
661.147	0.0155272
661.225	0.0156506
661.303	0.0156373
661.381	0.0154882
661.459	0.0154533
661.538	0.0155481
661.616	0.0155185
661.694	0.0154506
661.772	0.0154160
661.850	0.0153616
661.928	0.0154700
662.006	0.0154898
662.084	0.0155158
662.163	0.0154524
662.241	0.0154715
662.319	0.0153888
662.397	0.0155847
662.475	0.0155322
662.553	0.0156139
662.631	0.0154675
662.709	0.0154745
662.788	0.0154778
662.866	0.0154982
662.944	0.0155425
663.022	0.0155188
663.100	0.0155296
663.178	0.0155563
663.256	0.0155052
663.334	0.0154436
663.413	0.0155180
663.491	0.0154736
663.569	0.0153805
663.647	0.0154550
663.725	0.0152765
663.803	0.0153056
663.881	0.0154047
663.959	0.0152864
664.038	0.0152663
664.116	0.0153156
664.194	0.0153329
664.272	0.0153835
664.350	0.0152622
664.428	0.0154347
664.506	0.0153917
664.584	0.0154494
664.663	0.0154267
664.741	0.0155081
664.819	0.0154366
664.897	0.0155512
664.975	0.0155692
665.053	0.0156576
665.131	0.0156718
665.209	0.0155888
665.288	0.0156617
665.366	0.0157250
665.444	0.0157371
665.522	0.0157526
665.600	0.0156778
665.678	0.0156584
665.756	0.0157233
665.834	0.0156586
665.913	0.0155525
665.991	0.0155829
666.069	0.0155438
666.147	0.0156371
666.225	0.0154931
666.303	0.0153826
666.381	0.0154231
666.459	0.0153848
666.538	0.0153764
666.616	0.0153519
666.694	0.0153644
666.772	0.0154996
666.850	0.0155918
666.928	0.0154668
667.006	0.0155092
667.084	0.0155412
667.163	0.0155911
667.241	0.0157525
667.319	0.0156336
667.397	0.0155857
667.475	0.0156335
667.553	0.0157532
667.631	0.0157016
667.709	0.0156788
667.788	0.0155511
667.866	0.0155851
667.944	0.0156416
668.022	0.0157382
668.100	0.0155368
668.178	0.0154655
668.256	0.0155187
668.334	0.0154932
668.413	0.0153343
668.491	0.0154585
668.569	0.0155546
668.647	0.0155281
668.725	0.0156384
668.803	0.0154974
668.881	0.0155923
668.959	0.0156495
669.038	0.0156174
669.116	0.0155319
669.194	0.0155081
669.272	0.0155949
669.350	0.0155886
669.428	0.0156866
669.506	0.0157009
669.584	0.0156297
669.663	0.0157791
669.741	0.0158406
669.819	0.0157115
669.897	0.0158021
669.975	0.0157977
670.053	0.0157183
670.131	0.0157607
670.209	0.0157610
670.288	0.0156932
670.366	0.0156479
670.444	0.0156432
670.522	0.0155775
670.600	0.0156447
670.678	0.0156390
670.756	0.0155580
670.834	0.0155441
670.913	0.0155248
670.991	0.0155379
671.069	0.0154055
671.147	0.0155837
671.225	0.0156205
671.303	0.0154561
671.381	0.0154453
671.459	0.0155906
671.538	0.0154888
671.616	0.0155659
671.694	0.0155070
671.772	0.0155322
671.850	0.0156655
671.928	0.0156123
672.006	0.0155368
672.084	0.0155655
672.163	0.0156057
672.241	0.0156898
672.319	0.0158511
672.397	0.0157303
672.475	0.0157706
672.553	0.0157083
672.631	0.0156244
672.709	0.0158315
672.788	0.0157372
672.866	0.0157591
672.944	0.0156556
673.022	0.0155611
673.100	0.0155714
673.178	0.0155257
673.256	0.0154411
673.334	0.0155614
673.413	0.0155109
673.491	0.0155244
673.569	0.0155289
673.647	0.0157027
673.725	0.0158265
673.803	0.0156493
673.881	0.0156859
673.959	0.0157011
674.038	0.0157143
674.116	0.0157632
674.194	0.0157993
674.272	0.0156676
674.350	0.0157764
674.428	0.0157621
674.506	0.0156522
674.584	0.0155420
674.663	0.0156024
674.741	0.0155681
674.819	0.0155542
674.897	0.0154365
674.975	0.0154100
675.053	0.0152566
675.131	0.0152699
675.209	0.0153976
675.288	0.0151867
675.366	0.0151487
675.444	0.0152078
675.522	0.0153403
675.600	0.0153490
675.678	0.0153020
675.756	0.0153949
675.834	0.0154863
675.913	0.0155101
675.991	0.0155154
676.069	0.0157322
676.147	0.0158363
676.225	0.0159166
676.303	0.0159367
676.381	0.0159064
676.459	0.0160637
676.538	0.0159700
676.616	0.0161272
676.694	0.0159902
676.772	0.0157616
676.850	0.0159402
676.928	0.0157922
677.006	0.0156553
677.084	0.0155774
677.163	0.0154983
677.241	0.0154566
677.319	0.0153602
677.397	0.0151344
677.475	0.0148899
677.553	0.0149475
677.631	0.0147171
677.709	0.0146614
677.788	0.0146376
677.866	0.0145360
677.944	0.0144920
678.022	0.0146656
678.100	0.0147163
678.178	0.0147036
678.256	0.0149136
678.334	0.0149563
678.413	0.0151318
678.491	0.0152579
678.569	0.0154576
678.647	0.0157300
678.725	0.0157696
678.803	0.0159934
678.881	0.0162708
678.959	0.0165749
679.038	0.0165289
679.116	0.0167139
679.194	0.0167627
679.272	0.0168304
679.350	0.0168812
679.428	0.0168913
679.506	0.0168174
679.584	0.0167242
679.663	0.0166136
679.741	0.0164154
679.819	0.0162380
679.897	0.0161156
679.975	0.0157055
680.053	0.0155809
680.131	0.0153728
680.209	0.0151669
680.288	0.0149371
680.366	0.0146379
680.444	0.0144195
680.522	0.0143781
680.600	0.0141962
680.678	0.0142197
680.756	0.0141553
680.834	0.0140826
680.913	0.0138886
680.991	0.0139788
681.069	0.0141590
681.147	0.0142411
681.225	0.0143831
681.303	0.0144894
681.381	0.0146504
681.459	0.0148588
681.538	0.0151234
681.616	0.0153178
681.694	0.0155406
681.772	0.0156932
681.850	0.0160373
681.928	0.0160536
682.006	0.0161886
682.084	0.0164531
682.163	0.0164034
682.241	0.0165421
682.319	0.0167609
682.397	0.0167298
682.475	0.0167551
682.553	0.0167870
682.631	0.0168459
682.709	0.0167591
682.788	0.0167152
682.866	0.0166462
682.944	0.0163522
683.022	0.0162948
683.100	0.0160752
683.178	0.0160716
683.256	0.0159074
683.334	0.0157959
683.413	0.0157616
683.491	0.0154269
683.569	0.0153461
683.647	0.0150708
683.725	0.0150307
683.803	0.0150388
683.881	0.0147154
683.959	0.0148318
684.038	0.0147237
684.116	0.0147274
684.194	0.0145558
684.272	0.0146051
684.350	0.0145883
684.428	0.0146806
684.506	0.0147520
684.584	0.0148518
684.663	0.0148092
684.741	0.0151534
684.819	0.0151459
684.897	0.0154261
684.975	0.0154694
685.053	0.0156944
685.131	0.0158058
685.209	0.0159669
685.288	0.0160740
685.366	0.0163048
685.444	0.0163671
685.522	0.0163425
685.600	0.0164491
685.678	0.0165769
685.756	0.0164699
685.834	0.0164135
685.913	0.0163478
685.991	0.0164578
686.069	0.0163181
686.147	0.0162360
686.225	0.0160635
686.303	0.0159286
686.381	0.0157732
686.459	0.0156061
686.538	0.0154663
686.616	0.0153455
686.694	0.0152705
686.772	0.0149834
686.850	0.0149410
686.928	0.0148856
687.006	0.0147064
687.084	0.0144946
687.163	0.0144852
687.241	0.0144250
687.319	0.0144406
687.397	0.0143902
687.475	0.0146553
687.553	0.0146297
687.631	0.0149838
687.709	0.0149825
687.788	0.0151781
687.866	0.0154414
687.944	0.0155929
688.022	0.0158060
688.100	0.0159537
688.178	0.0161265
688.256	0.0164139
688.334	0.0166117
688.413	0.0166048
688.491	0.0166784
688.569	0.0167810
688.647	0.0167638
688.725	0.0167908
688.803	0.0168401
688.881	0.0167503
688.959	0.0166433
689.038	0.0165855
689.116	0.0165076
689.194	0.0164976
689.272	0.0163128
689.350	0.0161246
689.428	0.0161984
689.506	0.0161552
689.584	0.0161301
689.663	0.0160011
689.741	0.0158792
689.819	0.0157967
689.897	0.0156356
689.975	0.0155978
690.053	0.0154125
690.131	0.0151476
690.209	0.0149791
690.288	0.0148186
690.366	0.0146095
690.444	0.0143819
690.522	0.0141386
690.600	0.0140331
690.678	0.0138951
690.756	0.0138441
690.834	0.0137215
690.913	0.0134718
690.991	0.0135635
691.069	0.0135416
691.147	0.0136015
691.225	0.0136382
691.303	0.0137032
691.381	0.0137309
691.459	0.0139961
691.538	0.0140645
691.616	0.0142305
691.694	0.0143573
691.772	0.0147421
691.850	0.0149426
691.928	0.0152581
692.006	0.0155512
692.084	0.0157597
692.163	0.0159639
692.241	0.0163829
692.319	0.0166837
692.397	0.0167994
692.475	0.0171828
692.553	0.0173225
692.631	0.0174837
692.709	0.0176904
692.788	0.0175504
692.866	0.0177715
692.944	0.0177109
693.022	0.0178324
693.100	0.0176598
693.178	0.0177863
693.256	0.0176959
693.334	0.0175469
693.413	0.0175067
693.491	0.0174223
693.569	0.0173569
693.647	0.0171935
693.725	0.0171912
693.803	0.0171346
693.881	0.0170392
693.959	0.0169656
694.038	0.0168308
694.116	0.0167919
694.194	0.0167342
694.272	0.0163692
694.350	0.0161153
694.428	0.0159618
694.506	0.0157674
694.584	0.0154051
694.663	0.0151399
694.741	0.0148154
694.819	0.0143870
694.897	0.0140434
694.975	0.0138185
695.053	0.0135806
695.131	0.0131447
695.209	0.0129546
695.288	0.0127868
695.366	0.0126424
695.444	0.0127657
695.522	0.0125572
695.600	0.0124960
695.678	0.0126297
695.756	0.0126284
695.834	0.0126477
695.913	0.0128147
695.991	0.0128555
696.069	0.0130367
696.147	0.0131623
696.225	0.0134165
696.303	0.0134603
696.381	0.0138702
696.459	0.0140768
696.538	0.0143328
696.616	0.0147263
696.694	0.0151982
696.772	0.0155765
696.850	0.0160454
696.928	0.0164865
697.006	0.0170869
697.084	0.0175375
697.163	0.0180507
697.241	0.0185280
697.319	0.0190004
697.397	0.0193642
697.475	0.0198354
697.553	0.0201581
697.631	0.0201472
697.709	0.0202982
697.788	0.0203691
697.866	0.0202370
697.944	0.0201800
698.022	0.0199315
698.100	0.0195696
698.178	0.0191515
698.256	0.0186423
698.334	0.0180046
698.413	0.0173724
698.491	0.0166978
698.569	0.0159811
698.647	0.0151955
698.725	0.0144169
698.803	0.0136375
698.881	0.0131793
698.959	0.0123515
699.038	0.0119027
699.116	0.0113565
699.194	0.0111896
699.272	0.0110127
699.350	0.0109301
699.428	0.0109435
699.506	0.0110689
699.584	0.0114725
699.663	0.0119052
699.741	0.0122829
699.819	0.0129567
699.897	0.0134622
699.975	0.0141273
700.053	0.0146573
700.131	0.0150305
700.209	0.0157368
700.288	0.0163960
700.366	0.0165115
700.444	0.0168684
700.522	0.0171655
700.600	0.0171587
700.678	0.0171275
700.756	0.0172688
700.834	0.0172454
700.913	0.0171774
700.991	0.0171123
701.069	0.0168081
701.147	0.0166976
701.225	0.0165167
701.303	0.0164056
701.381	0.0163134
701.459	0.0163093
701.538	0.0159727
701.616	0.0157632
701.694	0.0156730
701.772	0.0154080
701.850	0.0151505
701.928	0.0149570
702.006	0.0146153
702.084	0.0144376
702.163	0.0141647
702.241	0.0141914
702.319	0.0141298
702.397	0.0140434
702.475	0.0140766
702.553	0.0143385
702.631	0.0144154
702.709	0.0147318
702.788	0.0149863
702.866	0.0152402
702.944	0.0156519
703.022	0.0158504
703.100	0.0160760
703.178	0.0161941
703.256	0.0162447
703.334	0.0164189
703.413	0.0165026
703.491	0.0164642
703.569	0.0165548
703.647	0.0167014
703.725	0.0166496
703.803	0.0165941
703.881	0.0165643
703.959	0.0166077
704.038	0.0165836
704.116	0.0167311
704.194	0.0167491
704.272	0.0168472
704.350	0.0167677
704.428	0.0166203
704.506	0.0164294
704.584	0.0165040
704.663	0.0162379
704.741	0.0159366
704.819	0.0157305
704.897	0.0156696
704.975	0.0153476
705.053	0.0153381
705.131	0.0150211
705.209	0.0149487
705.288	0.0147654
705.366	0.0148125
705.444	0.0148526
705.522	0.0148763
705.600	0.0149104
705.678	0.0148515
705.756	0.0148510
705.834	0.0148937
705.913	0.0148489
705.991	0.0148656
706.069	0.0148899
706.147	0.0149400
706.225	0.0149617
706.303	0.0147840
706.381	0.0147720
706.459	0.0148373
706.538	0.0148666
706.616	0.0149908
706.694	0.0149268
706.772	0.0148803
706.850	0.0148784
706.928	0.0146916
707.006	0.0146341
707.084	0.0145370
707.163	0.0143855
707.241	0.0144085
707.319	0.0144394
707.397	0.0142498
707.475	0.0142481
707.553	0.0143623
707.631	0.0144976
707.709	0.0147047
707.788	0.0150047
707.866	0.0151914
707.944	0.0156712
708.022	0.0157656
708.100	0.0159287
708.178	0.0162318
708.256	0.0164557
708.334	0.0164219
708.413	0.0166174
708.491	0.0166911
708.569	0.0166031
708.647	0.0165125
708.725	0.0165996
708.803	0.0163842
708.881	0.0162704
708.959	0.0161514
709.038	0.0162033
709.116	0.0161479
709.194	0.0160629
709.272	0.0159306
709.350	0.0157887
709.428	0.0158105
709.506	0.0158637
709.584	0.0157690
709.663	0.0154187
709.741	0.0154472
709.819	0.0154309
709.897	0.0153645
709.975	0.0152953
710.053	0.0153577
710.131	0.0152451
710.209	0.0155973
710.288	0.0157601
710.366	0.0159725
710.444	0.0160925
710.522	0.0164822
710.600	0.0168827
710.678	0.0172886
710.756	0.0173029
710.834	0.0176234
710.913	0.0177557
710.991	0.0179585
711.069	0.0179086
711.147	0.0176826
711.225	0.0174685
711.303	0.0171129
711.381	0.0167382
711.459	0.0162699
711.538	0.0157943
711.616	0.0152901
711.694	0.0147217
711.772	0.0143133
711.850	0.0141107
711.928	0.0135567
712.006	0.0129800
712.084	0.0127571
712.163	0.0124483
712.241	0.0122321
712.319	0.0117941
712.397	0.0116940
712.475	0.0116728
712.553	0.0114579
712.631	0.0115709
712.709	0.0116037
712.788	0.0119147
712.866	0.0123095
712.944	0.0127379
713.022	0.0132139
713.100	0.0138307
713.178	0.0143510
713.256	0.0151381
713.334	0.0158698
713.413	0.0163506
713.491	0.0169737
713.569	0.0172118
713.647	0.0177060
713.725	0.0180379
713.803	0.0181589
713.881	0.0184383
713.959	0.0184951
714.038	0.0184475
714.116	0.0184489
714.194	0.0182411
714.272	0.0179897
714.350	0.0178562
714.428	0.0177232
714.506	0.0175459
714.584	0.0173221
714.663	0.0171048
714.741	0.0168037
714.819	0.0167329
714.897	0.0165010
714.975	0.0161980
715.053	0.0160065
715.131	0.0158079
715.209	0.0157881
715.288	0.0154073
715.366	0.0154069
715.444	0.0151930
715.522	0.0149738
715.600	0.0148719
715.678	0.0147378
715.756	0.0147314
715.834	0.0146092
715.913	0.0145973
715.991	0.0145815
716.069	0.0146246
716.147	0.0146198
716.225	0.0147898
716.303	0.0150404
716.381	0.0152751
716.459	0.0152953
716.538	0.0156039
716.616	0.0159659
716.694	0.0161512
716.772	0.0164161
716.850	0.0167773
716.928	0.0165806
717.006	0.0167323
717.084	0.0165751
717.163	0.0166224
717.241	0.0163654
717.319	0.0161247
717.397	0.0157073
717.475	0.0154472
717.553	0.0150875
717.631	0.0148302
717.709	0.0145382
717.788	0.0143729
717.866	0.0139839
717.944	0.0136894
718.022	0.0136736
718.100	0.0135592
718.178	0.0136605
718.256	0.0136794
718.334	0.0136104
718.413	0.0136901
718.491	0.0137402
718.569	0.0138593
718.647	0.0140588
718.725	0.0141634
718.803	0.0142523
718.881	0.0145603
718.959	0.0146819
719.038	0.0149523
719.116	0.0150138
719.194	0.0153480
719.272	0.0153950
719.350	0.0157370
719.428	0.0159136
719.506	0.0162975
719.584	0.0163448
719.663	0.0165559
719.741	0.0166717
719.819	0.0168805
719.897	0.0169463
719.975	0.0172030
720.053	0.0171354
720.131	0.0172435
720.209	0.0172686
720.288	0.0172279
720.366	0.0171661
720.444	0.0172279
720.522	0.0171117
720.600	0.0171238
720.678	0.0170903
720.756	0.0169362
720.834	0.0169588
720.913	0.0167910
720.991	0.0167323
721.069	0.0166362
721.147	0.0164228
721.225	0.0163092
721.303	0.0162165
721.381	0.0162128
721.459	0.0159481
721.538	0.0157633
721.616	0.0156806
721.694	0.0156144
721.772	0.0153835
721.850	0.0153218
721.928	0.0152496
722.006	0.0150877
722.084	0.0149934
722.163	0.0149019
722.241	0.0147794
722.319	0.0147973
722.397	0.0147271
722.475	0.0145612
722.553	0.0146452
722.631	0.0145779
722.709	0.0145714
722.788	0.0143073
722.866	0.0143006
722.944	0.0142320
723.022	0.0141957
723.100	0.0140133
723.178	0.0138335
723.256	0.0136232
723.334	0.0134214
723.413	0.0134836
723.491	0.0134544
723.569	0.0133809
723.647	0.0134933
723.725	0.0135523
723.803	0.0138145
723.881	0.0140414
723.959	0.0142354
724.038	0.0145530
724.116	0.0147923
724.194	0.0152473
724.272	0.0154160
724.350	0.0157021
724.428	0.0161519
724.506	0.0165636
724.584	0.0168793
724.663	0.0173614
724.741	0.0175701
724.819	0.0178900
724.897	0.0180374
724.975	0.0181341
725.053	0.0182131
725.131	0.0182916
725.209	0.0183199
725.288	0.0181508
725.366	0.0179639
725.444	0.0177568
725.522	0.0175401
725.600	0.0171675
725.678	0.0168252
725.756	0.0166367
725.834	0.0162142
725.913	0.0157293
725.991	0.0154407
726.069	0.0152633
726.147	0.0149296
726.225	0.0150423
726.303	0.0147568
726.381	0.0147869
726.459	0.0149104
726.538	0.0150797
726.616	0.0152599
726.694	0.0154131
726.772	0.0155592
726.850	0.0157583
726.928	0.0160462
727.006	0.0161694
727.084	0.0163235
727.163	0.0164326
727.241	0.0165627
727.319	0.0165004
727.397	0.0163966
727.475	0.0162262
727.553	0.0160645
727.631	0.0157594
727.709	0.0155605
727.788	0.0151605
727.866	0.0148743
727.944	0.0144650
728.022	0.0140911
728.100	0.0139929
728.178	0.0138203
728.256	0.0136697
728.334	0.0135387
728.413	0.0135677
728.491	0.0134404
728.569	0.0134617
728.647	0.0134183
728.725	0.0135152
728.803	0.0134079
728.881	0.0137000
728.959	0.0135526
729.038	0.0136768
729.116	0.0138284
729.194	0.0140701
729.272	0.0141042
729.350	0.0144053
729.428	0.0144283
729.506	0.0146884
729.584	0.0150741
729.663	0.0152350
729.741	0.0156609
729.819	0.0158547
729.897	0.0161559
729.975	0.0164745
730.053	0.0167549
730.131	0.0169412
730.209	0.0171217
730.288	0.0173737
730.366	0.0176299
730.444	0.0175541
730.522	0.0175827
730.600	0.0175860
730.678	0.0176283
730.756	0.0175420
730.834	0.0174914
730.913	0.0173730
730.991	0.0172375
731.069	0.0172018
731.147	0.0170280
731.225	0.0168670
731.303	0.0167249
731.381	0.0164663
731.459	0.0164008
731.538	0.0161660
731.616	0.0160461
731.694	0.0159354
731.772	0.0156747
731.850	0.0155627
731.928	0.0155630
732.006	0.0154820
732.084	0.0152835
732.163	0.0152660
732.241	0.0151230
732.319	0.0150063
732.397	0.0148789
732.475	0.0148766
732.553	0.0149166
732.631	0.0149372
732.709	0.0149249
732.788	0.0149390
732.866	0.0150097
732.944	0.0151004
733.022	0.0152419
733.100	0.0152255
733.178	0.0152822
733.256	0.0152924
733.334	0.0153508
733.413	0.0153596
733.491	0.0152414
733.569	0.0151857
733.647	0.0149648
733.725	0.0148063
733.803	0.0145246
733.881	0.0145362
733.959	0.0143830
734.038	0.0141674
734.116	0.0140738
734.194	0.0138904
734.272	0.0137582
734.350	0.0138403
734.428	0.0141305
734.506	0.0141268
734.584	0.0143354
734.663	0.0146162
734.741	0.0147752
734.819	0.0147641
734.897	0.0149951
734.975	0.0153023
735.053	0.0153257
735.131	0.0153500
735.209	0.0153429
735.288	0.0154846
735.366	0.0156125
735.444	0.0155543
735.522	0.0156869
735.600	0.0154279
735.678	0.0155138
735.756	0.0155525
735.834	0.0156642
735.913	0.0156810
735.991	0.0155756
736.069	0.0156306
736.147	0.0157597
736.225	0.0157304
736.303	0.0155759
736.381	0.0159101
736.459	0.0158905
736.538	0.0159080
736.616	0.0159754
736.694	0.0159988
736.772	0.0160437
736.850	0.0164336
736.928	0.0164944
737.006	0.0164992
737.084	0.0167597
737.163	0.0168716
737.241	0.0168536
737.319	0.0168402
737.397	0.0170474
737.475	0.0169631
737.553	0.0169697
737.631	0.0167487
737.709	0.0167319
737.788	0.0166248
737.866	0.0163865
737.944	0.0161842
738.022	0.0161353
738.100	0.0158470
738.178	0.0156260
738.256	0.0155093
738.334	0.0153775
738.413	0.0153413
738.491	0.0152581
738.569	0.0150972
738.647	0.0150739
738.725	0.0151860
738.803	0.0150607
738.881	0.0151516
738.959	0.0151550
739.038	0.0149102
739.116	0.0146951
739.194	0.0148014
739.272	0.0147665
739.350	0.0147673
739.428	0.0145858
739.506	0.0145177
739.584	0.0144788
739.663	0.0143090
739.741	0.0143307
739.819	0.0142505
739.897	0.0142194
739.975	0.0142909
740.053	0.0143243
740.131	0.0144327
740.209	0.0145249
740.288	0.0146750
740.366	0.0147915
740.444	0.0150845
740.522	0.0151418
740.600	0.0152339
740.678	0.0153242
740.756	0.0155132
740.834	0.0155734
740.913	0.0156126
740.991	0.0156509
741.069	0.0157984
741.147	0.0158670
741.225	0.0158856
741.303	0.0159563
741.381	0.0161802
741.459	0.0163161
741.538	0.0163615
741.616	0.0164145
741.694	0.0167343
741.772	0.0167361
741.850	0.0167464
741.928	0.0166661
742.006	0.0166052
742.084	0.0166183
742.163	0.0164831
742.241	0.0164075
742.319	0.0162869
742.397	0.0161103
742.475	0.0159061
742.553	0.0156137
742.631	0.0156011
742.709	0.0154272
742.788	0.0152834
742.866	0.0153990
742.944	0.0152998
743.022	0.0153019
743.100	0.0153063
743.178	0.0153962
743.256	0.0151804
743.334	0.0153761
743.413	0.0154457
743.491	0.0153482
743.569	0.0153976
743.647	0.0154267
743.725	0.0153992
743.803	0.0152089
743.881	0.0153268
743.959	0.0153949
744.038	0.0153628
744.116	0.0155280
744.194	0.0156155
744.272	0.0158322
744.350	0.0160500
744.428	0.0161526
744.506	0.0160001
744.584	0.0163123
744.663	0.0162155
744.741	0.0162383
744.819	0.0163617
744.897	0.0163097
744.975	0.0162862
745.053	0.0163117
745.131	0.0161042
745.209	0.0160263
745.288	0.0159636
745.366	0.0158454
745.444	0.0157870
745.522	0.0157948
745.600	0.0156247
745.678	0.0154999
745.756	0.0154907
745.834	0.0155765
745.913	0.0154943
745.991	0.0154478
746.069	0.0154974
746.147	0.0153539
746.225	0.0151184
746.303	0.0152311
746.381	0.0153131
746.459	0.0152299
746.538	0.0153384
746.616	0.0151286
746.694	0.0151307
746.772	0.0151704
746.850	0.0151104
746.928	0.0150489
747.006	0.0150409
747.084	0.0148164
747.163	0.0149489
747.241	0.0150412
747.319	0.0148234
747.397	0.0149259
747.475	0.0149403
747.553	0.0150925
747.631	0.0151933
747.709	0.0151615
747.788	0.0151520
747.866	0.0153722
747.944	0.0152787
748.022	0.0154952
748.100	0.0156437
748.178	0.0156673
748.256	0.0153750
748.334	0.0154369
748.413	0.0154682
748.491	0.0156145
748.569	0.0156278
748.647	0.0157565
748.725	0.0158152
748.803	0.0158118
748.881	0.0161089
748.959	0.0163102
749.038	0.0164163
749.116	0.0164169
749.194	0.0164724
749.272	0.0165572
749.350	0.0165015
749.428	0.0166400
749.506	0.0165143
749.584	0.0165225
749.663	0.0163824
749.741	0.0163995
749.819	0.0162746
749.897	0.0163002
749.975	0.0163129
750.053	0.0161012
750.131	0.0160174
750.209	0.0157925
750.288	0.0157358
750.366	0.0157205
750.444	0.0156871
750.522	0.0155479
750.600	0.0155837
750.678	0.0154742
750.756	0.0154163
750.834	0.0152218
750.913	0.0153267
750.991	0.0153496
751.069	0.0153593
751.147	0.0151749
751.225	0.0151692
751.303	0.0152377
751.381	0.0150872
751.459	0.0151176
751.538	0.0152039
751.616	0.0150880
751.694	0.0152229
751.772	0.0153407
751.850	0.0154274
751.928	0.0154423
752.006	0.0155824
752.084	0.0155489
752.163	0.0155677
752.241	0.0156271
752.319	0.0155231
752.397	0.0155394
752.475	0.0154324
752.553	0.0151929
752.631	0.0152348
752.709	0.0151569
752.788	0.0150619
752.866	0.0150988
752.944	0.0150784
753.022	0.0148802
753.100	0.0148064
753.178	0.0149098
753.256	0.0149997
753.334	0.0151016
753.413	0.0150328
753.491	0.0150772
753.569	0.0152731
753.647	0.0153017
753.725	0.0153499
753.803	0.0153615
753.881	0.0152405
753.959	0.0151986
754.038	0.0151236
754.116	0.0149936
754.194	0.0149668
754.272	0.0148763
754.350	0.0148428
754.428	0.0148522
754.506	0.0149601
754.584	0.0148824
754.663	0.0149902
754.741	0.0148618
754.819	0.0150773
754.897	0.0152892
754.975	0.0155199
755.053	0.0156421
755.131	0.0158268
755.209	0.0157326
755.288	0.0157507
755.366	0.0159397
755.444	0.0160950
755.522	0.0161347
755.600	0.0160580
755.678	0.0160191
755.756	0.0160744
755.834	0.0159549
755.913	0.0160282
755.991	0.0160367
756.069	0.0160078
756.147	0.0158580
756.225	0.0158153
756.303	0.0158451
756.381	0.0158999
756.459	0.0158697
756.538	0.0159565
756.616	0.0158899
756.694	0.0159415
756.772	0.0158806
756.850	0.0160932
756.928	0.0159776
757.006	0.0161533
757.084	0.0162578
757.163	0.0162191
757.241	0.0162758
757.319	0.0160858
757.397	0.0161808
757.475	0.0162656
757.553	0.0159459
757.631	0.0156950
757.709	0.0155145
757.788	0.0154037
757.866	0.0151846
757.944	0.0149821
758.022	0.0149363
758.100	0.0147622
758.178	0.0147378
758.256	0.0147020
758.334	0.0144954
758.413	0.0146549
758.491	0.0146433
758.569	0.0145411
758.647	0.0146431
758.725	0.0148093
758.803	0.0148013
758.881	0.0148428
758.959	0.0149541
759.038	0.0149998
759.116	0.0150853
759.194	0.0152029
759.272	0.0153566
759.350	0.0153551
759.428	0.0155136
759.506	0.0154734
759.584	0.0154592
759.663	0.0155935
759.741	0.0155901
759.819	0.0156731
759.897	0.0156885
759.975	0.0156214
760.053	0.0155568
760.131	0.0155550
760.209	0.0155945
760.288	0.0154787
760.366	0.0152865
760.444	0.0154049
760.522	0.0153885
760.600	0.0155812
760.678	0.0155965
760.756	0.0155317
760.834	0.0158005
760.913	0.0156831
760.991	0.0157939
761.069	0.0157968
761.147	0.0157317
761.225	0.0158350
761.303	0.0158488
761.381	0.0158967
761.459	0.0157460
761.538	0.0155680
761.616	0.0155922
761.694	0.0155045
761.772	0.0153797
761.850	0.0153535
761.928	0.0150948
762.006	0.0152583
762.084	0.0153020
762.163	0.0151907
762.241	0.0152003
762.319	0.0152302
762.397	0.0152476
762.475	0.0153522
762.553	0.0155431
762.631	0.0156225
762.709	0.0156476
762.788	0.0157817
762.866	0.0158875
762.944	0.0159630
763.022	0.0158490
763.100	0.0160196
763.178	0.0161336
763.256	0.0161543
763.334	0.0162161
763.413	0.0161549
763.491	0.0160640
763.569	0.0159983
763.647	0.0159785
763.725	0.0159244
763.803	0.0158089
763.881	0.0158451
763.959	0.0158083
764.038	0.0157557
764.116	0.0157112
764.194	0.0156409
764.272	0.0156856
764.350	0.0155191
764.428	0.0157256
764.506	0.0157313
764.584	0.0156633
764.663	0.0157274
764.741	0.0157111
764.819	0.0158464
764.897	0.0158270
764.975	0.0158861
765.053	0.0157651
765.131	0.0157602
765.209	0.0157343
765.288	0.0156562
765.366	0.0155623
765.444	0.0155590
765.522	0.0155188
765.600	0.0152485
765.678	0.0151800
765.756	0.0150404
765.834	0.0149405
765.913	0.0148737
765.991	0.0146601
766.069	0.0146632
766.147	0.0145813
766.225	0.0146196
766.303	0.0145728
766.381	0.0146768
766.459	0.0148112
766.538	0.0147993
766.616	0.0148615
766.694	0.0150322
766.772	0.0152781
766.850	0.0154062
766.928	0.0155618
767.006	0.0157143
767.084	0.0158813
767.163	0.0159914
767.241	0.0160738
767.319	0.0162013
767.397	0.0162150
767.475	0.0163586
767.553	0.0164428
767.631	0.0163721
767.709	0.0163071
767.788	0.0162350
767.866	0.0162727
767.944	0.0161616
768.022	0.0161816
768.100	0.0161750
768.178	0.0160202
768.256	0.0161232
768.334	0.0160287
768.413	0.0158836
768.491	0.0159564
768.569	0.0157899
768.647	0.0159299
768.725	0.0158385
768.803	0.0156724
768.881	0.0157053
768.959	0.0158132
769.038	0.0157235
769.116	0.0157040
769.194	0.0157977
769.272	0.0157922
769.350	0.0156806
769.428	0.0159160
769.506	0.0157326
769.584	0.0157449
769.663	0.0157377
769.741	0.0157246
769.819	0.0158029
769.897	0.0157153
769.975	0.0156712
770.053	0.0156405
770.131	0.0155171
770.209	0.0154289
770.288	0.0154006
770.366	0.0152217
770.444	0.0152330
770.522	0.0151687
770.600	0.0150734
770.678	0.0152433
770.756	0.0151104
770.834	0.0151283
770.913	0.0151770
770.991	0.0150967
771.069	0.0151350
771.147	0.0152040
771.225	0.0152081
771.303	0.0153017
771.381	0.0153716
771.459	0.0153912
771.538	0.0154765
771.616	0.0154829
771.694	0.0157329
771.772	0.0158363
771.850	0.0158607
771.928	0.0157729
772.006	0.0159476
772.084	0.0160854
772.163	0.0160707
772.241	0.0161103
772.319	0.0161815
772.397	0.0160414
772.475	0.0160755
772.553	0.0162006
772.631	0.0161269
772.709	0.0162818
772.788	0.0161249
772.866	0.0159943
772.944	0.0160079
773.022	0.0159216
773.100	0.0159659
773.178	0.0158195
773.256	0.0157424
773.334	0.0155513
773.413	0.0154066
773.491	0.0154393
773.569	0.0154671
773.647	0.0153097
773.725	0.0153502
773.803	0.0152338
773.881	0.0153561
773.959	0.0153848
774.038	0.0153539
774.116	0.0152086
774.194	0.0153309
774.272	0.0152959
774.350	0.0153904
774.428	0.0152875
774.506	0.0154633
774.584	0.0152707
774.663	0.0154124
774.741	0.0154565
774.819	0.0153490
774.897	0.0152405
774.975	0.0154551
775.053	0.0155039
775.131	0.0154920
775.209	0.0155323
775.288	0.0156272
775.366	0.0156304
775.444	0.0156541
775.522	0.0155894
775.600	0.0156688
775.678	0.0157599
775.756	0.0157553
775.834	0.0157559
775.913	0.0156965
775.991	0.0155216
776.069	0.0156310
776.147	0.0154807
776.225	0.0153308
776.303	0.0152637
776.381	0.0150810
776.459	0.0151585
776.538	0.0150168
776.616	0.0149150
776.694	0.0150636
776.772	0.0150306
776.850	0.0150771
776.928	0.0152292
777.006	0.0153606
777.084	0.0153931
777.163	0.0154562
777.241	0.0157262
777.319	0.0156389
777.397	0.0157624
777.475	0.0159045
777.553	0.0159502
777.631	0.0160378
777.709	0.0159601
777.788	0.0158562
777.866	0.0159007
777.944	0.0160371
778.022	0.0161873
778.100	0.0157869
778.178	0.0157455
778.256	0.0156717
778.334	0.0156081
778.413	0.0156186
778.491	0.0154275
778.569	0.0153770
778.647	0.0153419
778.725	0.0152548
778.803	0.0152812
778.881	0.0151315
778.959	0.0153218
779.038	0.0153238
779.116	0.0151656
779.194	0.0153056
779.272	0.0153857
779.350	0.0154803
779.428	0.0155739
779.506	0.0156448
779.584	0.0157957
779.663	0.0159027
779.741	0.0157915
779.819	0.0156561
779.897	0.0158249
779.975	0.0159959
780.053	0.0158797
780.131	0.0157239
780.209	0.0157115
780.288	0.0157765
780.366	0.0156658
780.444	0.0157267
780.522	0.0156098
780.600	0.0154298
780.678	0.0155428
780.756	0.0154843
780.834	0.0154298
780.913	0.0151408
780.991	0.0151707
781.069	0.0152134
781.147	0.0152004
781.225	0.0150975
781.303	0.0151361
781.381	0.0150365
781.459	0.0150444
781.538	0.0151501
781.616	0.0152430
781.694	0.0151427
781.772	0.0152747
781.850	0.0152232
781.928	0.0152409
782.006	0.0154724
782.084	0.0154004
782.163	0.0154575
782.241	0.0154079
782.319	0.0154217
782.397	0.0156470
782.475	0.0157603
782.553	0.0156314
782.631	0.0156439
782.709	0.0157590
782.788	0.0156884
782.866	0.0157040
782.944	0.0157544
783.022	0.0156332
783.100	0.0156316
783.178	0.0156491
783.256	0.0155805
783.334	0.0154374
783.413	0.0154865
783.491	0.0154324
783.569	0.0152585
783.647	0.0153925
783.725	0.0154272
783.803	0.0153292
783.881	0.0153103
783.959	0.0153155
784.038	0.0154279
784.116	0.0153031
784.194	0.0154574
784.272	0.0155465
784.350	0.0154315
784.428	0.0153433
784.506	0.0154374
784.584	0.0154440
784.663	0.0154906
784.741	0.0154531
784.819	0.0153763
784.897	0.0153613
784.975	0.0154287
785.053	0.0153138
785.131	0.0154111
785.209	0.0154944
785.288	0.0154476
785.366	0.0155326
785.444	0.0154611
785.522	0.0158113
785.600	0.0158955
785.678	0.0159549
785.756	0.0160285
785.834	0.0161687
785.913	0.0162042
785.991	0.0163226
786.069	0.0163393
786.147	0.0162521
786.225	0.0162533
786.303	0.0163467
786.381	0.0161347
786.459	0.0160737
786.538	0.0160722
786.616	0.0160062
786.694	0.0158047
786.772	0.0159227
786.850	0.0157426
786.928	0.0156829
787.006	0.0157270
787.084	0.0157021
787.163	0.0156907
787.241	0.0155859
787.319	0.0155077
787.397	0.0154897
787.475	0.0153754
787.553	0.0154238
787.631	0.0154623
787.709	0.0152414
787.788	0.0151680
787.866	0.0152476
787.944	0.0152362
788.022	0.0152702
788.100	0.0153507
788.178	0.0154028
788.256	0.0152972
788.334	0.0153944
788.413	0.0153576
788.491	0.0155331
788.569	0.0155126
788.647	0.0155142
788.725	0.0156633
788.803	0.0155821
788.881	0.0155518
788.959	0.0155688
789.038	0.0156433
789.116	0.0155609
789.194	0.0154406
789.272	0.0156387
789.350	0.0156110
789.428	0.0155703
789.506	0.0154695
789.584	0.0156934
789.663	0.0156329
789.741	0.0156349
789.819	0.0156979
789.897	0.0156491
789.975	0.0155549
790.053	0.0157256
790.131	0.0157415
790.209	0.0157375
790.288	0.0158383
790.366	0.0158253
790.444	0.0159906
790.522	0.0158868
790.600	0.0158794
790.678	0.0159395
790.756	0.0160454
790.834	0.0157982
790.913	0.0157230
790.991	0.0158295
791.069	0.0156633
791.147	0.0157362
791.225	0.0154967
791.303	0.0154450
791.381	0.0154315
791.459	0.0154499
791.538	0.0152232
791.616	0.0150889
791.694	0.0151855
791.772	0.0150715
791.850	0.0150582
791.928	0.0151237
792.006	0.0150907
792.084	0.0152322
792.163	0.0152493
792.241	0.0153333
792.319	0.0153432
792.397	0.0153259
792.475	0.0152209
792.553	0.0153532
792.631	0.0154845
792.709	0.0155369
792.788	0.0156129
792.866	0.0154828
792.944	0.0157043
793.022	0.0157258
793.100	0.0156684
793.178	0.0156606
793.256	0.0157359
793.334	0.0157836
793.413	0.0158019
793.491	0.0159301
793.569	0.0160687
793.647	0.0159986
793.725	0.0160648
793.803	0.0161391
793.881	0.0161232
793.959	0.0161449
794.038	0.0162408
794.116	0.0161908
794.194	0.0162547
794.272	0.0165020
794.350	0.0164775
794.428	0.0165728
794.506	0.0164522
794.584	0.0164629
794.663	0.0164071
794.741	0.0162843
794.819	0.0161720
794.897	0.0160606
794.975	0.0158324
795.053	0.0155729
795.131	0.0154376
795.209	0.0154310
795.288	0.0152921
795.366	0.0152192
795.444	0.0149130
795.522	0.0149083
795.600	0.0148700
795.678	0.0148288
795.756	0.0148140
795.834	0.0146854
795.913	0.0148161
795.991	0.0148357
796.069	0.0147887
796.147	0.0148080
796.225	0.0147955
796.303	0.0148151
796.381	0.0147982
796.459	0.0148312
796.538	0.0149487
796.616	0.0149352
796.694	0.0150127
796.772	0.0149548
796.850	0.0150447
796.928	0.0151838
797.006	0.0152731
797.084	0.0154098
797.163	0.0153816
797.241	0.0154129
797.319	0.0155121
797.397	0.0155890
797.475	0.0155928
797.553	0.0155959
797.631	0.0155247
797.709	0.0154920
797.788	0.0156183
797.866	0.0156303
797.944	0.0155627
798.022	0.0154888
798.100	0.0154794
798.178	0.0154630
798.256	0.0153263
798.334	0.0153875
798.413	0.0155350
798.491	0.0156441
798.569	0.0155146
798.647	0.0153796
798.725	0.0155176
798.803	0.0155666
798.881	0.0155551
798.959	0.0158279
799.038	0.0157679
799.116	0.0157150
799.194	0.0158197
799.272	0.0159036
799.350	0.0158547
799.428	0.0157944
799.506	0.0158170
799.584	0.0160286
799.663	0.0157925
799.741	0.0156622
799.819	0.0157567
799.897	0.0157464
799.975	0.0156019
800.053	0.0156547
800.131	0.0156914
800.209	0.0155626
800.288	0.0154249
800.366	0.0156158
800.444	0.0154882
800.522	0.0154230
800.600	0.0156418
800.678	0.0155316
800.756	0.0156391
800.834	0.0155808
800.913	0.0157005
800.991	0.0156504
801.069	0.0154691
801.147	0.0154903
801.225	0.0155820
801.303	0.0154263
801.381	0.0155942
801.459	0.0154646
801.538	0.0153114
801.616	0.0152680
801.694	0.0154411
801.772	0.0152861
801.850	0.0153340
801.928	0.0153310
802.006	0.0152614
802.084	0.0153528
802.163	0.0152479
802.241	0.0152023
802.319	0.0152032
802.397	0.0151762
802.475	0.0151869
802.553	0.0153567
802.631	0.0151641
802.709	0.0152784
802.788	0.0152019
802.866	0.0151308
802.944	0.0152248
803.022	0.0152061
803.100	0.0151379
803.178	0.0153700
803.256	0.0152402
803.334	0.0152727
803.413	0.0153309
803.491	0.0153728
803.569	0.0152953
803.647	0.0153625
803.725	0.0153242
803.803	0.0154698
803.881	0.0152103
803.959	0.0153237
804.038	0.0153289
804.116	0.0155484
804.194	0.0155383
804.272	0.0155466
804.350	0.0155338
804.428	0.0156283
804.506	0.0157754
804.584	0.0156529
804.663	0.0156076
804.741	0.0155546
804.819	0.0157298
804.897	0.0156376
804.975	0.0157259
805.053	0.0155295
805.131	0.0154550
805.209	0.0155428
805.288	0.0154630
805.366	0.0152563
805.444	0.0153831
805.522	0.0151601
805.600	0.0152784
805.678	0.0153069
805.756	0.0153511
805.834	0.0153777
805.913	0.0153708
805.991	0.0154424
806.069	0.0155969
806.147	0.0156355
806.225	0.0156287
806.303	0.0157989
806.381	0.0159235
806.459	0.0160278
806.538	0.0158640
806.616	0.0159532
806.694	0.0161106
806.772	0.0159418
806.850	0.0159246
806.928	0.0158685
807.006	0.0159044
807.084	0.0157925
807.163	0.0156976
807.241	0.0156098
807.319	0.0156979
807.397	0.0154657
807.475	0.0156848
807.553	0.0155311
807.631	0.0155814
807.709	0.0155704
807.788	0.0154826
807.866	0.0154572
807.944	0.0154174
808.022	0.0153226
808.100	0.0151876
808.178	0.0153201
808.256	0.0153053
808.334	0.0152929
808.413	0.0152666
808.491	0.0154059
808.569	0.0151723
808.647	0.0152972
808.725	0.0154089
808.803	0.0153265
808.881	0.0152859
808.959	0.0154343
809.038	0.0155048
809.116	0.0155463
809.194	0.0154546
809.272	0.0154634
809.350	0.0154500
809.428	0.0155479
809.506	0.0155267
809.584	0.0155706
809.663	0.0155413
809.741	0.0156190
809.819	0.0157520
809.897	0.0157330
809.975	0.0157917
810.053	0.0158190
810.131	0.0158680
810.209	0.0158311
810.288	0.0159212
810.366	0.0158432
810.444	0.0159026
810.522	0.0158730
810.600	0.0158109
810.678	0.0157928
810.756	0.0158138
810.834	0.0158345
810.913	0.0158226
810.991	0.0156841
811.069	0.0156876
811.147	0.0158580
811.225	0.0156802
811.303	0.0158099
811.381	0.0156591
811.459	0.0156699
811.538	0.0156337
811.616	0.0157330
811.694	0.0156844
811.772	0.0155532
811.850	0.0155475
811.928	0.0155087
812.006	0.0155206
812.084	0.0155659
812.163	0.0154727
812.241	0.0154125
812.319	0.0155927
812.397	0.0153841
812.475	0.0155504
812.553	0.0154456
812.631	0.0154912
812.709	0.0153671
812.788	0.0152962
812.866	0.0155504
812.944	0.0154922
813.022	0.0153553
813.100	0.0153876
813.178	0.0153278
813.256	0.0154562
813.334	0.0154173
813.413	0.0153667
813.491	0.0154192
813.569	0.0154821
813.647	0.0154097
813.725	0.0154771
813.803	0.0155044
813.881	0.0154111
813.959	0.0155139
814.038	0.0154871
814.116	0.0154012
814.194	0.0153479
814.272	0.0151874
814.350	0.0152818
814.428	0.0154801
814.506	0.0155743
814.584	0.0156332
814.663	0.0155814
814.741	0.0156102
814.819	0.0156928
814.897	0.0157925
814.975	0.0158501
815.053	0.0159561
815.131	0.0158850
815.209	0.0159984
815.288	0.0159951
815.366	0.0160377
815.444	0.0159373
815.522	0.0161037
815.600	0.0159811
815.678	0.0159539
815.756	0.0160410
815.834	0.0159611
815.913	0.0157774
815.991	0.0158784
816.069	0.0158717
816.147	0.0158448
816.225	0.0158198
816.303	0.0157174
816.381	0.0156884
816.459	0.0157221
816.538	0.0157358
816.616	0.0157041
816.694	0.0158492
816.772	0.0157044
816.850	0.0157030
816.928	0.0156696
817.006	0.0156326
817.084	0.0157754
817.163	0.0155746
817.241	0.0156093
817.319	0.0156929
817.397	0.0156339
817.475	0.0156770
817.553	0.0156767
817.631	0.0156319
817.709	0.0156311
817.788	0.0156618
817.866	0.0158070
817.944	0.0155102
818.022	0.0155699
818.100	0.0155063
818.178	0.0154392
818.256	0.0153137
818.334	0.0152964
818.413	0.0153189
818.491	0.0152303
818.569	0.0152071
818.647	0.0151836
818.725	0.0152823
818.803	0.0153444
818.881	0.0153484
818.959	0.0153050
819.038	0.0151978
819.116	0.0152441
819.194	0.0152097
819.272	0.0152556
819.350	0.0153542
819.428	0.0151212
819.506	0.0151939
819.584	0.0151695
819.663	0.0153181
819.741	0.0151833
819.819	0.0151271
819.897	0.0151435
819.975	0.0151757
820.053	0.0152084
820.131	0.0153686
820.209	0.0154294
820.288	0.0153059
820.366	0.0154223
820.444	0.0155283
820.522	0.0154842
820.600	0.0154813
820.678	0.0155446
820.756	0.0154332
820.834	0.0157274
820.913	0.0156734
820.991	0.0154672
821.069	0.0156269
821.147	0.0156841
821.225	0.0155437
821.303	0.0155872
821.381	0.0155732
821.459	0.0156481
821.538	0.0156379
821.616	0.0155547
821.694	0.0156779
821.772	0.0156934
821.850	0.0156191
821.928	0.0156271
822.006	0.0156616
822.084	0.0155739
822.163	0.0157311
822.241	0.0158025
822.319	0.0157352
822.397	0.0158112
822.475	0.0156693
822.553	0.0157065
822.631	0.0157513
822.709	0.0156554
822.788	0.0155702
822.866	0.0156132
822.944	0.0156189
823.022	0.0155972
823.100	0.0155930
823.178	0.0156080
823.256	0.0155965
823.334	0.0154098
823.413	0.0154906
823.491	0.0155379
823.569	0.0156207
823.647	0.0154544
823.725	0.0153891
823.803	0.0154627
823.881	0.0153863
823.959	0.0154326
824.038	0.0155257
824.116	0.0153419
824.194	0.0154803
824.272	0.0153829
824.350	0.0154102
824.428	0.0153760
824.506	0.0153706
824.584	0.0152943
824.663	0.0153082
824.741	0.0152453
824.819	0.0152586
824.897	0.0152000
824.975	0.0152015
825.053	0.0150523
825.131	0.0150645
825.209	0.0150597
825.288	0.0151482
825.366	0.0149883
825.444	0.0149506
825.522	0.0150548
825.600	0.0152415
825.678	0.0152319
825.756	0.0151068
825.834	0.0153796
825.913	0.0153764
825.991	0.0154971
826.069	0.0155653
826.147	0.0154472
826.225	0.0156012
826.303	0.0156182
826.381	0.0155632
826.459	0.0156175
826.538	0.0157008
826.616	0.0158234
826.694	0.0157216
826.772	0.0158724
826.850	0.0159252
826.928	0.0158632
827.006	0.0158535
827.084	0.0158759
827.163	0.0158006
827.241	0.0157841
827.319	0.0157596
827.397	0.0157822
827.475	0.0156506
827.553	0.0155662
827.631	0.0157614
827.709	0.0156429
827.788	0.0155554
827.866	0.0155670
827.944	0.0155367
828.022	0.0155618
828.100	0.0157668
828.178	0.0154676
828.256	0.0156191
828.334	0.0156369
828.413	0.0154129
828.491	0.0155585
828.569	0.0155442
828.647	0.0154905
828.725	0.0155242
828.803	0.0154573
828.881	0.0154871
828.959	0.0154486
829.038	0.0152676
829.116	0.0155943
829.194	0.0155196
829.272	0.0152197
829.350	0.0154919
829.428	0.0155163
829.506	0.0155477
829.584	0.0154110
829.663	0.0153543
829.741	0.0154177
829.819	0.0152974
829.897	0.0155248
829.975	0.0154230
830.053	0.0154634
830.131	0.0155009
830.209	0.0153492
830.288	0.0155252
830.366	0.0155035
830.444	0.0154632
830.522	0.0153904
830.600	0.0154244
830.678	0.0155984
830.756	0.0155308
830.834	0.0155166
830.913	0.0152814
830.991	0.0155330
831.069	0.0155426
831.147	0.0154708
831.225	0.0155564
831.303	0.0153977
831.381	0.0153638
831.459	0.0154147
831.538	0.0154948
831.616	0.0154384
831.694	0.0153355
831.772	0.0152692
831.850	0.0153072
831.928	0.0154169
832.006	0.0154533
832.084	0.0154183
832.163	0.0154274
832.241	0.0153873
832.319	0.0154288
832.397	0.0154026
832.475	0.0154602
832.553	0.0154966
832.631	0.0155018
832.709	0.0157049
832.788	0.0156798
832.866	0.0156255
832.944	0.0156994
833.022	0.0158047
833.100	0.0157130
833.178	0.0158113
833.256	0.0159374
833.334	0.0158487
833.413	0.0159449
833.491	0.0159927
833.569	0.0159866
833.647	0.0159457
833.725	0.0157940
833.803	0.0158232
833.881	0.0157140
833.959	0.0158128
834.038	0.0157520
834.116	0.0156230
834.194	0.0155079
834.272	0.0154297
834.350	0.0154050
834.428	0.0155248
834.506	0.0154393
834.584	0.0153487
834.663	0.0152786
834.741	0.0153119
834.819	0.0154336
834.897	0.0153481
834.975	0.0152687
835.053	0.0152390
835.131	0.0154645
835.209	0.0154792
835.288	0.0153156
835.366	0.0152376
835.444	0.0153445
835.522	0.0154160
835.600	0.0154539
835.678	0.0153728
835.756	0.0155180
835.834	0.0153303
835.913	0.0154884
835.991	0.0153878
836.069	0.0154009
836.147	0.0154521
836.225	0.0155054
836.303	0.0154661
836.381	0.0154327
836.459	0.0153687
836.538	0.0153646
836.616	0.0155255
836.694	0.0154734
836.772	0.0155427
836.850	0.0155742
836.928	0.0154755
837.006	0.0154486
837.084	0.0155658
837.163	0.0154137
837.241	0.0155793
837.319	0.0155341
837.397	0.0154445
837.475	0.0153787
837.553	0.0155409
837.631	0.0155366
837.709	0.0155010
837.788	0.0155025
837.866	0.0155363
837.944	0.0156375
838.022	0.0155528
838.100	0.0157657
838.178	0.0156976
838.256	0.0156417
838.334	0.0156947
838.413	0.0157855
838.491	0.0157616
838.569	0.0157529
838.647	0.0158694
838.725	0.0160364
838.803	0.0159196
838.881	0.0159217
838.959	0.0158820
839.038	0.0159656
839.116	0.0158355
839.194	0.0158589
839.272	0.0159332
839.350	0.0160294
839.428	0.0158951
839.506	0.0157429
839.584	0.0158819
839.663	0.0155904
839.741	0.0157583
839.819	0.0156494
839.897	0.0157321
839.975	0.0156620
840.053	0.0157108
840.131	0.0156471
840.209	0.0155296
840.288	0.0155199
840.366	0.0155598
840.444	0.0154596
840.522	0.0154843
840.600	0.0154324
840.678	0.0154137
840.756	0.0154321
840.834	0.0155293
840.913	0.0155968
840.991	0.0155067
841.069	0.0154311
841.147	0.0155093
841.225	0.0155972
841.303	0.0154399
841.381	0.0155966
841.459	0.0156863
841.538	0.0155131
841.616	0.0155971
841.694	0.0157136
841.772	0.0156664
841.850	0.0154601
841.928	0.0155941
842.006	0.0157103
842.084	0.0157104
842.163	0.0155777
842.241	0.0157370
842.319	0.0156707
842.397	0.0156257
842.475	0.0156134
842.553	0.0156182
842.631	0.0155006
842.709	0.0155727
842.788	0.0155014
842.866	0.0156110
842.944	0.0157527
843.022	0.0155865
843.100	0.0155161
843.178	0.0155546
843.256	0.0154911
843.334	0.0156824
843.413	0.0157271
843.491	0.0156203
843.569	0.0155546
843.647	0.0156575
843.725	0.0155001
843.803	0.0155463
843.881	0.0155672
843.959	0.0156042
844.038	0.0156204
844.116	0.0156155
844.194	0.0156156
844.272	0.0156287
844.350	0.0156223
844.428	0.0156071
844.506	0.0156225
844.584	0.0156641
844.663	0.0156007
844.741	0.0156237
844.819	0.0157665
844.897	0.0156984
844.975	0.0156126
845.053	0.0155091
845.131	0.0157626
845.209	0.0156006
845.288	0.0156271
845.366	0.0156375
845.444	0.0156306
845.522	0.0153973
845.600	0.0155047
845.678	0.0155226
845.756	0.0155035
845.834	0.0155859
845.913	0.0156765
845.991	0.0155579
846.069	0.0154493
846.147	0.0155432
846.225	0.0157613
846.303	0.0157883
846.381	0.0157014
846.459	0.0158904
846.538	0.0157800
846.616	0.0158596
846.694	0.0157336
846.772	0.0157870
846.850	0.0158318
846.928	0.0158811
847.006	0.0159543
847.084	0.0157037
847.163	0.0157777
847.241	0.0156413
847.319	0.0156074
847.397	0.0157005
847.475	0.0155643
847.553	0.0156179
847.631	0.0155645
847.709	0.0155870
847.788	0.0155107
847.866	0.0153440
847.944	0.0154702
848.022	0.0154711
848.100	0.0154829
848.178	0.0154607
848.256	0.0155598
848.334	0.0154007
848.413	0.0155393
848.491	0.0155535
848.569	0.0154921
848.647	0.0154712
848.725	0.0155423
848.803	0.0155898
848.881	0.0156348
848.959	0.0154892
849.038	0.0154468
849.116	0.0155010
849.194	0.0155524
849.272	0.0154539
849.350	0.0154713
849.428	0.0154230
849.506	0.0153487
849.584	0.0156154
849.663	0.0155000
849.741	0.0153070
849.819	0.0154797
849.897	0.0154324
849.975	0.0155667
850.053	0.0153935
850.131	0.0153349
850.209	0.0153880
850.288	0.0154239
850.366	0.0153988
850.444	0.0154848
850.522	0.0153470
850.600	0.0154689
850.678	0.0154743
850.756	0.0152623
850.834	0.0153170
850.913	0.0155459
850.991	0.0154794
851.069	0.0154654
851.147	0.0156580
851.225	0.0155910
851.303	0.0156267
851.381	0.0155946
851.459	0.0156601
851.538	0.0156120
851.616	0.0156040
851.694	0.0157791
851.772	0.0158105
851.850	0.0157010
851.928	0.0157788
852.006	0.0158000
852.084	0.0157694
852.163	0.0157283
852.241	0.0158770
852.319	0.0157924
852.397	0.0156625
852.475	0.0156726
852.553	0.0157262
852.631	0.0156205
852.709	0.0155315
852.788	0.0155087
852.866	0.0154828
852.944	0.0154478
853.022	0.0153851
853.100	0.0154363
853.178	0.0153902
853.256	0.0153492
853.334	0.0154609
853.413	0.0151372
853.491	0.0152807
853.569	0.0154350
853.647	0.0154276
853.725	0.0153246
853.803	0.0154251
853.881	0.0153323
853.959	0.0154071
854.038	0.0155638
854.116	0.0154798
854.194	0.0155225
854.272	0.0154753
854.350	0.0154542
854.428	0.0154331
854.506	0.0154324
854.584	0.0154297
854.663	0.0154707
854.741	0.0154224
854.819	0.0154128
854.897	0.0154895
854.975	0.0153590
855.053	0.0152308
855.131	0.0153259
855.209	0.0154111
855.288	0.0153971
855.366	0.0153448
855.444	0.0154218
855.522	0.0153876
855.600	0.0154780
855.678	0.0154308
855.756	0.0153923
855.834	0.0153524
855.913	0.0155499
855.991	0.0155000
856.069	0.0155080
856.147	0.0154443
856.225	0.0154956
856.303	0.0153875
856.381	0.0154628
856.459	0.0154387
856.538	0.0155374
856.616	0.0155703
856.694	0.0155561
856.772	0.0156132
856.850	0.0155598
856.928	0.0155058
857.006	0.0155319
857.084	0.0154595
857.163	0.0154971
857.241	0.0153614
857.319	0.0155395
857.397	0.0155011
857.475	0.0154413
857.553	0.0155367
857.631	0.0154967
857.709	0.0154684
857.788	0.0154771
857.866	0.0156517
857.944	0.0156301
858.022	0.0156107
858.100	0.0155758
858.178	0.0156965
858.256	0.0154414
858.334	0.0155904
858.413	0.0154473
858.491	0.0155008
858.569	0.0155999
858.647	0.0155891
858.725	0.0155124
858.803	0.0155515
858.881	0.0156380
858.959	0.0156052
859.038	0.0155754
859.116	0.0155778
859.194	0.0155140
859.272	0.0154982
859.350	0.0155882
859.428	0.0155910
859.506	0.0155256
859.584	0.0154687
859.663	0.0155106
859.741	0.0154819
859.819	0.0155820
859.897	0.0156059
859.975	0.0155900
860.053	0.0156678
860.131	0.0156340
860.209	0.0156023
860.288	0.0155212
860.366	0.0156139
860.444	0.0154956
860.522	0.0155774
860.600	0.0154618
860.678	0.0154616
860.756	0.0156143
860.834	0.0155286
860.913	0.0154318
860.991	0.0155293
861.069	0.0154614
861.147	0.0154636
861.225	0.0155156
861.303	0.0156123
861.381	0.0154366
861.459	0.0153876
861.538	0.0153458
861.616	0.0155255
861.694	0.0153404
861.772	0.0153522
861.850	0.0154102
861.928	0.0153882
862.006	0.0154863
862.084	0.0153447
862.163	0.0153070
862.241	0.0153941
862.319	0.0155751
862.397	0.0155930
862.475	0.0154703
862.553	0.0155464
862.631	0.0154544
862.709	0.0155296
862.788	0.0155179
862.866	0.0157621
862.944	0.0156097
863.022	0.0158903
863.100	0.0156232
863.178	0.0156193
863.256	0.0159058
863.334	0.0159934
863.413	0.0158855
863.491	0.0159475
863.569	0.0157657
863.647	0.0159019
863.725	0.0159940
863.803	0.0158976
863.881	0.0158422
863.959	0.0159739
864.038	0.0157845
864.116	0.0158720
864.194	0.0159119
864.272	0.0158138
864.350	0.0159050
864.428	0.0158478
864.506	0.0159628
864.584	0.0158302
864.663	0.0157466
864.741	0.0158174
864.819	0.0157678
864.897	0.0157555
864.975	0.0157616
865.053	0.0157367
865.131	0.0157410
865.209	0.0157625
865.288	0.0156715
865.366	0.0157397
865.444	0.0155972
865.522	0.0156325
865.600	0.0154454
865.678	0.0156394
865.756	0.0157507
865.834	0.0154730
865.913	0.0154002
865.991	0.0154686
866.069	0.0155350
866.147	0.0155191
866.225	0.0153681
866.303	0.0155270
866.381	0.0154768
866.459	0.0153499
866.538	0.0154258
866.616	0.0153577
866.694	0.0154235
866.772	0.0155031
866.850	0.0153082
866.928	0.0153183
867.006	0.0155276
867.084	0.0155029
867.163	0.0154499
867.241	0.0154866
867.319	0.0154315
867.397	0.0155760
867.475	0.0156256
867.553	0.0155489
867.631	0.0155857
867.709	0.0155038
867.788	0.0156987
867.866	0.0157391
867.944	0.0155806
868.022	0.0156980
868.100	0.0157616
868.178	0.0158415
868.256	0.0158207
868.334	0.0157665
868.413	0.0158707
868.491	0.0159743
868.569	0.0159415
868.647	0.0158483
868.725	0.0159808
868.803	0.0158717
868.881	0.0157747
868.959	0.0159724
869.038	0.0159019
869.116	0.0159022
869.194	0.0157111
869.272	0.0157874
869.350	0.0157901
869.428	0.0156783
869.506	0.0156691
869.584	0.0157722
869.663	0.0156539
869.741	0.0155991
869.819	0.0156557
869.897	0.0158053
869.975	0.0156616
870.053	0.0154979
870.131	0.0155035
870.209	0.0155511
870.288	0.0154977
870.366	0.0156736
870.444	0.0156400
870.522	0.0155053
870.600	0.0154903
870.678	0.0155100
870.756	0.0155931
870.834	0.0154400
870.913	0.0154146
870.991	0.0155080
871.069	0.0156051
871.147	0.0155038
871.225	0.0154822
871.303	0.0155033
871.381	0.0154418
871.459	0.0155297
871.538	0.0156043
871.616	0.0154931
871.694	0.0158153
871.772	0.0155933
871.850	0.0155302
871.928	0.0156422
872.006	0.0156945
872.084	0.0156335
872.163	0.0156672
872.241	0.0158906
872.319	0.0157360
872.397	0.0157314
872.475	0.0156575
872.553	0.0157542
872.631	0.0157310
872.709	0.0156743
872.788	0.0156436
872.866	0.0156320
872.944	0.0156413
873.022	0.0156261
873.100	0.0156435
873.178	0.0156488
873.256	0.0155341
873.334	0.0157156
873.413	0.0155045
873.491	0.0155725
873.569	0.0156361
873.647	0.0155703
873.725	0.0155300
873.803	0.0156247
873.881	0.0157242
873.959	0.0156881
874.038	0.0157326
874.116	0.0157375
874.194	0.0154935
874.272	0.0155768
874.350	0.0156752
874.428	0.0157428
874.506	0.0156724
874.584	0.0157814
874.663	0.0156641
874.741	0.0156408
874.819	0.0155543
874.897	0.0158145
874.975	0.0156999
875.053	0.0156654
875.131	0.0153804
875.209	0.0155262
875.288	0.0155404
875.366	0.0154795
875.444	0.0155358
875.522	0.0157196
875.600	0.0155937
875.678	0.0155682
875.756	0.0155914
875.834	0.0156187
875.913	0.0154581
875.991	0.0154898
876.069	0.0155742
876.147	0.0155822
876.225	0.0155287
876.303	0.0155971
876.381	0.0156439
876.459	0.0155968
876.538	0.0155011
876.616	0.0155803
876.694	0.0155755
876.772	0.0154209
876.850	0.0154720
876.928	0.0154431
877.006	0.0155376
877.084	0.0155549
877.163	0.0155161
877.241	0.0155455
877.319	0.0155611
877.397	0.0153712
877.475	0.0154467
877.553	0.0154542
877.631	0.0154729
877.709	0.0155300
877.788	0.0154803
877.866	0.0153665
877.944	0.0152937
878.022	0.0153492
878.100	0.0154962
878.178	0.0153164
878.256	0.0151875
878.334	0.0152686
878.413	0.0152695
878.491	0.0153733
878.569	0.0153353
878.647	0.0152599
878.725	0.0153444
878.803	0.0152464
878.881	0.0152153
878.959	0.0153291
879.038	0.0152294
879.116	0.0152906
879.194	0.0153535
879.272	0.0155990
879.350	0.0154765
879.428	0.0153219
879.506	0.0154760
879.584	0.0155234
879.663	0.0156903
879.741	0.0157365
879.819	0.0155526
879.897	0.0155763
879.975	0.0155032
880.053	0.0155594
880.131	0.0155943
880.209	0.0155608
880.288	0.0155748
880.366	0.0154892
880.444	0.0154401
880.522	0.0154843
880.600	0.0154238
880.678	0.0155014
880.756	0.0153228
880.834	0.0153486
880.913	0.0154038
880.991	0.0154230
881.069	0.0154385
881.147	0.0154931
881.225	0.0154785
881.303	0.0153976
881.381	0.0154949
881.459	0.0155050
881.538	0.0154671
881.616	0.0154356
881.694	0.0156169
881.772	0.0155030
881.850	0.0154105
881.928	0.0153690
882.006	0.0154068
882.084	0.0152644
882.163	0.0152356
882.241	0.0154235
882.319	0.0153293
882.397	0.0153468
882.475	0.0153748
882.553	0.0154765
882.631	0.0155177
882.709	0.0155054
882.788	0.0154256
882.866	0.0154867
882.944	0.0155167
883.022	0.0154967
883.100	0.0155066
883.178	0.0156532
883.256	0.0156148
883.334	0.0154803
883.413	0.0156232
883.491	0.0154558
883.569	0.0155801
883.647	0.0154066
883.725	0.0154291
883.803	0.0156563
883.881	0.0154754
883.959	0.0153821
884.038	0.0153647
884.116	0.0155406
884.194	0.0154583
884.272	0.0154640
884.350	0.0154353
884.428	0.0154817
884.506	0.0155638
884.584	0.0155534
884.663	0.0156039
884.741	0.0155055
884.819	0.0155328
884.897	0.0155729
884.975	0.0155102
885.053	0.0155557
885.131	0.0156034
885.209	0.0155139
885.288	0.0155289
885.366	0.0154035
885.444	0.0155357
885.522	0.0154290
885.600	0.0154551
885.678	0.0154424
885.756	0.0155907
885.834	0.0155245
885.913	0.0155840
885.991	0.0155298
886.069	0.0154105
886.147	0.0154233
886.225	0.0155016
886.303	0.0154371
886.381	0.0154327
886.459	0.0153516
886.538	0.0155222
886.616	0.0155036
886.694	0.0153270
886.772	0.0153473
886.850	0.0155149
886.928	0.0155634
887.006	0.0154276
887.084	0.0155142
887.163	0.0155488
887.241	0.0156216
887.319	0.0157404
887.397	0.0155927
887.475	0.0157426
887.553	0.0156677
887.631	0.0156829
887.709	0.0156158
887.788	0.0158034
887.866	0.0156033
887.944	0.0156590
888.022	0.0156876
888.100	0.0156250
888.178	0.0156335
888.256	0.0156535
888.334	0.0155215
888.413	0.0155182
888.491	0.0155643
888.569	0.0156362
888.647	0.0156984
888.725	0.0155874
888.803	0.0156194
888.881	0.0157249
888.959	0.0156976
889.038	0.0156044
889.116	0.0157781
889.194	0.0157695
889.272	0.0156037
889.350	0.0156528
889.428	0.0156378
889.506	0.0155979
889.584	0.0156399
889.663	0.0156694
889.741	0.0155730
889.819	0.0155183
889.897	0.0154946
889.975	0.0154956
890.053	0.0152964
890.131	0.0153468
890.209	0.0153885
890.288	0.0154418
890.366	0.0154056
890.444	0.0152332
890.522	0.0153654
890.600	0.0152640
890.678	0.0154446
890.756	0.0153864
890.834	0.0154305
890.913	0.0156154
890.991	0.0154871
891.069	0.0154787
891.147	0.0154557
891.225	0.0156441
891.303	0.0156595
891.381	0.0157623
891.459	0.0157293
891.538	0.0157858
891.616	0.0158820
891.694	0.0159135
891.772	0.0158617
891.850	0.0159785
891.928	0.0159299
892.006	0.0159656
892.084	0.0159703
892.163	0.0159865
892.241	0.0158836
892.319	0.0158887
892.397	0.0159319
892.475	0.0158229
892.553	0.0157394
892.631	0.0156385
892.709	0.0156549
892.788	0.0155376
892.866	0.0156451
892.944	0.0155640
893.022	0.0153143
893.100	0.0153903
893.178	0.0153556
893.256	0.0154517
893.334	0.0154758
893.413	0.0153994
893.491	0.0152253
893.569	0.0153248
893.647	0.0154651
893.725	0.0153722
893.803	0.0152572
893.881	0.0154037
893.959	0.0155056
894.038	0.0155137
894.116	0.0153324
894.194	0.0155576
894.272	0.0155867
894.350	0.0155727
894.428	0.0155942
894.506	0.0155596
894.584	0.0156104
894.663	0.0156028
894.741	0.0155278
894.819	0.0155602
894.897	0.0156811
894.975	0.0155936
895.053	0.0155257
895.131	0.0155075
895.209	0.0154897
895.288	0.0154758
895.366	0.0156171
895.444	0.0154420
895.522	0.0153277
895.600	0.0154775
895.678	0.0153616
895.756	0.0153481
895.834	0.0154571
895.913	0.0154335
895.991	0.0154202
896.069	0.0153844
896.147	0.0156100
896.225	0.0155759
896.303	0.0155135
896.381	0.0156011
896.459	0.0156397
896.538	0.0156370
896.616	0.0156272
896.694	0.0156825
896.772	0.0158119
896.850	0.0157534
896.928	0.0156081
897.006	0.0157102
897.084	0.0156990
897.163	0.0156282
897.241	0.0157961
897.319	0.0157473
897.397	0.0157039
897.475	0.0158424
897.553	0.0157966
897.631	0.0159557
897.709	0.0158592
897.788	0.0158039
897.866	0.0157558
897.944	0.0158100
898.022	0.0157704
898.100	0.0157352
898.178	0.0156528
898.256	0.0154934
898.334	0.0156274
898.413	0.0157037
898.491	0.0154863
898.569	0.0154943
898.647	0.0155409
898.725	0.0154915
898.803	0.0154082
898.881	0.0154334
898.959	0.0153837
899.038	0.0153387
899.116	0.0152076
899.194	0.0151787
899.272	0.0152516
899.350	0.0151777
899.428	0.0151893
899.506	0.0152522
899.584	0.0153183
899.663	0.0153224
899.741	0.0153582
899.819	0.0155019
899.897	0.0154618
899.975	0.0155149
900.053	0.0155097
900.131	0.0155570
900.209	0.0155325
900.288	0.0154955
900.366	0.0154822
900.444	0.0155322
900.522	0.0156341
900.600	0.0155856
900.678	0.0153927
900.756	0.0154896
900.834	0.0154587
900.913	0.0154630
900.991	0.0153755
901.069	0.0155124
901.147	0.0154581
901.225	0.0154535
901.303	0.0155467
901.381	0.0155669
901.459	0.0154337
901.538	0.0155211
901.616	0.0154583
901.694	0.0153132
901.772	0.0154966
901.850	0.0154656
901.928	0.0154867
902.006	0.0153962
902.084	0.0154982
902.163	0.0155737
902.241	0.0154990
902.319	0.0155984
902.397	0.0156548
902.475	0.0154744
902.553	0.0156003
902.631	0.0155860
902.709	0.0155268
902.788	0.0156413
902.866	0.0156858
902.944	0.0156089
903.022	0.0154679
903.100	0.0155302
903.178	0.0154499
903.256	0.0153935
903.334	0.0153520
903.413	0.0152401
903.491	0.0152238
903.569	0.0154251
903.647	0.0151889
903.725	0.0152641
903.803	0.0154037
903.881	0.0152564
903.959	0.0152140
904.038	0.0151839
904.116	0.0152215
904.194	0.0152766
904.272	0.0152071
904.350	0.0152940
904.428	0.0152898
904.506	0.0153526
904.584	0.0153669
904.663	0.0153403
904.741	0.0156169
904.819	0.0154758
904.897	0.0155325
904.975	0.0156355
905.053	0.0157880
905.131	0.0157202
905.209	0.0157536
905.288	0.0158075
905.366	0.0157818
905.444	0.0158921
905.522	0.0157442
905.600	0.0158544
905.678	0.0158547
905.756	0.0157339
905.834	0.0156142
905.913	0.0158283
905.991	0.0157621
906.069	0.0158602
906.147	0.0156685
906.225	0.0157104
906.303	0.0156522
906.381	0.0155188
906.459	0.0153720
906.538	0.0155704
906.616	0.0155045
906.694	0.0154615
906.772	0.0153935
906.850	0.0154186
906.928	0.0154160
907.006	0.0152911
907.084	0.0153371
907.163	0.0154036
907.241	0.0153816
907.319	0.0154902
907.397	0.0153988
907.475	0.0153899
907.553	0.0153912
907.631	0.0154859
907.709	0.0153337
907.788	0.0154713
907.866	0.0154687
907.944	0.0155472
908.022	0.0153409
908.100	0.0154777
908.178	0.0155442
908.256	0.0156028
908.334	0.0155825
908.413	0.0155614
908.491	0.0155417
908.569	0.0154649
908.647	0.0155326
908.725	0.0154274
908.803	0.0153785
908.881	0.0153935
908.959	0.0154829
909.038	0.0154160
909.116	0.0153468
909.194	0.0154034
909.272	0.0154317
909.350	0.0152793
909.428	0.0152502
909.506	0.0153803
909.584	0.0154937
909.663	0.0155761
909.741	0.0155989
909.819	0.0155215
909.897	0.0155936
909.975	0.0156297
910.053	0.0156579
910.131	0.0155389
910.209	0.0155914
910.288	0.0157003
910.366	0.0157709
910.444	0.0154724
910.522	0.0154853
910.600	0.0155524
910.678	0.0156120
910.756	0.0154893
910.834	0.0154137
910.913	0.0154597
910.991	0.0155547
911.069	0.0155053
911.147	0.0155239
911.225	0.0155847
911.303	0.0155326
911.381	0.0152893
911.459	0.0153484
911.538	0.0154934
911.616	0.0153848
911.694	0.0154490
911.772	0.0153664
911.850	0.0153981
911.928	0.0155246
912.006	0.0155228
912.084	0.0154643
912.163	0.0154472
912.241	0.0155836
912.319	0.0157091
912.397	0.0156071
912.475	0.0156880
912.553	0.0156122
912.631	0.0155688
912.709	0.0156862
912.788	0.0156313
912.866	0.0155833
912.944	0.0156427
913.022	0.0156922
913.100	0.0155566
913.178	0.0156457
913.256	0.0156523
913.334	0.0155474
913.413	0.0155686
913.491	0.0155965
913.569	0.0155335
913.647	0.0154641
913.725	0.0155510
913.803	0.0153331
913.881	0.0155392
913.959	0.0155546
914.038	0.0155103
914.116	0.0153214
914.194	0.0154261
914.272	0.0155075
914.350	0.0154272
914.428	0.0155734
914.506	0.0154678
914.584	0.0154739
914.663	0.0155626
914.741	0.0155513
914.819	0.0154682
914.897	0.0155815
914.975	0.0154610
915.053	0.0154781
915.131	0.0155462
915.209	0.0154915
915.288	0.0154344
915.366	0.0154642
915.444	0.0153728
915.522	0.0153909
915.600	0.0154429
915.678	0.0154792
915.756	0.0155000
915.834	0.0154694
915.913	0.0155025
915.991	0.0155975
916.069	0.0156851
916.147	0.0156084
916.225	0.0158069
916.303	0.0156871
916.381	0.0156791
916.459	0.0157256
916.538	0.0156392
916.616	0.0156191
916.694	0.0156051
916.772	0.0156323
916.850	0.0156115
916.928	0.0155620
917.006	0.0156044
917.084	0.0156924
917.163	0.0155070
917.241	0.0155246
917.319	0.0154618
917.397	0.0153638
917.475	0.0153986
917.553	0.0154870
917.631	0.0154211
917.709	0.0155211
917.788	0.0153335
917.866	0.0154200
917.944	0.0154760
918.022	0.0155266
918.100	0.0156410
918.178	0.0156739
918.256	0.0155608
918.334	0.0156628
918.413	0.0157800
918.491	0.0158139
918.569	0.0157404
918.647	0.0158943
918.725	0.0159404
918.803	0.0156973
918.881	0.0158348
918.959	0.0158478
919.038	0.0158537
919.116	0.0156930
919.194	0.0157002
919.272	0.0155664
919.350	0.0155274
919.428	0.0155676
919.506	0.0156216
919.584	0.0154846
919.663	0.0153486
919.741	0.0152710
919.819	0.0153122
919.897	0.0154525
