05/20/2022	21:08:28	Ver.	4.1	UNKNOWN
Optical Delay	599.975067	Delta X		0.078125	Sweeps	1	Scan Rate	0/0
Coordinates	Axis 1	NaN	Axis 2	NaN	Axis 3	NaN	Axis 4	NaN	Axis 5	NaN	Axis 6	0.000000
TX Power	0.000000	RX Power	0.000000

599.975	0.0155399
600.053	0.0154657
600.131	0.0154941
600.209	0.0155190
600.288	0.0154696
600.366	0.0154853
600.444	0.0156035
600.522	0.0155084
600.600	0.0155244
600.678	0.0155074
600.756	0.0156883
600.834	0.0153967
600.913	0.0155834
600.991	0.0155502
601.069	0.0155814
601.147	0.0154739
601.225	0.0154783
601.303	0.0155402
601.381	0.0155602
601.459	0.0155051
601.538	0.0154510
601.616	0.0154151
601.694	0.0153888
601.772	0.0156363
601.850	0.0155667
601.928	0.0156017
602.006	0.0156219
602.084	0.0155947
602.163	0.0154208
602.241	0.0154691
602.319	0.0156056
602.397	0.0155765
602.475	0.0155959
602.553	0.0154595
602.631	0.0154676
602.709	0.0155389
602.788	0.0155766
602.866	0.0157125
602.944	0.0155232
603.022	0.0155100
603.100	0.0154559
603.178	0.0156933
603.256	0.0156081
603.334	0.0155954
603.413	0.0155643
603.491	0.0156303
603.569	0.0156827
603.647	0.0155908
603.725	0.0156825
603.803	0.0155775
603.881	0.0156522
603.959	0.0157114
604.038	0.0157051
604.116	0.0155727
604.194	0.0156620
604.272	0.0157132
604.350	0.0155372
604.428	0.0156543
604.506	0.0158685
604.584	0.0157871
604.663	0.0156575
604.741	0.0156551
604.819	0.0157118
604.897	0.0155767
604.975	0.0155630
605.053	0.0157807
605.131	0.0156194
605.209	0.0156460
605.288	0.0157372
605.366	0.0157047
605.444	0.0157796
605.522	0.0156533
605.600	0.0156713
605.678	0.0157917
605.756	0.0156932
605.834	0.0155598
605.913	0.0156326
605.991	0.0157689
606.069	0.0157972
606.147	0.0156432
606.225	0.0156878
606.303	0.0157923
606.381	0.0157154
606.459	0.0156930
606.538	0.0157437
606.616	0.0156814
606.694	0.0156538
606.772	0.0156721
606.850	0.0154424
606.928	0.0157222
607.006	0.0157603
607.084	0.0155270
607.163	0.0155222
607.241	0.0156696
607.319	0.0157614
607.397	0.0156876
607.475	0.0156761
607.553	0.0157053
607.631	0.0156613
607.709	0.0157148
607.788	0.0157211
607.866	0.0156364
607.944	0.0157101
608.022	0.0157437
608.100	0.0155596
608.178	0.0156005
608.256	0.0155737
608.334	0.0156910
608.413	0.0154694
608.491	0.0155470
608.569	0.0156194
608.647	0.0157057
608.725	0.0156326
608.803	0.0155728
608.881	0.0157054
608.959	0.0157345
609.038	0.0155225
609.116	0.0156351
609.194	0.0156210
609.272	0.0156744
609.350	0.0155999
609.428	0.0156397
609.506	0.0157333
609.584	0.0156719
609.663	0.0156927
609.741	0.0155727
609.819	0.0156487
609.897	0.0157375
609.975	0.0157479
610.053	0.0155860
610.131	0.0157173
610.209	0.0156443
610.288	0.0155695
610.366	0.0156367
610.444	0.0155321
610.522	0.0156007
610.600	0.0155666
610.678	0.0155481
610.756	0.0155193
610.834	0.0155682
610.913	0.0156075
610.991	0.0156080
611.069	0.0156743
611.147	0.0155413
611.225	0.0155862
611.303	0.0155541
611.381	0.0155791
611.459	0.0156795
611.538	0.0156792
611.616	0.0155860
611.694	0.0155999
611.772	0.0155239
611.850	0.0156352
611.928	0.0156644
612.006	0.0156066
612.084	0.0155235
612.163	0.0156680
612.241	0.0157433
612.319	0.0155862
612.397	0.0156148
612.475	0.0156040
612.553	0.0156122
612.631	0.0156079
612.709	0.0154782
612.788	0.0156146
612.866	0.0156223
612.944	0.0156010
613.022	0.0155394
613.100	0.0155819
613.178	0.0155540
613.256	0.0155288
613.334	0.0155263
613.413	0.0155669
613.491	0.0155499
613.569	0.0153675
613.647	0.0155221
613.725	0.0155428
613.803	0.0155954
613.881	0.0154471
613.959	0.0156421
614.038	0.0154727
614.116	0.0154663
614.194	0.0154604
614.272	0.0155831
614.350	0.0155649
614.428	0.0156470
614.506	0.0156080
614.584	0.0154237
614.663	0.0154933
614.741	0.0154471
614.819	0.0155481
614.897	0.0154015
614.975	0.0154633
615.053	0.0155139
615.131	0.0156149
615.209	0.0156298
615.288	0.0155332
615.366	0.0154872
615.444	0.0155225
615.522	0.0155009
615.600	0.0153806
615.678	0.0155783
615.756	0.0154932
615.834	0.0156081
615.913	0.0156392
615.991	0.0154388
616.069	0.0153798
616.147	0.0153950
616.225	0.0155602
616.303	0.0155421
616.381	0.0155033
616.459	0.0154469
616.538	0.0154565
616.616	0.0153501
616.694	0.0154652
616.772	0.0154267
616.850	0.0155907
616.928	0.0154469
617.006	0.0154697
617.084	0.0155923
617.163	0.0154381
617.241	0.0155713
617.319	0.0153934
617.397	0.0154636
617.475	0.0155142
617.553	0.0155663
617.631	0.0154850
617.709	0.0156115
617.788	0.0154470
617.866	0.0154659
617.944	0.0155196
618.022	0.0156282
618.100	0.0155463
618.178	0.0155093
618.256	0.0155375
618.334	0.0156118
618.413	0.0156117
618.491	0.0155150
618.569	0.0154321
618.647	0.0153943
618.725	0.0156438
618.803	0.0154206
618.881	0.0155207
618.959	0.0154734
619.038	0.0155442
619.116	0.0154203
619.194	0.0154547
619.272	0.0155222
619.350	0.0154097
619.428	0.0153883
619.506	0.0154919
619.584	0.0155041
619.663	0.0154517
619.741	0.0154585
619.819	0.0154326
619.897	0.0154680
619.975	0.0154299
620.053	0.0154113
620.131	0.0154996
620.209	0.0155228
620.288	0.0155106
620.366	0.0156524
620.444	0.0155118
620.522	0.0154787
620.600	0.0154647
620.678	0.0155098
620.756	0.0155518
620.834	0.0155885
620.913	0.0156932
620.991	0.0154644
621.069	0.0155117
621.147	0.0155875
621.225	0.0155341
621.303	0.0155162
621.381	0.0155997
621.459	0.0155231
621.538	0.0155681
621.616	0.0155279
621.694	0.0155538
621.772	0.0155344
621.850	0.0157800
621.928	0.0156660
622.006	0.0154205
622.084	0.0157033
622.163	0.0155906
622.241	0.0155968
622.319	0.0155563
622.397	0.0154877
622.475	0.0154863
622.553	0.0155009
622.631	0.0154873
622.709	0.0155811
622.788	0.0155806
622.866	0.0156854
622.944	0.0154044
623.022	0.0155577
623.100	0.0156242
623.178	0.0156355
623.256	0.0155572
623.334	0.0157561
623.413	0.0154714
623.491	0.0155371
623.569	0.0156119
623.647	0.0155523
623.725	0.0156085
623.803	0.0155553
623.881	0.0156100
623.959	0.0156819
624.038	0.0156084
624.116	0.0155802
624.194	0.0155522
624.272	0.0155367
624.350	0.0156445
624.428	0.0157000
624.506	0.0156091
624.584	0.0156256
624.663	0.0155663
624.741	0.0156947
624.819	0.0154862
624.897	0.0155637
624.975	0.0155918
625.053	0.0155798
625.131	0.0157508
625.209	0.0157095
625.288	0.0154753
625.366	0.0155626
625.444	0.0155087
625.522	0.0155979
625.600	0.0154491
625.678	0.0156359
625.756	0.0156731
625.834	0.0155806
625.913	0.0156285
625.991	0.0156435
626.069	0.0155809
626.147	0.0156094
626.225	0.0155556
626.303	0.0156202
626.381	0.0155305
626.459	0.0155532
626.538	0.0155434
626.616	0.0154896
626.694	0.0155298
626.772	0.0155956
626.850	0.0155136
626.928	0.0155908
627.006	0.0155793
627.084	0.0154636
627.163	0.0156082
627.241	0.0156394
627.319	0.0155976
627.397	0.0155556
627.475	0.0154594
627.553	0.0155842
627.631	0.0155981
627.709	0.0155443
627.788	0.0155101
627.866	0.0154987
627.944	0.0155505
628.022	0.0155408
628.100	0.0155381
628.178	0.0153901
628.256	0.0155698
628.334	0.0156194
628.413	0.0154512
628.491	0.0155488
628.569	0.0154992
628.647	0.0155975
628.725	0.0155072
628.803	0.0154359
628.881	0.0155463
628.959	0.0156192
629.038	0.0154352
629.116	0.0155096
629.194	0.0155795
629.272	0.0155000
629.350	0.0155438
629.428	0.0154659
629.506	0.0154675
629.584	0.0155403
629.663	0.0155208
629.741	0.0154557
629.819	0.0155022
629.897	0.0154847
629.975	0.0156103
630.053	0.0154387
630.131	0.0153459
630.209	0.0155430
630.288	0.0157135
630.366	0.0154950
630.444	0.0156080
630.522	0.0154945
630.600	0.0155650
630.678	0.0155292
630.756	0.0155783
630.834	0.0155421
630.913	0.0156658
630.991	0.0154549
631.069	0.0155344
631.147	0.0157741
631.225	0.0156567
631.303	0.0155640
631.381	0.0157349
631.459	0.0155067
631.538	0.0156043
631.616	0.0155908
631.694	0.0157201
631.772	0.0156054
631.850	0.0153507
631.928	0.0155118
632.006	0.0156376
632.084	0.0156474
632.163	0.0155711
632.241	0.0154583
632.319	0.0154136
632.397	0.0155576
632.475	0.0154372
632.553	0.0154192
632.631	0.0153790
632.709	0.0155037
632.788	0.0154282
632.866	0.0155959
632.944	0.0154269
633.022	0.0154701
633.100	0.0155067
633.178	0.0154214
633.256	0.0154470
633.334	0.0154967
633.413	0.0155908
633.491	0.0154675
633.569	0.0154792
633.647	0.0155082
633.725	0.0154324
633.803	0.0155434
633.881	0.0155772
633.959	0.0154169
634.038	0.0155374
634.116	0.0155997
634.194	0.0154157
634.272	0.0156132
634.350	0.0156524
634.428	0.0156651
634.506	0.0156330
634.584	0.0155269
634.663	0.0153453
634.741	0.0155586
634.819	0.0155866
634.897	0.0154692
634.975	0.0155243
635.053	0.0156851
635.131	0.0155186
635.209	0.0154941
635.288	0.0154574
635.366	0.0154751
635.444	0.0154145
635.522	0.0156313
635.600	0.0155607
635.678	0.0155407
635.756	0.0155569
635.834	0.0155366
635.913	0.0155059
635.991	0.0153521
636.069	0.0155688
636.147	0.0155717
636.225	0.0153487
636.303	0.0154668
636.381	0.0154237
636.459	0.0154144
636.538	0.0154241
636.616	0.0154227
636.694	0.0154606
636.772	0.0153132
636.850	0.0153207
636.928	0.0153188
637.006	0.0152961
637.084	0.0153336
637.163	0.0155335
637.241	0.0154789
637.319	0.0155219
637.397	0.0155467
637.475	0.0154092
637.553	0.0153608
637.631	0.0154906
637.709	0.0154921
637.788	0.0154292
637.866	0.0155637
637.944	0.0156013
638.022	0.0154806
638.100	0.0155024
638.178	0.0153967
638.256	0.0154627
638.334	0.0154806
638.413	0.0157237
638.491	0.0155260
638.569	0.0155695
638.647	0.0156145
638.725	0.0156081
638.803	0.0155390
638.881	0.0156105
638.959	0.0155853
639.038	0.0155162
639.116	0.0155093
639.194	0.0155609
639.272	0.0153664
639.350	0.0154843
639.428	0.0155053
639.506	0.0155212
639.584	0.0154536
639.663	0.0154515
639.741	0.0154723
639.819	0.0153775
639.897	0.0152502
639.975	0.0153633
640.053	0.0154204
640.131	0.0154076
640.209	0.0153384
640.288	0.0153624
640.366	0.0153143
640.444	0.0153840
640.522	0.0154230
640.600	0.0153841
640.678	0.0152798
640.756	0.0152676
640.834	0.0153246
640.913	0.0154369
640.991	0.0154694
641.069	0.0154546
641.147	0.0154130
641.225	0.0154690
641.303	0.0153481
641.381	0.0154961
641.459	0.0154183
641.538	0.0154768
641.616	0.0155091
641.694	0.0156026
641.772	0.0157089
641.850	0.0155392
641.928	0.0156734
642.006	0.0155531
642.084	0.0155841
642.163	0.0156617
642.241	0.0156903
642.319	0.0156670
642.397	0.0155064
642.475	0.0155529
642.553	0.0157040
642.631	0.0157240
642.709	0.0156066
642.788	0.0154410
642.866	0.0155328
642.944	0.0156056
643.022	0.0155439
643.100	0.0154980
643.178	0.0155425
643.256	0.0155389
643.334	0.0155061
643.413	0.0154199
643.491	0.0154502
643.569	0.0153851
643.647	0.0153125
643.725	0.0154086
643.803	0.0154627
643.881	0.0153928
643.959	0.0154605
644.038	0.0154423
644.116	0.0154874
644.194	0.0154015
644.272	0.0155830
644.350	0.0156402
644.428	0.0154902
644.506	0.0154890
644.584	0.0154700
644.663	0.0155347
644.741	0.0154319
644.819	0.0153499
644.897	0.0155938
644.975	0.0152931
645.053	0.0153797
645.131	0.0155131
645.209	0.0155917
645.288	0.0155773
645.366	0.0154996
645.444	0.0155595
645.522	0.0157397
645.600	0.0155383
645.678	0.0155962
645.756	0.0155751
645.834	0.0157663
645.913	0.0157442
645.991	0.0157537
646.069	0.0156182
646.147	0.0156729
646.225	0.0156316
646.303	0.0156709
646.381	0.0156783
646.459	0.0157550
646.538	0.0157507
646.616	0.0156247
646.694	0.0157533
646.772	0.0157449
646.850	0.0156929
646.928	0.0156138
647.006	0.0156036
647.084	0.0155792
647.163	0.0157380
647.241	0.0156051
647.319	0.0153597
647.397	0.0155064
647.475	0.0154842
647.553	0.0154081
647.631	0.0153912
647.709	0.0153996
647.788	0.0153929
647.866	0.0154422
647.944	0.0153168
648.022	0.0153473
648.100	0.0154285
648.178	0.0154807
648.256	0.0154894
648.334	0.0154581
648.413	0.0154662
648.491	0.0155278
648.569	0.0155122
648.647	0.0157335
648.725	0.0155162
648.803	0.0154897
648.881	0.0155828
648.959	0.0155700
649.038	0.0155148
649.116	0.0155440
649.194	0.0156588
649.272	0.0155381
649.350	0.0157296
649.428	0.0156789
649.506	0.0155500
649.584	0.0156299
649.663	0.0155385
649.741	0.0155007
649.819	0.0154958
649.897	0.0154708
649.975	0.0153579
650.053	0.0154647
650.131	0.0154649
650.209	0.0154440
650.288	0.0154036
650.366	0.0152377
650.444	0.0155952
650.522	0.0155019
650.600	0.0155542
650.678	0.0155753
650.756	0.0154509
650.834	0.0155322
650.913	0.0154578
650.991	0.0154836
651.069	0.0156777
651.147	0.0155444
651.225	0.0154793
651.303	0.0155776
651.381	0.0155362
651.459	0.0155169
651.538	0.0155770
651.616	0.0155264
651.694	0.0154984
651.772	0.0155489
651.850	0.0154800
651.928	0.0154690
652.006	0.0155081
652.084	0.0154282
652.163	0.0154834
652.241	0.0154106
652.319	0.0154089
652.397	0.0153076
652.475	0.0154236
652.553	0.0153785
652.631	0.0154958
652.709	0.0154726
652.788	0.0153819
652.866	0.0155024
652.944	0.0153872
653.022	0.0154498
653.100	0.0153639
653.178	0.0153652
653.256	0.0155061
653.334	0.0155699
653.413	0.0156155
653.491	0.0155543
653.569	0.0155031
653.647	0.0156974
653.725	0.0156794
653.803	0.0156209
653.881	0.0156775
653.959	0.0156471
654.038	0.0156794
654.116	0.0156716
654.194	0.0154739
654.272	0.0156151
654.350	0.0154576
654.428	0.0155127
654.506	0.0156268
654.584	0.0155452
654.663	0.0153693
654.741	0.0154150
654.819	0.0154517
654.897	0.0155003
654.975	0.0154286
655.053	0.0154254
655.131	0.0154440
655.209	0.0154895
655.288	0.0153967
655.366	0.0154523
655.444	0.0154572
655.522	0.0155342
655.600	0.0155968
655.678	0.0156811
655.756	0.0156567
655.834	0.0155642
655.913	0.0155649
655.991	0.0156220
656.069	0.0157313
656.147	0.0156891
656.225	0.0156615
656.303	0.0156542
656.381	0.0155378
656.459	0.0154668
656.538	0.0155602
656.616	0.0154714
656.694	0.0155254
656.772	0.0155579
656.850	0.0155833
656.928	0.0154279
657.006	0.0154507
657.084	0.0154530
657.163	0.0153669
657.241	0.0155156
657.319	0.0154418
657.397	0.0154691
657.475	0.0153917
657.553	0.0154261
657.631	0.0152942
657.709	0.0154620
657.788	0.0154716
657.866	0.0153969
657.944	0.0153566
658.022	0.0154638
658.100	0.0155046
658.178	0.0152791
658.256	0.0154005
658.334	0.0154240
658.413	0.0154002
658.491	0.0154240
658.569	0.0154528
658.647	0.0155495
658.725	0.0153740
658.803	0.0154866
658.881	0.0155344
658.959	0.0155758
659.038	0.0154082
659.116	0.0154791
659.194	0.0156108
659.272	0.0155261
659.350	0.0154475
659.428	0.0154172
659.506	0.0154585
659.584	0.0154126
659.663	0.0155344
659.741	0.0155416
659.819	0.0154616
659.897	0.0155748
659.975	0.0155125
660.053	0.0155111
660.131	0.0154971
660.209	0.0154702
660.288	0.0153996
660.366	0.0155025
660.444	0.0154529
660.522	0.0153853
660.600	0.0155406
660.678	0.0155103
660.756	0.0155386
660.834	0.0155888
660.913	0.0153876
660.991	0.0156216
661.069	0.0156495
661.147	0.0156499
661.225	0.0156181
661.303	0.0155774
661.381	0.0155620
661.459	0.0153474
661.538	0.0156476
661.616	0.0156650
661.694	0.0156727
661.772	0.0156332
661.850	0.0157173
661.928	0.0156355
662.006	0.0156006
662.084	0.0156088
662.163	0.0156992
662.241	0.0156714
662.319	0.0156158
662.397	0.0154753
662.475	0.0155140
662.553	0.0155157
662.631	0.0155318
662.709	0.0154794
662.788	0.0154341
662.866	0.0154118
662.944	0.0154752
663.022	0.0155228
663.100	0.0154632
663.178	0.0155408
663.256	0.0155773
663.334	0.0155205
663.413	0.0156245
663.491	0.0155852
663.569	0.0156878
663.647	0.0155394
663.725	0.0156580
663.803	0.0157838
663.881	0.0157253
663.959	0.0157348
664.038	0.0158172
664.116	0.0157378
664.194	0.0157330
664.272	0.0157588
664.350	0.0157378
664.428	0.0157178
664.506	0.0156756
664.584	0.0157885
664.663	0.0157381
664.741	0.0155510
664.819	0.0156396
664.897	0.0156532
664.975	0.0154720
665.053	0.0154552
665.131	0.0154110
665.209	0.0154187
665.288	0.0153901
665.366	0.0155372
665.444	0.0154259
665.522	0.0156481
665.600	0.0156000
665.678	0.0156113
665.756	0.0155824
665.834	0.0154792
665.913	0.0155870
665.991	0.0156174
666.069	0.0157644
666.147	0.0157867
666.225	0.0157008
666.303	0.0155694
666.381	0.0156194
666.459	0.0155188
666.538	0.0156503
666.616	0.0157297
666.694	0.0155271
666.772	0.0154080
666.850	0.0156005
666.928	0.0155751
667.006	0.0154305
667.084	0.0155524
667.163	0.0156409
667.241	0.0155392
667.319	0.0155212
667.397	0.0155819
667.475	0.0156929
667.553	0.0156757
667.631	0.0155045
667.709	0.0156797
667.788	0.0155904
667.866	0.0156204
667.944	0.0156915
668.022	0.0157139
668.100	0.0157044
668.178	0.0158002
668.256	0.0156760
668.334	0.0157481
668.413	0.0157851
668.491	0.0157018
668.569	0.0156697
668.647	0.0156837
668.725	0.0157590
668.803	0.0157153
668.881	0.0155965
668.959	0.0155795
669.038	0.0155675
669.116	0.0156466
669.194	0.0155201
669.272	0.0156068
669.350	0.0154404
669.428	0.0154640
669.506	0.0154874
669.584	0.0155575
669.663	0.0154410
669.741	0.0154646
669.819	0.0153534
669.897	0.0153426
669.975	0.0154996
670.053	0.0153905
670.131	0.0153935
670.209	0.0153533
670.288	0.0153780
670.366	0.0154690
670.444	0.0155868
670.522	0.0155343
670.600	0.0154002
670.678	0.0155292
670.756	0.0156595
670.834	0.0155875
670.913	0.0156586
670.991	0.0157103
671.069	0.0155326
671.147	0.0156631
671.225	0.0157030
671.303	0.0155984
671.381	0.0155134
671.459	0.0156035
671.538	0.0154779
671.616	0.0154740
671.694	0.0154545
671.772	0.0154495
671.850	0.0154361
671.928	0.0153474
672.006	0.0153642
672.084	0.0155103
672.163	0.0154153
672.241	0.0154324
672.319	0.0154041
672.397	0.0153422
672.475	0.0154062
672.553	0.0155145
672.631	0.0154071
672.709	0.0154826
672.788	0.0154473
672.866	0.0155461
672.944	0.0155075
673.022	0.0155753
673.100	0.0155792
673.178	0.0157272
673.256	0.0157009
673.334	0.0156279
673.413	0.0156611
673.491	0.0156838
673.569	0.0156057
673.647	0.0156875
673.725	0.0157637
673.803	0.0155368
673.881	0.0155632
673.959	0.0154943
674.038	0.0155270
674.116	0.0157365
674.194	0.0155590
674.272	0.0153661
674.350	0.0153342
674.428	0.0153357
674.506	0.0152950
674.584	0.0153117
674.663	0.0151786
674.741	0.0151644
674.819	0.0151379
674.897	0.0152992
674.975	0.0152612
675.053	0.0153918
675.131	0.0153416
675.209	0.0153664
675.288	0.0155421
675.366	0.0157806
675.444	0.0157217
675.522	0.0156302
675.600	0.0158350
675.678	0.0159229
675.756	0.0157768
675.834	0.0159411
675.913	0.0160435
675.991	0.0161380
676.069	0.0160564
676.147	0.0160317
676.225	0.0159299
676.303	0.0158834
676.381	0.0157387
676.459	0.0157303
676.538	0.0156882
676.616	0.0155289
676.694	0.0153253
676.772	0.0152321
676.850	0.0152281
676.928	0.0150915
677.006	0.0149200
677.084	0.0148069
677.163	0.0147836
677.241	0.0145277
677.319	0.0146718
677.397	0.0147716
677.475	0.0147154
677.553	0.0147266
677.631	0.0147137
677.709	0.0147592
677.788	0.0149864
677.866	0.0150758
677.944	0.0153525
678.022	0.0156792
678.100	0.0157800
678.178	0.0159118
678.256	0.0161640
678.334	0.0164228
678.413	0.0164806
678.491	0.0166830
678.569	0.0168029
678.647	0.0168732
678.725	0.0170338
678.803	0.0170502
678.881	0.0170044
678.959	0.0168356
679.038	0.0168246
679.116	0.0167616
679.194	0.0164919
679.272	0.0164929
679.350	0.0161639
679.428	0.0158691
679.506	0.0155378
679.584	0.0153784
679.663	0.0152551
679.741	0.0148992
679.819	0.0147511
679.897	0.0144865
679.975	0.0144578
680.053	0.0144010
680.131	0.0140914
680.209	0.0141919
680.288	0.0142479
680.366	0.0142324
680.444	0.0141162
680.522	0.0142310
680.600	0.0143724
680.678	0.0145034
680.756	0.0146635
680.834	0.0148399
680.913	0.0150184
680.991	0.0152894
681.069	0.0153426
681.147	0.0156756
681.225	0.0159031
681.303	0.0160811
681.381	0.0161981
681.459	0.0163837
681.538	0.0166259
681.616	0.0165767
681.694	0.0168181
681.772	0.0168262
681.850	0.0168799
681.928	0.0168938
682.006	0.0168299
682.084	0.0169069
682.163	0.0168178
682.241	0.0167559
682.319	0.0165646
682.397	0.0165089
682.475	0.0165010
682.553	0.0162562
682.631	0.0160439
682.709	0.0159466
682.788	0.0157938
682.866	0.0156957
682.944	0.0155381
683.022	0.0154082
683.100	0.0153174
683.178	0.0151643
683.256	0.0150687
683.334	0.0149789
683.413	0.0148528
683.491	0.0146595
683.569	0.0148243
683.647	0.0147227
683.725	0.0145621
683.803	0.0147662
683.881	0.0146951
683.959	0.0147559
684.038	0.0147518
684.116	0.0147015
684.194	0.0148942
684.272	0.0148801
684.350	0.0150170
684.428	0.0151138
684.506	0.0151492
684.584	0.0154857
684.663	0.0155526
684.741	0.0155119
684.819	0.0156497
684.897	0.0158089
684.975	0.0158738
685.053	0.0159944
685.131	0.0161105
685.209	0.0161951
685.288	0.0162238
685.366	0.0161311
685.444	0.0161931
685.522	0.0163550
685.600	0.0161446
685.678	0.0161046
685.756	0.0160386
685.834	0.0160465
685.913	0.0159314
685.991	0.0158842
686.069	0.0155499
686.147	0.0155463
686.225	0.0154845
686.303	0.0152512
686.381	0.0152044
686.459	0.0151871
686.538	0.0148970
686.616	0.0149172
686.694	0.0149081
686.772	0.0148174
686.850	0.0148653
686.928	0.0148001
687.006	0.0147075
687.084	0.0148232
687.163	0.0149146
687.241	0.0148259
687.319	0.0150861
687.397	0.0151108
687.475	0.0153004
687.553	0.0154968
687.631	0.0155424
687.709	0.0157066
687.788	0.0159326
687.866	0.0160732
687.944	0.0161808
688.022	0.0161250
688.100	0.0161640
688.178	0.0164651
688.256	0.0164582
688.334	0.0165585
688.413	0.0165792
688.491	0.0166448
688.569	0.0165634
688.647	0.0167505
688.725	0.0166714
688.803	0.0166516
688.881	0.0166061
688.959	0.0166000
689.038	0.0166431
689.116	0.0165096
689.194	0.0166041
689.272	0.0165496
689.350	0.0163213
689.428	0.0162869
689.506	0.0161789
689.584	0.0159056
689.663	0.0157603
689.741	0.0156052
689.819	0.0151896
689.897	0.0150057
689.975	0.0148228
690.053	0.0146406
690.131	0.0142744
690.209	0.0140285
690.288	0.0139406
690.366	0.0137091
690.444	0.0135606
690.522	0.0134513
690.600	0.0133748
690.678	0.0134852
690.756	0.0134141
690.834	0.0134944
690.913	0.0137432
690.991	0.0138354
691.069	0.0139898
691.147	0.0142878
691.225	0.0144804
691.303	0.0147036
691.381	0.0148273
691.459	0.0152562
691.538	0.0155804
691.616	0.0158447
691.694	0.0160317
691.772	0.0164238
691.850	0.0164959
691.928	0.0167211
692.006	0.0170354
692.084	0.0170764
692.163	0.0172970
692.241	0.0172369
692.319	0.0174308
692.397	0.0175974
692.475	0.0174725
692.553	0.0174890
692.631	0.0174409
692.709	0.0173508
692.788	0.0173952
692.866	0.0172831
692.944	0.0172983
693.022	0.0170943
693.100	0.0169194
693.178	0.0169494
693.256	0.0168456
693.334	0.0166995
693.413	0.0165815
693.491	0.0167135
693.569	0.0165810
693.647	0.0165652
693.725	0.0165575
693.803	0.0164086
693.881	0.0161430
693.959	0.0160408
694.038	0.0158301
694.116	0.0155986
694.194	0.0153333
694.272	0.0150262
694.350	0.0147295
694.428	0.0142187
694.506	0.0139507
694.584	0.0136199
694.663	0.0135411
694.741	0.0131641
694.819	0.0129946
694.897	0.0129787
694.975	0.0128543
695.053	0.0130200
695.131	0.0130772
695.209	0.0130180
695.288	0.0132009
695.366	0.0130721
695.444	0.0133733
695.522	0.0132030
695.600	0.0134149
695.678	0.0133958
695.756	0.0133597
695.834	0.0134025
695.913	0.0136978
695.991	0.0136568
696.069	0.0137456
696.147	0.0140685
696.225	0.0142909
696.303	0.0146251
696.381	0.0148279
696.459	0.0153176
696.538	0.0157100
696.616	0.0163042
696.694	0.0167380
696.772	0.0172716
696.850	0.0179961
696.928	0.0184471
697.006	0.0187592
697.084	0.0193538
697.163	0.0197848
697.241	0.0201045
697.319	0.0203270
697.397	0.0204076
697.475	0.0204688
697.553	0.0205079
697.631	0.0202342
697.709	0.0201885
697.788	0.0197384
697.866	0.0194988
697.944	0.0190329
698.022	0.0183929
698.100	0.0178210
698.178	0.0173022
698.256	0.0165582
698.334	0.0157261
698.413	0.0151273
698.491	0.0142937
698.569	0.0135606
698.647	0.0128139
698.725	0.0123774
698.803	0.0116753
698.881	0.0113286
698.959	0.0109095
699.038	0.0106143
699.116	0.0105321
699.194	0.0105383
699.272	0.0105789
699.350	0.0107455
699.428	0.0113710
699.506	0.0119248
699.584	0.0123027
699.663	0.0129426
699.741	0.0136812
699.819	0.0143025
699.897	0.0149737
699.975	0.0155995
700.053	0.0161371
700.131	0.0165791
700.209	0.0169177
700.288	0.0173173
700.366	0.0176277
700.444	0.0178441
700.522	0.0178889
700.600	0.0179556
700.678	0.0179089
700.756	0.0178968
700.834	0.0177400
700.913	0.0175656
700.991	0.0175497
701.069	0.0172186
701.147	0.0170406
701.225	0.0167720
701.303	0.0164137
701.381	0.0161863
701.459	0.0156130
701.538	0.0151982
701.616	0.0150959
701.694	0.0145185
701.772	0.0140789
701.850	0.0138303
701.928	0.0136143
702.006	0.0134537
702.084	0.0134134
702.163	0.0135277
702.241	0.0135519
702.319	0.0138373
702.397	0.0141177
702.475	0.0144996
702.553	0.0146016
702.631	0.0151666
702.709	0.0156050
702.788	0.0158786
702.866	0.0159545
702.944	0.0163065
703.022	0.0166114
703.100	0.0166462
703.178	0.0168360
703.256	0.0168976
703.334	0.0170697
703.413	0.0171567
703.491	0.0171264
703.569	0.0173287
703.647	0.0173430
703.725	0.0172798
703.803	0.0174794
703.881	0.0173605
703.959	0.0174284
704.038	0.0172159
704.116	0.0170438
704.194	0.0167379
704.272	0.0166274
704.350	0.0162419
704.428	0.0160197
704.506	0.0156007
704.584	0.0154047
704.663	0.0150597
704.741	0.0147073
704.819	0.0145785
704.897	0.0144115
704.975	0.0142487
705.053	0.0143670
705.131	0.0140623
705.209	0.0141811
705.288	0.0143708
705.366	0.0143826
705.444	0.0146194
705.522	0.0146165
705.600	0.0146248
705.678	0.0146888
705.756	0.0147366
705.834	0.0148118
705.913	0.0148392
705.991	0.0148615
706.069	0.0147824
706.147	0.0147186
706.225	0.0148999
706.303	0.0148051
706.381	0.0147642
706.459	0.0148629
706.538	0.0147882
706.616	0.0146854
706.694	0.0146790
706.772	0.0147875
706.850	0.0147120
706.928	0.0149493
707.006	0.0148049
707.084	0.0148341
707.163	0.0148348
707.241	0.0149574
707.319	0.0151517
707.397	0.0151289
707.475	0.0151932
707.553	0.0153674
707.631	0.0153581
707.709	0.0154593
707.788	0.0156165
707.866	0.0156888
707.944	0.0157835
708.022	0.0157430
708.100	0.0160239
708.178	0.0160801
708.256	0.0160435
708.334	0.0163191
708.413	0.0163137
708.491	0.0162598
708.569	0.0164161
708.647	0.0164951
708.725	0.0167024
708.803	0.0165704
708.881	0.0166836
708.959	0.0166618
709.038	0.0166692
709.116	0.0166573
709.194	0.0166802
709.272	0.0165162
709.350	0.0164039
709.428	0.0161790
709.506	0.0159602
709.584	0.0158051
709.663	0.0157153
709.741	0.0155141
709.819	0.0155086
709.897	0.0154630
709.975	0.0155371
710.053	0.0155389
710.131	0.0157012
710.209	0.0158806
710.288	0.0160582
710.366	0.0162264
710.444	0.0164495
710.522	0.0167587
710.600	0.0170023
710.678	0.0171204
710.756	0.0172366
710.834	0.0173111
710.913	0.0173236
710.991	0.0172129
711.069	0.0169300
711.147	0.0167488
711.225	0.0164407
711.303	0.0161130
711.381	0.0158347
711.459	0.0155894
711.538	0.0152410
711.616	0.0148286
711.694	0.0143892
711.772	0.0139508
711.850	0.0134512
711.928	0.0129827
712.006	0.0126417
712.084	0.0123891
712.163	0.0119844
712.241	0.0117726
712.319	0.0114937
712.397	0.0114539
712.475	0.0113135
712.553	0.0114410
712.631	0.0115075
712.709	0.0119240
712.788	0.0122247
712.866	0.0127282
712.944	0.0132698
713.022	0.0139147
713.100	0.0146110
713.178	0.0151694
713.256	0.0158643
713.334	0.0164225
713.413	0.0170717
713.491	0.0174306
713.569	0.0179029
713.647	0.0182656
713.725	0.0185220
713.803	0.0186312
713.881	0.0187500
713.959	0.0189953
714.038	0.0190508
714.116	0.0191357
714.194	0.0191133
714.272	0.0192292
714.350	0.0189985
714.428	0.0190628
714.506	0.0186806
714.584	0.0183450
714.663	0.0180837
714.741	0.0177729
714.819	0.0172720
714.897	0.0168096
714.975	0.0162216
715.053	0.0158603
715.131	0.0152592
715.209	0.0147033
715.288	0.0144251
715.366	0.0141840
715.444	0.0139860
715.522	0.0137368
715.600	0.0137249
715.678	0.0136209
715.756	0.0134202
715.834	0.0135886
715.913	0.0137041
715.991	0.0138036
716.069	0.0139692
716.147	0.0141422
716.225	0.0142997
716.303	0.0146380
716.381	0.0148012
716.459	0.0150091
716.538	0.0152676
716.616	0.0153618
716.694	0.0156075
716.772	0.0159026
716.850	0.0160219
716.928	0.0160181
717.006	0.0160365
717.084	0.0160864
717.163	0.0160654
717.241	0.0158483
717.319	0.0157730
717.397	0.0157689
717.475	0.0154732
717.553	0.0153172
717.631	0.0150960
717.709	0.0148662
717.788	0.0146797
717.866	0.0146062
717.944	0.0144865
718.022	0.0142951
718.100	0.0143161
718.178	0.0143232
718.256	0.0144353
718.334	0.0146389
718.413	0.0145703
718.491	0.0146780
718.569	0.0148001
718.647	0.0151204
718.725	0.0152061
718.803	0.0155081
718.881	0.0155002
718.959	0.0156712
719.038	0.0158951
719.116	0.0162064
719.194	0.0161360
719.272	0.0161818
719.350	0.0163771
719.428	0.0165453
719.506	0.0164764
719.584	0.0165430
719.663	0.0164323
719.741	0.0164699
719.819	0.0162577
719.897	0.0162775
719.975	0.0161472
720.053	0.0159784
720.131	0.0158884
720.209	0.0157662
720.288	0.0157281
720.366	0.0157162
720.444	0.0158056
720.522	0.0159550
720.600	0.0159772
720.678	0.0160992
720.756	0.0162160
720.834	0.0165047
720.913	0.0165924
720.991	0.0166438
721.069	0.0168784
721.147	0.0170735
721.225	0.0170169
721.303	0.0169414
721.381	0.0169383
721.459	0.0168413
721.538	0.0165129
721.616	0.0164646
721.694	0.0161290
721.772	0.0160812
721.850	0.0159605
721.928	0.0157124
722.006	0.0155563
722.084	0.0153988
722.163	0.0152535
722.241	0.0149221
722.319	0.0148833
722.397	0.0147409
722.475	0.0145930
722.553	0.0144415
722.631	0.0143138
722.709	0.0142130
722.788	0.0141983
722.866	0.0139523
722.944	0.0138795
723.022	0.0137817
723.100	0.0136043
723.178	0.0135268
723.256	0.0135770
723.334	0.0132966
723.413	0.0133347
723.491	0.0133656
723.569	0.0133665
723.647	0.0133348
723.725	0.0134948
723.803	0.0135993
723.881	0.0138962
723.959	0.0138494
724.038	0.0142091
724.116	0.0146822
724.194	0.0149619
724.272	0.0151432
724.350	0.0156834
724.428	0.0161107
724.506	0.0164333
724.584	0.0167875
724.663	0.0173000
724.741	0.0175199
724.819	0.0179053
724.897	0.0181006
724.975	0.0183959
725.053	0.0185313
725.131	0.0185939
725.209	0.0183837
725.288	0.0182709
725.366	0.0182482
725.444	0.0179663
725.522	0.0177962
725.600	0.0173637
725.678	0.0171208
725.756	0.0168367
725.834	0.0165208
725.913	0.0162365
725.991	0.0159096
726.069	0.0155729
726.147	0.0154653
726.225	0.0154432
726.303	0.0153316
726.381	0.0152291
726.459	0.0151086
726.538	0.0150066
726.616	0.0150857
726.694	0.0150821
726.772	0.0149590
726.850	0.0150418
726.928	0.0149973
727.006	0.0148592
727.084	0.0149387
727.163	0.0149633
727.241	0.0146672
727.319	0.0147260
727.397	0.0143520
727.475	0.0142588
727.553	0.0143252
727.631	0.0144062
727.709	0.0143565
727.788	0.0144773
727.866	0.0143148
727.944	0.0144084
728.022	0.0144446
728.100	0.0146866
728.178	0.0147906
728.256	0.0146719
728.334	0.0148750
728.413	0.0150301
728.491	0.0148820
728.569	0.0148449
728.647	0.0145833
728.725	0.0146522
728.803	0.0146461
728.881	0.0143622
728.959	0.0143511
729.038	0.0143297
729.116	0.0142154
729.194	0.0140971
729.272	0.0141870
729.350	0.0142846
729.428	0.0144482
729.506	0.0146708
729.584	0.0148106
729.663	0.0150871
729.741	0.0153530
729.819	0.0155862
729.897	0.0157878
729.975	0.0161528
730.053	0.0163459
730.131	0.0166266
730.209	0.0168158
730.288	0.0168723
730.366	0.0168268
730.444	0.0170831
730.522	0.0171107
730.600	0.0168684
730.678	0.0167271
730.756	0.0168487
730.834	0.0168381
730.913	0.0166095
730.991	0.0165513
731.069	0.0163996
731.147	0.0163232
731.225	0.0161457
731.303	0.0160677
731.381	0.0159824
731.459	0.0158856
731.538	0.0159027
731.616	0.0158624
731.694	0.0157141
731.772	0.0157458
731.850	0.0153808
731.928	0.0153637
732.006	0.0155130
732.084	0.0151596
732.163	0.0151343
732.241	0.0150485
732.319	0.0149004
732.397	0.0150654
732.475	0.0150015
732.553	0.0149878
732.631	0.0150763
732.709	0.0152042
732.788	0.0153320
732.866	0.0154745
732.944	0.0156386
733.022	0.0157120
733.100	0.0156903
733.178	0.0158637
733.256	0.0157298
733.334	0.0158018
733.413	0.0157631
733.491	0.0155438
733.569	0.0156194
733.647	0.0153978
733.725	0.0151103
733.803	0.0148634
733.881	0.0147426
733.959	0.0145497
734.038	0.0144141
734.116	0.0142113
734.194	0.0140632
734.272	0.0140215
734.350	0.0139135
734.428	0.0139413
734.506	0.0139729
734.584	0.0140369
734.663	0.0142731
734.741	0.0145538
734.819	0.0145146
734.897	0.0146738
734.975	0.0148516
735.053	0.0151404
735.131	0.0152170
735.209	0.0154359
735.288	0.0155052
735.366	0.0156753
735.444	0.0158458
735.522	0.0157350
735.600	0.0158331
735.678	0.0158447
735.756	0.0158199
735.834	0.0158885
735.913	0.0157439
735.991	0.0158813
736.069	0.0158852
736.147	0.0158650
736.225	0.0159219
736.303	0.0160911
736.381	0.0160259
736.459	0.0162544
736.538	0.0162300
736.616	0.0165147
736.694	0.0166693
736.772	0.0166895
736.850	0.0167999
736.928	0.0169197
737.006	0.0170387
737.084	0.0169872
737.163	0.0170429
737.241	0.0170448
737.319	0.0168567
737.397	0.0168640
737.475	0.0166029
737.553	0.0166638
737.631	0.0165871
737.709	0.0163558
737.788	0.0163024
737.866	0.0162414
737.944	0.0159821
738.022	0.0159258
738.100	0.0156744
738.178	0.0156284
738.256	0.0154943
738.334	0.0153082
738.413	0.0152438
738.491	0.0152249
738.569	0.0151681
738.647	0.0149496
738.725	0.0148660
738.803	0.0147972
738.881	0.0148061
738.959	0.0146868
739.038	0.0146497
739.116	0.0146678
739.194	0.0146291
739.272	0.0146478
739.350	0.0145983
739.428	0.0146382
739.506	0.0147932
739.584	0.0147336
739.663	0.0148910
739.741	0.0149238
739.819	0.0148408
739.897	0.0151212
739.975	0.0150767
740.053	0.0151910
740.131	0.0151698
740.209	0.0152627
740.288	0.0153158
740.366	0.0154418
740.444	0.0155185
740.522	0.0154650
740.600	0.0153804
740.678	0.0153001
740.756	0.0155190
740.834	0.0152183
740.913	0.0153886
740.991	0.0155182
741.069	0.0154799
741.147	0.0155392
741.225	0.0157477
741.303	0.0157475
741.381	0.0159278
741.459	0.0159282
741.538	0.0162039
741.616	0.0164216
741.694	0.0163687
741.772	0.0163380
741.850	0.0163596
741.928	0.0164529
742.006	0.0162373
742.084	0.0163354
742.163	0.0162818
742.241	0.0161829
742.319	0.0159238
742.397	0.0157008
742.475	0.0157863
742.553	0.0156815
742.631	0.0155170
742.709	0.0156300
742.788	0.0157178
742.866	0.0156949
742.944	0.0159255
743.022	0.0159081
743.100	0.0159155
743.178	0.0159975
743.256	0.0159624
743.334	0.0159270
743.413	0.0159807
743.491	0.0158484
743.569	0.0158646
743.647	0.0155991
743.725	0.0156142
743.803	0.0156081
743.881	0.0154281
743.959	0.0152101
744.038	0.0152802
744.116	0.0153348
744.194	0.0153417
744.272	0.0152776
744.350	0.0154511
744.428	0.0153677
744.506	0.0154566
744.584	0.0155839
744.663	0.0157310
744.741	0.0157681
744.819	0.0159008
744.897	0.0159883
744.975	0.0159851
745.053	0.0159852
745.131	0.0160222
745.209	0.0159908
745.288	0.0158746
745.366	0.0160750
745.444	0.0158844
745.522	0.0156377
745.600	0.0156301
745.678	0.0154875
745.756	0.0154468
745.834	0.0153867
745.913	0.0153300
745.991	0.0150725
746.069	0.0152196
746.147	0.0151237
746.225	0.0149953
746.303	0.0149011
746.381	0.0149899
746.459	0.0148091
746.538	0.0147541
746.616	0.0147397
746.694	0.0145717
746.772	0.0145850
746.850	0.0146457
746.928	0.0147615
747.006	0.0146987
747.084	0.0148739
747.163	0.0149583
747.241	0.0150542
747.319	0.0149965
747.397	0.0153145
747.475	0.0152737
747.553	0.0152751
747.631	0.0154285
747.709	0.0154414
747.788	0.0154129
747.866	0.0155526
747.944	0.0155965
748.022	0.0154874
748.100	0.0153336
748.178	0.0155141
748.256	0.0154474
748.334	0.0153806
748.413	0.0157263
748.491	0.0157178
748.569	0.0157195
748.647	0.0158723
748.725	0.0159126
748.803	0.0162596
748.881	0.0163889
748.959	0.0162221
749.038	0.0162285
749.116	0.0161670
749.194	0.0160947
749.272	0.0161568
749.350	0.0161201
749.428	0.0159070
749.506	0.0157829
749.584	0.0158395
749.663	0.0156773
749.741	0.0155899
749.819	0.0154589
749.897	0.0153824
749.975	0.0152795
750.053	0.0153291
750.131	0.0151953
750.209	0.0152042
750.288	0.0151637
750.366	0.0153253
750.444	0.0153846
750.522	0.0152184
750.600	0.0152647
750.678	0.0154307
750.756	0.0152687
750.834	0.0153410
750.913	0.0154664
750.991	0.0154916
751.069	0.0154486
751.147	0.0152679
751.225	0.0153984
751.303	0.0154629
751.381	0.0154597
751.459	0.0153780
751.538	0.0153991
751.616	0.0156411
751.694	0.0156239
751.772	0.0156380
751.850	0.0154459
751.928	0.0156586
752.006	0.0158009
752.084	0.0157465
752.163	0.0155688
752.241	0.0155376
752.319	0.0156803
752.397	0.0156944
752.475	0.0153922
752.553	0.0154621
752.631	0.0153126
752.709	0.0152989
752.788	0.0152808
752.866	0.0151495
752.944	0.0151327
753.022	0.0152615
753.100	0.0153735
753.178	0.0152018
753.256	0.0154648
753.334	0.0153493
753.413	0.0153047
753.491	0.0155894
753.569	0.0154540
753.647	0.0154233
753.725	0.0152945
753.803	0.0154417
753.881	0.0153749
753.959	0.0152950
754.038	0.0152427
754.116	0.0150641
754.194	0.0150591
754.272	0.0151264
754.350	0.0151958
754.428	0.0151903
754.506	0.0151582
754.584	0.0151908
754.663	0.0152555
754.741	0.0153458
754.819	0.0153519
754.897	0.0153992
754.975	0.0155314
755.053	0.0155122
755.131	0.0153858
755.209	0.0155264
755.288	0.0155177
755.366	0.0155389
755.444	0.0157004
755.522	0.0156853
755.600	0.0157781
755.678	0.0158710
755.756	0.0160106
755.834	0.0161037
755.913	0.0162164
755.991	0.0162453
756.069	0.0162712
756.147	0.0160995
756.225	0.0161162
756.303	0.0161311
756.381	0.0161220
756.459	0.0160019
756.538	0.0158553
756.616	0.0160490
756.694	0.0159964
756.772	0.0157738
756.850	0.0158464
756.928	0.0158378
757.006	0.0161189
757.084	0.0159641
757.163	0.0160332
757.241	0.0160674
757.319	0.0160195
757.397	0.0159246
757.475	0.0158360
757.553	0.0159258
757.631	0.0158169
757.709	0.0154632
757.788	0.0152822
757.866	0.0150917
757.944	0.0151771
758.022	0.0148611
758.100	0.0146626
758.178	0.0145845
758.256	0.0145886
758.334	0.0146790
758.413	0.0146039
758.491	0.0146130
758.569	0.0147237
758.647	0.0147560
758.725	0.0148396
758.803	0.0149895
758.881	0.0152899
758.959	0.0154162
759.038	0.0154673
759.116	0.0157222
759.194	0.0160603
759.272	0.0157719
759.350	0.0159512
759.428	0.0161585
759.506	0.0159582
759.584	0.0159391
759.663	0.0159589
759.741	0.0159122
759.819	0.0160349
759.897	0.0160281
759.975	0.0157692
760.053	0.0156715
760.131	0.0155979
760.209	0.0154964
760.288	0.0155529
760.366	0.0156207
760.444	0.0154825
760.522	0.0156025
760.600	0.0156254
760.678	0.0156115
760.756	0.0156638
760.834	0.0156075
760.913	0.0155087
760.991	0.0156238
761.069	0.0157823
761.147	0.0158267
761.225	0.0159146
761.303	0.0158746
761.381	0.0158445
761.459	0.0158867
761.538	0.0158289
761.616	0.0157119
761.694	0.0156470
761.772	0.0155618
761.850	0.0155310
761.928	0.0155126
762.006	0.0151944
762.084	0.0151694
762.163	0.0151421
762.241	0.0150459
762.319	0.0150700
762.397	0.0151585
762.475	0.0153468
762.553	0.0155296
762.631	0.0155350
762.709	0.0155688
762.788	0.0156120
762.866	0.0159309
762.944	0.0160212
763.022	0.0159978
763.100	0.0161127
763.178	0.0161600
763.256	0.0162213
763.334	0.0162778
763.413	0.0162200
763.491	0.0162468
763.569	0.0162471
763.647	0.0160940
763.725	0.0160577
763.803	0.0158784
763.881	0.0158163
763.959	0.0158125
764.038	0.0158312
764.116	0.0157338
764.194	0.0157133
764.272	0.0158059
764.350	0.0157375
764.428	0.0158996
764.506	0.0159061
764.584	0.0158949
764.663	0.0158904
764.741	0.0159577
764.819	0.0161092
764.897	0.0159789
764.975	0.0160008
765.053	0.0159386
765.131	0.0158777
765.209	0.0157343
765.288	0.0156625
765.366	0.0154553
765.444	0.0153164
765.522	0.0152438
765.600	0.0150524
765.678	0.0151332
765.756	0.0148908
765.834	0.0146482
765.913	0.0147028
765.991	0.0146893
766.069	0.0146671
766.147	0.0147746
766.225	0.0147073
766.303	0.0147556
766.381	0.0150159
766.459	0.0151030
766.538	0.0151167
766.616	0.0151609
766.694	0.0153620
766.772	0.0155882
766.850	0.0154015
766.928	0.0156819
767.006	0.0158989
767.084	0.0158904
767.163	0.0158712
767.241	0.0159599
767.319	0.0160638
767.397	0.0160856
767.475	0.0160393
767.553	0.0160851
767.631	0.0163014
767.709	0.0160875
767.788	0.0160873
767.866	0.0161421
767.944	0.0161129
768.022	0.0161056
768.100	0.0158990
768.178	0.0157932
768.256	0.0158704
768.334	0.0158552
768.413	0.0159020
768.491	0.0156662
768.569	0.0158286
768.647	0.0156794
768.725	0.0157217
768.803	0.0157140
768.881	0.0158096
768.959	0.0157491
769.038	0.0158308
769.116	0.0158624
769.194	0.0157065
769.272	0.0157560
769.350	0.0157526
769.428	0.0156034
769.506	0.0155855
769.584	0.0154958
769.663	0.0153442
769.741	0.0154114
769.819	0.0153520
769.897	0.0153516
769.975	0.0152377
770.053	0.0151859
770.131	0.0151318
770.209	0.0151666
770.288	0.0150811
770.366	0.0150996
770.444	0.0151044
770.522	0.0150629
770.600	0.0149075
770.678	0.0149883
770.756	0.0150024
770.834	0.0150138
770.913	0.0150954
770.991	0.0150625
771.069	0.0150184
771.147	0.0152172
771.225	0.0152192
771.303	0.0155034
771.381	0.0154346
771.459	0.0154881
771.538	0.0155988
771.616	0.0156059
771.694	0.0155990
771.772	0.0157111
771.850	0.0158140
771.928	0.0159180
772.006	0.0157534
772.084	0.0157928
772.163	0.0159570
772.241	0.0159937
772.319	0.0160225
772.397	0.0160213
772.475	0.0159545
772.553	0.0158842
772.631	0.0158474
772.709	0.0158981
772.788	0.0157298
772.866	0.0157655
772.944	0.0156581
773.022	0.0157234
773.100	0.0156972
773.178	0.0154652
773.256	0.0154799
773.334	0.0154952
773.413	0.0153687
773.491	0.0153280
773.569	0.0152547
773.647	0.0153428
773.725	0.0153178
773.803	0.0151773
773.881	0.0149885
773.959	0.0151485
774.038	0.0152886
774.116	0.0151216
774.194	0.0152309
774.272	0.0152370
774.350	0.0152607
774.428	0.0153030
774.506	0.0155538
774.584	0.0156033
774.663	0.0156459
774.741	0.0155758
774.819	0.0156647
774.897	0.0157846
774.975	0.0157515
775.053	0.0157421
775.131	0.0157717
775.209	0.0156789
775.288	0.0156702
775.366	0.0156945
775.444	0.0154745
775.522	0.0153405
775.600	0.0153783
775.678	0.0150379
775.756	0.0150787
775.834	0.0150979
775.913	0.0150282
775.991	0.0149498
776.069	0.0147449
776.147	0.0149455
776.225	0.0149307
776.303	0.0150481
776.381	0.0151355
776.459	0.0150731
776.538	0.0153211
776.616	0.0154144
776.694	0.0154672
776.772	0.0154442
776.850	0.0155231
776.928	0.0156274
777.006	0.0157942
777.084	0.0156847
777.163	0.0157787
777.241	0.0158821
777.319	0.0161628
777.397	0.0158484
777.475	0.0159650
777.553	0.0161751
777.631	0.0160907
777.709	0.0160618
777.788	0.0161945
777.866	0.0158951
777.944	0.0158604
778.022	0.0159671
778.100	0.0158490
778.178	0.0157076
778.256	0.0157011
778.334	0.0155130
778.413	0.0154565
778.491	0.0154362
778.569	0.0153863
778.647	0.0151675
778.725	0.0151698
778.803	0.0152252
778.881	0.0152348
778.959	0.0153693
779.038	0.0152678
779.116	0.0155090
779.194	0.0155667
779.272	0.0157759
779.350	0.0157234
779.428	0.0157959
779.506	0.0159230
779.584	0.0160831
779.663	0.0160260
779.741	0.0159380
779.819	0.0158729
779.897	0.0160589
779.975	0.0159526
780.053	0.0158965
780.131	0.0158460
780.209	0.0158482
780.288	0.0155846
780.366	0.0156253
780.444	0.0155074
780.522	0.0154160
780.600	0.0154369
780.678	0.0152473
780.756	0.0150852
780.834	0.0151514
780.913	0.0152024
780.991	0.0151785
781.069	0.0149963
781.147	0.0149684
781.225	0.0150074
781.303	0.0151934
781.381	0.0151829
781.459	0.0152777
781.538	0.0152863
781.616	0.0151620
781.694	0.0154222
781.772	0.0155902
781.850	0.0155285
781.928	0.0154383
782.006	0.0156391
782.084	0.0156954
782.163	0.0156481
782.241	0.0157520
782.319	0.0159405
782.397	0.0159067
782.475	0.0157416
782.553	0.0157686
782.631	0.0158242
782.709	0.0157371
782.788	0.0156236
782.866	0.0157315
782.944	0.0156184
783.022	0.0157562
783.100	0.0155846
783.178	0.0155746
783.256	0.0155762
783.334	0.0157769
783.413	0.0157676
783.491	0.0156460
783.569	0.0157257
783.647	0.0157344
783.725	0.0157161
783.803	0.0158512
783.881	0.0158445
783.959	0.0157547
784.038	0.0155833
784.116	0.0155458
784.194	0.0155749
784.272	0.0154209
784.350	0.0155797
784.428	0.0154972
784.506	0.0152280
784.584	0.0152295
784.663	0.0152106
784.741	0.0153168
784.819	0.0152354
784.897	0.0154741
784.975	0.0155164
785.053	0.0155997
785.131	0.0156629
785.209	0.0158693
785.288	0.0159550
785.366	0.0160037
785.444	0.0159913
785.522	0.0161340
785.600	0.0160492
785.678	0.0162141
785.756	0.0160773
785.834	0.0159145
785.913	0.0161323
785.991	0.0160122
786.069	0.0159411
786.147	0.0159711
786.225	0.0158427
786.303	0.0158263
786.381	0.0157669
786.459	0.0157682
786.538	0.0156918
786.616	0.0156315
786.694	0.0157490
786.772	0.0155038
786.850	0.0155337
786.928	0.0155637
787.006	0.0156603
787.084	0.0154121
787.163	0.0154094
787.241	0.0153513
787.319	0.0154058
787.397	0.0155360
787.475	0.0154057
787.553	0.0154634
787.631	0.0153368
787.709	0.0156068
787.788	0.0155165
787.866	0.0155028
787.944	0.0155884
788.022	0.0156209
788.100	0.0155464
788.178	0.0156690
788.256	0.0155761
788.334	0.0155418
788.413	0.0156776
788.491	0.0156020
788.569	0.0156556
788.647	0.0156721
788.725	0.0155822
788.803	0.0155922
788.881	0.0155582
788.959	0.0154298
789.038	0.0154466
789.116	0.0154470
789.194	0.0153629
789.272	0.0153484
789.350	0.0153111
789.428	0.0154216
789.506	0.0153350
789.584	0.0152249
789.663	0.0154127
789.741	0.0153147
789.819	0.0153613
789.897	0.0153757
789.975	0.0154100
790.053	0.0154914
790.131	0.0156049
790.209	0.0154963
790.288	0.0154930
790.366	0.0156667
790.444	0.0155464
790.522	0.0156054
790.600	0.0156057
790.678	0.0155807
790.756	0.0155416
790.834	0.0154125
790.913	0.0153539
790.991	0.0153393
791.069	0.0154338
791.147	0.0153954
791.225	0.0152572
791.303	0.0152793
791.381	0.0152007
791.459	0.0150638
791.538	0.0150691
791.616	0.0150080
791.694	0.0150608
791.772	0.0150174
791.850	0.0150203
791.928	0.0150973
792.006	0.0151445
792.084	0.0150511
792.163	0.0151984
792.241	0.0152653
792.319	0.0154237
792.397	0.0153804
792.475	0.0155107
792.553	0.0155563
792.631	0.0155492
792.709	0.0157537
792.788	0.0156895
792.866	0.0156128
792.944	0.0157077
793.022	0.0158098
793.100	0.0158038
793.178	0.0158426
793.256	0.0157116
793.334	0.0157742
793.413	0.0157440
793.491	0.0160162
793.569	0.0160799
793.647	0.0159822
793.725	0.0161813
793.803	0.0163529
793.881	0.0163047
793.959	0.0163082
794.038	0.0164074
794.116	0.0163405
794.194	0.0165543
794.272	0.0163338
794.350	0.0163260
794.428	0.0162388
794.506	0.0163159
794.584	0.0161739
794.663	0.0160223
794.741	0.0158698
794.819	0.0157146
794.897	0.0155291
794.975	0.0156301
795.053	0.0152646
795.131	0.0151638
795.209	0.0150925
795.288	0.0150964
795.366	0.0150191
795.444	0.0148559
795.522	0.0149146
795.600	0.0148349
795.678	0.0146757
795.756	0.0147321
795.834	0.0146590
795.913	0.0145583
795.991	0.0146455
796.069	0.0145580
796.147	0.0145331
796.225	0.0145484
796.303	0.0146059
796.381	0.0146783
796.459	0.0145400
796.538	0.0147391
796.616	0.0150021
796.694	0.0150692
796.772	0.0151639
796.850	0.0151657
796.928	0.0152226
797.006	0.0154569
797.084	0.0154507
797.163	0.0155787
797.241	0.0156412
797.319	0.0156413
797.397	0.0155402
797.475	0.0155352
797.553	0.0157008
797.631	0.0155913
797.709	0.0156075
797.788	0.0155155
797.866	0.0154198
797.944	0.0155685
798.022	0.0153873
798.100	0.0155048
798.178	0.0153683
798.256	0.0154182
798.334	0.0154763
798.413	0.0153228
798.491	0.0154362
798.569	0.0154381
798.647	0.0156877
798.725	0.0155849
798.803	0.0156512
798.881	0.0156820
798.959	0.0156010
799.038	0.0156967
799.116	0.0157938
799.194	0.0157613
799.272	0.0157496
799.350	0.0157935
799.428	0.0156483
799.506	0.0158167
799.584	0.0158720
799.663	0.0156391
799.741	0.0156540
799.819	0.0157847
799.897	0.0157445
799.975	0.0157489
800.053	0.0156988
800.131	0.0157413
800.209	0.0156842
800.288	0.0156895
800.366	0.0156938
800.444	0.0157095
800.522	0.0157170
800.600	0.0157845
800.678	0.0156509
800.756	0.0155909
800.834	0.0156631
800.913	0.0156623
800.991	0.0156148
801.069	0.0154984
801.147	0.0154771
801.225	0.0156091
801.303	0.0156470
801.381	0.0155701
801.459	0.0155540
801.538	0.0155618
801.616	0.0155756
801.694	0.0155067
801.772	0.0153935
801.850	0.0154533
801.928	0.0153403
802.006	0.0153385
802.084	0.0153240
802.163	0.0153373
802.241	0.0152325
802.319	0.0152010
802.397	0.0151418
802.475	0.0153104
802.553	0.0153769
802.631	0.0152690
802.709	0.0153385
802.788	0.0153353
802.866	0.0153909
802.944	0.0154850
803.022	0.0153719
803.100	0.0155849
803.178	0.0154800
803.256	0.0155589
803.334	0.0155444
803.413	0.0155477
803.491	0.0156394
803.569	0.0154839
803.647	0.0155660
803.725	0.0156442
803.803	0.0156776
803.881	0.0154657
803.959	0.0155894
804.038	0.0157239
804.116	0.0157709
804.194	0.0156840
804.272	0.0156445
804.350	0.0156577
804.428	0.0156676
804.506	0.0156893
804.584	0.0155173
804.663	0.0155200
804.741	0.0155735
804.819	0.0155216
804.897	0.0155156
804.975	0.0153738
805.053	0.0153599
805.131	0.0153497
805.209	0.0153847
805.288	0.0154070
805.366	0.0153270
805.444	0.0153914
805.522	0.0154457
805.600	0.0156422
805.678	0.0156933
805.756	0.0156638
805.834	0.0155641
805.913	0.0155751
805.991	0.0157847
806.069	0.0156058
806.147	0.0157609
806.225	0.0158367
806.303	0.0155650
806.381	0.0157217
806.459	0.0156502
806.538	0.0156252
806.616	0.0154692
806.694	0.0155811
806.772	0.0155278
806.850	0.0155422
806.928	0.0155147
807.006	0.0154753
807.084	0.0155077
807.163	0.0155363
807.241	0.0154845
807.319	0.0154729
807.397	0.0155888
807.475	0.0156617
807.553	0.0153954
807.631	0.0155907
807.709	0.0154839
807.788	0.0155805
807.866	0.0154636
807.944	0.0154924
808.022	0.0154930
808.100	0.0156201
808.178	0.0155666
808.256	0.0156396
808.334	0.0155548
808.413	0.0155607
808.491	0.0155283
808.569	0.0154510
808.647	0.0155847
808.725	0.0156250
808.803	0.0154154
808.881	0.0154800
808.959	0.0154086
809.038	0.0153422
809.116	0.0153757
809.194	0.0153422
809.272	0.0155171
809.350	0.0155027
809.428	0.0155814
809.506	0.0156625
809.584	0.0155979
809.663	0.0156313
809.741	0.0158851
809.819	0.0160299
809.897	0.0161166
809.975	0.0159856
810.053	0.0159831
810.131	0.0162169
810.209	0.0161420
810.288	0.0162486
810.366	0.0162779
810.444	0.0162952
810.522	0.0162181
810.600	0.0162657
810.678	0.0160954
810.756	0.0161991
810.834	0.0160536
810.913	0.0159750
810.991	0.0158659
811.069	0.0159006
811.147	0.0156653
811.225	0.0154959
811.303	0.0154994
811.381	0.0154796
811.459	0.0154098
811.538	0.0155536
811.616	0.0152554
811.694	0.0152946
811.772	0.0153461
811.850	0.0153139
811.928	0.0153734
812.006	0.0153925
812.084	0.0154128
812.163	0.0153787
812.241	0.0154131
812.319	0.0153123
812.397	0.0152415
812.475	0.0154865
812.553	0.0152306
812.631	0.0151793
812.709	0.0152299
812.788	0.0151800
812.866	0.0151077
812.944	0.0151791
813.022	0.0150504
813.100	0.0151033
813.178	0.0151527
813.256	0.0149375
813.334	0.0149974
813.413	0.0150406
813.491	0.0150677
813.569	0.0150098
813.647	0.0151083
813.725	0.0150095
813.803	0.0150500
813.881	0.0151186
813.959	0.0150978
814.038	0.0151441
814.116	0.0151269
814.194	0.0152401
814.272	0.0153722
814.350	0.0155502
814.428	0.0155060
814.506	0.0156265
814.584	0.0157342
814.663	0.0157716
814.741	0.0157482
814.819	0.0158624
814.897	0.0158049
814.975	0.0158813
815.053	0.0157919
815.131	0.0158108
815.209	0.0158453
815.288	0.0158663
815.366	0.0158191
815.444	0.0156613
815.522	0.0157429
815.600	0.0158090
815.678	0.0157720
815.756	0.0157394
815.834	0.0156616
815.913	0.0156335
815.991	0.0157384
816.069	0.0156680
816.147	0.0157391
816.225	0.0155563
816.303	0.0156925
816.381	0.0156832
816.459	0.0155925
816.538	0.0154408
816.616	0.0155573
816.694	0.0154781
816.772	0.0155640
816.850	0.0153247
816.928	0.0154369
817.006	0.0155366
817.084	0.0155073
817.163	0.0156100
817.241	0.0155895
817.319	0.0155277
817.397	0.0156131
817.475	0.0156767
817.553	0.0156808
817.631	0.0156187
817.709	0.0158340
817.788	0.0155311
817.866	0.0155801
817.944	0.0155510
818.022	0.0156332
818.100	0.0155125
818.178	0.0155041
818.256	0.0153139
818.334	0.0155106
818.413	0.0154748
818.491	0.0153896
818.569	0.0153027
818.647	0.0153886
818.725	0.0154130
818.803	0.0153848
818.881	0.0152232
818.959	0.0152410
819.038	0.0152341
819.116	0.0151774
819.194	0.0150655
819.272	0.0151894
819.350	0.0152007
819.428	0.0152238
819.506	0.0151216
819.584	0.0151954
819.663	0.0151837
819.741	0.0150672
819.819	0.0151463
819.897	0.0151337
819.975	0.0151319
820.053	0.0150301
820.131	0.0150976
820.209	0.0151307
820.288	0.0151954
820.366	0.0152215
820.444	0.0153344
820.522	0.0152835
820.600	0.0154897
820.678	0.0153903
820.756	0.0154980
820.834	0.0153954
820.913	0.0153709
820.991	0.0155405
821.069	0.0156208
821.147	0.0155055
821.225	0.0155242
821.303	0.0155768
821.381	0.0155801
821.459	0.0155956
821.538	0.0155810
821.616	0.0156461
821.694	0.0155542
821.772	0.0155955
821.850	0.0156244
821.928	0.0157272
822.006	0.0157358
822.084	0.0158039
822.163	0.0156261
822.241	0.0156887
822.319	0.0156283
822.397	0.0157070
822.475	0.0157385
822.553	0.0155094
822.631	0.0157476
822.709	0.0157384
822.788	0.0155486
822.866	0.0155023
822.944	0.0155120
823.022	0.0154521
823.100	0.0154755
823.178	0.0152917
823.256	0.0153504
823.334	0.0155022
823.413	0.0154672
823.491	0.0155243
823.569	0.0155254
823.647	0.0155930
823.725	0.0156873
823.803	0.0157617
823.881	0.0156685
823.959	0.0155735
824.038	0.0156373
824.116	0.0156006
824.194	0.0156564
824.272	0.0156068
824.350	0.0155311
824.428	0.0156989
824.506	0.0154536
824.584	0.0155009
824.663	0.0155196
824.741	0.0152109
824.819	0.0152972
824.897	0.0153487
824.975	0.0153564
825.053	0.0152691
825.131	0.0153494
825.209	0.0152899
825.288	0.0151468
825.366	0.0152263
825.444	0.0151800
825.522	0.0153522
825.600	0.0152818
825.678	0.0153851
825.756	0.0153151
825.834	0.0154551
825.913	0.0156023
825.991	0.0155498
826.069	0.0156873
826.147	0.0155953
826.225	0.0156868
826.303	0.0155528
826.381	0.0157617
826.459	0.0157264
826.538	0.0157795
826.616	0.0157393
826.694	0.0158276
826.772	0.0157275
826.850	0.0157432
826.928	0.0157966
827.006	0.0157007
827.084	0.0157320
827.163	0.0157932
827.241	0.0158280
827.319	0.0157089
827.397	0.0156815
827.475	0.0157162
827.553	0.0155267
827.631	0.0156079
827.709	0.0155595
827.788	0.0156064
827.866	0.0156232
827.944	0.0155969
828.022	0.0155779
828.100	0.0154717
828.178	0.0155743
828.256	0.0155614
828.334	0.0153905
828.413	0.0155474
828.491	0.0154668
828.569	0.0154029
828.647	0.0155097
828.725	0.0153028
828.803	0.0154244
828.881	0.0154910
828.959	0.0153266
829.038	0.0153482
829.116	0.0152463
829.194	0.0152287
829.272	0.0153482
829.350	0.0152272
829.428	0.0153062
829.506	0.0151775
829.584	0.0153394
829.663	0.0154106
829.741	0.0154125
829.819	0.0155507
829.897	0.0154295
829.975	0.0154126
830.053	0.0154811
830.131	0.0155102
830.209	0.0153415
830.288	0.0154517
830.366	0.0154472
830.444	0.0154356
830.522	0.0155985
830.600	0.0154038
830.678	0.0154442
830.756	0.0154949
830.834	0.0154636
830.913	0.0156403
830.991	0.0153896
831.069	0.0155161
831.147	0.0155127
831.225	0.0152997
831.303	0.0154385
831.381	0.0155158
831.459	0.0155085
831.538	0.0153960
831.616	0.0154096
831.694	0.0153613
831.772	0.0153731
831.850	0.0152974
831.928	0.0152742
832.006	0.0154378
832.084	0.0153955
832.163	0.0154514
832.241	0.0154643
832.319	0.0155403
832.397	0.0155933
832.475	0.0154677
832.553	0.0157192
832.631	0.0156480
832.709	0.0157520
832.788	0.0159413
832.866	0.0159170
832.944	0.0159306
833.022	0.0159270
833.100	0.0160578
833.178	0.0159479
833.256	0.0162525
833.334	0.0161018
833.413	0.0161296
833.491	0.0161442
833.569	0.0160056
833.647	0.0159224
833.725	0.0158828
833.803	0.0159838
833.881	0.0158208
833.959	0.0157610
834.038	0.0157323
834.116	0.0159045
834.194	0.0158620
834.272	0.0158401
834.350	0.0157273
834.428	0.0156998
834.506	0.0155268
834.584	0.0154745
834.663	0.0154774
834.741	0.0155575
834.819	0.0154666
834.897	0.0155480
834.975	0.0153627
835.053	0.0154155
835.131	0.0153401
835.209	0.0153812
835.288	0.0154678
835.366	0.0154027
835.444	0.0153766
835.522	0.0154811
835.600	0.0154120
835.678	0.0154944
835.756	0.0154530
835.834	0.0154841
835.913	0.0155116
835.991	0.0154233
836.069	0.0154903
836.147	0.0154913
836.225	0.0154644
836.303	0.0154202
836.381	0.0155925
836.459	0.0155350
836.538	0.0154599
836.616	0.0154276
836.694	0.0154784
836.772	0.0154897
836.850	0.0154862
836.928	0.0154668
837.006	0.0155319
837.084	0.0154155
837.163	0.0154576
837.241	0.0156608
837.319	0.0156006
837.397	0.0155682
837.475	0.0155141
837.553	0.0157116
837.631	0.0156062
837.709	0.0156116
837.788	0.0156416
837.866	0.0157240
837.944	0.0157906
838.022	0.0157230
838.100	0.0156607
838.178	0.0156579
838.256	0.0157211
838.334	0.0157262
838.413	0.0158452
838.491	0.0158527
838.569	0.0157480
838.647	0.0158208
838.725	0.0158452
838.803	0.0158721
838.881	0.0158508
838.959	0.0159798
839.038	0.0158781
839.116	0.0158825
839.194	0.0158554
839.272	0.0157619
839.350	0.0157245
839.428	0.0156174
839.506	0.0155750
839.584	0.0156551
839.663	0.0156519
839.741	0.0155690
839.819	0.0155365
839.897	0.0155363
839.975	0.0154871
840.053	0.0155711
840.131	0.0155551
840.209	0.0155746
840.288	0.0154671
840.366	0.0155140
840.444	0.0155135
840.522	0.0154681
840.600	0.0154177
840.678	0.0153197
840.756	0.0154608
840.834	0.0155567
840.913	0.0156071
840.991	0.0155793
841.069	0.0155478
841.147	0.0154973
841.225	0.0155102
841.303	0.0156853
841.381	0.0155065
841.459	0.0154276
841.538	0.0155566
841.616	0.0156687
841.694	0.0155274
841.772	0.0157040
841.850	0.0157815
841.928	0.0156326
842.006	0.0156803
842.084	0.0157022
842.163	0.0157227
842.241	0.0156553
842.319	0.0155961
842.397	0.0158067
842.475	0.0158258
842.553	0.0157813
842.631	0.0155775
842.709	0.0155221
842.788	0.0155527
842.866	0.0154746
842.944	0.0154379
843.022	0.0153619
843.100	0.0154400
843.178	0.0154240
843.256	0.0154311
843.334	0.0154620
843.413	0.0154716
843.491	0.0154573
843.569	0.0154405
843.647	0.0153680
843.725	0.0154047
843.803	0.0153435
843.881	0.0154172
843.959	0.0153012
844.038	0.0155146
844.116	0.0154704
844.194	0.0154785
844.272	0.0154436
844.350	0.0156189
844.428	0.0156506
844.506	0.0156223
844.584	0.0154169
844.663	0.0155976
844.741	0.0156560
844.819	0.0157134
844.897	0.0155952
844.975	0.0156274
845.053	0.0156316
845.131	0.0156586
845.209	0.0156460
845.288	0.0155850
845.366	0.0154394
845.444	0.0154643
845.522	0.0154353
845.600	0.0153728
845.678	0.0153591
845.756	0.0152944
845.834	0.0154259
845.913	0.0153301
845.991	0.0155135
846.069	0.0154697
846.147	0.0155907
846.225	0.0155580
846.303	0.0155831
846.381	0.0155986
846.459	0.0156053
846.538	0.0155573
846.616	0.0155992
846.694	0.0157854
846.772	0.0156781
846.850	0.0156895
846.928	0.0156962
847.006	0.0156467
847.084	0.0157531
847.163	0.0157386
847.241	0.0156908
847.319	0.0157685
847.397	0.0156429
847.475	0.0156307
847.553	0.0154772
847.631	0.0155345
847.709	0.0155127
847.788	0.0154510
847.866	0.0153040
847.944	0.0151757
848.022	0.0153433
848.100	0.0153007
848.178	0.0151786
848.256	0.0154128
848.334	0.0153053
848.413	0.0151955
848.491	0.0152557
848.569	0.0152067
848.647	0.0151637
848.725	0.0153313
848.803	0.0152823
848.881	0.0152657
848.959	0.0152373
849.038	0.0155098
849.116	0.0153486
849.194	0.0153605
849.272	0.0154725
849.350	0.0154373
849.428	0.0154111
849.506	0.0153770
849.584	0.0152448
849.663	0.0153793
849.741	0.0153989
849.819	0.0153397
849.897	0.0152777
849.975	0.0152243
850.053	0.0154333
850.131	0.0153453
850.209	0.0152012
850.288	0.0154779
850.366	0.0153960
850.444	0.0152159
850.522	0.0152221
850.600	0.0153241
850.678	0.0154190
850.756	0.0155433
850.834	0.0155152
850.913	0.0154504
850.991	0.0155614
851.069	0.0155391
851.147	0.0156232
851.225	0.0156665
851.303	0.0156190
851.381	0.0156460
851.459	0.0156696
851.538	0.0156907
851.616	0.0157355
851.694	0.0155604
851.772	0.0156185
851.850	0.0156689
851.928	0.0156091
852.006	0.0155195
852.084	0.0157163
852.163	0.0156513
852.241	0.0155645
852.319	0.0155061
852.397	0.0155809
852.475	0.0156572
852.553	0.0155949
852.631	0.0155943
852.709	0.0155807
852.788	0.0154121
852.866	0.0154470
852.944	0.0157032
853.022	0.0154803
853.100	0.0155354
853.178	0.0154836
853.256	0.0155633
853.334	0.0154669
853.413	0.0154926
853.491	0.0154726
853.569	0.0155575
853.647	0.0155428
853.725	0.0153828
853.803	0.0153494
853.881	0.0154508
853.959	0.0153971
854.038	0.0154482
854.116	0.0154433
854.194	0.0153569
854.272	0.0153314
854.350	0.0154217
854.428	0.0153062
854.506	0.0154459
854.584	0.0153974
854.663	0.0153573
854.741	0.0153292
854.819	0.0153735
854.897	0.0153833
854.975	0.0155061
855.053	0.0155750
855.131	0.0155757
855.209	0.0156458
855.288	0.0156059
855.366	0.0155239
855.444	0.0157232
855.522	0.0154958
855.600	0.0155833
855.678	0.0154843
855.756	0.0154712
855.834	0.0155282
855.913	0.0154228
855.991	0.0155071
856.069	0.0154308
856.147	0.0156209
856.225	0.0154726
856.303	0.0153861
856.381	0.0156055
856.459	0.0153539
856.538	0.0154842
856.616	0.0154946
856.694	0.0155381
856.772	0.0155958
856.850	0.0155098
856.928	0.0156272
857.006	0.0156140
857.084	0.0155692
857.163	0.0157277
857.241	0.0156888
857.319	0.0156561
857.397	0.0157211
857.475	0.0158770
857.553	0.0158993
857.631	0.0160283
857.709	0.0157742
857.788	0.0157745
857.866	0.0158662
857.944	0.0157774
858.022	0.0158951
858.100	0.0158821
858.178	0.0157707
858.256	0.0157887
858.334	0.0157816
858.413	0.0158637
858.491	0.0157645
858.569	0.0156886
858.647	0.0156023
858.725	0.0156598
858.803	0.0157074
858.881	0.0157433
858.959	0.0155067
859.038	0.0155476
859.116	0.0157296
859.194	0.0157079
859.272	0.0155989
859.350	0.0156125
859.428	0.0156566
859.506	0.0156911
859.584	0.0155659
859.663	0.0156541
859.741	0.0157072
859.819	0.0157110
859.897	0.0157986
859.975	0.0156140
860.053	0.0156731
860.131	0.0157081
860.209	0.0157756
860.288	0.0156921
860.366	0.0157487
860.444	0.0157303
860.522	0.0156590
860.600	0.0157654
860.678	0.0156232
860.756	0.0154749
860.834	0.0156786
860.913	0.0155155
860.991	0.0156044
861.069	0.0155818
861.147	0.0155820
861.225	0.0154865
861.303	0.0154298
861.381	0.0154933
861.459	0.0154344
861.538	0.0153609
861.616	0.0154121
861.694	0.0154369
861.772	0.0155058
861.850	0.0155791
861.928	0.0154349
862.006	0.0153409
862.084	0.0156737
862.163	0.0155727
862.241	0.0155231
862.319	0.0155788
862.397	0.0156939
862.475	0.0154933
862.553	0.0156141
862.631	0.0156857
862.709	0.0156524
862.788	0.0156161
862.866	0.0156661
862.944	0.0156110
863.022	0.0156818
863.100	0.0155721
863.178	0.0154615
863.256	0.0156592
863.334	0.0158274
863.413	0.0157131
863.491	0.0155447
863.569	0.0156707
863.647	0.0157568
863.725	0.0156890
863.803	0.0157812
863.881	0.0157315
863.959	0.0157344
864.038	0.0156583
864.116	0.0158752
864.194	0.0158418
864.272	0.0158882
864.350	0.0159129
864.428	0.0158587
864.506	0.0157166
864.584	0.0157693
864.663	0.0157398
864.741	0.0157117
864.819	0.0156774
864.897	0.0155604
864.975	0.0156224
865.053	0.0156284
865.131	0.0155495
865.209	0.0154353
865.288	0.0154359
865.366	0.0155804
865.444	0.0155308
865.522	0.0156142
865.600	0.0154419
865.678	0.0154475
865.756	0.0155008
865.834	0.0154214
865.913	0.0154691
865.991	0.0154897
866.069	0.0153372
866.147	0.0155893
866.225	0.0155489
866.303	0.0154313
866.381	0.0154890
866.459	0.0153892
866.538	0.0154803
866.616	0.0154520
866.694	0.0153390
866.772	0.0154548
866.850	0.0155090
866.928	0.0155614
867.006	0.0155176
867.084	0.0155861
867.163	0.0153654
867.241	0.0153611
867.319	0.0154858
867.397	0.0154752
867.475	0.0155043
867.553	0.0154671
867.631	0.0155132
867.709	0.0156518
867.788	0.0157000
867.866	0.0155798
867.944	0.0156352
868.022	0.0155283
868.100	0.0155396
868.178	0.0156199
868.256	0.0156174
868.334	0.0157361
868.413	0.0156347
868.491	0.0155237
868.569	0.0157812
868.647	0.0157930
868.725	0.0156730
868.803	0.0156570
868.881	0.0156902
868.959	0.0157780
869.038	0.0156865
869.116	0.0156994
869.194	0.0157009
869.272	0.0156460
869.350	0.0157256
869.428	0.0157416
869.506	0.0158545
869.584	0.0156121
869.663	0.0155621
869.741	0.0156149
869.819	0.0156165
869.897	0.0155396
869.975	0.0156245
870.053	0.0156952
870.131	0.0155074
870.209	0.0156017
870.288	0.0157035
870.366	0.0154277
870.444	0.0152639
870.522	0.0155227
870.600	0.0155351
870.678	0.0153648
870.756	0.0154508
870.834	0.0154888
870.913	0.0154506
870.991	0.0154381
871.069	0.0153472
871.147	0.0153448
871.225	0.0154428
871.303	0.0154348
871.381	0.0154433
871.459	0.0155848
871.538	0.0154042
871.616	0.0154631
871.694	0.0154424
871.772	0.0155132
871.850	0.0155226
871.928	0.0154520
872.006	0.0154305
872.084	0.0154392
872.163	0.0153992
872.241	0.0155249
872.319	0.0154708
872.397	0.0155231
872.475	0.0152882
872.553	0.0153719
872.631	0.0153612
872.709	0.0152922
872.788	0.0152253
872.866	0.0154813
872.944	0.0154583
873.022	0.0153065
873.100	0.0154563
873.178	0.0154381
873.256	0.0153592
873.334	0.0154627
873.413	0.0156065
873.491	0.0155017
873.569	0.0155451
873.647	0.0155096
873.725	0.0154642
873.803	0.0155846
873.881	0.0154539
873.959	0.0154733
874.038	0.0155946
874.116	0.0155486
874.194	0.0156231
874.272	0.0153649
874.350	0.0154378
874.428	0.0155310
874.506	0.0154886
874.584	0.0153984
874.663	0.0154150
874.741	0.0154935
874.819	0.0154850
874.897	0.0153465
874.975	0.0154163
875.053	0.0153459
875.131	0.0154359
875.209	0.0155443
875.288	0.0154717
875.366	0.0154855
875.444	0.0153996
875.522	0.0155094
875.600	0.0154590
875.678	0.0154169
875.756	0.0155405
875.834	0.0154256
875.913	0.0156470
875.991	0.0154478
876.069	0.0154707
876.147	0.0153973
876.225	0.0154105
876.303	0.0156184
876.381	0.0156645
876.459	0.0153819
876.538	0.0153901
876.616	0.0154423
876.694	0.0155044
876.772	0.0155605
876.850	0.0155692
876.928	0.0155326
877.006	0.0154552
877.084	0.0154224
877.163	0.0155192
877.241	0.0155106
877.319	0.0154846
877.397	0.0154398
877.475	0.0153773
877.553	0.0153828
877.631	0.0153283
877.709	0.0153004
877.788	0.0152218
877.866	0.0152051
877.944	0.0153085
878.022	0.0152336
878.100	0.0152706
878.178	0.0153388
878.256	0.0153920
878.334	0.0152384
878.413	0.0152206
878.491	0.0152545
878.569	0.0151534
878.647	0.0153725
878.725	0.0152301
878.803	0.0152678
878.881	0.0154296
878.959	0.0154117
879.038	0.0153933
879.116	0.0154530
879.194	0.0155382
879.272	0.0153988
879.350	0.0155717
879.428	0.0155507
879.506	0.0156551
879.584	0.0155888
879.663	0.0158865
879.741	0.0158058
879.819	0.0156500
879.897	0.0157474
879.975	0.0157174
880.053	0.0155663
880.131	0.0157328
880.209	0.0157783
880.288	0.0157037
880.366	0.0157545
880.444	0.0156942
880.522	0.0155568
880.600	0.0156284
880.678	0.0155944
880.756	0.0155730
880.834	0.0156969
880.913	0.0156164
880.991	0.0154981
881.069	0.0155746
881.147	0.0156426
881.225	0.0154884
881.303	0.0154115
881.381	0.0156377
881.459	0.0154597
881.538	0.0154431
881.616	0.0154385
881.694	0.0155443
881.772	0.0154128
881.850	0.0153806
881.928	0.0154189
882.006	0.0154194
882.084	0.0155043
882.163	0.0155037
882.241	0.0153387
882.319	0.0154330
882.397	0.0156433
882.475	0.0156208
882.553	0.0155523
882.631	0.0157130
882.709	0.0157441
882.788	0.0155721
882.866	0.0157033
882.944	0.0156260
883.022	0.0156800
883.100	0.0155714
883.178	0.0156028
883.256	0.0156274
883.334	0.0154846
883.413	0.0154523
883.491	0.0156390
883.569	0.0156457
883.647	0.0154012
883.725	0.0154394
883.803	0.0156236
883.881	0.0154597
883.959	0.0155083
884.038	0.0156503
884.116	0.0154932
884.194	0.0155513
884.272	0.0156065
884.350	0.0156232
884.428	0.0154408
884.506	0.0156082
884.584	0.0157048
884.663	0.0156808
884.741	0.0156851
884.819	0.0156268
884.897	0.0156011
884.975	0.0155995
885.053	0.0156622
885.131	0.0158642
885.209	0.0158034
885.288	0.0158447
885.366	0.0157557
885.444	0.0156859
885.522	0.0157214
885.600	0.0155438
885.678	0.0156260
885.756	0.0156676
885.834	0.0154787
885.913	0.0156103
885.991	0.0154962
886.069	0.0154980
886.147	0.0155734
886.225	0.0156190
886.303	0.0154293
886.381	0.0154660
886.459	0.0154520
886.538	0.0155804
886.616	0.0155500
886.694	0.0155798
886.772	0.0155968
886.850	0.0156792
886.928	0.0156499
887.006	0.0155961
887.084	0.0156027
887.163	0.0156657
887.241	0.0155132
887.319	0.0156203
887.397	0.0156007
887.475	0.0156323
887.553	0.0156306
887.631	0.0155800
887.709	0.0155027
887.788	0.0156346
887.866	0.0154983
887.944	0.0154018
888.022	0.0156645
888.100	0.0156504
888.178	0.0155932
888.256	0.0156242
888.334	0.0156843
888.413	0.0156039
888.491	0.0157115
888.569	0.0156852
888.647	0.0156897
888.725	0.0156477
888.803	0.0156656
888.881	0.0157567
888.959	0.0156258
889.038	0.0157008
889.116	0.0156120
889.194	0.0155093
889.272	0.0155201
889.350	0.0154685
889.428	0.0154913
889.506	0.0155333
889.584	0.0153963
889.663	0.0153909
889.741	0.0153574
889.819	0.0153197
889.897	0.0153600
889.975	0.0153755
890.053	0.0152852
890.131	0.0153256
890.209	0.0153661
890.288	0.0152904
890.366	0.0152412
890.444	0.0151745
890.522	0.0152396
890.600	0.0152482
890.678	0.0153204
890.756	0.0154739
890.834	0.0153896
890.913	0.0154166
890.991	0.0153622
891.069	0.0154612
891.147	0.0155756
891.225	0.0156710
891.303	0.0156420
891.381	0.0156059
891.459	0.0157751
891.538	0.0157339
891.616	0.0157297
891.694	0.0157265
891.772	0.0159963
891.850	0.0159686
891.928	0.0158305
892.006	0.0158200
892.084	0.0158535
892.163	0.0156641
892.241	0.0158224
892.319	0.0156331
892.397	0.0155657
892.475	0.0155399
892.553	0.0155456
892.631	0.0155285
892.709	0.0154863
892.788	0.0155552
892.866	0.0154026
892.944	0.0155576
893.022	0.0154643
893.100	0.0152793
893.178	0.0153760
893.256	0.0154804
893.334	0.0154522
893.413	0.0154556
893.491	0.0153845
893.569	0.0152487
893.647	0.0153900
893.725	0.0154213
893.803	0.0153018
893.881	0.0154497
893.959	0.0152744
894.038	0.0153890
894.116	0.0155640
894.194	0.0155452
894.272	0.0154145
894.350	0.0154830
894.428	0.0156223
894.506	0.0155461
894.584	0.0155489
894.663	0.0156011
894.741	0.0155402
894.819	0.0154646
894.897	0.0155511
894.975	0.0155383
895.053	0.0154447
895.131	0.0154104
895.209	0.0155225
895.288	0.0153875
895.366	0.0155357
895.444	0.0155471
895.522	0.0155209
895.600	0.0155299
895.678	0.0155884
895.756	0.0157246
895.834	0.0156434
895.913	0.0154897
895.991	0.0154720
896.069	0.0154999
896.147	0.0154114
896.225	0.0155612
896.303	0.0153541
896.381	0.0154379
896.459	0.0155240
896.538	0.0154274
896.616	0.0154419
896.694	0.0154175
896.772	0.0154865
896.850	0.0155874
896.928	0.0155437
897.006	0.0154895
897.084	0.0155464
897.163	0.0157385
897.241	0.0156400
897.319	0.0157788
897.397	0.0156612
897.475	0.0157798
897.553	0.0158162
897.631	0.0157317
897.709	0.0156718
897.788	0.0156208
897.866	0.0156470
897.944	0.0156091
898.022	0.0156304
898.100	0.0156224
898.178	0.0155703
898.256	0.0153874
898.334	0.0154062
898.413	0.0155199
898.491	0.0153625
898.569	0.0154805
898.647	0.0152705
898.725	0.0153963
898.803	0.0153904
898.881	0.0153596
898.959	0.0155203
899.038	0.0153332
899.116	0.0153036
899.194	0.0153286
899.272	0.0154079
899.350	0.0152527
899.428	0.0153058
899.506	0.0153194
899.584	0.0151633
899.663	0.0154001
899.741	0.0154336
899.819	0.0153627
899.897	0.0153317
899.975	0.0153509
900.053	0.0154177
900.131	0.0154623
900.209	0.0154669
900.288	0.0155409
900.366	0.0157210
900.444	0.0156027
900.522	0.0157109
900.600	0.0157983
900.678	0.0157557
900.756	0.0155931
900.834	0.0157391
900.913	0.0158992
900.991	0.0158439
901.069	0.0157441
901.147	0.0157877
901.225	0.0156564
901.303	0.0156002
901.381	0.0156581
901.459	0.0155974
901.538	0.0154602
901.616	0.0155611
901.694	0.0155633
901.772	0.0155742
901.850	0.0155843
901.928	0.0156819
902.006	0.0155417
902.084	0.0156503
902.163	0.0157286
902.241	0.0156174
902.319	0.0155389
902.397	0.0155680
902.475	0.0155394
902.553	0.0155899
902.631	0.0155113
902.709	0.0156007
902.788	0.0155933
902.866	0.0154327
902.944	0.0154298
903.022	0.0156020
903.100	0.0154523
903.178	0.0152127
903.256	0.0153115
903.334	0.0155727
903.413	0.0153483
903.491	0.0153468
903.569	0.0153133
903.647	0.0152484
903.725	0.0153704
903.803	0.0152311
903.881	0.0153562
903.959	0.0150573
904.038	0.0152513
904.116	0.0151980
904.194	0.0154329
904.272	0.0153387
904.350	0.0154366
904.428	0.0153917
904.506	0.0153648
904.584	0.0153346
904.663	0.0153600
904.741	0.0154512
904.819	0.0155470
904.897	0.0156680
904.975	0.0156499
905.053	0.0155555
905.131	0.0157558
905.209	0.0157985
905.288	0.0157642
905.366	0.0158073
905.444	0.0158566
905.522	0.0156762
905.600	0.0156654
905.678	0.0156546
905.756	0.0157067
905.834	0.0157117
905.913	0.0156696
905.991	0.0156241
906.069	0.0156989
906.147	0.0156319
906.225	0.0155114
906.303	0.0154594
906.381	0.0155956
906.459	0.0155810
906.538	0.0154523
906.616	0.0155696
906.694	0.0153998
906.772	0.0153806
906.850	0.0154971
906.928	0.0153858
907.006	0.0154823
907.084	0.0155299
907.163	0.0152953
907.241	0.0153946
907.319	0.0155703
907.397	0.0155084
907.475	0.0154786
907.553	0.0155869
907.631	0.0156991
907.709	0.0155502
907.788	0.0155591
907.866	0.0154959
907.944	0.0156612
908.022	0.0156098
908.100	0.0155709
908.178	0.0155479
908.256	0.0155295
908.334	0.0155904
908.413	0.0154554
908.491	0.0154067
908.569	0.0155808
908.647	0.0154565
908.725	0.0154013
908.803	0.0155996
908.881	0.0153528
908.959	0.0153893
909.038	0.0154590
909.116	0.0153603
909.194	0.0153326
909.272	0.0154051
909.350	0.0154858
909.428	0.0153843
909.506	0.0154648
909.584	0.0154207
909.663	0.0154156
909.741	0.0155189
909.819	0.0154851
909.897	0.0154520
909.975	0.0154551
910.053	0.0153923
910.131	0.0155732
910.209	0.0154746
910.288	0.0154987
910.366	0.0156237
910.444	0.0157803
910.522	0.0155791
910.600	0.0154295
910.678	0.0154630
910.756	0.0156107
910.834	0.0155535
910.913	0.0158195
910.991	0.0156475
911.069	0.0154961
911.147	0.0155225
911.225	0.0154768
911.303	0.0155164
911.381	0.0153709
911.459	0.0154340
911.538	0.0154086
911.616	0.0154867
911.694	0.0154246
911.772	0.0153916
911.850	0.0153729
911.928	0.0155409
912.006	0.0153893
912.084	0.0155376
912.163	0.0154716
912.241	0.0154346
912.319	0.0156163
912.397	0.0156864
912.475	0.0156200
912.553	0.0157559
912.631	0.0155438
912.709	0.0156781
912.788	0.0158004
912.866	0.0157123
912.944	0.0156045
913.022	0.0156297
913.100	0.0156798
913.178	0.0155762
913.256	0.0156947
913.334	0.0156008
913.413	0.0157564
913.491	0.0155656
913.569	0.0155689
913.647	0.0156114
913.725	0.0156855
913.803	0.0156944
913.881	0.0155451
913.959	0.0156037
914.038	0.0156377
914.116	0.0156756
914.194	0.0155959
914.272	0.0156694
914.350	0.0155745
914.428	0.0155498
914.506	0.0156963
914.584	0.0155290
914.663	0.0156170
914.741	0.0155727
914.819	0.0155661
914.897	0.0156355
914.975	0.0156232
915.053	0.0154663
915.131	0.0155103
915.209	0.0155530
915.288	0.0155380
915.366	0.0155930
915.444	0.0155436
915.522	0.0154802
915.600	0.0154797
915.678	0.0154632
915.756	0.0154975
915.834	0.0155365
915.913	0.0155125
915.991	0.0154961
916.069	0.0155554
916.147	0.0156322
916.225	0.0155315
916.303	0.0155166
916.381	0.0156238
916.459	0.0155056
916.538	0.0156147
916.616	0.0156184
916.694	0.0155363
916.772	0.0156055
916.850	0.0155979
916.928	0.0156892
917.006	0.0156144
917.084	0.0156358
917.163	0.0156967
917.241	0.0156066
917.319	0.0155714
917.397	0.0155993
917.475	0.0155093
917.553	0.0154749
917.631	0.0153362
917.709	0.0154456
917.788	0.0156250
917.866	0.0156250
917.944	0.0156026
918.022	0.0157802
918.100	0.0157111
918.178	0.0156631
918.256	0.0158744
918.334	0.0158270
918.413	0.0160046
918.491	0.0160353
918.569	0.0159240
918.647	0.0157868
918.725	0.0156505
918.803	0.0157372
918.881	0.0157017
918.959	0.0156062
919.038	0.0155586
919.116	0.0155697
919.194	0.0154107
919.272	0.0153587
919.350	0.0154137
919.428	0.0153777
919.506	0.0153638
919.584	0.0153843
919.663	0.0155138
919.741	0.0155334
919.819	0.0154063
919.897	0.0153441
