05/20/2022	21:09:18	Ver.	4.1	UNKNOWN
Optical Delay	599.975067	Delta X		0.078125	Sweeps	1	Scan Rate	0/0
Coordinates	Axis 1	NaN	Axis 2	NaN	Axis 3	NaN	Axis 4	NaN	Axis 5	NaN	Axis 6	0.000000
TX Power	0.000000	RX Power	0.000000

599.975	0.0154181
600.053	0.0154748
600.131	0.0152976
600.209	0.0152685
600.288	0.0154493
600.366	0.0152536
600.444	0.0154825
600.522	0.0153793
600.600	0.0152904
600.678	0.0154526
600.756	0.0154136
600.834	0.0153410
600.913	0.0154173
600.991	0.0152874
601.069	0.0153952
601.147	0.0153679
601.225	0.0153431
601.303	0.0152741
601.381	0.0153394
601.459	0.0153904
601.538	0.0154866
601.616	0.0154079
601.694	0.0153996
601.772	0.0153018
601.850	0.0153687
601.928	0.0153413
602.006	0.0153305
602.084	0.0153033
602.163	0.0152687
602.241	0.0154012
602.319	0.0155223
602.397	0.0153183
602.475	0.0153436
602.553	0.0153993
602.631	0.0153397
602.709	0.0152325
602.788	0.0153432
602.866	0.0154314
602.944	0.0153130
603.022	0.0153542
603.100	0.0153593
603.178	0.0153711
603.256	0.0153300
603.334	0.0153516
603.413	0.0154188
603.491	0.0153166
603.569	0.0153967
603.647	0.0154216
603.725	0.0153876
603.803	0.0154410
603.881	0.0153993
603.959	0.0154223
604.038	0.0153514
604.116	0.0153603
604.194	0.0154330
604.272	0.0154537
604.350	0.0153389
604.428	0.0155244
604.506	0.0152052
604.584	0.0154380
604.663	0.0155225
604.741	0.0155198
604.819	0.0153207
604.897	0.0154285
604.975	0.0153319
605.053	0.0154806
605.131	0.0155172
605.209	0.0153567
605.288	0.0153707
605.366	0.0153734
605.444	0.0154962
605.522	0.0153339
605.600	0.0154886
605.678	0.0154365
605.756	0.0153207
605.834	0.0153314
605.913	0.0153666
605.991	0.0154319
606.069	0.0153804
606.147	0.0153129
606.225	0.0154515
606.303	0.0155639
606.381	0.0153790
606.459	0.0153925
606.538	0.0154834
606.616	0.0153967
606.694	0.0153909
606.772	0.0155284
606.850	0.0153519
606.928	0.0153980
607.006	0.0154004
607.084	0.0153280
607.163	0.0154314
607.241	0.0154790
607.319	0.0154494
607.397	0.0154555
607.475	0.0153803
607.553	0.0153814
607.631	0.0155377
607.709	0.0154477
607.788	0.0153374
607.866	0.0154227
607.944	0.0154443
608.022	0.0154651
608.100	0.0154070
608.178	0.0154804
608.256	0.0153841
608.334	0.0154621
608.413	0.0152430
608.491	0.0153232
608.569	0.0154369
608.647	0.0154147
608.725	0.0154649
608.803	0.0153863
608.881	0.0154408
608.959	0.0155663
609.038	0.0154609
609.116	0.0153680
609.194	0.0153695
609.272	0.0153435
609.350	0.0154595
609.428	0.0153903
609.506	0.0154391
609.584	0.0154391
609.663	0.0153934
609.741	0.0154825
609.819	0.0155463
609.897	0.0155000
609.975	0.0153902
610.053	0.0154247
610.131	0.0154474
610.209	0.0154896
610.288	0.0155069
610.366	0.0153877
610.444	0.0152494
610.522	0.0155124
610.600	0.0154720
610.678	0.0153480
610.756	0.0154814
610.834	0.0154958
610.913	0.0153770
610.991	0.0153952
611.069	0.0154958
611.147	0.0155949
611.225	0.0155183
611.303	0.0153567
611.381	0.0153368
611.459	0.0155196
611.538	0.0155180
611.616	0.0153730
611.694	0.0154240
611.772	0.0154429
611.850	0.0154601
611.928	0.0153914
612.006	0.0155210
612.084	0.0154798
612.163	0.0153720
612.241	0.0154891
612.319	0.0154434
612.397	0.0153029
612.475	0.0154686
612.553	0.0155565
612.631	0.0154569
612.709	0.0154765
612.788	0.0154600
612.866	0.0155435
612.944	0.0154413
613.022	0.0155240
613.100	0.0155566
613.178	0.0154175
613.256	0.0153003
613.334	0.0154787
613.413	0.0154030
613.491	0.0154324
613.569	0.0155756
613.647	0.0154105
613.725	0.0154290
613.803	0.0153963
613.881	0.0155289
613.959	0.0155495
614.038	0.0154427
614.116	0.0153369
614.194	0.0154089
614.272	0.0153847
614.350	0.0154573
614.428	0.0153677
614.506	0.0154135
614.584	0.0153688
614.663	0.0155739
614.741	0.0155309
614.819	0.0153162
614.897	0.0152793
614.975	0.0155018
615.053	0.0153794
615.131	0.0154882
615.209	0.0154230
615.288	0.0154700
615.366	0.0154939
615.444	0.0152544
615.522	0.0154992
615.600	0.0153350
615.678	0.0154385
615.756	0.0153358
615.834	0.0154063
615.913	0.0153321
615.991	0.0155273
616.069	0.0154116
616.147	0.0152929
616.225	0.0153927
616.303	0.0153757
616.381	0.0154248
616.459	0.0152912
616.538	0.0153456
616.616	0.0153693
616.694	0.0154359
616.772	0.0152799
616.850	0.0154795
616.928	0.0152494
617.006	0.0152874
617.084	0.0155552
617.163	0.0153300
617.241	0.0154149
617.319	0.0153876
617.397	0.0153136
617.475	0.0152352
617.553	0.0152697
617.631	0.0152740
617.709	0.0154362
617.788	0.0153412
617.866	0.0152670
617.944	0.0154430
618.022	0.0153877
618.100	0.0154102
618.178	0.0155531
618.256	0.0154459
618.334	0.0153593
618.413	0.0154344
618.491	0.0153533
618.569	0.0154374
618.647	0.0154207
618.725	0.0153631
618.803	0.0153768
618.881	0.0153748
618.959	0.0154686
619.038	0.0155426
619.116	0.0153084
619.194	0.0153770
619.272	0.0152960
619.350	0.0154589
619.428	0.0154858
619.506	0.0153376
619.584	0.0153735
619.663	0.0154842
619.741	0.0153741
619.819	0.0153351
619.897	0.0154150
619.975	0.0152449
620.053	0.0153761
620.131	0.0154013
620.209	0.0153696
620.288	0.0153668
620.366	0.0153590
620.444	0.0155659
620.522	0.0154865
620.600	0.0152896
620.678	0.0153771
620.756	0.0154642
620.834	0.0153806
620.913	0.0153899
620.991	0.0155372
621.069	0.0152386
621.147	0.0154674
621.225	0.0155048
621.303	0.0151593
621.381	0.0152884
621.459	0.0152972
621.538	0.0153394
621.616	0.0152393
621.694	0.0153148
621.772	0.0153975
621.850	0.0154816
621.928	0.0155129
622.006	0.0153595
622.084	0.0153622
622.163	0.0154357
622.241	0.0154956
622.319	0.0152525
622.397	0.0154394
622.475	0.0154643
622.553	0.0152859
622.631	0.0152962
622.709	0.0152498
622.788	0.0153696
622.866	0.0153221
622.944	0.0154229
623.022	0.0153207
623.100	0.0152327
623.178	0.0153294
623.256	0.0153445
623.334	0.0153575
623.413	0.0153030
623.491	0.0153168
623.569	0.0152988
623.647	0.0153407
623.725	0.0153970
623.803	0.0153785
623.881	0.0152343
623.959	0.0152692
624.038	0.0153281
624.116	0.0152574
624.194	0.0154035
624.272	0.0154091
624.350	0.0153916
624.428	0.0152151
624.506	0.0152912
624.584	0.0153181
624.663	0.0154023
624.741	0.0153519
624.819	0.0152641
624.897	0.0153591
624.975	0.0154283
625.053	0.0153224
625.131	0.0152497
625.209	0.0153420
625.288	0.0154592
625.366	0.0153928
625.444	0.0153762
625.522	0.0152975
625.600	0.0153388
625.678	0.0152767
625.756	0.0153553
625.834	0.0153308
625.913	0.0153299
625.991	0.0153108
626.069	0.0153764
626.147	0.0153464
626.225	0.0153544
626.303	0.0152579
626.381	0.0154037
626.459	0.0152357
626.538	0.0152253
626.616	0.0151899
626.694	0.0154398
626.772	0.0153174
626.850	0.0152833
626.928	0.0153139
627.006	0.0152270
627.084	0.0152605
627.163	0.0153321
627.241	0.0154271
627.319	0.0153760
627.397	0.0151982
627.475	0.0153779
627.553	0.0154990
627.631	0.0154890
627.709	0.0153842
627.788	0.0154815
627.866	0.0154479
627.944	0.0154192
628.022	0.0155173
628.100	0.0155230
628.178	0.0156361
628.256	0.0153679
628.334	0.0154117
628.413	0.0153664
628.491	0.0153947
628.569	0.0154034
628.647	0.0153827
628.725	0.0155735
628.803	0.0154696
628.881	0.0152531
628.959	0.0152404
629.038	0.0152852
629.116	0.0153678
629.194	0.0155436
629.272	0.0154614
629.350	0.0154317
629.428	0.0154884
629.506	0.0153943
629.584	0.0153329
629.663	0.0155347
629.741	0.0153059
629.819	0.0154124
629.897	0.0154874
629.975	0.0154701
630.053	0.0153134
630.131	0.0154641
630.209	0.0154992
630.288	0.0155628
630.366	0.0152981
630.444	0.0154034
630.522	0.0155599
630.600	0.0154967
630.678	0.0154192
630.756	0.0154444
630.834	0.0154644
630.913	0.0154221
630.991	0.0154612
631.069	0.0154459
631.147	0.0154436
631.225	0.0152866
631.303	0.0151958
631.381	0.0154431
631.459	0.0154247
631.538	0.0155062
631.616	0.0154163
631.694	0.0153867
631.772	0.0153185
631.850	0.0152883
631.928	0.0154431
632.006	0.0155330
632.084	0.0152598
632.163	0.0153378
632.241	0.0153490
632.319	0.0154119
632.397	0.0154176
632.475	0.0153822
632.553	0.0153483
632.631	0.0154086
632.709	0.0152912
632.788	0.0153542
632.866	0.0153689
632.944	0.0152486
633.022	0.0153126
633.100	0.0151991
633.178	0.0152205
633.256	0.0152846
633.334	0.0151994
633.413	0.0151649
633.491	0.0152110
633.569	0.0152453
633.647	0.0153178
633.725	0.0151643
633.803	0.0153283
633.881	0.0153854
633.959	0.0152061
634.038	0.0152016
634.116	0.0153381
634.194	0.0152564
634.272	0.0154041
634.350	0.0153261
634.428	0.0154047
634.506	0.0154119
634.584	0.0153715
634.663	0.0154810
634.741	0.0154499
634.819	0.0154080
634.897	0.0154252
634.975	0.0154048
635.053	0.0153475
635.131	0.0155164
635.209	0.0153275
635.288	0.0153487
635.366	0.0154143
635.444	0.0153700
635.522	0.0153819
635.600	0.0155004
635.678	0.0153194
635.756	0.0153747
635.834	0.0154299
635.913	0.0154230
635.991	0.0154053
636.069	0.0154147
636.147	0.0154101
636.225	0.0153793
636.303	0.0154330
636.381	0.0153306
636.459	0.0154499
636.538	0.0153085
636.616	0.0152567
636.694	0.0153982
636.772	0.0154458
636.850	0.0152307
636.928	0.0153233
637.006	0.0151873
637.084	0.0152322
637.163	0.0153936
637.241	0.0153630
637.319	0.0153517
637.397	0.0152788
637.475	0.0153283
637.553	0.0153658
637.631	0.0153815
637.709	0.0152733
637.788	0.0153256
637.866	0.0153683
637.944	0.0153590
638.022	0.0154715
638.100	0.0153961
638.178	0.0155689
638.256	0.0155374
638.334	0.0154274
638.413	0.0155312
638.491	0.0154749
638.569	0.0155168
638.647	0.0155086
638.725	0.0156135
638.803	0.0155676
638.881	0.0155112
638.959	0.0155166
639.038	0.0154060
639.116	0.0154984
639.194	0.0154402
639.272	0.0154890
639.350	0.0155224
639.428	0.0154884
639.506	0.0154244
639.584	0.0155648
639.663	0.0153310
639.741	0.0153891
639.819	0.0153158
639.897	0.0153580
639.975	0.0153318
640.053	0.0152310
640.131	0.0153462
640.209	0.0153355
640.288	0.0153728
640.366	0.0151887
640.444	0.0152670
640.522	0.0154225
640.600	0.0152264
640.678	0.0154040
640.756	0.0152295
640.834	0.0155075
640.913	0.0153642
640.991	0.0153217
641.069	0.0153563
641.147	0.0153042
641.225	0.0152766
641.303	0.0153043
641.381	0.0153873
641.459	0.0152582
641.538	0.0154066
641.616	0.0153191
641.694	0.0154038
641.772	0.0153732
641.850	0.0152584
641.928	0.0153786
642.006	0.0154194
642.084	0.0154111
642.163	0.0154835
642.241	0.0154711
642.319	0.0154514
642.397	0.0154292
642.475	0.0155841
642.553	0.0155840
642.631	0.0155813
642.709	0.0154279
642.788	0.0155956
642.866	0.0156067
642.944	0.0156178
643.022	0.0154877
643.100	0.0155444
643.178	0.0155630
643.256	0.0153504
643.334	0.0153138
643.413	0.0153096
643.491	0.0154744
643.569	0.0153936
643.647	0.0154965
643.725	0.0153327
643.803	0.0153028
643.881	0.0153086
643.959	0.0152621
644.038	0.0153295
644.116	0.0151879
644.194	0.0153191
644.272	0.0153356
644.350	0.0152706
644.428	0.0153050
644.506	0.0153252
644.584	0.0153036
644.663	0.0153361
644.741	0.0153210
644.819	0.0154976
644.897	0.0152744
644.975	0.0153514
645.053	0.0154349
645.131	0.0154153
645.209	0.0153194
645.288	0.0155124
645.366	0.0153490
645.444	0.0153593
645.522	0.0156130
645.600	0.0155357
645.678	0.0153923
645.756	0.0156060
645.834	0.0154469
645.913	0.0153181
645.991	0.0155082
646.069	0.0154518
646.147	0.0154289
646.225	0.0153423
646.303	0.0154007
646.381	0.0153873
646.459	0.0153545
646.538	0.0153907
646.616	0.0152718
646.694	0.0153104
646.772	0.0153206
646.850	0.0153536
646.928	0.0154168
647.006	0.0153484
647.084	0.0153979
647.163	0.0153981
647.241	0.0153369
647.319	0.0154381
647.397	0.0156517
647.475	0.0155739
647.553	0.0154613
647.631	0.0155101
647.709	0.0155700
647.788	0.0153627
647.866	0.0153608
647.944	0.0155994
648.022	0.0153288
648.100	0.0155317
648.178	0.0154202
648.256	0.0153714
648.334	0.0152646
648.413	0.0153474
648.491	0.0152444
648.569	0.0152824
648.647	0.0152626
648.725	0.0153484
648.803	0.0153191
648.881	0.0152692
648.959	0.0152544
649.038	0.0153370
649.116	0.0152669
649.194	0.0154194
649.272	0.0154157
649.350	0.0154247
649.428	0.0154152
649.506	0.0154518
649.584	0.0154597
649.663	0.0154453
649.741	0.0154333
649.819	0.0155299
649.897	0.0156655
649.975	0.0155369
650.053	0.0156587
650.131	0.0157056
650.209	0.0155236
650.288	0.0154594
650.366	0.0154416
650.444	0.0154782
650.522	0.0154366
650.600	0.0153880
650.678	0.0153678
650.756	0.0153284
650.834	0.0153561
650.913	0.0154082
650.991	0.0153074
651.069	0.0154095
651.147	0.0153831
651.225	0.0153397
651.303	0.0152745
651.381	0.0153161
651.459	0.0152872
651.538	0.0153798
651.616	0.0154778
651.694	0.0154063
651.772	0.0153983
651.850	0.0154166
651.928	0.0154290
652.006	0.0153715
652.084	0.0155119
652.163	0.0154909
652.241	0.0155344
652.319	0.0155383
652.397	0.0155665
652.475	0.0154930
652.553	0.0154649
652.631	0.0154306
652.709	0.0154156
652.788	0.0155508
652.866	0.0154380
652.944	0.0155082
653.022	0.0154360
653.100	0.0153073
653.178	0.0153770
653.256	0.0154274
653.334	0.0154272
653.413	0.0153156
653.491	0.0152448
653.569	0.0154230
653.647	0.0152980
653.725	0.0152673
653.803	0.0153340
653.881	0.0153582
653.959	0.0152840
654.038	0.0154192
654.116	0.0152140
654.194	0.0152590
654.272	0.0153226
654.350	0.0152577
654.428	0.0153296
654.506	0.0153571
654.584	0.0151707
654.663	0.0153300
654.741	0.0153304
654.819	0.0152847
654.897	0.0154134
654.975	0.0153782
655.053	0.0154282
655.131	0.0153065
655.209	0.0153933
655.288	0.0155122
655.366	0.0155053
655.444	0.0154276
655.522	0.0154627
655.600	0.0155013
655.678	0.0155474
655.756	0.0155238
655.834	0.0156253
655.913	0.0155634
655.991	0.0153922
656.069	0.0155322
656.147	0.0154623
656.225	0.0155637
656.303	0.0155518
656.381	0.0154178
656.459	0.0153410
656.538	0.0153178
656.616	0.0152699
656.694	0.0153135
656.772	0.0154182
656.850	0.0152831
656.928	0.0153983
657.006	0.0153459
657.084	0.0152998
657.163	0.0153360
657.241	0.0154450
657.319	0.0154487
657.397	0.0154207
657.475	0.0155574
657.553	0.0154955
657.631	0.0154900
657.709	0.0155173
657.788	0.0155695
657.866	0.0154142
657.944	0.0155188
658.022	0.0155457
658.100	0.0154385
658.178	0.0153985
658.256	0.0155061
658.334	0.0155010
658.413	0.0153733
658.491	0.0154355
658.569	0.0154960
658.647	0.0153770
658.725	0.0152725
658.803	0.0153168
658.881	0.0153307
658.959	0.0152699
659.038	0.0152415
659.116	0.0152290
659.194	0.0152173
659.272	0.0153094
659.350	0.0153484
659.428	0.0153812
659.506	0.0153251
659.584	0.0154816
659.663	0.0155369
659.741	0.0154651
659.819	0.0154082
659.897	0.0154270
659.975	0.0154175
660.053	0.0156296
660.131	0.0156153
660.209	0.0155096
660.288	0.0156351
660.366	0.0156141
660.444	0.0156130
660.522	0.0155948
660.600	0.0153559
660.678	0.0156356
660.756	0.0154701
660.834	0.0153997
660.913	0.0153143
660.991	0.0154035
661.069	0.0152664
661.147	0.0152699
661.225	0.0152985
661.303	0.0154276
661.381	0.0153094
661.459	0.0151008
661.538	0.0152206
661.616	0.0154411
661.694	0.0153120
661.772	0.0153895
661.850	0.0153633
661.928	0.0153984
662.006	0.0154107
662.084	0.0154394
662.163	0.0155714
662.241	0.0155735
662.319	0.0156113
662.397	0.0156656
662.475	0.0156236
662.553	0.0155777
662.631	0.0156705
662.709	0.0156052
662.788	0.0154865
662.866	0.0155505
662.944	0.0156429
663.022	0.0155358
663.100	0.0154392
663.178	0.0154908
663.256	0.0155421
663.334	0.0154022
663.413	0.0152459
663.491	0.0154929
663.569	0.0154467
663.647	0.0153967
663.725	0.0154784
663.803	0.0153955
663.881	0.0155004
663.959	0.0154176
664.038	0.0154173
664.116	0.0155725
664.194	0.0155448
664.272	0.0155319
664.350	0.0154939
664.428	0.0154469
664.506	0.0156532
664.584	0.0154218
664.663	0.0155231
664.741	0.0155572
664.819	0.0156789
664.897	0.0154239
664.975	0.0155556
665.053	0.0156042
665.131	0.0155475
665.209	0.0154935
665.288	0.0155042
665.366	0.0156435
665.444	0.0154704
665.522	0.0155309
665.600	0.0155621
665.678	0.0154563
665.756	0.0155443
665.834	0.0154622
665.913	0.0154645
665.991	0.0154265
666.069	0.0153915
666.147	0.0154520
666.225	0.0153772
666.303	0.0154459
666.381	0.0152592
666.459	0.0153619
666.538	0.0152896
666.616	0.0154462
666.694	0.0154534
666.772	0.0156102
666.850	0.0155253
666.928	0.0154053
667.006	0.0154115
667.084	0.0155455
667.163	0.0155875
667.241	0.0155206
667.319	0.0155321
667.397	0.0156203
667.475	0.0156451
667.553	0.0155301
667.631	0.0157108
667.709	0.0156277
667.788	0.0154547
667.866	0.0154757
667.944	0.0154459
668.022	0.0153164
668.100	0.0154354
668.178	0.0155087
668.256	0.0154893
668.334	0.0151771
668.413	0.0154102
668.491	0.0151952
668.569	0.0152137
668.647	0.0153551
668.725	0.0153111
668.803	0.0155178
668.881	0.0153449
668.959	0.0153557
669.038	0.0152972
669.116	0.0153971
669.194	0.0153492
669.272	0.0155027
669.350	0.0153448
669.428	0.0152879
669.506	0.0154272
669.584	0.0153867
669.663	0.0153782
669.741	0.0154632
669.819	0.0154052
669.897	0.0154282
669.975	0.0155065
670.053	0.0153890
670.131	0.0153616
670.209	0.0155173
670.288	0.0153201
670.366	0.0155342
670.444	0.0154157
670.522	0.0153555
670.600	0.0154472
670.678	0.0154545
670.756	0.0154326
670.834	0.0154047
670.913	0.0154788
670.991	0.0153019
671.069	0.0153826
671.147	0.0153893
671.225	0.0154794
671.303	0.0153167
671.381	0.0153666
671.459	0.0154641
671.538	0.0153396
671.616	0.0154363
671.694	0.0154512
671.772	0.0154477
671.850	0.0153146
671.928	0.0155013
672.006	0.0153919
672.084	0.0154142
672.163	0.0154377
672.241	0.0154130
672.319	0.0155392
672.397	0.0154884
672.475	0.0155463
672.553	0.0154257
672.631	0.0155799
672.709	0.0155909
672.788	0.0153809
672.866	0.0154746
672.944	0.0154593
673.022	0.0155302
673.100	0.0153843
673.178	0.0154174
673.256	0.0154047
673.334	0.0153243
673.413	0.0152800
673.491	0.0152365
673.569	0.0152673
673.647	0.0152883
673.725	0.0150723
673.803	0.0150730
673.881	0.0152293
673.959	0.0151727
674.038	0.0152187
674.116	0.0151004
674.194	0.0151411
674.272	0.0153297
674.350	0.0152756
674.428	0.0154259
674.506	0.0156133
674.584	0.0154015
674.663	0.0155598
674.741	0.0156524
674.819	0.0157986
674.897	0.0157735
674.975	0.0157177
675.053	0.0156530
675.131	0.0157878
675.209	0.0157101
675.288	0.0158845
675.366	0.0158428
675.444	0.0158322
675.522	0.0156866
675.600	0.0155875
675.678	0.0154319
675.756	0.0154564
675.834	0.0153486
675.913	0.0152068
675.991	0.0150348
676.069	0.0150804
676.147	0.0147910
676.225	0.0149750
676.303	0.0147212
676.381	0.0146188
676.459	0.0146478
676.538	0.0145396
676.616	0.0145629
676.694	0.0146437
676.772	0.0146961
676.850	0.0146069
676.928	0.0147588
677.006	0.0147326
677.084	0.0148566
677.163	0.0150364
677.241	0.0149862
677.319	0.0150951
677.397	0.0153535
677.475	0.0155969
677.553	0.0156833
677.631	0.0158870
677.709	0.0161163
677.788	0.0163308
677.866	0.0163225
677.944	0.0166048
678.022	0.0164525
678.100	0.0164856
678.178	0.0165620
678.256	0.0166415
678.334	0.0165856
678.413	0.0164737
678.491	0.0163628
678.569	0.0162929
678.647	0.0162146
678.725	0.0159344
678.803	0.0157265
678.881	0.0153964
678.959	0.0152063
679.038	0.0149563
679.116	0.0148650
679.194	0.0144807
679.272	0.0145512
679.350	0.0143242
679.428	0.0140052
679.506	0.0138962
679.584	0.0139372
679.663	0.0136842
679.741	0.0138553
679.819	0.0138097
679.897	0.0138232
679.975	0.0139081
680.053	0.0141481
680.131	0.0141959
680.209	0.0145389
680.288	0.0146746
680.366	0.0149742
680.444	0.0152026
680.522	0.0154318
680.600	0.0156847
680.678	0.0159633
680.756	0.0162294
680.834	0.0163924
680.913	0.0165455
680.991	0.0165598
681.069	0.0167090
681.147	0.0168590
681.225	0.0169527
681.303	0.0169450
681.381	0.0169645
681.459	0.0168475
681.538	0.0168060
681.616	0.0168938
681.694	0.0164732
681.772	0.0164384
681.850	0.0162493
681.928	0.0161500
682.006	0.0157941
682.084	0.0157281
682.163	0.0155154
682.241	0.0152788
682.319	0.0151577
682.397	0.0150697
682.475	0.0148704
682.553	0.0147739
682.631	0.0147153
682.709	0.0146220
682.788	0.0144810
682.866	0.0144527
682.944	0.0144064
683.022	0.0143011
683.100	0.0144746
683.178	0.0143634
683.256	0.0143130
683.334	0.0143513
683.413	0.0145139
683.491	0.0145005
683.569	0.0145872
683.647	0.0145746
683.725	0.0146835
683.803	0.0147895
683.881	0.0149821
683.959	0.0150736
684.038	0.0153181
684.116	0.0152723
684.194	0.0155094
684.272	0.0155883
684.350	0.0156487
684.428	0.0156965
684.506	0.0158689
684.584	0.0161124
684.663	0.0159686
684.741	0.0159737
684.819	0.0161580
684.897	0.0163126
684.975	0.0161931
685.053	0.0161565
685.131	0.0162250
685.209	0.0161171
685.288	0.0160783
685.366	0.0160952
685.444	0.0160188
685.522	0.0159721
685.600	0.0160237
685.678	0.0158857
685.756	0.0160002
685.834	0.0158319
685.913	0.0155984
685.991	0.0158186
686.069	0.0156558
686.147	0.0155950
686.225	0.0155404
686.303	0.0153336
686.381	0.0152560
686.459	0.0151539
686.538	0.0150688
686.616	0.0149261
686.694	0.0149126
686.772	0.0149151
686.850	0.0148582
686.928	0.0147536
687.006	0.0148192
687.084	0.0145461
687.163	0.0146869
687.241	0.0146991
687.319	0.0144759
687.397	0.0145106
687.475	0.0146581
687.553	0.0145509
687.631	0.0144112
687.709	0.0146253
687.788	0.0147876
687.866	0.0150304
687.944	0.0151958
688.022	0.0153319
688.100	0.0156502
688.178	0.0159913
688.256	0.0162338
688.334	0.0163883
688.413	0.0165549
688.491	0.0170317
688.569	0.0171906
688.647	0.0171682
688.725	0.0172593
688.803	0.0173759
688.881	0.0173777
688.959	0.0173561
689.038	0.0172596
689.116	0.0170335
689.194	0.0168760
689.272	0.0164283
689.350	0.0161012
689.428	0.0158575
689.506	0.0155109
689.584	0.0151458
689.663	0.0146712
689.741	0.0142300
689.819	0.0138960
689.897	0.0136260
689.975	0.0132285
690.053	0.0129424
690.131	0.0126480
690.209	0.0125995
690.288	0.0123455
690.366	0.0124264
690.444	0.0124881
690.522	0.0126522
690.600	0.0126984
690.678	0.0129076
690.756	0.0132390
690.834	0.0136973
690.913	0.0140167
690.991	0.0144892
691.069	0.0148778
691.147	0.0152576
691.225	0.0158365
691.303	0.0161290
691.381	0.0164457
691.459	0.0168604
691.538	0.0171755
691.616	0.0172993
691.694	0.0176182
691.772	0.0176671
691.850	0.0177004
691.928	0.0179102
692.006	0.0178497
692.084	0.0180376
692.163	0.0178358
692.241	0.0178814
692.319	0.0176050
692.397	0.0175179
692.475	0.0173229
692.553	0.0170129
692.631	0.0168447
692.709	0.0166762
692.788	0.0165166
692.866	0.0162731
692.944	0.0161572
693.022	0.0157207
693.100	0.0156219
693.178	0.0154968
693.256	0.0153188
693.334	0.0151794
693.413	0.0149249
693.491	0.0147885
693.569	0.0148302
693.647	0.0145800
693.725	0.0145226
693.803	0.0145724
693.881	0.0145360
693.959	0.0143713
694.038	0.0142772
694.116	0.0141766
694.194	0.0140982
694.272	0.0140138
694.350	0.0138995
694.428	0.0140089
694.506	0.0139080
694.584	0.0138168
694.663	0.0137778
694.741	0.0136894
694.819	0.0137122
694.897	0.0138764
694.975	0.0138629
695.053	0.0138947
695.131	0.0139221
695.209	0.0139642
695.288	0.0140216
695.366	0.0141135
695.444	0.0140595
695.522	0.0140835
695.600	0.0140621
695.678	0.0139595
695.756	0.0141263
695.834	0.0140805
695.913	0.0142739
695.991	0.0144016
696.069	0.0146826
696.147	0.0149571
696.225	0.0153128
696.303	0.0156344
696.381	0.0158354
696.459	0.0164524
696.538	0.0167973
696.616	0.0172035
696.694	0.0174319
696.772	0.0178549
696.850	0.0181134
696.928	0.0184055
697.006	0.0186913
697.084	0.0189457
697.163	0.0190436
697.241	0.0191323
697.319	0.0191169
697.397	0.0189910
697.475	0.0190236
697.553	0.0189083
697.631	0.0186434
697.709	0.0183575
697.788	0.0180959
697.866	0.0177529
697.944	0.0175135
698.022	0.0170484
698.100	0.0167474
698.178	0.0162217
698.256	0.0156568
698.334	0.0150832
698.413	0.0147649
698.491	0.0141056
698.569	0.0136301
698.647	0.0131348
698.725	0.0125877
698.803	0.0120956
698.881	0.0116977
698.959	0.0113326
699.038	0.0111745
699.116	0.0108998
699.194	0.0106480
699.272	0.0105233
699.350	0.0106485
699.428	0.0107323
699.506	0.0108518
699.584	0.0111119
699.663	0.0114516
699.741	0.0119467
699.819	0.0124617
699.897	0.0129830
699.975	0.0136385
700.053	0.0144099
700.131	0.0150989
700.209	0.0156360
700.288	0.0163308
700.366	0.0171192
700.444	0.0175304
700.522	0.0180805
700.600	0.0184394
700.678	0.0188469
700.756	0.0190250
700.834	0.0190490
700.913	0.0191447
700.991	0.0190044
701.069	0.0188551
701.147	0.0186790
701.225	0.0183444
701.303	0.0179317
701.381	0.0174314
701.459	0.0171069
701.538	0.0166428
701.616	0.0159731
701.694	0.0156120
701.772	0.0151395
701.850	0.0147776
701.928	0.0142122
702.006	0.0140493
702.084	0.0137880
702.163	0.0134139
702.241	0.0134370
702.319	0.0132551
702.397	0.0134060
702.475	0.0134245
702.553	0.0136646
702.631	0.0139507
702.709	0.0142281
702.788	0.0144061
702.866	0.0146952
702.944	0.0149656
703.022	0.0153388
703.100	0.0157064
703.178	0.0159705
703.256	0.0164130
703.334	0.0167162
703.413	0.0169004
703.491	0.0170936
703.569	0.0174615
703.647	0.0172737
703.725	0.0173191
703.803	0.0173306
703.881	0.0175006
703.959	0.0172289
704.038	0.0172413
704.116	0.0171342
704.194	0.0168504
704.272	0.0167441
704.350	0.0165096
704.428	0.0162727
704.506	0.0159628
704.584	0.0156260
704.663	0.0153448
704.741	0.0150086
704.819	0.0146291
704.897	0.0143559
704.975	0.0141832
705.053	0.0140151
705.131	0.0138181
705.209	0.0135823
705.288	0.0135289
705.366	0.0134000
705.444	0.0133990
705.522	0.0133673
705.600	0.0133646
705.678	0.0135284
705.756	0.0135093
705.834	0.0137251
705.913	0.0137947
705.991	0.0138229
706.069	0.0139137
706.147	0.0138289
706.225	0.0141024
706.303	0.0141511
706.381	0.0143288
706.459	0.0144879
706.538	0.0145911
706.616	0.0147495
706.694	0.0151025
706.772	0.0153233
706.850	0.0154829
706.928	0.0157602
707.006	0.0159078
707.084	0.0160746
707.163	0.0160889
707.241	0.0163841
707.319	0.0164432
707.397	0.0163066
707.475	0.0162784
707.553	0.0161485
707.631	0.0160526
707.709	0.0160567
707.788	0.0158440
707.866	0.0155317
707.944	0.0155704
708.022	0.0156105
708.100	0.0153514
708.178	0.0151726
708.256	0.0152769
708.334	0.0153899
708.413	0.0153603
708.491	0.0154656
708.569	0.0157371
708.647	0.0159389
708.725	0.0161623
708.803	0.0164358
708.881	0.0167706
708.959	0.0169347
709.038	0.0171896
709.116	0.0171729
709.194	0.0174124
709.272	0.0174820
709.350	0.0175684
709.428	0.0177642
709.506	0.0178171
709.584	0.0175162
709.663	0.0174755
709.741	0.0172918
709.819	0.0170316
709.897	0.0168399
709.975	0.0167333
710.053	0.0162230
710.131	0.0158139
710.209	0.0154855
710.288	0.0149233
710.366	0.0146906
710.444	0.0141705
710.522	0.0137640
710.600	0.0134245
710.678	0.0130560
710.756	0.0128149
710.834	0.0126866
710.913	0.0125853
710.991	0.0125453
711.069	0.0126340
711.147	0.0127692
711.225	0.0130599
711.303	0.0133524
711.381	0.0136823
711.459	0.0142327
711.538	0.0147002
711.616	0.0150750
711.694	0.0155566
711.772	0.0156947
711.850	0.0159600
711.928	0.0161610
712.006	0.0163142
712.084	0.0160316
712.163	0.0159674
712.241	0.0156340
712.319	0.0154626
712.397	0.0150285
712.475	0.0144773
712.553	0.0141956
712.631	0.0137703
712.709	0.0134441
712.788	0.0131835
712.866	0.0129847
712.944	0.0128510
713.022	0.0128594
713.100	0.0128961
713.178	0.0130483
713.256	0.0133623
713.334	0.0137080
713.413	0.0139935
713.491	0.0144108
713.569	0.0148330
713.647	0.0153320
713.725	0.0157094
713.803	0.0161661
713.881	0.0166544
713.959	0.0170210
714.038	0.0173226
714.116	0.0177731
714.194	0.0180348
714.272	0.0183812
714.350	0.0185617
714.428	0.0187129
714.506	0.0188528
714.584	0.0188312
714.663	0.0188659
714.741	0.0186465
714.819	0.0186179
714.897	0.0184687
714.975	0.0182253
715.053	0.0178649
715.131	0.0175687
715.209	0.0173314
715.288	0.0170825
715.366	0.0168176
715.444	0.0163631
715.522	0.0162070
715.600	0.0160147
715.678	0.0157200
715.756	0.0153960
715.834	0.0150986
715.913	0.0147695
715.991	0.0144418
716.069	0.0140498
716.147	0.0137820
716.225	0.0134126
716.303	0.0129460
716.381	0.0126952
716.459	0.0124120
716.538	0.0121705
716.616	0.0118996
716.694	0.0118710
716.772	0.0119366
716.850	0.0120496
716.928	0.0120798
717.006	0.0121958
717.084	0.0124398
717.163	0.0126913
717.241	0.0127979
717.319	0.0130787
717.397	0.0133960
717.475	0.0136795
717.553	0.0140415
717.631	0.0140544
717.709	0.0143341
717.788	0.0146334
717.866	0.0147823
717.944	0.0149094
718.022	0.0152815
718.100	0.0153033
718.178	0.0155072
718.256	0.0158981
718.334	0.0160811
718.413	0.0161229
718.491	0.0164229
718.569	0.0166535
718.647	0.0168219
718.725	0.0169078
718.803	0.0171435
718.881	0.0172131
718.959	0.0173669
719.038	0.0174034
719.116	0.0174316
719.194	0.0173909
719.272	0.0175146
719.350	0.0174076
719.428	0.0171230
719.506	0.0169156
719.584	0.0167522
719.663	0.0167101
719.741	0.0163913
719.819	0.0162854
719.897	0.0162086
719.975	0.0158058
720.053	0.0156623
720.131	0.0156274
720.209	0.0155733
720.288	0.0151921
720.366	0.0149100
720.444	0.0147856
720.522	0.0146735
720.600	0.0144445
720.678	0.0141486
720.756	0.0140679
720.834	0.0139644
720.913	0.0138865
720.991	0.0139394
721.069	0.0140733
721.147	0.0142539
721.225	0.0144511
721.303	0.0146857
721.381	0.0149796
721.459	0.0152831
721.538	0.0154362
721.616	0.0157677
721.694	0.0160586
721.772	0.0161723
721.850	0.0163035
721.928	0.0163337
722.006	0.0163509
722.084	0.0161465
722.163	0.0162757
722.241	0.0162995
722.319	0.0158753
722.397	0.0160579
722.475	0.0159748
722.553	0.0160561
722.631	0.0160907
722.709	0.0160985
722.788	0.0162085
722.866	0.0162370
722.944	0.0161446
723.022	0.0161943
723.100	0.0162485
723.178	0.0160749
723.256	0.0159499
723.334	0.0157835
723.413	0.0153833
723.491	0.0150694
723.569	0.0146548
723.647	0.0142712
723.725	0.0138917
723.803	0.0134281
723.881	0.0133039
723.959	0.0129860
724.038	0.0130492
724.116	0.0126814
724.194	0.0127324
724.272	0.0128519
724.350	0.0129519
724.428	0.0132494
724.506	0.0132381
724.584	0.0134727
724.663	0.0139447
724.741	0.0143241
724.819	0.0146809
724.897	0.0150005
724.975	0.0153138
725.053	0.0155340
725.131	0.0161884
725.209	0.0164420
725.288	0.0169160
725.366	0.0171560
725.444	0.0174419
725.522	0.0176414
725.600	0.0177567
725.678	0.0179676
725.756	0.0180419
725.834	0.0180631
725.913	0.0181078
725.991	0.0180963
726.069	0.0178315
726.147	0.0178124
726.225	0.0174820
726.303	0.0171832
726.381	0.0169056
726.459	0.0165831
726.538	0.0162877
726.616	0.0160829
726.694	0.0158109
726.772	0.0155302
726.850	0.0152319
726.928	0.0151527
727.006	0.0150114
727.084	0.0150844
727.163	0.0150247
727.241	0.0152406
727.319	0.0151801
727.397	0.0152166
727.475	0.0152816
727.553	0.0151698
727.631	0.0152876
727.709	0.0153435
727.788	0.0152747
727.866	0.0152379
727.944	0.0151564
728.022	0.0149743
728.100	0.0148032
728.178	0.0147218
728.256	0.0145627
728.334	0.0144670
728.413	0.0140868
728.491	0.0141580
728.569	0.0141252
728.647	0.0138543
728.725	0.0141446
728.803	0.0139434
728.881	0.0139125
728.959	0.0139176
729.038	0.0140907
729.116	0.0142641
729.194	0.0142482
729.272	0.0144405
729.350	0.0145736
729.428	0.0147120
729.506	0.0149139
729.584	0.0150338
729.663	0.0154008
729.741	0.0154457
729.819	0.0159676
729.897	0.0160870
729.975	0.0161141
730.053	0.0163252
730.131	0.0163205
730.209	0.0165308
730.288	0.0166917
730.366	0.0167804
730.444	0.0167593
730.522	0.0166341
730.600	0.0166410
730.678	0.0165905
730.756	0.0164634
730.834	0.0164266
730.913	0.0161184
730.991	0.0160020
731.069	0.0159476
731.147	0.0156245
731.225	0.0155136
731.303	0.0155334
731.381	0.0155992
731.459	0.0154490
731.538	0.0153354
731.616	0.0153751
731.694	0.0152466
731.772	0.0152331
731.850	0.0151917
731.928	0.0152008
732.006	0.0150975
732.084	0.0151057
732.163	0.0150787
732.241	0.0149757
732.319	0.0149270
732.397	0.0149443
732.475	0.0150391
732.553	0.0149426
732.631	0.0151610
732.709	0.0151642
732.788	0.0153336
732.866	0.0153935
732.944	0.0152576
733.022	0.0154780
733.100	0.0153883
733.178	0.0154985
733.256	0.0155716
733.334	0.0155394
733.413	0.0154460
733.491	0.0155453
733.569	0.0158008
733.647	0.0157240
733.725	0.0156546
733.803	0.0158781
733.881	0.0159277
733.959	0.0160564
734.038	0.0159524
734.116	0.0159963
734.194	0.0159967
734.272	0.0158776
734.350	0.0159332
734.428	0.0155913
734.506	0.0153499
734.584	0.0153409
734.663	0.0153274
734.741	0.0149728
734.819	0.0150560
734.897	0.0148315
734.975	0.0148315
735.053	0.0146851
735.131	0.0146648
735.209	0.0145545
735.288	0.0146154
735.366	0.0146129
735.444	0.0147383
735.522	0.0145676
735.600	0.0147438
735.678	0.0146423
735.756	0.0146223
735.834	0.0145496
735.913	0.0143653
735.991	0.0142281
736.069	0.0142838
736.147	0.0143241
736.225	0.0142357
736.303	0.0142937
736.381	0.0142365
736.459	0.0141829
736.538	0.0144791
736.616	0.0146633
736.694	0.0147819
736.772	0.0150469
736.850	0.0153432
736.928	0.0155582
737.006	0.0157977
737.084	0.0160725
737.163	0.0162990
737.241	0.0164918
737.319	0.0166597
737.397	0.0167431
737.475	0.0169530
737.553	0.0170219
737.631	0.0170710
737.709	0.0170539
737.788	0.0169193
737.866	0.0169772
737.944	0.0166754
738.022	0.0166467
738.100	0.0165099
738.178	0.0164117
738.256	0.0162248
738.334	0.0160527
738.413	0.0158227
738.491	0.0156813
738.569	0.0154665
738.647	0.0153487
738.725	0.0150886
738.803	0.0149291
738.881	0.0146641
738.959	0.0145197
739.038	0.0145134
739.116	0.0145440
739.194	0.0145235
739.272	0.0144659
739.350	0.0143852
739.428	0.0145393
739.506	0.0146638
739.584	0.0147713
739.663	0.0148744
739.741	0.0149238
739.819	0.0150745
739.897	0.0152557
739.975	0.0153380
740.053	0.0154684
740.131	0.0155656
740.209	0.0156943
740.288	0.0157864
740.366	0.0156449
740.444	0.0157873
740.522	0.0157119
740.600	0.0156908
740.678	0.0156234
740.756	0.0154155
740.834	0.0151581
740.913	0.0152428
740.991	0.0151748
741.069	0.0150881
741.147	0.0150764
741.225	0.0149174
741.303	0.0148811
741.381	0.0147408
741.459	0.0149513
741.538	0.0149646
741.616	0.0150059
741.694	0.0150287
741.772	0.0152010
741.850	0.0154758
741.928	0.0154879
742.006	0.0154773
742.084	0.0154817
742.163	0.0155363
742.241	0.0155867
742.319	0.0156014
742.397	0.0154595
742.475	0.0156380
742.553	0.0156643
742.631	0.0153271
742.709	0.0153757
742.788	0.0152383
742.866	0.0153329
742.944	0.0153059
743.022	0.0153152
743.100	0.0152279
743.178	0.0154610
743.256	0.0154133
743.334	0.0154465
743.413	0.0154946
743.491	0.0155423
743.569	0.0156158
743.647	0.0159818
743.725	0.0159878
743.803	0.0158651
743.881	0.0159293
743.959	0.0160585
744.038	0.0161233
744.116	0.0161127
744.194	0.0160001
744.272	0.0159435
744.350	0.0159866
744.428	0.0159380
744.506	0.0158728
744.584	0.0157668
744.663	0.0158814
744.741	0.0156467
744.819	0.0157001
744.897	0.0156905
744.975	0.0156256
745.053	0.0156074
745.131	0.0155923
745.209	0.0155077
745.288	0.0155017
745.366	0.0152958
745.444	0.0152351
745.522	0.0153428
745.600	0.0154073
745.678	0.0152106
745.756	0.0150228
745.834	0.0150677
745.913	0.0148992
745.991	0.0147257
746.069	0.0147289
746.147	0.0148775
746.225	0.0147787
746.303	0.0146623
746.381	0.0147937
746.459	0.0149107
746.538	0.0150107
746.616	0.0150301
746.694	0.0151562
746.772	0.0154604
746.850	0.0153951
746.928	0.0155417
747.006	0.0157961
747.084	0.0157450
747.163	0.0157990
747.241	0.0157322
747.319	0.0156321
747.397	0.0155212
747.475	0.0155471
747.553	0.0152364
747.631	0.0152895
747.709	0.0152881
747.788	0.0150531
747.866	0.0150901
747.944	0.0150070
748.022	0.0152120
748.100	0.0152569
748.178	0.0152137
748.256	0.0152391
748.334	0.0155399
748.413	0.0155840
748.491	0.0156625
748.569	0.0157082
748.647	0.0157198
748.725	0.0155743
748.803	0.0158472
748.881	0.0157071
748.959	0.0157362
749.038	0.0156956
749.116	0.0158180
749.194	0.0158262
749.272	0.0157800
749.350	0.0159056
749.428	0.0157549
749.506	0.0160134
749.584	0.0158953
749.663	0.0159008
749.741	0.0159869
749.819	0.0158766
749.897	0.0159298
749.975	0.0159214
750.053	0.0158358
750.131	0.0159147
750.209	0.0158157
750.288	0.0158669
750.366	0.0158972
750.444	0.0157329
750.522	0.0154607
750.600	0.0154945
750.678	0.0154392
750.756	0.0155028
750.834	0.0154015
750.913	0.0154544
750.991	0.0152730
751.069	0.0153510
751.147	0.0154105
751.225	0.0153718
751.303	0.0152808
751.381	0.0152776
751.459	0.0152907
751.538	0.0151199
751.616	0.0152815
751.694	0.0152509
751.772	0.0152178
751.850	0.0151560
751.928	0.0154544
752.006	0.0153564
752.084	0.0154113
752.163	0.0156076
752.241	0.0156415
752.319	0.0154343
752.397	0.0155921
752.475	0.0156843
752.553	0.0155347
752.631	0.0154726
752.709	0.0156074
752.788	0.0155722
752.866	0.0154428
752.944	0.0153777
753.022	0.0153156
753.100	0.0152074
753.178	0.0152720
753.256	0.0152351
753.334	0.0150202
753.413	0.0150929
753.491	0.0151785
753.569	0.0151991
753.647	0.0152101
753.725	0.0153878
753.803	0.0152151
753.881	0.0154684
753.959	0.0153875
754.038	0.0156271
754.116	0.0156864
754.194	0.0155878
754.272	0.0157970
754.350	0.0158020
754.428	0.0157855
754.506	0.0157122
754.584	0.0155747
754.663	0.0156374
754.741	0.0155457
754.819	0.0156286
754.897	0.0153242
754.975	0.0153350
755.053	0.0154609
755.131	0.0153379
755.209	0.0152222
755.288	0.0153020
755.366	0.0153379
755.444	0.0154534
755.522	0.0154332
755.600	0.0152946
755.678	0.0152669
755.756	0.0154211
755.834	0.0154605
755.913	0.0152348
755.991	0.0152283
756.069	0.0152193
756.147	0.0153887
756.225	0.0153428
756.303	0.0152073
756.381	0.0152068
756.459	0.0153711
756.538	0.0154341
756.616	0.0156252
756.694	0.0156100
756.772	0.0156470
756.850	0.0155291
756.928	0.0155796
757.006	0.0156281
757.084	0.0157349
757.163	0.0156959
757.241	0.0156168
757.319	0.0156264
757.397	0.0155467
757.475	0.0155046
757.553	0.0153531
757.631	0.0152554
757.709	0.0150574
757.788	0.0151569
757.866	0.0151095
757.944	0.0148702
758.022	0.0147527
758.100	0.0148366
758.178	0.0147269
758.256	0.0146053
758.334	0.0148066
758.413	0.0148029
758.491	0.0147327
758.569	0.0149274
758.647	0.0150251
758.725	0.0149766
758.803	0.0150734
758.881	0.0153413
758.959	0.0153085
759.038	0.0155249
759.116	0.0154305
759.194	0.0156194
759.272	0.0156977
759.350	0.0157481
759.428	0.0156069
759.506	0.0157986
759.584	0.0157367
759.663	0.0158293
759.741	0.0157021
759.819	0.0156085
759.897	0.0154941
759.975	0.0155950
760.053	0.0156020
760.131	0.0156941
760.209	0.0155128
760.288	0.0155682
760.366	0.0155841
760.444	0.0155933
760.522	0.0157212
760.600	0.0157050
760.678	0.0156344
760.756	0.0157703
760.834	0.0155879
760.913	0.0154939
760.991	0.0154613
761.069	0.0154490
761.147	0.0151888
761.225	0.0153286
761.303	0.0152277
761.381	0.0149848
761.459	0.0149837
761.538	0.0149837
761.616	0.0149166
761.694	0.0149379
761.772	0.0148896
761.850	0.0150648
761.928	0.0150462
762.006	0.0151743
762.084	0.0151731
762.163	0.0151643
762.241	0.0153561
762.319	0.0153134
762.397	0.0152686
762.475	0.0153831
762.553	0.0153837
762.631	0.0154060
762.709	0.0153913
762.788	0.0154305
762.866	0.0153402
762.944	0.0153112
763.022	0.0151113
763.100	0.0153551
763.178	0.0151704
763.256	0.0151170
763.334	0.0150989
763.413	0.0151621
763.491	0.0152395
763.569	0.0153168
763.647	0.0153374
763.725	0.0152550
763.803	0.0154155
763.881	0.0154730
763.959	0.0154456
764.038	0.0156193
764.116	0.0157626
764.194	0.0156741
764.272	0.0156979
764.350	0.0158325
764.428	0.0158540
764.506	0.0157149
764.584	0.0158643
764.663	0.0158482
764.741	0.0158679
764.819	0.0158816
764.897	0.0158009
764.975	0.0156967
765.053	0.0158620
765.131	0.0157843
765.209	0.0157079
765.288	0.0155884
765.366	0.0156499
765.444	0.0157479
765.522	0.0157068
765.600	0.0156557
765.678	0.0154108
765.756	0.0155032
765.834	0.0153749
765.913	0.0152621
765.991	0.0152633
766.069	0.0151768
766.147	0.0150758
766.225	0.0151683
766.303	0.0150179
766.381	0.0150610
766.459	0.0150665
766.538	0.0150779
766.616	0.0149990
766.694	0.0151571
766.772	0.0150731
766.850	0.0153097
766.928	0.0153973
767.006	0.0153783
767.084	0.0155772
767.163	0.0155962
767.241	0.0154903
767.319	0.0155291
767.397	0.0157362
767.475	0.0155684
767.553	0.0155711
767.631	0.0155981
767.709	0.0154644
767.788	0.0155062
767.866	0.0153475
767.944	0.0153145
768.022	0.0152625
768.100	0.0151989
768.178	0.0152726
768.256	0.0153552
768.334	0.0153135
768.413	0.0154550
768.491	0.0152997
768.569	0.0154694
768.647	0.0155172
768.725	0.0156617
768.803	0.0155360
768.881	0.0156400
768.959	0.0157388
769.038	0.0157090
769.116	0.0157870
769.194	0.0158533
769.272	0.0158013
769.350	0.0157647
769.428	0.0158126
769.506	0.0156764
769.584	0.0156755
769.663	0.0155106
769.741	0.0155976
769.819	0.0155716
769.897	0.0155125
769.975	0.0152656
770.053	0.0152354
770.131	0.0153391
770.209	0.0152711
770.288	0.0153365
770.366	0.0153165
770.444	0.0154566
770.522	0.0154192
770.600	0.0153679
770.678	0.0155642
770.756	0.0155667
770.834	0.0154667
770.913	0.0155183
770.991	0.0156112
771.069	0.0155083
771.147	0.0154542
771.225	0.0155468
771.303	0.0154654
771.381	0.0154550
771.459	0.0153546
771.538	0.0155396
771.616	0.0153204
771.694	0.0155855
771.772	0.0154607
771.850	0.0154342
771.928	0.0154606
772.006	0.0153780
772.084	0.0154896
772.163	0.0154642
772.241	0.0153215
772.319	0.0152763
772.397	0.0155250
772.475	0.0153555
772.553	0.0153259
772.631	0.0153009
772.709	0.0155602
772.788	0.0155461
772.866	0.0154845
772.944	0.0155232
773.022	0.0156840
773.100	0.0156264
773.178	0.0156410
773.256	0.0154617
773.334	0.0153316
773.413	0.0153518
773.491	0.0152814
773.569	0.0153564
773.647	0.0151166
773.725	0.0151325
773.803	0.0150349
773.881	0.0150513
773.959	0.0150950
774.038	0.0150838
774.116	0.0151955
774.194	0.0152032
774.272	0.0153823
774.350	0.0154585
774.428	0.0155784
774.506	0.0155840
774.584	0.0157619
774.663	0.0157922
774.741	0.0157836
774.819	0.0159449
774.897	0.0158355
774.975	0.0160653
775.053	0.0159325
775.131	0.0158516
775.209	0.0158385
775.288	0.0157915
775.366	0.0156291
775.444	0.0154998
775.522	0.0154609
775.600	0.0153264
775.678	0.0152135
775.756	0.0151526
775.834	0.0151209
775.913	0.0149917
775.991	0.0149538
776.069	0.0149145
776.147	0.0147924
776.225	0.0147183
776.303	0.0146416
776.381	0.0147395
776.459	0.0146952
776.538	0.0145612
776.616	0.0146608
776.694	0.0144807
776.772	0.0147621
776.850	0.0147268
776.928	0.0147681
777.006	0.0148830
777.084	0.0149814
777.163	0.0150018
777.241	0.0151412
777.319	0.0152989
777.397	0.0154017
777.475	0.0154724
777.553	0.0156384
777.631	0.0155678
777.709	0.0157528
777.788	0.0157656
777.866	0.0158421
777.944	0.0157864
778.022	0.0156967
778.100	0.0155949
778.178	0.0156075
778.256	0.0154314
778.334	0.0153437
778.413	0.0153779
778.491	0.0152983
778.569	0.0150174
778.647	0.0151056
778.725	0.0151947
778.803	0.0151560
778.881	0.0151682
778.959	0.0151270
779.038	0.0151112
779.116	0.0151552
779.194	0.0153062
779.272	0.0153909
779.350	0.0153326
779.428	0.0154098
779.506	0.0155079
779.584	0.0155293
779.663	0.0156032
779.741	0.0155918
779.819	0.0155233
779.897	0.0157173
779.975	0.0158443
780.053	0.0156036
780.131	0.0156503
780.209	0.0156691
780.288	0.0155688
780.366	0.0156445
780.444	0.0156456
780.522	0.0156647
780.600	0.0154520
780.678	0.0154400
780.756	0.0154524
780.834	0.0153903
780.913	0.0151760
780.991	0.0151016
781.069	0.0151609
781.147	0.0150935
781.225	0.0150163
781.303	0.0150597
781.381	0.0150217
781.459	0.0149102
781.538	0.0149102
781.616	0.0148241
781.694	0.0148979
781.772	0.0149640
781.850	0.0149825
781.928	0.0148295
782.006	0.0148110
782.084	0.0147591
782.163	0.0147726
782.241	0.0148403
782.319	0.0150272
782.397	0.0148519
782.475	0.0149898
782.553	0.0149724
782.631	0.0151064
782.709	0.0152781
782.788	0.0153798
782.866	0.0154478
782.944	0.0155106
783.022	0.0155100
783.100	0.0156059
783.178	0.0157226
783.256	0.0157516
783.334	0.0157063
783.413	0.0156336
783.491	0.0154769
783.569	0.0156147
783.647	0.0154246
783.725	0.0153963
783.803	0.0150982
783.881	0.0151513
783.959	0.0150179
784.038	0.0150388
784.116	0.0149628
784.194	0.0149501
784.272	0.0149860
784.350	0.0151359
784.428	0.0151749
784.506	0.0150419
784.584	0.0152061
784.663	0.0153427
784.741	0.0155570
784.819	0.0155637
784.897	0.0155647
784.975	0.0157184
785.053	0.0157090
785.131	0.0157772
785.209	0.0157048
785.288	0.0156576
785.366	0.0156069
785.444	0.0157350
785.522	0.0158256
785.600	0.0155766
785.678	0.0155873
785.756	0.0154857
785.834	0.0154853
785.913	0.0154135
785.991	0.0154083
786.069	0.0153474
786.147	0.0152068
786.225	0.0152248
786.303	0.0149781
786.381	0.0150949
786.459	0.0148535
786.538	0.0148783
786.616	0.0147817
786.694	0.0148129
786.772	0.0148926
786.850	0.0148280
786.928	0.0149046
787.006	0.0150629
787.084	0.0151910
787.163	0.0152011
787.241	0.0152253
787.319	0.0154534
787.397	0.0155934
787.475	0.0156119
787.553	0.0157204
787.631	0.0158607
787.709	0.0158949
787.788	0.0160186
787.866	0.0160846
787.944	0.0160878
788.022	0.0162698
788.100	0.0161893
788.178	0.0161265
788.256	0.0161803
788.334	0.0160896
788.413	0.0159820
788.491	0.0158843
788.569	0.0158584
788.647	0.0157837
788.725	0.0156928
788.803	0.0155064
788.881	0.0154312
788.959	0.0154964
789.038	0.0152274
789.116	0.0151547
789.194	0.0150912
789.272	0.0152371
789.350	0.0150867
789.428	0.0148965
789.506	0.0148895
789.584	0.0149610
789.663	0.0150195
789.741	0.0149886
789.819	0.0148196
789.897	0.0148065
789.975	0.0149792
790.053	0.0149347
790.131	0.0149501
790.209	0.0150320
790.288	0.0150704
790.366	0.0150815
790.444	0.0152087
790.522	0.0152741
790.600	0.0152496
790.678	0.0152200
790.756	0.0151951
790.834	0.0151512
790.913	0.0151408
790.991	0.0151904
791.069	0.0151164
791.147	0.0149983
791.225	0.0149083
791.303	0.0150381
791.381	0.0149316
791.459	0.0149046
791.538	0.0150337
791.616	0.0149824
791.694	0.0150765
791.772	0.0151066
791.850	0.0150983
791.928	0.0149731
792.006	0.0153561
792.084	0.0154221
792.163	0.0155698
792.241	0.0153976
792.319	0.0153672
792.397	0.0154168
792.475	0.0155898
792.553	0.0155686
792.631	0.0155105
792.709	0.0155950
792.788	0.0154379
792.866	0.0157383
792.944	0.0157854
793.022	0.0157179
793.100	0.0158261
793.178	0.0159260
793.256	0.0159135
793.334	0.0160107
793.413	0.0159909
793.491	0.0160499
793.569	0.0161790
793.647	0.0161723
793.725	0.0160715
793.803	0.0159081
793.881	0.0160358
793.959	0.0161213
794.038	0.0160294
794.116	0.0157526
794.194	0.0158071
794.272	0.0157066
794.350	0.0154585
794.428	0.0156342
794.506	0.0156950
794.584	0.0155194
794.663	0.0156036
794.741	0.0155276
794.819	0.0156085
794.897	0.0154673
794.975	0.0155109
795.053	0.0154726
795.131	0.0155467
795.209	0.0153156
795.288	0.0152890
795.366	0.0151897
795.444	0.0150594
795.522	0.0148874
795.600	0.0148489
795.678	0.0149191
795.756	0.0146324
795.834	0.0144283
795.913	0.0144834
795.991	0.0145806
796.069	0.0145528
796.147	0.0143958
796.225	0.0144691
796.303	0.0146387
796.381	0.0147495
796.459	0.0147910
796.538	0.0149152
796.616	0.0150036
796.694	0.0151401
796.772	0.0151741
796.850	0.0152518
796.928	0.0152256
797.006	0.0153145
797.084	0.0154572
797.163	0.0154521
797.241	0.0154641
797.319	0.0156191
797.397	0.0156448
797.475	0.0155438
797.553	0.0155718
797.631	0.0156491
797.709	0.0156453
797.788	0.0154904
797.866	0.0154652
797.944	0.0155657
798.022	0.0155445
798.100	0.0156048
798.178	0.0155163
798.256	0.0155057
798.334	0.0154813
798.413	0.0155277
798.491	0.0155084
798.569	0.0152044
798.647	0.0153017
798.725	0.0153678
798.803	0.0152419
798.881	0.0151506
798.959	0.0152657
799.038	0.0150441
799.116	0.0152337
799.194	0.0153134
799.272	0.0153709
799.350	0.0152728
799.428	0.0153260
799.506	0.0152624
799.584	0.0154003
799.663	0.0152834
799.741	0.0153460
799.819	0.0154578
799.897	0.0152809
799.975	0.0153332
800.053	0.0153516
800.131	0.0153175
800.209	0.0152885
800.288	0.0152365
800.366	0.0154103
800.444	0.0153694
800.522	0.0153436
800.600	0.0153741
800.678	0.0155431
800.756	0.0154411
800.834	0.0156171
800.913	0.0156367
800.991	0.0156342
801.069	0.0156023
801.147	0.0156980
801.225	0.0154976
801.303	0.0155544
801.381	0.0154911
801.459	0.0154852
801.538	0.0152557
801.616	0.0151248
801.694	0.0150327
801.772	0.0149492
801.850	0.0148380
801.928	0.0148108
802.006	0.0147985
802.084	0.0147540
802.163	0.0146873
802.241	0.0147439
802.319	0.0147221
802.397	0.0149497
802.475	0.0149108
802.553	0.0149380
802.631	0.0149308
802.709	0.0150394
802.788	0.0149660
802.866	0.0149941
802.944	0.0150677
803.022	0.0153645
803.100	0.0151734
803.178	0.0152257
803.256	0.0153119
803.334	0.0154153
803.413	0.0154659
803.491	0.0155035
803.569	0.0156149
803.647	0.0156741
803.725	0.0158794
803.803	0.0158315
803.881	0.0156574
803.959	0.0157193
804.038	0.0157418
804.116	0.0155763
804.194	0.0155971
804.272	0.0155460
804.350	0.0155802
804.428	0.0155060
804.506	0.0152187
804.584	0.0151917
804.663	0.0152850
804.741	0.0152106
804.819	0.0152985
804.897	0.0150780
804.975	0.0151596
805.053	0.0153196
805.131	0.0153959
805.209	0.0152573
805.288	0.0152711
805.366	0.0154708
805.444	0.0153036
805.522	0.0152785
805.600	0.0152956
805.678	0.0153666
805.756	0.0153490
805.834	0.0153143
805.913	0.0151979
805.991	0.0151383
806.069	0.0152759
806.147	0.0152531
806.225	0.0151045
806.303	0.0153258
806.381	0.0153775
806.459	0.0154765
806.538	0.0153922
806.616	0.0152159
806.694	0.0152288
806.772	0.0152322
806.850	0.0152862
806.928	0.0152746
807.006	0.0152698
807.084	0.0152381
807.163	0.0150555
807.241	0.0151038
807.319	0.0150234
807.397	0.0150082
807.475	0.0149942
807.553	0.0149586
807.631	0.0150903
807.709	0.0150473
807.788	0.0151347
807.866	0.0152419
807.944	0.0151989
808.022	0.0153013
808.100	0.0153358
808.178	0.0154690
808.256	0.0153920
808.334	0.0153748
808.413	0.0153482
808.491	0.0152595
808.569	0.0155289
808.647	0.0154508
808.725	0.0154089
808.803	0.0153493
808.881	0.0153185
808.959	0.0153971
809.038	0.0153585
809.116	0.0153748
809.194	0.0153059
809.272	0.0153545
809.350	0.0152798
809.428	0.0153120
809.506	0.0155477
809.584	0.0155288
809.663	0.0155322
809.741	0.0157121
809.819	0.0157745
809.897	0.0157461
809.975	0.0157751
810.053	0.0158769
810.131	0.0159506
810.209	0.0157574
810.288	0.0159209
810.366	0.0158091
810.444	0.0157745
810.522	0.0157628
810.600	0.0157849
810.678	0.0158743
810.756	0.0157250
810.834	0.0158131
810.913	0.0156541
810.991	0.0156438
811.069	0.0156022
811.147	0.0157758
811.225	0.0156470
811.303	0.0155956
811.381	0.0156882
811.459	0.0156385
811.538	0.0155464
811.616	0.0155421
811.694	0.0155153
811.772	0.0154417
811.850	0.0154534
811.928	0.0153688
812.006	0.0154002
812.084	0.0152575
812.163	0.0153378
812.241	0.0153362
812.319	0.0152380
812.397	0.0153085
812.475	0.0153545
812.553	0.0152139
812.631	0.0150974
812.709	0.0151869
812.788	0.0152042
812.866	0.0150360
812.944	0.0149294
813.022	0.0148962
813.100	0.0148936
813.178	0.0148233
813.256	0.0147446
813.334	0.0147493
813.413	0.0146359
813.491	0.0146853
813.569	0.0146036
813.647	0.0147589
813.725	0.0148169
813.803	0.0149308
813.881	0.0148795
813.959	0.0150344
814.038	0.0151702
814.116	0.0150523
814.194	0.0151505
814.272	0.0153169
814.350	0.0153586
814.428	0.0153567
814.506	0.0154404
814.584	0.0154326
814.663	0.0154436
814.741	0.0154403
814.819	0.0154980
814.897	0.0156210
814.975	0.0155020
815.053	0.0154757
815.131	0.0155288
815.209	0.0153107
815.288	0.0155319
815.366	0.0155485
815.444	0.0156606
815.522	0.0156635
815.600	0.0156234
815.678	0.0155796
815.756	0.0156713
815.834	0.0155197
815.913	0.0155736
815.991	0.0156947
816.069	0.0155078
816.147	0.0153400
816.225	0.0154647
816.303	0.0154815
816.381	0.0154060
816.459	0.0155191
816.538	0.0154454
816.616	0.0155142
816.694	0.0154031
816.772	0.0155862
816.850	0.0155197
816.928	0.0155096
817.006	0.0154071
817.084	0.0153926
817.163	0.0155001
817.241	0.0153622
817.319	0.0154464
817.397	0.0153101
817.475	0.0154649
817.553	0.0152299
817.631	0.0152412
817.709	0.0152876
817.788	0.0152951
817.866	0.0152451
817.944	0.0153992
818.022	0.0153203
818.100	0.0152517
818.178	0.0154765
818.256	0.0153873
818.334	0.0153886
818.413	0.0155171
818.491	0.0156310
818.569	0.0155475
818.647	0.0156269
818.725	0.0155754
818.803	0.0156521
818.881	0.0156742
818.959	0.0154955
819.038	0.0157622
819.116	0.0157348
819.194	0.0155132
819.272	0.0154711
819.350	0.0155785
819.428	0.0154436
819.506	0.0153741
819.584	0.0153352
819.663	0.0152788
819.741	0.0153506
819.819	0.0152560
819.897	0.0150278
819.975	0.0151523
820.053	0.0151144
820.131	0.0149488
820.209	0.0151272
820.288	0.0151188
820.366	0.0151217
820.444	0.0149589
820.522	0.0151078
820.600	0.0149614
820.678	0.0150765
820.756	0.0150974
820.834	0.0151591
820.913	0.0151790
820.991	0.0152337
821.069	0.0151927
821.147	0.0152919
821.225	0.0152477
821.303	0.0153336
821.381	0.0154246
821.459	0.0154964
821.538	0.0156949
821.616	0.0156312
821.694	0.0156602
821.772	0.0158284
821.850	0.0158553
821.928	0.0156835
822.006	0.0157085
822.084	0.0157130
822.163	0.0157565
822.241	0.0157140
822.319	0.0156027
822.397	0.0155870
822.475	0.0156050
822.553	0.0156682
822.631	0.0155519
822.709	0.0155360
822.788	0.0154899
822.866	0.0155553
822.944	0.0154993
823.022	0.0154629
823.100	0.0154791
823.178	0.0154253
823.256	0.0154350
823.334	0.0155024
823.413	0.0154758
823.491	0.0154125
823.569	0.0154455
823.647	0.0154022
823.725	0.0155247
823.803	0.0154144
823.881	0.0154464
823.959	0.0154393
824.038	0.0154025
824.116	0.0153972
824.194	0.0154858
824.272	0.0154652
824.350	0.0154415
824.428	0.0152946
824.506	0.0152918
824.584	0.0153474
824.663	0.0153024
824.741	0.0153473
824.819	0.0152798
824.897	0.0152773
824.975	0.0151918
825.053	0.0151499
825.131	0.0152810
825.209	0.0151487
825.288	0.0150944
825.366	0.0151255
825.444	0.0151861
825.522	0.0152473
825.600	0.0151786
825.678	0.0151791
825.756	0.0153365
825.834	0.0153429
825.913	0.0154939
825.991	0.0154499
826.069	0.0155410
826.147	0.0153108
826.225	0.0154781
826.303	0.0155385
826.381	0.0155716
826.459	0.0156199
826.538	0.0155749
826.616	0.0156495
826.694	0.0157006
826.772	0.0157465
826.850	0.0156551
826.928	0.0156445
827.006	0.0157111
827.084	0.0155814
827.163	0.0156126
827.241	0.0157650
827.319	0.0157006
827.397	0.0156590
827.475	0.0156989
827.553	0.0157021
827.631	0.0156464
827.709	0.0156535
827.788	0.0156279
827.866	0.0156850
827.944	0.0157229
828.022	0.0156839
828.100	0.0156757
828.178	0.0156487
828.256	0.0155334
828.334	0.0153532
828.413	0.0154081
828.491	0.0154417
828.569	0.0153410
828.647	0.0153979
828.725	0.0152606
828.803	0.0151475
828.881	0.0151912
828.959	0.0152171
829.038	0.0152659
829.116	0.0151952
829.194	0.0152197
829.272	0.0151841
829.350	0.0150459
829.428	0.0151170
829.506	0.0152843
829.584	0.0152431
829.663	0.0150366
829.741	0.0149923
829.819	0.0152256
829.897	0.0153397
829.975	0.0149580
830.053	0.0151888
830.131	0.0151770
830.209	0.0153311
830.288	0.0152045
830.366	0.0153971
830.444	0.0154600
830.522	0.0155080
830.600	0.0153483
830.678	0.0154032
830.756	0.0153912
830.834	0.0153436
830.913	0.0153842
830.991	0.0153099
831.069	0.0153384
831.147	0.0152570
831.225	0.0151897
831.303	0.0152755
831.381	0.0152103
831.459	0.0151435
831.538	0.0151044
831.616	0.0150621
831.694	0.0149934
831.772	0.0151202
831.850	0.0151070
831.928	0.0151028
832.006	0.0151733
832.084	0.0151105
832.163	0.0151943
832.241	0.0152934
832.319	0.0152182
832.397	0.0153214
832.475	0.0153792
832.553	0.0153091
832.631	0.0152203
832.709	0.0153539
832.788	0.0152812
832.866	0.0153530
832.944	0.0154612
833.022	0.0153513
833.100	0.0153833
833.178	0.0153379
833.256	0.0154462
833.334	0.0154936
833.413	0.0154259
833.491	0.0155723
833.569	0.0153958
833.647	0.0154842
833.725	0.0154189
833.803	0.0154887
833.881	0.0155114
833.959	0.0155140
834.038	0.0155157
834.116	0.0155147
834.194	0.0154716
834.272	0.0155377
834.350	0.0155151
834.428	0.0155682
834.506	0.0153705
834.584	0.0156058
834.663	0.0153458
834.741	0.0155125
834.819	0.0153378
834.897	0.0153089
834.975	0.0154247
835.053	0.0152686
835.131	0.0152528
835.209	0.0152293
835.288	0.0152691
835.366	0.0152728
835.444	0.0149535
835.522	0.0151645
835.600	0.0151781
835.678	0.0151989
835.756	0.0151878
835.834	0.0151948
835.913	0.0151131
835.991	0.0152242
836.069	0.0151714
836.147	0.0151981
836.225	0.0153815
836.303	0.0153536
836.381	0.0152753
836.459	0.0151975
836.538	0.0153146
836.616	0.0153164
836.694	0.0153435
836.772	0.0153736
836.850	0.0154033
836.928	0.0153740
837.006	0.0152203
837.084	0.0152604
837.163	0.0152255
837.241	0.0152718
837.319	0.0154175
837.397	0.0151232
837.475	0.0151778
837.553	0.0151698
837.631	0.0151825
837.709	0.0150462
837.788	0.0151225
837.866	0.0149665
837.944	0.0150191
838.022	0.0151310
838.100	0.0151893
838.178	0.0151745
838.256	0.0152385
838.334	0.0151507
838.413	0.0153570
838.491	0.0154597
838.569	0.0154129
838.647	0.0155668
838.725	0.0155078
838.803	0.0156214
838.881	0.0155096
838.959	0.0156509
839.038	0.0155932
839.116	0.0155888
839.194	0.0154652
839.272	0.0155528
839.350	0.0154826
839.428	0.0154655
839.506	0.0154648
839.584	0.0155082
839.663	0.0153687
839.741	0.0152777
839.819	0.0153905
839.897	0.0153931
839.975	0.0153799
840.053	0.0153718
840.131	0.0154311
840.209	0.0153028
840.288	0.0154124
840.366	0.0153368
840.444	0.0152197
840.522	0.0153319
840.600	0.0151141
840.678	0.0153542
840.756	0.0153442
840.834	0.0152786
840.913	0.0152052
840.991	0.0153206
841.069	0.0153146
841.147	0.0153654
841.225	0.0153395
841.303	0.0154703
841.381	0.0154263
841.459	0.0153529
841.538	0.0154693
841.616	0.0155193
841.694	0.0155188
841.772	0.0153796
841.850	0.0155106
841.928	0.0154890
842.006	0.0154617
842.084	0.0154202
842.163	0.0152856
842.241	0.0154549
842.319	0.0154827
842.397	0.0153027
842.475	0.0153379
842.553	0.0153251
842.631	0.0153579
842.709	0.0154108
842.788	0.0152875
842.866	0.0152386
842.944	0.0153112
843.022	0.0154324
843.100	0.0154885
843.178	0.0154290
843.256	0.0153787
843.334	0.0153532
843.413	0.0153681
843.491	0.0154659
843.569	0.0156051
843.647	0.0153621
843.725	0.0153329
843.803	0.0153915
843.881	0.0153452
843.959	0.0154242
844.038	0.0153049
844.116	0.0153577
844.194	0.0154039
844.272	0.0152953
844.350	0.0153878
844.428	0.0154483
844.506	0.0152840
844.584	0.0153327
844.663	0.0154154
844.741	0.0154980
844.819	0.0154226
844.897	0.0154683
844.975	0.0153548
845.053	0.0154083
845.131	0.0153528
845.209	0.0153979
845.288	0.0155507
845.366	0.0156084
845.444	0.0155438
845.522	0.0154968
845.600	0.0154362
845.678	0.0154961
845.756	0.0155146
845.834	0.0155325
845.913	0.0155537
845.991	0.0155405
846.069	0.0155502
846.147	0.0157036
846.225	0.0156118
846.303	0.0157552
846.381	0.0155251
846.459	0.0156055
846.538	0.0155549
846.616	0.0157462
846.694	0.0157323
846.772	0.0156765
846.850	0.0154943
846.928	0.0156492
847.006	0.0154097
847.084	0.0154756
847.163	0.0155059
847.241	0.0154211
847.319	0.0154948
847.397	0.0155291
847.475	0.0153833
847.553	0.0152992
847.631	0.0154205
847.709	0.0154889
847.788	0.0154115
847.866	0.0153965
847.944	0.0152594
848.022	0.0153183
848.100	0.0152845
848.178	0.0152354
848.256	0.0153700
848.334	0.0153117
848.413	0.0154433
848.491	0.0154240
848.569	0.0153674
848.647	0.0153345
848.725	0.0152950
848.803	0.0154436
848.881	0.0152795
848.959	0.0153729
849.038	0.0154233
849.116	0.0153990
849.194	0.0152694
849.272	0.0152673
849.350	0.0152495
849.428	0.0152340
849.506	0.0152947
849.584	0.0152067
849.663	0.0151048
849.741	0.0151596
849.819	0.0152215
849.897	0.0151396
849.975	0.0153864
850.053	0.0153481
850.131	0.0153271
850.209	0.0153856
850.288	0.0153586
850.366	0.0154757
850.444	0.0154601
850.522	0.0156116
850.600	0.0155645
850.678	0.0155883
850.756	0.0156306
850.834	0.0156960
850.913	0.0156510
850.991	0.0157458
851.069	0.0157030
851.147	0.0157458
851.225	0.0157034
851.303	0.0156672
851.381	0.0158749
851.459	0.0158076
851.538	0.0155955
851.616	0.0156321
851.694	0.0156273
851.772	0.0156149
851.850	0.0156584
851.928	0.0156409
852.006	0.0156715
852.084	0.0155595
852.163	0.0155836
852.241	0.0155097
852.319	0.0155120
852.397	0.0154609
852.475	0.0154465
852.553	0.0154271
852.631	0.0153999
852.709	0.0154866
852.788	0.0155627
852.866	0.0154363
852.944	0.0154360
853.022	0.0153259
853.100	0.0152379
853.178	0.0153271
853.256	0.0151722
853.334	0.0153514
853.413	0.0152210
853.491	0.0153166
853.569	0.0153925
853.647	0.0152209
853.725	0.0151904
853.803	0.0152187
853.881	0.0152536
853.959	0.0152608
854.038	0.0152207
854.116	0.0153085
854.194	0.0152172
854.272	0.0151771
854.350	0.0152618
854.428	0.0152495
854.506	0.0152150
854.584	0.0153315
854.663	0.0152012
854.741	0.0154204
854.819	0.0153889
854.897	0.0152520
854.975	0.0153597
855.053	0.0152606
855.131	0.0152679
855.209	0.0152765
855.288	0.0152606
855.366	0.0152095
855.444	0.0152862
855.522	0.0153745
855.600	0.0153071
855.678	0.0152571
855.756	0.0153751
855.834	0.0153746
855.913	0.0153086
855.991	0.0152760
856.069	0.0154492
856.147	0.0152549
856.225	0.0151971
856.303	0.0154095
856.381	0.0153419
856.459	0.0153552
856.538	0.0153620
856.616	0.0153112
856.694	0.0154488
856.772	0.0156090
856.850	0.0154778
856.928	0.0154823
857.006	0.0155447
857.084	0.0155128
857.163	0.0153802
857.241	0.0154896
857.319	0.0154343
857.397	0.0154405
857.475	0.0153688
857.553	0.0152968
857.631	0.0154648
857.709	0.0152970
857.788	0.0151804
857.866	0.0153139
857.944	0.0152105
858.022	0.0153059
858.100	0.0153218
858.178	0.0152735
858.256	0.0153715
858.334	0.0153001
858.413	0.0151921
858.491	0.0152069
858.569	0.0151503
858.647	0.0153043
858.725	0.0152688
858.803	0.0151959
858.881	0.0150861
858.959	0.0151729
859.038	0.0151096
859.116	0.0150253
859.194	0.0150213
859.272	0.0149412
859.350	0.0150580
859.428	0.0150063
859.506	0.0150175
859.584	0.0149976
859.663	0.0149826
859.741	0.0151242
859.819	0.0149673
859.897	0.0151793
859.975	0.0151338
860.053	0.0151997
860.131	0.0151589
860.209	0.0152023
860.288	0.0151981
860.366	0.0152841
860.444	0.0153333
860.522	0.0152332
860.600	0.0153253
860.678	0.0153136
860.756	0.0153429
860.834	0.0152863
860.913	0.0154028
860.991	0.0153567
861.069	0.0154436
861.147	0.0153460
861.225	0.0153559
861.303	0.0153221
861.381	0.0152319
861.459	0.0151727
861.538	0.0151671
861.616	0.0151891
861.694	0.0152821
861.772	0.0152861
861.850	0.0152579
861.928	0.0152380
862.006	0.0152388
862.084	0.0151346
862.163	0.0153207
862.241	0.0151951
862.319	0.0151348
862.397	0.0152048
862.475	0.0151213
862.553	0.0152452
862.631	0.0152582
862.709	0.0153003
862.788	0.0152998
862.866	0.0153310
862.944	0.0152068
863.022	0.0151890
863.100	0.0151021
863.178	0.0153156
863.256	0.0153180
863.334	0.0152231
863.413	0.0151429
863.491	0.0152344
863.569	0.0151563
863.647	0.0152382
863.725	0.0152904
863.803	0.0153689
863.881	0.0152690
863.959	0.0152979
864.038	0.0153082
864.116	0.0154012
864.194	0.0154145
864.272	0.0153699
864.350	0.0152248
864.428	0.0154525
864.506	0.0155201
864.584	0.0154880
864.663	0.0154881
864.741	0.0153600
864.819	0.0154015
864.897	0.0154644
864.975	0.0155115
865.053	0.0153961
865.131	0.0153523
865.209	0.0152937
865.288	0.0152323
865.366	0.0151866
865.444	0.0153512
865.522	0.0152400
865.600	0.0153040
865.678	0.0152962
865.756	0.0151572
865.834	0.0153851
865.913	0.0152554
865.991	0.0153295
866.069	0.0152154
866.147	0.0153125
866.225	0.0153168
866.303	0.0153192
866.381	0.0151945
866.459	0.0153284
866.538	0.0153536
866.616	0.0153443
866.694	0.0152876
866.772	0.0152509
866.850	0.0153290
866.928	0.0153633
867.006	0.0153800
867.084	0.0154488
867.163	0.0154204
867.241	0.0152824
867.319	0.0154745
867.397	0.0154759
867.475	0.0153378
867.553	0.0153065
867.631	0.0154139
867.709	0.0153671
867.788	0.0153498
867.866	0.0154877
867.944	0.0154194
868.022	0.0155527
868.100	0.0153109
868.178	0.0153822
868.256	0.0152283
868.334	0.0152195
868.413	0.0152896
868.491	0.0155462
868.569	0.0154881
868.647	0.0154639
868.725	0.0153767
868.803	0.0155049
868.881	0.0155358
868.959	0.0155012
869.038	0.0155727
869.116	0.0156214
869.194	0.0155539
869.272	0.0155766
869.350	0.0157167
869.428	0.0154913
869.506	0.0155850
869.584	0.0155311
869.663	0.0155752
869.741	0.0156363
869.819	0.0155604
869.897	0.0156181
869.975	0.0155945
870.053	0.0153974
870.131	0.0154998
870.209	0.0155647
870.288	0.0156583
870.366	0.0155643
870.444	0.0154572
870.522	0.0154167
870.600	0.0153159
870.678	0.0154015
870.756	0.0154337
870.834	0.0153646
870.913	0.0154052
870.991	0.0153211
871.069	0.0153793
871.147	0.0152991
871.225	0.0153982
871.303	0.0153823
871.381	0.0153790
871.459	0.0153816
871.538	0.0152467
871.616	0.0153133
871.694	0.0153638
871.772	0.0153981
871.850	0.0153897
871.928	0.0155460
872.006	0.0154128
872.084	0.0154359
872.163	0.0152899
872.241	0.0154324
872.319	0.0154375
872.397	0.0152691
872.475	0.0153644
872.553	0.0154211
872.631	0.0153301
872.709	0.0153684
872.788	0.0153170
872.866	0.0152635
872.944	0.0154454
873.022	0.0152627
873.100	0.0153217
873.178	0.0153257
873.256	0.0153161
873.334	0.0153820
873.413	0.0153954
873.491	0.0154300
873.569	0.0154308
873.647	0.0153489
873.725	0.0154545
873.803	0.0154638
873.881	0.0153725
873.959	0.0154115
874.038	0.0154991
874.116	0.0154725
874.194	0.0154681
874.272	0.0153735
874.350	0.0154400
874.428	0.0152816
874.506	0.0154010
874.584	0.0152346
874.663	0.0154324
874.741	0.0155089
874.819	0.0152864
874.897	0.0153371
874.975	0.0151860
875.053	0.0153282
875.131	0.0152686
875.209	0.0153453
875.288	0.0152566
875.366	0.0152638
875.444	0.0153530
875.522	0.0154382
875.600	0.0152930
875.678	0.0152925
875.756	0.0154474
875.834	0.0153919
875.913	0.0153635
875.991	0.0154907
876.069	0.0155858
876.147	0.0154050
876.225	0.0154884
876.303	0.0155105
876.381	0.0154334
876.459	0.0154192
876.538	0.0154091
876.616	0.0154536
876.694	0.0155140
876.772	0.0153538
876.850	0.0153693
876.928	0.0153725
877.006	0.0153357
877.084	0.0152538
877.163	0.0152491
877.241	0.0152105
877.319	0.0151724
877.397	0.0152419
877.475	0.0152129
877.553	0.0151882
877.631	0.0150748
877.709	0.0150816
877.788	0.0152018
877.866	0.0151089
877.944	0.0151408
878.022	0.0151617
878.100	0.0151232
878.178	0.0150519
878.256	0.0151505
878.334	0.0150809
878.413	0.0151867
878.491	0.0151588
878.569	0.0151099
878.647	0.0151680
878.725	0.0151995
878.803	0.0151353
878.881	0.0152753
878.959	0.0152063
879.038	0.0153442
879.116	0.0154037
879.194	0.0154714
879.272	0.0153824
879.350	0.0153429
879.428	0.0153203
879.506	0.0153887
879.584	0.0154746
879.663	0.0154350
879.741	0.0156078
879.819	0.0154518
879.897	0.0153590
879.975	0.0154533
880.053	0.0154676
880.131	0.0155118
880.209	0.0155226
880.288	0.0153628
880.366	0.0154422
880.444	0.0154169
880.522	0.0154335
880.600	0.0152566
880.678	0.0152937
880.756	0.0152458
880.834	0.0153115
880.913	0.0153373
880.991	0.0154144
881.069	0.0151598
881.147	0.0152187
881.225	0.0152090
881.303	0.0152617
881.381	0.0153739
881.459	0.0153011
881.538	0.0151950
881.616	0.0152077
881.694	0.0152586
881.772	0.0152336
881.850	0.0153341
881.928	0.0152651
882.006	0.0152978
882.084	0.0153392
882.163	0.0155422
882.241	0.0153539
882.319	0.0153075
882.397	0.0153716
882.475	0.0154377
882.553	0.0153975
882.631	0.0154262
882.709	0.0154383
882.788	0.0154771
882.866	0.0154199
882.944	0.0154128
883.022	0.0152009
883.100	0.0153500
883.178	0.0153223
883.256	0.0153680
883.334	0.0152057
883.413	0.0152220
883.491	0.0152376
883.569	0.0151922
883.647	0.0151732
883.725	0.0151389
883.803	0.0151414
883.881	0.0151520
883.959	0.0151478
884.038	0.0151365
884.116	0.0153008
884.194	0.0153183
884.272	0.0151900
884.350	0.0151814
884.428	0.0152219
884.506	0.0151973
884.584	0.0152760
884.663	0.0152484
884.741	0.0153392
884.819	0.0152863
884.897	0.0152988
884.975	0.0153465
885.053	0.0153484
885.131	0.0153838
885.209	0.0153073
885.288	0.0154120
885.366	0.0154250
885.444	0.0154228
885.522	0.0153898
885.600	0.0153230
885.678	0.0154731
885.756	0.0154722
885.834	0.0154685
885.913	0.0154691
885.991	0.0154424
886.069	0.0154900
886.147	0.0154520
886.225	0.0152760
886.303	0.0152826
886.381	0.0152875
886.459	0.0152937
886.538	0.0152655
886.616	0.0151783
886.694	0.0152095
886.772	0.0152385
886.850	0.0152822
886.928	0.0152583
887.006	0.0151723
887.084	0.0152490
887.163	0.0152406
887.241	0.0154179
887.319	0.0154317
887.397	0.0151299
887.475	0.0151801
887.553	0.0153554
887.631	0.0152741
887.709	0.0153392
887.788	0.0153756
887.866	0.0153450
887.944	0.0153167
888.022	0.0151601
888.100	0.0152855
888.178	0.0152369
888.256	0.0154240
888.334	0.0152960
888.413	0.0151065
888.491	0.0152815
888.569	0.0154494
888.647	0.0152576
888.725	0.0153175
888.803	0.0153932
888.881	0.0152941
888.959	0.0152628
889.038	0.0153941
889.116	0.0152931
889.194	0.0154059
889.272	0.0153960
889.350	0.0154270
889.428	0.0154321
889.506	0.0154746
889.584	0.0153831
889.663	0.0152979
889.741	0.0153456
889.819	0.0153644
889.897	0.0152952
889.975	0.0153077
890.053	0.0153347
890.131	0.0152735
890.209	0.0152412
890.288	0.0152613
890.366	0.0151865
890.444	0.0151807
890.522	0.0152907
890.600	0.0153028
890.678	0.0152504
890.756	0.0151997
890.834	0.0151685
890.913	0.0152674
890.991	0.0151781
891.069	0.0152553
891.147	0.0152910
891.225	0.0153359
891.303	0.0152803
891.381	0.0154694
891.459	0.0155546
891.538	0.0154572
891.616	0.0153526
891.694	0.0156687
891.772	0.0156557
891.850	0.0156161
891.928	0.0154523
892.006	0.0156475
892.084	0.0155733
892.163	0.0156587
892.241	0.0156237
892.319	0.0156425
892.397	0.0156782
892.475	0.0154301
892.553	0.0154596
892.631	0.0154031
892.709	0.0154046
892.788	0.0154065
892.866	0.0153374
892.944	0.0153793
893.022	0.0151698
893.100	0.0152232
893.178	0.0150601
893.256	0.0150883
893.334	0.0151515
893.413	0.0151128
893.491	0.0150378
893.569	0.0149841
893.647	0.0151056
893.725	0.0149918
893.803	0.0150724
893.881	0.0151154
893.959	0.0149695
894.038	0.0153057
894.116	0.0151604
894.194	0.0151832
894.272	0.0152343
894.350	0.0153165
894.428	0.0152136
894.506	0.0152921
894.584	0.0153437
894.663	0.0153254
894.741	0.0155705
894.819	0.0154392
894.897	0.0154955
894.975	0.0155534
895.053	0.0156605
895.131	0.0156429
895.209	0.0157197
895.288	0.0155982
895.366	0.0155788
895.444	0.0156020
895.522	0.0154278
895.600	0.0155988
895.678	0.0154910
895.756	0.0154189
895.834	0.0154779
895.913	0.0154131
895.991	0.0153012
896.069	0.0153400
896.147	0.0152776
896.225	0.0152554
896.303	0.0153226
896.381	0.0152990
896.459	0.0152990
896.538	0.0152654
896.616	0.0154218
896.694	0.0153204
896.772	0.0153162
896.850	0.0153632
896.928	0.0153440
897.006	0.0153475
897.084	0.0155044
897.163	0.0154621
897.241	0.0153907
897.319	0.0155125
897.397	0.0154859
897.475	0.0156052
897.553	0.0155187
897.631	0.0154410
897.709	0.0153806
897.788	0.0154047
897.866	0.0154495
897.944	0.0154357
898.022	0.0153909
898.100	0.0154128
898.178	0.0154530
898.256	0.0154388
898.334	0.0155336
898.413	0.0153508
898.491	0.0154024
898.569	0.0155235
898.647	0.0153628
898.725	0.0153960
898.803	0.0153357
898.881	0.0153819
898.959	0.0154069
899.038	0.0154111
899.116	0.0153258
899.194	0.0154257
899.272	0.0153986
899.350	0.0153600
899.428	0.0153196
899.506	0.0152660
899.584	0.0152661
899.663	0.0151659
899.741	0.0152133
899.819	0.0152010
899.897	0.0153905
899.975	0.0153448
900.053	0.0152088
900.131	0.0151881
900.209	0.0153481
900.288	0.0154540
900.366	0.0154488
900.444	0.0154288
900.522	0.0156055
900.600	0.0154994
900.678	0.0155488
900.756	0.0155341
900.834	0.0154992
900.913	0.0155969
900.991	0.0155450
901.069	0.0155137
901.147	0.0154848
901.225	0.0154592
901.303	0.0153820
901.381	0.0154345
901.459	0.0154889
901.538	0.0154598
901.616	0.0153626
901.694	0.0152910
901.772	0.0152834
901.850	0.0153095
901.928	0.0151395
902.006	0.0151977
902.084	0.0152686
902.163	0.0151889
902.241	0.0151012
902.319	0.0151205
902.397	0.0151558
902.475	0.0151830
902.553	0.0150689
902.631	0.0150876
902.709	0.0149855
902.788	0.0153321
902.866	0.0153017
902.944	0.0152640
903.022	0.0153693
903.100	0.0153882
903.178	0.0154494
903.256	0.0155812
903.334	0.0155304
903.413	0.0155112
903.491	0.0156078
903.569	0.0154498
903.647	0.0155731
903.725	0.0155045
903.803	0.0154163
903.881	0.0153633
903.959	0.0154935
904.038	0.0153003
904.116	0.0152531
904.194	0.0152854
904.272	0.0152169
904.350	0.0151392
904.428	0.0152027
904.506	0.0152786
904.584	0.0151812
904.663	0.0152345
904.741	0.0152212
904.819	0.0152957
904.897	0.0154240
904.975	0.0154035
905.053	0.0154733
905.131	0.0153958
905.209	0.0154671
905.288	0.0155396
905.366	0.0155769
905.444	0.0154255
905.522	0.0155000
905.600	0.0156140
905.678	0.0155384
905.756	0.0155998
905.834	0.0154948
905.913	0.0155878
905.991	0.0154846
906.069	0.0155202
906.147	0.0154251
906.225	0.0156366
906.303	0.0153929
906.381	0.0152945
906.459	0.0154283
906.538	0.0152869
906.616	0.0154462
906.694	0.0152738
906.772	0.0152954
906.850	0.0152152
906.928	0.0152132
907.006	0.0154031
907.084	0.0154694
907.163	0.0152189
907.241	0.0152863
907.319	0.0153239
907.397	0.0154679
907.475	0.0154112
907.553	0.0153493
907.631	0.0154931
907.709	0.0154946
907.788	0.0154675
907.866	0.0154093
907.944	0.0154040
908.022	0.0155486
908.100	0.0155260
908.178	0.0155357
908.256	0.0154745
908.334	0.0155922
908.413	0.0156408
908.491	0.0156294
908.569	0.0156760
908.647	0.0157325
908.725	0.0156541
908.803	0.0156429
908.881	0.0155656
908.959	0.0155347
909.038	0.0156831
909.116	0.0156987
909.194	0.0156110
909.272	0.0155368
909.350	0.0155249
909.428	0.0155018
909.506	0.0152813
909.584	0.0154775
909.663	0.0154442
909.741	0.0154343
909.819	0.0152738
909.897	0.0153216
909.975	0.0151775
910.053	0.0152914
910.131	0.0152523
910.209	0.0153091
910.288	0.0152654
910.366	0.0152429
910.444	0.0153107
910.522	0.0151050
910.600	0.0151908
910.678	0.0154971
910.756	0.0152868
910.834	0.0153213
910.913	0.0152734
910.991	0.0153573
911.069	0.0153297
911.147	0.0153096
911.225	0.0153817
911.303	0.0153600
911.381	0.0153140
911.459	0.0153104
911.538	0.0153710
911.616	0.0154285
911.694	0.0153685
911.772	0.0153508
911.850	0.0153797
911.928	0.0153553
912.006	0.0152007
912.084	0.0154191
912.163	0.0153568
912.241	0.0153570
912.319	0.0152626
912.397	0.0153664
912.475	0.0153377
912.553	0.0153891
912.631	0.0152164
912.709	0.0152592
912.788	0.0153014
912.866	0.0152905
912.944	0.0154329
913.022	0.0154110
913.100	0.0154806
913.178	0.0153983
913.256	0.0154893
913.334	0.0154943
913.413	0.0155951
913.491	0.0156216
913.569	0.0155495
913.647	0.0155614
913.725	0.0156964
913.803	0.0154846
913.881	0.0154258
913.959	0.0154773
914.038	0.0153349
914.116	0.0153951
914.194	0.0154171
914.272	0.0152325
914.350	0.0152467
914.428	0.0152869
914.506	0.0152444
914.584	0.0153033
914.663	0.0153686
914.741	0.0152357
914.819	0.0153208
914.897	0.0154103
914.975	0.0152373
915.053	0.0152733
915.131	0.0152382
915.209	0.0152065
915.288	0.0153391
915.366	0.0152780
915.444	0.0151749
915.522	0.0152256
915.600	0.0152616
915.678	0.0150898
915.756	0.0151620
915.834	0.0151317
915.913	0.0152477
915.991	0.0151778
916.069	0.0153470
916.147	0.0153153
916.225	0.0152822
916.303	0.0151957
916.381	0.0151591
916.459	0.0155009
916.538	0.0152647
916.616	0.0154033
916.694	0.0154392
916.772	0.0154768
916.850	0.0154310
916.928	0.0153536
917.006	0.0153527
917.084	0.0154768
917.163	0.0154197
917.241	0.0153550
917.319	0.0151661
917.397	0.0153959
917.475	0.0152441
917.553	0.0152441
917.631	0.0152397
917.709	0.0151878
917.788	0.0151599
917.866	0.0151009
917.944	0.0152998
918.022	0.0152127
918.100	0.0151015
918.178	0.0150378
918.256	0.0149396
918.334	0.0151529
918.413	0.0151653
918.491	0.0150166
918.569	0.0151427
918.647	0.0149830
918.725	0.0151769
918.803	0.0151700
918.881	0.0151765
918.959	0.0153974
919.038	0.0153170
919.116	0.0153923
919.194	0.0155635
919.272	0.0155710
919.350	0.0154601
919.428	0.0154473
919.506	0.0153832
919.584	0.0155621
919.663	0.0155631
919.741	0.0154513
919.819	0.0153011
919.897	0.0153072
