05/20/2022	21:10:13	Ver.	4.1	UNKNOWN
Optical Delay	599.975067	Delta X		0.078125	Sweeps	1	Scan Rate	0/0
Coordinates	Axis 1	NaN	Axis 2	NaN	Axis 3	NaN	Axis 4	NaN	Axis 5	NaN	Axis 6	0.000000
TX Power	0.000000	RX Power	0.000000

599.975	0.0152898
600.053	0.0153515
600.131	0.0152487
600.209	0.0152263
600.288	0.0153931
600.366	0.0153679
600.444	0.0152810
600.522	0.0152120
600.600	0.0153053
600.678	0.0153680
600.756	0.0152603
600.834	0.0153811
600.913	0.0154092
600.991	0.0153088
601.069	0.0154559
601.147	0.0152093
601.225	0.0151548
601.303	0.0153434
601.381	0.0151596
601.459	0.0152332
601.538	0.0153793
601.616	0.0153434
601.694	0.0154086
601.772	0.0152502
601.850	0.0153954
601.928	0.0152273
602.006	0.0153240
602.084	0.0153316
602.163	0.0153440
602.241	0.0152036
602.319	0.0152795
602.397	0.0152328
602.475	0.0153278
602.553	0.0153094
602.631	0.0152333
602.709	0.0153431
602.788	0.0153836
602.866	0.0153768
602.944	0.0153484
603.022	0.0153655
603.100	0.0151993
603.178	0.0152860
603.256	0.0153073
603.334	0.0153163
603.413	0.0153455
603.491	0.0154160
603.569	0.0152554
603.647	0.0152795
603.725	0.0150913
603.803	0.0152695
603.881	0.0153927
603.959	0.0152891
604.038	0.0151952
604.116	0.0151133
604.194	0.0151917
604.272	0.0151939
604.350	0.0152482
604.428	0.0152430
604.506	0.0151939
604.584	0.0151825
604.663	0.0153982
604.741	0.0153302
604.819	0.0152409
604.897	0.0154105
604.975	0.0152509
605.053	0.0152500
605.131	0.0152547
605.209	0.0151952
605.288	0.0152120
605.366	0.0152381
605.444	0.0151488
605.522	0.0153412
605.600	0.0151988
605.678	0.0152892
605.756	0.0152523
605.834	0.0152678
605.913	0.0153066
605.991	0.0151067
606.069	0.0152232
606.147	0.0152528
606.225	0.0151646
606.303	0.0152744
606.381	0.0152515
606.459	0.0152116
606.538	0.0152848
606.616	0.0152928
606.694	0.0153848
606.772	0.0152746
606.850	0.0153999
606.928	0.0152868
607.006	0.0153860
607.084	0.0152598
607.163	0.0151777
607.241	0.0154250
607.319	0.0152118
607.397	0.0151438
607.475	0.0152802
607.553	0.0152454
607.631	0.0152778
607.709	0.0152815
607.788	0.0152678
607.866	0.0151389
607.944	0.0151896
608.022	0.0153917
608.100	0.0153082
608.178	0.0151772
608.256	0.0155109
608.334	0.0153313
608.413	0.0152981
608.491	0.0153681
608.569	0.0152881
608.647	0.0152240
608.725	0.0152926
608.803	0.0152622
608.881	0.0152780
608.959	0.0151630
609.038	0.0151380
609.116	0.0151650
609.194	0.0153410
609.272	0.0153594
609.350	0.0152380
609.428	0.0152798
609.506	0.0150764
609.584	0.0151043
609.663	0.0151862
609.741	0.0152552
609.819	0.0151801
609.897	0.0151053
609.975	0.0151312
610.053	0.0151639
610.131	0.0151452
610.209	0.0151810
610.288	0.0151620
610.366	0.0151844
610.444	0.0150734
610.522	0.0150790
610.600	0.0151418
610.678	0.0150959
610.756	0.0151597
610.834	0.0151761
610.913	0.0152124
610.991	0.0152224
611.069	0.0151308
611.147	0.0154100
611.225	0.0152419
611.303	0.0151016
611.381	0.0152855
611.459	0.0152527
611.538	0.0152139
611.616	0.0152281
611.694	0.0152988
611.772	0.0151322
611.850	0.0151611
611.928	0.0152832
612.006	0.0152090
612.084	0.0150973
612.163	0.0152670
612.241	0.0152223
612.319	0.0152448
612.397	0.0152975
612.475	0.0153587
612.553	0.0151444
612.631	0.0152152
612.709	0.0152804
612.788	0.0152607
612.866	0.0150793
612.944	0.0152682
613.022	0.0152422
613.100	0.0151625
613.178	0.0151834
613.256	0.0153822
613.334	0.0152599
613.413	0.0152383
613.491	0.0153912
613.569	0.0154546
613.647	0.0152276
613.725	0.0152798
613.803	0.0152197
613.881	0.0152836
613.959	0.0152131
614.038	0.0152891
614.116	0.0154330
614.194	0.0153593
614.272	0.0154000
614.350	0.0151428
614.428	0.0152431
614.506	0.0154089
614.584	0.0152744
614.663	0.0155784
614.741	0.0153021
614.819	0.0153062
614.897	0.0154156
614.975	0.0151450
615.053	0.0152103
615.131	0.0152901
615.209	0.0153963
615.288	0.0152716
615.366	0.0153436
615.444	0.0151767
615.522	0.0152473
615.600	0.0153561
615.678	0.0153589
615.756	0.0152252
615.834	0.0151730
615.913	0.0153527
615.991	0.0153088
616.069	0.0153085
616.147	0.0152616
616.225	0.0152560
616.303	0.0150736
616.381	0.0152192
616.459	0.0152451
616.538	0.0152351
616.616	0.0153787
616.694	0.0152986
616.772	0.0153477
616.850	0.0152283
616.928	0.0152483
617.006	0.0154025
617.084	0.0153005
617.163	0.0153487
617.241	0.0153849
617.319	0.0153786
617.397	0.0152474
617.475	0.0151400
617.553	0.0152705
617.631	0.0152692
617.709	0.0153360
617.788	0.0153104
617.866	0.0153070
617.944	0.0152835
618.022	0.0153920
618.100	0.0152415
618.178	0.0152748
618.256	0.0152168
618.334	0.0152480
618.413	0.0152803
618.491	0.0152416
618.569	0.0152374
618.647	0.0153282
618.725	0.0152888
618.803	0.0152924
618.881	0.0152744
618.959	0.0153414
619.038	0.0152999
619.116	0.0152757
619.194	0.0152737
619.272	0.0154460
619.350	0.0152418
619.428	0.0151977
619.506	0.0152445
619.584	0.0151524
619.663	0.0151170
619.741	0.0152161
619.819	0.0151604
619.897	0.0153008
619.975	0.0151720
620.053	0.0149774
620.131	0.0151843
620.209	0.0152721
620.288	0.0152189
620.366	0.0151324
620.444	0.0151920
620.522	0.0151698
620.600	0.0150617
620.678	0.0150895
620.756	0.0153207
620.834	0.0151425
620.913	0.0152428
620.991	0.0152664
621.069	0.0151977
621.147	0.0151700
621.225	0.0150381
621.303	0.0151190
621.381	0.0153105
621.459	0.0152722
621.538	0.0152531
621.616	0.0152146
621.694	0.0152428
621.772	0.0151645
621.850	0.0152189
621.928	0.0151793
622.006	0.0151449
622.084	0.0152042
622.163	0.0152230
622.241	0.0153173
622.319	0.0152480
622.397	0.0152279
622.475	0.0152427
622.553	0.0151957
622.631	0.0152517
622.709	0.0153768
622.788	0.0152676
622.866	0.0151030
622.944	0.0151445
623.022	0.0153223
623.100	0.0152821
623.178	0.0153483
623.256	0.0153745
623.334	0.0151989
623.413	0.0152374
623.491	0.0153901
623.569	0.0152747
623.647	0.0152486
623.725	0.0154159
623.803	0.0152447
623.881	0.0153694
623.959	0.0153296
624.038	0.0153480
624.116	0.0153185
624.194	0.0153056
624.272	0.0154133
624.350	0.0153788
624.428	0.0153117
624.506	0.0153444
624.584	0.0153780
624.663	0.0153103
624.741	0.0154015
624.819	0.0153633
624.897	0.0152544
624.975	0.0153029
625.053	0.0154336
625.131	0.0151475
625.209	0.0152813
625.288	0.0153618
625.366	0.0152810
625.444	0.0152480
625.522	0.0153243
625.600	0.0150840
625.678	0.0152261
625.756	0.0152229
625.834	0.0153963
625.913	0.0151821
625.991	0.0153047
626.069	0.0151304
626.147	0.0151929
626.225	0.0153216
626.303	0.0153585
626.381	0.0152968
626.459	0.0152383
626.538	0.0152079
626.616	0.0153639
626.694	0.0153851
626.772	0.0152645
626.850	0.0153262
626.928	0.0153323
627.006	0.0154133
627.084	0.0153474
627.163	0.0153978
627.241	0.0153973
627.319	0.0153825
627.397	0.0153092
627.475	0.0153158
627.553	0.0153011
627.631	0.0153745
627.709	0.0153246
627.788	0.0153919
627.866	0.0151946
627.944	0.0152985
628.022	0.0152209
628.100	0.0153772
628.178	0.0154072
628.256	0.0152956
628.334	0.0153301
628.413	0.0153635
628.491	0.0152842
628.569	0.0152660
628.647	0.0153414
628.725	0.0152895
628.803	0.0152888
628.881	0.0153927
628.959	0.0153883
629.038	0.0153287
629.116	0.0153487
629.194	0.0153033
629.272	0.0153274
629.350	0.0152671
629.428	0.0153265
629.506	0.0153783
629.584	0.0152644
629.663	0.0152258
629.741	0.0153123
629.819	0.0152628
629.897	0.0151656
629.975	0.0153285
630.053	0.0153008
630.131	0.0152353
630.209	0.0153374
630.288	0.0153426
630.366	0.0152937
630.444	0.0153589
630.522	0.0152073
630.600	0.0153157
630.678	0.0153638
630.756	0.0153090
630.834	0.0152660
630.913	0.0153517
630.991	0.0153358
631.069	0.0153474
631.147	0.0153265
631.225	0.0152093
631.303	0.0153328
631.381	0.0152854
631.459	0.0152924
631.538	0.0152621
631.616	0.0152596
631.694	0.0152445
631.772	0.0154032
631.850	0.0152374
631.928	0.0151971
632.006	0.0153262
632.084	0.0152171
632.163	0.0151936
632.241	0.0152586
632.319	0.0151392
632.397	0.0152628
632.475	0.0151900
632.553	0.0151846
632.631	0.0152657
632.709	0.0153126
632.788	0.0153580
632.866	0.0149976
632.944	0.0150298
633.022	0.0151401
633.100	0.0152734
633.178	0.0152455
633.256	0.0151682
633.334	0.0151567
633.413	0.0151166
633.491	0.0151672
633.569	0.0152708
633.647	0.0151818
633.725	0.0152222
633.803	0.0151817
633.881	0.0152415
633.959	0.0152004
634.038	0.0153020
634.116	0.0152522
634.194	0.0152854
634.272	0.0152924
634.350	0.0152895
634.428	0.0152433
634.506	0.0153117
634.584	0.0153554
634.663	0.0152669
634.741	0.0154127
634.819	0.0153189
634.897	0.0153891
634.975	0.0153630
635.053	0.0153350
635.131	0.0153358
635.209	0.0153364
635.288	0.0152970
635.366	0.0152910
635.444	0.0153691
635.522	0.0152889
635.600	0.0151828
635.678	0.0150559
635.756	0.0152264
635.834	0.0152988
635.913	0.0152222
635.991	0.0151881
636.069	0.0153196
636.147	0.0152641
636.225	0.0150996
636.303	0.0152052
636.381	0.0152699
636.459	0.0152248
636.538	0.0151666
636.616	0.0151900
636.694	0.0152730
636.772	0.0153374
636.850	0.0151403
636.928	0.0151044
637.006	0.0152717
637.084	0.0152700
637.163	0.0153030
637.241	0.0151944
637.319	0.0151986
637.397	0.0152026
637.475	0.0152322
637.553	0.0151460
637.631	0.0151307
637.709	0.0152446
637.788	0.0153412
637.866	0.0153261
637.944	0.0152099
638.022	0.0151888
638.100	0.0152557
638.178	0.0153725
638.256	0.0151696
638.334	0.0152460
638.413	0.0152574
638.491	0.0152303
638.569	0.0152010
638.647	0.0154698
638.725	0.0153572
638.803	0.0152618
638.881	0.0151824
638.959	0.0152059
639.038	0.0154136
639.116	0.0153672
639.194	0.0152962
639.272	0.0152991
639.350	0.0152729
639.428	0.0152866
639.506	0.0154019
639.584	0.0153185
639.663	0.0152330
639.741	0.0152952
639.819	0.0150772
639.897	0.0153001
639.975	0.0151751
640.053	0.0151923
640.131	0.0151740
640.209	0.0152565
640.288	0.0150437
640.366	0.0153003
640.444	0.0151280
640.522	0.0151355
640.600	0.0152770
640.678	0.0151398
640.756	0.0152381
640.834	0.0151575
640.913	0.0151495
640.991	0.0152666
641.069	0.0150587
641.147	0.0150937
641.225	0.0153094
641.303	0.0152348
641.381	0.0153415
641.459	0.0153114
641.538	0.0152151
641.616	0.0152721
641.694	0.0153969
641.772	0.0152550
641.850	0.0152861
641.928	0.0153550
642.006	0.0152341
642.084	0.0153020
642.163	0.0153429
642.241	0.0152532
642.319	0.0153490
642.397	0.0153709
642.475	0.0151814
642.553	0.0151219
642.631	0.0153180
642.709	0.0151622
642.788	0.0151649
642.866	0.0152999
642.944	0.0152432
643.022	0.0151471
643.100	0.0151588
643.178	0.0152243
643.256	0.0151799
643.334	0.0152138
643.413	0.0153728
643.491	0.0152889
643.569	0.0152999
643.647	0.0152606
643.725	0.0153071
643.803	0.0154515
643.881	0.0153753
643.959	0.0152898
644.038	0.0152574
644.116	0.0153095
644.194	0.0155340
644.272	0.0154407
644.350	0.0153631
644.428	0.0152485
644.506	0.0152885
644.584	0.0153485
644.663	0.0152198
644.741	0.0152216
644.819	0.0153614
644.897	0.0153906
644.975	0.0152781
645.053	0.0151852
645.131	0.0152427
645.209	0.0153561
645.288	0.0152234
645.366	0.0151314
645.444	0.0151926
645.522	0.0152036
645.600	0.0152576
645.678	0.0153499
645.756	0.0152509
645.834	0.0151844
645.913	0.0152973
645.991	0.0152216
646.069	0.0153547
646.147	0.0153236
646.225	0.0154159
646.303	0.0154836
646.381	0.0154541
646.459	0.0153850
646.538	0.0154054
646.616	0.0153887
646.694	0.0154227
646.772	0.0154253
646.850	0.0153999
646.928	0.0152338
647.006	0.0153212
647.084	0.0153928
647.163	0.0153935
647.241	0.0152174
647.319	0.0153063
647.397	0.0154391
647.475	0.0153938
647.553	0.0152628
647.631	0.0153764
647.709	0.0152546
647.788	0.0154134
647.866	0.0153080
647.944	0.0153441
648.022	0.0153439
648.100	0.0154012
648.178	0.0153149
648.256	0.0154535
648.334	0.0153345
648.413	0.0154242
648.491	0.0155137
648.569	0.0154778
648.647	0.0154065
648.725	0.0155752
648.803	0.0155301
648.881	0.0153676
648.959	0.0153740
649.038	0.0153868
649.116	0.0152957
649.194	0.0152778
649.272	0.0153259
649.350	0.0153050
649.428	0.0153629
649.506	0.0153824
649.584	0.0152901
649.663	0.0152225
649.741	0.0153616
649.819	0.0152908
649.897	0.0154110
649.975	0.0153391
650.053	0.0151914
650.131	0.0152054
650.209	0.0154298
650.288	0.0152892
650.366	0.0153253
650.444	0.0152791
650.522	0.0153657
650.600	0.0153506
650.678	0.0152455
650.756	0.0152836
650.834	0.0152489
650.913	0.0152558
650.991	0.0152127
651.069	0.0152932
651.147	0.0152947
651.225	0.0151904
651.303	0.0152532
651.381	0.0154034
651.459	0.0153237
651.538	0.0153810
651.616	0.0153259
651.694	0.0150719
651.772	0.0154215
651.850	0.0155116
651.928	0.0154532
652.006	0.0153680
652.084	0.0154652
652.163	0.0154642
652.241	0.0154643
652.319	0.0153982
652.397	0.0152767
652.475	0.0155611
652.553	0.0153410
652.631	0.0152503
652.709	0.0153062
652.788	0.0154211
652.866	0.0153481
652.944	0.0152679
653.022	0.0152952
653.100	0.0152570
653.178	0.0152921
653.256	0.0151973
653.334	0.0153048
653.413	0.0152901
653.491	0.0151641
653.569	0.0152714
653.647	0.0152796
653.725	0.0152975
653.803	0.0151397
653.881	0.0152117
653.959	0.0154552
654.038	0.0153553
654.116	0.0152756
654.194	0.0153688
654.272	0.0154852
654.350	0.0154221
654.428	0.0153574
654.506	0.0152410
654.584	0.0152357
654.663	0.0152919
654.741	0.0152743
654.819	0.0153334
654.897	0.0152470
654.975	0.0151196
655.053	0.0152667
655.131	0.0152946
655.209	0.0151205
655.288	0.0150639
655.366	0.0151530
655.444	0.0151614
655.522	0.0150598
655.600	0.0151295
655.678	0.0151574
655.756	0.0153413
655.834	0.0152978
655.913	0.0151129
655.991	0.0152977
656.069	0.0153601
656.147	0.0154150
656.225	0.0152750
656.303	0.0154314
656.381	0.0152810
656.459	0.0154918
656.538	0.0154626
656.616	0.0152636
656.694	0.0153783
656.772	0.0154323
656.850	0.0154362
656.928	0.0154031
657.006	0.0152622
657.084	0.0152850
657.163	0.0152544
657.241	0.0154784
657.319	0.0153922
657.397	0.0151173
657.475	0.0151951
657.553	0.0152940
657.631	0.0152490
657.709	0.0151561
657.788	0.0152061
657.866	0.0152274
657.944	0.0152055
658.022	0.0151640
658.100	0.0152878
658.178	0.0153356
658.256	0.0152129
658.334	0.0152647
658.413	0.0153658
658.491	0.0153160
658.569	0.0152702
658.647	0.0152802
658.725	0.0152263
658.803	0.0153356
658.881	0.0153703
658.959	0.0152791
659.038	0.0151662
659.116	0.0152562
659.194	0.0152216
659.272	0.0151919
659.350	0.0151881
659.428	0.0151306
659.506	0.0151682
659.584	0.0152501
659.663	0.0149753
659.741	0.0150478
659.819	0.0151298
659.897	0.0151131
659.975	0.0152534
660.053	0.0151559
660.131	0.0152251
660.209	0.0152338
660.288	0.0152445
660.366	0.0153105
660.444	0.0154137
660.522	0.0154219
660.600	0.0153138
660.678	0.0154815
660.756	0.0154507
660.834	0.0152239
660.913	0.0153806
660.991	0.0154946
661.069	0.0152478
661.147	0.0152644
661.225	0.0153647
661.303	0.0153081
661.381	0.0152395
661.459	0.0153412
661.538	0.0153041
661.616	0.0151785
661.694	0.0152882
661.772	0.0152901
661.850	0.0152455
661.928	0.0153315
662.006	0.0152463
662.084	0.0151469
662.163	0.0152399
662.241	0.0153012
662.319	0.0152302
662.397	0.0152301
662.475	0.0153300
662.553	0.0151794
662.631	0.0151083
662.709	0.0151717
662.788	0.0151917
662.866	0.0152135
662.944	0.0151762
663.022	0.0152431
663.100	0.0151514
663.178	0.0152609
663.256	0.0153168
663.334	0.0154253
663.413	0.0153493
663.491	0.0152666
663.569	0.0154531
663.647	0.0154480
663.725	0.0152882
663.803	0.0154439
663.881	0.0155605
663.959	0.0154234
664.038	0.0153252
664.116	0.0154444
664.194	0.0153635
664.272	0.0154513
664.350	0.0153400
664.428	0.0152911
664.506	0.0154199
664.584	0.0152559
664.663	0.0153928
664.741	0.0153870
664.819	0.0152637
664.897	0.0152248
664.975	0.0152027
665.053	0.0152802
665.131	0.0153511
665.209	0.0153030
665.288	0.0153379
665.366	0.0154163
665.444	0.0153479
665.522	0.0151751
665.600	0.0153468
665.678	0.0153663
665.756	0.0153809
665.834	0.0153481
665.913	0.0154431
665.991	0.0154104
666.069	0.0153493
666.147	0.0154108
666.225	0.0153143
666.303	0.0152874
666.381	0.0153175
666.459	0.0153484
666.538	0.0152879
666.616	0.0152168
666.694	0.0153047
666.772	0.0153018
666.850	0.0153448
666.928	0.0153190
667.006	0.0152910
667.084	0.0153299
667.163	0.0153637
667.241	0.0152722
667.319	0.0152774
667.397	0.0153048
667.475	0.0152353
667.553	0.0153349
667.631	0.0152253
667.709	0.0153054
667.788	0.0153005
667.866	0.0153556
667.944	0.0154520
668.022	0.0153865
668.100	0.0153339
668.178	0.0152086
668.256	0.0153522
668.334	0.0154632
668.413	0.0154771
668.491	0.0153060
668.569	0.0154002
668.647	0.0153373
668.725	0.0153265
668.803	0.0153249
668.881	0.0153973
668.959	0.0154082
669.038	0.0154772
669.116	0.0153797
669.194	0.0154198
669.272	0.0153851
669.350	0.0152947
669.428	0.0152689
669.506	0.0153226
669.584	0.0153703
669.663	0.0154162
669.741	0.0153117
669.819	0.0152733
669.897	0.0151996
669.975	0.0152482
670.053	0.0154199
670.131	0.0153712
670.209	0.0151751
670.288	0.0152498
670.366	0.0152367
670.444	0.0152168
670.522	0.0153074
670.600	0.0154802
670.678	0.0153670
670.756	0.0153092
670.834	0.0151307
670.913	0.0153021
670.991	0.0154523
671.069	0.0154736
671.147	0.0155178
671.225	0.0155265
671.303	0.0154688
671.381	0.0153896
671.459	0.0156021
671.538	0.0155323
671.616	0.0154655
671.694	0.0154258
671.772	0.0154540
671.850	0.0153899
671.928	0.0154322
672.006	0.0153545
672.084	0.0152953
672.163	0.0152721
672.241	0.0153007
672.319	0.0152155
672.397	0.0151359
672.475	0.0152130
672.553	0.0151420
672.631	0.0152587
672.709	0.0151798
672.788	0.0152456
672.866	0.0151950
672.944	0.0150272
673.022	0.0152477
673.100	0.0152446
673.178	0.0152089
673.256	0.0151991
673.334	0.0153010
673.413	0.0153427
673.491	0.0152991
673.569	0.0154156
673.647	0.0153373
673.725	0.0154839
673.803	0.0156021
673.881	0.0155657
673.959	0.0156011
674.038	0.0155902
674.116	0.0155776
674.194	0.0156599
674.272	0.0155509
674.350	0.0156173
674.428	0.0154791
674.506	0.0156189
674.584	0.0154391
674.663	0.0154239
674.741	0.0153471
674.819	0.0153684
674.897	0.0151525
674.975	0.0150568
675.053	0.0149172
675.131	0.0149349
675.209	0.0147755
675.288	0.0147887
675.366	0.0147266
675.444	0.0146291
675.522	0.0146382
675.600	0.0145399
675.678	0.0146133
675.756	0.0148087
675.834	0.0145693
675.913	0.0147073
675.991	0.0147350
676.069	0.0147881
676.147	0.0150259
676.225	0.0150916
676.303	0.0151131
676.381	0.0153159
676.459	0.0156461
676.538	0.0155695
676.616	0.0156303
676.694	0.0158768
676.772	0.0160830
676.850	0.0161641
676.928	0.0161177
677.006	0.0162682
677.084	0.0162599
677.163	0.0163783
677.241	0.0162606
677.319	0.0163151
677.397	0.0161918
677.475	0.0160861
677.553	0.0160805
677.631	0.0159531
677.709	0.0158314
677.788	0.0156392
677.866	0.0152954
677.944	0.0151395
678.022	0.0149583
678.100	0.0146834
678.178	0.0145789
678.256	0.0142967
678.334	0.0141597
678.413	0.0141641
678.491	0.0139267
678.569	0.0138010
678.647	0.0136036
678.725	0.0135798
678.803	0.0136866
678.881	0.0136091
678.959	0.0136682
679.038	0.0138098
679.116	0.0139767
679.194	0.0140577
679.272	0.0142408
679.350	0.0146787
679.428	0.0148316
679.506	0.0149848
679.584	0.0152114
679.663	0.0155792
679.741	0.0158963
679.819	0.0162565
679.897	0.0162159
679.975	0.0164590
680.053	0.0165407
680.131	0.0169482
680.209	0.0170568
680.288	0.0170874
680.366	0.0170433
680.444	0.0169627
680.522	0.0170825
680.600	0.0168378
680.678	0.0166728
680.756	0.0167098
680.834	0.0166237
680.913	0.0161702
680.991	0.0160422
681.069	0.0156506
681.147	0.0154572
681.225	0.0152814
681.303	0.0149552
681.381	0.0148014
681.459	0.0144876
681.538	0.0143586
681.616	0.0142693
681.694	0.0141033
681.772	0.0138957
681.850	0.0139127
681.928	0.0137918
682.006	0.0138004
682.084	0.0138412
682.163	0.0138948
682.241	0.0140161
682.319	0.0140553
682.397	0.0142006
682.475	0.0143330
682.553	0.0144078
682.631	0.0144801
682.709	0.0146486
682.788	0.0148062
682.866	0.0150206
682.944	0.0151916
683.022	0.0152634
683.100	0.0152469
683.178	0.0152561
683.256	0.0154086
683.334	0.0154199
683.413	0.0154918
683.491	0.0155595
683.569	0.0155508
683.647	0.0157419
683.725	0.0157443
683.803	0.0157113
683.881	0.0156238
683.959	0.0156741
684.038	0.0157516
684.116	0.0159511
684.194	0.0158898
684.272	0.0159747
684.350	0.0159495
684.428	0.0159602
684.506	0.0160996
684.584	0.0161126
684.663	0.0161247
684.741	0.0161021
684.819	0.0162511
684.897	0.0161215
684.975	0.0161450
685.053	0.0161034
685.131	0.0159614
685.209	0.0159731
685.288	0.0158285
685.366	0.0158458
685.444	0.0156500
685.522	0.0154926
685.600	0.0152969
685.678	0.0149681
685.756	0.0147359
685.834	0.0147826
685.913	0.0145529
685.991	0.0141895
686.069	0.0141254
686.147	0.0139928
686.225	0.0138329
686.303	0.0137646
686.381	0.0136977
686.459	0.0135841
686.538	0.0134911
686.616	0.0135265
686.694	0.0135613
686.772	0.0137067
686.850	0.0137011
686.928	0.0138385
687.006	0.0139798
687.084	0.0141001
687.163	0.0145466
687.241	0.0148618
687.319	0.0150277
687.397	0.0152708
687.475	0.0158038
687.553	0.0160953
687.631	0.0162966
687.709	0.0166220
687.788	0.0169429
687.866	0.0173244
687.944	0.0174327
688.022	0.0176418
688.100	0.0177433
688.178	0.0179060
688.256	0.0178523
688.334	0.0177216
688.413	0.0176012
688.491	0.0173492
688.569	0.0170266
688.647	0.0166747
688.725	0.0163620
688.803	0.0159418
688.881	0.0154390
688.959	0.0149660
689.038	0.0144142
689.116	0.0141866
689.194	0.0137196
689.272	0.0132417
689.350	0.0130019
689.428	0.0127615
689.506	0.0124129
689.584	0.0121439
689.663	0.0121367
689.741	0.0121474
689.819	0.0122390
689.897	0.0122108
689.975	0.0123956
690.053	0.0125388
690.131	0.0129295
690.209	0.0131786
690.288	0.0135661
690.366	0.0141152
690.444	0.0145058
690.522	0.0148887
690.600	0.0154331
690.678	0.0160419
690.756	0.0164291
690.834	0.0168085
690.913	0.0173990
690.991	0.0176962
691.069	0.0180341
691.147	0.0184209
691.225	0.0185873
691.303	0.0185529
691.381	0.0186683
691.459	0.0184830
691.538	0.0185394
691.616	0.0182449
691.694	0.0181280
691.772	0.0178690
691.850	0.0175442
691.928	0.0171782
692.006	0.0168040
692.084	0.0165234
692.163	0.0161286
692.241	0.0158170
692.319	0.0154189
692.397	0.0151566
692.475	0.0146484
692.553	0.0144218
692.631	0.0140218
692.709	0.0137747
692.788	0.0133939
692.866	0.0133367
692.944	0.0131315
693.022	0.0130871
693.100	0.0131491
693.178	0.0130534
693.256	0.0131788
693.334	0.0132336
693.413	0.0132518
693.491	0.0135619
693.569	0.0136627
693.647	0.0137469
693.725	0.0139022
693.803	0.0142199
693.881	0.0142143
693.959	0.0142809
694.038	0.0144195
694.116	0.0145626
694.194	0.0145052
694.272	0.0145979
694.350	0.0146294
694.428	0.0146635
694.506	0.0146684
694.584	0.0147058
694.663	0.0145441
694.741	0.0147557
694.819	0.0146623
694.897	0.0147623
694.975	0.0148188
695.053	0.0149166
695.131	0.0149931
695.209	0.0149946
695.288	0.0151550
695.366	0.0151006
695.444	0.0153265
695.522	0.0154544
695.600	0.0156722
695.678	0.0160764
695.756	0.0163037
695.834	0.0164682
695.913	0.0167287
695.991	0.0169616
696.069	0.0171612
696.147	0.0171404
696.225	0.0172433
696.303	0.0174453
696.381	0.0175362
696.459	0.0174695
696.538	0.0175449
696.616	0.0175182
696.694	0.0172470
696.772	0.0172455
696.850	0.0172198
696.928	0.0170161
697.006	0.0169466
697.084	0.0167837
697.163	0.0165773
697.241	0.0163006
697.319	0.0164155
697.397	0.0162834
697.475	0.0160415
697.553	0.0158239
697.631	0.0156823
697.709	0.0154541
697.788	0.0151266
697.866	0.0148738
697.944	0.0146371
698.022	0.0143665
698.100	0.0141661
698.178	0.0139169
698.256	0.0137215
698.334	0.0134457
698.413	0.0132868
698.491	0.0130550
698.569	0.0130186
698.647	0.0126917
698.725	0.0125927
698.803	0.0126739
698.881	0.0123152
698.959	0.0122520
699.038	0.0122504
699.116	0.0124420
699.194	0.0124911
699.272	0.0123444
699.350	0.0123614
699.428	0.0127751
699.506	0.0129787
699.584	0.0131315
699.663	0.0135049
699.741	0.0138458
699.819	0.0141695
699.897	0.0146061
699.975	0.0148975
700.053	0.0152583
700.131	0.0156903
700.209	0.0161246
700.288	0.0164641
700.366	0.0166620
700.444	0.0168231
700.522	0.0172379
700.600	0.0173041
700.678	0.0174532
700.756	0.0176936
700.834	0.0176394
700.913	0.0177071
700.991	0.0177349
701.069	0.0177153
701.147	0.0175840
701.225	0.0176263
701.303	0.0174347
701.381	0.0175082
701.459	0.0172747
701.538	0.0170343
701.616	0.0170400
701.694	0.0168387
701.772	0.0166956
701.850	0.0164161
701.928	0.0160574
702.006	0.0158147
702.084	0.0153996
702.163	0.0152502
702.241	0.0147066
702.319	0.0145294
702.397	0.0144199
702.475	0.0141098
702.553	0.0139068
702.631	0.0136986
702.709	0.0136122
702.788	0.0136324
702.866	0.0135279
702.944	0.0135609
703.022	0.0136615
703.100	0.0136980
703.178	0.0138369
703.256	0.0141479
703.334	0.0141381
703.413	0.0142955
703.491	0.0146705
703.569	0.0148028
703.647	0.0150543
703.725	0.0152391
703.803	0.0152570
703.881	0.0154035
703.959	0.0157952
704.038	0.0155275
704.116	0.0158483
704.194	0.0159398
704.272	0.0159383
704.350	0.0158893
704.428	0.0158611
704.506	0.0156075
704.584	0.0155032
704.663	0.0152702
704.741	0.0152619
704.819	0.0151527
704.897	0.0150039
704.975	0.0147376
705.053	0.0146421
705.131	0.0144925
705.209	0.0143359
705.288	0.0141154
705.366	0.0139934
705.444	0.0139750
705.522	0.0139942
705.600	0.0139007
705.678	0.0138393
705.756	0.0138430
705.834	0.0140179
705.913	0.0140553
705.991	0.0139552
706.069	0.0140585
706.147	0.0143552
706.225	0.0144932
706.303	0.0145031
706.381	0.0147172
706.459	0.0149581
706.538	0.0149650
706.616	0.0151955
706.694	0.0152732
706.772	0.0154625
706.850	0.0155112
706.928	0.0155679
707.006	0.0156190
707.084	0.0155707
707.163	0.0156654
707.241	0.0158503
707.319	0.0159917
707.397	0.0161453
707.475	0.0161728
707.553	0.0162557
707.631	0.0164749
707.709	0.0163362
707.788	0.0164783
707.866	0.0164708
707.944	0.0165936
708.022	0.0164568
708.100	0.0166086
708.178	0.0165038
708.256	0.0165597
708.334	0.0162488
708.413	0.0163848
708.491	0.0162965
708.569	0.0163000
708.647	0.0164655
708.725	0.0165254
708.803	0.0167623
708.881	0.0167466
708.959	0.0169219
709.038	0.0169445
709.116	0.0169492
709.194	0.0172485
709.272	0.0171606
709.350	0.0172702
709.428	0.0170551
709.506	0.0166579
709.584	0.0166630
709.663	0.0164171
709.741	0.0158067
709.819	0.0154855
709.897	0.0150497
709.975	0.0143110
710.053	0.0140234
710.131	0.0134624
710.209	0.0128761
710.288	0.0124828
710.366	0.0121758
710.444	0.0119402
710.522	0.0117018
710.600	0.0114613
710.678	0.0114131
710.756	0.0114404
710.834	0.0115726
710.913	0.0116542
710.991	0.0121040
711.069	0.0122182
711.147	0.0124096
711.225	0.0128291
711.303	0.0132303
711.381	0.0136264
711.459	0.0142175
711.538	0.0143462
711.616	0.0145609
711.694	0.0151321
711.772	0.0153065
711.850	0.0155471
711.928	0.0159088
712.006	0.0162767
712.084	0.0163854
712.163	0.0166943
712.241	0.0167590
712.319	0.0169320
712.397	0.0171115
712.475	0.0173539
712.553	0.0174017
712.631	0.0173818
712.709	0.0173311
712.788	0.0174065
712.866	0.0172508
712.944	0.0172514
713.022	0.0172662
713.100	0.0171817
713.178	0.0167892
713.256	0.0165767
713.334	0.0164640
713.413	0.0162875
713.491	0.0158643
713.569	0.0158089
713.647	0.0154898
713.725	0.0151945
713.803	0.0150652
713.881	0.0149374
713.959	0.0146825
714.038	0.0146833
714.116	0.0146018
714.194	0.0145547
714.272	0.0146828
714.350	0.0148734
714.428	0.0149519
714.506	0.0150964
714.584	0.0154893
714.663	0.0155679
714.741	0.0158752
714.819	0.0162525
714.897	0.0164086
714.975	0.0166835
715.053	0.0168484
715.131	0.0168844
715.209	0.0168896
715.288	0.0169882
715.366	0.0171372
715.444	0.0169842
715.522	0.0169696
715.600	0.0166833
715.678	0.0165239
715.756	0.0163985
715.834	0.0160363
715.913	0.0156522
715.991	0.0153239
716.069	0.0151215
716.147	0.0147919
716.225	0.0144912
716.303	0.0141861
716.381	0.0138390
716.459	0.0135539
716.538	0.0132997
716.616	0.0132292
716.694	0.0130696
716.772	0.0128128
716.850	0.0127174
716.928	0.0126636
717.006	0.0126360
717.084	0.0124900
717.163	0.0124876
717.241	0.0125761
717.319	0.0125916
717.397	0.0127396
717.475	0.0128059
717.553	0.0129502
717.631	0.0129853
717.709	0.0130551
717.788	0.0131033
717.866	0.0131363
717.944	0.0133120
718.022	0.0134904
718.100	0.0136287
718.178	0.0139710
718.256	0.0143991
718.334	0.0146476
718.413	0.0149561
718.491	0.0154436
718.569	0.0159617
718.647	0.0164482
718.725	0.0168649
718.803	0.0172631
718.881	0.0177444
718.959	0.0182311
719.038	0.0185204
719.116	0.0187644
719.194	0.0189893
719.272	0.0192957
719.350	0.0193677
719.428	0.0194094
719.506	0.0191371
719.584	0.0191241
719.663	0.0189991
719.741	0.0187307
719.819	0.0186775
719.897	0.0182434
719.975	0.0177990
720.053	0.0173639
720.131	0.0170112
720.209	0.0166319
720.288	0.0161721
720.366	0.0158734
720.444	0.0154621
720.522	0.0149027
720.600	0.0144165
720.678	0.0139136
720.756	0.0137234
720.834	0.0132962
720.913	0.0129975
720.991	0.0124903
721.069	0.0124547
721.147	0.0123478
721.225	0.0122474
721.303	0.0122742
721.381	0.0124357
721.459	0.0124897
721.538	0.0126167
721.616	0.0128115
721.694	0.0131709
721.772	0.0132392
721.850	0.0136069
721.928	0.0137491
722.006	0.0139882
722.084	0.0143077
722.163	0.0143745
722.241	0.0145193
722.319	0.0148466
722.397	0.0150172
722.475	0.0152614
722.553	0.0152380
722.631	0.0156269
722.709	0.0158060
722.788	0.0159831
722.866	0.0161364
722.944	0.0162688
723.022	0.0163615
723.100	0.0163869
723.178	0.0164848
723.256	0.0164835
723.334	0.0163236
723.413	0.0162683
723.491	0.0160748
723.569	0.0159775
723.647	0.0159627
723.725	0.0158429
723.803	0.0156339
723.881	0.0154551
723.959	0.0153064
724.038	0.0151920
724.116	0.0149831
724.194	0.0148536
724.272	0.0146097
724.350	0.0144529
724.428	0.0144083
724.506	0.0143438
724.584	0.0142932
724.663	0.0143104
724.741	0.0141805
724.819	0.0142953
724.897	0.0142662
724.975	0.0144711
725.053	0.0145649
725.131	0.0146346
725.209	0.0149553
725.288	0.0148090
725.366	0.0150281
725.444	0.0150552
725.522	0.0153375
725.600	0.0154411
725.678	0.0152809
725.756	0.0155500
725.834	0.0156828
725.913	0.0158517
725.991	0.0159444
726.069	0.0159522
726.147	0.0161526
726.225	0.0161051
726.303	0.0160569
726.381	0.0159741
726.459	0.0159285
726.538	0.0157812
726.616	0.0157762
726.694	0.0156712
726.772	0.0155209
726.850	0.0155418
726.928	0.0155642
727.006	0.0155344
727.084	0.0155678
727.163	0.0155248
727.241	0.0157730
727.319	0.0159435
727.397	0.0159219
727.475	0.0160863
727.553	0.0159940
727.631	0.0160052
727.709	0.0162148
727.788	0.0162122
727.866	0.0161169
727.944	0.0158723
728.022	0.0158749
728.100	0.0157198
728.178	0.0156802
728.256	0.0155692
728.334	0.0154287
728.413	0.0151952
728.491	0.0150237
728.569	0.0147870
728.647	0.0148240
728.725	0.0144437
728.803	0.0142999
728.881	0.0140925
728.959	0.0139879
729.038	0.0138508
729.116	0.0137827
729.194	0.0138328
729.272	0.0138052
729.350	0.0140588
729.428	0.0141228
729.506	0.0142838
729.584	0.0142853
729.663	0.0144611
729.741	0.0146951
729.819	0.0150145
729.897	0.0152110
729.975	0.0153956
730.053	0.0155170
730.131	0.0155254
730.209	0.0154939
730.288	0.0155859
730.366	0.0154860
730.444	0.0153545
730.522	0.0153023
730.600	0.0151336
730.678	0.0149144
730.756	0.0147356
730.834	0.0145736
730.913	0.0145549
730.991	0.0144537
731.069	0.0144640
731.147	0.0145332
731.225	0.0146816
731.303	0.0147707
731.381	0.0149341
731.459	0.0152116
731.538	0.0156436
731.616	0.0159269
731.694	0.0162527
731.772	0.0166324
731.850	0.0169289
731.928	0.0173232
732.006	0.0174709
732.084	0.0176950
732.163	0.0177819
732.241	0.0177869
732.319	0.0177137
732.397	0.0176025
732.475	0.0173336
732.553	0.0170676
732.631	0.0167038
732.709	0.0163183
732.788	0.0160818
732.866	0.0154800
732.944	0.0151245
733.022	0.0147916
733.100	0.0144009
733.178	0.0141053
733.256	0.0138261
733.334	0.0137513
733.413	0.0136367
733.491	0.0135306
733.569	0.0134866
733.647	0.0135739
733.725	0.0135988
733.803	0.0136935
733.881	0.0139301
733.959	0.0141348
734.038	0.0141698
734.116	0.0144262
734.194	0.0148270
734.272	0.0149059
734.350	0.0151054
734.428	0.0153109
734.506	0.0154968
734.584	0.0156783
734.663	0.0158251
734.741	0.0160592
734.819	0.0163505
734.897	0.0163827
734.975	0.0164640
735.053	0.0166119
735.131	0.0164422
735.209	0.0165919
735.288	0.0166428
735.366	0.0166792
735.444	0.0166556
735.522	0.0165201
735.600	0.0165084
735.678	0.0166111
735.756	0.0163921
735.834	0.0161803
735.913	0.0159965
735.991	0.0156087
736.069	0.0154050
736.147	0.0152424
736.225	0.0149601
736.303	0.0147059
736.381	0.0144989
736.459	0.0142783
736.538	0.0141002
736.616	0.0141384
736.694	0.0138113
736.772	0.0138212
736.850	0.0139774
736.928	0.0140697
737.006	0.0141824
737.084	0.0142113
737.163	0.0142557
737.241	0.0142928
737.319	0.0146154
737.397	0.0148251
737.475	0.0149421
737.553	0.0150874
737.631	0.0153390
737.709	0.0153804
737.788	0.0155505
737.866	0.0157345
737.944	0.0156260
738.022	0.0155853
738.100	0.0156369
738.178	0.0156354
738.256	0.0155434
738.334	0.0155898
738.413	0.0155578
738.491	0.0156332
738.569	0.0156246
738.647	0.0154548
738.725	0.0155766
738.803	0.0156038
738.881	0.0156512
738.959	0.0155447
739.038	0.0156263
739.116	0.0157670
739.194	0.0159277
739.272	0.0161497
739.350	0.0161555
739.428	0.0162721
739.506	0.0163065
739.584	0.0164964
739.663	0.0166762
739.741	0.0166561
739.819	0.0168062
739.897	0.0167711
739.975	0.0168234
740.053	0.0167859
740.131	0.0165353
740.209	0.0163491
740.288	0.0162268
740.366	0.0159533
740.444	0.0155619
740.522	0.0153945
740.600	0.0150775
740.678	0.0147415
740.756	0.0145815
740.834	0.0144455
740.913	0.0140601
740.991	0.0141556
741.069	0.0138801
741.147	0.0138107
741.225	0.0137907
741.303	0.0137601
741.381	0.0138210
741.459	0.0137180
741.538	0.0138397
741.616	0.0140878
741.694	0.0140170
741.772	0.0142548
741.850	0.0143587
741.928	0.0144683
742.006	0.0146459
742.084	0.0148656
742.163	0.0150690
742.241	0.0152189
742.319	0.0153470
742.397	0.0154814
742.475	0.0155961
742.553	0.0156325
742.631	0.0157349
742.709	0.0158120
742.788	0.0157281
742.866	0.0156788
742.944	0.0155416
743.022	0.0155200
743.100	0.0155713
743.178	0.0155776
743.256	0.0154318
743.334	0.0154697
743.413	0.0152966
743.491	0.0154090
743.569	0.0153503
743.647	0.0151115
743.725	0.0153093
743.803	0.0153167
743.881	0.0154707
743.959	0.0154081
744.038	0.0155553
744.116	0.0156953
744.194	0.0156693
744.272	0.0157291
744.350	0.0157986
744.428	0.0157359
744.506	0.0157457
744.584	0.0157466
744.663	0.0157919
744.741	0.0156380
744.819	0.0154855
744.897	0.0154693
744.975	0.0153984
745.053	0.0153196
745.131	0.0152505
745.209	0.0151044
745.288	0.0150982
745.366	0.0151437
745.444	0.0148092
745.522	0.0150126
745.600	0.0149864
745.678	0.0147942
745.756	0.0150447
745.834	0.0149468
745.913	0.0148863
745.991	0.0151442
746.069	0.0150450
746.147	0.0148230
746.225	0.0151122
746.303	0.0151185
746.381	0.0152046
746.459	0.0152035
746.538	0.0153548
746.616	0.0153608
746.694	0.0154850
746.772	0.0154906
746.850	0.0155782
746.928	0.0156934
747.006	0.0157184
747.084	0.0157005
747.163	0.0156099
747.241	0.0156385
747.319	0.0158611
747.397	0.0157925
747.475	0.0156651
747.553	0.0155232
747.631	0.0155706
747.709	0.0156018
747.788	0.0153440
747.866	0.0151828
747.944	0.0151627
748.022	0.0150780
748.100	0.0148993
748.178	0.0148589
748.256	0.0147956
748.334	0.0148069
748.413	0.0146790
748.491	0.0145818
748.569	0.0146739
748.647	0.0146539
748.725	0.0145554
748.803	0.0146833
748.881	0.0147245
748.959	0.0148285
749.038	0.0147219
749.116	0.0149043
749.194	0.0151373
749.272	0.0151158
749.350	0.0150992
749.428	0.0151837
749.506	0.0153350
749.584	0.0153064
749.663	0.0153065
749.741	0.0152897
749.819	0.0153172
749.897	0.0152662
749.975	0.0151157
750.053	0.0152070
750.131	0.0151353
750.209	0.0151267
750.288	0.0151067
750.366	0.0150999
750.444	0.0151161
750.522	0.0152609
750.600	0.0151961
750.678	0.0153023
750.756	0.0154778
750.834	0.0155543
750.913	0.0156065
750.991	0.0156427
751.069	0.0159794
751.147	0.0161383
751.225	0.0162375
751.303	0.0162348
751.381	0.0162640
751.459	0.0164308
751.538	0.0162776
751.616	0.0161756
751.694	0.0162560
751.772	0.0162373
751.850	0.0161316
751.928	0.0159209
752.006	0.0157906
752.084	0.0155677
752.163	0.0154911
752.241	0.0152614
752.319	0.0150926
752.397	0.0149903
752.475	0.0148000
752.553	0.0146812
752.631	0.0146394
752.709	0.0145930
752.788	0.0145427
752.866	0.0145653
752.944	0.0147291
753.022	0.0146147
753.100	0.0146562
753.178	0.0147669
753.256	0.0148262
753.334	0.0147942
753.413	0.0150434
753.491	0.0150570
753.569	0.0152726
753.647	0.0151959
753.725	0.0153667
753.803	0.0155008
753.881	0.0154760
753.959	0.0154137
754.038	0.0155217
754.116	0.0156614
754.194	0.0157835
754.272	0.0155952
754.350	0.0157101
754.428	0.0156545
754.506	0.0155880
754.584	0.0156004
754.663	0.0155550
754.741	0.0152911
754.819	0.0152140
754.897	0.0151038
754.975	0.0149306
755.053	0.0150144
755.131	0.0149424
755.209	0.0148769
755.288	0.0148569
755.366	0.0149947
755.444	0.0151437
755.522	0.0152219
755.600	0.0153049
755.678	0.0153236
755.756	0.0154795
755.834	0.0156431
755.913	0.0155529
755.991	0.0155910
756.069	0.0158219
756.147	0.0157762
756.225	0.0157436
756.303	0.0158120
756.381	0.0158193
756.459	0.0156419
756.538	0.0156345
756.616	0.0156088
756.694	0.0156035
756.772	0.0153947
756.850	0.0153223
756.928	0.0153349
757.006	0.0153001
757.084	0.0153233
757.163	0.0152357
757.241	0.0153066
757.319	0.0151094
757.397	0.0151691
757.475	0.0152642
757.553	0.0151721
757.631	0.0151828
757.709	0.0152149
757.788	0.0153404
757.866	0.0152576
757.944	0.0151817
758.022	0.0152563
758.100	0.0150853
758.178	0.0151430
758.256	0.0152604
758.334	0.0151116
758.413	0.0149995
758.491	0.0150820
758.569	0.0152367
758.647	0.0150873
758.725	0.0149840
758.803	0.0151137
758.881	0.0151192
758.959	0.0151688
759.038	0.0153224
759.116	0.0153864
759.194	0.0154977
759.272	0.0156187
759.350	0.0157442
759.428	0.0157446
759.506	0.0157756
759.584	0.0158647
759.663	0.0159920
759.741	0.0158835
759.819	0.0158315
759.897	0.0157809
759.975	0.0156620
760.053	0.0154652
760.131	0.0152275
760.209	0.0151644
760.288	0.0149276
760.366	0.0149037
760.444	0.0148943
760.522	0.0147668
760.600	0.0147396
760.678	0.0147034
760.756	0.0148222
760.834	0.0149014
760.913	0.0148466
760.991	0.0150533
761.069	0.0153308
761.147	0.0152367
761.225	0.0153829
761.303	0.0155493
761.381	0.0156446
761.459	0.0159052
761.538	0.0158442
761.616	0.0159504
761.694	0.0160247
761.772	0.0158813
761.850	0.0158826
761.928	0.0159404
762.006	0.0159323
762.084	0.0157153
762.163	0.0156155
762.241	0.0154465
762.319	0.0152437
762.397	0.0150960
762.475	0.0149555
762.553	0.0148218
762.631	0.0145348
762.709	0.0145753
762.788	0.0146372
762.866	0.0144969
762.944	0.0143747
763.022	0.0144398
763.100	0.0144213
763.178	0.0144886
763.256	0.0147434
763.334	0.0147547
763.413	0.0147797
763.491	0.0148579
763.569	0.0149950
763.647	0.0152123
763.725	0.0150537
763.803	0.0151521
763.881	0.0152826
763.959	0.0152256
764.038	0.0152831
764.116	0.0152656
764.194	0.0152629
764.272	0.0153386
764.350	0.0154079
764.428	0.0152738
764.506	0.0153468
764.584	0.0153593
764.663	0.0153527
764.741	0.0152670
764.819	0.0153419
764.897	0.0152890
764.975	0.0153381
765.053	0.0154072
765.131	0.0152671
765.209	0.0152055
765.288	0.0153337
765.366	0.0152954
765.444	0.0152802
765.522	0.0151945
765.600	0.0152930
765.678	0.0151463
765.756	0.0152642
765.834	0.0152586
765.913	0.0152705
765.991	0.0152694
766.069	0.0153168
766.147	0.0152515
766.225	0.0151314
766.303	0.0152301
766.381	0.0151749
766.459	0.0151619
766.538	0.0153618
766.616	0.0151832
766.694	0.0153376
766.772	0.0153318
766.850	0.0153230
766.928	0.0152301
767.006	0.0153651
767.084	0.0154215
767.163	0.0154487
767.241	0.0153223
767.319	0.0155330
767.397	0.0154869
767.475	0.0153748
767.553	0.0152928
767.631	0.0153588
767.709	0.0153225
767.788	0.0154197
767.866	0.0152475
767.944	0.0152876
768.022	0.0152198
768.100	0.0150305
768.178	0.0150365
768.256	0.0149386
768.334	0.0149757
768.413	0.0148580
768.491	0.0148705
768.569	0.0147405
768.647	0.0147587
768.725	0.0147855
768.803	0.0146354
768.881	0.0147106
768.959	0.0147430
769.038	0.0148952
769.116	0.0148827
769.194	0.0148643
769.272	0.0149825
769.350	0.0151203
769.428	0.0151267
769.506	0.0153853
769.584	0.0155177
769.663	0.0156017
769.741	0.0157444
769.819	0.0157142
769.897	0.0157931
769.975	0.0158354
770.053	0.0158186
770.131	0.0158992
770.209	0.0158521
770.288	0.0157999
770.366	0.0156828
770.444	0.0155273
770.522	0.0155107
770.600	0.0152778
770.678	0.0150638
770.756	0.0149232
770.834	0.0149185
770.913	0.0147808
770.991	0.0147211
771.069	0.0146670
771.147	0.0146290
771.225	0.0147649
771.303	0.0147892
771.381	0.0149406
771.459	0.0151862
771.538	0.0151113
771.616	0.0152300
771.694	0.0153912
771.772	0.0155631
771.850	0.0155495
771.928	0.0156626
772.006	0.0156470
772.084	0.0157549
772.163	0.0158746
772.241	0.0157568
772.319	0.0156944
772.397	0.0156956
772.475	0.0154243
772.553	0.0154706
772.631	0.0153407
772.709	0.0152639
772.788	0.0151719
772.866	0.0150307
772.944	0.0151192
773.022	0.0151304
773.100	0.0150569
773.178	0.0150739
773.256	0.0151818
773.334	0.0151579
773.413	0.0151866
773.491	0.0152473
773.569	0.0153846
773.647	0.0153969
773.725	0.0152829
773.803	0.0155374
773.881	0.0155238
773.959	0.0154947
774.038	0.0155717
774.116	0.0155353
774.194	0.0153645
774.272	0.0154314
774.350	0.0154979
774.428	0.0153764
774.506	0.0153276
774.584	0.0156240
774.663	0.0153515
774.741	0.0155322
774.819	0.0154317
774.897	0.0153160
774.975	0.0153187
775.053	0.0153111
775.131	0.0152876
775.209	0.0152910
775.288	0.0152497
775.366	0.0149924
775.444	0.0151855
775.522	0.0150394
775.600	0.0150767
775.678	0.0150635
775.756	0.0150163
775.834	0.0148886
775.913	0.0150355
775.991	0.0150057
776.069	0.0151112
776.147	0.0150578
776.225	0.0151623
776.303	0.0150067
776.381	0.0152240
776.459	0.0152724
776.538	0.0152296
776.616	0.0153853
776.694	0.0154182
776.772	0.0155148
776.850	0.0156171
776.928	0.0156419
777.006	0.0157681
777.084	0.0157867
777.163	0.0157715
777.241	0.0156406
777.319	0.0157487
777.397	0.0156928
777.475	0.0156290
777.553	0.0155418
777.631	0.0155665
777.709	0.0155439
777.788	0.0152816
777.866	0.0151030
777.944	0.0151134
778.022	0.0150228
778.100	0.0149686
778.178	0.0150313
778.256	0.0149804
778.334	0.0148759
778.413	0.0150118
778.491	0.0148910
778.569	0.0148024
778.647	0.0150210
778.725	0.0151349
778.803	0.0150042
778.881	0.0150730
778.959	0.0151987
779.038	0.0151976
779.116	0.0153333
779.194	0.0154006
779.272	0.0154427
779.350	0.0154759
779.428	0.0154312
779.506	0.0155933
779.584	0.0156180
779.663	0.0156578
779.741	0.0155168
779.819	0.0155408
779.897	0.0155933
779.975	0.0155810
780.053	0.0154581
780.131	0.0154597
780.209	0.0153288
780.288	0.0154893
780.366	0.0155032
780.444	0.0152697
780.522	0.0153311
780.600	0.0153239
780.678	0.0153152
780.756	0.0153210
780.834	0.0153423
780.913	0.0152544
780.991	0.0154002
781.069	0.0151914
781.147	0.0150350
781.225	0.0152604
781.303	0.0152254
781.381	0.0152007
781.459	0.0152382
781.538	0.0153532
781.616	0.0154643
781.694	0.0154375
781.772	0.0154288
781.850	0.0154539
781.928	0.0154882
782.006	0.0157253
782.084	0.0155507
782.163	0.0156916
782.241	0.0155276
782.319	0.0155444
782.397	0.0154122
782.475	0.0153450
782.553	0.0151045
782.631	0.0150649
782.709	0.0148639
782.788	0.0147685
782.866	0.0145142
782.944	0.0144584
783.022	0.0144213
783.100	0.0144049
783.178	0.0144026
783.256	0.0144172
783.334	0.0143676
783.413	0.0145199
783.491	0.0145496
783.569	0.0146439
783.647	0.0148294
783.725	0.0148245
783.803	0.0150949
783.881	0.0151658
783.959	0.0151755
784.038	0.0152746
784.116	0.0154591
784.194	0.0156192
784.272	0.0156646
784.350	0.0156699
784.428	0.0155849
784.506	0.0156235
784.584	0.0157766
784.663	0.0156510
784.741	0.0156509
784.819	0.0157872
784.897	0.0157937
784.975	0.0156808
785.053	0.0155812
785.131	0.0156178
785.209	0.0155268
785.288	0.0155735
785.366	0.0155617
785.444	0.0154137
785.522	0.0152771
785.600	0.0152998
785.678	0.0152710
785.756	0.0150873
785.834	0.0149234
785.913	0.0148606
785.991	0.0147806
786.069	0.0147198
786.147	0.0145829
786.225	0.0144955
786.303	0.0144979
786.381	0.0144395
786.459	0.0143183
786.538	0.0142845
786.616	0.0144688
786.694	0.0145415
786.772	0.0146140
786.850	0.0148185
786.928	0.0148578
787.006	0.0149394
787.084	0.0150166
787.163	0.0153428
787.241	0.0153790
787.319	0.0156067
787.397	0.0156651
787.475	0.0158086
787.553	0.0157140
787.631	0.0160169
787.709	0.0157998
787.788	0.0158849
787.866	0.0160467
787.944	0.0158369
788.022	0.0158215
788.100	0.0157708
788.178	0.0157424
788.256	0.0155910
788.334	0.0155862
788.413	0.0153934
788.491	0.0153869
788.569	0.0152753
788.647	0.0150412
788.725	0.0150265
788.803	0.0149305
788.881	0.0150833
788.959	0.0149815
789.038	0.0149496
789.116	0.0149401
789.194	0.0148734
789.272	0.0149598
789.350	0.0150320
789.428	0.0149017
789.506	0.0150863
789.584	0.0150486
789.663	0.0150845
789.741	0.0148402
789.819	0.0149261
789.897	0.0149564
789.975	0.0151984
790.053	0.0150410
790.131	0.0148026
790.209	0.0148514
790.288	0.0148221
790.366	0.0148512
790.444	0.0149403
790.522	0.0148744
790.600	0.0148911
790.678	0.0150396
790.756	0.0149210
790.834	0.0150111
790.913	0.0151012
790.991	0.0150739
791.069	0.0148969
791.147	0.0150440
791.225	0.0150994
791.303	0.0151267
791.381	0.0150364
791.459	0.0150523
791.538	0.0149313
791.616	0.0149022
791.694	0.0148720
791.772	0.0150612
791.850	0.0150386
791.928	0.0149738
792.006	0.0150803
792.084	0.0150528
792.163	0.0151695
792.241	0.0153416
792.319	0.0153890
792.397	0.0154094
792.475	0.0154687
792.553	0.0155569
792.631	0.0155813
792.709	0.0156285
792.788	0.0156071
792.866	0.0156542
792.944	0.0157613
793.022	0.0157197
793.100	0.0155634
793.178	0.0154917
793.256	0.0155010
793.334	0.0156686
793.413	0.0155059
793.491	0.0155251
793.569	0.0155455
793.647	0.0155318
793.725	0.0155756
793.803	0.0155312
793.881	0.0156581
793.959	0.0156170
794.038	0.0156865
794.116	0.0156988
794.194	0.0155582
794.272	0.0156829
794.350	0.0155325
794.428	0.0153156
794.506	0.0153799
794.584	0.0152889
794.663	0.0152239
794.741	0.0150588
794.819	0.0152594
794.897	0.0150358
794.975	0.0148581
795.053	0.0148514
795.131	0.0148639
795.209	0.0148090
795.288	0.0147703
795.366	0.0147314
795.444	0.0147826
795.522	0.0145737
795.600	0.0146238
795.678	0.0145385
795.756	0.0144829
795.834	0.0146015
795.913	0.0147066
795.991	0.0146897
796.069	0.0148288
796.147	0.0148247
796.225	0.0149413
796.303	0.0151200
796.381	0.0151006
796.459	0.0152466
796.538	0.0153769
796.616	0.0154991
796.694	0.0155076
796.772	0.0156534
796.850	0.0155692
796.928	0.0156357
797.006	0.0157216
797.084	0.0157039
797.163	0.0157475
797.241	0.0157335
797.319	0.0157791
797.397	0.0158146
797.475	0.0159146
797.553	0.0157438
797.631	0.0158102
797.709	0.0158566
797.788	0.0157697
797.866	0.0156464
797.944	0.0157232
798.022	0.0157923
798.100	0.0157518
798.178	0.0155514
798.256	0.0155621
798.334	0.0156241
798.413	0.0153836
798.491	0.0154509
798.569	0.0155626
798.647	0.0152958
798.725	0.0152361
798.803	0.0151553
798.881	0.0151804
798.959	0.0150828
799.038	0.0150912
799.116	0.0150661
799.194	0.0150024
799.272	0.0146901
799.350	0.0148787
799.428	0.0149198
799.506	0.0149158
799.584	0.0149586
799.663	0.0149914
799.741	0.0150678
799.819	0.0148481
799.897	0.0150014
799.975	0.0149915
800.053	0.0150707
800.131	0.0152283
800.209	0.0150991
800.288	0.0150114
800.366	0.0148821
800.444	0.0150723
800.522	0.0150890
800.600	0.0149544
800.678	0.0148846
800.756	0.0149962
800.834	0.0150888
800.913	0.0150439
800.991	0.0152476
801.069	0.0152249
801.147	0.0152042
801.225	0.0152991
801.303	0.0153002
801.381	0.0153127
801.459	0.0152277
801.538	0.0152219
801.616	0.0151440
801.694	0.0154149
801.772	0.0152483
801.850	0.0151801
801.928	0.0150649
802.006	0.0149582
802.084	0.0150121
802.163	0.0150040
802.241	0.0149693
802.319	0.0150288
802.397	0.0148914
802.475	0.0151329
802.553	0.0149872
802.631	0.0152728
802.709	0.0152802
802.788	0.0153797
802.866	0.0153722
802.944	0.0154581
803.022	0.0154552
803.100	0.0154523
803.178	0.0155418
803.256	0.0155007
803.334	0.0155197
803.413	0.0154423
803.491	0.0155872
803.569	0.0154266
803.647	0.0153839
803.725	0.0154209
803.803	0.0154970
803.881	0.0153895
803.959	0.0154331
804.038	0.0154519
804.116	0.0155554
804.194	0.0155122
804.272	0.0155080
804.350	0.0154666
804.428	0.0154520
804.506	0.0154270
804.584	0.0154981
804.663	0.0155928
804.741	0.0154609
804.819	0.0155343
804.897	0.0153743
804.975	0.0157407
805.053	0.0155757
805.131	0.0155098
805.209	0.0154204
805.288	0.0154924
805.366	0.0154449
805.444	0.0154430
805.522	0.0153453
805.600	0.0152953
805.678	0.0152606
805.756	0.0152717
805.834	0.0152013
805.913	0.0151742
805.991	0.0152334
806.069	0.0152045
806.147	0.0147776
806.225	0.0150294
806.303	0.0151124
806.381	0.0149547
806.459	0.0150037
806.538	0.0149531
806.616	0.0149259
806.694	0.0150050
806.772	0.0149014
806.850	0.0149398
806.928	0.0149551
807.006	0.0148051
807.084	0.0147749
807.163	0.0148378
807.241	0.0149978
807.319	0.0147971
807.397	0.0146873
807.475	0.0147956
807.553	0.0148638
807.631	0.0148922
807.709	0.0147277
807.788	0.0148289
807.866	0.0147272
807.944	0.0147163
808.022	0.0149356
808.100	0.0148958
808.178	0.0147787
808.256	0.0150862
808.334	0.0150844
808.413	0.0151334
808.491	0.0151823
808.569	0.0152589
808.647	0.0154926
808.725	0.0155836
808.803	0.0156903
808.881	0.0157772
808.959	0.0157983
809.038	0.0158106
809.116	0.0158096
809.194	0.0158450
809.272	0.0157863
809.350	0.0159667
809.428	0.0157738
809.506	0.0157353
809.584	0.0157758
809.663	0.0156581
809.741	0.0155522
809.819	0.0156508
809.897	0.0156800
809.975	0.0156369
810.053	0.0155827
810.131	0.0156298
810.209	0.0154245
810.288	0.0155074
810.366	0.0155036
810.444	0.0154353
810.522	0.0153596
810.600	0.0154412
810.678	0.0153320
810.756	0.0152333
810.834	0.0151289
810.913	0.0152955
810.991	0.0151755
811.069	0.0151757
811.147	0.0153523
811.225	0.0153703
811.303	0.0152380
811.381	0.0153426
811.459	0.0154314
811.538	0.0153571
811.616	0.0153692
811.694	0.0156350
811.772	0.0154412
811.850	0.0153290
811.928	0.0155332
812.006	0.0153007
812.084	0.0153587
812.163	0.0153310
812.241	0.0153165
812.319	0.0153072
812.397	0.0152276
812.475	0.0150959
812.553	0.0151244
812.631	0.0151048
812.709	0.0151418
812.788	0.0149644
812.866	0.0150493
812.944	0.0149638
813.022	0.0150546
813.100	0.0149829
813.178	0.0149738
813.256	0.0148831
813.334	0.0148402
813.413	0.0149944
813.491	0.0149835
813.569	0.0148334
813.647	0.0149126
813.725	0.0149293
813.803	0.0148032
813.881	0.0149909
813.959	0.0149718
814.038	0.0149723
814.116	0.0149311
814.194	0.0149638
814.272	0.0150494
814.350	0.0150084
814.428	0.0150517
814.506	0.0152076
814.584	0.0153223
814.663	0.0153541
814.741	0.0155818
814.819	0.0155606
814.897	0.0154419
814.975	0.0155200
815.053	0.0155520
815.131	0.0156421
815.209	0.0156748
815.288	0.0155138
815.366	0.0155619
815.444	0.0154144
815.522	0.0155384
815.600	0.0154884
815.678	0.0156230
815.756	0.0155625
815.834	0.0155862
815.913	0.0153804
815.991	0.0155743
816.069	0.0154726
816.147	0.0153916
816.225	0.0154457
816.303	0.0155280
816.381	0.0155035
816.459	0.0154778
816.538	0.0156111
816.616	0.0155511
816.694	0.0153921
816.772	0.0154263
816.850	0.0154903
816.928	0.0153523
817.006	0.0153996
817.084	0.0152491
817.163	0.0151490
817.241	0.0151347
817.319	0.0150654
817.397	0.0149262
817.475	0.0148311
817.553	0.0150504
817.631	0.0148877
817.709	0.0149800
817.788	0.0149249
817.866	0.0148622
817.944	0.0150777
818.022	0.0150714
818.100	0.0150027
818.178	0.0150024
818.256	0.0150285
818.334	0.0149905
818.413	0.0150880
818.491	0.0150913
818.569	0.0150906
818.647	0.0150109
818.725	0.0150732
818.803	0.0151125
818.881	0.0151633
818.959	0.0152901
819.038	0.0152386
819.116	0.0151642
819.194	0.0150656
819.272	0.0151420
819.350	0.0151688
819.428	0.0151917
819.506	0.0150772
819.584	0.0149153
819.663	0.0149916
819.741	0.0149622
819.819	0.0150724
819.897	0.0150864
819.975	0.0150890
820.053	0.0150220
820.131	0.0149880
820.209	0.0150172
820.288	0.0150620
820.366	0.0151150
820.444	0.0151237
820.522	0.0150528
820.600	0.0151722
820.678	0.0152336
820.756	0.0151792
820.834	0.0153380
820.913	0.0153400
820.991	0.0153850
821.069	0.0153991
821.147	0.0151899
821.225	0.0151421
821.303	0.0153535
821.381	0.0153310
821.459	0.0153830
821.538	0.0152843
821.616	0.0153746
821.694	0.0153664
821.772	0.0152369
821.850	0.0153242
821.928	0.0154015
822.006	0.0154727
822.084	0.0154112
822.163	0.0154578
822.241	0.0153864
822.319	0.0155303
822.397	0.0154794
822.475	0.0156153
822.553	0.0155961
822.631	0.0154053
822.709	0.0154199
822.788	0.0154039
822.866	0.0153869
822.944	0.0153905
823.022	0.0153268
823.100	0.0154500
823.178	0.0153712
823.256	0.0153295
823.334	0.0153252
823.413	0.0153541
823.491	0.0153536
823.569	0.0153139
823.647	0.0151820
823.725	0.0152076
823.803	0.0152364
823.881	0.0151542
823.959	0.0151910
824.038	0.0152739
824.116	0.0151743
824.194	0.0150523
824.272	0.0150793
824.350	0.0151675
824.428	0.0151574
824.506	0.0151582
824.584	0.0151154
824.663	0.0151791
824.741	0.0151558
824.819	0.0151546
824.897	0.0151828
824.975	0.0152374
825.053	0.0151714
825.131	0.0151836
825.209	0.0152214
825.288	0.0153205
825.366	0.0152534
825.444	0.0152959
825.522	0.0153468
825.600	0.0152823
825.678	0.0153088
825.756	0.0152476
825.834	0.0152570
825.913	0.0152505
825.991	0.0152660
826.069	0.0152888
826.147	0.0152717
826.225	0.0151746
826.303	0.0153241
826.381	0.0153000
826.459	0.0153054
826.538	0.0152496
826.616	0.0152325
826.694	0.0152928
826.772	0.0153396
826.850	0.0153561
826.928	0.0154358
827.006	0.0154788
827.084	0.0154237
827.163	0.0154881
827.241	0.0156721
827.319	0.0154672
827.397	0.0155446
827.475	0.0155101
827.553	0.0154258
827.631	0.0152333
827.709	0.0152446
827.788	0.0152801
827.866	0.0154728
827.944	0.0153236
828.022	0.0152937
828.100	0.0152788
828.178	0.0152798
828.256	0.0154218
828.334	0.0153481
828.413	0.0153590
828.491	0.0152668
828.569	0.0152299
828.647	0.0153618
828.725	0.0152913
828.803	0.0151881
828.881	0.0152477
828.959	0.0152773
829.038	0.0151921
829.116	0.0151392
829.194	0.0150576
829.272	0.0150760
829.350	0.0150575
829.428	0.0150778
829.506	0.0152852
829.584	0.0151039
829.663	0.0149890
829.741	0.0150253
829.819	0.0152983
829.897	0.0151999
829.975	0.0151384
830.053	0.0153427
830.131	0.0152389
830.209	0.0151159
830.288	0.0153115
830.366	0.0153715
830.444	0.0153544
830.522	0.0154255
830.600	0.0153970
830.678	0.0153483
830.756	0.0154799
830.834	0.0154862
830.913	0.0153688
830.991	0.0154326
831.069	0.0155102
831.147	0.0155424
831.225	0.0154440
831.303	0.0154631
831.381	0.0156591
831.459	0.0153451
831.538	0.0154165
831.616	0.0153380
831.694	0.0153635
831.772	0.0153276
831.850	0.0153136
831.928	0.0152854
832.006	0.0154010
832.084	0.0153636
832.163	0.0153555
832.241	0.0152054
832.319	0.0152030
832.397	0.0153722
832.475	0.0152267
832.553	0.0150865
832.631	0.0152055
832.709	0.0151740
832.788	0.0153395
832.866	0.0154092
832.944	0.0153526
833.022	0.0154327
833.100	0.0153490
833.178	0.0153638
833.256	0.0153947
833.334	0.0155669
833.413	0.0154113
833.491	0.0153935
833.569	0.0153732
833.647	0.0154849
833.725	0.0154345
833.803	0.0154766
833.881	0.0154593
833.959	0.0153819
834.038	0.0154360
834.116	0.0154247
834.194	0.0152623
834.272	0.0153812
834.350	0.0154626
834.428	0.0154227
834.506	0.0155527
834.584	0.0155190
834.663	0.0153754
834.741	0.0154461
834.819	0.0154159
834.897	0.0153339
834.975	0.0152728
835.053	0.0153462
835.131	0.0152947
835.209	0.0152477
835.288	0.0152538
835.366	0.0151884
835.444	0.0151829
835.522	0.0152094
835.600	0.0153158
835.678	0.0153165
835.756	0.0153383
835.834	0.0153589
835.913	0.0153339
835.991	0.0153293
836.069	0.0154058
836.147	0.0155584
836.225	0.0155116
836.303	0.0153991
836.381	0.0154202
836.459	0.0154400
836.538	0.0154566
836.616	0.0153364
836.694	0.0153610
836.772	0.0153889
836.850	0.0151955
836.928	0.0150645
837.006	0.0151761
837.084	0.0152481
837.163	0.0151544
837.241	0.0151227
837.319	0.0152253
837.397	0.0152806
837.475	0.0152688
837.553	0.0151118
837.631	0.0152020
837.709	0.0152415
837.788	0.0151968
837.866	0.0152094
837.944	0.0151124
838.022	0.0151212
838.100	0.0151687
838.178	0.0152215
838.256	0.0151520
838.334	0.0151565
838.413	0.0153186
838.491	0.0153773
838.569	0.0151588
838.647	0.0154148
838.725	0.0154881
838.803	0.0153581
838.881	0.0155205
838.959	0.0155046
839.038	0.0154453
839.116	0.0156132
839.194	0.0156284
839.272	0.0155864
839.350	0.0154920
839.428	0.0155788
839.506	0.0155293
839.584	0.0154013
839.663	0.0153464
839.741	0.0153578
839.819	0.0153649
839.897	0.0151871
839.975	0.0151398
840.053	0.0151730
840.131	0.0151585
840.209	0.0151917
840.288	0.0152234
840.366	0.0152676
840.444	0.0151764
840.522	0.0151481
840.600	0.0153909
840.678	0.0152244
840.756	0.0152750
840.834	0.0152797
840.913	0.0152016
840.991	0.0151588
841.069	0.0151369
841.147	0.0153297
841.225	0.0151589
841.303	0.0151755
841.381	0.0152707
841.459	0.0153294
841.538	0.0151991
841.616	0.0152101
841.694	0.0152457
841.772	0.0152139
841.850	0.0151929
841.928	0.0153355
842.006	0.0153467
842.084	0.0152396
842.163	0.0153304
842.241	0.0152657
842.319	0.0152879
842.397	0.0153780
842.475	0.0152309
842.553	0.0151843
842.631	0.0151825
842.709	0.0151166
842.788	0.0152016
842.866	0.0151549
842.944	0.0150886
843.022	0.0150253
843.100	0.0152261
843.178	0.0151250
843.256	0.0150522
843.334	0.0150376
843.413	0.0152404
843.491	0.0151151
843.569	0.0150384
843.647	0.0150384
843.725	0.0150800
843.803	0.0151440
843.881	0.0149580
843.959	0.0150043
844.038	0.0149816
844.116	0.0150673
844.194	0.0149387
844.272	0.0148775
844.350	0.0148894
844.428	0.0149699
844.506	0.0148335
844.584	0.0149798
844.663	0.0150233
844.741	0.0150009
844.819	0.0149675
844.897	0.0150452
844.975	0.0150111
845.053	0.0152872
845.131	0.0153447
845.209	0.0152393
845.288	0.0152953
845.366	0.0153917
845.444	0.0152803
845.522	0.0152963
845.600	0.0154158
845.678	0.0152692
845.756	0.0151983
845.834	0.0153941
845.913	0.0153564
845.991	0.0152720
846.069	0.0152947
846.147	0.0152191
846.225	0.0151648
846.303	0.0152213
846.381	0.0153065
846.459	0.0152358
846.538	0.0150995
846.616	0.0151688
846.694	0.0153335
846.772	0.0151804
846.850	0.0152689
846.928	0.0151595
847.006	0.0151495
847.084	0.0150742
847.163	0.0152075
847.241	0.0151711
847.319	0.0151243
847.397	0.0150922
847.475	0.0151735
847.553	0.0151634
847.631	0.0151373
847.709	0.0153072
847.788	0.0152026
847.866	0.0152155
847.944	0.0152688
848.022	0.0152228
848.100	0.0152951
848.178	0.0153053
848.256	0.0151714
848.334	0.0151119
848.413	0.0150768
848.491	0.0151081
848.569	0.0152523
848.647	0.0151262
848.725	0.0150529
848.803	0.0150631
848.881	0.0151505
848.959	0.0148455
849.038	0.0149786
849.116	0.0150430
849.194	0.0150654
849.272	0.0151345
849.350	0.0150018
849.428	0.0151364
849.506	0.0152511
849.584	0.0151157
849.663	0.0153529
849.741	0.0153357
849.819	0.0154423
849.897	0.0156255
849.975	0.0153916
850.053	0.0153841
850.131	0.0154794
850.209	0.0155957
850.288	0.0154588
850.366	0.0153960
850.444	0.0155727
850.522	0.0154346
850.600	0.0153896
850.678	0.0154451
850.756	0.0155779
850.834	0.0155009
850.913	0.0154087
850.991	0.0155399
851.069	0.0155885
851.147	0.0155232
851.225	0.0153748
851.303	0.0154862
851.381	0.0152811
851.459	0.0154000
851.538	0.0153527
851.616	0.0153639
851.694	0.0153986
851.772	0.0153028
851.850	0.0152281
851.928	0.0152945
852.006	0.0151125
852.084	0.0152253
852.163	0.0152003
852.241	0.0153049
852.319	0.0151600
852.397	0.0151967
852.475	0.0153055
852.553	0.0152003
852.631	0.0152232
852.709	0.0153252
852.788	0.0153500
852.866	0.0152213
852.944	0.0153554
853.022	0.0152132
853.100	0.0151723
853.178	0.0151859
853.256	0.0152821
853.334	0.0152656
853.413	0.0151036
853.491	0.0151236
853.569	0.0150711
853.647	0.0152330
853.725	0.0151093
853.803	0.0151251
853.881	0.0151596
853.959	0.0151743
854.038	0.0152722
854.116	0.0152334
854.194	0.0151552
854.272	0.0151611
854.350	0.0152830
854.428	0.0152406
854.506	0.0154128
854.584	0.0154662
854.663	0.0154085
854.741	0.0154781
854.819	0.0153397
854.897	0.0154639
854.975	0.0154431
855.053	0.0153570
855.131	0.0151963
855.209	0.0153233
855.288	0.0153697
855.366	0.0153615
855.444	0.0153005
855.522	0.0153659
855.600	0.0151664
855.678	0.0153617
855.756	0.0152386
855.834	0.0150525
855.913	0.0152535
855.991	0.0153157
856.069	0.0153424
856.147	0.0151784
856.225	0.0153773
856.303	0.0152425
856.381	0.0153185
856.459	0.0153625
856.538	0.0153299
856.616	0.0154831
856.694	0.0153841
856.772	0.0154204
856.850	0.0154110
856.928	0.0154355
857.006	0.0154546
857.084	0.0155045
857.163	0.0153835
857.241	0.0154394
857.319	0.0155843
857.397	0.0154533
857.475	0.0153919
857.553	0.0153666
857.631	0.0154977
857.709	0.0153048
857.788	0.0153104
857.866	0.0153089
857.944	0.0153592
858.022	0.0153286
858.100	0.0154169
858.178	0.0152185
858.256	0.0154194
858.334	0.0153133
858.413	0.0153091
858.491	0.0154279
858.569	0.0152257
858.647	0.0151819
858.725	0.0152444
858.803	0.0153075
858.881	0.0154108
858.959	0.0153769
859.038	0.0152934
859.116	0.0152207
859.194	0.0152689
859.272	0.0153486
859.350	0.0153481
859.428	0.0151656
859.506	0.0150658
859.584	0.0152787
859.663	0.0151009
859.741	0.0152560
859.819	0.0151807
859.897	0.0152295
859.975	0.0151701
860.053	0.0153033
860.131	0.0153154
860.209	0.0152626
860.288	0.0152021
860.366	0.0151054
860.444	0.0152769
860.522	0.0152449
860.600	0.0150967
860.678	0.0152232
860.756	0.0151735
860.834	0.0152300
860.913	0.0152106
860.991	0.0150287
861.069	0.0151862
861.147	0.0151891
861.225	0.0151515
861.303	0.0151246
861.381	0.0151410
861.459	0.0151691
861.538	0.0152445
861.616	0.0154116
861.694	0.0153607
861.772	0.0153838
861.850	0.0151666
861.928	0.0152693
862.006	0.0153609
862.084	0.0152717
862.163	0.0151995
862.241	0.0153449
862.319	0.0153371
862.397	0.0152258
862.475	0.0152294
862.553	0.0152062
862.631	0.0150571
862.709	0.0151480
862.788	0.0151022
862.866	0.0151778
862.944	0.0152090
863.022	0.0151193
863.100	0.0152029
863.178	0.0152337
863.256	0.0151530
863.334	0.0152061
863.413	0.0152482
863.491	0.0151907
863.569	0.0152259
863.647	0.0153011
863.725	0.0153893
863.803	0.0154134
863.881	0.0155026
863.959	0.0154816
864.038	0.0152803
864.116	0.0151708
864.194	0.0153073
864.272	0.0152636
864.350	0.0151496
864.428	0.0152724
864.506	0.0150975
864.584	0.0151550
864.663	0.0152578
864.741	0.0151326
864.819	0.0151743
864.897	0.0152376
864.975	0.0150723
865.053	0.0151220
865.131	0.0151706
865.209	0.0151869
865.288	0.0151487
865.366	0.0150713
865.444	0.0150416
865.522	0.0150581
865.600	0.0150918
865.678	0.0150548
865.756	0.0151997
865.834	0.0152271
865.913	0.0151499
865.991	0.0152596
866.069	0.0151089
866.147	0.0151551
866.225	0.0152695
866.303	0.0153545
866.381	0.0153123
866.459	0.0152369
866.538	0.0151749
866.616	0.0151809
866.694	0.0151743
866.772	0.0150763
866.850	0.0151267
866.928	0.0151158
867.006	0.0152232
867.084	0.0152215
867.163	0.0150665
867.241	0.0151402
867.319	0.0150639
867.397	0.0150854
867.475	0.0150957
867.553	0.0150922
867.631	0.0150314
867.709	0.0151702
867.788	0.0150314
867.866	0.0151981
867.944	0.0151286
868.022	0.0152033
868.100	0.0152261
868.178	0.0152125
868.256	0.0151720
868.334	0.0151897
868.413	0.0153265
868.491	0.0153531
868.569	0.0151836
868.647	0.0152962
868.725	0.0152644
868.803	0.0152316
868.881	0.0151319
868.959	0.0151511
869.038	0.0152361
869.116	0.0153118
869.194	0.0152596
869.272	0.0152534
869.350	0.0152495
869.428	0.0153736
869.506	0.0151803
869.584	0.0153153
869.663	0.0152859
869.741	0.0152470
869.819	0.0152973
869.897	0.0151627
869.975	0.0151268
870.053	0.0152379
870.131	0.0151229
870.209	0.0152522
870.288	0.0152705
870.366	0.0152457
870.444	0.0151234
870.522	0.0153488
870.600	0.0153619
870.678	0.0153647
870.756	0.0152915
870.834	0.0152618
870.913	0.0154317
870.991	0.0153798
871.069	0.0154559
871.147	0.0154263
871.225	0.0152652
871.303	0.0154102
871.381	0.0154044
871.459	0.0153188
871.538	0.0151891
871.616	0.0152911
871.694	0.0151628
871.772	0.0151147
871.850	0.0151694
871.928	0.0152257
872.006	0.0153274
872.084	0.0151428
872.163	0.0152016
872.241	0.0152250
872.319	0.0152628
872.397	0.0153226
872.475	0.0153454
872.553	0.0152165
872.631	0.0152099
872.709	0.0152482
872.788	0.0152655
872.866	0.0152798
872.944	0.0151960
873.022	0.0153387
873.100	0.0152617
873.178	0.0151270
873.256	0.0151980
873.334	0.0151157
873.413	0.0152162
873.491	0.0153577
873.569	0.0152641
873.647	0.0151392
873.725	0.0151817
873.803	0.0151500
873.881	0.0152132
873.959	0.0153201
874.038	0.0152572
874.116	0.0152158
874.194	0.0154514
874.272	0.0152930
874.350	0.0152263
874.428	0.0152314
874.506	0.0153814
874.584	0.0153255
874.663	0.0151986
874.741	0.0153288
874.819	0.0152279
874.897	0.0151932
874.975	0.0152443
875.053	0.0152183
875.131	0.0151793
875.209	0.0152364
875.288	0.0153920
875.366	0.0153036
875.444	0.0153687
875.522	0.0154637
875.600	0.0152547
875.678	0.0153718
875.756	0.0153983
875.834	0.0153790
875.913	0.0154430
875.991	0.0154887
876.069	0.0152181
876.147	0.0153445
876.225	0.0153415
876.303	0.0152589
876.381	0.0153861
876.459	0.0152352
876.538	0.0152983
876.616	0.0153470
876.694	0.0152876
876.772	0.0153419
876.850	0.0152934
876.928	0.0153313
877.006	0.0151637
877.084	0.0152857
877.163	0.0152438
877.241	0.0152978
877.319	0.0150668
877.397	0.0151736
877.475	0.0151923
877.553	0.0152069
877.631	0.0150883
877.709	0.0151563
877.788	0.0151819
877.866	0.0151601
877.944	0.0152326
878.022	0.0151839
878.100	0.0149835
878.178	0.0151370
878.256	0.0152858
878.334	0.0152332
878.413	0.0151749
878.491	0.0151142
878.569	0.0149590
878.647	0.0151540
878.725	0.0152186
878.803	0.0152084
878.881	0.0151807
878.959	0.0151849
879.038	0.0151810
879.116	0.0151855
879.194	0.0152052
879.272	0.0152772
879.350	0.0151080
879.428	0.0152790
879.506	0.0151808
879.584	0.0149872
879.663	0.0152631
879.741	0.0152992
879.819	0.0152210
879.897	0.0153400
879.975	0.0152003
880.053	0.0152596
880.131	0.0152901
880.209	0.0152065
880.288	0.0152524
880.366	0.0153825
880.444	0.0153036
880.522	0.0152908
880.600	0.0153557
880.678	0.0152181
880.756	0.0152856
880.834	0.0151695
880.913	0.0151727
880.991	0.0152453
881.069	0.0152412
881.147	0.0152433
881.225	0.0152943
881.303	0.0154503
881.381	0.0153448
881.459	0.0154243
881.538	0.0152877
881.616	0.0153116
881.694	0.0154998
881.772	0.0153115
881.850	0.0152264
881.928	0.0154078
882.006	0.0154939
882.084	0.0153101
882.163	0.0153484
882.241	0.0155730
882.319	0.0153939
882.397	0.0152911
882.475	0.0153152
882.553	0.0154666
882.631	0.0152656
882.709	0.0152493
882.788	0.0152717
882.866	0.0151929
882.944	0.0152390
883.022	0.0152063
883.100	0.0151001
883.178	0.0152260
883.256	0.0152911
883.334	0.0152011
883.413	0.0152654
883.491	0.0150636
883.569	0.0150924
883.647	0.0151960
883.725	0.0152182
883.803	0.0151099
883.881	0.0151584
883.959	0.0149889
884.038	0.0151068
884.116	0.0151841
884.194	0.0150480
884.272	0.0151269
884.350	0.0153053
884.428	0.0152549
884.506	0.0151815
884.584	0.0152588
884.663	0.0152309
884.741	0.0152230
884.819	0.0153612
884.897	0.0154811
884.975	0.0152165
885.053	0.0153702
885.131	0.0152135
885.209	0.0153445
885.288	0.0152961
885.366	0.0152998
885.444	0.0153323
885.522	0.0153452
885.600	0.0153944
885.678	0.0152945
885.756	0.0151714
885.834	0.0152466
885.913	0.0151229
885.991	0.0151155
886.069	0.0150188
886.147	0.0150571
886.225	0.0149728
886.303	0.0150303
886.381	0.0151106
886.459	0.0150613
886.538	0.0149136
886.616	0.0150561
886.694	0.0151045
886.772	0.0150488
886.850	0.0150213
886.928	0.0151634
887.006	0.0150261
887.084	0.0150607
887.163	0.0151691
887.241	0.0152055
887.319	0.0152933
887.397	0.0152592
887.475	0.0152177
887.553	0.0152908
887.631	0.0154222
887.709	0.0153730
887.788	0.0152750
887.866	0.0153436
887.944	0.0153298
888.022	0.0154278
888.100	0.0154058
888.178	0.0154578
888.256	0.0152458
888.334	0.0153702
888.413	0.0152948
888.491	0.0153413
888.569	0.0153955
888.647	0.0152402
888.725	0.0153213
888.803	0.0154921
888.881	0.0154230
888.959	0.0154684
889.038	0.0153859
889.116	0.0153107
889.194	0.0153707
889.272	0.0154855
889.350	0.0153960
889.428	0.0152929
889.506	0.0153424
889.584	0.0153099
889.663	0.0152955
889.741	0.0151922
889.819	0.0151967
889.897	0.0151733
889.975	0.0152351
890.053	0.0152122
890.131	0.0151297
890.209	0.0150128
890.288	0.0152188
890.366	0.0152830
890.444	0.0151781
890.522	0.0150447
890.600	0.0150159
890.678	0.0151694
890.756	0.0151777
890.834	0.0151276
890.913	0.0151453
890.991	0.0152472
891.069	0.0151707
891.147	0.0150945
891.225	0.0153364
891.303	0.0153468
891.381	0.0153276
891.459	0.0153147
891.538	0.0153839
891.616	0.0153484
891.694	0.0154351
891.772	0.0154344
891.850	0.0154963
891.928	0.0154780
892.006	0.0155171
892.084	0.0154729
892.163	0.0155497
892.241	0.0154521
892.319	0.0155094
892.397	0.0155043
892.475	0.0155554
892.553	0.0155680
892.631	0.0153173
892.709	0.0153548
892.788	0.0154928
892.866	0.0154890
892.944	0.0155451
893.022	0.0152488
893.100	0.0153422
893.178	0.0153033
893.256	0.0152013
893.334	0.0151999
893.413	0.0152980
893.491	0.0153538
893.569	0.0153220
893.647	0.0152602
893.725	0.0152373
893.803	0.0152127
893.881	0.0153467
893.959	0.0153512
894.038	0.0153257
894.116	0.0153065
894.194	0.0153215
894.272	0.0153024
894.350	0.0154512
894.428	0.0154421
894.506	0.0154794
894.584	0.0154573
894.663	0.0155148
894.741	0.0154893
894.819	0.0155230
894.897	0.0154147
894.975	0.0155828
895.053	0.0156784
895.131	0.0155633
895.209	0.0155608
895.288	0.0156321
895.366	0.0155092
895.444	0.0155190
895.522	0.0154475
895.600	0.0155282
895.678	0.0155300
895.756	0.0154411
895.834	0.0153330
895.913	0.0153471
895.991	0.0155283
896.069	0.0154136
896.147	0.0153271
896.225	0.0152360
896.303	0.0153235
896.381	0.0152774
896.459	0.0152452
896.538	0.0151163
896.616	0.0151213
896.694	0.0152964
896.772	0.0152738
896.850	0.0151885
896.928	0.0152505
897.006	0.0152172
897.084	0.0152442
897.163	0.0151918
897.241	0.0152753
897.319	0.0152972
897.397	0.0151929
897.475	0.0152805
897.553	0.0152398
897.631	0.0152948
897.709	0.0152946
897.788	0.0152527
897.866	0.0154241
897.944	0.0152351
898.022	0.0153152
898.100	0.0153954
898.178	0.0154399
898.256	0.0152676
898.334	0.0153814
898.413	0.0152924
898.491	0.0151862
898.569	0.0152520
898.647	0.0151730
898.725	0.0153347
898.803	0.0152407
898.881	0.0151120
898.959	0.0151729
899.038	0.0152563
899.116	0.0151524
899.194	0.0152245
899.272	0.0150041
899.350	0.0151992
899.428	0.0151659
899.506	0.0151919
899.584	0.0152523
899.663	0.0151763
899.741	0.0151571
899.819	0.0152705
899.897	0.0152937
899.975	0.0152824
900.053	0.0153547
900.131	0.0152960
900.209	0.0154811
900.288	0.0153912
900.366	0.0154076
900.444	0.0153610
900.522	0.0154417
900.600	0.0155724
900.678	0.0154480
900.756	0.0154996
900.834	0.0155296
900.913	0.0154732
900.991	0.0154996
901.069	0.0154559
901.147	0.0153069
901.225	0.0152927
901.303	0.0152953
901.381	0.0153752
901.459	0.0152978
901.538	0.0151661
901.616	0.0151514
901.694	0.0151353
901.772	0.0150700
901.850	0.0150116
901.928	0.0148843
902.006	0.0148227
902.084	0.0149512
902.163	0.0149165
902.241	0.0147681
902.319	0.0147442
902.397	0.0149107
902.475	0.0149370
902.553	0.0147881
902.631	0.0148963
902.709	0.0149010
902.788	0.0149621
902.866	0.0149896
902.944	0.0148375
903.022	0.0151548
903.100	0.0152038
903.178	0.0151244
903.256	0.0152655
903.334	0.0152543
903.413	0.0154026
903.491	0.0152729
903.569	0.0153643
903.647	0.0152879
903.725	0.0153956
903.803	0.0154761
903.881	0.0152708
903.959	0.0153589
904.038	0.0152968
904.116	0.0154546
904.194	0.0153407
904.272	0.0153494
904.350	0.0154327
904.428	0.0152641
904.506	0.0153319
904.584	0.0152416
904.663	0.0152389
904.741	0.0151852
904.819	0.0151347
904.897	0.0150756
904.975	0.0149575
905.053	0.0151855
905.131	0.0151477
905.209	0.0150515
905.288	0.0151039
905.366	0.0150971
905.444	0.0150517
905.522	0.0151309
905.600	0.0150761
905.678	0.0149343
905.756	0.0151380
905.834	0.0152087
905.913	0.0152449
905.991	0.0150881
906.069	0.0151711
906.147	0.0152738
906.225	0.0151712
906.303	0.0152901
906.381	0.0153970
906.459	0.0152989
906.538	0.0154613
906.616	0.0154561
906.694	0.0153957
906.772	0.0153608
906.850	0.0152657
906.928	0.0154063
907.006	0.0152503
907.084	0.0153251
907.163	0.0154238
907.241	0.0152350
907.319	0.0153935
907.397	0.0153693
907.475	0.0152472
907.553	0.0151718
907.631	0.0153149
907.709	0.0153287
907.788	0.0153632
907.866	0.0153867
907.944	0.0153362
908.022	0.0152004
908.100	0.0154058
908.178	0.0154021
908.256	0.0153492
908.334	0.0154140
908.413	0.0153718
908.491	0.0152561
908.569	0.0153195
908.647	0.0152719
908.725	0.0152105
908.803	0.0153059
908.881	0.0152801
908.959	0.0153465
909.038	0.0152784
909.116	0.0153082
909.194	0.0153815
909.272	0.0153712
909.350	0.0152551
909.428	0.0153548
909.506	0.0152635
909.584	0.0152346
909.663	0.0153761
909.741	0.0152432
909.819	0.0153235
909.897	0.0152487
909.975	0.0153250
910.053	0.0153433
910.131	0.0153188
910.209	0.0152719
910.288	0.0154491
910.366	0.0152519
910.444	0.0154010
910.522	0.0154004
910.600	0.0152826
910.678	0.0152839
910.756	0.0154601
910.834	0.0153291
910.913	0.0153998
910.991	0.0155650
911.069	0.0154474
911.147	0.0152246
911.225	0.0153360
911.303	0.0153119
911.381	0.0152612
911.459	0.0153158
911.538	0.0151912
911.616	0.0152503
911.694	0.0152990
911.772	0.0151525
911.850	0.0152102
911.928	0.0150974
912.006	0.0151634
912.084	0.0151308
912.163	0.0150539
912.241	0.0151753
912.319	0.0151535
912.397	0.0153254
912.475	0.0152785
912.553	0.0153059
912.631	0.0153811
912.709	0.0153444
912.788	0.0153691
912.866	0.0154398
912.944	0.0153416
913.022	0.0152506
913.100	0.0154540
913.178	0.0154564
913.256	0.0154473
913.334	0.0155123
913.413	0.0154422
913.491	0.0155610
913.569	0.0156257
913.647	0.0156389
913.725	0.0154533
913.803	0.0154742
913.881	0.0156231
913.959	0.0155874
914.038	0.0154757
914.116	0.0154271
914.194	0.0154270
914.272	0.0155679
914.350	0.0153786
914.428	0.0153597
914.506	0.0153629
914.584	0.0153600
914.663	0.0153571
914.741	0.0153469
914.819	0.0152585
914.897	0.0153765
914.975	0.0153313
915.053	0.0152053
915.131	0.0152932
915.209	0.0153332
915.288	0.0153910
915.366	0.0153613
915.444	0.0152043
915.522	0.0154301
915.600	0.0153852
915.678	0.0153875
915.756	0.0153609
915.834	0.0154446
915.913	0.0153757
915.991	0.0153875
916.069	0.0155161
916.147	0.0154642
916.225	0.0155065
916.303	0.0154729
916.381	0.0153510
916.459	0.0154337
916.538	0.0154624
916.616	0.0155610
916.694	0.0155759
916.772	0.0154663
916.850	0.0155201
916.928	0.0155088
917.006	0.0156515
917.084	0.0156245
917.163	0.0156245
917.241	0.0156169
917.319	0.0156181
917.397	0.0156824
917.475	0.0154975
917.553	0.0154700
917.631	0.0155184
917.709	0.0154742
917.788	0.0154317
917.866	0.0153123
917.944	0.0154139
918.022	0.0153595
918.100	0.0152200
918.178	0.0151748
918.256	0.0151564
918.334	0.0150923
918.413	0.0152234
918.491	0.0151202
918.569	0.0150925
918.647	0.0149675
918.725	0.0152292
918.803	0.0150509
918.881	0.0150691
918.959	0.0152113
919.038	0.0151945
919.116	0.0151359
919.194	0.0154139
919.272	0.0154322
919.350	0.0154142
919.428	0.0153667
919.506	0.0152875
919.584	0.0154147
919.663	0.0153495
919.741	0.0152190
919.819	0.0153320
919.897	0.0155069
