05/20/2022	21:11:08	Ver.	4.1	UNKNOWN
Optical Delay	599.975067	Delta X		0.078125	Sweeps	1	Scan Rate	0/0
Coordinates	Axis 1	NaN	Axis 2	NaN	Axis 3	NaN	Axis 4	NaN	Axis 5	NaN	Axis 6	0.000000
TX Power	0.000000	RX Power	0.000000

599.975	0.0153357
600.053	0.0153291
600.131	0.0152151
600.209	0.0154882
600.288	0.0153692
600.366	0.0153359
600.444	0.0153622
600.522	0.0153355
600.600	0.0153558
600.678	0.0153075
600.756	0.0153899
600.834	0.0154312
600.913	0.0153000
600.991	0.0153288
601.069	0.0154424
601.147	0.0153719
601.225	0.0152512
601.303	0.0153365
601.381	0.0153265
601.459	0.0153842
601.538	0.0153416
601.616	0.0153410
601.694	0.0156190
601.772	0.0155342
601.850	0.0153941
601.928	0.0153474
602.006	0.0152863
602.084	0.0155963
602.163	0.0154896
602.241	0.0153176
602.319	0.0154453
602.397	0.0154446
602.475	0.0153407
602.553	0.0155410
602.631	0.0153815
602.709	0.0153951
602.788	0.0154591
602.866	0.0154637
602.944	0.0154349
603.022	0.0155414
603.100	0.0154981
603.178	0.0153691
603.256	0.0153123
603.334	0.0154454
603.413	0.0154028
603.491	0.0155772
603.569	0.0154980
603.647	0.0154940
603.725	0.0154498
603.803	0.0154729
603.881	0.0154869
603.959	0.0155927
604.038	0.0154513
604.116	0.0154557
604.194	0.0154095
604.272	0.0154211
604.350	0.0155177
604.428	0.0155245
604.506	0.0154603
604.584	0.0154015
604.663	0.0155881
604.741	0.0153522
604.819	0.0154800
604.897	0.0154780
604.975	0.0155417
605.053	0.0155141
605.131	0.0153939
605.209	0.0154496
605.288	0.0154614
605.366	0.0154822
605.444	0.0153996
605.522	0.0153312
605.600	0.0154205
605.678	0.0154551
605.756	0.0154601
605.834	0.0153942
605.913	0.0153446
605.991	0.0154741
606.069	0.0154227
606.147	0.0152674
606.225	0.0154153
606.303	0.0153428
606.381	0.0155517
606.459	0.0154847
606.538	0.0153609
606.616	0.0153585
606.694	0.0153408
606.772	0.0153547
606.850	0.0153698
606.928	0.0155642
607.006	0.0153931
607.084	0.0153103
607.163	0.0153241
607.241	0.0154434
607.319	0.0154679
607.397	0.0154254
607.475	0.0153489
607.553	0.0154293
607.631	0.0153371
607.709	0.0154073
607.788	0.0154126
607.866	0.0154639
607.944	0.0154258
608.022	0.0153539
608.100	0.0154016
608.178	0.0151279
608.256	0.0152853
608.334	0.0154675
608.413	0.0155013
608.491	0.0154739
608.569	0.0153868
608.647	0.0154534
608.725	0.0153860
608.803	0.0154379
608.881	0.0155504
608.959	0.0154193
609.038	0.0154791
609.116	0.0153450
609.194	0.0153909
609.272	0.0153902
609.350	0.0155706
609.428	0.0153867
609.506	0.0153773
609.584	0.0154979
609.663	0.0153532
609.741	0.0153712
609.819	0.0155452
609.897	0.0155499
609.975	0.0154870
610.053	0.0154310
610.131	0.0155548
610.209	0.0154263
610.288	0.0154118
610.366	0.0155001
610.444	0.0155589
610.522	0.0153983
610.600	0.0154771
610.678	0.0155521
610.756	0.0154160
610.834	0.0153915
610.913	0.0155991
610.991	0.0155385
611.069	0.0155223
611.147	0.0154798
611.225	0.0155167
611.303	0.0156006
611.381	0.0155379
611.459	0.0154710
611.538	0.0156655
611.616	0.0154322
611.694	0.0154341
611.772	0.0156332
611.850	0.0154781
611.928	0.0153793
612.006	0.0154955
612.084	0.0155421
612.163	0.0154837
612.241	0.0155321
612.319	0.0154822
612.397	0.0153991
612.475	0.0154604
612.553	0.0154325
612.631	0.0155620
612.709	0.0153722
612.788	0.0153824
612.866	0.0154350
612.944	0.0154633
613.022	0.0153864
613.100	0.0154529
613.178	0.0154649
613.256	0.0154875
613.334	0.0156206
613.413	0.0153783
613.491	0.0154212
613.569	0.0154908
613.647	0.0156623
613.725	0.0155355
613.803	0.0155650
613.881	0.0154742
613.959	0.0152905
614.038	0.0154562
614.116	0.0153446
614.194	0.0155476
614.272	0.0155556
614.350	0.0153637
614.428	0.0156290
614.506	0.0156007
614.584	0.0154535
614.663	0.0154547
614.741	0.0155036
614.819	0.0153825
614.897	0.0154590
614.975	0.0155070
615.053	0.0154154
615.131	0.0153623
615.209	0.0155103
615.288	0.0154850
615.366	0.0154335
615.444	0.0154430
615.522	0.0153937
615.600	0.0154577
615.678	0.0154842
615.756	0.0154427
615.834	0.0155614
615.913	0.0153959
615.991	0.0153055
616.069	0.0155061
616.147	0.0154637
616.225	0.0154385
616.303	0.0153881
616.381	0.0155318
616.459	0.0154169
616.538	0.0155762
616.616	0.0154381
616.694	0.0154649
616.772	0.0153851
616.850	0.0154388
616.928	0.0155001
617.006	0.0153220
617.084	0.0154178
617.163	0.0152821
617.241	0.0155056
617.319	0.0154666
617.397	0.0153960
617.475	0.0153773
617.553	0.0154108
617.631	0.0154404
617.709	0.0153680
617.788	0.0153793
617.866	0.0156402
617.944	0.0154577
618.022	0.0153982
618.100	0.0153017
618.178	0.0153188
618.256	0.0153659
618.334	0.0154532
618.413	0.0153526
618.491	0.0153583
618.569	0.0154127
618.647	0.0154243
618.725	0.0155400
618.803	0.0153849
618.881	0.0154370
618.959	0.0154048
619.038	0.0155241
619.116	0.0154568
619.194	0.0155124
619.272	0.0154825
619.350	0.0153398
619.428	0.0154076
619.506	0.0153162
619.584	0.0154493
619.663	0.0154497
619.741	0.0153665
619.819	0.0155404
619.897	0.0154494
619.975	0.0155711
620.053	0.0154108
620.131	0.0154698
620.209	0.0155567
620.288	0.0154169
620.366	0.0153899
620.444	0.0155471
620.522	0.0154129
620.600	0.0154948
620.678	0.0154733
620.756	0.0154353
620.834	0.0153957
620.913	0.0154984
620.991	0.0152348
621.069	0.0153677
621.147	0.0154529
621.225	0.0154115
621.303	0.0154749
621.381	0.0153654
621.459	0.0154739
621.538	0.0154128
621.616	0.0153549
621.694	0.0153297
621.772	0.0153669
621.850	0.0154442
621.928	0.0154830
622.006	0.0153984
622.084	0.0154510
622.163	0.0155398
622.241	0.0154981
622.319	0.0155138
622.397	0.0153514
622.475	0.0154472
622.553	0.0153883
622.631	0.0153944
622.709	0.0154318
622.788	0.0154275
622.866	0.0154891
622.944	0.0155187
623.022	0.0154722
623.100	0.0155411
623.178	0.0153339
623.256	0.0154615
623.334	0.0154230
623.413	0.0153954
623.491	0.0154398
623.569	0.0154056
623.647	0.0153194
623.725	0.0154380
623.803	0.0153848
623.881	0.0154637
623.959	0.0153864
624.038	0.0154360
624.116	0.0154282
624.194	0.0154993
624.272	0.0154902
624.350	0.0155549
624.428	0.0154718
624.506	0.0154498
624.584	0.0153939
624.663	0.0154855
624.741	0.0155083
624.819	0.0154549
624.897	0.0154372
624.975	0.0156013
625.053	0.0155133
625.131	0.0154647
625.209	0.0154835
625.288	0.0155260
625.366	0.0154491
625.444	0.0153248
625.522	0.0155020
625.600	0.0153823
625.678	0.0154261
625.756	0.0154932
625.834	0.0154221
625.913	0.0155720
625.991	0.0155508
626.069	0.0154188
626.147	0.0156308
626.225	0.0153758
626.303	0.0154324
626.381	0.0154087
626.459	0.0154933
626.538	0.0154817
626.616	0.0155870
626.694	0.0155001
626.772	0.0153214
626.850	0.0155850
626.928	0.0156866
627.006	0.0154883
627.084	0.0155852
627.163	0.0154842
627.241	0.0155401
627.319	0.0155548
627.397	0.0154472
627.475	0.0154582
627.553	0.0157575
627.631	0.0156039
627.709	0.0155071
627.788	0.0154276
627.866	0.0154359
627.944	0.0154124
628.022	0.0156026
628.100	0.0155966
628.178	0.0153898
628.256	0.0154307
628.334	0.0154175
628.413	0.0154609
628.491	0.0154804
628.569	0.0154099
628.647	0.0155341
628.725	0.0152882
628.803	0.0153706
628.881	0.0153852
628.959	0.0153468
629.038	0.0153330
629.116	0.0154837
629.194	0.0154296
629.272	0.0154391
629.350	0.0153952
629.428	0.0153178
629.506	0.0154192
629.584	0.0154819
629.663	0.0154007
629.741	0.0153741
629.819	0.0155257
629.897	0.0155361
629.975	0.0155679
630.053	0.0155206
630.131	0.0155212
630.209	0.0153475
630.288	0.0154819
630.366	0.0154987
630.444	0.0154919
630.522	0.0155149
630.600	0.0154341
630.678	0.0156373
630.756	0.0155756
630.834	0.0156277
630.913	0.0156677
630.991	0.0155630
631.069	0.0155934
631.147	0.0156309
631.225	0.0154955
631.303	0.0154922
631.381	0.0155665
631.459	0.0154718
631.538	0.0155197
631.616	0.0155649
631.694	0.0156641
631.772	0.0155749
631.850	0.0154222
631.928	0.0155129
632.006	0.0156628
632.084	0.0154580
632.163	0.0155653
632.241	0.0155553
632.319	0.0155827
632.397	0.0154812
632.475	0.0154964
632.553	0.0155238
632.631	0.0156309
632.709	0.0154916
632.788	0.0154871
632.866	0.0154692
632.944	0.0155602
633.022	0.0153120
633.100	0.0155749
633.178	0.0154710
633.256	0.0154507
633.334	0.0155008
633.413	0.0153894
633.491	0.0155837
633.569	0.0155140
633.647	0.0156361
633.725	0.0154999
633.803	0.0154040
633.881	0.0154058
633.959	0.0156346
634.038	0.0155781
634.116	0.0154604
634.194	0.0156477
634.272	0.0156138
634.350	0.0155521
634.428	0.0154829
634.506	0.0155114
634.584	0.0156483
634.663	0.0156862
634.741	0.0155811
634.819	0.0155676
634.897	0.0156874
634.975	0.0156364
635.053	0.0155820
635.131	0.0155936
635.209	0.0157072
635.288	0.0156092
635.366	0.0155190
635.444	0.0154614
635.522	0.0154858
635.600	0.0155150
635.678	0.0154295
635.756	0.0154532
635.834	0.0155082
635.913	0.0156544
635.991	0.0155577
636.069	0.0155196
636.147	0.0154364
636.225	0.0155415
636.303	0.0155706
636.381	0.0153709
636.459	0.0153828
636.538	0.0154924
636.616	0.0154733
636.694	0.0154067
636.772	0.0154974
636.850	0.0155937
636.928	0.0155243
637.006	0.0155464
637.084	0.0153735
637.163	0.0154316
637.241	0.0154512
637.319	0.0154246
637.397	0.0155170
637.475	0.0155968
637.553	0.0155410
637.631	0.0156422
637.709	0.0156065
637.788	0.0156196
637.866	0.0155018
637.944	0.0156029
638.022	0.0154937
638.100	0.0154190
638.178	0.0156297
638.256	0.0157091
638.334	0.0156073
638.413	0.0155147
638.491	0.0156078
638.569	0.0155016
638.647	0.0154345
638.725	0.0155221
638.803	0.0154652
638.881	0.0154758
638.959	0.0154895
639.038	0.0154472
639.116	0.0154999
639.194	0.0154646
639.272	0.0153568
639.350	0.0155032
639.428	0.0155360
639.506	0.0156396
639.584	0.0155968
639.663	0.0155471
639.741	0.0155241
639.819	0.0154927
639.897	0.0154863
639.975	0.0157004
640.053	0.0156080
640.131	0.0154942
640.209	0.0155946
640.288	0.0155776
640.366	0.0155135
640.444	0.0153896
640.522	0.0154993
640.600	0.0155357
640.678	0.0155854
640.756	0.0155814
640.834	0.0155972
640.913	0.0154743
640.991	0.0154686
641.069	0.0154991
641.147	0.0153084
641.225	0.0154316
641.303	0.0153357
641.381	0.0154121
641.459	0.0154344
641.538	0.0153413
641.616	0.0156083
641.694	0.0156303
641.772	0.0154228
641.850	0.0155017
641.928	0.0154860
642.006	0.0155222
642.084	0.0156277
642.163	0.0156132
642.241	0.0156026
642.319	0.0154959
642.397	0.0156631
642.475	0.0156370
642.553	0.0155841
642.631	0.0154935
642.709	0.0154237
642.788	0.0155653
642.866	0.0154405
642.944	0.0154758
643.022	0.0154455
643.100	0.0154698
643.178	0.0153536
643.256	0.0154699
643.334	0.0154372
643.413	0.0154007
643.491	0.0153864
643.569	0.0154002
643.647	0.0155559
643.725	0.0154401
643.803	0.0154527
643.881	0.0154380
643.959	0.0154903
644.038	0.0153844
644.116	0.0153993
644.194	0.0155638
644.272	0.0154423
644.350	0.0155717
644.428	0.0154443
644.506	0.0154200
644.584	0.0154180
644.663	0.0155679
644.741	0.0155943
644.819	0.0154202
644.897	0.0155626
644.975	0.0154145
645.053	0.0154305
645.131	0.0153925
645.209	0.0153017
645.288	0.0154041
645.366	0.0153711
645.444	0.0154385
645.522	0.0154376
645.600	0.0153404
645.678	0.0154817
645.756	0.0154362
645.834	0.0154900
645.913	0.0155987
645.991	0.0154961
646.069	0.0154823
646.147	0.0154488
646.225	0.0154252
646.303	0.0154260
646.381	0.0154634
646.459	0.0153780
646.538	0.0153815
646.616	0.0154558
646.694	0.0154320
646.772	0.0153396
646.850	0.0154404
646.928	0.0154723
647.006	0.0153110
647.084	0.0153813
647.163	0.0154350
647.241	0.0154189
647.319	0.0155366
647.397	0.0153954
647.475	0.0153683
647.553	0.0154151
647.631	0.0154885
647.709	0.0155761
647.788	0.0155550
647.866	0.0154776
647.944	0.0154591
648.022	0.0154767
648.100	0.0154704
648.178	0.0154527
648.256	0.0155013
648.334	0.0154402
648.413	0.0156196
648.491	0.0154829
648.569	0.0154687
648.647	0.0154727
648.725	0.0154492
648.803	0.0154510
648.881	0.0155528
648.959	0.0154874
649.038	0.0153540
649.116	0.0154459
649.194	0.0153942
649.272	0.0154609
649.350	0.0154646
649.428	0.0153955
649.506	0.0154121
649.584	0.0154276
649.663	0.0154858
649.741	0.0155077
649.819	0.0155386
649.897	0.0155441
649.975	0.0155453
650.053	0.0156444
650.131	0.0154655
650.209	0.0155483
650.288	0.0155872
650.366	0.0153902
650.444	0.0155229
650.522	0.0155223
650.600	0.0155663
650.678	0.0155742
650.756	0.0153600
650.834	0.0155273
650.913	0.0154133
650.991	0.0153513
651.069	0.0153825
651.147	0.0155033
651.225	0.0154151
651.303	0.0154005
651.381	0.0154733
651.459	0.0153294
651.538	0.0153923
651.616	0.0153485
651.694	0.0154059
651.772	0.0155463
651.850	0.0154542
651.928	0.0153864
652.006	0.0155757
652.084	0.0154656
652.163	0.0155201
652.241	0.0155870
652.319	0.0156599
652.397	0.0156715
652.475	0.0155616
652.553	0.0155231
652.631	0.0156230
652.709	0.0155961
652.788	0.0154984
652.866	0.0155122
652.944	0.0155527
653.022	0.0155800
653.100	0.0155722
653.178	0.0154153
653.256	0.0155502
653.334	0.0154644
653.413	0.0155019
653.491	0.0154984
653.569	0.0153387
653.647	0.0153989
653.725	0.0155149
653.803	0.0154720
653.881	0.0154826
653.959	0.0155112
654.038	0.0154470
654.116	0.0154184
654.194	0.0154002
654.272	0.0153219
654.350	0.0154512
654.428	0.0154874
654.506	0.0154742
654.584	0.0155073
654.663	0.0156020
654.741	0.0156840
654.819	0.0154896
654.897	0.0154153
654.975	0.0154826
655.053	0.0155330
655.131	0.0155793
655.209	0.0154819
655.288	0.0154242
655.366	0.0153633
655.444	0.0154864
655.522	0.0153458
655.600	0.0153514
655.678	0.0154928
655.756	0.0153782
655.834	0.0155235
655.913	0.0156699
655.991	0.0155080
656.069	0.0154276
656.147	0.0155489
656.225	0.0156109
656.303	0.0155679
656.381	0.0155221
656.459	0.0155025
656.538	0.0155215
656.616	0.0155534
656.694	0.0154008
656.772	0.0155159
656.850	0.0154730
656.928	0.0154787
657.006	0.0155289
657.084	0.0156782
657.163	0.0157563
657.241	0.0155898
657.319	0.0154879
657.397	0.0154935
657.475	0.0154768
657.553	0.0155097
657.631	0.0155376
657.709	0.0156160
657.788	0.0155264
657.866	0.0155143
657.944	0.0154786
658.022	0.0154824
658.100	0.0155267
658.178	0.0155884
658.256	0.0152785
658.334	0.0154400
658.413	0.0154878
658.491	0.0154541
658.569	0.0153271
658.647	0.0154568
658.725	0.0156046
658.803	0.0154460
658.881	0.0155425
658.959	0.0155413
659.038	0.0155685
659.116	0.0155460
659.194	0.0155608
659.272	0.0154422
659.350	0.0155125
659.428	0.0155100
659.506	0.0156454
659.584	0.0155383
659.663	0.0156626
659.741	0.0154645
659.819	0.0156778
659.897	0.0156522
659.975	0.0155931
660.053	0.0155615
660.131	0.0154227
660.209	0.0154734
660.288	0.0155766
660.366	0.0155158
660.444	0.0154065
660.522	0.0154013
660.600	0.0155031
660.678	0.0155841
660.756	0.0154363
660.834	0.0153438
660.913	0.0154559
660.991	0.0155877
661.069	0.0155357
661.147	0.0154344
661.225	0.0154918
661.303	0.0155700
661.381	0.0154978
661.459	0.0155445
661.538	0.0154996
661.616	0.0156514
661.694	0.0157124
661.772	0.0155210
661.850	0.0154856
661.928	0.0155401
662.006	0.0155181
662.084	0.0155399
662.163	0.0156841
662.241	0.0155456
662.319	0.0155571
662.397	0.0154487
662.475	0.0155207
662.553	0.0155403
662.631	0.0154168
662.709	0.0154525
662.788	0.0156762
662.866	0.0155983
662.944	0.0155846
663.022	0.0154329
663.100	0.0154848
663.178	0.0154623
663.256	0.0154282
663.334	0.0155380
663.413	0.0155093
663.491	0.0155722
663.569	0.0155091
663.647	0.0155083
663.725	0.0154106
663.803	0.0153159
663.881	0.0154709
663.959	0.0154404
664.038	0.0155161
664.116	0.0155682
664.194	0.0153332
664.272	0.0154568
664.350	0.0154495
664.428	0.0154271
664.506	0.0155224
664.584	0.0156101
664.663	0.0154835
664.741	0.0155299
664.819	0.0154146
664.897	0.0155666
664.975	0.0155407
665.053	0.0154642
665.131	0.0155284
665.209	0.0154033
665.288	0.0154099
665.366	0.0154942
665.444	0.0154327
665.522	0.0153911
665.600	0.0153506
665.678	0.0154365
665.756	0.0154888
665.834	0.0152873
665.913	0.0153942
665.991	0.0153284
666.069	0.0152694
666.147	0.0153719
666.225	0.0153599
666.303	0.0153746
666.381	0.0153341
666.459	0.0155018
666.538	0.0153671
666.616	0.0154062
666.694	0.0155225
666.772	0.0155785
666.850	0.0154133
666.928	0.0153842
667.006	0.0154984
667.084	0.0155315
667.163	0.0154657
667.241	0.0155464
667.319	0.0154958
667.397	0.0154819
667.475	0.0154829
667.553	0.0155827
667.631	0.0155187
667.709	0.0154694
667.788	0.0155945
667.866	0.0153251
667.944	0.0153798
668.022	0.0153976
668.100	0.0153423
668.178	0.0152577
668.256	0.0153810
668.334	0.0153670
668.413	0.0153555
668.491	0.0152930
668.569	0.0152165
668.647	0.0152940
668.725	0.0153852
668.803	0.0154162
668.881	0.0154468
668.959	0.0154556
669.038	0.0153111
669.116	0.0155008
669.194	0.0153977
669.272	0.0153468
669.350	0.0153652
669.428	0.0154633
669.506	0.0154727
669.584	0.0155001
669.663	0.0154973
669.741	0.0153793
669.819	0.0154227
669.897	0.0155618
669.975	0.0156063
670.053	0.0155361
670.131	0.0155053
670.209	0.0155740
670.288	0.0155372
670.366	0.0155652
670.444	0.0154848
670.522	0.0154755
670.600	0.0154419
670.678	0.0154919
670.756	0.0154125
670.834	0.0155588
670.913	0.0154527
670.991	0.0155647
671.069	0.0154746
671.147	0.0153474
671.225	0.0153684
671.303	0.0154236
671.381	0.0154623
671.459	0.0154858
671.538	0.0154756
671.616	0.0153406
671.694	0.0153993
671.772	0.0154377
671.850	0.0154750
671.928	0.0154179
672.006	0.0153225
672.084	0.0154682
672.163	0.0154749
672.241	0.0154800
672.319	0.0156586
672.397	0.0154868
672.475	0.0156104
672.553	0.0156377
672.631	0.0155219
672.709	0.0156303
672.788	0.0156782
672.866	0.0156619
672.944	0.0156263
673.022	0.0156361
673.100	0.0155929
673.178	0.0155779
673.256	0.0156448
673.334	0.0155397
673.413	0.0155867
673.491	0.0154821
673.569	0.0154360
673.647	0.0152940
673.725	0.0152552
673.803	0.0150636
673.881	0.0150161
673.959	0.0150056
674.038	0.0149300
674.116	0.0148640
674.194	0.0150622
674.272	0.0150095
674.350	0.0148112
674.428	0.0149098
674.506	0.0148808
674.584	0.0150084
674.663	0.0150908
674.741	0.0149294
674.819	0.0149203
674.897	0.0150345
674.975	0.0153499
675.053	0.0153755
675.131	0.0153520
675.209	0.0154591
675.288	0.0156686
675.366	0.0157633
675.444	0.0158783
675.522	0.0158524
675.600	0.0159779
675.678	0.0160731
675.756	0.0162260
675.834	0.0162180
675.913	0.0162546
675.991	0.0162472
676.069	0.0163269
676.147	0.0163332
676.225	0.0162514
676.303	0.0161145
676.381	0.0161523
676.459	0.0160654
676.538	0.0158310
676.616	0.0155589
676.694	0.0155885
676.772	0.0153337
676.850	0.0151408
676.928	0.0150329
677.006	0.0148077
677.084	0.0145654
677.163	0.0143639
677.241	0.0143514
677.319	0.0140942
677.397	0.0139794
677.475	0.0138238
677.553	0.0138709
677.631	0.0140753
677.709	0.0138280
677.788	0.0138596
677.866	0.0139720
677.944	0.0141580
678.022	0.0143420
678.100	0.0145259
678.178	0.0144882
678.256	0.0149957
678.334	0.0151855
678.413	0.0154080
678.491	0.0157439
678.569	0.0159888
678.647	0.0162188
678.725	0.0163593
678.803	0.0168595
678.881	0.0168522
678.959	0.0170573
679.038	0.0172027
679.116	0.0173204
679.194	0.0173299
679.272	0.0174444
679.350	0.0173859
679.428	0.0173201
679.506	0.0171445
679.584	0.0169329
679.663	0.0168258
679.741	0.0165849
679.819	0.0163527
679.897	0.0160042
679.975	0.0157804
680.053	0.0155807
680.131	0.0152531
680.209	0.0149426
680.288	0.0147147
680.366	0.0144849
680.444	0.0143826
680.522	0.0142943
680.600	0.0139075
680.678	0.0139851
680.756	0.0137628
680.834	0.0138748
680.913	0.0136604
680.991	0.0139113
681.069	0.0139355
681.147	0.0138156
681.225	0.0139659
681.303	0.0141354
681.381	0.0143803
681.459	0.0146150
681.538	0.0146513
681.616	0.0149028
681.694	0.0150622
681.772	0.0155046
681.850	0.0155933
681.928	0.0156200
682.006	0.0157587
682.084	0.0159334
682.163	0.0159932
682.241	0.0159327
682.319	0.0159877
682.397	0.0160903
682.475	0.0161037
682.553	0.0162267
682.631	0.0162318
682.709	0.0160442
682.788	0.0161278
682.866	0.0159337
682.944	0.0160912
683.022	0.0160999
683.100	0.0160281
683.178	0.0160643
683.256	0.0160506
683.334	0.0160780
683.413	0.0161794
683.491	0.0161402
683.569	0.0160778
683.647	0.0161565
683.725	0.0163977
683.803	0.0162958
683.881	0.0162581
683.959	0.0164175
684.038	0.0163923
684.116	0.0162840
684.194	0.0161627
684.272	0.0161029
684.350	0.0160257
684.428	0.0158180
684.506	0.0158112
684.584	0.0154278
684.663	0.0151910
684.741	0.0150352
684.819	0.0148466
684.897	0.0145792
684.975	0.0143005
685.053	0.0141589
685.131	0.0139420
685.209	0.0138189
685.288	0.0137342
685.366	0.0134802
685.444	0.0134358
685.522	0.0134687
685.600	0.0134595
685.678	0.0133411
685.756	0.0134389
685.834	0.0136406
685.913	0.0137916
685.991	0.0139997
686.069	0.0142141
686.147	0.0145852
686.225	0.0149483
686.303	0.0152760
686.381	0.0155080
686.459	0.0156897
686.538	0.0160062
686.616	0.0163077
686.694	0.0167004
686.772	0.0170244
686.850	0.0171990
686.928	0.0175060
687.006	0.0176707
687.084	0.0177569
687.163	0.0178850
687.241	0.0180138
687.319	0.0180856
687.397	0.0179202
687.475	0.0179430
687.553	0.0177205
687.631	0.0175095
687.709	0.0171556
687.788	0.0170508
687.866	0.0166632
687.944	0.0161271
688.022	0.0156776
688.100	0.0154614
688.178	0.0149502
688.256	0.0143291
688.334	0.0140475
688.413	0.0136256
688.491	0.0132237
688.569	0.0130090
688.647	0.0126894
688.725	0.0127549
688.803	0.0125219
688.881	0.0124258
688.959	0.0124237
689.038	0.0124807
689.116	0.0126707
689.194	0.0127959
689.272	0.0130587
689.350	0.0133852
689.428	0.0136882
689.506	0.0139040
689.584	0.0143462
689.663	0.0145974
689.741	0.0150309
689.819	0.0153873
689.897	0.0158920
689.975	0.0164577
690.053	0.0167887
690.131	0.0171797
690.209	0.0174859
690.288	0.0179060
690.366	0.0182070
690.444	0.0184472
690.522	0.0186942
690.600	0.0188362
690.678	0.0188264
690.756	0.0189956
690.834	0.0188297
690.913	0.0186056
690.991	0.0184530
691.069	0.0182265
691.147	0.0177898
691.225	0.0175786
691.303	0.0170557
691.381	0.0166753
691.459	0.0161412
691.538	0.0155695
691.616	0.0152942
691.694	0.0148473
691.772	0.0143137
691.850	0.0140510
691.928	0.0135676
692.006	0.0133614
692.084	0.0129331
692.163	0.0127703
692.241	0.0126003
692.319	0.0125726
692.397	0.0125684
692.475	0.0124517
692.553	0.0125388
692.631	0.0125632
692.709	0.0127306
692.788	0.0129169
692.866	0.0131196
692.944	0.0132512
693.022	0.0136208
693.100	0.0136994
693.178	0.0141154
693.256	0.0144437
693.334	0.0146127
693.413	0.0150159
693.491	0.0154147
693.569	0.0157040
693.647	0.0157502
693.725	0.0159315
693.803	0.0161607
693.881	0.0163361
693.959	0.0164294
694.038	0.0164803
694.116	0.0166968
694.194	0.0166663
694.272	0.0166232
694.350	0.0166499
694.428	0.0168546
694.506	0.0167049
694.584	0.0167816
694.663	0.0167321
694.741	0.0168024
694.819	0.0166978
694.897	0.0167265
694.975	0.0167041
695.053	0.0166367
695.131	0.0166068
695.209	0.0165022
695.288	0.0165309
695.366	0.0162662
695.444	0.0161871
695.522	0.0162331
695.600	0.0162485
695.678	0.0161285
695.756	0.0160317
695.834	0.0160352
695.913	0.0160611
695.991	0.0157338
696.069	0.0158659
696.147	0.0157154
696.225	0.0156312
696.303	0.0156934
696.381	0.0155060
696.459	0.0154279
696.538	0.0153939
696.616	0.0152162
696.694	0.0152093
696.772	0.0150764
696.850	0.0150645
696.928	0.0149731
697.006	0.0149543
697.084	0.0147183
697.163	0.0148183
697.241	0.0147349
697.319	0.0146638
697.397	0.0146818
697.475	0.0146065
697.553	0.0145135
697.631	0.0145526
697.709	0.0145865
697.788	0.0144682
697.866	0.0143893
697.944	0.0143212
698.022	0.0143307
698.100	0.0142132
698.178	0.0142150
698.256	0.0143181
698.334	0.0142894
698.413	0.0142493
698.491	0.0141666
698.569	0.0142046
698.647	0.0141808
698.725	0.0142903
698.803	0.0143000
698.881	0.0143194
698.959	0.0143439
699.038	0.0143694
699.116	0.0144827
699.194	0.0143586
699.272	0.0145370
699.350	0.0146539
699.428	0.0146199
699.506	0.0148178
699.584	0.0149107
699.663	0.0149583
699.741	0.0153461
699.819	0.0153463
699.897	0.0154948
699.975	0.0157253
700.053	0.0158228
700.131	0.0160905
700.209	0.0162042
700.288	0.0163176
700.366	0.0166927
700.444	0.0171599
700.522	0.0172635
700.600	0.0173470
700.678	0.0176557
700.756	0.0181071
700.834	0.0181677
700.913	0.0181345
700.991	0.0182922
701.069	0.0184447
701.147	0.0184645
701.225	0.0183135
701.303	0.0182622
701.381	0.0181058
701.459	0.0178282
701.538	0.0176978
701.616	0.0175377
701.694	0.0171812
701.772	0.0168275
701.850	0.0166195
701.928	0.0163327
702.006	0.0158109
702.084	0.0155415
702.163	0.0152728
702.241	0.0148470
702.319	0.0145287
702.397	0.0140795
702.475	0.0136026
702.553	0.0133901
702.631	0.0129147
702.709	0.0126614
702.788	0.0124335
702.866	0.0122032
702.944	0.0121611
703.022	0.0120554
703.100	0.0120731
703.178	0.0122459
703.256	0.0123834
703.334	0.0125051
703.413	0.0128294
703.491	0.0130860
703.569	0.0133328
703.647	0.0136848
703.725	0.0140522
703.803	0.0142875
703.881	0.0146889
703.959	0.0150632
704.038	0.0152996
704.116	0.0155540
704.194	0.0159149
704.272	0.0162606
704.350	0.0165208
704.428	0.0167044
704.506	0.0169165
704.584	0.0172105
704.663	0.0175257
704.741	0.0175697
704.819	0.0178203
704.897	0.0180634
704.975	0.0179081
705.053	0.0177800
705.131	0.0176404
705.209	0.0174395
705.288	0.0169350
705.366	0.0166315
705.444	0.0162337
705.522	0.0159828
705.600	0.0155267
705.678	0.0152478
705.756	0.0149977
705.834	0.0148944
705.913	0.0146205
705.991	0.0144860
706.069	0.0144492
706.147	0.0141817
706.225	0.0141508
706.303	0.0142134
706.381	0.0141608
706.459	0.0142398
706.538	0.0141953
706.616	0.0144014
706.694	0.0145489
706.772	0.0146976
706.850	0.0150254
706.928	0.0152276
707.006	0.0153323
707.084	0.0157128
707.163	0.0162064
707.241	0.0163834
707.319	0.0165555
707.397	0.0169007
707.475	0.0170995
707.553	0.0173089
707.631	0.0172097
707.709	0.0174776
707.788	0.0174735
707.866	0.0173187
707.944	0.0173196
708.022	0.0172549
708.100	0.0172197
708.178	0.0170798
708.256	0.0169175
708.334	0.0168409
708.413	0.0167424
708.491	0.0165240
708.569	0.0164307
708.647	0.0163551
708.725	0.0160226
708.803	0.0159222
708.881	0.0157745
708.959	0.0155075
709.038	0.0153383
709.116	0.0152407
709.194	0.0152238
709.272	0.0149104
709.350	0.0146264
709.428	0.0144894
709.506	0.0142597
709.584	0.0141563
709.663	0.0138979
709.741	0.0136986
709.819	0.0135909
709.897	0.0134740
709.975	0.0133938
710.053	0.0132948
710.131	0.0130836
710.209	0.0128051
710.288	0.0130222
710.366	0.0127530
710.444	0.0127169
710.522	0.0126048
710.600	0.0125958
710.678	0.0126766
710.756	0.0127912
710.834	0.0129176
710.913	0.0131235
710.991	0.0133964
711.069	0.0136082
711.147	0.0138424
711.225	0.0141802
711.303	0.0144828
711.381	0.0149495
711.459	0.0154120
711.538	0.0155440
711.616	0.0160709
711.694	0.0162946
711.772	0.0166309
711.850	0.0171013
711.928	0.0175816
712.006	0.0177339
712.084	0.0179801
712.163	0.0181742
712.241	0.0182227
712.319	0.0184677
712.397	0.0185275
712.475	0.0185351
712.553	0.0184200
712.631	0.0183425
712.709	0.0182466
712.788	0.0180576
712.866	0.0177103
712.944	0.0177009
713.022	0.0172602
713.100	0.0169953
713.178	0.0168097
713.256	0.0164410
713.334	0.0163185
713.413	0.0161727
713.491	0.0159201
713.569	0.0156039
713.647	0.0153940
713.725	0.0153713
713.803	0.0149952
713.881	0.0150275
713.959	0.0150835
714.038	0.0150588
714.116	0.0150489
714.194	0.0148212
714.272	0.0145889
714.350	0.0145486
714.428	0.0145358
714.506	0.0144186
714.584	0.0145174
714.663	0.0143204
714.741	0.0143064
714.819	0.0141898
714.897	0.0143136
714.975	0.0141710
715.053	0.0142912
715.131	0.0144910
715.209	0.0145345
715.288	0.0144637
715.366	0.0144073
715.444	0.0145090
715.522	0.0145818
715.600	0.0146426
715.678	0.0145851
715.756	0.0145586
715.834	0.0146844
715.913	0.0147224
715.991	0.0147180
716.069	0.0148032
716.147	0.0149689
716.225	0.0149730
716.303	0.0151181
716.381	0.0153112
716.459	0.0153754
716.538	0.0153373
716.616	0.0154314
716.694	0.0154234
716.772	0.0154903
716.850	0.0154233
716.928	0.0154102
717.006	0.0153190
717.084	0.0149873
717.163	0.0150581
717.241	0.0149711
717.319	0.0147800
717.397	0.0149466
717.475	0.0148703
717.553	0.0147687
717.631	0.0147973
717.709	0.0149557
717.788	0.0148917
717.866	0.0150046
717.944	0.0150559
718.022	0.0150565
718.100	0.0151137
718.178	0.0151947
718.256	0.0151430
718.334	0.0153086
718.413	0.0153005
718.491	0.0154700
718.569	0.0156247
718.647	0.0156532
718.725	0.0159365
718.803	0.0163126
718.881	0.0166127
718.959	0.0169416
719.038	0.0170828
719.116	0.0173597
719.194	0.0175793
719.272	0.0176889
719.350	0.0178918
719.428	0.0181421
719.506	0.0180488
719.584	0.0180655
719.663	0.0181359
719.741	0.0180819
719.819	0.0179102
719.897	0.0176668
719.975	0.0176952
720.053	0.0175261
720.131	0.0172769
720.209	0.0170965
720.288	0.0168587
720.366	0.0166634
720.444	0.0163651
720.522	0.0162497
720.600	0.0160280
720.678	0.0157437
720.756	0.0154191
720.834	0.0151679
720.913	0.0149783
720.991	0.0145879
721.069	0.0144412
721.147	0.0142111
721.225	0.0138126
721.303	0.0137043
721.381	0.0136708
721.459	0.0133631
721.538	0.0133406
721.616	0.0132401
721.694	0.0131639
721.772	0.0131460
721.850	0.0128796
721.928	0.0129002
722.006	0.0131911
722.084	0.0131470
722.163	0.0130259
722.241	0.0132610
722.319	0.0133836
722.397	0.0136069
722.475	0.0137463
722.553	0.0137746
722.631	0.0140565
722.709	0.0143066
722.788	0.0145406
722.866	0.0148849
722.944	0.0150317
723.022	0.0153798
723.100	0.0158220
723.178	0.0160397
723.256	0.0163853
723.334	0.0165145
723.413	0.0166836
723.491	0.0170003
723.569	0.0170863
723.647	0.0172250
723.725	0.0173285
723.803	0.0174242
723.881	0.0173444
723.959	0.0173252
724.038	0.0172362
724.116	0.0172399
724.194	0.0171738
724.272	0.0170916
724.350	0.0168279
724.428	0.0163964
724.506	0.0163063
724.584	0.0162514
724.663	0.0160763
724.741	0.0159159
724.819	0.0157077
724.897	0.0155642
724.975	0.0155023
725.053	0.0154723
725.131	0.0153566
725.209	0.0152499
725.288	0.0153546
725.366	0.0153510
725.444	0.0153050
725.522	0.0154770
725.600	0.0154692
725.678	0.0155308
725.756	0.0154780
725.834	0.0155418
725.913	0.0156070
725.991	0.0156400
726.069	0.0156278
726.147	0.0155541
726.225	0.0156840
726.303	0.0156019
726.381	0.0155622
726.459	0.0154268
726.538	0.0154206
726.616	0.0151101
726.694	0.0151026
726.772	0.0148783
726.850	0.0147429
726.928	0.0147195
727.006	0.0146382
727.084	0.0147427
727.163	0.0146252
727.241	0.0148291
727.319	0.0148797
727.397	0.0149177
727.475	0.0151194
727.553	0.0154432
727.631	0.0154821
727.709	0.0157430
727.788	0.0160922
727.866	0.0162208
727.944	0.0160906
728.022	0.0163892
728.100	0.0164783
728.178	0.0164738
728.256	0.0165729
728.334	0.0164565
728.413	0.0163060
728.491	0.0163158
728.569	0.0162331
728.647	0.0161806
728.725	0.0160755
728.803	0.0159934
728.881	0.0158555
728.959	0.0158214
729.038	0.0155365
729.116	0.0154140
729.194	0.0153312
729.272	0.0151897
729.350	0.0148650
729.428	0.0145995
729.506	0.0144318
729.584	0.0143240
729.663	0.0141180
729.741	0.0140903
729.819	0.0138693
729.897	0.0137434
729.975	0.0138170
730.053	0.0140269
730.131	0.0138277
730.209	0.0138326
730.288	0.0142083
730.366	0.0142520
730.444	0.0142813
730.522	0.0144399
730.600	0.0147837
730.678	0.0149163
730.756	0.0152424
730.834	0.0154132
730.913	0.0155891
730.991	0.0156557
731.069	0.0160777
731.147	0.0163618
731.225	0.0163766
731.303	0.0163998
731.381	0.0164548
731.459	0.0166779
731.538	0.0167664
731.616	0.0165707
731.694	0.0166647
731.772	0.0166226
731.850	0.0166164
731.928	0.0165362
732.006	0.0162593
732.084	0.0162935
732.163	0.0161852
732.241	0.0160101
732.319	0.0158878
732.397	0.0159404
732.475	0.0157353
732.553	0.0156250
732.631	0.0154402
732.709	0.0154552
732.788	0.0156122
732.866	0.0155184
732.944	0.0154208
733.022	0.0154736
733.100	0.0155865
733.178	0.0155717
733.256	0.0156380
733.334	0.0157208
733.413	0.0157288
733.491	0.0157694
733.569	0.0158307
733.647	0.0158142
733.725	0.0157240
733.803	0.0157378
733.881	0.0156258
733.959	0.0155811
734.038	0.0155674
734.116	0.0156170
734.194	0.0155116
734.272	0.0154372
734.350	0.0152412
734.428	0.0154343
734.506	0.0153332
734.584	0.0151705
734.663	0.0151925
734.741	0.0151382
734.819	0.0150625
734.897	0.0149480
734.975	0.0147401
735.053	0.0145878
735.131	0.0146305
735.209	0.0144890
735.288	0.0145744
735.366	0.0145326
735.444	0.0144868
735.522	0.0144646
735.600	0.0144920
735.678	0.0147463
735.756	0.0148052
735.834	0.0150310
735.913	0.0150873
735.991	0.0152074
736.069	0.0153277
736.147	0.0154573
736.225	0.0155642
736.303	0.0157969
736.381	0.0158410
736.459	0.0159175
736.538	0.0157742
736.616	0.0159248
736.694	0.0159472
736.772	0.0158669
736.850	0.0158695
736.928	0.0158289
737.006	0.0157494
737.084	0.0155917
737.163	0.0154143
737.241	0.0154087
737.319	0.0152017
737.397	0.0151748
737.475	0.0150110
737.553	0.0149340
737.631	0.0150579
737.709	0.0150211
737.788	0.0148864
737.866	0.0148800
737.944	0.0148740
738.022	0.0149561
738.100	0.0149714
738.178	0.0153055
738.256	0.0154988
738.334	0.0155647
738.413	0.0156779
738.491	0.0158004
738.569	0.0160909
738.647	0.0161198
738.725	0.0161668
738.803	0.0161784
738.881	0.0160727
738.959	0.0160159
739.038	0.0160863
739.116	0.0159808
739.194	0.0159315
739.272	0.0158847
739.350	0.0157689
739.428	0.0155661
739.506	0.0157565
739.584	0.0157526
739.663	0.0157849
739.741	0.0155855
739.819	0.0156267
739.897	0.0158551
739.975	0.0158055
740.053	0.0158589
740.131	0.0160045
740.209	0.0159644
740.288	0.0160265
740.366	0.0159689
740.444	0.0158591
740.522	0.0158842
740.600	0.0159143
740.678	0.0157724
740.756	0.0158381
740.834	0.0157293
740.913	0.0156915
740.991	0.0155842
741.069	0.0156184
741.147	0.0156264
741.225	0.0156042
741.303	0.0155347
741.381	0.0156232
741.459	0.0154973
741.538	0.0153186
741.616	0.0153445
741.694	0.0155833
741.772	0.0153454
741.850	0.0152155
741.928	0.0153595
742.006	0.0154440
742.084	0.0152821
742.163	0.0152714
742.241	0.0150627
742.319	0.0151359
742.397	0.0151603
742.475	0.0149451
742.553	0.0147127
742.631	0.0148141
742.709	0.0148894
742.788	0.0147099
742.866	0.0148018
742.944	0.0146246
743.022	0.0145609
743.100	0.0145509
743.178	0.0147432
743.256	0.0147617
743.334	0.0146122
743.413	0.0147359
743.491	0.0146024
743.569	0.0145909
743.647	0.0146065
743.725	0.0146091
743.803	0.0148886
743.881	0.0150022
743.959	0.0152310
744.038	0.0153233
744.116	0.0156670
744.194	0.0157893
744.272	0.0158407
744.350	0.0161107
744.428	0.0162428
744.506	0.0163548
744.584	0.0163402
744.663	0.0164561
744.741	0.0163091
744.819	0.0161157
744.897	0.0160242
744.975	0.0162051
745.053	0.0158485
745.131	0.0156934
745.209	0.0156132
745.288	0.0155038
745.366	0.0154958
745.444	0.0153937
745.522	0.0154211
745.600	0.0153872
745.678	0.0152841
745.756	0.0154188
745.834	0.0155605
745.913	0.0155060
745.991	0.0155610
746.069	0.0157293
746.147	0.0159157
746.225	0.0157774
746.303	0.0157720
746.381	0.0158953
746.459	0.0158851
746.538	0.0158262
746.616	0.0159318
746.694	0.0157869
746.772	0.0158517
746.850	0.0157942
746.928	0.0157586
747.006	0.0156737
747.084	0.0157026
747.163	0.0154887
747.241	0.0156204
747.319	0.0156131
747.397	0.0155800
747.475	0.0153878
747.553	0.0154408
747.631	0.0154796
747.709	0.0153632
747.788	0.0152386
747.866	0.0151938
747.944	0.0153250
748.022	0.0151706
748.100	0.0152036
748.178	0.0151447
748.256	0.0151820
748.334	0.0153117
748.413	0.0151360
748.491	0.0153083
748.569	0.0152357
748.647	0.0152558
748.725	0.0153361
748.803	0.0155075
748.881	0.0154517
748.959	0.0154287
749.038	0.0154252
749.116	0.0155544
749.194	0.0155700
749.272	0.0156393
749.350	0.0154047
749.428	0.0153699
749.506	0.0153806
749.584	0.0155823
749.663	0.0154529
749.741	0.0152018
749.819	0.0155055
749.897	0.0152466
749.975	0.0152090
750.053	0.0151096
750.131	0.0151150
750.209	0.0150468
750.288	0.0148728
750.366	0.0148766
750.444	0.0147973
750.522	0.0146667
750.600	0.0146018
750.678	0.0145780
750.756	0.0145650
750.834	0.0144555
750.913	0.0146013
750.991	0.0145738
751.069	0.0146309
751.147	0.0146857
751.225	0.0148020
751.303	0.0149258
751.381	0.0151518
751.459	0.0153401
751.538	0.0154990
751.616	0.0157317
751.694	0.0158050
751.772	0.0160863
751.850	0.0162468
751.928	0.0164095
752.006	0.0164737
752.084	0.0164301
752.163	0.0165646
752.241	0.0164199
752.319	0.0162988
752.397	0.0161786
752.475	0.0163201
752.553	0.0162242
752.631	0.0159692
752.709	0.0158971
752.788	0.0158009
752.866	0.0158510
752.944	0.0157983
753.022	0.0156709
753.100	0.0155910
753.178	0.0156174
753.256	0.0158072
753.334	0.0156727
753.413	0.0156774
753.491	0.0156538
753.569	0.0157271
753.647	0.0156640
753.725	0.0155893
753.803	0.0157047
753.881	0.0155641
753.959	0.0153970
754.038	0.0154346
754.116	0.0152901
754.194	0.0152498
754.272	0.0153099
754.350	0.0151082
754.428	0.0150866
754.506	0.0148994
754.584	0.0147979
754.663	0.0147450
754.741	0.0146052
754.819	0.0146906
754.897	0.0146208
754.975	0.0146191
755.053	0.0145934
755.131	0.0145780
755.209	0.0144700
755.288	0.0145161
755.366	0.0145301
755.444	0.0144971
755.522	0.0147224
755.600	0.0147890
755.678	0.0149118
755.756	0.0150423
755.834	0.0151514
755.913	0.0151750
755.991	0.0154237
756.069	0.0155000
756.147	0.0155770
756.225	0.0156544
756.303	0.0158212
756.381	0.0157488
756.459	0.0159522
756.538	0.0158935
756.616	0.0158243
756.694	0.0159356
756.772	0.0159606
756.850	0.0158410
756.928	0.0157646
757.006	0.0158681
757.084	0.0158147
757.163	0.0158490
757.241	0.0157634
757.319	0.0159749
757.397	0.0158684
757.475	0.0157701
757.553	0.0157813
757.631	0.0158728
757.709	0.0158233
757.788	0.0157113
757.866	0.0156211
757.944	0.0156986
758.022	0.0154648
758.100	0.0155532
758.178	0.0155978
758.256	0.0155816
758.334	0.0157912
758.413	0.0155398
758.491	0.0156564
758.569	0.0156392
758.647	0.0156331
758.725	0.0157031
758.803	0.0157314
758.881	0.0156477
758.959	0.0155495
759.038	0.0158541
759.116	0.0157642
759.194	0.0156324
759.272	0.0156075
759.350	0.0156390
759.428	0.0155409
759.506	0.0154830
759.584	0.0153808
759.663	0.0153250
759.741	0.0152667
759.819	0.0153278
759.897	0.0153793
759.975	0.0153362
760.053	0.0153770
760.131	0.0152785
760.209	0.0153886
760.288	0.0153939
760.366	0.0155956
760.444	0.0154942
760.522	0.0155215
760.600	0.0155164
760.678	0.0153797
760.756	0.0154113
760.834	0.0155750
760.913	0.0153437
760.991	0.0155128
761.069	0.0153579
761.147	0.0154949
761.225	0.0155192
761.303	0.0156135
761.381	0.0157165
761.459	0.0156248
761.538	0.0157043
761.616	0.0157326
761.694	0.0158451
761.772	0.0158585
761.850	0.0159538
761.928	0.0157802
762.006	0.0157464
762.084	0.0158630
762.163	0.0158117
762.241	0.0157497
762.319	0.0158106
762.397	0.0156769
762.475	0.0155780
762.553	0.0155912
762.631	0.0156017
762.709	0.0152158
762.788	0.0152753
762.866	0.0154346
762.944	0.0151209
763.022	0.0151156
763.100	0.0151933
763.178	0.0152660
763.256	0.0153204
763.334	0.0153417
763.413	0.0150291
763.491	0.0151785
763.569	0.0152129
763.647	0.0152522
763.725	0.0152898
763.803	0.0153110
763.881	0.0152857
763.959	0.0151975
764.038	0.0151296
764.116	0.0151770
764.194	0.0151529
764.272	0.0151327
764.350	0.0151414
764.428	0.0152818
764.506	0.0152904
764.584	0.0153429
764.663	0.0156546
764.741	0.0157134
764.819	0.0158044
764.897	0.0158797
764.975	0.0159491
765.053	0.0157902
765.131	0.0159336
765.209	0.0160071
765.288	0.0159352
765.366	0.0157854
765.444	0.0157656
765.522	0.0157529
765.600	0.0156794
765.678	0.0155264
765.756	0.0153067
765.834	0.0153893
765.913	0.0152273
765.991	0.0152405
766.069	0.0152573
766.147	0.0151451
766.225	0.0151106
766.303	0.0151075
766.381	0.0149633
766.459	0.0151924
766.538	0.0152061
766.616	0.0152481
766.694	0.0154232
766.772	0.0153825
766.850	0.0155328
766.928	0.0155845
767.006	0.0157603
767.084	0.0158536
767.163	0.0160632
767.241	0.0160837
767.319	0.0159564
767.397	0.0159969
767.475	0.0160188
767.553	0.0159615
767.631	0.0158527
767.709	0.0156288
767.788	0.0155130
767.866	0.0154707
767.944	0.0152337
768.022	0.0150254
768.100	0.0149758
768.178	0.0148822
768.256	0.0149047
768.334	0.0148009
768.413	0.0148631
768.491	0.0149574
768.569	0.0149266
768.647	0.0148326
768.725	0.0150172
768.803	0.0151093
768.881	0.0151447
768.959	0.0152836
769.038	0.0154846
769.116	0.0155826
769.194	0.0155722
769.272	0.0154709
769.350	0.0157212
769.428	0.0157211
769.506	0.0156767
769.584	0.0156170
769.663	0.0155902
769.741	0.0156254
769.819	0.0156095
769.897	0.0155893
769.975	0.0155823
770.053	0.0156015
770.131	0.0156155
770.209	0.0153968
770.288	0.0153261
770.366	0.0155016
770.444	0.0152666
770.522	0.0153019
770.600	0.0151523
770.678	0.0150288
770.756	0.0149895
770.834	0.0150000
770.913	0.0149575
770.991	0.0149824
771.069	0.0149168
771.147	0.0149942
771.225	0.0149947
771.303	0.0149291
771.381	0.0150200
771.459	0.0151965
771.538	0.0152022
771.616	0.0150816
771.694	0.0152126
771.772	0.0154276
771.850	0.0153758
771.928	0.0153772
772.006	0.0153403
772.084	0.0155177
772.163	0.0154208
772.241	0.0154890
772.319	0.0156174
772.397	0.0153441
772.475	0.0153191
772.553	0.0154484
772.631	0.0153204
772.709	0.0155296
772.788	0.0155482
772.866	0.0154130
772.944	0.0154404
773.022	0.0154093
773.100	0.0155232
773.178	0.0154945
773.256	0.0154847
773.334	0.0157497
773.413	0.0156720
773.491	0.0156528
773.569	0.0155746
773.647	0.0153658
773.725	0.0154693
773.803	0.0153841
773.881	0.0153710
773.959	0.0154556
774.038	0.0154734
774.116	0.0153065
774.194	0.0152505
774.272	0.0151841
774.350	0.0151292
774.428	0.0150183
774.506	0.0150774
774.584	0.0150191
774.663	0.0151683
774.741	0.0151694
774.819	0.0153648
774.897	0.0152641
774.975	0.0154321
775.053	0.0153909
775.131	0.0155279
775.209	0.0155103
775.288	0.0156090
775.366	0.0157975
775.444	0.0158431
775.522	0.0158473
775.600	0.0159812
775.678	0.0158502
775.756	0.0157767
775.834	0.0156615
775.913	0.0155929
775.991	0.0155479
776.069	0.0154992
776.147	0.0153704
776.225	0.0151154
776.303	0.0149995
776.381	0.0150133
776.459	0.0149197
776.538	0.0147659
776.616	0.0146923
776.694	0.0146223
776.772	0.0147666
776.850	0.0148354
776.928	0.0146739
777.006	0.0149596
777.084	0.0150165
777.163	0.0150891
777.241	0.0153629
777.319	0.0153831
777.397	0.0155121
777.475	0.0158657
777.553	0.0158590
777.631	0.0158118
777.709	0.0158592
777.788	0.0159113
777.866	0.0160585
777.944	0.0159865
778.022	0.0158852
778.100	0.0158175
778.178	0.0159500
778.256	0.0156538
778.334	0.0153647
778.413	0.0154900
778.491	0.0153191
778.569	0.0151977
778.647	0.0151538
778.725	0.0151299
778.803	0.0150811
778.881	0.0151221
778.959	0.0151712
779.038	0.0150430
779.116	0.0151127
779.194	0.0153120
779.272	0.0154304
779.350	0.0153536
779.428	0.0155447
779.506	0.0155429
779.584	0.0157437
779.663	0.0156479
779.741	0.0156707
779.819	0.0156973
779.897	0.0157287
779.975	0.0159168
780.053	0.0157919
780.131	0.0157976
780.209	0.0158434
780.288	0.0157439
780.366	0.0155884
780.444	0.0156643
780.522	0.0156985
780.600	0.0157492
780.678	0.0157719
780.756	0.0157728
780.834	0.0156128
780.913	0.0156100
780.991	0.0156274
781.069	0.0157322
781.147	0.0156086
781.225	0.0157098
781.303	0.0156480
781.381	0.0157587
781.459	0.0156584
781.538	0.0156579
781.616	0.0155341
781.694	0.0155710
781.772	0.0154635
781.850	0.0153271
781.928	0.0154139
782.006	0.0155421
782.084	0.0154866
782.163	0.0153965
782.241	0.0154914
782.319	0.0154680
782.397	0.0154591
782.475	0.0155193
782.553	0.0154956
782.631	0.0155523
782.709	0.0155407
782.788	0.0153900
782.866	0.0155173
782.944	0.0154308
783.022	0.0153198
783.100	0.0153506
783.178	0.0152527
783.256	0.0153235
783.334	0.0152263
783.413	0.0152940
783.491	0.0152656
783.569	0.0153934
783.647	0.0154482
783.725	0.0155142
783.803	0.0155855
783.881	0.0154658
783.959	0.0155605
784.038	0.0158825
784.116	0.0157716
784.194	0.0157874
784.272	0.0158801
784.350	0.0160119
784.428	0.0159303
784.506	0.0160193
784.584	0.0159380
784.663	0.0158273
784.741	0.0157115
784.819	0.0157912
784.897	0.0156815
784.975	0.0156817
785.053	0.0156187
785.131	0.0154667
785.209	0.0152460
785.288	0.0153687
785.366	0.0153838
785.444	0.0152718
785.522	0.0152332
785.600	0.0152709
785.678	0.0150748
785.756	0.0150831
785.834	0.0152948
785.913	0.0152132
785.991	0.0150338
786.069	0.0150906
786.147	0.0150330
786.225	0.0150198
786.303	0.0151019
786.381	0.0151098
786.459	0.0150986
786.538	0.0153066
786.616	0.0153400
786.694	0.0152374
786.772	0.0154764
786.850	0.0156242
786.928	0.0156138
787.006	0.0156451
787.084	0.0157088
787.163	0.0157983
787.241	0.0158566
787.319	0.0159740
787.397	0.0158589
787.475	0.0159400
787.553	0.0159072
787.631	0.0158704
787.709	0.0158562
787.788	0.0158227
787.866	0.0159287
787.944	0.0158630
788.022	0.0157710
788.100	0.0157170
788.178	0.0157106
788.256	0.0155610
788.334	0.0155471
788.413	0.0153730
788.491	0.0153131
788.569	0.0151292
788.647	0.0150005
788.725	0.0149916
788.803	0.0149349
788.881	0.0149620
788.959	0.0147750
789.038	0.0148621
789.116	0.0150524
789.194	0.0149503
789.272	0.0150185
789.350	0.0149685
789.428	0.0151379
789.506	0.0152161
789.584	0.0153376
789.663	0.0153756
789.741	0.0156045
789.819	0.0156852
789.897	0.0156312
789.975	0.0158192
790.053	0.0157716
790.131	0.0157653
790.209	0.0157511
790.288	0.0157055
790.366	0.0158382
790.444	0.0157473
790.522	0.0155704
790.600	0.0156445
790.678	0.0155593
790.756	0.0155142
790.834	0.0155747
790.913	0.0155054
790.991	0.0156605
791.069	0.0154900
791.147	0.0154455
791.225	0.0155817
791.303	0.0154214
791.381	0.0154520
791.459	0.0155367
791.538	0.0155322
791.616	0.0155483
791.694	0.0155868
791.772	0.0153450
791.850	0.0153308
791.928	0.0154749
792.006	0.0153257
792.084	0.0154263
792.163	0.0153604
792.241	0.0153902
792.319	0.0154734
792.397	0.0154900
792.475	0.0155985
792.553	0.0154543
792.631	0.0156211
792.709	0.0155486
792.788	0.0156059
792.866	0.0157984
792.944	0.0156684
793.022	0.0156174
793.100	0.0156626
793.178	0.0155512
793.256	0.0155296
793.334	0.0154520
793.413	0.0155291
793.491	0.0155145
793.569	0.0155057
793.647	0.0154680
793.725	0.0154819
793.803	0.0153445
793.881	0.0154446
793.959	0.0154860
794.038	0.0154020
794.116	0.0152668
794.194	0.0152326
794.272	0.0153360
794.350	0.0153410
794.428	0.0151856
794.506	0.0152190
794.584	0.0151266
794.663	0.0150776
794.741	0.0150054
794.819	0.0150703
794.897	0.0150466
794.975	0.0150456
795.053	0.0151228
795.131	0.0150637
795.209	0.0151393
795.288	0.0152523
795.366	0.0152444
795.444	0.0152971
795.522	0.0153425
795.600	0.0153699
795.678	0.0153753
795.756	0.0154562
795.834	0.0154569
795.913	0.0153807
795.991	0.0153645
796.069	0.0152937
796.147	0.0153351
796.225	0.0154002
796.303	0.0154682
796.381	0.0155646
796.459	0.0156380
796.538	0.0154091
796.616	0.0153730
796.694	0.0155534
796.772	0.0155559
796.850	0.0156341
796.928	0.0157171
797.006	0.0157182
797.084	0.0157833
797.163	0.0158932
797.241	0.0157995
797.319	0.0158994
797.397	0.0159701
797.475	0.0158257
797.553	0.0158338
797.631	0.0158717
797.709	0.0159114
797.788	0.0158873
797.866	0.0158611
797.944	0.0158201
798.022	0.0158680
798.100	0.0157427
798.178	0.0156960
798.256	0.0156736
798.334	0.0155910
798.413	0.0156142
798.491	0.0155688
798.569	0.0154513
798.647	0.0154983
798.725	0.0154194
798.803	0.0152962
798.881	0.0153663
798.959	0.0151212
799.038	0.0150159
799.116	0.0150639
799.194	0.0149135
799.272	0.0147189
799.350	0.0147851
799.428	0.0147751
799.506	0.0146900
799.584	0.0146868
799.663	0.0147108
799.741	0.0147485
799.819	0.0147843
799.897	0.0149503
799.975	0.0149565
800.053	0.0148836
800.131	0.0151628
800.209	0.0151164
800.288	0.0152866
800.366	0.0153271
800.444	0.0153196
800.522	0.0154176
800.600	0.0154372
800.678	0.0152496
800.756	0.0153842
800.834	0.0152946
800.913	0.0154226
800.991	0.0155349
801.069	0.0155201
801.147	0.0154417
801.225	0.0154870
801.303	0.0154580
801.381	0.0154137
801.459	0.0154320
801.538	0.0154680
801.616	0.0154465
801.694	0.0153897
801.772	0.0154939
801.850	0.0155886
801.928	0.0155904
802.006	0.0155262
802.084	0.0155510
802.163	0.0154401
802.241	0.0155680
802.319	0.0156503
802.397	0.0155762
802.475	0.0155166
802.553	0.0156013
802.631	0.0158327
802.709	0.0157053
802.788	0.0156283
802.866	0.0159032
802.944	0.0158192
803.022	0.0156629
803.100	0.0157217
803.178	0.0157649
803.256	0.0155451
803.334	0.0155063
803.413	0.0155247
803.491	0.0152814
803.569	0.0153245
803.647	0.0153180
803.725	0.0153637
803.803	0.0153275
803.881	0.0154130
803.959	0.0153022
804.038	0.0154538
804.116	0.0154170
804.194	0.0157039
804.272	0.0155906
804.350	0.0157400
804.428	0.0157845
804.506	0.0159066
804.584	0.0158837
804.663	0.0159006
804.741	0.0160714
804.819	0.0160408
804.897	0.0160666
804.975	0.0159829
805.053	0.0159665
805.131	0.0159579
805.209	0.0156561
805.288	0.0158210
805.366	0.0157162
805.444	0.0154985
805.522	0.0153997
805.600	0.0152880
805.678	0.0153378
805.756	0.0152258
805.834	0.0151017
805.913	0.0150827
805.991	0.0149848
806.069	0.0150005
806.147	0.0147834
806.225	0.0149522
806.303	0.0148575
806.381	0.0149044
806.459	0.0148673
806.538	0.0148087
806.616	0.0148732
806.694	0.0147921
806.772	0.0148004
806.850	0.0149148
806.928	0.0149341
807.006	0.0148901
807.084	0.0149228
807.163	0.0150050
807.241	0.0151195
807.319	0.0151064
807.397	0.0152363
807.475	0.0153354
807.553	0.0154280
807.631	0.0154852
807.709	0.0155838
807.788	0.0153902
807.866	0.0156446
807.944	0.0157784
808.022	0.0157890
808.100	0.0158339
808.178	0.0158423
808.256	0.0159541
808.334	0.0158788
808.413	0.0159686
808.491	0.0158409
808.569	0.0160033
808.647	0.0159235
808.725	0.0160843
808.803	0.0159177
808.881	0.0159190
808.959	0.0159525
809.038	0.0161819
809.116	0.0159506
809.194	0.0159480
809.272	0.0159428
809.350	0.0158540
809.428	0.0158921
809.506	0.0157377
809.584	0.0157211
809.663	0.0157579
809.741	0.0158455
809.819	0.0156649
809.897	0.0155139
809.975	0.0156449
810.053	0.0155753
810.131	0.0155069
810.209	0.0155520
810.288	0.0153655
810.366	0.0155038
810.444	0.0155196
810.522	0.0153848
810.600	0.0154868
810.678	0.0154177
810.756	0.0153464
810.834	0.0154082
810.913	0.0152991
810.991	0.0153417
811.069	0.0153577
811.147	0.0153415
811.225	0.0152766
811.303	0.0152068
811.381	0.0153352
811.459	0.0152402
811.538	0.0152779
811.616	0.0152954
811.694	0.0153751
811.772	0.0152634
811.850	0.0151806
811.928	0.0153069
812.006	0.0151218
812.084	0.0152921
812.163	0.0153169
812.241	0.0151678
812.319	0.0151826
812.397	0.0151761
812.475	0.0150876
812.553	0.0152781
812.631	0.0152436
812.709	0.0151742
812.788	0.0150896
812.866	0.0153773
812.944	0.0153743
813.022	0.0153638
813.100	0.0154533
813.178	0.0155849
813.256	0.0155325
813.334	0.0157437
813.413	0.0158200
813.491	0.0156469
813.569	0.0158672
813.647	0.0156935
813.725	0.0156815
813.803	0.0157269
813.881	0.0156248
813.959	0.0156491
814.038	0.0155597
814.116	0.0154785
814.194	0.0156612
814.272	0.0154906
814.350	0.0154681
814.428	0.0154972
814.506	0.0155128
814.584	0.0153973
814.663	0.0154908
814.741	0.0156103
814.819	0.0155884
814.897	0.0155999
814.975	0.0155550
815.053	0.0155624
815.131	0.0154940
815.209	0.0155868
815.288	0.0157439
815.366	0.0157225
815.444	0.0155559
815.522	0.0156347
815.600	0.0156555
815.678	0.0156695
815.756	0.0157704
815.834	0.0156496
815.913	0.0157162
815.991	0.0156575
816.069	0.0157751
816.147	0.0157737
816.225	0.0158726
816.303	0.0158170
816.381	0.0158175
816.459	0.0158869
816.538	0.0159155
816.616	0.0159399
816.694	0.0159045
816.772	0.0158165
816.850	0.0158459
816.928	0.0159012
817.006	0.0158588
817.084	0.0157755
817.163	0.0156866
817.241	0.0155011
817.319	0.0155276
817.397	0.0154929
817.475	0.0154040
817.553	0.0152798
817.631	0.0151961
817.709	0.0152039
817.788	0.0153032
817.866	0.0151579
817.944	0.0151911
818.022	0.0151165
818.100	0.0151951
818.178	0.0150485
818.256	0.0151650
818.334	0.0151366
818.413	0.0151444
818.491	0.0150670
818.569	0.0151401
818.647	0.0150611
818.725	0.0152339
818.803	0.0151319
818.881	0.0151380
818.959	0.0152725
819.038	0.0150818
819.116	0.0151151
819.194	0.0152185
819.272	0.0153519
819.350	0.0153543
819.428	0.0153384
819.506	0.0153975
819.584	0.0155981
819.663	0.0154329
819.741	0.0155868
819.819	0.0155061
819.897	0.0158183
819.975	0.0158118
820.053	0.0158341
820.131	0.0158112
820.209	0.0159303
820.288	0.0159413
820.366	0.0161375
820.444	0.0160474
820.522	0.0161127
820.600	0.0159986
820.678	0.0159711
820.756	0.0158830
820.834	0.0159176
820.913	0.0160583
820.991	0.0159296
821.069	0.0158583
821.147	0.0158325
821.225	0.0157195
821.303	0.0155596
821.381	0.0157156
821.459	0.0156504
821.538	0.0156689
821.616	0.0154958
821.694	0.0155892
821.772	0.0154946
821.850	0.0155074
821.928	0.0156965
822.006	0.0156146
822.084	0.0155190
822.163	0.0155256
822.241	0.0156288
822.319	0.0157105
822.397	0.0156489
822.475	0.0155494
822.553	0.0155943
822.631	0.0156869
822.709	0.0155891
822.788	0.0154727
822.866	0.0154691
822.944	0.0153965
823.022	0.0154448
823.100	0.0153427
823.178	0.0152468
823.256	0.0152300
823.334	0.0151118
823.413	0.0151186
823.491	0.0151503
823.569	0.0151773
823.647	0.0152268
823.725	0.0150665
823.803	0.0150955
823.881	0.0152386
823.959	0.0150034
824.038	0.0153111
824.116	0.0154013
824.194	0.0152579
824.272	0.0153096
824.350	0.0154569
824.428	0.0153410
824.506	0.0152977
824.584	0.0154849
824.663	0.0156554
824.741	0.0157132
824.819	0.0155090
824.897	0.0156661
824.975	0.0157020
825.053	0.0156039
825.131	0.0156242
825.209	0.0157497
825.288	0.0156500
825.366	0.0157102
825.444	0.0156321
825.522	0.0156706
825.600	0.0156171
825.678	0.0155247
825.756	0.0155229
825.834	0.0154462
825.913	0.0153323
825.991	0.0155241
826.069	0.0154044
826.147	0.0153812
826.225	0.0154169
826.303	0.0152668
826.381	0.0153205
826.459	0.0152985
826.538	0.0153225
826.616	0.0153341
826.694	0.0152402
826.772	0.0153382
826.850	0.0152934
826.928	0.0153040
827.006	0.0153326
827.084	0.0153450
827.163	0.0154177
827.241	0.0153214
827.319	0.0154155
827.397	0.0153800
827.475	0.0153633
827.553	0.0153739
827.631	0.0154206
827.709	0.0154568
827.788	0.0152393
827.866	0.0153334
827.944	0.0153072
828.022	0.0153491
828.100	0.0153279
828.178	0.0154551
828.256	0.0152817
828.334	0.0153418
828.413	0.0153562
828.491	0.0155107
828.569	0.0155887
828.647	0.0154944
828.725	0.0154348
828.803	0.0157900
828.881	0.0157838
828.959	0.0156411
829.038	0.0156299
829.116	0.0156551
829.194	0.0155296
829.272	0.0155296
829.350	0.0154208
829.428	0.0154588
829.506	0.0154465
829.584	0.0154577
829.663	0.0153835
829.741	0.0153259
829.819	0.0153358
829.897	0.0153513
829.975	0.0152637
830.053	0.0153027
830.131	0.0152667
830.209	0.0153159
830.288	0.0153434
830.366	0.0151359
830.444	0.0152428
830.522	0.0152819
830.600	0.0151839
830.678	0.0152482
830.756	0.0151888
830.834	0.0152586
830.913	0.0152061
830.991	0.0151887
831.069	0.0153664
831.147	0.0152334
831.225	0.0152794
831.303	0.0153068
831.381	0.0153605
831.459	0.0153768
831.538	0.0153014
831.616	0.0154319
831.694	0.0153910
831.772	0.0153360
831.850	0.0154061
831.928	0.0153979
832.006	0.0153394
832.084	0.0152972
832.163	0.0152869
832.241	0.0153128
832.319	0.0153596
832.397	0.0154573
832.475	0.0154755
832.553	0.0153458
832.631	0.0153870
832.709	0.0153408
832.788	0.0152682
832.866	0.0154205
832.944	0.0155183
833.022	0.0154115
833.100	0.0153687
833.178	0.0155548
833.256	0.0153778
833.334	0.0155380
833.413	0.0156004
833.491	0.0155333
833.569	0.0154235
833.647	0.0155860
833.725	0.0154340
833.803	0.0153893
833.881	0.0153613
833.959	0.0154951
834.038	0.0154158
834.116	0.0153796
834.194	0.0153065
834.272	0.0154164
834.350	0.0155262
834.428	0.0154353
834.506	0.0154572
834.584	0.0155493
834.663	0.0155643
834.741	0.0155906
834.819	0.0155173
834.897	0.0154407
834.975	0.0155254
835.053	0.0156804
835.131	0.0154382
835.209	0.0156445
835.288	0.0155889
835.366	0.0155020
835.444	0.0155183
835.522	0.0153561
835.600	0.0155104
835.678	0.0154726
835.756	0.0154993
835.834	0.0153565
835.913	0.0155487
835.991	0.0154540
836.069	0.0153349
836.147	0.0153754
836.225	0.0154997
836.303	0.0156097
836.381	0.0154076
836.459	0.0156729
836.538	0.0156003
836.616	0.0155539
836.694	0.0154957
836.772	0.0154633
836.850	0.0154172
836.928	0.0156692
837.006	0.0155692
837.084	0.0153984
837.163	0.0153732
837.241	0.0154680
837.319	0.0154124
837.397	0.0153748
837.475	0.0153784
837.553	0.0154309
837.631	0.0154674
837.709	0.0155194
837.788	0.0156495
837.866	0.0155287
837.944	0.0155119
838.022	0.0155663
838.100	0.0154974
838.178	0.0155486
838.256	0.0156181
838.334	0.0154888
838.413	0.0156972
838.491	0.0156055
838.569	0.0154413
838.647	0.0154874
838.725	0.0154556
838.803	0.0155352
838.881	0.0154997
838.959	0.0153884
839.038	0.0156403
839.116	0.0155714
839.194	0.0153650
839.272	0.0154195
839.350	0.0153651
839.428	0.0154609
839.506	0.0155405
839.584	0.0154044
839.663	0.0155381
839.741	0.0154425
839.819	0.0154659
839.897	0.0154296
839.975	0.0154388
840.053	0.0154323
840.131	0.0153133
840.209	0.0152420
840.288	0.0154395
840.366	0.0154007
840.444	0.0154759
840.522	0.0155089
840.600	0.0154832
840.678	0.0155441
840.756	0.0154820
840.834	0.0153994
840.913	0.0155656
840.991	0.0154979
841.069	0.0156031
841.147	0.0155182
841.225	0.0155855
841.303	0.0155338
841.381	0.0155606
841.459	0.0154620
841.538	0.0156133
841.616	0.0154053
841.694	0.0154147
841.772	0.0154958
841.850	0.0153971
841.928	0.0155201
842.006	0.0155492
842.084	0.0155108
842.163	0.0154066
842.241	0.0154087
842.319	0.0154564
842.397	0.0155112
842.475	0.0155424
842.553	0.0156100
842.631	0.0155203
842.709	0.0154796
842.788	0.0156241
842.866	0.0156023
842.944	0.0155327
843.022	0.0153989
843.100	0.0154034
843.178	0.0154526
843.256	0.0155976
843.334	0.0155714
843.413	0.0155233
843.491	0.0153655
843.569	0.0155877
843.647	0.0154976
843.725	0.0153983
843.803	0.0155263
843.881	0.0154136
843.959	0.0155545
844.038	0.0153989
844.116	0.0153236
844.194	0.0153734
844.272	0.0153752
844.350	0.0154426
844.428	0.0155391
844.506	0.0154113
844.584	0.0153706
844.663	0.0154973
844.741	0.0155563
844.819	0.0153764
844.897	0.0152840
844.975	0.0152905
845.053	0.0154666
845.131	0.0156046
845.209	0.0154982
845.288	0.0155990
845.366	0.0156009
845.444	0.0153408
845.522	0.0154516
845.600	0.0154852
845.678	0.0155058
845.756	0.0154579
845.834	0.0155343
845.913	0.0154110
845.991	0.0155309
846.069	0.0153997
846.147	0.0153757
846.225	0.0154076
846.303	0.0154596
846.381	0.0152890
846.459	0.0155345
846.538	0.0153635
846.616	0.0153164
846.694	0.0152997
846.772	0.0155486
846.850	0.0154125
846.928	0.0153165
847.006	0.0152989
847.084	0.0154106
847.163	0.0154824
847.241	0.0154288
847.319	0.0153880
847.397	0.0153916
847.475	0.0152828
847.553	0.0154440
847.631	0.0153401
847.709	0.0154005
847.788	0.0155735
847.866	0.0155229
847.944	0.0153612
848.022	0.0154956
848.100	0.0153159
848.178	0.0154877
848.256	0.0155963
848.334	0.0154665
848.413	0.0154520
848.491	0.0156258
848.569	0.0155257
848.647	0.0154330
848.725	0.0155513
848.803	0.0154944
848.881	0.0154467
848.959	0.0153978
849.038	0.0155391
849.116	0.0153889
849.194	0.0154392
849.272	0.0153632
849.350	0.0154669
849.428	0.0155167
849.506	0.0154520
849.584	0.0154739
849.663	0.0154229
849.741	0.0155219
849.819	0.0156345
849.897	0.0155653
849.975	0.0155827
850.053	0.0154844
850.131	0.0156392
850.209	0.0155577
850.288	0.0156219
850.366	0.0155190
850.444	0.0155330
850.522	0.0154392
850.600	0.0154050
850.678	0.0153615
850.756	0.0153149
850.834	0.0153963
850.913	0.0152319
850.991	0.0152507
851.069	0.0152388
851.147	0.0152917
851.225	0.0151511
851.303	0.0151275
851.381	0.0152178
851.459	0.0151389
851.538	0.0150678
851.616	0.0150762
851.694	0.0151907
851.772	0.0151064
851.850	0.0150129
851.928	0.0150185
852.006	0.0151397
852.084	0.0151606
852.163	0.0151555
852.241	0.0152021
852.319	0.0151687
852.397	0.0152391
852.475	0.0151569
852.553	0.0151309
852.631	0.0151254
852.709	0.0151954
852.788	0.0151627
852.866	0.0151511
852.944	0.0152686
853.022	0.0152211
853.100	0.0151439
853.178	0.0151745
853.256	0.0153489
853.334	0.0154462
853.413	0.0152242
853.491	0.0153893
853.569	0.0154585
853.647	0.0153178
853.725	0.0152834
853.803	0.0154485
853.881	0.0153329
853.959	0.0154200
854.038	0.0155124
854.116	0.0153843
854.194	0.0152959
854.272	0.0153493
854.350	0.0153081
854.428	0.0155038
854.506	0.0155006
854.584	0.0155116
854.663	0.0153135
854.741	0.0155746
854.819	0.0154977
854.897	0.0155099
854.975	0.0154401
855.053	0.0154374
855.131	0.0153856
855.209	0.0153498
855.288	0.0153826
855.366	0.0154996
855.444	0.0156149
855.522	0.0154591
855.600	0.0152960
855.678	0.0153402
855.756	0.0153514
855.834	0.0152231
855.913	0.0152723
855.991	0.0153513
856.069	0.0152152
856.147	0.0152880
856.225	0.0152615
856.303	0.0152562
856.381	0.0153513
856.459	0.0152736
856.538	0.0153426
856.616	0.0154466
856.694	0.0153241
856.772	0.0154002
856.850	0.0152566
856.928	0.0152885
857.006	0.0153783
857.084	0.0153969
857.163	0.0155388
857.241	0.0155384
857.319	0.0155708
857.397	0.0155260
857.475	0.0155122
857.553	0.0155260
857.631	0.0156158
857.709	0.0155392
857.788	0.0155799
857.866	0.0155909
857.944	0.0155551
858.022	0.0155521
858.100	0.0155521
858.178	0.0154855
858.256	0.0155487
858.334	0.0155505
858.413	0.0156182
858.491	0.0155778
858.569	0.0156348
858.647	0.0155663
858.725	0.0156720
858.803	0.0156593
858.881	0.0156388
858.959	0.0156623
859.038	0.0156623
859.116	0.0156170
859.194	0.0156020
859.272	0.0155487
859.350	0.0154686
859.428	0.0154968
859.506	0.0153284
859.584	0.0154729
859.663	0.0154163
859.741	0.0152784
859.819	0.0151914
859.897	0.0152892
859.975	0.0152709
860.053	0.0153442
860.131	0.0153846
860.209	0.0153265
860.288	0.0152396
860.366	0.0153584
860.444	0.0152593
860.522	0.0152911
860.600	0.0154356
860.678	0.0154549
860.756	0.0154156
860.834	0.0154449
860.913	0.0155383
860.991	0.0155036
861.069	0.0154572
861.147	0.0155459
861.225	0.0154660
861.303	0.0155094
861.381	0.0155209
861.459	0.0156148
861.538	0.0154268
861.616	0.0154824
861.694	0.0155352
861.772	0.0154565
861.850	0.0154887
861.928	0.0154292
862.006	0.0154503
862.084	0.0153931
862.163	0.0153741
862.241	0.0153638
862.319	0.0154547
862.397	0.0155822
862.475	0.0154502
862.553	0.0154464
862.631	0.0155042
862.709	0.0155438
862.788	0.0154446
862.866	0.0154700
862.944	0.0154987
863.022	0.0153785
863.100	0.0154615
863.178	0.0154802
863.256	0.0154315
863.334	0.0154658
863.413	0.0153924
863.491	0.0154342
863.569	0.0156308
863.647	0.0155110
863.725	0.0153976
863.803	0.0155722
863.881	0.0155383
863.959	0.0154705
864.038	0.0153961
864.116	0.0155885
864.194	0.0154905
864.272	0.0153338
864.350	0.0154773
864.428	0.0154143
864.506	0.0152132
864.584	0.0154597
864.663	0.0153039
864.741	0.0153199
864.819	0.0155373
864.897	0.0153599
864.975	0.0153477
865.053	0.0151387
865.131	0.0153274
865.209	0.0154255
865.288	0.0153757
865.366	0.0153031
865.444	0.0151620
865.522	0.0152616
865.600	0.0153297
865.678	0.0154904
865.756	0.0155331
865.834	0.0152835
865.913	0.0153045
865.991	0.0153808
866.069	0.0154349
866.147	0.0154123
866.225	0.0154382
866.303	0.0153107
866.381	0.0152499
866.459	0.0154369
866.538	0.0153837
866.616	0.0154720
866.694	0.0154632
866.772	0.0154366
866.850	0.0154290
866.928	0.0154667
867.006	0.0154201
867.084	0.0154916
867.163	0.0154174
867.241	0.0154712
867.319	0.0155493
867.397	0.0154807
867.475	0.0155638
867.553	0.0153827
867.631	0.0154165
867.709	0.0155598
867.788	0.0155447
867.866	0.0154906
867.944	0.0155454
868.022	0.0157201
868.100	0.0156252
868.178	0.0155957
868.256	0.0155443
868.334	0.0155965
868.413	0.0155228
868.491	0.0156471
868.569	0.0156477
868.647	0.0155229
868.725	0.0155939
868.803	0.0155065
868.881	0.0153922
868.959	0.0153973
869.038	0.0153989
869.116	0.0154446
869.194	0.0153570
869.272	0.0153779
869.350	0.0152595
869.428	0.0152271
869.506	0.0153098
869.584	0.0155712
869.663	0.0154278
869.741	0.0152734
869.819	0.0153561
869.897	0.0154538
869.975	0.0154391
870.053	0.0155907
870.131	0.0154349
870.209	0.0154276
870.288	0.0155254
870.366	0.0155183
870.444	0.0154295
870.522	0.0155475
870.600	0.0153185
870.678	0.0154537
870.756	0.0154442
870.834	0.0154741
870.913	0.0154313
870.991	0.0154924
871.069	0.0155875
871.147	0.0155270
871.225	0.0154794
871.303	0.0156848
871.381	0.0154337
871.459	0.0154807
871.538	0.0155293
871.616	0.0155929
871.694	0.0154660
871.772	0.0155488
871.850	0.0155515
871.928	0.0155308
872.006	0.0155943
872.084	0.0154657
872.163	0.0153547
872.241	0.0153599
872.319	0.0155354
872.397	0.0154314
872.475	0.0154655
872.553	0.0153399
872.631	0.0154556
872.709	0.0153661
872.788	0.0153485
872.866	0.0152263
872.944	0.0152979
873.022	0.0152943
873.100	0.0152699
873.178	0.0151535
873.256	0.0153133
873.334	0.0153030
873.413	0.0153240
873.491	0.0152552
873.569	0.0152695
873.647	0.0154114
873.725	0.0153896
873.803	0.0153156
873.881	0.0152525
873.959	0.0152579
874.038	0.0153806
874.116	0.0153278
874.194	0.0154433
874.272	0.0154436
874.350	0.0153834
874.428	0.0152472
874.506	0.0154437
874.584	0.0154610
874.663	0.0152791
874.741	0.0153895
874.819	0.0153606
874.897	0.0154128
874.975	0.0153804
875.053	0.0154691
875.131	0.0153446
875.209	0.0155424
875.288	0.0154884
875.366	0.0155477
875.444	0.0156123
875.522	0.0156349
875.600	0.0155992
875.678	0.0156297
875.756	0.0157190
875.834	0.0154628
875.913	0.0154949
875.991	0.0155693
876.069	0.0153587
876.147	0.0154301
876.225	0.0156579
876.303	0.0154469
876.381	0.0154711
876.459	0.0153297
876.538	0.0153476
876.616	0.0153803
876.694	0.0154542
876.772	0.0154028
876.850	0.0155411
876.928	0.0153759
877.006	0.0152869
877.084	0.0154536
877.163	0.0154590
877.241	0.0154476
877.319	0.0155042
877.397	0.0155142
877.475	0.0157114
877.553	0.0155264
877.631	0.0156258
877.709	0.0154350
877.788	0.0154830
877.866	0.0155419
877.944	0.0155766
878.022	0.0156189
878.100	0.0155578
878.178	0.0156534
878.256	0.0155564
878.334	0.0155486
878.413	0.0155501
878.491	0.0155796
878.569	0.0155426
878.647	0.0155414
878.725	0.0156532
878.803	0.0155427
878.881	0.0156352
878.959	0.0156882
879.038	0.0156248
879.116	0.0155926
879.194	0.0156498
879.272	0.0155816
879.350	0.0156844
879.428	0.0155744
879.506	0.0156182
879.584	0.0154977
879.663	0.0156091
879.741	0.0155820
879.819	0.0154732
879.897	0.0153848
879.975	0.0154274
880.053	0.0155158
880.131	0.0154491
880.209	0.0155178
880.288	0.0154111
880.366	0.0153468
880.444	0.0154838
880.522	0.0155444
880.600	0.0154893
880.678	0.0153374
880.756	0.0155108
880.834	0.0156110
880.913	0.0155820
880.991	0.0154030
881.069	0.0155441
881.147	0.0155105
881.225	0.0156142
881.303	0.0155768
881.381	0.0153954
881.459	0.0155345
881.538	0.0154443
881.616	0.0155220
881.694	0.0154961
881.772	0.0155849
881.850	0.0155711
881.928	0.0155141
882.006	0.0155041
882.084	0.0156609
882.163	0.0154614
882.241	0.0155060
882.319	0.0156128
882.397	0.0154440
882.475	0.0154404
882.553	0.0155136
882.631	0.0155135
882.709	0.0154996
882.788	0.0154101
882.866	0.0154803
882.944	0.0154005
883.022	0.0153793
883.100	0.0153997
883.178	0.0153516
883.256	0.0152612
883.334	0.0152760
883.413	0.0153206
883.491	0.0152561
883.569	0.0154461
883.647	0.0152258
883.725	0.0153516
883.803	0.0153612
883.881	0.0153806
883.959	0.0152940
884.038	0.0153674
884.116	0.0153378
884.194	0.0154972
884.272	0.0156189
884.350	0.0155035
884.428	0.0154617
884.506	0.0154005
884.584	0.0155717
884.663	0.0154652
884.741	0.0154804
884.819	0.0154494
884.897	0.0155354
884.975	0.0153777
885.053	0.0154590
885.131	0.0154799
885.209	0.0153544
885.288	0.0153668
885.366	0.0153219
885.444	0.0153994
885.522	0.0153503
885.600	0.0153887
885.678	0.0154748
885.756	0.0152551
885.834	0.0153137
885.913	0.0153281
885.991	0.0152931
886.069	0.0153106
886.147	0.0154391
886.225	0.0152081
886.303	0.0153772
886.381	0.0153970
886.459	0.0153951
886.538	0.0153177
886.616	0.0154019
886.694	0.0152471
886.772	0.0155273
886.850	0.0155673
886.928	0.0155081
887.006	0.0154486
887.084	0.0154633
887.163	0.0154417
887.241	0.0153693
887.319	0.0153868
887.397	0.0154615
887.475	0.0155634
887.553	0.0153832
887.631	0.0154136
887.709	0.0153376
887.788	0.0154733
887.866	0.0153941
887.944	0.0154384
888.022	0.0154544
888.100	0.0154739
888.178	0.0155822
888.256	0.0154723
888.334	0.0155161
888.413	0.0154710
888.491	0.0153939
888.569	0.0154334
888.647	0.0154632
888.725	0.0153152
888.803	0.0154267
888.881	0.0153252
888.959	0.0153618
889.038	0.0153150
889.116	0.0154045
889.194	0.0153097
889.272	0.0153494
889.350	0.0152882
889.428	0.0152518
889.506	0.0152846
889.584	0.0152290
889.663	0.0153294
889.741	0.0153611
889.819	0.0153768
889.897	0.0153475
889.975	0.0152786
890.053	0.0153310
890.131	0.0153283
890.209	0.0153066
890.288	0.0152696
890.366	0.0152895
890.444	0.0153181
890.522	0.0154337
890.600	0.0154163
890.678	0.0154176
890.756	0.0153495
890.834	0.0153406
890.913	0.0154233
890.991	0.0155273
891.069	0.0154498
891.147	0.0155562
891.225	0.0156506
891.303	0.0155418
891.381	0.0155127
891.459	0.0154779
891.538	0.0156056
891.616	0.0156660
891.694	0.0157163
891.772	0.0155781
891.850	0.0156255
891.928	0.0155022
892.006	0.0155269
892.084	0.0156155
892.163	0.0155655
892.241	0.0156441
892.319	0.0155076
892.397	0.0155804
892.475	0.0157124
892.553	0.0156820
892.631	0.0155613
892.709	0.0155851
892.788	0.0157889
892.866	0.0156959
892.944	0.0154955
893.022	0.0156679
893.100	0.0156072
893.178	0.0155206
893.256	0.0155666
893.334	0.0155663
893.413	0.0155071
893.491	0.0154552
893.569	0.0154840
893.647	0.0155286
893.725	0.0154040
893.803	0.0152647
893.881	0.0154597
893.959	0.0154697
894.038	0.0153683
894.116	0.0154541
894.194	0.0153761
894.272	0.0154907
894.350	0.0152196
894.428	0.0152851
894.506	0.0153300
894.584	0.0153360
894.663	0.0153960
894.741	0.0155215
894.819	0.0155333
894.897	0.0154488
894.975	0.0155437
895.053	0.0155676
895.131	0.0156662
895.209	0.0156245
895.288	0.0156518
895.366	0.0156028
895.444	0.0157220
895.522	0.0157761
895.600	0.0156694
895.678	0.0155755
895.756	0.0156126
895.834	0.0157456
895.913	0.0154919
895.991	0.0156528
896.069	0.0156086
896.147	0.0154976
896.225	0.0156345
896.303	0.0155959
896.381	0.0154794
896.459	0.0155138
896.538	0.0154330
896.616	0.0152451
896.694	0.0151912
896.772	0.0154362
896.850	0.0152322
896.928	0.0152815
897.006	0.0151530
897.084	0.0150936
897.163	0.0151206
897.241	0.0151277
897.319	0.0149934
897.397	0.0151285
897.475	0.0150893
897.553	0.0151494
897.631	0.0151700
897.709	0.0150243
897.788	0.0152203
897.866	0.0152057
897.944	0.0151735
898.022	0.0153355
898.100	0.0153817
898.178	0.0153780
898.256	0.0153458
898.334	0.0155196
898.413	0.0156767
898.491	0.0155954
898.569	0.0155256
898.647	0.0156193
898.725	0.0157249
898.803	0.0156445
898.881	0.0155807
898.959	0.0157970
899.038	0.0157896
899.116	0.0158041
899.194	0.0158654
899.272	0.0159029
899.350	0.0160213
899.428	0.0158460
899.506	0.0158032
899.584	0.0157504
899.663	0.0157336
899.741	0.0157790
899.819	0.0158916
899.897	0.0157690
899.975	0.0158767
900.053	0.0159221
900.131	0.0157085
900.209	0.0157652
900.288	0.0158102
900.366	0.0156798
900.444	0.0157098
900.522	0.0157207
900.600	0.0156821
900.678	0.0157175
900.756	0.0156932
900.834	0.0156477
900.913	0.0156242
900.991	0.0155924
901.069	0.0155137
901.147	0.0155345
901.225	0.0155362
901.303	0.0155761
901.381	0.0155196
901.459	0.0153924
901.538	0.0153793
901.616	0.0154385
901.694	0.0153410
901.772	0.0153358
901.850	0.0154216
901.928	0.0153789
902.006	0.0154550
902.084	0.0152797
902.163	0.0152980
902.241	0.0153835
902.319	0.0154839
902.397	0.0153192
902.475	0.0153979
902.553	0.0154075
902.631	0.0154179
902.709	0.0153249
902.788	0.0155239
902.866	0.0155818
902.944	0.0154922
903.022	0.0155115
903.100	0.0156425
903.178	0.0156648
903.256	0.0157116
903.334	0.0155625
903.413	0.0156320
903.491	0.0157362
903.569	0.0156597
903.647	0.0156109
903.725	0.0156421
903.803	0.0156367
903.881	0.0155560
903.959	0.0157320
904.038	0.0155505
904.116	0.0157067
904.194	0.0156136
904.272	0.0154870
904.350	0.0155080
904.428	0.0155645
904.506	0.0157271
904.584	0.0156849
904.663	0.0153925
904.741	0.0156013
904.819	0.0154767
904.897	0.0155189
904.975	0.0154511
905.053	0.0155945
905.131	0.0155560
905.209	0.0155996
905.288	0.0155418
905.366	0.0154556
905.444	0.0155753
905.522	0.0155878
905.600	0.0154981
905.678	0.0155786
905.756	0.0155750
905.834	0.0154826
905.913	0.0153982
905.991	0.0154857
906.069	0.0154504
906.147	0.0154905
906.225	0.0153736
906.303	0.0154151
906.381	0.0155173
906.459	0.0153184
906.538	0.0153825
906.616	0.0154088
906.694	0.0155453
906.772	0.0153489
906.850	0.0153049
906.928	0.0155642
907.006	0.0156849
907.084	0.0154790
907.163	0.0154463
907.241	0.0155919
907.319	0.0156465
907.397	0.0156341
907.475	0.0156414
907.553	0.0155093
907.631	0.0155726
907.709	0.0154525
907.788	0.0155675
907.866	0.0155054
907.944	0.0155656
908.022	0.0155363
908.100	0.0155273
908.178	0.0156121
908.256	0.0155769
908.334	0.0154461
908.413	0.0154437
908.491	0.0155297
908.569	0.0155705
908.647	0.0157063
908.725	0.0156202
908.803	0.0155328
908.881	0.0154919
908.959	0.0154723
909.038	0.0156150
909.116	0.0154630
909.194	0.0154704
909.272	0.0153828
909.350	0.0154926
909.428	0.0153934
909.506	0.0153931
909.584	0.0154495
909.663	0.0153146
909.741	0.0153513
909.819	0.0153297
909.897	0.0152550
909.975	0.0152828
910.053	0.0152840
910.131	0.0152983
910.209	0.0152195
910.288	0.0151773
910.366	0.0152993
910.444	0.0152324
910.522	0.0151363
910.600	0.0153457
910.678	0.0153613
910.756	0.0154323
910.834	0.0155003
910.913	0.0154271
910.991	0.0155519
911.069	0.0156162
911.147	0.0156486
911.225	0.0156573
911.303	0.0156023
911.381	0.0156339
911.459	0.0157531
911.538	0.0156954
911.616	0.0156664
911.694	0.0158242
911.772	0.0155882
911.850	0.0156242
911.928	0.0157542
912.006	0.0157619
912.084	0.0157558
912.163	0.0156231
912.241	0.0155710
912.319	0.0156573
912.397	0.0154816
912.475	0.0155791
912.553	0.0155104
912.631	0.0155668
912.709	0.0154729
912.788	0.0154809
912.866	0.0155016
912.944	0.0154809
913.022	0.0154926
913.100	0.0154482
913.178	0.0155265
913.256	0.0152907
913.334	0.0153769
913.413	0.0154811
913.491	0.0154842
913.569	0.0153893
913.647	0.0155035
913.725	0.0153834
913.803	0.0154819
913.881	0.0154568
913.959	0.0156142
914.038	0.0156202
914.116	0.0154815
914.194	0.0155379
914.272	0.0156239
914.350	0.0156196
914.428	0.0155805
914.506	0.0154643
914.584	0.0157576
914.663	0.0155525
914.741	0.0154823
914.819	0.0155090
914.897	0.0154745
914.975	0.0155157
915.053	0.0155867
915.131	0.0155359
915.209	0.0153440
915.288	0.0153791
915.366	0.0154006
915.444	0.0154372
915.522	0.0154176
915.600	0.0154504
915.678	0.0155070
915.756	0.0154456
915.834	0.0154784
915.913	0.0153369
915.991	0.0154250
916.069	0.0154973
916.147	0.0153671
916.225	0.0153951
916.303	0.0154891
916.381	0.0154748
916.459	0.0154889
916.538	0.0155000
916.616	0.0153391
916.694	0.0155315
916.772	0.0153458
916.850	0.0152698
916.928	0.0154002
917.006	0.0154306
917.084	0.0153905
917.163	0.0155618
917.241	0.0153932
917.319	0.0154374
917.397	0.0154472
917.475	0.0153003
917.553	0.0153632
917.631	0.0154341
917.709	0.0154839
917.788	0.0153686
917.866	0.0154069
917.944	0.0153968
918.022	0.0154581
918.100	0.0153264
918.178	0.0152863
918.256	0.0152425
918.334	0.0151966
918.413	0.0153745
918.491	0.0152954
918.569	0.0152171
918.647	0.0151984
918.725	0.0152017
918.803	0.0153658
918.881	0.0151527
918.959	0.0152261
919.038	0.0154119
919.116	0.0153516
919.194	0.0154784
919.272	0.0155873
919.350	0.0156316
919.428	0.0154561
919.506	0.0156686
919.584	0.0156667
919.663	0.0156694
919.741	0.0157014
919.819	0.0156942
919.897	0.0155936
