05/20/2022	21:13:29	Ver.	4.1	UNKNOWN
Optical Delay	599.975067	Delta X		0.078125	Sweeps	1	Scan Rate	0/0
Coordinates	Axis 1	NaN	Axis 2	NaN	Axis 3	NaN	Axis 4	NaN	Axis 5	NaN	Axis 6	0.000000
TX Power	0.000000	RX Power	0.000000

599.975	0.0154956
600.053	0.0154668
600.131	0.0153907
600.209	0.0155400
600.288	0.0155344
600.366	0.0154910
600.444	0.0155107
600.522	0.0153899
600.600	0.0154022
600.678	0.0155358
600.756	0.0155901
600.834	0.0154918
600.913	0.0153615
600.991	0.0155594
601.069	0.0156094
601.147	0.0154478
601.225	0.0153565
601.303	0.0155578
601.381	0.0155593
601.459	0.0155032
601.538	0.0154518
601.616	0.0155239
601.694	0.0155608
601.772	0.0154619
601.850	0.0154476
601.928	0.0154883
602.006	0.0155074
602.084	0.0155434
602.163	0.0152962
602.241	0.0153860
602.319	0.0155225
602.397	0.0154698
602.475	0.0152784
602.553	0.0153681
602.631	0.0154610
602.709	0.0154072
602.788	0.0154494
602.866	0.0155491
602.944	0.0155658
603.022	0.0155843
603.100	0.0153465
603.178	0.0154257
603.256	0.0154259
603.334	0.0153773
603.413	0.0153375
603.491	0.0154165
603.569	0.0153860
603.647	0.0155022
603.725	0.0155312
603.803	0.0154142
603.881	0.0154640
603.959	0.0155416
604.038	0.0154548
604.116	0.0155069
604.194	0.0155247
604.272	0.0155347
604.350	0.0154720
604.428	0.0153922
604.506	0.0154291
604.584	0.0154852
604.663	0.0154975
604.741	0.0155682
604.819	0.0155505
604.897	0.0155769
604.975	0.0153742
605.053	0.0155907
605.131	0.0155116
605.209	0.0156185
605.288	0.0156660
605.366	0.0155742
605.444	0.0155570
605.522	0.0156481
605.600	0.0155832
605.678	0.0155983
605.756	0.0155087
605.834	0.0155673
605.913	0.0156081
605.991	0.0155770
606.069	0.0156241
606.147	0.0156299
606.225	0.0155799
606.303	0.0154660
606.381	0.0155933
606.459	0.0155344
606.538	0.0155370
606.616	0.0157067
606.694	0.0155433
606.772	0.0155334
606.850	0.0155868
606.928	0.0156017
607.006	0.0155047
607.084	0.0155130
607.163	0.0155240
607.241	0.0155773
607.319	0.0155052
607.397	0.0156724
607.475	0.0155346
607.553	0.0156099
607.631	0.0155507
607.709	0.0155199
607.788	0.0156477
607.866	0.0155006
607.944	0.0155225
608.022	0.0154554
608.100	0.0155416
608.178	0.0154662
608.256	0.0155689
608.334	0.0154295
608.413	0.0155571
608.491	0.0155052
608.569	0.0155719
608.647	0.0153943
608.725	0.0155833
608.803	0.0156333
608.881	0.0153976
608.959	0.0155688
609.038	0.0155666
609.116	0.0155758
609.194	0.0154678
609.272	0.0155036
609.350	0.0155403
609.428	0.0155372
609.506	0.0154827
609.584	0.0155180
609.663	0.0156931
609.741	0.0155954
609.819	0.0154990
609.897	0.0155624
609.975	0.0154498
610.053	0.0155572
610.131	0.0155618
610.209	0.0156025
610.288	0.0155112
610.366	0.0154772
610.444	0.0154986
610.522	0.0154678
610.600	0.0156598
610.678	0.0154762
610.756	0.0154912
610.834	0.0154921
610.913	0.0154765
610.991	0.0154700
611.069	0.0155877
611.147	0.0156151
611.225	0.0155451
611.303	0.0154301
611.381	0.0154203
611.459	0.0155235
611.538	0.0154671
611.616	0.0154672
611.694	0.0154861
611.772	0.0153822
611.850	0.0154159
611.928	0.0154548
612.006	0.0156142
612.084	0.0155781
612.163	0.0155590
612.241	0.0155064
612.319	0.0155620
612.397	0.0155813
612.475	0.0156672
612.553	0.0155644
612.631	0.0156234
612.709	0.0156393
612.788	0.0155531
612.866	0.0155407
612.944	0.0157513
613.022	0.0156599
613.100	0.0155773
613.178	0.0156001
613.256	0.0156104
613.334	0.0155627
613.413	0.0155223
613.491	0.0156557
613.569	0.0155412
613.647	0.0156090
613.725	0.0156735
613.803	0.0155001
613.881	0.0156133
613.959	0.0157230
614.038	0.0156386
614.116	0.0156977
614.194	0.0156532
614.272	0.0156200
614.350	0.0156841
614.428	0.0155966
614.506	0.0156888
614.584	0.0155989
614.663	0.0156368
614.741	0.0155016
614.819	0.0157678
614.897	0.0157139
614.975	0.0155485
615.053	0.0156241
615.131	0.0155586
615.209	0.0155236
615.288	0.0155562
615.366	0.0155734
615.444	0.0156513
615.522	0.0155649
615.600	0.0154897
615.678	0.0154636
615.756	0.0154527
615.834	0.0156065
615.913	0.0155719
615.991	0.0154457
616.069	0.0153362
616.147	0.0154319
616.225	0.0153876
616.303	0.0154522
616.381	0.0154970
616.459	0.0153500
616.538	0.0153866
616.616	0.0154478
616.694	0.0154086
616.772	0.0152837
616.850	0.0154087
616.928	0.0154426
617.006	0.0154110
617.084	0.0154436
617.163	0.0153022
617.241	0.0153602
617.319	0.0152624
617.397	0.0153490
617.475	0.0152302
617.553	0.0152895
617.631	0.0154700
617.709	0.0154085
617.788	0.0152687
617.866	0.0153642
617.944	0.0154198
618.022	0.0154022
618.100	0.0154265
618.178	0.0153673
618.256	0.0153365
618.334	0.0153387
618.413	0.0153218
618.491	0.0153648
618.569	0.0154229
618.647	0.0152394
618.725	0.0152903
618.803	0.0152732
618.881	0.0153896
618.959	0.0152695
619.038	0.0152766
619.116	0.0153862
619.194	0.0153379
619.272	0.0153031
619.350	0.0152563
619.428	0.0152927
619.506	0.0153336
619.584	0.0153026
619.663	0.0152673
619.741	0.0154897
619.819	0.0153895
619.897	0.0152901
619.975	0.0153030
620.053	0.0152918
620.131	0.0154048
620.209	0.0154063
620.288	0.0154404
620.366	0.0153712
620.444	0.0152623
620.522	0.0154044
620.600	0.0154160
620.678	0.0152464
620.756	0.0154057
620.834	0.0153638
620.913	0.0152703
620.991	0.0154925
621.069	0.0152349
621.147	0.0153537
621.225	0.0152720
621.303	0.0152783
621.381	0.0153522
621.459	0.0152534
621.538	0.0152146
621.616	0.0152831
621.694	0.0153666
621.772	0.0153446
621.850	0.0152695
621.928	0.0153753
622.006	0.0152930
622.084	0.0152457
622.163	0.0152069
622.241	0.0152105
622.319	0.0154568
622.397	0.0151983
622.475	0.0152903
622.553	0.0152789
622.631	0.0153414
622.709	0.0153152
622.788	0.0152278
622.866	0.0152155
622.944	0.0152872
623.022	0.0153210
623.100	0.0152847
623.178	0.0152401
623.256	0.0152863
623.334	0.0152800
623.413	0.0152405
623.491	0.0153757
623.569	0.0154587
623.647	0.0154124
623.725	0.0152989
623.803	0.0152618
623.881	0.0153781
623.959	0.0154124
624.038	0.0155424
624.116	0.0153668
624.194	0.0154195
624.272	0.0156034
624.350	0.0154813
624.428	0.0155212
624.506	0.0155511
624.584	0.0154811
624.663	0.0155408
624.741	0.0154597
624.819	0.0155725
624.897	0.0155363
624.975	0.0156748
625.053	0.0155627
625.131	0.0155454
625.209	0.0156270
625.288	0.0155331
625.366	0.0156211
625.444	0.0154566
625.522	0.0156347
625.600	0.0155661
625.678	0.0156002
625.756	0.0155474
625.834	0.0156260
625.913	0.0156514
625.991	0.0157335
626.069	0.0154774
626.147	0.0155246
626.225	0.0155697
626.303	0.0155299
626.381	0.0154043
626.459	0.0155402
626.538	0.0153276
626.616	0.0153506
626.694	0.0153446
626.772	0.0153479
626.850	0.0153037
626.928	0.0154156
627.006	0.0154372
627.084	0.0153956
627.163	0.0153658
627.241	0.0154529
627.319	0.0154105
627.397	0.0155663
627.475	0.0155083
627.553	0.0153670
627.631	0.0155651
627.709	0.0156004
627.788	0.0155366
627.866	0.0155119
627.944	0.0154517
628.022	0.0156438
628.100	0.0155006
628.178	0.0154373
628.256	0.0156140
628.334	0.0155046
628.413	0.0154558
628.491	0.0155177
628.569	0.0155390
628.647	0.0157272
628.725	0.0154784
628.803	0.0153046
628.881	0.0155351
628.959	0.0154306
629.038	0.0155361
629.116	0.0155101
629.194	0.0154548
629.272	0.0154781
629.350	0.0153477
629.428	0.0154573
629.506	0.0154878
629.584	0.0154305
629.663	0.0154598
629.741	0.0153695
629.819	0.0155458
629.897	0.0155431
629.975	0.0154585
630.053	0.0155876
630.131	0.0155939
630.209	0.0154485
630.288	0.0155843
630.366	0.0156648
630.444	0.0155291
630.522	0.0155310
630.600	0.0156335
630.678	0.0155230
630.756	0.0157382
630.834	0.0156070
630.913	0.0155604
630.991	0.0156528
631.069	0.0156642
631.147	0.0155937
631.225	0.0155899
631.303	0.0156216
631.381	0.0155598
631.459	0.0156217
631.538	0.0155603
631.616	0.0155821
631.694	0.0155475
631.772	0.0156071
631.850	0.0155615
631.928	0.0154786
632.006	0.0156142
632.084	0.0158272
632.163	0.0157292
632.241	0.0157461
632.319	0.0158273
632.397	0.0157874
632.475	0.0159280
632.553	0.0157446
632.631	0.0158109
632.709	0.0156715
632.788	0.0157374
632.866	0.0157536
632.944	0.0157302
633.022	0.0157076
633.100	0.0157121
633.178	0.0158559
633.256	0.0157415
633.334	0.0157549
633.413	0.0156364
633.491	0.0156821
633.569	0.0157707
633.647	0.0155566
633.725	0.0155831
633.803	0.0156553
633.881	0.0156508
633.959	0.0156444
634.038	0.0157944
634.116	0.0155943
634.194	0.0156441
634.272	0.0157294
634.350	0.0157534
634.428	0.0156198
634.506	0.0157257
634.584	0.0156956
634.663	0.0157526
634.741	0.0157333
634.819	0.0156319
634.897	0.0157996
634.975	0.0157764
635.053	0.0156223
635.131	0.0156332
635.209	0.0155444
635.288	0.0153672
635.366	0.0155324
635.444	0.0155633
635.522	0.0155479
635.600	0.0156065
635.678	0.0154623
635.756	0.0155077
635.834	0.0156609
635.913	0.0155394
635.991	0.0154906
636.069	0.0155319
636.147	0.0155181
636.225	0.0154339
636.303	0.0154408
636.381	0.0155071
636.459	0.0155060
636.538	0.0154932
636.616	0.0154520
636.694	0.0154113
636.772	0.0154517
636.850	0.0152724
636.928	0.0153548
637.006	0.0153416
637.084	0.0152687
637.163	0.0153794
637.241	0.0152874
637.319	0.0153108
637.397	0.0153196
637.475	0.0153130
637.553	0.0153452
637.631	0.0153716
637.709	0.0154451
637.788	0.0152918
637.866	0.0152348
637.944	0.0153731
638.022	0.0153577
638.100	0.0153393
638.178	0.0153402
638.256	0.0152647
638.334	0.0152734
638.413	0.0153637
638.491	0.0154348
638.569	0.0152917
638.647	0.0153163
638.725	0.0152144
638.803	0.0152048
638.881	0.0152906
638.959	0.0154578
639.038	0.0153294
639.116	0.0153522
639.194	0.0152489
639.272	0.0151732
639.350	0.0152244
639.428	0.0152695
639.506	0.0151575
639.584	0.0152136
639.663	0.0152250
639.741	0.0152804
639.819	0.0151239
639.897	0.0153062
639.975	0.0151111
640.053	0.0151826
640.131	0.0151605
640.209	0.0152613
640.288	0.0152619
640.366	0.0151803
640.444	0.0152554
640.522	0.0154768
640.600	0.0154173
640.678	0.0152224
640.756	0.0152106
640.834	0.0153235
640.913	0.0153671
640.991	0.0151609
641.069	0.0152972
641.147	0.0153044
641.225	0.0152731
641.303	0.0152260
641.381	0.0153690
641.459	0.0151881
641.538	0.0151665
641.616	0.0152171
641.694	0.0152628
641.772	0.0151254
641.850	0.0151322
641.928	0.0152709
642.006	0.0152779
642.084	0.0151920
642.163	0.0152679
642.241	0.0152572
642.319	0.0152383
642.397	0.0153796
642.475	0.0154335
642.553	0.0153114
642.631	0.0154967
642.709	0.0152959
642.788	0.0154597
642.866	0.0153505
642.944	0.0153644
643.022	0.0153022
643.100	0.0155212
643.178	0.0154816
643.256	0.0153434
643.334	0.0153380
643.413	0.0154056
643.491	0.0152992
643.569	0.0152377
643.647	0.0152888
643.725	0.0153754
643.803	0.0152914
643.881	0.0151852
643.959	0.0153000
644.038	0.0154029
644.116	0.0152974
644.194	0.0152472
644.272	0.0152198
644.350	0.0151554
644.428	0.0153700
644.506	0.0152819
644.584	0.0152481
644.663	0.0153609
644.741	0.0154069
644.819	0.0153329
644.897	0.0152555
644.975	0.0153408
645.053	0.0154041
645.131	0.0153242
645.209	0.0151903
645.288	0.0154251
645.366	0.0153825
645.444	0.0152686
645.522	0.0153081
645.600	0.0152171
645.678	0.0152619
645.756	0.0153546
645.834	0.0152432
645.913	0.0152208
645.991	0.0152734
646.069	0.0151799
646.147	0.0151282
646.225	0.0152594
646.303	0.0152476
646.381	0.0152866
646.459	0.0152426
646.538	0.0153461
646.616	0.0154081
646.694	0.0153750
646.772	0.0153510
646.850	0.0152509
646.928	0.0153318
647.006	0.0154073
647.084	0.0153417
647.163	0.0153665
647.241	0.0154075
647.319	0.0153228
647.397	0.0154032
647.475	0.0154151
647.553	0.0153292
647.631	0.0152785
647.709	0.0154626
647.788	0.0155665
647.866	0.0151992
647.944	0.0153465
648.022	0.0152386
648.100	0.0153332
648.178	0.0153593
648.256	0.0153236
648.334	0.0153330
648.413	0.0153944
648.491	0.0152383
648.569	0.0152081
648.647	0.0153332
648.725	0.0152656
648.803	0.0153252
648.881	0.0150491
648.959	0.0151925
649.038	0.0154199
649.116	0.0153526
649.194	0.0154099
649.272	0.0154025
649.350	0.0152483
649.428	0.0155486
649.506	0.0153260
649.584	0.0154731
649.663	0.0153562
649.741	0.0155099
649.819	0.0155077
649.897	0.0154575
649.975	0.0154324
650.053	0.0155441
650.131	0.0154691
650.209	0.0155354
650.288	0.0154263
650.366	0.0154574
650.444	0.0154160
650.522	0.0153532
650.600	0.0153653
650.678	0.0153392
650.756	0.0152847
650.834	0.0153990
650.913	0.0153778
650.991	0.0152665
651.069	0.0153222
651.147	0.0154706
651.225	0.0153090
651.303	0.0154259
651.381	0.0153200
651.459	0.0153848
651.538	0.0154900
651.616	0.0155242
651.694	0.0154650
651.772	0.0154755
651.850	0.0154334
651.928	0.0155087
652.006	0.0155492
652.084	0.0154600
652.163	0.0154755
652.241	0.0154545
652.319	0.0154977
652.397	0.0154735
652.475	0.0155659
652.553	0.0154701
652.631	0.0152728
652.709	0.0154543
652.788	0.0155341
652.866	0.0155648
652.944	0.0156286
653.022	0.0153226
653.100	0.0155849
653.178	0.0155171
653.256	0.0152491
653.334	0.0153748
653.413	0.0154104
653.491	0.0156332
653.569	0.0154790
653.647	0.0154840
653.725	0.0154617
653.803	0.0154397
653.881	0.0153625
653.959	0.0154044
654.038	0.0153321
654.116	0.0153187
654.194	0.0154463
654.272	0.0154724
654.350	0.0154832
654.428	0.0155047
654.506	0.0155092
654.584	0.0155293
654.663	0.0155543
654.741	0.0155584
654.819	0.0155716
654.897	0.0155718
654.975	0.0155209
655.053	0.0155019
655.131	0.0155872
655.209	0.0155900
655.288	0.0154837
655.366	0.0155222
655.444	0.0155276
655.522	0.0154801
655.600	0.0153285
655.678	0.0154669
655.756	0.0154884
655.834	0.0153451
655.913	0.0155676
655.991	0.0154670
656.069	0.0154176
656.147	0.0154887
656.225	0.0155370
656.303	0.0152905
656.381	0.0155020
656.459	0.0156155
656.538	0.0154114
656.616	0.0155119
656.694	0.0155145
656.772	0.0154382
656.850	0.0155051
656.928	0.0156942
657.006	0.0156554
657.084	0.0155593
657.163	0.0155870
657.241	0.0155676
657.319	0.0156751
657.397	0.0155444
657.475	0.0157217
657.553	0.0156480
657.631	0.0157407
657.709	0.0157523
657.788	0.0154348
657.866	0.0156104
657.944	0.0154674
658.022	0.0154880
658.100	0.0154784
658.178	0.0155029
658.256	0.0154924
658.334	0.0153861
658.413	0.0154128
658.491	0.0155682
658.569	0.0155585
658.647	0.0152982
658.725	0.0154185
658.803	0.0154027
658.881	0.0153922
658.959	0.0153201
659.038	0.0154521
659.116	0.0155296
659.194	0.0153491
659.272	0.0153937
659.350	0.0153415
659.428	0.0154451
659.506	0.0153986
659.584	0.0154094
659.663	0.0153896
659.741	0.0153885
659.819	0.0153492
659.897	0.0153561
659.975	0.0154845
660.053	0.0154409
660.131	0.0153420
660.209	0.0154464
660.288	0.0154353
660.366	0.0154225
660.444	0.0153461
660.522	0.0153866
660.600	0.0154412
660.678	0.0153918
660.756	0.0152614
660.834	0.0151994
660.913	0.0154595
660.991	0.0153145
661.069	0.0153332
661.147	0.0154887
661.225	0.0152903
661.303	0.0153530
661.381	0.0154893
661.459	0.0152857
661.538	0.0153283
661.616	0.0154018
661.694	0.0153417
661.772	0.0153004
661.850	0.0153922
661.928	0.0154037
662.006	0.0153893
662.084	0.0153035
662.163	0.0153156
662.241	0.0153976
662.319	0.0153457
662.397	0.0153949
662.475	0.0153903
662.553	0.0155103
662.631	0.0154066
662.709	0.0154884
662.788	0.0154305
662.866	0.0153777
662.944	0.0153404
663.022	0.0153893
663.100	0.0153787
663.178	0.0153292
663.256	0.0152564
663.334	0.0153290
663.413	0.0154024
663.491	0.0153133
663.569	0.0152892
663.647	0.0152483
663.725	0.0152886
663.803	0.0152950
663.881	0.0152946
663.959	0.0153764
664.038	0.0151807
664.116	0.0152310
664.194	0.0153185
664.272	0.0152852
664.350	0.0152109
664.428	0.0152617
664.506	0.0153127
664.584	0.0152352
664.663	0.0151699
664.741	0.0152546
664.819	0.0153839
664.897	0.0152998
664.975	0.0153793
665.053	0.0153204
665.131	0.0153149
665.209	0.0152397
665.288	0.0152145
665.366	0.0154165
665.444	0.0153335
665.522	0.0152831
665.600	0.0152973
665.678	0.0152477
665.756	0.0153118
665.834	0.0152824
665.913	0.0152731
665.991	0.0152129
666.069	0.0151038
666.147	0.0151894
666.225	0.0151865
666.303	0.0151673
666.381	0.0152959
666.459	0.0151156
666.538	0.0152440
666.616	0.0152247
666.694	0.0152583
666.772	0.0153520
666.850	0.0153512
666.928	0.0154307
667.006	0.0154774
667.084	0.0154518
667.163	0.0152459
667.241	0.0154831
667.319	0.0152685
667.397	0.0153479
667.475	0.0154070
667.553	0.0152968
667.631	0.0152384
667.709	0.0151698
667.788	0.0151736
667.866	0.0154064
667.944	0.0152121
668.022	0.0152625
668.100	0.0152270
668.178	0.0151711
668.256	0.0152477
668.334	0.0152646
668.413	0.0152442
668.491	0.0153038
668.569	0.0153998
668.647	0.0152635
668.725	0.0152158
668.803	0.0152152
668.881	0.0152501
668.959	0.0152258
669.038	0.0152041
669.116	0.0152899
669.194	0.0153654
669.272	0.0152415
669.350	0.0152863
669.428	0.0152824
669.506	0.0154878
669.584	0.0153381
669.663	0.0154172
669.741	0.0155560
669.819	0.0155151
669.897	0.0155111
669.975	0.0155627
670.053	0.0155045
670.131	0.0155409
670.209	0.0155459
670.288	0.0154690
670.366	0.0155167
670.444	0.0155848
670.522	0.0154889
670.600	0.0154484
670.678	0.0153680
670.756	0.0152744
670.834	0.0152226
670.913	0.0153133
670.991	0.0151689
671.069	0.0151223
671.147	0.0151915
671.225	0.0150479
671.303	0.0150493
671.381	0.0150947
671.459	0.0151502
671.538	0.0151137
671.616	0.0150028
671.694	0.0150835
671.772	0.0151347
671.850	0.0150092
671.928	0.0152325
672.006	0.0152603
672.084	0.0151872
672.163	0.0153080
672.241	0.0155235
672.319	0.0155709
672.397	0.0157320
672.475	0.0157595
672.553	0.0158973
672.631	0.0157784
672.709	0.0157549
672.788	0.0159666
672.866	0.0158935
672.944	0.0158403
673.022	0.0159866
673.100	0.0160734
673.178	0.0158871
673.256	0.0159846
673.334	0.0160403
673.413	0.0158059
673.491	0.0159058
673.569	0.0158884
673.647	0.0157499
673.725	0.0155887
673.803	0.0156104
673.881	0.0154382
673.959	0.0152459
674.038	0.0153122
674.116	0.0151627
674.194	0.0149354
674.272	0.0149537
674.350	0.0148156
674.428	0.0147413
674.506	0.0144588
674.584	0.0144642
674.663	0.0145465
674.741	0.0146352
674.819	0.0145273
674.897	0.0145534
674.975	0.0146516
675.053	0.0146487
675.131	0.0147987
675.209	0.0148212
675.288	0.0148864
675.366	0.0152718
675.444	0.0151740
675.522	0.0153869
675.600	0.0154983
675.678	0.0157922
675.756	0.0160114
675.834	0.0161330
675.913	0.0163182
675.991	0.0165168
676.069	0.0167599
676.147	0.0169868
676.225	0.0171049
676.303	0.0172507
676.381	0.0172607
676.459	0.0173154
676.538	0.0174123
676.616	0.0174319
676.694	0.0175240
676.772	0.0174191
676.850	0.0172311
676.928	0.0171073
677.006	0.0169067
677.084	0.0168629
677.163	0.0164339
677.241	0.0163837
677.319	0.0159206
677.397	0.0156135
677.475	0.0153114
677.553	0.0153001
677.631	0.0149725
677.709	0.0144807
677.788	0.0142678
677.866	0.0139409
677.944	0.0137868
678.022	0.0136182
678.100	0.0133707
678.178	0.0134566
678.256	0.0133343
678.334	0.0133376
678.413	0.0133461
678.491	0.0133520
678.569	0.0134396
678.647	0.0136986
678.725	0.0138500
678.803	0.0142767
678.881	0.0144669
678.959	0.0144994
679.038	0.0147038
679.116	0.0151562
679.194	0.0153568
679.272	0.0156573
679.350	0.0157683
679.428	0.0160818
679.506	0.0162894
679.584	0.0166308
679.663	0.0167673
679.741	0.0170079
679.819	0.0171213
679.897	0.0172028
679.975	0.0173077
680.053	0.0173201
680.131	0.0173438
680.209	0.0172446
680.288	0.0171526
680.366	0.0170720
680.444	0.0168356
680.522	0.0168613
680.600	0.0167261
680.678	0.0166264
680.756	0.0163088
680.834	0.0161906
680.913	0.0159016
680.991	0.0159097
681.069	0.0157114
681.147	0.0154299
681.225	0.0152740
681.303	0.0151404
681.381	0.0149965
681.459	0.0148559
681.538	0.0146703
681.616	0.0146230
681.694	0.0145187
681.772	0.0143655
681.850	0.0144409
681.928	0.0142496
682.006	0.0142635
682.084	0.0142527
682.163	0.0143716
682.241	0.0142117
682.319	0.0142548
682.397	0.0142075
682.475	0.0142385
682.553	0.0142062
682.631	0.0141645
682.709	0.0142474
682.788	0.0143048
682.866	0.0143500
682.944	0.0142852
683.022	0.0143240
683.100	0.0145179
683.178	0.0143584
683.256	0.0144618
683.334	0.0145119
683.413	0.0145987
683.491	0.0146760
683.569	0.0145399
683.647	0.0147063
683.725	0.0148366
683.803	0.0150957
683.881	0.0151703
683.959	0.0154532
684.038	0.0155156
684.116	0.0156343
684.194	0.0158224
684.272	0.0160960
684.350	0.0162933
684.428	0.0165276
684.506	0.0167599
684.584	0.0169065
684.663	0.0170823
684.741	0.0170316
684.819	0.0172787
684.897	0.0174272
684.975	0.0173527
685.053	0.0174232
685.131	0.0174321
685.209	0.0171142
685.288	0.0171194
685.366	0.0170959
685.444	0.0168254
685.522	0.0166292
685.600	0.0164394
685.678	0.0161296
685.756	0.0159207
685.834	0.0154883
685.913	0.0153153
685.991	0.0151805
686.069	0.0148426
686.147	0.0145749
686.225	0.0143655
686.303	0.0140751
686.381	0.0139455
686.459	0.0138526
686.538	0.0136256
686.616	0.0135793
686.694	0.0134786
686.772	0.0135449
686.850	0.0134467
686.928	0.0134040
687.006	0.0134949
687.084	0.0135385
687.163	0.0136755
687.241	0.0139173
687.319	0.0140704
687.397	0.0142471
687.475	0.0145126
687.553	0.0149216
687.631	0.0150452
687.709	0.0153358
687.788	0.0155674
687.866	0.0158346
687.944	0.0161167
688.022	0.0162204
688.100	0.0164105
688.178	0.0166018
688.256	0.0168128
688.334	0.0168296
688.413	0.0169866
688.491	0.0170339
688.569	0.0170985
688.647	0.0172256
688.725	0.0172137
688.803	0.0172289
688.881	0.0172471
688.959	0.0173618
689.038	0.0172701
689.116	0.0169517
689.194	0.0170045
689.272	0.0167974
689.350	0.0167679
689.428	0.0165608
689.506	0.0164067
689.584	0.0162335
689.663	0.0160867
689.741	0.0159371
689.819	0.0155685
689.897	0.0155726
689.975	0.0152393
690.053	0.0152119
690.131	0.0147991
690.209	0.0147751
690.288	0.0144850
690.366	0.0143218
690.444	0.0141880
690.522	0.0139455
690.600	0.0139157
690.678	0.0139095
690.756	0.0134689
690.834	0.0134312
690.913	0.0132811
690.991	0.0132898
691.069	0.0134048
691.147	0.0132320
691.225	0.0133360
691.303	0.0133113
691.381	0.0134168
691.459	0.0137155
691.538	0.0139133
691.616	0.0143204
691.694	0.0145992
691.772	0.0151456
691.850	0.0154706
691.928	0.0157320
692.006	0.0163064
692.084	0.0166024
692.163	0.0168633
692.241	0.0173342
692.319	0.0177025
692.397	0.0179486
692.475	0.0180938
692.553	0.0182981
692.631	0.0185645
692.709	0.0185787
692.788	0.0185720
692.866	0.0185403
692.944	0.0184569
693.022	0.0184148
693.100	0.0183065
693.178	0.0181006
693.256	0.0176353
693.334	0.0174964
693.413	0.0170856
693.491	0.0168275
693.569	0.0164133
693.647	0.0159058
693.725	0.0154166
693.803	0.0151576
693.881	0.0146149
693.959	0.0143090
694.038	0.0140098
694.116	0.0137714
694.194	0.0134826
694.272	0.0132602
694.350	0.0131951
694.428	0.0130719
694.506	0.0130998
694.584	0.0128718
694.663	0.0129819
694.741	0.0130815
694.819	0.0130609
694.897	0.0132648
694.975	0.0134921
695.053	0.0136736
695.131	0.0139011
695.209	0.0140482
695.288	0.0145905
695.366	0.0148837
695.444	0.0152405
695.522	0.0155252
695.600	0.0158058
695.678	0.0160551
695.756	0.0161099
695.834	0.0164548
695.913	0.0164571
695.991	0.0167658
696.069	0.0165945
696.147	0.0167162
696.225	0.0166383
696.303	0.0166464
696.381	0.0167713
696.459	0.0166753
696.538	0.0166384
696.616	0.0164300
696.694	0.0164898
696.772	0.0163686
696.850	0.0163500
696.928	0.0163052
697.006	0.0161353
697.084	0.0160288
697.163	0.0157243
697.241	0.0158123
697.319	0.0156335
697.397	0.0156042
697.475	0.0155829
697.553	0.0153446
697.631	0.0153765
697.709	0.0153230
697.788	0.0153860
697.866	0.0154081
697.944	0.0154849
698.022	0.0153442
698.100	0.0153485
698.178	0.0154072
698.256	0.0154191
698.334	0.0155895
698.413	0.0154126
698.491	0.0152166
698.569	0.0152631
698.647	0.0152355
698.725	0.0151157
698.803	0.0150353
698.881	0.0151508
698.959	0.0150853
699.038	0.0151533
699.116	0.0153145
699.194	0.0151508
699.272	0.0152101
699.350	0.0153871
699.428	0.0154982
699.506	0.0155412
699.584	0.0155211
699.663	0.0157351
699.741	0.0158549
699.819	0.0159598
699.897	0.0159009
699.975	0.0158948
700.053	0.0158958
700.131	0.0160236
700.209	0.0160103
700.288	0.0163068
700.366	0.0163243
700.444	0.0162974
700.522	0.0164593
700.600	0.0165730
700.678	0.0165610
700.756	0.0167321
700.834	0.0165361
700.913	0.0165054
700.991	0.0165777
701.069	0.0165019
701.147	0.0164523
701.225	0.0164074
701.303	0.0160725
701.381	0.0157394
701.459	0.0155533
701.538	0.0153571
701.616	0.0151248
701.694	0.0147791
701.772	0.0143433
701.850	0.0140170
701.928	0.0136362
702.006	0.0132546
702.084	0.0127067
702.163	0.0125209
702.241	0.0122211
702.319	0.0117986
702.397	0.0116009
702.475	0.0112770
702.553	0.0112069
702.631	0.0111374
702.709	0.0111906
702.788	0.0112667
702.866	0.0114794
702.944	0.0116574
703.022	0.0119923
703.100	0.0124546
703.178	0.0128688
703.256	0.0134921
703.334	0.0141273
703.413	0.0150275
703.491	0.0155607
703.569	0.0162392
703.647	0.0168803
703.725	0.0177177
703.803	0.0183530
703.881	0.0189268
703.959	0.0195551
704.038	0.0201267
704.116	0.0204798
704.194	0.0211076
704.272	0.0211735
704.350	0.0212187
704.428	0.0215213
704.506	0.0213163
704.584	0.0210972
704.663	0.0209067
704.741	0.0206183
704.819	0.0202420
704.897	0.0195823
704.975	0.0189537
705.053	0.0182522
705.131	0.0176597
705.209	0.0167850
705.288	0.0161857
705.366	0.0154919
705.444	0.0146470
705.522	0.0142370
705.600	0.0135258
705.678	0.0129529
705.756	0.0124448
705.834	0.0119696
705.913	0.0116258
705.991	0.0115911
706.069	0.0112907
706.147	0.0112213
706.225	0.0113425
706.303	0.0112428
706.381	0.0114422
706.459	0.0116528
706.538	0.0119256
706.616	0.0121212
706.694	0.0126424
706.772	0.0128155
706.850	0.0134447
706.928	0.0138071
707.006	0.0139639
707.084	0.0145008
707.163	0.0147956
707.241	0.0150693
707.319	0.0154613
707.397	0.0158476
707.475	0.0161388
707.553	0.0163379
707.631	0.0166336
707.709	0.0167667
707.788	0.0168378
707.866	0.0169105
707.944	0.0169727
708.022	0.0171380
708.100	0.0172231
708.178	0.0171619
708.256	0.0173164
708.334	0.0171980
708.413	0.0171092
708.491	0.0170238
708.569	0.0169057
708.647	0.0167361
708.725	0.0167416
708.803	0.0167091
708.881	0.0163867
708.959	0.0160853
709.038	0.0161687
709.116	0.0160342
709.194	0.0157786
709.272	0.0156328
709.350	0.0154900
709.428	0.0153574
709.506	0.0149947
709.584	0.0148964
709.663	0.0148301
709.741	0.0145530
709.819	0.0145028
709.897	0.0143318
709.975	0.0142833
710.053	0.0141114
710.131	0.0141235
710.209	0.0139959
710.288	0.0143681
710.366	0.0143115
710.444	0.0143079
710.522	0.0145278
710.600	0.0146133
710.678	0.0146394
710.756	0.0148735
710.834	0.0149530
710.913	0.0152663
710.991	0.0154194
711.069	0.0156532
711.147	0.0158971
711.225	0.0162553
711.303	0.0161920
711.381	0.0165389
711.459	0.0166716
711.538	0.0169122
711.616	0.0170296
711.694	0.0171295
711.772	0.0173525
711.850	0.0174127
711.928	0.0174877
712.006	0.0176617
712.084	0.0176308
712.163	0.0177751
712.241	0.0176090
712.319	0.0175519
712.397	0.0175698
712.475	0.0172730
712.553	0.0170490
712.631	0.0169494
712.709	0.0166872
712.788	0.0162961
712.866	0.0161543
712.944	0.0159645
713.022	0.0156358
713.100	0.0151369
713.178	0.0147067
713.256	0.0142883
713.334	0.0141634
713.413	0.0138272
713.491	0.0136020
713.569	0.0132310
713.647	0.0129898
713.725	0.0129202
713.803	0.0129143
713.881	0.0128752
713.959	0.0129293
714.038	0.0128630
714.116	0.0129554
714.194	0.0131370
714.272	0.0132355
714.350	0.0132828
714.428	0.0133840
714.506	0.0135782
714.584	0.0135866
714.663	0.0136370
714.741	0.0138287
714.819	0.0138826
714.897	0.0138969
714.975	0.0141130
715.053	0.0144272
715.131	0.0146839
715.209	0.0149501
715.288	0.0150491
715.366	0.0153148
715.444	0.0155783
715.522	0.0158424
715.600	0.0159409
715.678	0.0161791
715.756	0.0164705
715.834	0.0166576
715.913	0.0167657
715.991	0.0167516
716.069	0.0167715
716.147	0.0169128
716.225	0.0167958
716.303	0.0168860
716.381	0.0168201
716.459	0.0167661
716.538	0.0166328
716.616	0.0167097
716.694	0.0165076
716.772	0.0166817
716.850	0.0165894
716.928	0.0166087
717.006	0.0166545
717.084	0.0164756
717.163	0.0166782
717.241	0.0168091
717.319	0.0166187
717.397	0.0166465
717.475	0.0169215
717.553	0.0168290
717.631	0.0167484
717.709	0.0167037
717.788	0.0166968
717.866	0.0165644
717.944	0.0166598
718.022	0.0166351
718.100	0.0167188
718.178	0.0167024
718.256	0.0165874
718.334	0.0164926
718.413	0.0165672
718.491	0.0162710
718.569	0.0160770
718.647	0.0160203
718.725	0.0157808
718.803	0.0155979
718.881	0.0154408
718.959	0.0151224
719.038	0.0147468
719.116	0.0145448
719.194	0.0142667
719.272	0.0141163
719.350	0.0138926
719.428	0.0137868
719.506	0.0137267
719.584	0.0136407
719.663	0.0135692
719.741	0.0136201
719.819	0.0136451
719.897	0.0138025
719.975	0.0138444
720.053	0.0139550
720.131	0.0140070
720.209	0.0142120
720.288	0.0142913
720.366	0.0143192
720.444	0.0145293
720.522	0.0146702
720.600	0.0148402
720.678	0.0150943
720.756	0.0152261
720.834	0.0153565
720.913	0.0154128
720.991	0.0157299
721.069	0.0158058
721.147	0.0159566
721.225	0.0158717
721.303	0.0162256
721.381	0.0160901
721.459	0.0161862
721.538	0.0162623
721.616	0.0162161
721.694	0.0162286
721.772	0.0161900
721.850	0.0159560
721.928	0.0159111
722.006	0.0158447
722.084	0.0158853
722.163	0.0158045
722.241	0.0156981
722.319	0.0156795
722.397	0.0157673
722.475	0.0157766
722.553	0.0157133
722.631	0.0157803
722.709	0.0157873
722.788	0.0158016
722.866	0.0157378
722.944	0.0156833
723.022	0.0155937
723.100	0.0155459
723.178	0.0154253
723.256	0.0152374
723.334	0.0151583
723.413	0.0150903
723.491	0.0149185
723.569	0.0148090
723.647	0.0148709
723.725	0.0148808
723.803	0.0146741
723.881	0.0146158
723.959	0.0146632
724.038	0.0146454
724.116	0.0146667
724.194	0.0146661
724.272	0.0147954
724.350	0.0149121
724.428	0.0148930
724.506	0.0149823
724.584	0.0151154
724.663	0.0151572
724.741	0.0153896
724.819	0.0154454
724.897	0.0154558
724.975	0.0157686
725.053	0.0159441
725.131	0.0160621
725.209	0.0163567
725.288	0.0163934
725.366	0.0167324
725.444	0.0168075
725.522	0.0170075
725.600	0.0171593
725.678	0.0173685
725.756	0.0174805
725.834	0.0175008
725.913	0.0174775
725.991	0.0174674
726.069	0.0174214
726.147	0.0172740
726.225	0.0171390
726.303	0.0166708
726.381	0.0166956
726.459	0.0162318
726.538	0.0158904
726.616	0.0156975
726.694	0.0154472
726.772	0.0149943
726.850	0.0146432
726.928	0.0143713
727.006	0.0138769
727.084	0.0137492
727.163	0.0134794
727.241	0.0132699
727.319	0.0130055
727.397	0.0129404
727.475	0.0127802
727.553	0.0126079
727.631	0.0128431
727.709	0.0125803
727.788	0.0126836
727.866	0.0127727
727.944	0.0129618
728.022	0.0131258
728.100	0.0133398
728.178	0.0135686
728.256	0.0137068
728.334	0.0140486
728.413	0.0143711
728.491	0.0147670
728.569	0.0149978
728.647	0.0152540
728.725	0.0154444
728.803	0.0156946
728.881	0.0159222
728.959	0.0159393
729.038	0.0162010
729.116	0.0163055
729.194	0.0164532
729.272	0.0164975
729.350	0.0165800
729.428	0.0165617
729.506	0.0165959
729.584	0.0166803
729.663	0.0166420
729.741	0.0166189
729.819	0.0164787
729.897	0.0165573
729.975	0.0165616
730.053	0.0165716
730.131	0.0165829
730.209	0.0165159
730.288	0.0165891
730.366	0.0167709
730.444	0.0167685
730.522	0.0167875
730.600	0.0170528
730.678	0.0168761
730.756	0.0168130
730.834	0.0169160
730.913	0.0169236
730.991	0.0168176
731.069	0.0166974
731.147	0.0166720
731.225	0.0164428
731.303	0.0162139
731.381	0.0161230
731.459	0.0160298
731.538	0.0158860
731.616	0.0155994
731.694	0.0154322
731.772	0.0153677
731.850	0.0152122
731.928	0.0150383
732.006	0.0149059
732.084	0.0149499
732.163	0.0147973
732.241	0.0148163
732.319	0.0147868
732.397	0.0148011
732.475	0.0146888
732.553	0.0146221
732.631	0.0146721
732.709	0.0147482
732.788	0.0147208
732.866	0.0146193
732.944	0.0146580
733.022	0.0145471
733.100	0.0148992
733.178	0.0147900
733.256	0.0149384
733.334	0.0148465
733.413	0.0151207
733.491	0.0152569
733.569	0.0153024
733.647	0.0152658
733.725	0.0153633
733.803	0.0153221
733.881	0.0154440
733.959	0.0153557
734.038	0.0153997
734.116	0.0153825
734.194	0.0154662
734.272	0.0154169
734.350	0.0153513
734.428	0.0154831
734.506	0.0154744
734.584	0.0152859
734.663	0.0152863
734.741	0.0153284
734.819	0.0154066
734.897	0.0152248
734.975	0.0151181
735.053	0.0150924
735.131	0.0150077
735.209	0.0151865
735.288	0.0151001
735.366	0.0150889
735.444	0.0151067
735.522	0.0151312
735.600	0.0151615
735.678	0.0151614
735.756	0.0154441
735.834	0.0153532
735.913	0.0154392
735.991	0.0156354
736.069	0.0159324
736.147	0.0159167
736.225	0.0160060
736.303	0.0159981
736.381	0.0160237
736.459	0.0159769
736.538	0.0160425
736.616	0.0160353
736.694	0.0159527
736.772	0.0157900
736.850	0.0158282
736.928	0.0156313
737.006	0.0158255
737.084	0.0156897
737.163	0.0157609
737.241	0.0156762
737.319	0.0158026
737.397	0.0157646
737.475	0.0157059
737.553	0.0156577
737.631	0.0157989
737.709	0.0159016
737.788	0.0159064
737.866	0.0158517
737.944	0.0158290
738.022	0.0157809
738.100	0.0159011
738.178	0.0158302
738.256	0.0156200
738.334	0.0155547
738.413	0.0155871
738.491	0.0155075
738.569	0.0153855
738.647	0.0152873
738.725	0.0149467
738.803	0.0149159
738.881	0.0147161
738.959	0.0145053
739.038	0.0141615
739.116	0.0141603
739.194	0.0139979
739.272	0.0139334
739.350	0.0138226
739.428	0.0137281
739.506	0.0140904
739.584	0.0139749
739.663	0.0140712
739.741	0.0144118
739.819	0.0145059
739.897	0.0147496
739.975	0.0149599
740.053	0.0153483
740.131	0.0156277
740.209	0.0159293
740.288	0.0161806
740.366	0.0163045
740.444	0.0165473
740.522	0.0166496
740.600	0.0168609
740.678	0.0170204
740.756	0.0171143
740.834	0.0170094
740.913	0.0168549
740.991	0.0168282
741.069	0.0168773
741.147	0.0166978
741.225	0.0164878
741.303	0.0163091
741.381	0.0161762
741.459	0.0160775
741.538	0.0158993
741.616	0.0157095
741.694	0.0156151
741.772	0.0155610
741.850	0.0154461
741.928	0.0151859
742.006	0.0152239
742.084	0.0148707
742.163	0.0149689
742.241	0.0148898
742.319	0.0147279
742.397	0.0144579
742.475	0.0143119
742.553	0.0142333
742.631	0.0139859
742.709	0.0138272
742.788	0.0137745
742.866	0.0138830
742.944	0.0137075
743.022	0.0136324
743.100	0.0136928
743.178	0.0136281
743.256	0.0136412
743.334	0.0135375
743.413	0.0137093
743.491	0.0137348
743.569	0.0138711
743.647	0.0140276
743.725	0.0140252
743.803	0.0143108
743.881	0.0145527
743.959	0.0147205
744.038	0.0148714
744.116	0.0151447
744.194	0.0154234
744.272	0.0155979
744.350	0.0159253
744.428	0.0162683
744.506	0.0164002
744.584	0.0165996
744.663	0.0167646
744.741	0.0170847
744.819	0.0171469
744.897	0.0171578
744.975	0.0172458
745.053	0.0171754
745.131	0.0170461
745.209	0.0172321
745.288	0.0171658
745.366	0.0169991
745.444	0.0170290
745.522	0.0167934
745.600	0.0167235
745.678	0.0166998
745.756	0.0164094
745.834	0.0163350
745.913	0.0163552
745.991	0.0160334
746.069	0.0156702
746.147	0.0155518
746.225	0.0155144
746.303	0.0153826
746.381	0.0152895
746.459	0.0152681
746.538	0.0149835
746.616	0.0151727
746.694	0.0153082
746.772	0.0150945
746.850	0.0151006
746.928	0.0152383
747.006	0.0152090
747.084	0.0152876
747.163	0.0152657
747.241	0.0152474
747.319	0.0153352
747.397	0.0151391
747.475	0.0153881
747.553	0.0152421
747.631	0.0151241
747.709	0.0151254
747.788	0.0152148
747.866	0.0150092
747.944	0.0147851
748.022	0.0149174
748.100	0.0148447
748.178	0.0147517
748.256	0.0147001
748.334	0.0145001
748.413	0.0145860
748.491	0.0145309
748.569	0.0143619
748.647	0.0144670
748.725	0.0145788
748.803	0.0144439
748.881	0.0147429
748.959	0.0147636
749.038	0.0146814
749.116	0.0148811
749.194	0.0150468
749.272	0.0152550
749.350	0.0153833
749.428	0.0154574
749.506	0.0155045
749.584	0.0156470
749.663	0.0156976
749.741	0.0157021
749.819	0.0160381
749.897	0.0159798
749.975	0.0158257
750.053	0.0159602
750.131	0.0160022
750.209	0.0158248
750.288	0.0158861
750.366	0.0159132
750.444	0.0158114
750.522	0.0155845
750.600	0.0157260
750.678	0.0156139
750.756	0.0156138
750.834	0.0155923
750.913	0.0156141
750.991	0.0152457
751.069	0.0153042
751.147	0.0153360
751.225	0.0153992
751.303	0.0154432
751.381	0.0152974
751.459	0.0153017
751.538	0.0154154
751.616	0.0154415
751.694	0.0155766
751.772	0.0154661
751.850	0.0153593
751.928	0.0155789
752.006	0.0155928
752.084	0.0157505
752.163	0.0157401
752.241	0.0157043
752.319	0.0156847
752.397	0.0158797
752.475	0.0159682
752.553	0.0159618
752.631	0.0160197
752.709	0.0160169
752.788	0.0160497
752.866	0.0160395
752.944	0.0160515
753.022	0.0158823
753.100	0.0160867
753.178	0.0158718
753.256	0.0157936
753.334	0.0157619
753.413	0.0157402
753.491	0.0159579
753.569	0.0159225
753.647	0.0157955
753.725	0.0156493
753.803	0.0156747
753.881	0.0156016
753.959	0.0156343
754.038	0.0155802
754.116	0.0154717
754.194	0.0155737
754.272	0.0156316
754.350	0.0155450
754.428	0.0154866
754.506	0.0154942
754.584	0.0155061
754.663	0.0154178
754.741	0.0154201
754.819	0.0154843
754.897	0.0155425
754.975	0.0155542
755.053	0.0155562
755.131	0.0155673
755.209	0.0153790
755.288	0.0154364
755.366	0.0153548
755.444	0.0153403
755.522	0.0154763
755.600	0.0154489
755.678	0.0151496
755.756	0.0152525
755.834	0.0152846
755.913	0.0151894
755.991	0.0149310
756.069	0.0151333
756.147	0.0150026
756.225	0.0149318
756.303	0.0149253
756.381	0.0150800
756.459	0.0151353
756.538	0.0150060
756.616	0.0149277
756.694	0.0151530
756.772	0.0151620
756.850	0.0149915
756.928	0.0151576
757.006	0.0152142
757.084	0.0150301
757.163	0.0150878
757.241	0.0152792
757.319	0.0150271
757.397	0.0149907
757.475	0.0151836
757.553	0.0151742
757.631	0.0150654
757.709	0.0149540
757.788	0.0149622
757.866	0.0148475
757.944	0.0149088
758.022	0.0149023
758.100	0.0147615
758.178	0.0149232
758.256	0.0149137
758.334	0.0148977
758.413	0.0149600
758.491	0.0152094
758.569	0.0151151
758.647	0.0152205
758.725	0.0154240
758.803	0.0154645
758.881	0.0156052
758.959	0.0157170
759.038	0.0159457
759.116	0.0159403
759.194	0.0158562
759.272	0.0159534
759.350	0.0162009
759.428	0.0160901
759.506	0.0161597
759.584	0.0163209
759.663	0.0162697
759.741	0.0161354
759.819	0.0162733
759.897	0.0162707
759.975	0.0163335
760.053	0.0162562
760.131	0.0162259
760.209	0.0162511
760.288	0.0163356
760.366	0.0163347
760.444	0.0162791
760.522	0.0162846
760.600	0.0161606
760.678	0.0162455
760.756	0.0162124
760.834	0.0161743
760.913	0.0161286
760.991	0.0159160
761.069	0.0157600
761.147	0.0156755
761.225	0.0156508
761.303	0.0154099
761.381	0.0152038
761.459	0.0151040
761.538	0.0149642
761.616	0.0149098
761.694	0.0146706
761.772	0.0146691
761.850	0.0145263
761.928	0.0143863
762.006	0.0142762
762.084	0.0143452
762.163	0.0144779
762.241	0.0143799
762.319	0.0143404
762.397	0.0143798
762.475	0.0146300
762.553	0.0145948
762.631	0.0147633
762.709	0.0146545
762.788	0.0147313
762.866	0.0149738
762.944	0.0149875
763.022	0.0149650
763.100	0.0150505
763.178	0.0152519
763.256	0.0154494
763.334	0.0154035
763.413	0.0154133
763.491	0.0153155
763.569	0.0154904
763.647	0.0155711
763.725	0.0157067
763.803	0.0156506
763.881	0.0157805
763.959	0.0156681
764.038	0.0157478
764.116	0.0158177
764.194	0.0158825
764.272	0.0159973
764.350	0.0158961
764.428	0.0159349
764.506	0.0158195
764.584	0.0158604
764.663	0.0157303
764.741	0.0156781
764.819	0.0157909
764.897	0.0154859
764.975	0.0154701
765.053	0.0153899
765.131	0.0154081
765.209	0.0153297
765.288	0.0154457
765.366	0.0154015
765.444	0.0153752
765.522	0.0152857
765.600	0.0153268
765.678	0.0152859
765.756	0.0153896
765.834	0.0153125
765.913	0.0153758
765.991	0.0155254
766.069	0.0154247
766.147	0.0153656
766.225	0.0154211
766.303	0.0155018
766.381	0.0154803
766.459	0.0154459
766.538	0.0153874
766.616	0.0155025
766.694	0.0155550
766.772	0.0154751
766.850	0.0154235
766.928	0.0155162
767.006	0.0154875
767.084	0.0153561
767.163	0.0152338
767.241	0.0152792
767.319	0.0154117
767.397	0.0154173
767.475	0.0154186
767.553	0.0154643
767.631	0.0154588
767.709	0.0154314
767.788	0.0155513
767.866	0.0154620
767.944	0.0156060
768.022	0.0157660
768.100	0.0156813
768.178	0.0156403
768.256	0.0156519
768.334	0.0156508
768.413	0.0157360
768.491	0.0156900
768.569	0.0156621
768.647	0.0155609
768.725	0.0157015
768.803	0.0155412
768.881	0.0154736
768.959	0.0155862
769.038	0.0155238
769.116	0.0155714
769.194	0.0157230
769.272	0.0155695
769.350	0.0155231
769.428	0.0155433
769.506	0.0155499
769.584	0.0156355
769.663	0.0156134
769.741	0.0155840
769.819	0.0155293
769.897	0.0155035
769.975	0.0153758
770.053	0.0154654
770.131	0.0153328
770.209	0.0153262
770.288	0.0152929
770.366	0.0152022
770.444	0.0152175
770.522	0.0153812
770.600	0.0152565
770.678	0.0152567
770.756	0.0153200
770.834	0.0151488
770.913	0.0153339
770.991	0.0152021
771.069	0.0152303
771.147	0.0152207
771.225	0.0154089
771.303	0.0154393
771.381	0.0154257
771.459	0.0155057
771.538	0.0154853
771.616	0.0154803
771.694	0.0154997
771.772	0.0154659
771.850	0.0155884
771.928	0.0156793
772.006	0.0156684
772.084	0.0156178
772.163	0.0156210
772.241	0.0157226
772.319	0.0157427
772.397	0.0157813
772.475	0.0158074
772.553	0.0156862
772.631	0.0157353
772.709	0.0157035
772.788	0.0159290
772.866	0.0157371
772.944	0.0156560
773.022	0.0158058
773.100	0.0158959
773.178	0.0157730
773.256	0.0158242
773.334	0.0157886
773.413	0.0157907
773.491	0.0158926
773.569	0.0158867
773.647	0.0157605
773.725	0.0157996
773.803	0.0158820
773.881	0.0156334
773.959	0.0156291
774.038	0.0155152
774.116	0.0155962
774.194	0.0156683
774.272	0.0156635
774.350	0.0154425
774.428	0.0154644
774.506	0.0155780
774.584	0.0155152
774.663	0.0154695
774.741	0.0154160
774.819	0.0155468
774.897	0.0154771
774.975	0.0153908
775.053	0.0154375
775.131	0.0153687
775.209	0.0153480
775.288	0.0154585
775.366	0.0154215
775.444	0.0153462
775.522	0.0152774
775.600	0.0152769
775.678	0.0153179
775.756	0.0154193
775.834	0.0154133
775.913	0.0152735
775.991	0.0153955
776.069	0.0154550
776.147	0.0154118
776.225	0.0155872
776.303	0.0155455
776.381	0.0154943
776.459	0.0155069
776.538	0.0155386
776.616	0.0155161
776.694	0.0157026
776.772	0.0155567
776.850	0.0157172
776.928	0.0155608
777.006	0.0156345
777.084	0.0155045
777.163	0.0155432
777.241	0.0156140
777.319	0.0154961
777.397	0.0155997
777.475	0.0155182
777.553	0.0156072
777.631	0.0155690
777.709	0.0154305
777.788	0.0154790
777.866	0.0154714
777.944	0.0155086
778.022	0.0154999
778.100	0.0154198
778.178	0.0154028
778.256	0.0153029
778.334	0.0151731
778.413	0.0151846
778.491	0.0151608
778.569	0.0149593
778.647	0.0150169
778.725	0.0151707
778.803	0.0150169
778.881	0.0148891
778.959	0.0149127
779.038	0.0151394
779.116	0.0151200
779.194	0.0151019
779.272	0.0151734
779.350	0.0151752
779.428	0.0152866
779.506	0.0153453
779.584	0.0153400
779.663	0.0154644
779.741	0.0155146
779.819	0.0155190
779.897	0.0153658
779.975	0.0153461
780.053	0.0152030
780.131	0.0153358
780.209	0.0151695
780.288	0.0151645
780.366	0.0150400
780.444	0.0151110
780.522	0.0150645
780.600	0.0150436
780.678	0.0151066
780.756	0.0151260
780.834	0.0150074
780.913	0.0150515
780.991	0.0151448
781.069	0.0152621
781.147	0.0153568
781.225	0.0154152
781.303	0.0155041
781.381	0.0157401
781.459	0.0157632
781.538	0.0157037
781.616	0.0159399
781.694	0.0159696
781.772	0.0159332
781.850	0.0159533
781.928	0.0159701
782.006	0.0160063
782.084	0.0160155
782.163	0.0161742
782.241	0.0159340
782.319	0.0159724
782.397	0.0158991
782.475	0.0158776
782.553	0.0155797
782.631	0.0156769
782.709	0.0156357
782.788	0.0154647
782.866	0.0154690
782.944	0.0153244
783.022	0.0153740
783.100	0.0152898
783.178	0.0152237
783.256	0.0151333
783.334	0.0150668
783.413	0.0152058
783.491	0.0151675
783.569	0.0152074
783.647	0.0151768
783.725	0.0152650
783.803	0.0152728
783.881	0.0153162
783.959	0.0154061
784.038	0.0154458
784.116	0.0154642
784.194	0.0155247
784.272	0.0156635
784.350	0.0156667
784.428	0.0156400
784.506	0.0154434
784.584	0.0155611
784.663	0.0156608
784.741	0.0154258
784.819	0.0153383
784.897	0.0152177
784.975	0.0153917
785.053	0.0151730
785.131	0.0151117
785.209	0.0150529
785.288	0.0150603
785.366	0.0150918
785.444	0.0152343
785.522	0.0149986
785.600	0.0151852
785.678	0.0152377
785.756	0.0151675
785.834	0.0152491
785.913	0.0153322
785.991	0.0154758
786.069	0.0155228
786.147	0.0154506
786.225	0.0156599
786.303	0.0157507
786.381	0.0157056
786.459	0.0159013
786.538	0.0159442
786.616	0.0157688
786.694	0.0158950
786.772	0.0159985
786.850	0.0161378
786.928	0.0160038
787.006	0.0159492
787.084	0.0160564
787.163	0.0159914
787.241	0.0158536
787.319	0.0157294
787.397	0.0156460
787.475	0.0155226
787.553	0.0153717
787.631	0.0153934
787.709	0.0152460
787.788	0.0151562
787.866	0.0150711
787.944	0.0150499
788.022	0.0149990
788.100	0.0150107
788.178	0.0149709
788.256	0.0149091
788.334	0.0149326
788.413	0.0149866
788.491	0.0150795
788.569	0.0151048
788.647	0.0150618
788.725	0.0153445
788.803	0.0153522
788.881	0.0152522
788.959	0.0154710
789.038	0.0156425
789.116	0.0155641
789.194	0.0157156
789.272	0.0157045
789.350	0.0158041
789.428	0.0157899
789.506	0.0158484
789.584	0.0158481
789.663	0.0158933
789.741	0.0157629
789.819	0.0157036
789.897	0.0158073
789.975	0.0155965
790.053	0.0155750
790.131	0.0154642
790.209	0.0154712
790.288	0.0153851
790.366	0.0154572
790.444	0.0155200
790.522	0.0152743
790.600	0.0152557
790.678	0.0153575
790.756	0.0153161
790.834	0.0151669
790.913	0.0153339
790.991	0.0151985
791.069	0.0152618
791.147	0.0151828
791.225	0.0153893
791.303	0.0153423
791.381	0.0152604
791.459	0.0153619
791.538	0.0154788
791.616	0.0153751
791.694	0.0153210
791.772	0.0153622
791.850	0.0154561
791.928	0.0155391
792.006	0.0155017
792.084	0.0156085
792.163	0.0156406
792.241	0.0156769
792.319	0.0155285
792.397	0.0157321
792.475	0.0156245
792.553	0.0157247
792.631	0.0156576
792.709	0.0157234
792.788	0.0155950
792.866	0.0155405
792.944	0.0154553
793.022	0.0155173
793.100	0.0155445
793.178	0.0154645
793.256	0.0153895
793.334	0.0152594
793.413	0.0152701
793.491	0.0152146
793.569	0.0151221
793.647	0.0150871
793.725	0.0151125
793.803	0.0151558
793.881	0.0152777
793.959	0.0153111
794.038	0.0151034
794.116	0.0152278
794.194	0.0152231
794.272	0.0154027
794.350	0.0154752
794.428	0.0154243
794.506	0.0155550
794.584	0.0155315
794.663	0.0155547
794.741	0.0155727
794.819	0.0156413
794.897	0.0156604
794.975	0.0156669
795.053	0.0156523
795.131	0.0155759
795.209	0.0155758
795.288	0.0155066
795.366	0.0155899
795.444	0.0156654
795.522	0.0154115
795.600	0.0154575
795.678	0.0155599
795.756	0.0155440
795.834	0.0154902
795.913	0.0155923
795.991	0.0156835
796.069	0.0156297
796.147	0.0155727
796.225	0.0157111
796.303	0.0156774
796.381	0.0156609
796.459	0.0156937
796.538	0.0157287
796.616	0.0157795
796.694	0.0157589
796.772	0.0156611
796.850	0.0157616
796.928	0.0157549
797.006	0.0157290
797.084	0.0157085
797.163	0.0157688
797.241	0.0157796
797.319	0.0157265
797.397	0.0158015
797.475	0.0159958
797.553	0.0158376
797.631	0.0160145
797.709	0.0159497
797.788	0.0157954
797.866	0.0156977
797.944	0.0156454
798.022	0.0157499
798.100	0.0157006
798.178	0.0156164
798.256	0.0156212
798.334	0.0153257
798.413	0.0153542
798.491	0.0152879
798.569	0.0150875
798.647	0.0151819
798.725	0.0149158
798.803	0.0147097
798.881	0.0147794
798.959	0.0148012
799.038	0.0147847
799.116	0.0145696
799.194	0.0146847
799.272	0.0145675
799.350	0.0146307
799.428	0.0147329
799.506	0.0147641
799.584	0.0148352
799.663	0.0151120
799.741	0.0151338
799.819	0.0151986
799.897	0.0152623
799.975	0.0154950
800.053	0.0156589
800.131	0.0156743
800.209	0.0157150
800.288	0.0159835
800.366	0.0160920
800.444	0.0160828
800.522	0.0161136
800.600	0.0162218
800.678	0.0161317
800.756	0.0162316
800.834	0.0162234
800.913	0.0161279
800.991	0.0161897
801.069	0.0160921
801.147	0.0160691
801.225	0.0161702
801.303	0.0159731
801.381	0.0160378
801.459	0.0160291
801.538	0.0158255
801.616	0.0157255
801.694	0.0157824
801.772	0.0156458
801.850	0.0155162
801.928	0.0156593
802.006	0.0153587
802.084	0.0152703
802.163	0.0151499
802.241	0.0151437
802.319	0.0152752
802.397	0.0149940
802.475	0.0148175
802.553	0.0147460
802.631	0.0148700
802.709	0.0146059
802.788	0.0147175
802.866	0.0146532
802.944	0.0146851
803.022	0.0146867
803.100	0.0149025
803.178	0.0147906
803.256	0.0149546
803.334	0.0149828
803.413	0.0147878
803.491	0.0149017
803.569	0.0150427
803.647	0.0150796
803.725	0.0150369
803.803	0.0151064
803.881	0.0152733
803.959	0.0151964
804.038	0.0151381
804.116	0.0152200
804.194	0.0152751
804.272	0.0151581
804.350	0.0153468
804.428	0.0154099
804.506	0.0153830
804.584	0.0155917
804.663	0.0154884
804.741	0.0155902
804.819	0.0155217
804.897	0.0155457
804.975	0.0157053
805.053	0.0155494
805.131	0.0156304
805.209	0.0156683
805.288	0.0156280
805.366	0.0154821
805.444	0.0155653
805.522	0.0154220
805.600	0.0153455
805.678	0.0154965
805.756	0.0155206
805.834	0.0154029
805.913	0.0154353
805.991	0.0154731
806.069	0.0154771
806.147	0.0155701
806.225	0.0155193
806.303	0.0155072
806.381	0.0156001
806.459	0.0155386
806.538	0.0155823
806.616	0.0155859
806.694	0.0156541
806.772	0.0155714
806.850	0.0155182
806.928	0.0155567
807.006	0.0156390
807.084	0.0155002
807.163	0.0153887
807.241	0.0153368
807.319	0.0153207
807.397	0.0151855
807.475	0.0151805
807.553	0.0151556
807.631	0.0151976
807.709	0.0150269
807.788	0.0152597
807.866	0.0151287
807.944	0.0151346
808.022	0.0151918
808.100	0.0153667
808.178	0.0155348
808.256	0.0155196
808.334	0.0154549
808.413	0.0155165
808.491	0.0156438
808.569	0.0158231
808.647	0.0158720
808.725	0.0158375
808.803	0.0159046
808.881	0.0157924
808.959	0.0159374
809.038	0.0156649
809.116	0.0157276
809.194	0.0158387
809.272	0.0157281
809.350	0.0155360
809.428	0.0156371
809.506	0.0154498
809.584	0.0155135
809.663	0.0153815
809.741	0.0152181
809.819	0.0152309
809.897	0.0152071
809.975	0.0150557
810.053	0.0152531
810.131	0.0150529
810.209	0.0149398
810.288	0.0150269
810.366	0.0149905
810.444	0.0150431
810.522	0.0150481
810.600	0.0150654
810.678	0.0150326
810.756	0.0151154
810.834	0.0151608
810.913	0.0151978
810.991	0.0152235
811.069	0.0154420
811.147	0.0154068
811.225	0.0155254
811.303	0.0154607
811.381	0.0155083
811.459	0.0154229
811.538	0.0154046
811.616	0.0155340
811.694	0.0156426
811.772	0.0155850
811.850	0.0154620
811.928	0.0153014
812.006	0.0152715
812.084	0.0154805
812.163	0.0154214
812.241	0.0154181
812.319	0.0152881
812.397	0.0152700
812.475	0.0154298
812.553	0.0152598
812.631	0.0152629
812.709	0.0152118
812.788	0.0152201
812.866	0.0153967
812.944	0.0153228
813.022	0.0154662
813.100	0.0155379
813.178	0.0154192
813.256	0.0155379
813.334	0.0155203
813.413	0.0155399
813.491	0.0156134
813.569	0.0157379
813.647	0.0156644
813.725	0.0157040
813.803	0.0157148
813.881	0.0156732
813.959	0.0157079
814.038	0.0158169
814.116	0.0157217
814.194	0.0156770
814.272	0.0156152
814.350	0.0155032
814.428	0.0155022
814.506	0.0154636
814.584	0.0153744
814.663	0.0153895
814.741	0.0153386
814.819	0.0152915
814.897	0.0152576
814.975	0.0152298
815.053	0.0152500
815.131	0.0150703
815.209	0.0152272
815.288	0.0152827
815.366	0.0153014
815.444	0.0153208
815.522	0.0153233
815.600	0.0152968
815.678	0.0152370
815.756	0.0151761
815.834	0.0153683
815.913	0.0153590
815.991	0.0152853
816.069	0.0152924
816.147	0.0152803
816.225	0.0152369
816.303	0.0152966
816.381	0.0151555
816.459	0.0152296
816.538	0.0153027
816.616	0.0153318
816.694	0.0152755
816.772	0.0151975
816.850	0.0153867
816.928	0.0153599
817.006	0.0153329
817.084	0.0153404
817.163	0.0154744
817.241	0.0153405
817.319	0.0153429
817.397	0.0153918
817.475	0.0155775
817.553	0.0155902
817.631	0.0156239
817.709	0.0155643
817.788	0.0154711
817.866	0.0153675
817.944	0.0154659
818.022	0.0156979
818.100	0.0156036
818.178	0.0155684
818.256	0.0156599
818.334	0.0157207
818.413	0.0158840
818.491	0.0156842
818.569	0.0157163
818.647	0.0158411
818.725	0.0158253
818.803	0.0158558
818.881	0.0157997
818.959	0.0159122
819.038	0.0158884
819.116	0.0158875
819.194	0.0157357
819.272	0.0157085
819.350	0.0156206
819.428	0.0156812
819.506	0.0156392
819.584	0.0156967
819.663	0.0154708
819.741	0.0155249
819.819	0.0155728
819.897	0.0155250
819.975	0.0155325
820.053	0.0154825
820.131	0.0153669
820.209	0.0153256
820.288	0.0152449
820.366	0.0154049
820.444	0.0153238
820.522	0.0153192
820.600	0.0153719
820.678	0.0153087
820.756	0.0152449
820.834	0.0152397
820.913	0.0152478
820.991	0.0153441
821.069	0.0151733
821.147	0.0153175
821.225	0.0154847
821.303	0.0152267
821.381	0.0153414
821.459	0.0154471
821.538	0.0155070
821.616	0.0153577
821.694	0.0154254
821.772	0.0154985
821.850	0.0156093
821.928	0.0155360
822.006	0.0155243
822.084	0.0155787
822.163	0.0155676
822.241	0.0157025
822.319	0.0157225
822.397	0.0157257
822.475	0.0156646
822.553	0.0156206
822.631	0.0155447
822.709	0.0153982
822.788	0.0156171
822.866	0.0156262
822.944	0.0154093
823.022	0.0153519
823.100	0.0154246
823.178	0.0153654
823.256	0.0153151
823.334	0.0151720
823.413	0.0152350
823.491	0.0151831
823.569	0.0150018
823.647	0.0151414
823.725	0.0151083
823.803	0.0151080
823.881	0.0151304
823.959	0.0150732
824.038	0.0152139
824.116	0.0153133
824.194	0.0151615
824.272	0.0150241
824.350	0.0152671
824.428	0.0152264
824.506	0.0152549
824.584	0.0152171
824.663	0.0150966
824.741	0.0152269
824.819	0.0152911
824.897	0.0152747
824.975	0.0153759
825.053	0.0152969
825.131	0.0153779
825.209	0.0153724
825.288	0.0153696
825.366	0.0152306
825.444	0.0154076
825.522	0.0153479
825.600	0.0153788
825.678	0.0153304
825.756	0.0153384
825.834	0.0154925
825.913	0.0155169
825.991	0.0154270
826.069	0.0154311
826.147	0.0156446
826.225	0.0155403
826.303	0.0154852
826.381	0.0154763
826.459	0.0155294
826.538	0.0156082
826.616	0.0157233
826.694	0.0156625
826.772	0.0157175
826.850	0.0156395
826.928	0.0158018
827.006	0.0158466
827.084	0.0159155
827.163	0.0158786
827.241	0.0158725
827.319	0.0159182
827.397	0.0156352
827.475	0.0158492
827.553	0.0158543
827.631	0.0156184
827.709	0.0157863
827.788	0.0157079
827.866	0.0156538
827.944	0.0156389
828.022	0.0155402
828.100	0.0154383
828.178	0.0152553
828.256	0.0152673
828.334	0.0151849
828.413	0.0152554
828.491	0.0152921
828.569	0.0150618
828.647	0.0151743
828.725	0.0152234
828.803	0.0151924
828.881	0.0150535
828.959	0.0152499
829.038	0.0153157
829.116	0.0152609
829.194	0.0152457
829.272	0.0154123
829.350	0.0152872
829.428	0.0152560
829.506	0.0152529
829.584	0.0152711
829.663	0.0153194
829.741	0.0153348
829.819	0.0152677
829.897	0.0152696
829.975	0.0151845
830.053	0.0152307
830.131	0.0153387
830.209	0.0152456
830.288	0.0152798
830.366	0.0153383
830.444	0.0154173
830.522	0.0155920
830.600	0.0155142
830.678	0.0155861
830.756	0.0156104
830.834	0.0155671
830.913	0.0156574
830.991	0.0158559
831.069	0.0158681
831.147	0.0158553
831.225	0.0158483
831.303	0.0158577
831.381	0.0158138
831.459	0.0156993
831.538	0.0159202
831.616	0.0159650
831.694	0.0158851
831.772	0.0158226
831.850	0.0157381
831.928	0.0157213
832.006	0.0158380
832.084	0.0157599
832.163	0.0156871
832.241	0.0157315
832.319	0.0155889
832.397	0.0156870
832.475	0.0156523
832.553	0.0157689
832.631	0.0156515
832.709	0.0155914
832.788	0.0155717
832.866	0.0157014
832.944	0.0157138
833.022	0.0155783
833.100	0.0155608
833.178	0.0156484
833.256	0.0155782
833.334	0.0156573
833.413	0.0157089
833.491	0.0156056
833.569	0.0157317
833.647	0.0157803
833.725	0.0155312
833.803	0.0155964
833.881	0.0154765
833.959	0.0155361
834.038	0.0154198
834.116	0.0153725
834.194	0.0154905
834.272	0.0154311
834.350	0.0152978
834.428	0.0152045
834.506	0.0152606
834.584	0.0151591
834.663	0.0150960
834.741	0.0151900
834.819	0.0151007
834.897	0.0150347
834.975	0.0151116
835.053	0.0151762
835.131	0.0151402
835.209	0.0150540
835.288	0.0150364
835.366	0.0150760
835.444	0.0152423
835.522	0.0150953
835.600	0.0151431
835.678	0.0150394
835.756	0.0150385
835.834	0.0150162
835.913	0.0151139
835.991	0.0151451
836.069	0.0151683
836.147	0.0152718
836.225	0.0152079
836.303	0.0153177
836.381	0.0152219
836.459	0.0153996
836.538	0.0153977
836.616	0.0154997
836.694	0.0153943
836.772	0.0153513
836.850	0.0154549
836.928	0.0156575
837.006	0.0156444
837.084	0.0154304
837.163	0.0155188
837.241	0.0155542
837.319	0.0155470
837.397	0.0156065
837.475	0.0156560
837.553	0.0155568
837.631	0.0155667
837.709	0.0156328
837.788	0.0156445
837.866	0.0156438
837.944	0.0155685
838.022	0.0156973
838.100	0.0156728
838.178	0.0155488
838.256	0.0156416
838.334	0.0156882
838.413	0.0156508
838.491	0.0154677
838.569	0.0154884
838.647	0.0155097
838.725	0.0154075
838.803	0.0153728
838.881	0.0153511
838.959	0.0153471
839.038	0.0152496
839.116	0.0150689
839.194	0.0151641
839.272	0.0152284
839.350	0.0150483
839.428	0.0153382
839.506	0.0152726
839.584	0.0151400
839.663	0.0152586
839.741	0.0151993
839.819	0.0152771
839.897	0.0151458
839.975	0.0152215
840.053	0.0152358
840.131	0.0152864
840.209	0.0153544
840.288	0.0154350
840.366	0.0152999
840.444	0.0153027
840.522	0.0153241
840.600	0.0154107
840.678	0.0154768
840.756	0.0154517
840.834	0.0156049
840.913	0.0155445
840.991	0.0154892
841.069	0.0157152
841.147	0.0156631
841.225	0.0156843
841.303	0.0156617
841.381	0.0157678
841.459	0.0158086
841.538	0.0157601
841.616	0.0156676
841.694	0.0157161
841.772	0.0154910
841.850	0.0156199
841.928	0.0156617
842.006	0.0157145
842.084	0.0156009
842.163	0.0155169
842.241	0.0155932
842.319	0.0156239
842.397	0.0156985
842.475	0.0157834
842.553	0.0157201
842.631	0.0156388
842.709	0.0156116
842.788	0.0156379
842.866	0.0157433
842.944	0.0156677
843.022	0.0156224
843.100	0.0155071
843.178	0.0156564
843.256	0.0155804
843.334	0.0156392
843.413	0.0154700
843.491	0.0154975
843.569	0.0154870
843.647	0.0153326
843.725	0.0155262
843.803	0.0152654
843.881	0.0153552
843.959	0.0152095
844.038	0.0151906
844.116	0.0150848
844.194	0.0150684
844.272	0.0150046
844.350	0.0149790
844.428	0.0149677
844.506	0.0150094
844.584	0.0150150
844.663	0.0148554
844.741	0.0150368
844.819	0.0149012
844.897	0.0148877
844.975	0.0149928
845.053	0.0148795
845.131	0.0150629
845.209	0.0151046
845.288	0.0152873
845.366	0.0152764
845.444	0.0153114
845.522	0.0153197
845.600	0.0154466
845.678	0.0155032
845.756	0.0154646
845.834	0.0155520
845.913	0.0153875
845.991	0.0155148
846.069	0.0156317
846.147	0.0155981
846.225	0.0156147
846.303	0.0156113
846.381	0.0154248
846.459	0.0155789
846.538	0.0155640
846.616	0.0156928
846.694	0.0156361
846.772	0.0156751
846.850	0.0155563
846.928	0.0157104
847.006	0.0155446
847.084	0.0156742
847.163	0.0156761
847.241	0.0156309
847.319	0.0156625
847.397	0.0157439
847.475	0.0155871
847.553	0.0157307
847.631	0.0156385
847.709	0.0155870
847.788	0.0154662
847.866	0.0154257
847.944	0.0155155
848.022	0.0153290
848.100	0.0154266
848.178	0.0154123
848.256	0.0154616
848.334	0.0152393
848.413	0.0151643
848.491	0.0152750
848.569	0.0154148
848.647	0.0155255
848.725	0.0154745
848.803	0.0155516
848.881	0.0155473
848.959	0.0153918
849.038	0.0154274
849.116	0.0155463
849.194	0.0153442
849.272	0.0154230
849.350	0.0154720
849.428	0.0152854
849.506	0.0153390
849.584	0.0154084
849.663	0.0154302
849.741	0.0153608
849.819	0.0151274
849.897	0.0153897
849.975	0.0154469
850.053	0.0154285
850.131	0.0153763
850.209	0.0154335
850.288	0.0154720
850.366	0.0156051
850.444	0.0155055
850.522	0.0155074
850.600	0.0155510
850.678	0.0153938
850.756	0.0154750
850.834	0.0156107
850.913	0.0155389
850.991	0.0155527
851.069	0.0154571
851.147	0.0154355
851.225	0.0155913
851.303	0.0154970
851.381	0.0153472
851.459	0.0154997
851.538	0.0153941
851.616	0.0154340
851.694	0.0154772
851.772	0.0155538
851.850	0.0154855
851.928	0.0154263
852.006	0.0153877
852.084	0.0154133
852.163	0.0153797
852.241	0.0153876
852.319	0.0153493
852.397	0.0154052
852.475	0.0152857
852.553	0.0153352
852.631	0.0153116
852.709	0.0152478
852.788	0.0153565
852.866	0.0153316
852.944	0.0154047
853.022	0.0153836
853.100	0.0153774
853.178	0.0154650
853.256	0.0155186
853.334	0.0153610
853.413	0.0152197
853.491	0.0152116
853.569	0.0153815
853.647	0.0155805
853.725	0.0154287
853.803	0.0152496
853.881	0.0152235
853.959	0.0153458
854.038	0.0154136
854.116	0.0154364
854.194	0.0154677
854.272	0.0154559
854.350	0.0156616
854.428	0.0155512
854.506	0.0153583
854.584	0.0155362
854.663	0.0154857
854.741	0.0155521
854.819	0.0155795
854.897	0.0156693
854.975	0.0155241
855.053	0.0157420
855.131	0.0156219
855.209	0.0155783
855.288	0.0155424
855.366	0.0155325
855.444	0.0154768
855.522	0.0155239
855.600	0.0154441
855.678	0.0156585
855.756	0.0154422
855.834	0.0154205
855.913	0.0154347
855.991	0.0154453
856.069	0.0153970
856.147	0.0154333
856.225	0.0156057
856.303	0.0154232
856.381	0.0153708
856.459	0.0154498
856.538	0.0154778
856.616	0.0155284
856.694	0.0153870
856.772	0.0153780
856.850	0.0154450
856.928	0.0155118
857.006	0.0155165
857.084	0.0154285
857.163	0.0154564
857.241	0.0153898
857.319	0.0152637
857.397	0.0153929
857.475	0.0153401
857.553	0.0153535
857.631	0.0152998
857.709	0.0153519
857.788	0.0153193
857.866	0.0152083
857.944	0.0152694
858.022	0.0153438
858.100	0.0152077
858.178	0.0152084
858.256	0.0153277
858.334	0.0152959
858.413	0.0152757
858.491	0.0153316
858.569	0.0153722
858.647	0.0152969
858.725	0.0154451
858.803	0.0154440
858.881	0.0154376
858.959	0.0154403
859.038	0.0154057
859.116	0.0154623
859.194	0.0155377
859.272	0.0156256
859.350	0.0157389
859.428	0.0154005
859.506	0.0155143
859.584	0.0156272
859.663	0.0156860
859.741	0.0155914
859.819	0.0156894
859.897	0.0157841
859.975	0.0156677
860.053	0.0156438
860.131	0.0158088
860.209	0.0157038
860.288	0.0156733
860.366	0.0157384
860.444	0.0156560
860.522	0.0156824
860.600	0.0157037
860.678	0.0156930
860.756	0.0154667
860.834	0.0157716
860.913	0.0156769
860.991	0.0156266
861.069	0.0157413
861.147	0.0155689
861.225	0.0157446
861.303	0.0156332
861.381	0.0155285
861.459	0.0155501
861.538	0.0156935
861.616	0.0156393
861.694	0.0156893
861.772	0.0155949
861.850	0.0156563
861.928	0.0155056
862.006	0.0156435
862.084	0.0155004
862.163	0.0155213
862.241	0.0157059
862.319	0.0157238
862.397	0.0155829
862.475	0.0155313
862.553	0.0155824
862.631	0.0155620
862.709	0.0155316
862.788	0.0155865
862.866	0.0156617
862.944	0.0155184
863.022	0.0155511
863.100	0.0156049
863.178	0.0156053
863.256	0.0155562
863.334	0.0156821
863.413	0.0156729
863.491	0.0155859
863.569	0.0156503
863.647	0.0156393
863.725	0.0156306
863.803	0.0156478
863.881	0.0155931
863.959	0.0155422
864.038	0.0155038
864.116	0.0156907
864.194	0.0156265
864.272	0.0155013
864.350	0.0154747
864.428	0.0154948
864.506	0.0155049
864.584	0.0154813
864.663	0.0155169
864.741	0.0153335
864.819	0.0153020
864.897	0.0153838
864.975	0.0154748
865.053	0.0154360
865.131	0.0153232
865.209	0.0154605
865.288	0.0154512
865.366	0.0154453
865.444	0.0152772
865.522	0.0153428
865.600	0.0153575
865.678	0.0152230
865.756	0.0152211
865.834	0.0151395
865.913	0.0153674
865.991	0.0152773
866.069	0.0152780
866.147	0.0153652
866.225	0.0152163
866.303	0.0151970
866.381	0.0151537
866.459	0.0150866
866.538	0.0152048
866.616	0.0152592
866.694	0.0152679
866.772	0.0151669
866.850	0.0151664
866.928	0.0152444
867.006	0.0152755
867.084	0.0154111
867.163	0.0152760
867.241	0.0152441
867.319	0.0153566
867.397	0.0152791
867.475	0.0154243
867.553	0.0153741
867.631	0.0153131
867.709	0.0155429
867.788	0.0155284
867.866	0.0153765
867.944	0.0152631
868.022	0.0153384
868.100	0.0154203
868.178	0.0154656
868.256	0.0154743
868.334	0.0155573
868.413	0.0155971
868.491	0.0153384
868.569	0.0153409
868.647	0.0154076
868.725	0.0153621
868.803	0.0154499
868.881	0.0153333
868.959	0.0152884
869.038	0.0153325
869.116	0.0154083
869.194	0.0154048
869.272	0.0153843
869.350	0.0153061
869.428	0.0154099
869.506	0.0153981
869.584	0.0151315
869.663	0.0151705
869.741	0.0154127
869.819	0.0153008
869.897	0.0153733
869.975	0.0153953
870.053	0.0153988
870.131	0.0154174
870.209	0.0153912
870.288	0.0154430
870.366	0.0154563
870.444	0.0155157
870.522	0.0154529
870.600	0.0154126
870.678	0.0155513
870.756	0.0155402
870.834	0.0154059
870.913	0.0153762
870.991	0.0155533
871.069	0.0156043
871.147	0.0154844
871.225	0.0155453
871.303	0.0154378
871.381	0.0154556
871.459	0.0154572
871.538	0.0154493
871.616	0.0155855
871.694	0.0154103
871.772	0.0153266
871.850	0.0154745
871.928	0.0154529
872.006	0.0154441
872.084	0.0154436
872.163	0.0155882
872.241	0.0153125
872.319	0.0154925
872.397	0.0154314
872.475	0.0154416
872.553	0.0154406
872.631	0.0155443
872.709	0.0155366
872.788	0.0154218
872.866	0.0155328
872.944	0.0155524
873.022	0.0154617
873.100	0.0154501
873.178	0.0155524
873.256	0.0156114
873.334	0.0154964
873.413	0.0153711
873.491	0.0154996
873.569	0.0155783
873.647	0.0155053
873.725	0.0155962
873.803	0.0156234
873.881	0.0153567
873.959	0.0155068
874.038	0.0154674
874.116	0.0154875
874.194	0.0154424
874.272	0.0153046
874.350	0.0153400
874.428	0.0154488
874.506	0.0154106
874.584	0.0153448
874.663	0.0152484
874.741	0.0152983
874.819	0.0153139
874.897	0.0153139
874.975	0.0153335
875.053	0.0152590
875.131	0.0153141
875.209	0.0153696
875.288	0.0153190
875.366	0.0153515
875.444	0.0153096
875.522	0.0153904
875.600	0.0155014
875.678	0.0154868
875.756	0.0153296
875.834	0.0155388
875.913	0.0154230
875.991	0.0155621
876.069	0.0156145
876.147	0.0156335
876.225	0.0154844
876.303	0.0155412
876.381	0.0155988
876.459	0.0155449
876.538	0.0155991
876.616	0.0155262
876.694	0.0155504
876.772	0.0154967
876.850	0.0156163
876.928	0.0156784
877.006	0.0156306
877.084	0.0156276
877.163	0.0155863
877.241	0.0153021
877.319	0.0154845
877.397	0.0155199
877.475	0.0154234
877.553	0.0153582
877.631	0.0153768
877.709	0.0154095
877.788	0.0152685
877.866	0.0152699
877.944	0.0154579
878.022	0.0153714
878.100	0.0153431
878.178	0.0153014
878.256	0.0153854
878.334	0.0154693
878.413	0.0153120
878.491	0.0153216
878.569	0.0152870
878.647	0.0153634
878.725	0.0153546
878.803	0.0153241
878.881	0.0154655
878.959	0.0153309
879.038	0.0153333
879.116	0.0154543
879.194	0.0154557
879.272	0.0154990
879.350	0.0154329
879.428	0.0154472
879.506	0.0155739
879.584	0.0157949
879.663	0.0156429
879.741	0.0155088
879.819	0.0156831
879.897	0.0156876
879.975	0.0155196
880.053	0.0155985
880.131	0.0156653
880.209	0.0156065
880.288	0.0154013
880.366	0.0153759
880.444	0.0154939
880.522	0.0153530
880.600	0.0153955
880.678	0.0154013
880.756	0.0152629
880.834	0.0152620
880.913	0.0152818
880.991	0.0153156
881.069	0.0153238
881.147	0.0152330
881.225	0.0153566
881.303	0.0153248
881.381	0.0153448
881.459	0.0153118
881.538	0.0152950
881.616	0.0152925
881.694	0.0152071
881.772	0.0153196
881.850	0.0153214
881.928	0.0153149
882.006	0.0151619
882.084	0.0153927
882.163	0.0153905
882.241	0.0153223
882.319	0.0153146
882.397	0.0154591
882.475	0.0153969
882.553	0.0154767
882.631	0.0154559
882.709	0.0154444
882.788	0.0153178
882.866	0.0154780
882.944	0.0155094
883.022	0.0155433
883.100	0.0155499
883.178	0.0154755
883.256	0.0154110
883.334	0.0154579
883.413	0.0155840
883.491	0.0156550
883.569	0.0155745
883.647	0.0154443
883.725	0.0155580
883.803	0.0157382
883.881	0.0157249
883.959	0.0156862
884.038	0.0157040
884.116	0.0156058
884.194	0.0156275
884.272	0.0155680
884.350	0.0155737
884.428	0.0156632
884.506	0.0155622
884.584	0.0156338
884.663	0.0156081
884.741	0.0155452
884.819	0.0154335
884.897	0.0155083
884.975	0.0155003
885.053	0.0153986
885.131	0.0154314
885.209	0.0153608
885.288	0.0153666
885.366	0.0152942
885.444	0.0152777
885.522	0.0153588
885.600	0.0152514
885.678	0.0153049
885.756	0.0153766
885.834	0.0153355
885.913	0.0152023
885.991	0.0152339
886.069	0.0152453
886.147	0.0153216
886.225	0.0153572
886.303	0.0154087
886.381	0.0153764
886.459	0.0154628
886.538	0.0154476
886.616	0.0155760
886.694	0.0155647
886.772	0.0156670
886.850	0.0155091
886.928	0.0157474
887.006	0.0156396
887.084	0.0157294
887.163	0.0157314
887.241	0.0159203
887.319	0.0158858
887.397	0.0157262
887.475	0.0159230
887.553	0.0158688
887.631	0.0158724
887.709	0.0157407
887.788	0.0160452
887.866	0.0157864
887.944	0.0156650
888.022	0.0158167
888.100	0.0157803
888.178	0.0156449
888.256	0.0156236
888.334	0.0155038
888.413	0.0155140
888.491	0.0156178
888.569	0.0155262
888.647	0.0154829
888.725	0.0156093
888.803	0.0154446
888.881	0.0155188
888.959	0.0155178
889.038	0.0154563
889.116	0.0155318
889.194	0.0154438
889.272	0.0154321
889.350	0.0153983
889.428	0.0154375
889.506	0.0155941
889.584	0.0154087
889.663	0.0153979
889.741	0.0154089
889.819	0.0154752
889.897	0.0154105
889.975	0.0153467
890.053	0.0152805
890.131	0.0152430
890.209	0.0153982
890.288	0.0153468
890.366	0.0153487
890.444	0.0152658
890.522	0.0151136
890.600	0.0152548
890.678	0.0151817
890.756	0.0152113
890.834	0.0151693
890.913	0.0152031
890.991	0.0151701
891.069	0.0151249
891.147	0.0152842
891.225	0.0152475
891.303	0.0152905
891.381	0.0152699
891.459	0.0152400
891.538	0.0151085
891.616	0.0152944
891.694	0.0153363
891.772	0.0154032
891.850	0.0153690
891.928	0.0154140
892.006	0.0153688
892.084	0.0154481
892.163	0.0154604
892.241	0.0153142
892.319	0.0153619
892.397	0.0154202
892.475	0.0155310
892.553	0.0153799
892.631	0.0155026
892.709	0.0154950
892.788	0.0154343
892.866	0.0153443
892.944	0.0154618
893.022	0.0154031
893.100	0.0153570
893.178	0.0153713
893.256	0.0153236
893.334	0.0154065
893.413	0.0152088
893.491	0.0153922
893.569	0.0152950
893.647	0.0152771
893.725	0.0151540
893.803	0.0152167
893.881	0.0152741
893.959	0.0152040
894.038	0.0154041
894.116	0.0154561
894.194	0.0152042
894.272	0.0151633
894.350	0.0150338
894.428	0.0149865
894.506	0.0152492
894.584	0.0150083
894.663	0.0151526
894.741	0.0151445
894.819	0.0151425
894.897	0.0150481
894.975	0.0151794
895.053	0.0153052
895.131	0.0153699
895.209	0.0153967
895.288	0.0153970
895.366	0.0153119
895.444	0.0154283
895.522	0.0155872
895.600	0.0154624
895.678	0.0154890
895.756	0.0155417
895.834	0.0156277
895.913	0.0155333
895.991	0.0156331
896.069	0.0155151
896.147	0.0155299
896.225	0.0153557
896.303	0.0154963
896.381	0.0154849
896.459	0.0154856
896.538	0.0153294
896.616	0.0154569
896.694	0.0154824
896.772	0.0154608
896.850	0.0154022
896.928	0.0153766
897.006	0.0153687
897.084	0.0155534
897.163	0.0154687
897.241	0.0153382
897.319	0.0153336
897.397	0.0153263
897.475	0.0153461
897.553	0.0154087
897.631	0.0154252
897.709	0.0153596
897.788	0.0154328
897.866	0.0153346
897.944	0.0154276
898.022	0.0155061
898.100	0.0154500
898.178	0.0153635
898.256	0.0154082
898.334	0.0155731
898.413	0.0155119
898.491	0.0154349
898.569	0.0155824
898.647	0.0156317
898.725	0.0154201
898.803	0.0154600
898.881	0.0154701
898.959	0.0154726
899.038	0.0153188
899.116	0.0154007
899.194	0.0152385
899.272	0.0153876
899.350	0.0153397
899.428	0.0154634
899.506	0.0153168
899.584	0.0153583
899.663	0.0153168
899.741	0.0154391
899.819	0.0153635
899.897	0.0154553
899.975	0.0155268
900.053	0.0154278
900.131	0.0153913
900.209	0.0154007
900.288	0.0153039
900.366	0.0154076
900.444	0.0154779
900.522	0.0153665
900.600	0.0154171
900.678	0.0155309
900.756	0.0155750
900.834	0.0153033
900.913	0.0154416
900.991	0.0153655
901.069	0.0153347
901.147	0.0154510
901.225	0.0153344
901.303	0.0153955
901.381	0.0153897
901.459	0.0152814
901.538	0.0152260
901.616	0.0153672
901.694	0.0153082
901.772	0.0152887
901.850	0.0152632
901.928	0.0154382
902.006	0.0153199
902.084	0.0153178
902.163	0.0153555
902.241	0.0152986
902.319	0.0154056
902.397	0.0153136
902.475	0.0154755
902.553	0.0153107
902.631	0.0153307
902.709	0.0154902
902.788	0.0155779
902.866	0.0155041
902.944	0.0155016
903.022	0.0154889
903.100	0.0155106
903.178	0.0155290
903.256	0.0155605
903.334	0.0153886
903.413	0.0154240
903.491	0.0155049
903.569	0.0154327
903.647	0.0154084
903.725	0.0154292
903.803	0.0155891
903.881	0.0154934
903.959	0.0153879
904.038	0.0153883
904.116	0.0155192
904.194	0.0154313
904.272	0.0155133
904.350	0.0154377
904.428	0.0153561
904.506	0.0153577
904.584	0.0153643
904.663	0.0154806
904.741	0.0154483
904.819	0.0152544
904.897	0.0153365
904.975	0.0153613
905.053	0.0154114
905.131	0.0153103
905.209	0.0152785
905.288	0.0152534
905.366	0.0151488
905.444	0.0152231
905.522	0.0150494
905.600	0.0151272
905.678	0.0152610
905.756	0.0152627
905.834	0.0154048
905.913	0.0153429
905.991	0.0154274
906.069	0.0153940
906.147	0.0155302
906.225	0.0153604
906.303	0.0153027
906.381	0.0154668
906.459	0.0152937
906.538	0.0152351
906.616	0.0154070
906.694	0.0154117
906.772	0.0152776
906.850	0.0152533
906.928	0.0154138
907.006	0.0153520
907.084	0.0152798
907.163	0.0153266
907.241	0.0154163
907.319	0.0153002
907.397	0.0153320
907.475	0.0152640
907.553	0.0153101
907.631	0.0153297
907.709	0.0153573
907.788	0.0151821
907.866	0.0155034
907.944	0.0152950
908.022	0.0151854
908.100	0.0152640
908.178	0.0153696
908.256	0.0153401
908.334	0.0151500
908.413	0.0152058
908.491	0.0152480
908.569	0.0152215
908.647	0.0153326
908.725	0.0152543
908.803	0.0153311
908.881	0.0153475
908.959	0.0152518
909.038	0.0153172
909.116	0.0155117
909.194	0.0155424
909.272	0.0154673
909.350	0.0154611
909.428	0.0155080
909.506	0.0154080
909.584	0.0154584
909.663	0.0154473
909.741	0.0154797
909.819	0.0154163
909.897	0.0154996
909.975	0.0153954
910.053	0.0155060
910.131	0.0155090
910.209	0.0155659
910.288	0.0154951
910.366	0.0154848
910.444	0.0154884
910.522	0.0155698
910.600	0.0155226
910.678	0.0153309
910.756	0.0153385
910.834	0.0153990
910.913	0.0153621
910.991	0.0154105
911.069	0.0153519
911.147	0.0154411
911.225	0.0154092
911.303	0.0153291
911.381	0.0153674
911.459	0.0153954
911.538	0.0153273
911.616	0.0154099
911.694	0.0152108
911.772	0.0154924
911.850	0.0154676
911.928	0.0153994
912.006	0.0154599
912.084	0.0154110
912.163	0.0152838
912.241	0.0153351
912.319	0.0153929
912.397	0.0153498
912.475	0.0153424
912.553	0.0152827
912.631	0.0152824
912.709	0.0153295
912.788	0.0151926
912.866	0.0151962
912.944	0.0151347
913.022	0.0151561
913.100	0.0152117
913.178	0.0153391
913.256	0.0150862
913.334	0.0152925
913.413	0.0151781
913.491	0.0150410
913.569	0.0149442
913.647	0.0152855
913.725	0.0152374
913.803	0.0150689
913.881	0.0151342
913.959	0.0152138
914.038	0.0152290
914.116	0.0153392
914.194	0.0152368
914.272	0.0152510
914.350	0.0152930
914.428	0.0152932
914.506	0.0154424
914.584	0.0152665
914.663	0.0153519
914.741	0.0153462
914.819	0.0154053
914.897	0.0154314
914.975	0.0154341
915.053	0.0154160
915.131	0.0154484
915.209	0.0154840
915.288	0.0153366
915.366	0.0155534
915.444	0.0155499
915.522	0.0155588
915.600	0.0152261
915.678	0.0154180
915.756	0.0155561
915.834	0.0156969
915.913	0.0155151
915.991	0.0156300
916.069	0.0154575
916.147	0.0154257
916.225	0.0156495
916.303	0.0155921
916.381	0.0155142
916.459	0.0155561
916.538	0.0155286
916.616	0.0155250
916.694	0.0155464
916.772	0.0156492
916.850	0.0155361
916.928	0.0155980
917.006	0.0155786
917.084	0.0155997
917.163	0.0153910
917.241	0.0155439
917.319	0.0155363
917.397	0.0153143
917.475	0.0155641
917.553	0.0154900
917.631	0.0154879
917.709	0.0155129
917.788	0.0155379
917.866	0.0155884
917.944	0.0154965
918.022	0.0154258
918.100	0.0154176
918.178	0.0155227
918.256	0.0154300
918.334	0.0153972
918.413	0.0153522
918.491	0.0154549
918.569	0.0155248
918.647	0.0154892
918.725	0.0154673
918.803	0.0154542
918.881	0.0152328
918.959	0.0154573
919.038	0.0154148
919.116	0.0154411
919.194	0.0154608
919.272	0.0154722
919.350	0.0153186
919.428	0.0153030
919.506	0.0153899
919.584	0.0154408
919.663	0.0155087
919.741	0.0155328
919.819	0.0154832
919.897	0.0155223
