05/20/2022	21:13:49	Ver.	4.1	UNKNOWN
Optical Delay	599.975067	Delta X		0.078125	Sweeps	1	Scan Rate	0/0
Coordinates	Axis 1	NaN	Axis 2	NaN	Axis 3	NaN	Axis 4	NaN	Axis 5	NaN	Axis 6	0.000000
TX Power	0.000000	RX Power	0.000000

599.975	0.0158167
600.053	0.0158961
600.131	0.0157229
600.209	0.0157956
600.288	0.0158604
600.366	0.0159143
600.444	0.0157508
600.522	0.0159196
600.600	0.0157559
600.678	0.0157503
600.756	0.0158546
600.834	0.0157976
600.913	0.0156693
600.991	0.0157159
601.069	0.0158923
601.147	0.0159594
601.225	0.0158540
601.303	0.0158759
601.381	0.0158572
601.459	0.0158398
601.538	0.0159007
601.616	0.0157379
601.694	0.0157910
601.772	0.0158718
601.850	0.0158852
601.928	0.0157884
602.006	0.0158794
602.084	0.0157849
602.163	0.0160321
602.241	0.0158665
602.319	0.0158975
602.397	0.0158389
602.475	0.0158623
602.553	0.0157677
602.631	0.0159493
602.709	0.0157865
602.788	0.0159934
602.866	0.0158695
602.944	0.0159818
603.022	0.0157851
603.100	0.0159154
603.178	0.0157917
603.256	0.0158607
603.334	0.0159677
603.413	0.0159208
603.491	0.0159592
603.569	0.0158621
603.647	0.0159389
603.725	0.0159037
603.803	0.0159444
603.881	0.0159606
603.959	0.0159277
604.038	0.0158196
604.116	0.0158655
604.194	0.0161165
604.272	0.0159493
604.350	0.0159323
604.428	0.0160580
604.506	0.0159229
604.584	0.0159145
604.663	0.0158823
604.741	0.0158763
604.819	0.0158677
604.897	0.0159010
604.975	0.0160072
605.053	0.0159289
605.131	0.0158063
605.209	0.0159935
605.288	0.0160004
605.366	0.0158259
605.444	0.0158568
605.522	0.0158392
605.600	0.0158300
605.678	0.0158327
605.756	0.0159604
605.834	0.0158675
605.913	0.0159113
605.991	0.0158359
606.069	0.0158344
606.147	0.0158601
606.225	0.0158795
606.303	0.0158765
606.381	0.0158971
606.459	0.0158425
606.538	0.0158379
606.616	0.0158142
606.694	0.0157204
606.772	0.0157758
606.850	0.0158292
606.928	0.0158092
607.006	0.0158024
607.084	0.0156773
607.163	0.0158012
607.241	0.0157645
607.319	0.0157954
607.397	0.0158353
607.475	0.0158714
607.553	0.0156568
607.631	0.0157509
607.709	0.0158241
607.788	0.0157073
607.866	0.0158051
607.944	0.0158212
608.022	0.0158054
608.100	0.0159529
608.178	0.0159648
608.256	0.0158033
608.334	0.0157956
608.413	0.0157869
608.491	0.0157746
608.569	0.0158618
608.647	0.0159029
608.725	0.0158376
608.803	0.0157846
608.881	0.0159636
608.959	0.0158441
609.038	0.0159016
609.116	0.0158958
609.194	0.0159552
609.272	0.0159286
609.350	0.0160038
609.428	0.0159227
609.506	0.0157966
609.584	0.0157793
609.663	0.0159418
609.741	0.0157911
609.819	0.0157191
609.897	0.0158917
609.975	0.0159462
610.053	0.0158588
610.131	0.0159460
610.209	0.0158577
610.288	0.0159109
610.366	0.0158627
610.444	0.0159596
610.522	0.0159451
610.600	0.0158300
610.678	0.0158624
610.756	0.0158428
610.834	0.0159193
610.913	0.0160090
610.991	0.0158967
611.069	0.0159191
611.147	0.0159927
611.225	0.0160429
611.303	0.0158728
611.381	0.0158911
611.459	0.0159692
611.538	0.0160101
611.616	0.0159581
611.694	0.0159296
611.772	0.0159767
611.850	0.0158421
611.928	0.0159959
612.006	0.0160054
612.084	0.0159808
612.163	0.0159608
612.241	0.0159168
612.319	0.0159695
612.397	0.0159469
612.475	0.0159756
612.553	0.0159758
612.631	0.0159296
612.709	0.0158498
612.788	0.0159937
612.866	0.0159500
612.944	0.0158002
613.022	0.0158631
613.100	0.0157478
613.178	0.0159312
613.256	0.0158235
613.334	0.0157693
613.413	0.0157081
613.491	0.0157687
613.569	0.0157103
613.647	0.0156192
613.725	0.0156451
613.803	0.0158262
613.881	0.0156893
613.959	0.0156135
614.038	0.0157346
614.116	0.0157265
614.194	0.0157073
614.272	0.0155418
614.350	0.0156784
614.428	0.0157230
614.506	0.0154660
614.584	0.0157131
614.663	0.0155195
614.741	0.0155290
614.819	0.0156752
614.897	0.0156229
614.975	0.0155971
615.053	0.0157026
615.131	0.0156799
615.209	0.0157085
615.288	0.0157424
615.366	0.0155532
615.444	0.0156419
615.522	0.0156777
615.600	0.0156313
615.678	0.0156538
615.756	0.0156237
615.834	0.0157605
615.913	0.0156926
615.991	0.0158005
616.069	0.0157262
616.147	0.0156702
616.225	0.0156051
616.303	0.0155910
616.381	0.0158176
616.459	0.0158954
616.538	0.0157001
616.616	0.0155691
616.694	0.0157277
616.772	0.0156402
616.850	0.0156621
616.928	0.0157524
617.006	0.0155762
617.084	0.0157064
617.163	0.0156799
617.241	0.0155535
617.319	0.0155535
617.397	0.0156372
617.475	0.0156557
617.553	0.0155395
617.631	0.0154779
617.709	0.0154784
617.788	0.0155908
617.866	0.0155957
617.944	0.0155011
618.022	0.0155120
618.100	0.0155761
618.178	0.0155373
618.256	0.0156265
618.334	0.0155892
618.413	0.0155244
618.491	0.0155399
618.569	0.0155531
618.647	0.0156490
618.725	0.0155894
618.803	0.0154353
618.881	0.0155973
618.959	0.0157007
619.038	0.0154644
619.116	0.0155038
619.194	0.0155746
619.272	0.0155983
619.350	0.0156059
619.428	0.0156567
619.506	0.0157019
619.584	0.0155292
619.663	0.0155218
619.741	0.0156105
619.819	0.0156507
619.897	0.0157117
619.975	0.0157362
620.053	0.0157546
620.131	0.0156413
620.209	0.0156260
620.288	0.0156592
620.366	0.0157587
620.444	0.0156838
620.522	0.0157326
620.600	0.0157732
620.678	0.0158924
620.756	0.0157684
620.834	0.0158176
620.913	0.0157683
620.991	0.0157049
621.069	0.0157003
621.147	0.0158697
621.225	0.0158395
621.303	0.0158015
621.381	0.0158208
621.459	0.0158398
621.538	0.0158609
621.616	0.0157135
621.694	0.0158211
621.772	0.0158873
621.850	0.0158502
621.928	0.0157470
622.006	0.0158315
622.084	0.0159436
622.163	0.0158549
622.241	0.0158058
622.319	0.0158125
622.397	0.0158665
622.475	0.0159499
622.553	0.0156472
622.631	0.0155932
622.709	0.0159357
622.788	0.0158238
622.866	0.0157809
622.944	0.0157643
623.022	0.0157536
623.100	0.0159787
623.178	0.0158118
623.256	0.0157978
623.334	0.0157972
623.413	0.0157671
623.491	0.0157888
623.569	0.0159521
623.647	0.0157298
623.725	0.0159071
623.803	0.0158573
623.881	0.0157531
623.959	0.0157994
624.038	0.0157263
624.116	0.0159255
624.194	0.0157931
624.272	0.0157130
624.350	0.0157177
624.428	0.0156290
624.506	0.0157596
624.584	0.0157018
624.663	0.0156712
624.741	0.0157610
624.819	0.0158225
624.897	0.0157845
624.975	0.0157558
625.053	0.0158266
625.131	0.0156454
625.209	0.0158264
625.288	0.0157988
625.366	0.0158314
625.444	0.0157574
625.522	0.0157802
625.600	0.0157955
625.678	0.0157925
625.756	0.0157338
625.834	0.0158857
625.913	0.0157830
625.991	0.0156687
626.069	0.0157474
626.147	0.0157306
626.225	0.0157439
626.303	0.0158503
626.381	0.0158572
626.459	0.0159630
626.538	0.0157706
626.616	0.0158010
626.694	0.0158292
626.772	0.0159146
626.850	0.0159895
626.928	0.0157920
627.006	0.0159314
627.084	0.0159570
627.163	0.0159118
627.241	0.0158529
627.319	0.0158274
627.397	0.0158091
627.475	0.0158389
627.553	0.0157868
627.631	0.0157740
627.709	0.0158856
627.788	0.0158939
627.866	0.0159007
627.944	0.0158700
628.022	0.0160159
628.100	0.0159225
628.178	0.0159973
628.256	0.0160489
628.334	0.0158478
628.413	0.0159782
628.491	0.0159471
628.569	0.0160404
628.647	0.0161156
628.725	0.0160250
628.803	0.0160208
628.881	0.0161404
628.959	0.0161362
629.038	0.0160780
629.116	0.0160384
629.194	0.0161207
629.272	0.0159514
629.350	0.0159598
629.428	0.0160313
629.506	0.0161514
629.584	0.0159296
629.663	0.0159652
629.741	0.0159339
629.819	0.0160320
629.897	0.0159155
629.975	0.0159842
630.053	0.0159357
630.131	0.0158222
630.209	0.0159669
630.288	0.0159613
630.366	0.0158915
630.444	0.0158630
630.522	0.0158829
630.600	0.0160123
630.678	0.0160275
630.756	0.0160102
630.834	0.0160221
630.913	0.0159287
630.991	0.0159116
631.069	0.0159590
631.147	0.0159927
631.225	0.0160011
631.303	0.0160150
631.381	0.0161028
631.459	0.0159391
631.538	0.0159805
631.616	0.0160280
631.694	0.0160086
631.772	0.0160938
631.850	0.0158714
631.928	0.0158611
632.006	0.0158689
632.084	0.0158526
632.163	0.0158833
632.241	0.0158247
632.319	0.0158295
632.397	0.0158143
632.475	0.0158050
632.553	0.0157458
632.631	0.0158855
632.709	0.0159499
632.788	0.0157872
632.866	0.0158685
632.944	0.0157025
633.022	0.0157808
633.100	0.0159479
633.178	0.0159537
633.256	0.0159180
633.334	0.0159972
633.413	0.0158523
633.491	0.0158134
633.569	0.0159642
633.647	0.0158167
633.725	0.0157821
633.803	0.0158477
633.881	0.0157947
633.959	0.0158180
634.038	0.0157339
634.116	0.0156994
634.194	0.0156651
634.272	0.0157219
634.350	0.0157022
634.428	0.0157759
634.506	0.0157571
634.584	0.0155654
634.663	0.0156273
634.741	0.0156326
634.819	0.0156842
634.897	0.0157302
634.975	0.0157425
635.053	0.0157583
635.131	0.0156464
635.209	0.0156224
635.288	0.0155421
635.366	0.0155733
635.444	0.0156263
635.522	0.0156731
635.600	0.0155914
635.678	0.0154343
635.756	0.0154926
635.834	0.0156303
635.913	0.0156589
635.991	0.0156007
636.069	0.0155220
636.147	0.0156274
636.225	0.0155464
636.303	0.0156548
636.381	0.0155740
636.459	0.0155861
636.538	0.0156111
636.616	0.0156492
636.694	0.0155714
636.772	0.0156451
636.850	0.0156963
636.928	0.0155844
637.006	0.0156425
637.084	0.0156371
637.163	0.0156251
637.241	0.0155954
637.319	0.0156785
637.397	0.0155780
637.475	0.0156046
637.553	0.0157758
637.631	0.0157696
637.709	0.0157412
637.788	0.0156848
637.866	0.0156931
637.944	0.0155298
638.022	0.0156317
638.100	0.0156218
638.178	0.0156664
638.256	0.0156026
638.334	0.0155787
638.413	0.0155045
638.491	0.0156528
638.569	0.0156526
638.647	0.0155318
638.725	0.0155772
638.803	0.0156242
638.881	0.0155226
638.959	0.0155699
639.038	0.0157064
639.116	0.0158006
639.194	0.0156578
639.272	0.0155851
639.350	0.0156601
639.428	0.0156592
639.506	0.0157248
639.584	0.0156982
639.663	0.0156453
639.741	0.0156501
639.819	0.0155965
639.897	0.0154128
639.975	0.0156303
640.053	0.0155265
640.131	0.0155458
640.209	0.0155746
640.288	0.0155135
640.366	0.0155573
640.444	0.0155441
640.522	0.0155896
640.600	0.0155960
640.678	0.0156597
640.756	0.0155125
640.834	0.0155741
640.913	0.0156695
640.991	0.0156440
641.069	0.0156267
641.147	0.0156367
641.225	0.0156849
641.303	0.0156042
641.381	0.0155549
641.459	0.0156753
641.538	0.0156665
641.616	0.0157034
641.694	0.0156343
641.772	0.0156007
641.850	0.0156701
641.928	0.0155701
642.006	0.0156679
642.084	0.0155721
642.163	0.0155167
642.241	0.0156388
642.319	0.0154799
642.397	0.0156464
642.475	0.0155103
642.553	0.0154883
642.631	0.0156183
642.709	0.0154169
642.788	0.0155111
642.866	0.0154682
642.944	0.0154042
643.022	0.0155959
643.100	0.0156999
643.178	0.0154845
643.256	0.0154709
643.334	0.0155650
643.413	0.0156091
643.491	0.0156575
643.569	0.0157383
643.647	0.0156662
643.725	0.0157519
643.803	0.0156625
643.881	0.0155843
643.959	0.0157043
644.038	0.0156374
644.116	0.0156931
644.194	0.0156793
644.272	0.0156507
644.350	0.0156275
644.428	0.0156019
644.506	0.0157211
644.584	0.0154765
644.663	0.0155464
644.741	0.0156293
644.819	0.0156408
644.897	0.0156716
644.975	0.0155669
645.053	0.0156966
645.131	0.0158125
645.209	0.0156287
645.288	0.0157351
645.366	0.0157632
645.444	0.0157955
645.522	0.0156654
645.600	0.0156350
645.678	0.0157069
645.756	0.0157510
645.834	0.0157991
645.913	0.0157800
645.991	0.0156557
646.069	0.0157152
646.147	0.0158201
646.225	0.0157600
646.303	0.0156790
646.381	0.0155840
646.459	0.0157082
646.538	0.0157442
646.616	0.0157493
646.694	0.0156857
646.772	0.0158542
646.850	0.0156741
646.928	0.0157224
647.006	0.0157083
647.084	0.0156416
647.163	0.0156087
647.241	0.0156331
647.319	0.0156927
647.397	0.0155804
647.475	0.0156953
647.553	0.0156849
647.631	0.0156046
647.709	0.0156152
647.788	0.0156984
647.866	0.0157127
647.944	0.0157278
648.022	0.0157897
648.100	0.0156319
648.178	0.0156768
648.256	0.0157100
648.334	0.0156214
648.413	0.0157359
648.491	0.0158327
648.569	0.0158350
648.647	0.0158033
648.725	0.0156068
648.803	0.0156802
648.881	0.0157798
648.959	0.0156306
649.038	0.0157698
649.116	0.0156848
649.194	0.0156883
649.272	0.0156956
649.350	0.0156544
649.428	0.0156133
649.506	0.0157355
649.584	0.0156817
649.663	0.0157423
649.741	0.0157465
649.819	0.0156815
649.897	0.0157664
649.975	0.0156552
650.053	0.0157437
650.131	0.0158350
650.209	0.0157632
650.288	0.0157140
650.366	0.0157661
650.444	0.0158891
650.522	0.0158470
650.600	0.0159779
650.678	0.0159072
650.756	0.0158813
650.834	0.0158501
650.913	0.0157064
650.991	0.0157981
651.069	0.0157523
651.147	0.0158665
651.225	0.0158812
651.303	0.0157594
651.381	0.0158272
651.459	0.0158110
651.538	0.0159267
651.616	0.0158862
651.694	0.0157693
651.772	0.0159190
651.850	0.0158808
651.928	0.0158260
652.006	0.0157769
652.084	0.0159924
652.163	0.0158515
652.241	0.0158634
652.319	0.0158920
652.397	0.0158728
652.475	0.0158171
652.553	0.0158261
652.631	0.0158884
652.709	0.0158444
652.788	0.0158543
652.866	0.0159607
652.944	0.0158566
653.022	0.0157367
653.100	0.0158854
653.178	0.0157678
653.256	0.0158858
653.334	0.0158853
653.413	0.0158841
653.491	0.0158966
653.569	0.0158319
653.647	0.0158042
653.725	0.0157546
653.803	0.0157645
653.881	0.0158482
653.959	0.0157906
654.038	0.0157885
654.116	0.0158939
654.194	0.0158714
654.272	0.0158057
654.350	0.0158043
654.428	0.0158710
654.506	0.0158440
654.584	0.0157705
654.663	0.0157724
654.741	0.0157982
654.819	0.0159813
654.897	0.0158401
654.975	0.0158511
655.053	0.0158207
655.131	0.0158900
655.209	0.0157375
655.288	0.0158263
655.366	0.0157600
655.444	0.0158749
655.522	0.0158216
655.600	0.0158035
655.678	0.0158387
655.756	0.0158355
655.834	0.0158845
655.913	0.0158418
655.991	0.0159517
656.069	0.0158781
656.147	0.0158837
656.225	0.0159379
656.303	0.0159856
656.381	0.0158505
656.459	0.0158846
656.538	0.0157800
656.616	0.0158561
656.694	0.0158622
656.772	0.0158044
656.850	0.0156115
656.928	0.0156519
657.006	0.0157767
657.084	0.0156302
657.163	0.0155472
657.241	0.0156789
657.319	0.0157463
657.397	0.0156650
657.475	0.0156499
657.553	0.0157118
657.631	0.0157443
657.709	0.0157533
657.788	0.0156266
657.866	0.0156094
657.944	0.0156094
658.022	0.0157158
658.100	0.0156870
658.178	0.0157923
658.256	0.0156989
658.334	0.0156595
658.413	0.0157186
658.491	0.0158261
658.569	0.0157627
658.647	0.0157189
658.725	0.0157389
658.803	0.0157162
658.881	0.0156958
658.959	0.0159065
659.038	0.0157316
659.116	0.0157108
659.194	0.0158170
659.272	0.0157219
659.350	0.0158022
659.428	0.0156786
659.506	0.0156498
659.584	0.0156590
659.663	0.0156969
659.741	0.0157708
659.819	0.0157255
659.897	0.0157586
659.975	0.0158490
660.053	0.0157372
660.131	0.0157094
660.209	0.0157389
660.288	0.0155658
660.366	0.0157882
660.444	0.0156335
660.522	0.0156561
660.600	0.0158501
660.678	0.0157598
660.756	0.0157329
660.834	0.0157019
660.913	0.0158680
660.991	0.0157819
661.069	0.0156084
661.147	0.0158222
661.225	0.0157892
661.303	0.0157246
661.381	0.0157478
661.459	0.0156998
661.538	0.0157913
661.616	0.0156661
661.694	0.0157119
661.772	0.0156793
661.850	0.0157267
661.928	0.0158427
662.006	0.0156782
662.084	0.0155206
662.163	0.0156711
662.241	0.0155485
662.319	0.0157439
662.397	0.0156193
662.475	0.0157706
662.553	0.0155801
662.631	0.0155018
662.709	0.0155992
662.788	0.0157473
662.866	0.0155632
662.944	0.0155603
663.022	0.0156295
663.100	0.0157343
663.178	0.0155751
663.256	0.0155819
663.334	0.0157020
663.413	0.0155904
663.491	0.0157886
663.569	0.0156634
663.647	0.0154658
663.725	0.0156043
663.803	0.0155499
663.881	0.0154613
663.959	0.0155838
664.038	0.0156156
664.116	0.0156422
664.194	0.0154744
664.272	0.0157034
664.350	0.0155052
664.428	0.0155585
664.506	0.0154594
664.584	0.0156426
664.663	0.0155476
664.741	0.0156358
664.819	0.0155043
664.897	0.0153752
664.975	0.0154943
665.053	0.0156281
665.131	0.0155980
665.209	0.0156801
665.288	0.0156965
665.366	0.0157113
665.444	0.0156034
665.522	0.0156018
665.600	0.0157850
665.678	0.0157149
665.756	0.0157085
665.834	0.0156128
665.913	0.0156600
665.991	0.0157308
666.069	0.0156419
666.147	0.0156967
666.225	0.0157991
666.303	0.0157330
666.381	0.0157307
666.459	0.0157808
666.538	0.0157954
666.616	0.0157516
666.694	0.0157500
666.772	0.0157132
666.850	0.0156020
666.928	0.0158072
667.006	0.0156818
667.084	0.0156635
667.163	0.0155043
667.241	0.0155371
667.319	0.0155647
667.397	0.0157200
667.475	0.0156239
667.553	0.0156842
667.631	0.0156680
667.709	0.0158289
667.788	0.0157328
667.866	0.0158254
667.944	0.0156191
668.022	0.0156610
668.100	0.0158344
668.178	0.0158366
668.256	0.0157315
668.334	0.0156798
668.413	0.0158178
668.491	0.0157665
668.569	0.0157409
668.647	0.0156322
668.725	0.0156467
668.803	0.0157880
668.881	0.0156419
668.959	0.0156592
669.038	0.0158731
669.116	0.0157985
669.194	0.0156995
669.272	0.0157236
669.350	0.0158737
669.428	0.0157899
669.506	0.0157011
669.584	0.0157918
669.663	0.0158782
669.741	0.0158762
669.819	0.0159111
669.897	0.0158745
669.975	0.0158513
670.053	0.0156442
670.131	0.0156964
670.209	0.0155212
670.288	0.0155790
670.366	0.0156102
670.444	0.0155094
670.522	0.0153747
670.600	0.0154308
670.678	0.0153434
670.756	0.0152776
670.834	0.0154148
670.913	0.0153819
670.991	0.0154235
671.069	0.0153606
671.147	0.0153519
671.225	0.0153627
671.303	0.0154905
671.381	0.0155785
671.459	0.0155106
671.538	0.0157052
671.616	0.0158189
671.694	0.0158655
671.772	0.0158811
671.850	0.0160712
671.928	0.0160551
672.006	0.0161695
672.084	0.0162568
672.163	0.0162439
672.241	0.0162890
672.319	0.0165292
672.397	0.0165887
672.475	0.0162852
672.553	0.0163566
672.631	0.0164037
672.709	0.0163557
672.788	0.0163625
672.866	0.0163660
672.944	0.0163016
673.022	0.0163570
673.100	0.0165672
673.178	0.0164314
673.256	0.0164214
673.334	0.0163535
673.413	0.0161763
673.491	0.0162010
673.569	0.0161275
673.647	0.0160692
673.725	0.0159210
673.803	0.0158877
673.881	0.0155385
673.959	0.0154185
674.038	0.0152650
674.116	0.0152863
674.194	0.0150238
674.272	0.0148462
674.350	0.0147559
674.428	0.0148770
674.506	0.0148647
674.584	0.0147794
674.663	0.0146354
674.741	0.0147717
674.819	0.0149364
674.897	0.0148950
674.975	0.0150240
675.053	0.0152057
675.131	0.0152911
675.209	0.0155054
675.288	0.0157108
675.366	0.0158253
675.444	0.0161907
675.522	0.0162032
675.600	0.0165240
675.678	0.0167844
675.756	0.0170687
675.834	0.0170313
675.913	0.0172404
675.991	0.0173329
676.069	0.0175386
676.147	0.0175472
676.225	0.0175616
676.303	0.0174763
676.381	0.0173717
676.459	0.0173302
676.538	0.0171274
676.616	0.0169164
676.694	0.0168273
676.772	0.0164196
676.850	0.0164603
676.928	0.0162364
677.006	0.0158694
677.084	0.0157043
677.163	0.0153653
677.241	0.0150466
677.319	0.0147638
677.397	0.0145479
677.475	0.0143233
677.553	0.0140990
677.631	0.0139452
677.709	0.0137623
677.788	0.0136700
677.866	0.0135932
677.944	0.0136327
678.022	0.0133739
678.100	0.0135350
678.178	0.0136685
678.256	0.0136766
678.334	0.0138499
678.413	0.0140406
678.491	0.0142998
678.569	0.0143015
678.647	0.0146692
678.725	0.0149432
678.803	0.0152126
678.881	0.0153253
678.959	0.0156713
679.038	0.0159568
679.116	0.0163013
679.194	0.0165424
679.272	0.0166655
679.350	0.0170066
679.428	0.0172218
679.506	0.0173911
679.584	0.0173708
679.663	0.0174855
679.741	0.0175299
679.819	0.0175922
679.897	0.0176577
679.975	0.0172793
680.053	0.0172049
680.131	0.0170621
680.209	0.0169666
680.288	0.0169050
680.366	0.0167232
680.444	0.0164899
680.522	0.0163345
680.600	0.0161699
680.678	0.0160468
680.756	0.0158981
680.834	0.0155458
680.913	0.0154382
680.991	0.0152765
681.069	0.0151811
681.147	0.0149587
681.225	0.0149278
681.303	0.0149445
681.381	0.0147166
681.459	0.0144756
681.538	0.0146991
681.616	0.0146941
681.694	0.0146513
681.772	0.0146093
681.850	0.0145782
681.928	0.0147578
682.006	0.0147662
682.084	0.0148367
682.163	0.0149377
682.241	0.0148471
682.319	0.0148086
682.397	0.0149192
682.475	0.0150336
682.553	0.0149007
682.631	0.0150597
682.709	0.0149707
682.788	0.0150655
682.866	0.0150798
682.944	0.0150269
683.022	0.0152396
683.100	0.0151833
683.178	0.0152634
683.256	0.0152913
683.334	0.0152238
683.413	0.0155396
683.491	0.0155622
683.569	0.0156892
683.647	0.0159457
683.725	0.0158894
683.803	0.0160470
683.881	0.0163065
683.959	0.0165379
684.038	0.0167105
684.116	0.0168096
684.194	0.0170348
684.272	0.0169268
684.350	0.0171187
684.428	0.0172387
684.506	0.0173359
684.584	0.0175287
684.663	0.0174211
684.741	0.0174814
684.819	0.0175173
684.897	0.0175191
684.975	0.0173468
685.053	0.0173083
685.131	0.0170705
685.209	0.0170933
685.288	0.0167072
685.366	0.0166256
685.444	0.0162750
685.522	0.0160309
685.600	0.0158597
685.678	0.0155628
685.756	0.0153117
685.834	0.0150941
685.913	0.0149241
685.991	0.0148251
686.069	0.0146549
686.147	0.0144186
686.225	0.0142860
686.303	0.0141916
686.381	0.0140096
686.459	0.0140831
686.538	0.0139585
686.616	0.0141170
686.694	0.0139977
686.772	0.0141873
686.850	0.0143319
686.928	0.0145062
687.006	0.0144828
687.084	0.0147017
687.163	0.0149673
687.241	0.0152480
687.319	0.0154208
687.397	0.0156373
687.475	0.0160551
687.553	0.0160406
687.631	0.0162659
687.709	0.0165332
687.788	0.0166093
687.866	0.0167999
687.944	0.0168042
688.022	0.0169836
688.100	0.0171360
688.178	0.0173043
688.256	0.0171639
688.334	0.0172839
688.413	0.0173980
688.491	0.0174023
688.569	0.0172620
688.647	0.0173855
688.725	0.0172794
688.803	0.0172971
688.881	0.0171410
688.959	0.0170043
689.038	0.0169995
689.116	0.0167088
689.194	0.0166422
689.272	0.0166275
689.350	0.0163956
689.428	0.0161592
689.506	0.0160143
689.584	0.0159051
689.663	0.0155054
689.741	0.0154307
689.819	0.0153809
689.897	0.0151232
689.975	0.0150375
690.053	0.0148748
690.131	0.0148344
690.209	0.0146933
690.288	0.0146027
690.366	0.0145746
690.444	0.0142733
690.522	0.0141911
690.600	0.0141195
690.678	0.0139646
690.756	0.0138000
690.834	0.0136604
690.913	0.0138261
690.991	0.0137093
691.069	0.0138065
691.147	0.0138334
691.225	0.0140553
691.303	0.0142420
691.381	0.0144656
691.459	0.0145438
691.538	0.0151067
691.616	0.0153706
691.694	0.0158360
691.772	0.0161423
691.850	0.0164523
691.928	0.0167406
692.006	0.0170017
692.084	0.0175055
692.163	0.0177983
692.241	0.0179247
692.319	0.0181651
692.397	0.0182223
692.475	0.0183504
692.553	0.0185132
692.631	0.0185737
692.709	0.0185525
692.788	0.0184682
692.866	0.0183120
692.944	0.0183221
693.022	0.0180508
693.100	0.0179374
693.178	0.0175510
693.256	0.0172598
693.334	0.0168578
693.413	0.0164319
693.491	0.0161012
693.569	0.0156175
693.647	0.0153680
693.725	0.0150037
693.803	0.0146931
693.881	0.0140967
693.959	0.0140946
694.038	0.0138228
694.116	0.0134959
694.194	0.0133489
694.272	0.0133404
694.350	0.0132993
694.428	0.0133510
694.506	0.0133809
694.584	0.0135735
694.663	0.0137608
694.741	0.0137711
694.819	0.0139802
694.897	0.0140253
694.975	0.0142649
695.053	0.0147285
695.131	0.0150315
695.209	0.0152211
695.288	0.0154433
695.366	0.0158407
695.444	0.0162084
695.522	0.0164544
695.600	0.0166687
695.678	0.0168944
695.756	0.0168941
695.834	0.0169765
695.913	0.0170783
695.991	0.0172002
696.069	0.0171388
696.147	0.0172252
696.225	0.0172096
696.303	0.0171368
696.381	0.0171021
696.459	0.0170217
696.538	0.0169513
696.616	0.0167936
696.694	0.0164873
696.772	0.0163838
696.850	0.0162368
696.928	0.0160596
697.006	0.0159995
697.084	0.0156588
697.163	0.0155540
697.241	0.0153663
697.319	0.0151493
697.397	0.0151623
697.475	0.0152676
697.553	0.0151261
697.631	0.0151863
697.709	0.0150896
697.788	0.0151437
697.866	0.0152549
697.944	0.0152116
698.022	0.0153059
698.100	0.0151485
698.178	0.0153203
698.256	0.0151389
698.334	0.0152897
698.413	0.0151657
698.491	0.0150831
698.569	0.0151402
698.647	0.0150819
698.725	0.0151172
698.803	0.0150536
698.881	0.0150175
698.959	0.0151347
699.038	0.0151685
699.116	0.0152475
699.194	0.0153860
699.272	0.0155119
699.350	0.0156325
699.428	0.0158585
699.506	0.0160525
699.584	0.0160723
699.663	0.0162750
699.741	0.0163820
699.819	0.0165295
699.897	0.0165215
699.975	0.0167199
700.053	0.0170039
700.131	0.0169855
700.209	0.0169077
700.288	0.0172802
700.366	0.0172617
700.444	0.0173073
700.522	0.0174918
700.600	0.0176166
700.678	0.0174590
700.756	0.0175005
700.834	0.0173664
700.913	0.0173517
700.991	0.0172231
701.069	0.0170926
701.147	0.0168330
701.225	0.0164997
701.303	0.0160909
701.381	0.0158647
701.459	0.0154986
701.538	0.0151628
701.616	0.0148661
701.694	0.0145358
701.772	0.0142167
701.850	0.0139880
701.928	0.0135996
702.006	0.0132593
702.084	0.0129330
702.163	0.0126190
702.241	0.0123527
702.319	0.0122022
702.397	0.0120160
702.475	0.0119125
702.553	0.0118841
702.631	0.0118615
702.709	0.0118809
702.788	0.0120557
702.866	0.0124058
702.944	0.0125993
703.022	0.0131603
703.100	0.0136292
703.178	0.0142982
703.256	0.0148934
703.334	0.0154581
703.413	0.0163332
703.491	0.0168824
703.569	0.0176730
703.647	0.0183604
703.725	0.0188012
703.803	0.0193369
703.881	0.0199479
703.959	0.0204483
704.038	0.0207824
704.116	0.0210680
704.194	0.0212045
704.272	0.0214081
704.350	0.0212540
704.428	0.0211815
704.506	0.0210318
704.584	0.0207700
704.663	0.0203784
704.741	0.0198509
704.819	0.0194981
704.897	0.0190084
704.975	0.0181456
705.053	0.0176350
705.131	0.0169889
705.209	0.0164360
705.288	0.0158507
705.366	0.0150764
705.444	0.0144739
705.522	0.0139375
705.600	0.0134297
705.678	0.0129144
705.756	0.0126362
705.834	0.0123287
705.913	0.0119769
705.991	0.0119865
706.069	0.0117009
706.147	0.0117452
706.225	0.0118988
706.303	0.0119314
706.381	0.0120254
706.459	0.0122723
706.538	0.0124905
706.616	0.0127776
706.694	0.0131824
706.772	0.0135294
706.850	0.0138787
706.928	0.0141496
707.006	0.0145929
707.084	0.0149227
707.163	0.0152178
707.241	0.0154026
707.319	0.0157623
707.397	0.0160136
707.475	0.0162666
707.553	0.0163995
707.631	0.0166520
707.709	0.0168683
707.788	0.0170233
707.866	0.0170982
707.944	0.0173753
708.022	0.0174869
708.100	0.0175664
708.178	0.0175362
708.256	0.0175540
708.334	0.0174354
708.413	0.0172165
708.491	0.0171210
708.569	0.0170990
708.647	0.0170650
708.725	0.0169946
708.803	0.0168276
708.881	0.0165725
708.959	0.0164252
709.038	0.0163700
709.116	0.0160201
709.194	0.0160835
709.272	0.0158479
709.350	0.0158298
709.428	0.0156503
709.506	0.0155103
709.584	0.0152706
709.663	0.0150282
709.741	0.0149512
709.819	0.0146751
709.897	0.0148193
709.975	0.0147199
710.053	0.0145252
710.131	0.0144776
710.209	0.0146162
710.288	0.0145531
710.366	0.0146974
710.444	0.0147739
710.522	0.0147540
710.600	0.0148941
710.678	0.0152447
710.756	0.0154022
710.834	0.0155196
710.913	0.0156984
710.991	0.0156311
711.069	0.0159058
711.147	0.0162002
711.225	0.0162826
711.303	0.0164369
711.381	0.0165105
711.459	0.0167906
711.538	0.0169604
711.616	0.0170804
711.694	0.0171895
711.772	0.0173579
711.850	0.0175983
711.928	0.0174275
712.006	0.0175230
712.084	0.0175873
712.163	0.0177016
712.241	0.0175936
712.319	0.0175576
712.397	0.0174068
712.475	0.0173121
712.553	0.0172126
712.631	0.0169650
712.709	0.0167130
712.788	0.0164861
712.866	0.0162415
712.944	0.0159111
713.022	0.0155970
713.100	0.0153607
713.178	0.0150616
713.256	0.0147800
713.334	0.0144862
713.413	0.0142416
713.491	0.0140337
713.569	0.0138505
713.647	0.0137023
713.725	0.0136549
713.803	0.0135052
713.881	0.0135278
713.959	0.0136102
714.038	0.0135516
714.116	0.0137251
714.194	0.0136433
714.272	0.0136922
714.350	0.0138597
714.428	0.0139883
714.506	0.0140858
714.584	0.0142645
714.663	0.0141851
714.741	0.0144797
714.819	0.0146233
714.897	0.0148231
714.975	0.0150846
715.053	0.0152080
715.131	0.0154238
715.209	0.0157423
715.288	0.0160345
715.366	0.0162216
715.444	0.0165613
715.522	0.0167085
715.600	0.0169467
715.678	0.0170804
715.756	0.0171169
715.834	0.0171268
715.913	0.0172948
715.991	0.0172765
716.069	0.0172649
716.147	0.0170895
716.225	0.0171366
716.303	0.0170772
716.381	0.0167252
716.459	0.0167555
716.538	0.0167643
716.616	0.0166899
716.694	0.0166444
716.772	0.0167879
716.850	0.0167113
716.928	0.0164256
717.006	0.0166717
717.084	0.0167744
717.163	0.0166735
717.241	0.0166647
717.319	0.0167281
717.397	0.0167897
717.475	0.0168201
717.553	0.0168557
717.631	0.0167949
717.709	0.0170670
717.788	0.0169275
717.866	0.0169835
717.944	0.0170574
718.022	0.0170549
718.100	0.0169197
718.178	0.0168594
718.256	0.0169125
718.334	0.0168130
718.413	0.0166782
718.491	0.0164916
718.569	0.0164406
718.647	0.0163102
718.725	0.0160368
718.803	0.0156322
718.881	0.0153019
718.959	0.0150620
719.038	0.0148946
719.116	0.0146662
719.194	0.0144554
719.272	0.0142981
719.350	0.0141374
719.428	0.0142525
719.506	0.0140391
719.584	0.0139223
719.663	0.0138468
719.741	0.0140689
719.819	0.0141591
719.897	0.0141206
719.975	0.0141954
720.053	0.0142593
720.131	0.0141974
720.209	0.0143370
720.288	0.0144074
720.366	0.0146084
720.444	0.0146146
720.522	0.0147095
720.600	0.0148092
720.678	0.0147641
720.756	0.0149455
720.834	0.0149654
720.913	0.0152646
720.991	0.0153662
721.069	0.0154646
721.147	0.0156146
721.225	0.0157462
721.303	0.0158233
721.381	0.0159829
721.459	0.0161086
721.538	0.0161094
721.616	0.0161201
721.694	0.0161153
721.772	0.0162733
721.850	0.0163743
721.928	0.0161610
722.006	0.0162172
722.084	0.0162946
722.163	0.0163589
722.241	0.0163241
722.319	0.0167293
722.397	0.0165839
722.475	0.0166605
722.553	0.0167205
722.631	0.0168792
722.709	0.0168097
722.788	0.0167284
722.866	0.0166656
722.944	0.0168015
723.022	0.0166246
723.100	0.0163055
723.178	0.0162051
723.256	0.0160010
723.334	0.0157975
723.413	0.0155100
723.491	0.0153890
723.569	0.0153297
723.647	0.0151044
723.725	0.0148769
723.803	0.0148160
723.881	0.0147654
723.959	0.0148957
724.038	0.0146326
724.116	0.0146563
724.194	0.0148920
724.272	0.0148723
724.350	0.0149817
724.428	0.0151862
724.506	0.0153864
724.584	0.0153926
724.663	0.0157619
724.741	0.0159364
724.819	0.0159850
724.897	0.0160209
724.975	0.0162611
725.053	0.0164766
725.131	0.0165216
725.209	0.0167324
725.288	0.0168890
725.366	0.0169558
725.444	0.0171200
725.522	0.0172644
725.600	0.0173431
725.678	0.0174449
725.756	0.0176971
725.834	0.0176999
725.913	0.0178940
725.991	0.0178142
726.069	0.0176864
726.147	0.0174857
726.225	0.0174771
726.303	0.0171923
726.381	0.0168977
726.459	0.0166521
726.538	0.0163287
726.616	0.0158672
726.694	0.0154906
726.772	0.0151672
726.850	0.0148592
726.928	0.0145458
727.006	0.0143291
727.084	0.0141747
727.163	0.0135779
727.241	0.0134830
727.319	0.0132935
727.397	0.0130804
727.475	0.0131623
727.553	0.0130256
727.631	0.0129350
727.709	0.0129678
727.788	0.0131947
727.866	0.0133208
727.944	0.0134162
728.022	0.0137136
728.100	0.0137836
728.178	0.0139627
728.256	0.0143652
728.334	0.0144517
728.413	0.0146916
728.491	0.0149195
728.569	0.0150922
728.647	0.0153133
728.725	0.0154327
728.803	0.0156098
728.881	0.0158026
728.959	0.0159595
729.038	0.0161777
729.116	0.0162097
729.194	0.0163705
729.272	0.0165485
729.350	0.0166774
729.428	0.0167757
729.506	0.0169462
729.584	0.0170495
729.663	0.0171736
729.741	0.0173864
729.819	0.0173235
729.897	0.0175702
729.975	0.0176154
730.053	0.0175233
730.131	0.0177051
730.209	0.0176653
730.288	0.0176747
730.366	0.0177805
730.444	0.0176601
730.522	0.0177341
730.600	0.0177489
730.678	0.0175267
730.756	0.0176103
730.834	0.0174922
730.913	0.0173854
730.991	0.0173414
731.069	0.0170007
731.147	0.0170135
731.225	0.0167463
731.303	0.0164580
731.381	0.0161635
731.459	0.0161598
731.538	0.0158334
731.616	0.0156004
731.694	0.0154985
731.772	0.0152669
731.850	0.0150962
731.928	0.0151595
732.006	0.0147383
732.084	0.0147802
732.163	0.0148907
732.241	0.0147520
732.319	0.0145963
732.397	0.0146964
732.475	0.0146883
732.553	0.0148637
732.631	0.0147652
732.709	0.0147868
732.788	0.0149630
732.866	0.0149933
732.944	0.0149767
733.022	0.0151200
733.100	0.0153660
733.178	0.0154348
733.256	0.0154959
733.334	0.0155644
733.413	0.0155666
733.491	0.0156731
733.569	0.0156561
733.647	0.0154620
733.725	0.0156199
733.803	0.0156715
733.881	0.0154762
733.959	0.0155274
734.038	0.0154653
734.116	0.0153650
734.194	0.0153160
734.272	0.0152299
734.350	0.0152826
734.428	0.0151916
734.506	0.0152261
734.584	0.0150343
734.663	0.0150793
734.741	0.0151218
734.819	0.0150850
734.897	0.0150906
734.975	0.0151357
735.053	0.0151939
735.131	0.0154786
735.209	0.0153308
735.288	0.0154148
735.366	0.0153782
735.444	0.0156444
735.522	0.0157219
735.600	0.0157265
735.678	0.0159016
735.756	0.0158934
735.834	0.0159012
735.913	0.0160786
735.991	0.0160670
736.069	0.0160018
736.147	0.0162218
736.225	0.0162580
736.303	0.0162315
736.381	0.0162642
736.459	0.0162913
736.538	0.0163902
736.616	0.0163406
736.694	0.0164086
736.772	0.0163675
736.850	0.0162080
736.928	0.0161121
737.006	0.0161280
737.084	0.0161121
737.163	0.0160389
737.241	0.0159950
737.319	0.0158012
737.397	0.0157540
737.475	0.0155703
737.553	0.0156484
737.631	0.0156600
737.709	0.0156463
737.788	0.0157714
737.866	0.0158942
737.944	0.0159267
738.022	0.0158962
738.100	0.0161378
738.178	0.0161731
738.256	0.0161037
738.334	0.0161388
738.413	0.0158939
738.491	0.0157319
738.569	0.0158146
738.647	0.0154911
738.725	0.0154436
738.803	0.0150575
738.881	0.0149953
738.959	0.0148716
739.038	0.0148101
739.116	0.0147424
739.194	0.0143764
739.272	0.0143417
739.350	0.0142683
739.428	0.0143468
739.506	0.0144424
739.584	0.0143200
739.663	0.0142754
739.741	0.0144894
739.819	0.0145951
739.897	0.0147733
739.975	0.0149841
740.053	0.0151796
740.131	0.0153734
740.209	0.0156154
740.288	0.0158055
740.366	0.0160397
740.444	0.0162352
740.522	0.0165948
740.600	0.0168063
740.678	0.0169099
740.756	0.0169350
740.834	0.0170042
740.913	0.0170859
740.991	0.0173206
741.069	0.0171075
741.147	0.0171681
741.225	0.0172290
741.303	0.0171933
741.381	0.0169540
741.459	0.0169666
741.538	0.0169439
741.616	0.0167492
741.694	0.0166076
741.772	0.0165259
741.850	0.0163287
741.928	0.0162003
742.006	0.0159676
742.084	0.0156818
742.163	0.0155862
742.241	0.0154244
742.319	0.0152632
742.397	0.0150595
742.475	0.0148569
742.553	0.0146656
742.631	0.0147123
742.709	0.0147826
742.788	0.0143865
742.866	0.0142310
742.944	0.0141673
743.022	0.0141315
743.100	0.0141510
743.178	0.0139951
743.256	0.0140037
743.334	0.0140198
743.413	0.0140487
743.491	0.0139023
743.569	0.0141055
743.647	0.0141668
743.725	0.0141878
743.803	0.0144401
743.881	0.0145483
743.959	0.0147559
744.038	0.0149819
744.116	0.0153223
744.194	0.0155798
744.272	0.0158293
744.350	0.0159882
744.428	0.0161844
744.506	0.0164725
744.584	0.0167666
744.663	0.0169198
744.741	0.0169336
744.819	0.0171595
744.897	0.0172124
744.975	0.0171346
745.053	0.0174043
745.131	0.0173743
745.209	0.0172063
745.288	0.0172044
745.366	0.0172449
745.444	0.0171228
745.522	0.0170261
745.600	0.0167905
745.678	0.0167623
745.756	0.0168981
745.834	0.0166765
745.913	0.0166283
745.991	0.0165121
746.069	0.0164121
746.147	0.0165771
746.225	0.0164639
746.303	0.0164492
746.381	0.0164536
746.459	0.0163342
746.538	0.0161771
746.616	0.0161289
746.694	0.0161218
746.772	0.0160377
746.850	0.0158771
746.928	0.0157600
747.006	0.0156935
747.084	0.0156023
747.163	0.0155056
747.241	0.0154141
747.319	0.0155249
747.397	0.0153722
747.475	0.0152327
747.553	0.0152594
747.631	0.0151199
747.709	0.0151725
747.788	0.0151027
747.866	0.0150614
747.944	0.0149683
748.022	0.0148627
748.100	0.0147796
748.178	0.0148152
748.256	0.0149033
748.334	0.0148036
748.413	0.0146782
748.491	0.0148765
748.569	0.0149922
748.647	0.0150066
748.725	0.0151714
748.803	0.0152609
748.881	0.0152045
748.959	0.0153188
749.038	0.0153214
749.116	0.0154055
749.194	0.0154234
749.272	0.0153501
749.350	0.0156304
749.428	0.0156853
749.506	0.0158366
749.584	0.0159069
749.663	0.0160452
749.741	0.0159884
749.819	0.0161868
749.897	0.0163704
749.975	0.0165176
750.053	0.0165253
750.131	0.0164241
750.209	0.0165643
750.288	0.0165868
750.366	0.0164348
750.444	0.0164040
750.522	0.0163079
750.600	0.0163123
750.678	0.0161933
750.756	0.0161101
750.834	0.0161629
750.913	0.0159895
750.991	0.0159870
751.069	0.0159377
751.147	0.0158085
751.225	0.0157892
751.303	0.0157102
751.381	0.0156396
751.459	0.0156808
751.538	0.0156683
751.616	0.0156461
751.694	0.0156135
751.772	0.0155431
751.850	0.0156551
751.928	0.0156060
752.006	0.0155906
752.084	0.0155798
752.163	0.0157522
752.241	0.0158190
752.319	0.0156560
752.397	0.0158504
752.475	0.0159473
752.553	0.0159528
752.631	0.0160902
752.709	0.0160969
752.788	0.0162930
752.866	0.0162420
752.944	0.0161884
753.022	0.0163113
753.100	0.0162812
753.178	0.0161886
753.256	0.0160992
753.334	0.0162390
753.413	0.0160837
753.491	0.0159074
753.569	0.0159055
753.647	0.0158575
753.725	0.0158281
753.803	0.0158133
753.881	0.0157664
753.959	0.0156777
754.038	0.0156041
754.116	0.0155244
754.194	0.0155804
754.272	0.0158261
754.350	0.0156697
754.428	0.0157014
754.506	0.0157399
754.584	0.0156464
754.663	0.0157372
754.741	0.0157192
754.819	0.0159124
754.897	0.0159812
754.975	0.0159180
755.053	0.0159198
755.131	0.0158809
755.209	0.0160162
755.288	0.0157993
755.366	0.0158327
755.444	0.0157764
755.522	0.0158656
755.600	0.0157029
755.678	0.0157298
755.756	0.0156878
755.834	0.0154841
755.913	0.0154394
755.991	0.0154849
756.069	0.0153020
756.147	0.0153983
756.225	0.0153364
756.303	0.0151865
756.381	0.0151959
756.459	0.0153281
756.538	0.0153596
756.616	0.0153638
756.694	0.0152514
756.772	0.0154774
756.850	0.0155065
756.928	0.0154645
757.006	0.0154476
757.084	0.0156294
757.163	0.0156866
757.241	0.0155367
757.319	0.0155108
757.397	0.0154852
757.475	0.0154456
757.553	0.0152280
757.631	0.0152946
757.709	0.0150428
757.788	0.0151605
757.866	0.0151380
757.944	0.0149123
758.022	0.0150224
758.100	0.0151864
758.178	0.0149985
758.256	0.0149534
758.334	0.0151244
758.413	0.0151001
758.491	0.0151990
758.569	0.0152925
758.647	0.0154800
758.725	0.0154486
758.803	0.0157624
758.881	0.0158373
758.959	0.0159571
759.038	0.0159066
759.116	0.0162252
759.194	0.0162510
759.272	0.0164043
759.350	0.0165160
759.428	0.0165729
759.506	0.0165795
759.584	0.0166327
759.663	0.0165731
759.741	0.0166091
759.819	0.0165606
759.897	0.0166233
759.975	0.0164421
760.053	0.0165401
760.131	0.0165039
760.209	0.0164440
760.288	0.0163873
760.366	0.0163827
760.444	0.0164563
760.522	0.0164452
760.600	0.0163809
760.678	0.0165502
760.756	0.0164336
760.834	0.0165952
760.913	0.0166128
760.991	0.0164085
761.069	0.0164060
761.147	0.0164088
761.225	0.0162039
761.303	0.0160326
761.381	0.0160191
761.459	0.0160029
761.538	0.0157465
761.616	0.0155793
761.694	0.0152229
761.772	0.0152653
761.850	0.0150950
761.928	0.0148814
762.006	0.0148505
762.084	0.0148779
762.163	0.0148106
762.241	0.0147395
762.319	0.0145536
762.397	0.0145876
762.475	0.0146432
762.553	0.0147114
762.631	0.0146971
762.709	0.0145008
762.788	0.0147112
762.866	0.0147195
762.944	0.0147874
763.022	0.0150950
763.100	0.0151505
763.178	0.0151220
763.256	0.0152123
763.334	0.0154910
763.413	0.0154279
763.491	0.0155942
763.569	0.0156548
763.647	0.0157393
763.725	0.0158672
763.803	0.0158115
763.881	0.0159000
763.959	0.0159918
764.038	0.0160258
764.116	0.0159332
764.194	0.0159502
764.272	0.0158675
764.350	0.0160213
764.428	0.0158920
764.506	0.0158014
764.584	0.0157934
764.663	0.0159132
764.741	0.0159473
764.819	0.0158506
764.897	0.0158295
764.975	0.0157644
765.053	0.0158118
765.131	0.0159753
765.209	0.0159337
765.288	0.0157776
765.366	0.0159799
765.444	0.0158306
765.522	0.0159263
765.600	0.0159055
765.678	0.0159776
765.756	0.0158424
765.834	0.0159460
765.913	0.0160458
765.991	0.0158221
766.069	0.0159513
766.147	0.0159753
766.225	0.0159065
766.303	0.0159701
766.381	0.0159223
766.459	0.0157169
766.538	0.0159677
766.616	0.0158943
766.694	0.0159653
766.772	0.0159002
766.850	0.0160124
766.928	0.0157272
767.006	0.0159827
767.084	0.0159385
767.163	0.0159655
767.241	0.0158798
767.319	0.0158517
767.397	0.0157805
767.475	0.0157125
767.553	0.0157265
767.631	0.0158091
767.709	0.0157536
767.788	0.0156210
767.866	0.0156691
767.944	0.0155608
768.022	0.0156705
768.100	0.0155566
768.178	0.0154579
768.256	0.0155525
768.334	0.0156752
768.413	0.0156674
768.491	0.0157210
768.569	0.0156777
768.647	0.0158191
768.725	0.0157191
768.803	0.0159660
768.881	0.0159709
768.959	0.0160247
769.038	0.0160432
769.116	0.0161883
769.194	0.0160917
769.272	0.0161223
769.350	0.0161454
769.428	0.0162336
769.506	0.0161985
769.584	0.0162203
769.663	0.0161056
769.741	0.0161305
769.819	0.0160680
769.897	0.0159858
769.975	0.0159975
770.053	0.0160043
770.131	0.0159756
770.209	0.0158878
770.288	0.0156791
770.366	0.0158649
770.444	0.0158980
770.522	0.0158709
770.600	0.0157542
770.678	0.0157509
770.756	0.0157829
770.834	0.0158212
770.913	0.0158588
770.991	0.0157915
771.069	0.0155693
771.147	0.0157389
771.225	0.0155909
771.303	0.0155093
771.381	0.0154295
771.459	0.0155785
771.538	0.0154919
771.616	0.0153899
771.694	0.0155830
771.772	0.0155116
771.850	0.0155013
771.928	0.0154368
772.006	0.0155862
772.084	0.0155894
772.163	0.0157666
772.241	0.0158823
772.319	0.0158852
772.397	0.0158436
772.475	0.0159610
772.553	0.0160219
772.631	0.0160563
772.709	0.0160858
772.788	0.0160806
772.866	0.0160112
772.944	0.0160387
773.022	0.0160615
773.100	0.0160226
773.178	0.0159476
773.256	0.0159277
773.334	0.0159978
773.413	0.0158418
773.491	0.0157954
773.569	0.0158009
773.647	0.0157317
773.725	0.0157352
773.803	0.0157458
773.881	0.0157492
773.959	0.0156967
774.038	0.0158369
774.116	0.0157764
774.194	0.0157695
774.272	0.0156514
774.350	0.0156474
774.428	0.0157217
774.506	0.0156905
774.584	0.0157611
774.663	0.0157387
774.741	0.0156966
774.819	0.0157888
774.897	0.0156770
774.975	0.0154925
775.053	0.0155315
775.131	0.0155222
775.209	0.0155344
775.288	0.0155347
775.366	0.0155637
775.444	0.0156631
775.522	0.0155716
775.600	0.0157339
775.678	0.0156756
775.756	0.0157542
775.834	0.0158192
775.913	0.0158467
775.991	0.0158196
776.069	0.0159717
776.147	0.0158998
776.225	0.0159766
776.303	0.0158904
776.381	0.0157597
776.459	0.0156836
776.538	0.0157445
776.616	0.0156280
776.694	0.0157231
776.772	0.0156672
776.850	0.0156319
776.928	0.0154942
777.006	0.0154694
777.084	0.0156173
777.163	0.0156152
777.241	0.0157148
777.319	0.0156739
777.397	0.0155732
777.475	0.0157623
777.553	0.0157761
777.631	0.0156940
777.709	0.0157497
777.788	0.0155889
777.866	0.0156779
777.944	0.0157063
778.022	0.0157248
778.100	0.0155334
778.178	0.0156519
778.256	0.0155296
778.334	0.0154960
778.413	0.0155122
778.491	0.0153834
778.569	0.0154285
778.647	0.0154822
778.725	0.0152952
778.803	0.0154288
778.881	0.0154814
778.959	0.0154852
779.038	0.0153677
779.116	0.0155943
779.194	0.0155271
779.272	0.0156143
779.350	0.0157300
779.428	0.0157732
779.506	0.0158239
779.584	0.0158413
779.663	0.0158611
779.741	0.0157986
779.819	0.0159486
779.897	0.0158017
779.975	0.0156963
780.053	0.0157687
780.131	0.0156416
780.209	0.0155465
780.288	0.0155874
780.366	0.0154273
780.444	0.0153989
780.522	0.0154320
780.600	0.0154290
780.678	0.0154215
780.756	0.0153999
780.834	0.0155296
780.913	0.0154001
780.991	0.0155833
781.069	0.0156051
781.147	0.0156744
781.225	0.0157490
781.303	0.0160384
781.381	0.0159503
781.459	0.0160265
781.538	0.0160195
781.616	0.0161855
781.694	0.0162513
781.772	0.0163747
781.850	0.0164424
781.928	0.0162287
782.006	0.0161858
782.084	0.0163065
782.163	0.0162967
782.241	0.0161973
782.319	0.0161646
782.397	0.0161626
782.475	0.0161118
782.553	0.0159264
782.631	0.0159415
782.709	0.0158707
782.788	0.0158362
782.866	0.0157895
782.944	0.0156898
783.022	0.0156445
783.100	0.0158220
783.178	0.0156242
783.256	0.0155344
783.334	0.0156749
783.413	0.0157005
783.491	0.0158006
783.569	0.0158330
783.647	0.0158175
783.725	0.0157339
783.803	0.0158033
783.881	0.0156835
783.959	0.0157883
784.038	0.0159719
784.116	0.0159406
784.194	0.0158794
784.272	0.0157816
784.350	0.0158210
784.428	0.0157796
784.506	0.0158237
784.584	0.0158124
784.663	0.0157265
784.741	0.0157143
784.819	0.0156683
784.897	0.0154959
784.975	0.0156746
785.053	0.0155468
785.131	0.0154547
785.209	0.0154232
785.288	0.0154230
785.366	0.0153620
785.444	0.0153554
785.522	0.0153108
785.600	0.0154017
785.678	0.0153797
785.756	0.0153758
785.834	0.0153615
785.913	0.0156271
785.991	0.0156144
786.069	0.0157141
786.147	0.0157220
786.225	0.0157575
786.303	0.0158797
786.381	0.0158864
786.459	0.0159177
786.538	0.0159682
786.616	0.0158043
786.694	0.0158034
786.772	0.0158940
786.850	0.0160380
786.928	0.0159398
787.006	0.0159214
787.084	0.0158207
787.163	0.0158338
787.241	0.0157198
787.319	0.0156393
787.397	0.0157105
787.475	0.0156490
787.553	0.0156049
787.631	0.0155214
787.709	0.0155685
787.788	0.0154916
787.866	0.0153455
787.944	0.0152946
788.022	0.0153719
788.100	0.0154621
788.178	0.0154856
788.256	0.0155828
788.334	0.0156052
788.413	0.0156860
788.491	0.0155772
788.569	0.0155748
788.647	0.0157321
788.725	0.0158106
788.803	0.0155499
788.881	0.0157426
788.959	0.0157802
789.038	0.0160101
789.116	0.0159870
789.194	0.0159805
789.272	0.0158914
789.350	0.0159998
789.428	0.0159328
789.506	0.0160162
789.584	0.0160306
789.663	0.0158170
789.741	0.0158909
789.819	0.0158254
789.897	0.0158860
789.975	0.0158208
790.053	0.0157272
790.131	0.0157870
790.209	0.0157395
790.288	0.0157526
790.366	0.0157303
790.444	0.0157053
790.522	0.0156390
790.600	0.0156950
790.678	0.0156463
790.756	0.0156902
790.834	0.0156332
790.913	0.0156410
790.991	0.0155702
791.069	0.0156173
791.147	0.0156466
791.225	0.0155965
791.303	0.0156732
791.381	0.0158009
791.459	0.0157674
791.538	0.0159695
791.616	0.0159069
791.694	0.0159817
791.772	0.0159330
791.850	0.0159415
791.928	0.0161498
792.006	0.0161083
792.084	0.0161255
792.163	0.0160184
792.241	0.0160469
792.319	0.0160176
792.397	0.0160946
792.475	0.0162057
792.553	0.0159901
792.631	0.0161551
792.709	0.0161405
792.788	0.0161295
792.866	0.0159808
792.944	0.0159766
793.022	0.0160211
793.100	0.0158916
793.178	0.0158801
793.256	0.0159103
793.334	0.0158160
793.413	0.0157880
793.491	0.0156787
793.569	0.0156422
793.647	0.0155791
793.725	0.0155657
793.803	0.0157440
793.881	0.0157191
793.959	0.0156946
794.038	0.0157814
794.116	0.0156411
794.194	0.0156126
794.272	0.0158537
794.350	0.0157984
794.428	0.0157842
794.506	0.0156441
794.584	0.0158779
794.663	0.0158096
794.741	0.0158305
794.819	0.0158584
794.897	0.0159242
794.975	0.0157600
795.053	0.0158263
795.131	0.0158998
795.209	0.0158469
795.288	0.0158540
795.366	0.0158517
795.444	0.0157819
795.522	0.0156551
795.600	0.0157500
795.678	0.0157800
795.756	0.0158495
795.834	0.0158575
795.913	0.0158908
795.991	0.0158619
796.069	0.0156273
796.147	0.0157896
796.225	0.0159239
796.303	0.0158714
796.381	0.0159020
796.459	0.0158293
796.538	0.0160220
796.616	0.0161153
796.694	0.0161465
796.772	0.0160347
796.850	0.0161094
796.928	0.0160753
797.006	0.0161952
797.084	0.0162677
797.163	0.0160912
797.241	0.0162658
797.319	0.0162001
797.397	0.0160411
797.475	0.0161207
797.553	0.0160687
797.631	0.0160152
797.709	0.0159071
797.788	0.0159418
797.866	0.0157939
797.944	0.0157716
798.022	0.0156264
798.100	0.0155463
798.178	0.0154470
798.256	0.0153584
798.334	0.0153612
798.413	0.0152407
798.491	0.0152995
798.569	0.0152890
798.647	0.0150859
798.725	0.0149813
798.803	0.0150692
798.881	0.0150410
798.959	0.0150301
799.038	0.0150189
799.116	0.0151085
799.194	0.0150707
799.272	0.0151778
799.350	0.0150581
799.428	0.0152716
799.506	0.0152936
799.584	0.0154055
799.663	0.0155188
799.741	0.0156095
799.819	0.0156034
799.897	0.0157446
799.975	0.0158307
800.053	0.0158278
800.131	0.0158730
800.209	0.0161331
800.288	0.0162119
800.366	0.0161828
800.444	0.0162918
800.522	0.0163958
800.600	0.0163469
800.678	0.0164692
800.756	0.0164423
800.834	0.0163225
800.913	0.0163712
800.991	0.0163931
801.069	0.0165046
801.147	0.0163963
801.225	0.0162365
801.303	0.0162929
801.381	0.0162515
801.459	0.0161365
801.538	0.0160126
801.616	0.0161084
801.694	0.0159705
801.772	0.0159353
801.850	0.0158273
801.928	0.0155754
802.006	0.0156630
802.084	0.0155612
802.163	0.0153304
802.241	0.0151945
802.319	0.0152322
802.397	0.0152620
802.475	0.0152628
802.553	0.0152063
802.631	0.0152056
802.709	0.0150430
802.788	0.0150777
802.866	0.0151579
802.944	0.0150909
803.022	0.0151376
803.100	0.0152665
803.178	0.0152714
803.256	0.0153188
803.334	0.0152237
803.413	0.0152453
803.491	0.0153194
803.569	0.0153213
803.647	0.0153506
803.725	0.0151699
803.803	0.0153162
803.881	0.0154427
803.959	0.0154997
804.038	0.0155038
804.116	0.0154937
804.194	0.0157213
804.272	0.0158565
804.350	0.0157551
804.428	0.0158909
804.506	0.0159667
804.584	0.0159447
804.663	0.0160415
804.741	0.0162138
804.819	0.0160950
804.897	0.0160848
804.975	0.0161290
805.053	0.0162048
805.131	0.0161021
805.209	0.0160777
805.288	0.0160890
805.366	0.0161074
805.444	0.0161013
805.522	0.0159890
805.600	0.0159623
805.678	0.0159682
805.756	0.0159976
805.834	0.0159830
805.913	0.0158763
805.991	0.0158620
806.069	0.0160732
806.147	0.0159531
806.225	0.0160203
806.303	0.0159271
806.381	0.0158394
806.459	0.0160139
806.538	0.0160589
806.616	0.0159087
806.694	0.0159407
806.772	0.0158886
806.850	0.0157257
806.928	0.0156788
807.006	0.0155740
807.084	0.0156452
807.163	0.0155843
807.241	0.0155145
807.319	0.0154553
807.397	0.0153018
807.475	0.0152499
807.553	0.0151583
807.631	0.0153559
807.709	0.0153249
807.788	0.0152148
807.866	0.0154791
807.944	0.0154856
808.022	0.0154809
808.100	0.0156849
808.178	0.0157627
808.256	0.0156935
808.334	0.0158489
808.413	0.0159643
808.491	0.0159058
808.569	0.0159496
808.647	0.0159760
808.725	0.0160028
808.803	0.0160903
808.881	0.0159389
808.959	0.0159092
809.038	0.0159671
809.116	0.0158107
809.194	0.0158246
809.272	0.0156491
809.350	0.0157193
809.428	0.0157219
809.506	0.0156908
809.584	0.0155334
809.663	0.0154923
809.741	0.0154068
809.819	0.0153184
809.897	0.0152773
809.975	0.0152602
810.053	0.0152711
810.131	0.0153365
810.209	0.0154018
810.288	0.0151947
810.366	0.0153161
810.444	0.0152332
810.522	0.0153032
810.600	0.0153741
810.678	0.0154792
810.756	0.0154290
810.834	0.0154475
810.913	0.0155264
810.991	0.0153973
811.069	0.0155648
811.147	0.0155849
811.225	0.0156802
811.303	0.0157119
811.381	0.0157444
811.459	0.0158318
811.538	0.0159282
811.616	0.0156859
811.694	0.0157188
811.772	0.0158212
811.850	0.0158285
811.928	0.0158252
812.006	0.0158270
812.084	0.0157544
812.163	0.0156731
812.241	0.0157120
812.319	0.0158875
812.397	0.0158349
812.475	0.0157519
812.553	0.0157584
812.631	0.0158937
812.709	0.0159186
812.788	0.0159121
812.866	0.0157875
812.944	0.0159278
813.022	0.0161310
813.100	0.0159850
813.178	0.0159454
813.256	0.0160646
813.334	0.0162405
813.413	0.0160803
813.491	0.0161225
813.569	0.0161224
813.647	0.0161797
813.725	0.0162055
813.803	0.0161329
813.881	0.0161436
813.959	0.0161248
814.038	0.0160432
814.116	0.0160562
814.194	0.0160248
814.272	0.0159360
814.350	0.0159721
814.428	0.0158112
814.506	0.0158611
814.584	0.0159137
814.663	0.0158630
814.741	0.0157607
814.819	0.0158752
814.897	0.0158186
814.975	0.0158225
815.053	0.0156979
815.131	0.0159066
815.209	0.0157741
815.288	0.0157399
815.366	0.0158868
815.444	0.0157912
815.522	0.0158709
815.600	0.0159141
815.678	0.0157292
815.756	0.0156833
815.834	0.0157433
815.913	0.0156423
815.991	0.0156857
816.069	0.0156001
816.147	0.0156542
816.225	0.0156274
816.303	0.0155585
816.381	0.0155900
816.459	0.0154147
816.538	0.0154809
816.616	0.0156715
816.694	0.0155928
816.772	0.0157185
816.850	0.0156196
816.928	0.0156289
817.006	0.0156937
817.084	0.0156715
817.163	0.0156416
817.241	0.0158008
817.319	0.0157850
817.397	0.0158375
817.475	0.0157516
817.553	0.0158392
817.631	0.0157538
817.709	0.0157806
817.788	0.0159019
817.866	0.0159280
817.944	0.0159425
818.022	0.0158419
818.100	0.0157579
818.178	0.0157744
818.256	0.0158490
818.334	0.0158885
818.413	0.0158528
818.491	0.0158867
818.569	0.0159038
818.647	0.0157771
818.725	0.0157480
818.803	0.0158891
818.881	0.0159122
818.959	0.0158359
819.038	0.0158064
819.116	0.0159072
819.194	0.0158602
819.272	0.0157549
819.350	0.0157984
819.428	0.0158266
819.506	0.0158684
819.584	0.0156345
819.663	0.0155534
819.741	0.0157481
819.819	0.0157232
819.897	0.0157408
819.975	0.0155746
820.053	0.0156401
820.131	0.0155507
820.209	0.0156396
820.288	0.0155880
820.366	0.0155414
820.444	0.0154919
820.522	0.0157510
820.600	0.0156797
820.678	0.0156391
820.756	0.0156736
820.834	0.0157337
820.913	0.0155194
820.991	0.0157351
821.069	0.0157780
821.147	0.0156241
821.225	0.0155223
821.303	0.0155290
821.381	0.0156554
821.459	0.0159045
821.538	0.0157807
821.616	0.0158573
821.694	0.0159534
821.772	0.0158178
821.850	0.0158846
821.928	0.0159564
822.006	0.0159808
822.084	0.0161243
822.163	0.0160883
822.241	0.0160532
822.319	0.0160876
822.397	0.0160956
822.475	0.0160789
822.553	0.0161028
822.631	0.0160355
822.709	0.0160064
822.788	0.0159241
822.866	0.0158801
822.944	0.0158762
823.022	0.0156921
823.100	0.0155347
823.178	0.0154256
823.256	0.0155556
823.334	0.0155120
823.413	0.0155149
823.491	0.0154778
823.569	0.0154285
823.647	0.0154910
823.725	0.0155927
823.803	0.0154385
823.881	0.0153275
823.959	0.0156300
824.038	0.0156657
824.116	0.0156921
824.194	0.0155453
824.272	0.0155630
824.350	0.0155864
824.428	0.0156480
824.506	0.0158290
824.584	0.0158306
824.663	0.0157706
824.741	0.0157726
824.819	0.0157774
824.897	0.0158080
824.975	0.0156796
825.053	0.0157335
825.131	0.0156035
825.209	0.0155657
825.288	0.0154890
825.366	0.0155637
825.444	0.0156271
825.522	0.0155772
825.600	0.0158228
825.678	0.0156794
825.756	0.0157643
825.834	0.0158273
825.913	0.0158605
825.991	0.0158401
826.069	0.0160014
826.147	0.0158957
826.225	0.0158368
826.303	0.0158292
826.381	0.0159638
826.459	0.0161660
826.538	0.0160349
826.616	0.0160745
826.694	0.0160526
826.772	0.0159847
826.850	0.0160449
826.928	0.0160780
827.006	0.0160762
827.084	0.0161581
827.163	0.0160549
827.241	0.0160342
827.319	0.0160213
827.397	0.0160172
827.475	0.0158614
827.553	0.0159422
827.631	0.0158764
827.709	0.0157999
827.788	0.0158318
827.866	0.0158950
827.944	0.0158008
828.022	0.0157517
828.100	0.0157065
828.178	0.0158038
828.256	0.0156467
828.334	0.0158915
828.413	0.0157576
828.491	0.0157221
828.569	0.0158092
828.647	0.0157210
828.725	0.0159631
828.803	0.0158384
828.881	0.0159548
828.959	0.0159689
829.038	0.0159459
829.116	0.0159035
829.194	0.0158610
829.272	0.0159702
829.350	0.0158377
829.428	0.0157241
829.506	0.0158207
829.584	0.0156872
829.663	0.0157322
829.741	0.0157241
829.819	0.0157497
829.897	0.0157493
829.975	0.0157305
830.053	0.0156528
830.131	0.0157767
830.209	0.0159232
830.288	0.0158244
830.366	0.0159180
830.444	0.0157991
830.522	0.0157967
830.600	0.0158382
830.678	0.0158758
830.756	0.0157858
830.834	0.0160374
830.913	0.0157983
830.991	0.0159209
831.069	0.0160213
831.147	0.0159705
831.225	0.0158689
831.303	0.0159110
831.381	0.0159257
831.459	0.0157974
831.538	0.0156833
831.616	0.0157315
831.694	0.0157595
831.772	0.0157840
831.850	0.0157295
831.928	0.0156522
832.006	0.0156612
832.084	0.0156390
832.163	0.0154531
832.241	0.0155872
832.319	0.0155731
832.397	0.0156140
832.475	0.0155419
832.553	0.0155492
832.631	0.0154976
832.709	0.0156233
832.788	0.0155353
832.866	0.0156420
832.944	0.0155868
833.022	0.0156378
833.100	0.0155215
833.178	0.0156805
833.256	0.0157548
833.334	0.0157466
833.413	0.0157369
833.491	0.0157985
833.569	0.0155973
833.647	0.0156354
833.725	0.0156888
833.803	0.0158016
833.881	0.0155806
833.959	0.0158168
834.038	0.0158057
834.116	0.0156139
834.194	0.0156927
834.272	0.0156337
834.350	0.0157127
834.428	0.0157195
834.506	0.0158404
834.584	0.0159481
834.663	0.0157303
834.741	0.0157287
834.819	0.0157664
834.897	0.0157008
834.975	0.0158493
835.053	0.0157660
835.131	0.0155712
835.209	0.0157210
835.288	0.0157223
835.366	0.0156190
835.444	0.0155663
835.522	0.0155363
835.600	0.0156475
835.678	0.0156281
835.756	0.0156292
835.834	0.0157193
835.913	0.0157536
835.991	0.0157179
836.069	0.0156021
836.147	0.0157603
836.225	0.0157748
836.303	0.0157714
836.381	0.0157353
836.459	0.0157806
836.538	0.0156991
836.616	0.0158730
836.694	0.0158120
836.772	0.0157151
836.850	0.0157088
836.928	0.0158508
837.006	0.0159269
837.084	0.0159888
837.163	0.0158888
837.241	0.0160698
837.319	0.0160143
837.397	0.0159109
837.475	0.0161996
837.553	0.0159836
837.631	0.0160804
837.709	0.0162105
837.788	0.0163013
837.866	0.0161371
837.944	0.0161081
838.022	0.0160931
838.100	0.0161488
838.178	0.0161726
838.256	0.0159319
838.334	0.0159763
838.413	0.0159415
838.491	0.0158914
838.569	0.0157673
838.647	0.0158996
838.725	0.0158627
838.803	0.0155473
838.881	0.0155263
838.959	0.0157090
839.038	0.0156586
839.116	0.0155956
839.194	0.0155125
839.272	0.0155966
839.350	0.0154019
839.428	0.0155251
839.506	0.0156721
839.584	0.0156232
839.663	0.0154974
839.741	0.0157154
839.819	0.0155774
839.897	0.0155340
839.975	0.0156685
840.053	0.0153806
840.131	0.0155023
840.209	0.0153201
840.288	0.0155076
840.366	0.0155640
840.444	0.0154630
840.522	0.0155643
840.600	0.0154797
840.678	0.0154633
840.756	0.0155374
840.834	0.0156520
840.913	0.0155914
840.991	0.0156253
841.069	0.0156892
841.147	0.0157392
841.225	0.0157124
841.303	0.0157154
841.381	0.0156418
841.459	0.0157258
841.538	0.0157568
841.616	0.0159454
841.694	0.0158138
841.772	0.0158376
841.850	0.0159216
841.928	0.0159518
842.006	0.0159463
842.084	0.0160011
842.163	0.0160223
842.241	0.0159715
842.319	0.0159453
842.397	0.0159731
842.475	0.0159943
842.553	0.0160878
842.631	0.0160765
842.709	0.0160207
842.788	0.0159769
842.866	0.0159541
842.944	0.0159375
843.022	0.0159442
843.100	0.0158773
843.178	0.0160065
843.256	0.0159908
843.334	0.0159135
843.413	0.0159044
843.491	0.0156506
843.569	0.0157016
843.647	0.0156724
843.725	0.0157431
843.803	0.0157028
843.881	0.0156767
843.959	0.0155202
844.038	0.0154392
844.116	0.0153786
844.194	0.0154381
844.272	0.0153849
844.350	0.0153475
844.428	0.0152686
844.506	0.0154156
844.584	0.0153723
844.663	0.0154116
844.741	0.0154818
844.819	0.0154195
844.897	0.0154325
844.975	0.0154839
845.053	0.0155153
845.131	0.0155576
845.209	0.0155741
845.288	0.0156988
845.366	0.0156695
845.444	0.0154696
845.522	0.0156907
845.600	0.0157077
845.678	0.0155909
845.756	0.0157518
845.834	0.0156071
845.913	0.0156619
845.991	0.0157432
846.069	0.0156772
846.147	0.0158445
846.225	0.0157497
846.303	0.0158102
846.381	0.0160191
846.459	0.0159028
846.538	0.0158573
846.616	0.0159430
846.694	0.0159846
846.772	0.0159729
846.850	0.0160770
846.928	0.0161349
847.006	0.0160174
847.084	0.0159942
847.163	0.0160542
847.241	0.0159994
847.319	0.0158928
847.397	0.0159471
847.475	0.0159434
847.553	0.0158679
847.631	0.0158918
847.709	0.0157170
847.788	0.0157418
847.866	0.0156972
847.944	0.0157008
848.022	0.0157848
848.100	0.0156760
848.178	0.0157389
848.256	0.0156769
848.334	0.0157163
848.413	0.0156935
848.491	0.0156771
848.569	0.0157072
848.647	0.0158424
848.725	0.0157759
848.803	0.0157716
848.881	0.0156185
848.959	0.0157755
849.038	0.0157162
849.116	0.0157260
849.194	0.0156693
849.272	0.0157761
849.350	0.0157687
849.428	0.0157523
849.506	0.0157539
849.584	0.0158158
849.663	0.0156444
849.741	0.0156617
849.819	0.0157227
849.897	0.0158130
849.975	0.0158002
850.053	0.0156734
850.131	0.0156865
850.209	0.0156789
850.288	0.0157909
850.366	0.0156635
850.444	0.0157972
850.522	0.0157568
850.600	0.0159133
850.678	0.0158557
850.756	0.0158211
850.834	0.0159383
850.913	0.0159259
850.991	0.0158253
851.069	0.0158932
851.147	0.0158324
851.225	0.0158803
851.303	0.0158707
851.381	0.0158026
851.459	0.0158489
851.538	0.0157285
851.616	0.0158194
851.694	0.0156149
851.772	0.0156584
851.850	0.0157394
851.928	0.0157945
852.006	0.0156560
852.084	0.0156575
852.163	0.0157158
852.241	0.0156038
852.319	0.0157597
852.397	0.0156212
852.475	0.0156069
852.553	0.0156957
852.631	0.0156849
852.709	0.0154392
852.788	0.0156092
852.866	0.0156703
852.944	0.0155134
853.022	0.0154713
853.100	0.0156108
853.178	0.0157626
853.256	0.0155246
853.334	0.0156031
853.413	0.0156332
853.491	0.0154828
853.569	0.0156242
853.647	0.0157808
853.725	0.0157442
853.803	0.0156422
853.881	0.0156477
853.959	0.0157767
854.038	0.0156756
854.116	0.0158510
854.194	0.0158177
854.272	0.0159226
854.350	0.0158471
854.428	0.0159226
854.506	0.0158619
854.584	0.0158898
854.663	0.0159962
854.741	0.0159035
854.819	0.0159518
854.897	0.0158382
854.975	0.0158590
855.053	0.0158626
855.131	0.0158009
855.209	0.0160114
855.288	0.0158656
855.366	0.0158488
855.444	0.0158665
855.522	0.0158485
855.600	0.0159285
855.678	0.0158193
855.756	0.0157676
855.834	0.0159201
855.913	0.0159672
855.991	0.0159508
856.069	0.0159881
856.147	0.0160582
856.225	0.0160511
856.303	0.0159443
856.381	0.0160645
856.459	0.0158875
856.538	0.0159349
856.616	0.0160091
856.694	0.0159399
856.772	0.0159998
856.850	0.0158571
856.928	0.0158867
857.006	0.0158842
857.084	0.0158050
857.163	0.0159753
857.241	0.0159044
857.319	0.0158820
857.397	0.0159534
857.475	0.0158714
857.553	0.0158372
857.631	0.0158209
857.709	0.0158672
857.788	0.0158441
857.866	0.0158382
857.944	0.0159359
858.022	0.0158225
858.100	0.0158858
858.178	0.0158821
858.256	0.0157565
858.334	0.0158370
858.413	0.0157853
858.491	0.0157037
858.569	0.0158401
858.647	0.0157154
858.725	0.0155994
858.803	0.0157937
858.881	0.0157661
858.959	0.0158549
859.038	0.0158401
859.116	0.0158328
859.194	0.0158048
859.272	0.0157520
859.350	0.0158676
859.428	0.0158638
859.506	0.0159461
859.584	0.0158950
859.663	0.0160008
859.741	0.0158273
859.819	0.0157913
859.897	0.0160315
859.975	0.0159853
860.053	0.0159386
860.131	0.0158905
860.209	0.0157461
860.288	0.0157144
860.366	0.0158782
860.444	0.0159080
860.522	0.0157751
860.600	0.0158307
860.678	0.0158745
860.756	0.0158139
860.834	0.0159213
860.913	0.0158749
860.991	0.0156728
861.069	0.0157644
861.147	0.0158981
861.225	0.0158629
861.303	0.0158890
861.381	0.0158971
861.459	0.0157853
861.538	0.0159353
861.616	0.0157227
861.694	0.0157619
861.772	0.0159028
861.850	0.0156602
861.928	0.0157407
862.006	0.0158782
862.084	0.0157280
862.163	0.0157700
862.241	0.0156246
862.319	0.0156929
862.397	0.0156184
862.475	0.0157684
862.553	0.0156702
862.631	0.0156613
862.709	0.0156979
862.788	0.0156690
862.866	0.0156466
862.944	0.0156925
863.022	0.0157819
863.100	0.0155868
863.178	0.0156589
863.256	0.0158636
863.334	0.0156658
863.413	0.0157889
863.491	0.0159063
863.569	0.0157318
863.647	0.0157070
863.725	0.0157586
863.803	0.0158434
863.881	0.0156433
863.959	0.0157069
864.038	0.0157182
864.116	0.0157066
864.194	0.0156306
864.272	0.0156956
864.350	0.0155476
864.428	0.0154059
864.506	0.0154899
864.584	0.0156145
864.663	0.0155215
864.741	0.0155454
864.819	0.0156137
864.897	0.0155695
864.975	0.0155106
865.053	0.0155673
865.131	0.0156170
865.209	0.0156949
865.288	0.0156233
865.366	0.0156169
865.444	0.0157761
865.522	0.0156080
865.600	0.0156457
865.678	0.0155521
865.756	0.0156967
865.834	0.0157400
865.913	0.0155767
865.991	0.0155777
866.069	0.0155739
866.147	0.0157404
866.225	0.0155547
866.303	0.0156087
866.381	0.0156948
866.459	0.0155237
866.538	0.0155965
866.616	0.0158488
866.694	0.0156952
866.772	0.0157401
866.850	0.0157250
866.928	0.0157537
867.006	0.0156592
867.084	0.0158078
867.163	0.0157674
867.241	0.0157652
867.319	0.0159250
867.397	0.0158677
867.475	0.0157213
867.553	0.0158028
867.631	0.0157398
867.709	0.0157995
867.788	0.0158167
867.866	0.0157792
867.944	0.0158789
868.022	0.0159229
868.100	0.0158879
868.178	0.0157382
868.256	0.0158506
868.334	0.0158463
868.413	0.0158949
868.491	0.0158321
868.569	0.0157557
868.647	0.0157458
868.725	0.0158128
868.803	0.0157809
868.881	0.0158420
868.959	0.0156550
869.038	0.0157900
869.116	0.0156728
869.194	0.0156784
869.272	0.0155518
869.350	0.0155579
869.428	0.0156484
869.506	0.0156451
869.584	0.0155766
869.663	0.0156519
869.741	0.0156895
869.819	0.0155083
869.897	0.0155011
869.975	0.0156319
870.053	0.0156429
870.131	0.0155624
870.209	0.0156843
870.288	0.0155579
870.366	0.0156291
870.444	0.0156386
870.522	0.0157246
870.600	0.0156918
870.678	0.0156663
870.756	0.0156017
870.834	0.0157732
870.913	0.0157433
870.991	0.0157291
871.069	0.0156490
871.147	0.0156849
871.225	0.0158304
871.303	0.0158270
871.381	0.0157719
871.459	0.0157310
871.538	0.0157815
871.616	0.0157862
871.694	0.0157745
871.772	0.0158573
871.850	0.0159315
871.928	0.0159759
872.006	0.0157599
872.084	0.0157511
872.163	0.0158350
872.241	0.0159224
872.319	0.0159922
872.397	0.0159149
872.475	0.0158733
872.553	0.0159048
872.631	0.0159419
872.709	0.0159559
872.788	0.0160521
872.866	0.0159608
872.944	0.0159445
873.022	0.0159789
873.100	0.0159347
873.178	0.0159435
873.256	0.0157342
873.334	0.0159898
873.413	0.0159048
873.491	0.0159303
873.569	0.0158230
873.647	0.0159800
873.725	0.0159221
873.803	0.0158867
873.881	0.0157138
873.959	0.0157370
874.038	0.0157668
874.116	0.0158326
874.194	0.0157095
874.272	0.0158656
874.350	0.0157124
874.428	0.0157233
874.506	0.0158821
874.584	0.0156741
874.663	0.0157362
874.741	0.0157765
874.819	0.0155753
874.897	0.0155111
874.975	0.0156089
875.053	0.0156959
875.131	0.0158758
875.209	0.0156271
875.288	0.0156441
875.366	0.0157058
875.444	0.0157124
875.522	0.0157784
875.600	0.0157774
875.678	0.0158167
875.756	0.0157687
875.834	0.0158566
875.913	0.0159057
875.991	0.0159443
876.069	0.0159904
876.147	0.0158495
876.225	0.0158447
876.303	0.0161018
876.381	0.0159584
876.459	0.0160646
876.538	0.0159465
876.616	0.0159244
876.694	0.0157678
876.772	0.0159088
876.850	0.0159372
876.928	0.0158689
877.006	0.0158648
877.084	0.0158747
877.163	0.0158443
877.241	0.0157401
877.319	0.0156364
877.397	0.0157842
877.475	0.0157759
877.553	0.0157127
877.631	0.0156646
877.709	0.0155333
877.788	0.0157172
877.866	0.0156516
877.944	0.0156095
878.022	0.0158566
878.100	0.0159198
878.178	0.0157468
878.256	0.0156371
878.334	0.0158577
878.413	0.0156994
878.491	0.0158321
878.569	0.0157634
878.647	0.0156915
878.725	0.0158455
878.803	0.0158148
878.881	0.0158613
878.959	0.0159039
879.038	0.0159903
879.116	0.0159518
879.194	0.0158214
879.272	0.0159813
879.350	0.0159875
879.428	0.0159668
879.506	0.0160059
879.584	0.0160011
879.663	0.0158302
879.741	0.0159605
879.819	0.0159229
879.897	0.0159153
879.975	0.0158877
880.053	0.0157773
880.131	0.0158061
880.209	0.0158010
880.288	0.0158902
880.366	0.0157436
880.444	0.0157751
880.522	0.0157658
880.600	0.0157906
880.678	0.0157556
880.756	0.0156866
880.834	0.0157111
880.913	0.0156079
880.991	0.0157309
881.069	0.0156199
881.147	0.0155661
881.225	0.0155767
881.303	0.0156227
881.381	0.0156051
881.459	0.0156538
881.538	0.0157808
881.616	0.0157251
881.694	0.0156497
881.772	0.0156824
881.850	0.0158752
881.928	0.0157246
882.006	0.0156326
882.084	0.0158129
882.163	0.0157571
882.241	0.0157954
882.319	0.0158106
882.397	0.0157515
882.475	0.0157526
882.553	0.0157467
882.631	0.0156811
882.709	0.0158874
882.788	0.0157809
882.866	0.0157557
882.944	0.0157980
883.022	0.0157670
883.100	0.0159585
883.178	0.0159338
883.256	0.0158277
883.334	0.0159462
883.413	0.0160244
883.491	0.0160902
883.569	0.0161563
883.647	0.0161420
883.725	0.0161235
883.803	0.0160773
883.881	0.0161842
883.959	0.0160482
884.038	0.0161192
884.116	0.0161491
884.194	0.0161812
884.272	0.0161755
884.350	0.0162035
884.428	0.0162341
884.506	0.0161694
884.584	0.0161850
884.663	0.0160552
884.741	0.0160260
884.819	0.0160114
884.897	0.0160291
884.975	0.0159431
885.053	0.0159991
885.131	0.0158158
885.209	0.0156911
885.288	0.0157507
885.366	0.0156448
885.444	0.0156963
885.522	0.0156542
885.600	0.0156471
885.678	0.0155291
885.756	0.0155181
885.834	0.0156553
885.913	0.0157012
885.991	0.0155696
886.069	0.0155891
886.147	0.0157266
886.225	0.0156676
886.303	0.0156369
886.381	0.0155325
886.459	0.0155544
886.538	0.0156052
886.616	0.0156007
886.694	0.0156205
886.772	0.0156941
886.850	0.0156325
886.928	0.0156580
887.006	0.0156895
887.084	0.0156600
887.163	0.0156377
887.241	0.0156680
887.319	0.0157167
887.397	0.0157535
887.475	0.0157861
887.553	0.0157747
887.631	0.0156692
887.709	0.0156789
887.788	0.0157222
887.866	0.0155994
887.944	0.0158018
888.022	0.0157287
888.100	0.0157542
888.178	0.0156782
888.256	0.0158264
888.334	0.0156698
888.413	0.0157697
888.491	0.0156373
888.569	0.0157157
888.647	0.0156926
888.725	0.0157155
888.803	0.0157428
888.881	0.0156121
888.959	0.0157062
889.038	0.0158044
889.116	0.0157864
889.194	0.0158164
889.272	0.0157817
889.350	0.0156379
889.428	0.0157380
889.506	0.0158408
889.584	0.0156956
889.663	0.0156940
889.741	0.0157596
889.819	0.0157056
889.897	0.0156187
889.975	0.0157587
890.053	0.0155598
890.131	0.0155353
890.209	0.0154348
890.288	0.0155466
890.366	0.0153684
890.444	0.0156045
890.522	0.0155276
890.600	0.0154718
890.678	0.0155062
890.756	0.0155148
890.834	0.0156956
890.913	0.0156850
890.991	0.0156692
891.069	0.0156858
891.147	0.0157748
891.225	0.0156587
891.303	0.0157214
891.381	0.0156512
891.459	0.0158580
891.538	0.0158343
891.616	0.0157127
891.694	0.0156718
891.772	0.0158952
891.850	0.0158916
891.928	0.0156429
892.006	0.0157717
892.084	0.0157651
892.163	0.0159765
892.241	0.0158965
892.319	0.0158405
892.397	0.0159339
892.475	0.0159676
892.553	0.0158147
892.631	0.0158343
892.709	0.0157988
892.788	0.0158932
892.866	0.0159241
892.944	0.0158414
893.022	0.0159853
893.100	0.0158649
893.178	0.0158013
893.256	0.0157969
893.334	0.0157224
893.413	0.0158121
893.491	0.0158504
893.569	0.0159016
893.647	0.0158315
893.725	0.0156316
893.803	0.0156390
893.881	0.0155828
893.959	0.0154962
894.038	0.0156079
894.116	0.0155756
894.194	0.0156483
894.272	0.0154700
894.350	0.0156347
894.428	0.0154604
894.506	0.0155293
894.584	0.0155784
894.663	0.0155748
894.741	0.0154458
894.819	0.0156299
894.897	0.0157060
894.975	0.0158276
895.053	0.0158805
895.131	0.0157381
895.209	0.0157924
895.288	0.0157115
895.366	0.0158153
895.444	0.0159930
895.522	0.0159780
895.600	0.0160158
895.678	0.0158678
895.756	0.0159409
895.834	0.0159345
895.913	0.0159950
895.991	0.0158920
896.069	0.0157802
896.147	0.0158655
896.225	0.0159464
896.303	0.0158424
896.381	0.0158991
896.459	0.0158286
896.538	0.0157949
896.616	0.0157025
896.694	0.0159225
896.772	0.0157155
896.850	0.0157626
896.928	0.0156969
897.006	0.0156052
897.084	0.0156442
897.163	0.0156574
897.241	0.0156340
897.319	0.0156142
897.397	0.0157287
897.475	0.0157399
897.553	0.0156509
897.631	0.0157129
897.709	0.0156215
897.788	0.0156496
897.866	0.0156308
897.944	0.0156716
898.022	0.0156744
898.100	0.0158456
898.178	0.0156648
898.256	0.0155621
898.334	0.0157538
898.413	0.0156889
898.491	0.0156268
898.569	0.0156523
898.647	0.0156107
898.725	0.0156944
898.803	0.0157402
898.881	0.0157652
898.959	0.0157143
899.038	0.0157755
899.116	0.0156895
899.194	0.0159173
899.272	0.0156465
899.350	0.0157331
899.428	0.0157739
899.506	0.0158377
899.584	0.0157808
899.663	0.0158474
899.741	0.0157873
899.819	0.0157062
899.897	0.0158023
899.975	0.0157927
900.053	0.0157442
900.131	0.0157880
900.209	0.0158309
900.288	0.0158633
900.366	0.0157076
900.444	0.0156943
900.522	0.0156766
900.600	0.0157648
900.678	0.0156613
900.756	0.0157359
900.834	0.0156856
900.913	0.0157487
900.991	0.0154681
901.069	0.0156533
901.147	0.0156184
901.225	0.0156782
901.303	0.0155196
901.381	0.0157108
901.459	0.0156523
901.538	0.0157071
901.616	0.0156783
901.694	0.0157932
901.772	0.0157339
901.850	0.0157021
901.928	0.0157739
902.006	0.0155805
902.084	0.0157964
902.163	0.0157327
902.241	0.0157688
902.319	0.0158367
902.397	0.0158249
902.475	0.0158451
902.553	0.0160445
902.631	0.0158608
902.709	0.0159838
902.788	0.0158943
902.866	0.0158225
902.944	0.0158223
903.022	0.0158613
903.100	0.0158154
903.178	0.0157341
903.256	0.0158644
903.334	0.0157507
903.413	0.0156559
903.491	0.0158392
903.569	0.0159399
903.647	0.0157925
903.725	0.0156972
903.803	0.0157586
903.881	0.0157524
903.959	0.0157684
904.038	0.0157986
904.116	0.0156072
904.194	0.0156554
904.272	0.0156391
904.350	0.0158067
904.428	0.0156885
904.506	0.0157327
904.584	0.0156403
904.663	0.0156342
904.741	0.0156091
904.819	0.0155747
904.897	0.0156998
904.975	0.0156330
905.053	0.0156021
905.131	0.0155804
905.209	0.0156409
905.288	0.0156644
905.366	0.0156148
905.444	0.0155575
905.522	0.0156165
905.600	0.0157296
905.678	0.0158279
905.756	0.0156338
905.834	0.0156268
905.913	0.0157556
905.991	0.0157088
906.069	0.0157559
906.147	0.0157912
906.225	0.0157320
906.303	0.0158240
906.381	0.0157672
906.459	0.0156786
906.538	0.0156979
906.616	0.0155218
906.694	0.0156992
906.772	0.0155759
906.850	0.0156976
906.928	0.0157743
907.006	0.0157185
907.084	0.0157334
907.163	0.0156731
907.241	0.0156009
907.319	0.0157769
907.397	0.0156922
907.475	0.0156441
907.553	0.0157306
907.631	0.0158459
907.709	0.0158076
907.788	0.0156511
907.866	0.0158300
907.944	0.0157296
908.022	0.0156088
908.100	0.0155136
908.178	0.0157735
908.256	0.0155137
908.334	0.0155921
908.413	0.0156437
908.491	0.0156412
908.569	0.0155770
908.647	0.0155206
908.725	0.0155865
908.803	0.0156397
908.881	0.0156205
908.959	0.0156995
909.038	0.0157273
909.116	0.0156411
909.194	0.0155193
909.272	0.0156998
909.350	0.0157459
909.428	0.0156318
909.506	0.0157335
909.584	0.0156571
909.663	0.0157267
909.741	0.0156423
909.819	0.0156004
909.897	0.0156350
909.975	0.0156940
910.053	0.0156824
910.131	0.0156998
910.209	0.0155533
910.288	0.0156104
910.366	0.0156997
910.444	0.0155697
910.522	0.0156410
910.600	0.0156927
910.678	0.0155674
910.756	0.0155341
910.834	0.0157527
910.913	0.0156798
910.991	0.0157127
911.069	0.0157461
911.147	0.0156997
911.225	0.0157189
911.303	0.0156284
911.381	0.0158041
911.459	0.0158769
911.538	0.0158601
911.616	0.0159262
911.694	0.0159203
911.772	0.0159489
911.850	0.0159164
911.928	0.0159177
912.006	0.0160310
912.084	0.0159290
912.163	0.0159652
912.241	0.0159467
912.319	0.0159052
912.397	0.0157137
912.475	0.0158292
912.553	0.0159093
912.631	0.0159514
912.709	0.0159103
912.788	0.0156553
912.866	0.0156664
912.944	0.0158350
913.022	0.0158025
913.100	0.0157843
913.178	0.0157282
913.256	0.0156351
913.334	0.0157262
913.413	0.0157769
913.491	0.0155517
913.569	0.0157150
913.647	0.0157842
913.725	0.0156582
913.803	0.0156269
913.881	0.0156998
913.959	0.0157427
914.038	0.0155880
914.116	0.0156503
914.194	0.0155505
914.272	0.0155684
914.350	0.0157211
914.428	0.0157750
914.506	0.0157619
914.584	0.0155974
914.663	0.0156310
914.741	0.0156546
914.819	0.0155430
914.897	0.0156024
914.975	0.0158189
915.053	0.0156660
915.131	0.0157424
915.209	0.0156916
915.288	0.0155170
915.366	0.0157042
915.444	0.0158244
915.522	0.0156205
915.600	0.0157560
915.678	0.0158263
915.756	0.0156717
915.834	0.0157033
915.913	0.0158959
915.991	0.0157867
916.069	0.0157374
916.147	0.0158401
916.225	0.0159348
916.303	0.0159927
916.381	0.0158118
916.459	0.0159682
916.538	0.0158016
916.616	0.0157717
916.694	0.0159757
916.772	0.0158345
916.850	0.0157979
916.928	0.0158621
917.006	0.0159969
917.084	0.0159087
917.163	0.0160029
917.241	0.0159710
917.319	0.0159437
917.397	0.0159354
917.475	0.0159040
917.553	0.0159399
917.631	0.0159306
917.709	0.0160466
917.788	0.0160583
917.866	0.0159434
917.944	0.0159966
918.022	0.0158929
918.100	0.0159679
918.178	0.0160012
918.256	0.0159061
918.334	0.0158571
918.413	0.0158756
918.491	0.0158903
918.569	0.0159150
918.647	0.0155739
918.725	0.0156403
918.803	0.0156493
918.881	0.0157964
918.959	0.0157447
919.038	0.0156606
919.116	0.0157535
919.194	0.0157792
919.272	0.0156484
919.350	0.0156046
919.428	0.0157463
919.506	0.0158258
919.584	0.0157829
919.663	0.0157790
919.741	0.0158857
919.819	0.0157681
919.897	0.0156507
