05/20/2022	21:14:09	Ver.	4.1	UNKNOWN
Optical Delay	599.975067	Delta X		0.078125	Sweeps	1	Scan Rate	0/0
Coordinates	Axis 1	NaN	Axis 2	NaN	Axis 3	NaN	Axis 4	NaN	Axis 5	NaN	Axis 6	0.000000
TX Power	0.000000	RX Power	0.000000

599.975	0.0158281
600.053	0.0159591
600.131	0.0160179
600.209	0.0158522
600.288	0.0158530
600.366	0.0159135
600.444	0.0159634
600.522	0.0158506
600.600	0.0158071
600.678	0.0159602
600.756	0.0159727
600.834	0.0158936
600.913	0.0159411
600.991	0.0159429
601.069	0.0159280
601.147	0.0158894
601.225	0.0158860
601.303	0.0158992
601.381	0.0160042
601.459	0.0159612
601.538	0.0160257
601.616	0.0158572
601.694	0.0158281
601.772	0.0158741
601.850	0.0158385
601.928	0.0157697
602.006	0.0160439
602.084	0.0159126
602.163	0.0160155
602.241	0.0159884
602.319	0.0159460
602.397	0.0158882
602.475	0.0158556
602.553	0.0157861
602.631	0.0157800
602.709	0.0157315
602.788	0.0159859
602.866	0.0158752
602.944	0.0158083
603.022	0.0159019
603.100	0.0157737
603.178	0.0157969
603.256	0.0157928
603.334	0.0158359
603.413	0.0158115
603.491	0.0157227
603.569	0.0158659
603.647	0.0158407
603.725	0.0157736
603.803	0.0158358
603.881	0.0157397
603.959	0.0158714
604.038	0.0156985
604.116	0.0157203
604.194	0.0157967
604.272	0.0156442
604.350	0.0155455
604.428	0.0158669
604.506	0.0157142
604.584	0.0157224
604.663	0.0157381
604.741	0.0156952
604.819	0.0158667
604.897	0.0157899
604.975	0.0157896
605.053	0.0157410
605.131	0.0158852
605.209	0.0157552
605.288	0.0157027
605.366	0.0158382
605.444	0.0156757
605.522	0.0157954
605.600	0.0157795
605.678	0.0156583
605.756	0.0158353
605.834	0.0157342
605.913	0.0155885
605.991	0.0157616
606.069	0.0159621
606.147	0.0157702
606.225	0.0158826
606.303	0.0157601
606.381	0.0158418
606.459	0.0158558
606.538	0.0158131
606.616	0.0159035
606.694	0.0158312
606.772	0.0158339
606.850	0.0158556
606.928	0.0159064
607.006	0.0157959
607.084	0.0158325
607.163	0.0159698
607.241	0.0158273
607.319	0.0157520
607.397	0.0159325
607.475	0.0159622
607.553	0.0158350
607.631	0.0159672
607.709	0.0159406
607.788	0.0159006
607.866	0.0158614
607.944	0.0159221
608.022	0.0159572
608.100	0.0159858
608.178	0.0158829
608.256	0.0159351
608.334	0.0158562
608.413	0.0158932
608.491	0.0159554
608.569	0.0159149
608.647	0.0159348
608.725	0.0158760
608.803	0.0159888
608.881	0.0159569
608.959	0.0158402
609.038	0.0158876
609.116	0.0159016
609.194	0.0160012
609.272	0.0159944
609.350	0.0158716
609.428	0.0159061
609.506	0.0159973
609.584	0.0157986
609.663	0.0159963
609.741	0.0158643
609.819	0.0159132
609.897	0.0158987
609.975	0.0160139
610.053	0.0157609
610.131	0.0156725
610.209	0.0157962
610.288	0.0156361
610.366	0.0156239
610.444	0.0156814
610.522	0.0157496
610.600	0.0157316
610.678	0.0156217
610.756	0.0155424
610.834	0.0155999
610.913	0.0156152
610.991	0.0156054
611.069	0.0155394
611.147	0.0155556
611.225	0.0155448
611.303	0.0154768
611.381	0.0156553
611.459	0.0156869
611.538	0.0156581
611.616	0.0155226
611.694	0.0156363
611.772	0.0154809
611.850	0.0156552
611.928	0.0154832
612.006	0.0155594
612.084	0.0156404
612.163	0.0157132
612.241	0.0156454
612.319	0.0156951
612.397	0.0155839
612.475	0.0155963
612.553	0.0155767
612.631	0.0155443
612.709	0.0156856
612.788	0.0155548
612.866	0.0155941
612.944	0.0155180
613.022	0.0156361
613.100	0.0157091
613.178	0.0157216
613.256	0.0156185
613.334	0.0154484
613.413	0.0156573
613.491	0.0155968
613.569	0.0156340
613.647	0.0156175
613.725	0.0156379
613.803	0.0155415
613.881	0.0155248
613.959	0.0155972
614.038	0.0156133
614.116	0.0156274
614.194	0.0155456
614.272	0.0155855
614.350	0.0155419
614.428	0.0156975
614.506	0.0155630
614.584	0.0156236
614.663	0.0156470
614.741	0.0154997
614.819	0.0155214
614.897	0.0154652
614.975	0.0156331
615.053	0.0154699
615.131	0.0155784
615.209	0.0155526
615.288	0.0155700
615.366	0.0156276
615.444	0.0155112
615.522	0.0155130
615.600	0.0155297
615.678	0.0154954
615.756	0.0155009
615.834	0.0155486
615.913	0.0154519
615.991	0.0155361
616.069	0.0156659
616.147	0.0155087
616.225	0.0156477
616.303	0.0156229
616.381	0.0155026
616.459	0.0155978
616.538	0.0156614
616.616	0.0156400
616.694	0.0157748
616.772	0.0156285
616.850	0.0155541
616.928	0.0157288
617.006	0.0157965
617.084	0.0156480
617.163	0.0157529
617.241	0.0156423
617.319	0.0157146
617.397	0.0159153
617.475	0.0157697
617.553	0.0156751
617.631	0.0157845
617.709	0.0158186
617.788	0.0156857
617.866	0.0157731
617.944	0.0157971
618.022	0.0158064
618.100	0.0158315
618.178	0.0156876
618.256	0.0159510
618.334	0.0159052
618.413	0.0157729
618.491	0.0157565
618.569	0.0157520
618.647	0.0157922
618.725	0.0157805
618.803	0.0159319
618.881	0.0157184
618.959	0.0157311
619.038	0.0157707
619.116	0.0158299
619.194	0.0157981
619.272	0.0157333
619.350	0.0156831
619.428	0.0157401
619.506	0.0157085
619.584	0.0158083
619.663	0.0157709
619.741	0.0156918
619.819	0.0157559
619.897	0.0157685
619.975	0.0156011
620.053	0.0155354
620.131	0.0156339
620.209	0.0158064
620.288	0.0157166
620.366	0.0157761
620.444	0.0156686
620.522	0.0157135
620.600	0.0157483
620.678	0.0156662
620.756	0.0157595
620.834	0.0156047
620.913	0.0156584
620.991	0.0157831
621.069	0.0157313
621.147	0.0157536
621.225	0.0157185
621.303	0.0156451
621.381	0.0157812
621.459	0.0158105
621.538	0.0157582
621.616	0.0157234
621.694	0.0156322
621.772	0.0157900
621.850	0.0157533
621.928	0.0157690
622.006	0.0158566
622.084	0.0158269
622.163	0.0159539
622.241	0.0158675
622.319	0.0158649
622.397	0.0159020
622.475	0.0158684
622.553	0.0159512
622.631	0.0159615
622.709	0.0160021
622.788	0.0157826
622.866	0.0158458
622.944	0.0159157
623.022	0.0158042
623.100	0.0158609
623.178	0.0158936
623.256	0.0158806
623.334	0.0160945
623.413	0.0158383
623.491	0.0158620
623.569	0.0157964
623.647	0.0157299
623.725	0.0159023
623.803	0.0159613
623.881	0.0160009
623.959	0.0158858
624.038	0.0157862
624.116	0.0158005
624.194	0.0159683
624.272	0.0159216
624.350	0.0160646
624.428	0.0160226
624.506	0.0159336
624.584	0.0159758
624.663	0.0159615
624.741	0.0158749
624.819	0.0159084
624.897	0.0161806
624.975	0.0161449
625.053	0.0160120
625.131	0.0161761
625.209	0.0160477
625.288	0.0159106
625.366	0.0160382
625.444	0.0158849
625.522	0.0159843
625.600	0.0160960
625.678	0.0160085
625.756	0.0159898
625.834	0.0159742
625.913	0.0159192
625.991	0.0160381
626.069	0.0159940
626.147	0.0159617
626.225	0.0160867
626.303	0.0159241
626.381	0.0159299
626.459	0.0159102
626.538	0.0158753
626.616	0.0159449
626.694	0.0158421
626.772	0.0160045
626.850	0.0159012
626.928	0.0159699
627.006	0.0160275
627.084	0.0159315
627.163	0.0158869
627.241	0.0158437
627.319	0.0160543
627.397	0.0159350
627.475	0.0160990
627.553	0.0159316
627.631	0.0159097
627.709	0.0160003
627.788	0.0160499
627.866	0.0158973
627.944	0.0159907
628.022	0.0159782
628.100	0.0160390
628.178	0.0159570
628.256	0.0158826
628.334	0.0159658
628.413	0.0158675
628.491	0.0158162
628.569	0.0157911
628.647	0.0158836
628.725	0.0157191
628.803	0.0157920
628.881	0.0158817
628.959	0.0159052
629.038	0.0158089
629.116	0.0158388
629.194	0.0158566
629.272	0.0156946
629.350	0.0158512
629.428	0.0159284
629.506	0.0158443
629.584	0.0157646
629.663	0.0159051
629.741	0.0158669
629.819	0.0158037
629.897	0.0158479
629.975	0.0159211
630.053	0.0158865
630.131	0.0158512
630.209	0.0158272
630.288	0.0158226
630.366	0.0157034
630.444	0.0156861
630.522	0.0157844
630.600	0.0157706
630.678	0.0156812
630.756	0.0156552
630.834	0.0156917
630.913	0.0156955
630.991	0.0155589
631.069	0.0155051
631.147	0.0156326
631.225	0.0156003
631.303	0.0155341
631.381	0.0156461
631.459	0.0157674
631.538	0.0156699
631.616	0.0156718
631.694	0.0158042
631.772	0.0158237
631.850	0.0157282
631.928	0.0157178
632.006	0.0157802
632.084	0.0156807
632.163	0.0156934
632.241	0.0156823
632.319	0.0157049
632.397	0.0157700
632.475	0.0155157
632.553	0.0157143
632.631	0.0156577
632.709	0.0157609
632.788	0.0155984
632.866	0.0156271
632.944	0.0155621
633.022	0.0156815
633.100	0.0158175
633.178	0.0156406
633.256	0.0153651
633.334	0.0156869
633.413	0.0157574
633.491	0.0155996
633.569	0.0157862
633.647	0.0156036
633.725	0.0155088
633.803	0.0155648
633.881	0.0156551
633.959	0.0155273
634.038	0.0155579
634.116	0.0155424
634.194	0.0155057
634.272	0.0156430
634.350	0.0155547
634.428	0.0156104
634.506	0.0154876
634.584	0.0155178
634.663	0.0155904
634.741	0.0155762
634.819	0.0155853
634.897	0.0155975
634.975	0.0156552
635.053	0.0156200
635.131	0.0156470
635.209	0.0155016
635.288	0.0157157
635.366	0.0155767
635.444	0.0157346
635.522	0.0157012
635.600	0.0157809
635.678	0.0157745
635.756	0.0156607
635.834	0.0156981
635.913	0.0157745
635.991	0.0157781
636.069	0.0156327
636.147	0.0157257
636.225	0.0157635
636.303	0.0157361
636.381	0.0156138
636.459	0.0156396
636.538	0.0156233
636.616	0.0156116
636.694	0.0154911
636.772	0.0154941
636.850	0.0156532
636.928	0.0155472
637.006	0.0155363
637.084	0.0156669
637.163	0.0155754
637.241	0.0154948
637.319	0.0157083
637.397	0.0157805
637.475	0.0156696
637.553	0.0156412
637.631	0.0156847
637.709	0.0156973
637.788	0.0156567
637.866	0.0156454
637.944	0.0157239
638.022	0.0157996
638.100	0.0157671
638.178	0.0156060
638.256	0.0156248
638.334	0.0156089
638.413	0.0155871
638.491	0.0155724
638.569	0.0155173
638.647	0.0155991
638.725	0.0155341
638.803	0.0154555
638.881	0.0154607
638.959	0.0154572
639.038	0.0154281
639.116	0.0154496
639.194	0.0154731
639.272	0.0153720
639.350	0.0154452
639.428	0.0155990
639.506	0.0155102
639.584	0.0156757
639.663	0.0156229
639.741	0.0155589
639.819	0.0157547
639.897	0.0157446
639.975	0.0157133
640.053	0.0158391
640.131	0.0156023
640.209	0.0158065
640.288	0.0157969
640.366	0.0156116
640.444	0.0158168
640.522	0.0157924
640.600	0.0155923
640.678	0.0157642
640.756	0.0157507
640.834	0.0157459
640.913	0.0156410
640.991	0.0155703
641.069	0.0156513
641.147	0.0156326
641.225	0.0156900
641.303	0.0155466
641.381	0.0154464
641.459	0.0155526
641.538	0.0156958
641.616	0.0157278
641.694	0.0155965
641.772	0.0157227
641.850	0.0156669
641.928	0.0155907
642.006	0.0156628
642.084	0.0157681
642.163	0.0156705
642.241	0.0158633
642.319	0.0157026
642.397	0.0155863
642.475	0.0157806
642.553	0.0157433
642.631	0.0156136
642.709	0.0156350
642.788	0.0156359
642.866	0.0156503
642.944	0.0156364
643.022	0.0156829
643.100	0.0155703
643.178	0.0154322
643.256	0.0155441
643.334	0.0156274
643.413	0.0155688
643.491	0.0156067
643.569	0.0155830
643.647	0.0155504
643.725	0.0155305
643.803	0.0155710
643.881	0.0157317
643.959	0.0158598
644.038	0.0156515
644.116	0.0156899
644.194	0.0157298
644.272	0.0157219
644.350	0.0158126
644.428	0.0157545
644.506	0.0157513
644.584	0.0158120
644.663	0.0157345
644.741	0.0157265
644.819	0.0157422
644.897	0.0157666
644.975	0.0158105
645.053	0.0158327
645.131	0.0158033
645.209	0.0158009
645.288	0.0157732
645.366	0.0157711
645.444	0.0156473
645.522	0.0157102
645.600	0.0157981
645.678	0.0156451
645.756	0.0158022
645.834	0.0157774
645.913	0.0157433
645.991	0.0157584
646.069	0.0158582
646.147	0.0157231
646.225	0.0157329
646.303	0.0157920
646.381	0.0157728
646.459	0.0158003
646.538	0.0158768
646.616	0.0158514
646.694	0.0157499
646.772	0.0157790
646.850	0.0160133
646.928	0.0158464
647.006	0.0158289
647.084	0.0158212
647.163	0.0159762
647.241	0.0158744
647.319	0.0157716
647.397	0.0157493
647.475	0.0160605
647.553	0.0158011
647.631	0.0157047
647.709	0.0157694
647.788	0.0157977
647.866	0.0156770
647.944	0.0156534
648.022	0.0157967
648.100	0.0157599
648.178	0.0156870
648.256	0.0156435
648.334	0.0156760
648.413	0.0157973
648.491	0.0156432
648.569	0.0157462
648.647	0.0159015
648.725	0.0157928
648.803	0.0157330
648.881	0.0157617
648.959	0.0157968
649.038	0.0158510
649.116	0.0156516
649.194	0.0157074
649.272	0.0157930
649.350	0.0156121
649.428	0.0157240
649.506	0.0157008
649.584	0.0157401
649.663	0.0157938
649.741	0.0157388
649.819	0.0158721
649.897	0.0159291
649.975	0.0158546
650.053	0.0158443
650.131	0.0157518
650.209	0.0159904
650.288	0.0156794
650.366	0.0158183
650.444	0.0159111
650.522	0.0157126
650.600	0.0157439
650.678	0.0159038
650.756	0.0158774
650.834	0.0158212
650.913	0.0158516
650.991	0.0157456
651.069	0.0157655
651.147	0.0158553
651.225	0.0158370
651.303	0.0157871
651.381	0.0158543
651.459	0.0157948
651.538	0.0158630
651.616	0.0158549
651.694	0.0158414
651.772	0.0158448
651.850	0.0158692
651.928	0.0158200
652.006	0.0158208
652.084	0.0158270
652.163	0.0157576
652.241	0.0158800
652.319	0.0157475
652.397	0.0159426
652.475	0.0159954
652.553	0.0157861
652.631	0.0157970
652.709	0.0158993
652.788	0.0158092
652.866	0.0155878
652.944	0.0156948
653.022	0.0158486
653.100	0.0158231
653.178	0.0157975
653.256	0.0156767
653.334	0.0157796
653.413	0.0157844
653.491	0.0157029
653.569	0.0159054
653.647	0.0157932
653.725	0.0156649
653.803	0.0157104
653.881	0.0157207
653.959	0.0156220
654.038	0.0156122
654.116	0.0156846
654.194	0.0157639
654.272	0.0157942
654.350	0.0156773
654.428	0.0156907
654.506	0.0159289
654.584	0.0159339
654.663	0.0158433
654.741	0.0158071
654.819	0.0158318
654.897	0.0158974
654.975	0.0159109
655.053	0.0157981
655.131	0.0157917
655.209	0.0157322
655.288	0.0157259
655.366	0.0156890
655.444	0.0157407
655.522	0.0157485
655.600	0.0156143
655.678	0.0156559
655.756	0.0158073
655.834	0.0156827
655.913	0.0157886
655.991	0.0157397
656.069	0.0156305
656.147	0.0155688
656.225	0.0157828
656.303	0.0157623
656.381	0.0156221
656.459	0.0157190
656.538	0.0157413
656.616	0.0157189
656.694	0.0157075
656.772	0.0157613
656.850	0.0157191
656.928	0.0157775
657.006	0.0157809
657.084	0.0157533
657.163	0.0157183
657.241	0.0157108
657.319	0.0157169
657.397	0.0156997
657.475	0.0158105
657.553	0.0157195
657.631	0.0157096
657.709	0.0158592
657.788	0.0157845
657.866	0.0156836
657.944	0.0156826
658.022	0.0156737
658.100	0.0156535
658.178	0.0157204
658.256	0.0156312
658.334	0.0157011
658.413	0.0157455
658.491	0.0156851
658.569	0.0158467
658.647	0.0156488
658.725	0.0157381
658.803	0.0156558
658.881	0.0157317
658.959	0.0157020
659.038	0.0156432
659.116	0.0156203
659.194	0.0155408
659.272	0.0156037
659.350	0.0156683
659.428	0.0155132
659.506	0.0156517
659.584	0.0156529
659.663	0.0158221
659.741	0.0156572
659.819	0.0156531
659.897	0.0156202
659.975	0.0156715
660.053	0.0156683
660.131	0.0155933
660.209	0.0156108
660.288	0.0155338
660.366	0.0156557
660.444	0.0157379
660.522	0.0156372
660.600	0.0155709
660.678	0.0154107
660.756	0.0155791
660.834	0.0154472
660.913	0.0154390
660.991	0.0155983
661.069	0.0154970
661.147	0.0154591
661.225	0.0155273
661.303	0.0155554
661.381	0.0154795
661.459	0.0154925
661.538	0.0155123
661.616	0.0156967
661.694	0.0156182
661.772	0.0154488
661.850	0.0155358
661.928	0.0155963
662.006	0.0155826
662.084	0.0155893
662.163	0.0155826
662.241	0.0155599
662.319	0.0157213
662.397	0.0156388
662.475	0.0156133
662.553	0.0156264
662.631	0.0157281
662.709	0.0156723
662.788	0.0155791
662.866	0.0155878
662.944	0.0157543
663.022	0.0156274
663.100	0.0155957
663.178	0.0155714
663.256	0.0156850
663.334	0.0156521
663.413	0.0156071
663.491	0.0156561
663.569	0.0156635
663.647	0.0156380
663.725	0.0156312
663.803	0.0156152
663.881	0.0156243
663.959	0.0157367
664.038	0.0157185
664.116	0.0157214
664.194	0.0158964
664.272	0.0158976
664.350	0.0158273
664.428	0.0158343
664.506	0.0158437
664.584	0.0157913
664.663	0.0157918
664.741	0.0158590
664.819	0.0158066
664.897	0.0159859
664.975	0.0158299
665.053	0.0157571
665.131	0.0157294
665.209	0.0157242
665.288	0.0156366
665.366	0.0155898
665.444	0.0157235
665.522	0.0156673
665.600	0.0155402
665.678	0.0156387
665.756	0.0156172
665.834	0.0156203
665.913	0.0157240
665.991	0.0157017
666.069	0.0157500
666.147	0.0157748
666.225	0.0156677
666.303	0.0155888
666.381	0.0156590
666.459	0.0156544
666.538	0.0156785
666.616	0.0156359
666.694	0.0156992
666.772	0.0157487
666.850	0.0156481
666.928	0.0156640
667.006	0.0157022
667.084	0.0156429
667.163	0.0157715
667.241	0.0156440
667.319	0.0156451
667.397	0.0156848
667.475	0.0157874
667.553	0.0156691
667.631	0.0159135
667.709	0.0158250
667.788	0.0158939
667.866	0.0159825
667.944	0.0159505
668.022	0.0159846
668.100	0.0158244
668.178	0.0161021
668.256	0.0159739
668.334	0.0159301
668.413	0.0159737
668.491	0.0159641
668.569	0.0161308
668.647	0.0160492
668.725	0.0158814
668.803	0.0159451
668.881	0.0160864
668.959	0.0161208
669.038	0.0161504
669.116	0.0162445
669.194	0.0161745
669.272	0.0160754
669.350	0.0160677
669.428	0.0161729
669.506	0.0161871
669.584	0.0161405
669.663	0.0161118
669.741	0.0161346
669.819	0.0161941
669.897	0.0161994
669.975	0.0160780
670.053	0.0158791
670.131	0.0159924
670.209	0.0159291
670.288	0.0158784
670.366	0.0157674
670.444	0.0157435
670.522	0.0156234
670.600	0.0157671
670.678	0.0155376
670.756	0.0156384
670.834	0.0155952
670.913	0.0156630
670.991	0.0158513
671.069	0.0158599
671.147	0.0159432
671.225	0.0158143
671.303	0.0158955
671.381	0.0158044
671.459	0.0159120
671.538	0.0161388
671.616	0.0161356
671.694	0.0159666
671.772	0.0159306
671.850	0.0161594
671.928	0.0162210
672.006	0.0161945
672.084	0.0159673
672.163	0.0161776
672.241	0.0162728
672.319	0.0161432
672.397	0.0162391
672.475	0.0162061
672.553	0.0162746
672.631	0.0161774
672.709	0.0162659
672.788	0.0160611
672.866	0.0159166
672.944	0.0158458
673.022	0.0157919
673.100	0.0156097
673.178	0.0154758
673.256	0.0154137
673.334	0.0153174
673.413	0.0152448
673.491	0.0150408
673.569	0.0148482
673.647	0.0147555
673.725	0.0147793
673.803	0.0147758
673.881	0.0147810
673.959	0.0146490
674.038	0.0146672
674.116	0.0149021
674.194	0.0149275
674.272	0.0148254
674.350	0.0149250
674.428	0.0150314
674.506	0.0149718
674.584	0.0151424
674.663	0.0153534
674.741	0.0154342
674.819	0.0156261
674.897	0.0158849
674.975	0.0160709
675.053	0.0162029
675.131	0.0163124
675.209	0.0164959
675.288	0.0168545
675.366	0.0167564
675.444	0.0169976
675.522	0.0171909
675.600	0.0172390
675.678	0.0172780
675.756	0.0170610
675.834	0.0171726
675.913	0.0171379
675.991	0.0170390
676.069	0.0169350
676.147	0.0166056
676.225	0.0163737
676.303	0.0163188
676.381	0.0161752
676.459	0.0159296
676.538	0.0157052
676.616	0.0153304
676.694	0.0152454
676.772	0.0149677
676.850	0.0146658
676.928	0.0143019
677.006	0.0142588
677.084	0.0141859
677.163	0.0137865
677.241	0.0138358
677.319	0.0136840
677.397	0.0136037
677.475	0.0136734
677.553	0.0135785
677.631	0.0136989
677.709	0.0137539
677.788	0.0139011
677.866	0.0142478
677.944	0.0143420
678.022	0.0144621
678.100	0.0146761
678.178	0.0148795
678.256	0.0152350
678.334	0.0153866
678.413	0.0157751
678.491	0.0160017
678.569	0.0162832
678.647	0.0166510
678.725	0.0169038
678.803	0.0170236
678.881	0.0172222
678.959	0.0174534
679.038	0.0175684
679.116	0.0178085
679.194	0.0178889
679.272	0.0177184
679.350	0.0177554
679.428	0.0178215
679.506	0.0176191
679.584	0.0174261
679.663	0.0174456
679.741	0.0173785
679.819	0.0171371
679.897	0.0169704
679.975	0.0168021
680.053	0.0166583
680.131	0.0164828
680.209	0.0161892
680.288	0.0159142
680.366	0.0155721
680.444	0.0155316
680.522	0.0153016
680.600	0.0151440
680.678	0.0150319
680.756	0.0148675
680.834	0.0146758
680.913	0.0145969
680.991	0.0146562
681.069	0.0145677
681.147	0.0145708
681.225	0.0145605
681.303	0.0146764
681.381	0.0145963
681.459	0.0146464
681.538	0.0147894
681.616	0.0147592
681.694	0.0149377
681.772	0.0151177
681.850	0.0151467
681.928	0.0149490
682.006	0.0150784
682.084	0.0151834
682.163	0.0152676
682.241	0.0153635
682.319	0.0154128
682.397	0.0155202
682.475	0.0155034
682.553	0.0154993
682.631	0.0155273
682.709	0.0156203
682.788	0.0156700
682.866	0.0156675
682.944	0.0158738
683.022	0.0158693
683.100	0.0159088
683.178	0.0160249
683.256	0.0161342
683.334	0.0163552
683.413	0.0164137
683.491	0.0165762
683.569	0.0164790
683.647	0.0167248
683.725	0.0168307
683.803	0.0168737
683.881	0.0168066
683.959	0.0169805
684.038	0.0170541
684.116	0.0171490
684.194	0.0171282
684.272	0.0172063
684.350	0.0172617
684.428	0.0172192
684.506	0.0171706
684.584	0.0170061
684.663	0.0169416
684.741	0.0168356
684.819	0.0165975
684.897	0.0165085
684.975	0.0163905
685.053	0.0161543
685.131	0.0158924
685.209	0.0155515
685.288	0.0154908
685.366	0.0151582
685.444	0.0149763
685.522	0.0147402
685.600	0.0146545
685.678	0.0145422
685.756	0.0145177
685.834	0.0143576
685.913	0.0143205
685.991	0.0143127
686.069	0.0141867
686.147	0.0143703
686.225	0.0142799
686.303	0.0140945
686.381	0.0143400
686.459	0.0146478
686.538	0.0145007
686.616	0.0146425
686.694	0.0147678
686.772	0.0150652
686.850	0.0153214
686.928	0.0155388
687.006	0.0155966
687.084	0.0157719
687.163	0.0161188
687.241	0.0163243
687.319	0.0165312
687.397	0.0164693
687.475	0.0167425
687.553	0.0167600
687.631	0.0169456
687.709	0.0169772
687.788	0.0170940
687.866	0.0171507
687.944	0.0172513
688.022	0.0172594
688.100	0.0173947
688.178	0.0173508
688.256	0.0172814
688.334	0.0171856
688.413	0.0172027
688.491	0.0173154
688.569	0.0170215
688.647	0.0169928
688.725	0.0168713
688.803	0.0166731
688.881	0.0164893
688.959	0.0162916
689.038	0.0162906
689.116	0.0160502
689.194	0.0159740
689.272	0.0157922
689.350	0.0157415
689.428	0.0157536
689.506	0.0155471
689.584	0.0153049
689.663	0.0153440
689.741	0.0153011
689.819	0.0151369
689.897	0.0150902
689.975	0.0149320
690.053	0.0148759
690.131	0.0148835
690.209	0.0147423
690.288	0.0144604
690.366	0.0144503
690.444	0.0141724
690.522	0.0140887
690.600	0.0142831
690.678	0.0142049
690.756	0.0141208
690.834	0.0143082
690.913	0.0144074
690.991	0.0145261
691.069	0.0147546
691.147	0.0149133
691.225	0.0153030
691.303	0.0155691
691.381	0.0157410
691.459	0.0161829
691.538	0.0166266
691.616	0.0167003
691.694	0.0169012
691.772	0.0173186
691.850	0.0175531
691.928	0.0177800
692.006	0.0180738
692.084	0.0182115
692.163	0.0183416
692.241	0.0182866
692.319	0.0182307
692.397	0.0181835
692.475	0.0184296
692.553	0.0182568
692.631	0.0181450
692.709	0.0178887
692.788	0.0175034
692.866	0.0171884
692.944	0.0170064
693.022	0.0165663
693.100	0.0163065
693.178	0.0158884
693.256	0.0152962
693.334	0.0150464
693.413	0.0146125
693.491	0.0142684
693.569	0.0139468
693.647	0.0135712
693.725	0.0134367
693.803	0.0133144
693.881	0.0132309
693.959	0.0131105
694.038	0.0131104
694.116	0.0130055
694.194	0.0131110
694.272	0.0131224
694.350	0.0134815
694.428	0.0135754
694.506	0.0136717
694.584	0.0138765
694.663	0.0141212
694.741	0.0143588
694.819	0.0146365
694.897	0.0148277
694.975	0.0151728
695.053	0.0155431
695.131	0.0156557
695.209	0.0160528
695.288	0.0161208
695.366	0.0163551
695.444	0.0165839
695.522	0.0168678
695.600	0.0169820
695.678	0.0172768
695.756	0.0173643
695.834	0.0174838
695.913	0.0175405
695.991	0.0176391
696.069	0.0176928
696.147	0.0176018
696.225	0.0175040
696.303	0.0173466
696.381	0.0174016
696.459	0.0172182
696.538	0.0170190
696.616	0.0168153
696.694	0.0165566
696.772	0.0164325
696.850	0.0163483
696.928	0.0160430
697.006	0.0159884
697.084	0.0158218
697.163	0.0157528
697.241	0.0155420
697.319	0.0155744
697.397	0.0155545
697.475	0.0153300
697.553	0.0153941
697.631	0.0153629
697.709	0.0152814
697.788	0.0153772
697.866	0.0154556
697.944	0.0152696
698.022	0.0152800
698.100	0.0153089
698.178	0.0153407
698.256	0.0150361
698.334	0.0151611
698.413	0.0151406
698.491	0.0152130
698.569	0.0153041
698.647	0.0153061
698.725	0.0151627
698.803	0.0152402
698.881	0.0153391
698.959	0.0154768
699.038	0.0155213
699.116	0.0157296
699.194	0.0156908
699.272	0.0157665
699.350	0.0159779
699.428	0.0161667
699.506	0.0161832
699.584	0.0163276
699.663	0.0165702
699.741	0.0167722
699.819	0.0167281
699.897	0.0167434
699.975	0.0170288
700.053	0.0171847
700.131	0.0173908
700.209	0.0172053
700.288	0.0172243
700.366	0.0173521
700.444	0.0174119
700.522	0.0173106
700.600	0.0170936
700.678	0.0169872
700.756	0.0169705
700.834	0.0164822
700.913	0.0164714
700.991	0.0160651
701.069	0.0157428
701.147	0.0155205
701.225	0.0152494
701.303	0.0148757
701.381	0.0144990
701.459	0.0143979
701.538	0.0139977
701.616	0.0137575
701.694	0.0135972
701.772	0.0133694
701.850	0.0133691
701.928	0.0130717
702.006	0.0129707
702.084	0.0128925
702.163	0.0128735
702.241	0.0126363
702.319	0.0127113
702.397	0.0127354
702.475	0.0127713
702.553	0.0128577
702.631	0.0130350
702.709	0.0134013
702.788	0.0137828
702.866	0.0144594
702.944	0.0147996
703.022	0.0154457
703.100	0.0159678
703.178	0.0165089
703.256	0.0170308
703.334	0.0178120
703.413	0.0182291
703.491	0.0186338
703.569	0.0190046
703.647	0.0194122
703.725	0.0197846
703.803	0.0200611
703.881	0.0201088
703.959	0.0202692
704.038	0.0204117
704.116	0.0202601
704.194	0.0202399
704.272	0.0202020
704.350	0.0198701
704.428	0.0195105
704.506	0.0193987
704.584	0.0189580
704.663	0.0185201
704.741	0.0180545
704.819	0.0174526
704.897	0.0169382
704.975	0.0163760
705.053	0.0156869
705.131	0.0150414
705.209	0.0145322
705.288	0.0139121
705.366	0.0136418
705.444	0.0130679
705.522	0.0128064
705.600	0.0124752
705.678	0.0122326
705.756	0.0121043
705.834	0.0118073
705.913	0.0117458
705.991	0.0117474
706.069	0.0117522
706.147	0.0118098
706.225	0.0120344
706.303	0.0122538
706.381	0.0125458
706.459	0.0128030
706.538	0.0129362
706.616	0.0134857
706.694	0.0137492
706.772	0.0140448
706.850	0.0144212
706.928	0.0147727
707.006	0.0152462
707.084	0.0153871
707.163	0.0156577
707.241	0.0159653
707.319	0.0162463
707.397	0.0164426
707.475	0.0165696
707.553	0.0169029
707.631	0.0171518
707.709	0.0171683
707.788	0.0172766
707.866	0.0173901
707.944	0.0175491
708.022	0.0176418
708.100	0.0175704
708.178	0.0174615
708.256	0.0174600
708.334	0.0173325
708.413	0.0173658
708.491	0.0171992
708.569	0.0172227
708.647	0.0171429
708.725	0.0170083
708.803	0.0168000
708.881	0.0166950
708.959	0.0166693
709.038	0.0167119
709.116	0.0164162
709.194	0.0163414
709.272	0.0162520
709.350	0.0160629
709.428	0.0158154
709.506	0.0156644
709.584	0.0154630
709.663	0.0152325
709.741	0.0151889
709.819	0.0150389
709.897	0.0149046
709.975	0.0148224
710.053	0.0146691
710.131	0.0146842
710.209	0.0148376
710.288	0.0147854
710.366	0.0150127
710.444	0.0151537
710.522	0.0150172
710.600	0.0151783
710.678	0.0153970
710.756	0.0154459
710.834	0.0155515
710.913	0.0155774
710.991	0.0157063
711.069	0.0159347
711.147	0.0160288
711.225	0.0160709
711.303	0.0163898
711.381	0.0166484
711.459	0.0168604
711.538	0.0169196
711.616	0.0170847
711.694	0.0172779
711.772	0.0170911
711.850	0.0172110
711.928	0.0173658
712.006	0.0171827
712.084	0.0172905
712.163	0.0172557
712.241	0.0171187
712.319	0.0168874
712.397	0.0168840
712.475	0.0167282
712.553	0.0165469
712.631	0.0163129
712.709	0.0163098
712.788	0.0158608
712.866	0.0156652
712.944	0.0154555
713.022	0.0152251
713.100	0.0148758
713.178	0.0146912
713.256	0.0145671
713.334	0.0144125
713.413	0.0140128
713.491	0.0140190
713.569	0.0138503
713.647	0.0135432
713.725	0.0135267
713.803	0.0134567
713.881	0.0134617
713.959	0.0134910
714.038	0.0135594
714.116	0.0136788
714.194	0.0135995
714.272	0.0137649
714.350	0.0138817
714.428	0.0140697
714.506	0.0143708
714.584	0.0146645
714.663	0.0148306
714.741	0.0150845
714.819	0.0154130
714.897	0.0156413
714.975	0.0160188
715.053	0.0162199
715.131	0.0164266
715.209	0.0166257
715.288	0.0168881
715.366	0.0170762
715.444	0.0173016
715.522	0.0172585
715.600	0.0173254
715.678	0.0173126
715.756	0.0173074
715.834	0.0171229
715.913	0.0170145
715.991	0.0170419
716.069	0.0166647
716.147	0.0166268
716.225	0.0166902
716.303	0.0166117
716.381	0.0164612
716.459	0.0162229
716.538	0.0161892
716.616	0.0163603
716.694	0.0162532
716.772	0.0162679
716.850	0.0161819
716.928	0.0163046
717.006	0.0165394
717.084	0.0163857
717.163	0.0165450
717.241	0.0165426
717.319	0.0165025
717.397	0.0167114
717.475	0.0167951
717.553	0.0167458
717.631	0.0168258
717.709	0.0168327
717.788	0.0167636
717.866	0.0167262
717.944	0.0167432
718.022	0.0164701
718.100	0.0164919
718.178	0.0164718
718.256	0.0162411
718.334	0.0160894
718.413	0.0157014
718.491	0.0156012
718.569	0.0154742
718.647	0.0152528
718.725	0.0149697
718.803	0.0148555
718.881	0.0146021
718.959	0.0145731
719.038	0.0142455
719.116	0.0141025
719.194	0.0142889
719.272	0.0140990
719.350	0.0139137
719.428	0.0138290
719.506	0.0140282
719.584	0.0141788
719.663	0.0141075
719.741	0.0141652
719.819	0.0143113
719.897	0.0143742
719.975	0.0146154
720.053	0.0145684
720.131	0.0148617
720.209	0.0148206
720.288	0.0148732
720.366	0.0148660
720.444	0.0149478
720.522	0.0149314
720.600	0.0148792
720.678	0.0150111
720.756	0.0152206
720.834	0.0152035
720.913	0.0152550
720.991	0.0154070
721.069	0.0154388
721.147	0.0156439
721.225	0.0159722
721.303	0.0159236
721.381	0.0160580
721.459	0.0161852
721.538	0.0162513
721.616	0.0163634
721.694	0.0165714
721.772	0.0166586
721.850	0.0167549
721.928	0.0168807
722.006	0.0170647
722.084	0.0169827
722.163	0.0170566
722.241	0.0171705
722.319	0.0174066
722.397	0.0173558
722.475	0.0172129
722.553	0.0173081
722.631	0.0171332
722.709	0.0171663
722.788	0.0169523
722.866	0.0168044
722.944	0.0167029
723.022	0.0165569
723.100	0.0161809
723.178	0.0159408
723.256	0.0157618
723.334	0.0155820
723.413	0.0154585
723.491	0.0151638
723.569	0.0151394
723.647	0.0150872
723.725	0.0148290
723.803	0.0147621
723.881	0.0145744
723.959	0.0146391
724.038	0.0145833
724.116	0.0146326
724.194	0.0147060
724.272	0.0147892
724.350	0.0149477
724.428	0.0151121
724.506	0.0153168
724.584	0.0153355
724.663	0.0156445
724.741	0.0157941
724.819	0.0160950
724.897	0.0162270
724.975	0.0163765
725.053	0.0165476
725.131	0.0166284
725.209	0.0167561
725.288	0.0168477
725.366	0.0170101
725.444	0.0170155
725.522	0.0170479
725.600	0.0172200
725.678	0.0171432
725.756	0.0170386
725.834	0.0171564
725.913	0.0170969
725.991	0.0170005
726.069	0.0168927
726.147	0.0166767
726.225	0.0166975
726.303	0.0165624
726.381	0.0164281
726.459	0.0162279
726.538	0.0159999
726.616	0.0155679
726.694	0.0153140
726.772	0.0152531
726.850	0.0148962
726.928	0.0145747
727.006	0.0144576
727.084	0.0142012
727.163	0.0140493
727.241	0.0139456
727.319	0.0137596
727.397	0.0137640
727.475	0.0137183
727.553	0.0136815
727.631	0.0135844
727.709	0.0137344
727.788	0.0137910
727.866	0.0140260
727.944	0.0141217
728.022	0.0143138
728.100	0.0145828
728.178	0.0145484
728.256	0.0147281
728.334	0.0150880
728.413	0.0152456
728.491	0.0153509
728.569	0.0154021
728.647	0.0155756
728.725	0.0156618
728.803	0.0159014
728.881	0.0160056
728.959	0.0159768
729.038	0.0160139
729.116	0.0162799
729.194	0.0164553
729.272	0.0164952
729.350	0.0167182
729.428	0.0169204
729.506	0.0169358
729.584	0.0172221
729.663	0.0172841
729.741	0.0173737
729.819	0.0174728
729.897	0.0177519
729.975	0.0176355
730.053	0.0177222
730.131	0.0177557
730.209	0.0178563
730.288	0.0180008
730.366	0.0178933
730.444	0.0177930
730.522	0.0177800
730.600	0.0175822
730.678	0.0176241
730.756	0.0175272
730.834	0.0173363
730.913	0.0171428
730.991	0.0168201
731.069	0.0166492
731.147	0.0162943
731.225	0.0160833
731.303	0.0159504
731.381	0.0157000
731.459	0.0156316
731.538	0.0151637
731.616	0.0149624
731.694	0.0148919
731.772	0.0146403
731.850	0.0145396
731.928	0.0144608
732.006	0.0145224
732.084	0.0142562
732.163	0.0143464
732.241	0.0143272
732.319	0.0143111
732.397	0.0142126
732.475	0.0143784
732.553	0.0144468
732.631	0.0145785
732.709	0.0145759
732.788	0.0147797
732.866	0.0149421
732.944	0.0148686
733.022	0.0149841
733.100	0.0151216
733.178	0.0152973
733.256	0.0153523
733.334	0.0154340
733.413	0.0154594
733.491	0.0157238
733.569	0.0154314
733.647	0.0156223
733.725	0.0155881
733.803	0.0155063
733.881	0.0154494
733.959	0.0153710
734.038	0.0153987
734.116	0.0151992
734.194	0.0151503
734.272	0.0151488
734.350	0.0150815
734.428	0.0149557
734.506	0.0149276
734.584	0.0148898
734.663	0.0148861
734.741	0.0149304
734.819	0.0149229
734.897	0.0151250
734.975	0.0153449
735.053	0.0152954
735.131	0.0154827
735.209	0.0156458
735.288	0.0155699
735.366	0.0158897
735.444	0.0160141
735.522	0.0159575
735.600	0.0161289
735.678	0.0161573
735.756	0.0161821
735.834	0.0160874
735.913	0.0160243
735.991	0.0161156
736.069	0.0162041
736.147	0.0161506
736.225	0.0159548
736.303	0.0160812
736.381	0.0159518
736.459	0.0159274
736.538	0.0160403
736.616	0.0159686
736.694	0.0159983
736.772	0.0161372
736.850	0.0160720
736.928	0.0161264
737.006	0.0160227
737.084	0.0159346
737.163	0.0160595
737.241	0.0161039
737.319	0.0160714
737.397	0.0161499
737.475	0.0161037
737.553	0.0161491
737.631	0.0162850
737.709	0.0161849
737.788	0.0161538
737.866	0.0161497
737.944	0.0161277
738.022	0.0162939
738.100	0.0161102
738.178	0.0161654
738.256	0.0161091
738.334	0.0160480
738.413	0.0159651
738.491	0.0158826
738.569	0.0158700
738.647	0.0156723
738.725	0.0155759
738.803	0.0154279
738.881	0.0153113
738.959	0.0152021
739.038	0.0150240
739.116	0.0147993
739.194	0.0148390
739.272	0.0150620
739.350	0.0149173
739.428	0.0146616
739.506	0.0147490
739.584	0.0147835
739.663	0.0149218
739.741	0.0148386
739.819	0.0151083
739.897	0.0152182
739.975	0.0152946
740.053	0.0153840
740.131	0.0156303
740.209	0.0156410
740.288	0.0156964
740.366	0.0157262
740.444	0.0158321
740.522	0.0161410
740.600	0.0160696
740.678	0.0162165
740.756	0.0163612
740.834	0.0162615
740.913	0.0165905
740.991	0.0164986
741.069	0.0164845
741.147	0.0165744
741.225	0.0166377
741.303	0.0165770
741.381	0.0164406
741.459	0.0165215
741.538	0.0162960
741.616	0.0163428
741.694	0.0163000
741.772	0.0162277
741.850	0.0163387
741.928	0.0162710
742.006	0.0161185
742.084	0.0160361
742.163	0.0158296
742.241	0.0157704
742.319	0.0155563
742.397	0.0156122
742.475	0.0153474
742.553	0.0151076
742.631	0.0149627
742.709	0.0149153
742.788	0.0148210
742.866	0.0146617
742.944	0.0145918
743.022	0.0145944
743.100	0.0146068
743.178	0.0144923
743.256	0.0146703
743.334	0.0145888
743.413	0.0147188
743.491	0.0146756
743.569	0.0147203
743.647	0.0148727
743.725	0.0147939
743.803	0.0150053
743.881	0.0150897
743.959	0.0152763
744.038	0.0152666
744.116	0.0155799
744.194	0.0157811
744.272	0.0158370
744.350	0.0158739
744.428	0.0159277
744.506	0.0162469
744.584	0.0162799
744.663	0.0165069
744.741	0.0166768
744.819	0.0166269
744.897	0.0167530
744.975	0.0167511
745.053	0.0167818
745.131	0.0169021
745.209	0.0169070
745.288	0.0170477
745.366	0.0168988
745.444	0.0169337
745.522	0.0169558
745.600	0.0169453
745.678	0.0170319
745.756	0.0168718
745.834	0.0170132
745.913	0.0168648
745.991	0.0170371
746.069	0.0169942
746.147	0.0170454
746.225	0.0166825
746.303	0.0168190
746.381	0.0168085
746.459	0.0166353
746.538	0.0164790
746.616	0.0163902
746.694	0.0162324
746.772	0.0162354
746.850	0.0160588
746.928	0.0161584
747.006	0.0159353
747.084	0.0157590
747.163	0.0157118
747.241	0.0155315
747.319	0.0154568
747.397	0.0152761
747.475	0.0150175
747.553	0.0149953
747.631	0.0149133
747.709	0.0148997
747.788	0.0146989
747.866	0.0145766
747.944	0.0145126
748.022	0.0146393
748.100	0.0146558
748.178	0.0146935
748.256	0.0145440
748.334	0.0145795
748.413	0.0145170
748.491	0.0145378
748.569	0.0146268
748.647	0.0145525
748.725	0.0148428
748.803	0.0149715
748.881	0.0147992
748.959	0.0148333
749.038	0.0150141
749.116	0.0152432
749.194	0.0150985
749.272	0.0152905
749.350	0.0155132
749.428	0.0156181
749.506	0.0158132
749.584	0.0158445
749.663	0.0159343
749.741	0.0160142
749.819	0.0161807
749.897	0.0164628
749.975	0.0164566
750.053	0.0165816
750.131	0.0165656
750.209	0.0166795
750.288	0.0168356
750.366	0.0167195
750.444	0.0167014
750.522	0.0168635
750.600	0.0166737
750.678	0.0166659
750.756	0.0164761
750.834	0.0165911
750.913	0.0163558
750.991	0.0161787
751.069	0.0160326
751.147	0.0160343
751.225	0.0159078
751.303	0.0157573
751.381	0.0155528
751.459	0.0155511
751.538	0.0155311
751.616	0.0154826
751.694	0.0153691
751.772	0.0153703
751.850	0.0154967
751.928	0.0154475
752.006	0.0155819
752.084	0.0156194
752.163	0.0155421
752.241	0.0158192
752.319	0.0157741
752.397	0.0160221
752.475	0.0158936
752.553	0.0159509
752.631	0.0158472
752.709	0.0159151
752.788	0.0159692
752.866	0.0159582
752.944	0.0158837
753.022	0.0158450
753.100	0.0158482
753.178	0.0157533
753.256	0.0158501
753.334	0.0158801
753.413	0.0156820
753.491	0.0155838
753.569	0.0155499
753.647	0.0155476
753.725	0.0156240
753.803	0.0156030
753.881	0.0153583
753.959	0.0155142
754.038	0.0155681
754.116	0.0156004
754.194	0.0156862
754.272	0.0157249
754.350	0.0156514
754.428	0.0156877
754.506	0.0157323
754.584	0.0157781
754.663	0.0158233
754.741	0.0159359
754.819	0.0159966
754.897	0.0160551
754.975	0.0160007
755.053	0.0159771
755.131	0.0160574
755.209	0.0159917
755.288	0.0159723
755.366	0.0160239
755.444	0.0159836
755.522	0.0159309
755.600	0.0158063
755.678	0.0158024
755.756	0.0157983
755.834	0.0157528
755.913	0.0158420
755.991	0.0157655
756.069	0.0157675
756.147	0.0156483
756.225	0.0157040
756.303	0.0156503
756.381	0.0156142
756.459	0.0156342
756.538	0.0154635
756.616	0.0154019
756.694	0.0155015
756.772	0.0154814
756.850	0.0154398
756.928	0.0153564
757.006	0.0153542
757.084	0.0153204
757.163	0.0152682
757.241	0.0151566
757.319	0.0152541
757.397	0.0151646
757.475	0.0152740
757.553	0.0150870
757.631	0.0151771
757.709	0.0151192
757.788	0.0151486
757.866	0.0151814
757.944	0.0152199
758.022	0.0152284
758.100	0.0154189
758.178	0.0152682
758.256	0.0153703
758.334	0.0154100
758.413	0.0154739
758.491	0.0156532
758.569	0.0156982
758.647	0.0158792
758.725	0.0159400
758.803	0.0159296
758.881	0.0157680
758.959	0.0161456
759.038	0.0163278
759.116	0.0161516
759.194	0.0160928
759.272	0.0162962
759.350	0.0163648
759.428	0.0164617
759.506	0.0164414
759.584	0.0164276
759.663	0.0165221
759.741	0.0164513
759.819	0.0164549
759.897	0.0163876
759.975	0.0164034
760.053	0.0163449
760.131	0.0163727
760.209	0.0163642
760.288	0.0164387
760.366	0.0164854
760.444	0.0164560
760.522	0.0163699
760.600	0.0164618
760.678	0.0163001
760.756	0.0164230
760.834	0.0165128
760.913	0.0164668
760.991	0.0163177
761.069	0.0163387
761.147	0.0163351
761.225	0.0162159
761.303	0.0160676
761.381	0.0159562
761.459	0.0158520
761.538	0.0158575
761.616	0.0157814
761.694	0.0155293
761.772	0.0153588
761.850	0.0151199
761.928	0.0150259
762.006	0.0150002
762.084	0.0148682
762.163	0.0149123
762.241	0.0148051
762.319	0.0146390
762.397	0.0145963
762.475	0.0147530
762.553	0.0147585
762.631	0.0147097
762.709	0.0147723
762.788	0.0148309
762.866	0.0147914
762.944	0.0148893
763.022	0.0150526
763.100	0.0151258
763.178	0.0152077
763.256	0.0152847
763.334	0.0152998
763.413	0.0155190
763.491	0.0154724
763.569	0.0155009
763.647	0.0155817
763.725	0.0157722
763.803	0.0155989
763.881	0.0156840
763.959	0.0159052
764.038	0.0157909
764.116	0.0158430
764.194	0.0158229
764.272	0.0159057
764.350	0.0159726
764.428	0.0159550
764.506	0.0159192
764.584	0.0158760
764.663	0.0158492
764.741	0.0159959
764.819	0.0160854
764.897	0.0160466
764.975	0.0160677
765.053	0.0160690
765.131	0.0161980
765.209	0.0161241
765.288	0.0162320
765.366	0.0162108
765.444	0.0162489
765.522	0.0162749
765.600	0.0162250
765.678	0.0163802
765.756	0.0164686
765.834	0.0163698
765.913	0.0163217
765.991	0.0163480
766.069	0.0162612
766.147	0.0163285
766.225	0.0162267
766.303	0.0162285
766.381	0.0163320
766.459	0.0160912
766.538	0.0162112
766.616	0.0161547
766.694	0.0160847
766.772	0.0162032
766.850	0.0162868
766.928	0.0162400
767.006	0.0163164
767.084	0.0161629
767.163	0.0161082
767.241	0.0161008
767.319	0.0160550
767.397	0.0161037
767.475	0.0159148
767.553	0.0158952
767.631	0.0157931
767.709	0.0157529
767.788	0.0156526
767.866	0.0154987
767.944	0.0154475
768.022	0.0154210
768.100	0.0154266
768.178	0.0153387
768.256	0.0154814
768.334	0.0153820
768.413	0.0155722
768.491	0.0155280
768.569	0.0154993
768.647	0.0155591
768.725	0.0155756
768.803	0.0157043
768.881	0.0158026
768.959	0.0157956
769.038	0.0159554
769.116	0.0159727
769.194	0.0160275
769.272	0.0160391
769.350	0.0161624
769.428	0.0161933
769.506	0.0161660
769.584	0.0161521
769.663	0.0161594
769.741	0.0160612
769.819	0.0160532
769.897	0.0160273
769.975	0.0161285
770.053	0.0160597
770.131	0.0160117
770.209	0.0158515
770.288	0.0158179
770.366	0.0159478
770.444	0.0157567
770.522	0.0156714
770.600	0.0155193
770.678	0.0156866
770.756	0.0155608
770.834	0.0153913
770.913	0.0154313
770.991	0.0154310
771.069	0.0153555
771.147	0.0154186
771.225	0.0153287
771.303	0.0152921
771.381	0.0151907
771.459	0.0152390
771.538	0.0151398
771.616	0.0152402
771.694	0.0153188
771.772	0.0154266
771.850	0.0153693
771.928	0.0154532
772.006	0.0154141
772.084	0.0156274
772.163	0.0157701
772.241	0.0156906
772.319	0.0156164
772.397	0.0158585
772.475	0.0159409
772.553	0.0156058
772.631	0.0156853
772.709	0.0158414
772.788	0.0158087
772.866	0.0156931
772.944	0.0157990
773.022	0.0157767
773.100	0.0156756
773.178	0.0157150
773.256	0.0156487
773.334	0.0157242
773.413	0.0156911
773.491	0.0156759
773.569	0.0157912
773.647	0.0157246
773.725	0.0156320
773.803	0.0158594
773.881	0.0158798
773.959	0.0158378
774.038	0.0158402
774.116	0.0157339
774.194	0.0157229
774.272	0.0158829
774.350	0.0158644
774.428	0.0158275
774.506	0.0156863
774.584	0.0157658
774.663	0.0158203
774.741	0.0156104
774.819	0.0155309
774.897	0.0155771
774.975	0.0156198
775.053	0.0156290
775.131	0.0157987
775.209	0.0156779
775.288	0.0156392
775.366	0.0157720
775.444	0.0158169
775.522	0.0158355
775.600	0.0160325
775.678	0.0160324
775.756	0.0159526
775.834	0.0159616
775.913	0.0159928
775.991	0.0160098
776.069	0.0158582
776.147	0.0159413
776.225	0.0158575
776.303	0.0156639
776.381	0.0158717
776.459	0.0157310
776.538	0.0156427
776.616	0.0155691
776.694	0.0155275
776.772	0.0155253
776.850	0.0154929
776.928	0.0154106
777.006	0.0155564
777.084	0.0155440
777.163	0.0155006
777.241	0.0156302
777.319	0.0156441
777.397	0.0156520
777.475	0.0157300
777.553	0.0157643
777.631	0.0158205
777.709	0.0157256
777.788	0.0156540
777.866	0.0154709
777.944	0.0155444
778.022	0.0156703
778.100	0.0155868
778.178	0.0155531
778.256	0.0155816
778.334	0.0156912
778.413	0.0155714
778.491	0.0155819
778.569	0.0156239
778.647	0.0156563
778.725	0.0156850
778.803	0.0156765
778.881	0.0156448
778.959	0.0157314
779.038	0.0158542
779.116	0.0157589
779.194	0.0158593
779.272	0.0159464
779.350	0.0160892
779.428	0.0158837
779.506	0.0159953
779.584	0.0160571
779.663	0.0160075
779.741	0.0159720
779.819	0.0159026
779.897	0.0160095
779.975	0.0158650
780.053	0.0159467
780.131	0.0158380
780.209	0.0158086
780.288	0.0159196
780.366	0.0158375
780.444	0.0157404
780.522	0.0157538
780.600	0.0158356
780.678	0.0157917
780.756	0.0158556
780.834	0.0157839
780.913	0.0158867
780.991	0.0157533
781.069	0.0157738
781.147	0.0156818
781.225	0.0158289
781.303	0.0158505
781.381	0.0157755
781.459	0.0159254
781.538	0.0157435
781.616	0.0158527
781.694	0.0158636
781.772	0.0158876
781.850	0.0158414
781.928	0.0160142
782.006	0.0160652
782.084	0.0158896
782.163	0.0159028
782.241	0.0159233
782.319	0.0160335
782.397	0.0160276
782.475	0.0158400
782.553	0.0159947
782.631	0.0158623
782.709	0.0157750
782.788	0.0159314
782.866	0.0157525
782.944	0.0156116
783.022	0.0155921
783.100	0.0156683
783.178	0.0156173
783.256	0.0156300
783.334	0.0156597
783.413	0.0156216
783.491	0.0157308
783.569	0.0155233
783.647	0.0155540
783.725	0.0157055
783.803	0.0157980
783.881	0.0157455
783.959	0.0156597
784.038	0.0157603
784.116	0.0158713
784.194	0.0158385
784.272	0.0158380
784.350	0.0157948
784.428	0.0157083
784.506	0.0156147
784.584	0.0156635
784.663	0.0156182
784.741	0.0155390
784.819	0.0156702
784.897	0.0155924
784.975	0.0154494
785.053	0.0153671
785.131	0.0155830
785.209	0.0155244
785.288	0.0154128
785.366	0.0153799
785.444	0.0154949
785.522	0.0154476
785.600	0.0153752
785.678	0.0154780
785.756	0.0157182
785.834	0.0156338
785.913	0.0156229
785.991	0.0157655
786.069	0.0157198
786.147	0.0157474
786.225	0.0158051
786.303	0.0158475
786.381	0.0159207
786.459	0.0158817
786.538	0.0157915
786.616	0.0159581
786.694	0.0158051
786.772	0.0159232
786.850	0.0157368
786.928	0.0156794
787.006	0.0157674
787.084	0.0157365
787.163	0.0157712
787.241	0.0157775
787.319	0.0157870
787.397	0.0156857
787.475	0.0157446
787.553	0.0158898
787.631	0.0159203
787.709	0.0160841
787.788	0.0159650
787.866	0.0158244
787.944	0.0159821
788.022	0.0160530
788.100	0.0159938
788.178	0.0160940
788.256	0.0159931
788.334	0.0159875
788.413	0.0157856
788.491	0.0161118
788.569	0.0160411
788.647	0.0160786
788.725	0.0160269
788.803	0.0159719
788.881	0.0160767
788.959	0.0162122
789.038	0.0160463
789.116	0.0160629
789.194	0.0160615
789.272	0.0160381
789.350	0.0158549
789.428	0.0160898
789.506	0.0160177
789.584	0.0159476
789.663	0.0159499
789.741	0.0158880
789.819	0.0157724
789.897	0.0157926
789.975	0.0159102
790.053	0.0160024
790.131	0.0157476
790.209	0.0158378
790.288	0.0158446
790.366	0.0156799
790.444	0.0156676
790.522	0.0158053
790.600	0.0156003
790.678	0.0155582
790.756	0.0157362
790.834	0.0158964
790.913	0.0157218
790.991	0.0156007
791.069	0.0157033
791.147	0.0156126
791.225	0.0157253
791.303	0.0158411
791.381	0.0157984
791.459	0.0159424
791.538	0.0160505
791.616	0.0160500
791.694	0.0159254
791.772	0.0159693
791.850	0.0161310
791.928	0.0162344
792.006	0.0161027
792.084	0.0161037
792.163	0.0160576
792.241	0.0161037
792.319	0.0160728
792.397	0.0159161
792.475	0.0158282
792.553	0.0159995
792.631	0.0159451
792.709	0.0158273
792.788	0.0156470
792.866	0.0158858
792.944	0.0157355
793.022	0.0156369
793.100	0.0156443
793.178	0.0155826
793.256	0.0156572
793.334	0.0155410
793.413	0.0155836
793.491	0.0157049
793.569	0.0156572
793.647	0.0156835
793.725	0.0156554
793.803	0.0155829
793.881	0.0156159
793.959	0.0157335
794.038	0.0156596
794.116	0.0156490
794.194	0.0154073
794.272	0.0156081
794.350	0.0156746
794.428	0.0155837
794.506	0.0156438
794.584	0.0156208
794.663	0.0155947
794.741	0.0155154
794.819	0.0155878
794.897	0.0155560
794.975	0.0156101
795.053	0.0155530
795.131	0.0154510
795.209	0.0155556
795.288	0.0154099
795.366	0.0154828
795.444	0.0154922
795.522	0.0155573
795.600	0.0155918
795.678	0.0154064
795.756	0.0156469
795.834	0.0156892
795.913	0.0156929
795.991	0.0157092
796.069	0.0157911
796.147	0.0159539
796.225	0.0159196
796.303	0.0159763
796.381	0.0159970
796.459	0.0159747
796.538	0.0160104
796.616	0.0159830
796.694	0.0161829
796.772	0.0159192
796.850	0.0160948
796.928	0.0160296
797.006	0.0160284
797.084	0.0160372
797.163	0.0160611
797.241	0.0159908
797.319	0.0158099
797.397	0.0157294
797.475	0.0157592
797.553	0.0158119
797.631	0.0156460
797.709	0.0157274
797.788	0.0157410
797.866	0.0154996
797.944	0.0154311
798.022	0.0153826
798.100	0.0154295
798.178	0.0154033
798.256	0.0152119
798.334	0.0152303
798.413	0.0152064
798.491	0.0151073
798.569	0.0152852
798.647	0.0151852
798.725	0.0150270
798.803	0.0151149
798.881	0.0151761
798.959	0.0151311
799.038	0.0152452
799.116	0.0152154
799.194	0.0153259
799.272	0.0154656
799.350	0.0154300
799.428	0.0154879
799.506	0.0155807
799.584	0.0156363
799.663	0.0157446
799.741	0.0158082
799.819	0.0157121
799.897	0.0158372
799.975	0.0159050
800.053	0.0159843
800.131	0.0161098
800.209	0.0161598
800.288	0.0161459
800.366	0.0161882
800.444	0.0163100
800.522	0.0162592
800.600	0.0161765
800.678	0.0163342
800.756	0.0163380
800.834	0.0162753
800.913	0.0162444
800.991	0.0162505
801.069	0.0161848
801.147	0.0162587
801.225	0.0160680
801.303	0.0159428
801.381	0.0159756
801.459	0.0158656
801.538	0.0157506
801.616	0.0157822
801.694	0.0155619
801.772	0.0154536
801.850	0.0154690
801.928	0.0153983
802.006	0.0153087
802.084	0.0154195
802.163	0.0152838
802.241	0.0151410
802.319	0.0151862
802.397	0.0151845
802.475	0.0151500
802.553	0.0153406
802.631	0.0152972
802.709	0.0153751
802.788	0.0153317
802.866	0.0153527
802.944	0.0153053
803.022	0.0152998
803.100	0.0153786
803.178	0.0153096
803.256	0.0152496
803.334	0.0153642
803.413	0.0153403
803.491	0.0153683
803.569	0.0152769
803.647	0.0152267
803.725	0.0154565
803.803	0.0155295
803.881	0.0155003
803.959	0.0154552
804.038	0.0155204
804.116	0.0155492
804.194	0.0155977
804.272	0.0157985
804.350	0.0158217
804.428	0.0158345
804.506	0.0158440
804.584	0.0158315
804.663	0.0159672
804.741	0.0158248
804.819	0.0161081
804.897	0.0160767
804.975	0.0161119
805.053	0.0160961
805.131	0.0160571
805.209	0.0162391
805.288	0.0160929
805.366	0.0161344
805.444	0.0160824
805.522	0.0161386
805.600	0.0161958
805.678	0.0162333
805.756	0.0160444
805.834	0.0160863
805.913	0.0160857
805.991	0.0160221
806.069	0.0160166
806.147	0.0158944
806.225	0.0159415
806.303	0.0158142
806.381	0.0158260
806.459	0.0158212
806.538	0.0157550
806.616	0.0157823
806.694	0.0155817
806.772	0.0155656
806.850	0.0155128
806.928	0.0155205
807.006	0.0154122
807.084	0.0153862
807.163	0.0153457
807.241	0.0153461
807.319	0.0153172
807.397	0.0153618
807.475	0.0153117
807.553	0.0153629
807.631	0.0154582
807.709	0.0154391
807.788	0.0154031
807.866	0.0154400
807.944	0.0155579
808.022	0.0155225
808.100	0.0158354
808.178	0.0157944
808.256	0.0158367
808.334	0.0159470
808.413	0.0159332
808.491	0.0160359
808.569	0.0160902
808.647	0.0159663
808.725	0.0159191
808.803	0.0161642
808.881	0.0160326
808.959	0.0157796
809.038	0.0159552
809.116	0.0157355
809.194	0.0158958
809.272	0.0158234
809.350	0.0157526
809.428	0.0157491
809.506	0.0156528
809.584	0.0157038
809.663	0.0156009
809.741	0.0155490
809.819	0.0156570
809.897	0.0155106
809.975	0.0156809
810.053	0.0155475
810.131	0.0154816
810.209	0.0156500
810.288	0.0155638
810.366	0.0156393
810.444	0.0155564
810.522	0.0156465
810.600	0.0156892
810.678	0.0157247
810.756	0.0158601
810.834	0.0159537
810.913	0.0157861
810.991	0.0159482
811.069	0.0160284
811.147	0.0160410
811.225	0.0160524
811.303	0.0159162
811.381	0.0159866
811.459	0.0161443
811.538	0.0161518
811.616	0.0162083
811.694	0.0160856
811.772	0.0160966
811.850	0.0161852
811.928	0.0160140
812.006	0.0161993
812.084	0.0161431
812.163	0.0159622
812.241	0.0160448
812.319	0.0161556
812.397	0.0160703
812.475	0.0160665
812.553	0.0160226
812.631	0.0161657
812.709	0.0162067
812.788	0.0161543
812.866	0.0161828
812.944	0.0162083
813.022	0.0162108
813.100	0.0161372
813.178	0.0162220
813.256	0.0162234
813.334	0.0161353
813.413	0.0161123
813.491	0.0160271
813.569	0.0160143
813.647	0.0159966
813.725	0.0160458
813.803	0.0159147
813.881	0.0158778
813.959	0.0158836
814.038	0.0157743
814.116	0.0157140
814.194	0.0157218
814.272	0.0155885
814.350	0.0155619
814.428	0.0157658
814.506	0.0155624
814.584	0.0155306
814.663	0.0155293
814.741	0.0154638
814.819	0.0155318
814.897	0.0155431
814.975	0.0154747
815.053	0.0157080
815.131	0.0156468
815.209	0.0155968
815.288	0.0154329
815.366	0.0155582
815.444	0.0155019
815.522	0.0155449
815.600	0.0155124
815.678	0.0153983
815.756	0.0154386
815.834	0.0154252
815.913	0.0153975
815.991	0.0152944
816.069	0.0152518
816.147	0.0152628
816.225	0.0152012
816.303	0.0152990
816.381	0.0153076
816.459	0.0153407
816.538	0.0153502
816.616	0.0153709
816.694	0.0154506
816.772	0.0154878
816.850	0.0155209
816.928	0.0155457
817.006	0.0156437
817.084	0.0156824
817.163	0.0157088
817.241	0.0157587
817.319	0.0157108
817.397	0.0157587
817.475	0.0159055
817.553	0.0157741
817.631	0.0157522
817.709	0.0159187
817.788	0.0157687
817.866	0.0158450
817.944	0.0159146
818.022	0.0158192
818.100	0.0158022
818.178	0.0159425
818.256	0.0159232
818.334	0.0160033
818.413	0.0159345
818.491	0.0158213
818.569	0.0158879
818.647	0.0160226
818.725	0.0160466
818.803	0.0158833
818.881	0.0158763
818.959	0.0159998
819.038	0.0161340
819.116	0.0160394
819.194	0.0159828
819.272	0.0159606
819.350	0.0159043
819.428	0.0158301
819.506	0.0158524
819.584	0.0158987
819.663	0.0157655
819.741	0.0156821
819.819	0.0156640
819.897	0.0155091
819.975	0.0155499
820.053	0.0155609
820.131	0.0157058
820.209	0.0155517
820.288	0.0154158
820.366	0.0154618
820.444	0.0156004
820.522	0.0156124
820.600	0.0156018
820.678	0.0153767
820.756	0.0156597
820.834	0.0156394
820.913	0.0158030
820.991	0.0157311
821.069	0.0157452
821.147	0.0157816
821.225	0.0157824
821.303	0.0156747
821.381	0.0157860
821.459	0.0156451
821.538	0.0157373
821.616	0.0158320
821.694	0.0158533
821.772	0.0159804
821.850	0.0158953
821.928	0.0159425
822.006	0.0158591
822.084	0.0159187
822.163	0.0160255
822.241	0.0159361
822.319	0.0159346
822.397	0.0158845
822.475	0.0158366
822.553	0.0158685
822.631	0.0159188
822.709	0.0158231
822.788	0.0158137
822.866	0.0156562
822.944	0.0157819
823.022	0.0157246
823.100	0.0157592
823.178	0.0155022
823.256	0.0155682
823.334	0.0156083
823.413	0.0156313
823.491	0.0154997
823.569	0.0154097
823.647	0.0155900
823.725	0.0157853
823.803	0.0157701
823.881	0.0157218
823.959	0.0155688
824.038	0.0157679
824.116	0.0156400
824.194	0.0158480
824.272	0.0157754
824.350	0.0157753
824.428	0.0157577
824.506	0.0157877
824.584	0.0158302
824.663	0.0158376
824.741	0.0157235
824.819	0.0157870
824.897	0.0158488
824.975	0.0157315
825.053	0.0157227
825.131	0.0158070
825.209	0.0158199
825.288	0.0156973
825.366	0.0157028
825.444	0.0157654
825.522	0.0157856
825.600	0.0159248
825.678	0.0159259
825.756	0.0158978
825.834	0.0159354
825.913	0.0160574
825.991	0.0160962
826.069	0.0161765
826.147	0.0161249
826.225	0.0161691
826.303	0.0161342
826.381	0.0160581
826.459	0.0162698
826.538	0.0162323
826.616	0.0160830
826.694	0.0160591
826.772	0.0161019
826.850	0.0160482
826.928	0.0160616
827.006	0.0158864
827.084	0.0159504
827.163	0.0159539
827.241	0.0158296
827.319	0.0158106
827.397	0.0159096
827.475	0.0158588
827.553	0.0156750
827.631	0.0157063
827.709	0.0156753
827.788	0.0156838
827.866	0.0155643
827.944	0.0156704
828.022	0.0156671
828.100	0.0155053
828.178	0.0155590
828.256	0.0155153
828.334	0.0155870
828.413	0.0155510
828.491	0.0154346
828.569	0.0155927
828.647	0.0154474
828.725	0.0154434
828.803	0.0155065
828.881	0.0154496
828.959	0.0154895
829.038	0.0155927
829.116	0.0153289
829.194	0.0154583
829.272	0.0153754
829.350	0.0154352
829.428	0.0155553
829.506	0.0155429
829.584	0.0154372
829.663	0.0156500
829.741	0.0154590
829.819	0.0155473
829.897	0.0156525
829.975	0.0155280
830.053	0.0157805
830.131	0.0156918
830.209	0.0158140
830.288	0.0156725
830.366	0.0156674
830.444	0.0157887
830.522	0.0157533
830.600	0.0158118
830.678	0.0159599
830.756	0.0158901
830.834	0.0158736
830.913	0.0158927
830.991	0.0159903
831.069	0.0159210
831.147	0.0158880
831.225	0.0160081
831.303	0.0159644
831.381	0.0160725
831.459	0.0158871
831.538	0.0158430
831.616	0.0158625
831.694	0.0159019
831.772	0.0157736
831.850	0.0158578
831.928	0.0157170
832.006	0.0156678
832.084	0.0157980
832.163	0.0157414
832.241	0.0156981
832.319	0.0157940
832.397	0.0157779
832.475	0.0157713
832.553	0.0156853
832.631	0.0158249
832.709	0.0157699
832.788	0.0157428
832.866	0.0159398
832.944	0.0158279
833.022	0.0158750
833.100	0.0159143
833.178	0.0160205
833.256	0.0160146
833.334	0.0159948
833.413	0.0160341
833.491	0.0160947
833.569	0.0160557
833.647	0.0159416
833.725	0.0159693
833.803	0.0158866
833.881	0.0159000
833.959	0.0159708
834.038	0.0159241
834.116	0.0157483
834.194	0.0158285
834.272	0.0157893
834.350	0.0157317
834.428	0.0158160
834.506	0.0158878
834.584	0.0156950
834.663	0.0156869
834.741	0.0157164
834.819	0.0158392
834.897	0.0157664
834.975	0.0159035
835.053	0.0157783
835.131	0.0158477
835.209	0.0157478
835.288	0.0158038
835.366	0.0158912
835.444	0.0158729
835.522	0.0156567
835.600	0.0157371
835.678	0.0157466
835.756	0.0156975
835.834	0.0156187
835.913	0.0155726
835.991	0.0155188
836.069	0.0155812
836.147	0.0156339
836.225	0.0156202
836.303	0.0155164
836.381	0.0154818
836.459	0.0155767
836.538	0.0154380
836.616	0.0155626
836.694	0.0155152
836.772	0.0155235
836.850	0.0156529
836.928	0.0156350
837.006	0.0156252
837.084	0.0158003
837.163	0.0158228
837.241	0.0157204
837.319	0.0157706
837.397	0.0158307
837.475	0.0157144
837.553	0.0159068
837.631	0.0157336
837.709	0.0159530
837.788	0.0159664
837.866	0.0159980
837.944	0.0159493
838.022	0.0159285
838.100	0.0157725
838.178	0.0157899
838.256	0.0157444
838.334	0.0156615
838.413	0.0156786
838.491	0.0156476
838.569	0.0156419
838.647	0.0156506
838.725	0.0156706
838.803	0.0154726
838.881	0.0155702
838.959	0.0155278
839.038	0.0154333
839.116	0.0155219
839.194	0.0154394
839.272	0.0153870
839.350	0.0155063
839.428	0.0154733
839.506	0.0156116
839.584	0.0155938
839.663	0.0155857
839.741	0.0155114
839.819	0.0155129
839.897	0.0156027
839.975	0.0156210
840.053	0.0155373
840.131	0.0157697
840.209	0.0156421
840.288	0.0157869
840.366	0.0158018
840.444	0.0156605
840.522	0.0156867
840.600	0.0157467
840.678	0.0156405
840.756	0.0156218
840.834	0.0156742
840.913	0.0155935
840.991	0.0157254
841.069	0.0156937
841.147	0.0157677
841.225	0.0158041
841.303	0.0156787
841.381	0.0157169
841.459	0.0157553
841.538	0.0158411
841.616	0.0158397
841.694	0.0156570
841.772	0.0159224
841.850	0.0160170
841.928	0.0159220
842.006	0.0159085
842.084	0.0161135
842.163	0.0159248
842.241	0.0161114
842.319	0.0159921
842.397	0.0159697
842.475	0.0161062
842.553	0.0159506
842.631	0.0159946
842.709	0.0159932
842.788	0.0160036
842.866	0.0160722
842.944	0.0160287
843.022	0.0159821
843.100	0.0160216
843.178	0.0157844
843.256	0.0157916
843.334	0.0158057
843.413	0.0156825
843.491	0.0157925
843.569	0.0157258
843.647	0.0158234
843.725	0.0155457
843.803	0.0156538
843.881	0.0156374
843.959	0.0156743
844.038	0.0156315
844.116	0.0157285
844.194	0.0156715
844.272	0.0156874
844.350	0.0155068
844.428	0.0155991
844.506	0.0154862
844.584	0.0156145
844.663	0.0156934
844.741	0.0156278
844.819	0.0155486
844.897	0.0157530
844.975	0.0157937
845.053	0.0156609
845.131	0.0157625
845.209	0.0156705
845.288	0.0156648
845.366	0.0155940
845.444	0.0157373
845.522	0.0156487
845.600	0.0156060
845.678	0.0157033
845.756	0.0157663
845.834	0.0157402
845.913	0.0158392
845.991	0.0158248
846.069	0.0159701
846.147	0.0157877
846.225	0.0158601
846.303	0.0158355
846.381	0.0159097
846.459	0.0160553
846.538	0.0159127
846.616	0.0161092
846.694	0.0158926
846.772	0.0159740
846.850	0.0159802
846.928	0.0159963
847.006	0.0159563
847.084	0.0159569
847.163	0.0159777
847.241	0.0159098
847.319	0.0160045
847.397	0.0159706
847.475	0.0158765
847.553	0.0158784
847.631	0.0159367
847.709	0.0158637
847.788	0.0160462
847.866	0.0159357
847.944	0.0158994
848.022	0.0159542
848.100	0.0158811
848.178	0.0158715
848.256	0.0158863
848.334	0.0158639
848.413	0.0156384
848.491	0.0157654
848.569	0.0158025
848.647	0.0156292
848.725	0.0156544
848.803	0.0156299
848.881	0.0157169
848.959	0.0157033
849.038	0.0156170
849.116	0.0155878
849.194	0.0157121
849.272	0.0157954
849.350	0.0157146
849.428	0.0156195
849.506	0.0156749
849.584	0.0156394
849.663	0.0157804
849.741	0.0157268
849.819	0.0157327
849.897	0.0157018
849.975	0.0156085
850.053	0.0157090
850.131	0.0157542
850.209	0.0157346
850.288	0.0157816
850.366	0.0156356
850.444	0.0156965
850.522	0.0156266
850.600	0.0158521
850.678	0.0156954
850.756	0.0157800
850.834	0.0157168
850.913	0.0157793
850.991	0.0158324
851.069	0.0158243
851.147	0.0158188
851.225	0.0160472
851.303	0.0157995
851.381	0.0157527
851.459	0.0159164
851.538	0.0158704
851.616	0.0158118
851.694	0.0158369
851.772	0.0158685
851.850	0.0158904
851.928	0.0157281
852.006	0.0156311
852.084	0.0156776
852.163	0.0157880
852.241	0.0157984
852.319	0.0158996
852.397	0.0157119
852.475	0.0157829
852.553	0.0158687
852.631	0.0158242
852.709	0.0158692
852.788	0.0159811
852.866	0.0159243
852.944	0.0158473
853.022	0.0159198
853.100	0.0159978
853.178	0.0159371
853.256	0.0160000
853.334	0.0158356
853.413	0.0160553
853.491	0.0160290
853.569	0.0159733
853.647	0.0159916
853.725	0.0159332
853.803	0.0159251
853.881	0.0160876
853.959	0.0160770
854.038	0.0160009
854.116	0.0160946
854.194	0.0160110
854.272	0.0159593
854.350	0.0159598
854.428	0.0159106
854.506	0.0159348
854.584	0.0159267
854.663	0.0157561
854.741	0.0158632
854.819	0.0157214
854.897	0.0158818
854.975	0.0158636
855.053	0.0156915
855.131	0.0158119
855.209	0.0158436
855.288	0.0159167
855.366	0.0158571
855.444	0.0159416
855.522	0.0157822
855.600	0.0159035
855.678	0.0159374
855.756	0.0159039
855.834	0.0160118
855.913	0.0159485
855.991	0.0160075
856.069	0.0159626
856.147	0.0158889
856.225	0.0158382
856.303	0.0158756
856.381	0.0159212
856.459	0.0158279
856.538	0.0157868
856.616	0.0157237
856.694	0.0157890
856.772	0.0158032
856.850	0.0158436
856.928	0.0157490
857.006	0.0158664
857.084	0.0159794
857.163	0.0158345
857.241	0.0157900
857.319	0.0158808
857.397	0.0158711
857.475	0.0158164
857.553	0.0160345
857.631	0.0159534
857.709	0.0159252
857.788	0.0158115
857.866	0.0158356
857.944	0.0158995
858.022	0.0158744
858.100	0.0156411
858.178	0.0156926
858.256	0.0155915
858.334	0.0157915
858.413	0.0158260
858.491	0.0155952
858.569	0.0155270
858.647	0.0157227
858.725	0.0157457
858.803	0.0157383
858.881	0.0156142
858.959	0.0156339
859.038	0.0157431
859.116	0.0156145
859.194	0.0156116
859.272	0.0157082
859.350	0.0157334
859.428	0.0157442
859.506	0.0155789
859.584	0.0156255
859.663	0.0156158
859.741	0.0156641
859.819	0.0155582
859.897	0.0155813
859.975	0.0155973
860.053	0.0157500
860.131	0.0156416
860.209	0.0157007
860.288	0.0157435
860.366	0.0158035
860.444	0.0157205
860.522	0.0158405
860.600	0.0157054
860.678	0.0156744
860.756	0.0156311
860.834	0.0156428
860.913	0.0157107
860.991	0.0155459
861.069	0.0155852
861.147	0.0155991
861.225	0.0154578
861.303	0.0155636
861.381	0.0153908
861.459	0.0155276
861.538	0.0155016
861.616	0.0154391
861.694	0.0154697
861.772	0.0155344
861.850	0.0154929
861.928	0.0154916
862.006	0.0155952
862.084	0.0155202
862.163	0.0155365
862.241	0.0155543
862.319	0.0156275
862.397	0.0156164
862.475	0.0155320
862.553	0.0156017
862.631	0.0156410
862.709	0.0157624
862.788	0.0157463
862.866	0.0157957
862.944	0.0157205
863.022	0.0158749
863.100	0.0158128
863.178	0.0157325
863.256	0.0156995
863.334	0.0158627
863.413	0.0157613
863.491	0.0157552
863.569	0.0157706
863.647	0.0157273
863.725	0.0157816
863.803	0.0157616
863.881	0.0157726
863.959	0.0157262
864.038	0.0156410
864.116	0.0155175
864.194	0.0155548
864.272	0.0156701
864.350	0.0156944
864.428	0.0155373
864.506	0.0155628
864.584	0.0155675
864.663	0.0156752
864.741	0.0155997
864.819	0.0155900
864.897	0.0155985
864.975	0.0155334
865.053	0.0155830
865.131	0.0155231
865.209	0.0155983
865.288	0.0155382
865.366	0.0154822
865.444	0.0155895
865.522	0.0155939
865.600	0.0156985
865.678	0.0155173
865.756	0.0155661
865.834	0.0156478
865.913	0.0156381
865.991	0.0157190
866.069	0.0158134
866.147	0.0157358
866.225	0.0158858
866.303	0.0157282
866.381	0.0157240
866.459	0.0158683
866.538	0.0159795
866.616	0.0159592
866.694	0.0158012
866.772	0.0159473
866.850	0.0160975
866.928	0.0159014
867.006	0.0159475
867.084	0.0159312
867.163	0.0159199
867.241	0.0158081
867.319	0.0159074
867.397	0.0160181
867.475	0.0160345
867.553	0.0159576
867.631	0.0159746
867.709	0.0161025
867.788	0.0161033
867.866	0.0161325
867.944	0.0158849
868.022	0.0160326
868.100	0.0160287
868.178	0.0159682
868.256	0.0159961
868.334	0.0160014
868.413	0.0158062
868.491	0.0158915
868.569	0.0159114
868.647	0.0157887
868.725	0.0158235
868.803	0.0158276
868.881	0.0157576
868.959	0.0157471
869.038	0.0157384
869.116	0.0157770
869.194	0.0157288
869.272	0.0155930
869.350	0.0158412
869.428	0.0158636
869.506	0.0156953
869.584	0.0157523
869.663	0.0157729
869.741	0.0156448
869.819	0.0157148
869.897	0.0157667
869.975	0.0157777
870.053	0.0158219
870.131	0.0158073
870.209	0.0159388
870.288	0.0158282
870.366	0.0158591
870.444	0.0158179
870.522	0.0159072
870.600	0.0159015
870.678	0.0159719
870.756	0.0159474
870.834	0.0159317
870.913	0.0159084
870.991	0.0159522
871.069	0.0160362
871.147	0.0159210
871.225	0.0159813
871.303	0.0158740
871.381	0.0159576
871.459	0.0159288
871.538	0.0158634
871.616	0.0158166
871.694	0.0158405
871.772	0.0159943
871.850	0.0160979
871.928	0.0159780
872.006	0.0160123
872.084	0.0160562
872.163	0.0160101
872.241	0.0160471
872.319	0.0158618
872.397	0.0159650
872.475	0.0159237
872.553	0.0158901
872.631	0.0159518
872.709	0.0159231
872.788	0.0158743
872.866	0.0158427
872.944	0.0157809
873.022	0.0157025
873.100	0.0159322
873.178	0.0157983
873.256	0.0158368
873.334	0.0157294
873.413	0.0158945
873.491	0.0158466
873.569	0.0157027
873.647	0.0155483
873.725	0.0155923
873.803	0.0156779
873.881	0.0157841
873.959	0.0156405
874.038	0.0156071
874.116	0.0156834
874.194	0.0156676
874.272	0.0156602
874.350	0.0157195
874.428	0.0157426
874.506	0.0157238
874.584	0.0157869
874.663	0.0156543
874.741	0.0158186
874.819	0.0157249
874.897	0.0156998
874.975	0.0158067
875.053	0.0157861
875.131	0.0159021
875.209	0.0158385
875.288	0.0158572
875.366	0.0158537
875.444	0.0159637
875.522	0.0159925
875.600	0.0160533
875.678	0.0157909
875.756	0.0158958
875.834	0.0158939
875.913	0.0159988
875.991	0.0159209
876.069	0.0158801
876.147	0.0159678
876.225	0.0158429
876.303	0.0158974
876.381	0.0159444
876.459	0.0160099
876.538	0.0159662
876.616	0.0159039
876.694	0.0157906
876.772	0.0157423
876.850	0.0159060
876.928	0.0157290
877.006	0.0156864
877.084	0.0156865
877.163	0.0157922
877.241	0.0158137
877.319	0.0159110
877.397	0.0158251
877.475	0.0157412
877.553	0.0157739
877.631	0.0156445
877.709	0.0156974
877.788	0.0156452
877.866	0.0156796
877.944	0.0158101
878.022	0.0156788
878.100	0.0157021
878.178	0.0157296
878.256	0.0158691
878.334	0.0158402
878.413	0.0159086
878.491	0.0158224
878.569	0.0159784
878.647	0.0159390
878.725	0.0160168
878.803	0.0159411
878.881	0.0160994
878.959	0.0161710
879.038	0.0161704
879.116	0.0161540
879.194	0.0162214
879.272	0.0160230
879.350	0.0160531
879.428	0.0160164
879.506	0.0158909
879.584	0.0159197
879.663	0.0159740
879.741	0.0160103
879.819	0.0159824
879.897	0.0159853
879.975	0.0159840
880.053	0.0159653
880.131	0.0158865
880.209	0.0157633
880.288	0.0159167
880.366	0.0158604
880.444	0.0156821
880.522	0.0158742
880.600	0.0158877
880.678	0.0158355
880.756	0.0157926
880.834	0.0157731
880.913	0.0159154
880.991	0.0158213
881.069	0.0157593
881.147	0.0158725
881.225	0.0158281
881.303	0.0157595
881.381	0.0157616
881.459	0.0158018
881.538	0.0158160
881.616	0.0157860
881.694	0.0157852
881.772	0.0158595
881.850	0.0157035
881.928	0.0157354
882.006	0.0156371
882.084	0.0156592
882.163	0.0155614
882.241	0.0155212
882.319	0.0154112
882.397	0.0155642
882.475	0.0155672
882.553	0.0155228
882.631	0.0154498
882.709	0.0155381
882.788	0.0154922
882.866	0.0156637
882.944	0.0156005
883.022	0.0156479
883.100	0.0157496
883.178	0.0157316
883.256	0.0156845
883.334	0.0156833
883.413	0.0158604
883.491	0.0158790
883.569	0.0159403
883.647	0.0157293
883.725	0.0157971
883.803	0.0159750
883.881	0.0158922
883.959	0.0158906
884.038	0.0159058
884.116	0.0159315
884.194	0.0160509
884.272	0.0157821
884.350	0.0158113
884.428	0.0158976
884.506	0.0157156
884.584	0.0157600
884.663	0.0157420
884.741	0.0157373
884.819	0.0157821
884.897	0.0156786
884.975	0.0155881
885.053	0.0157093
885.131	0.0156348
885.209	0.0155307
885.288	0.0156337
885.366	0.0156155
885.444	0.0155273
885.522	0.0155158
885.600	0.0156135
885.678	0.0156223
885.756	0.0155555
885.834	0.0155587
885.913	0.0155086
885.991	0.0156557
886.069	0.0154707
886.147	0.0156878
886.225	0.0157232
886.303	0.0157597
886.381	0.0156354
886.459	0.0156653
886.538	0.0155431
886.616	0.0155750
886.694	0.0157931
886.772	0.0157868
886.850	0.0156746
886.928	0.0157892
887.006	0.0158449
887.084	0.0157909
887.163	0.0157862
887.241	0.0157963
887.319	0.0157137
887.397	0.0159041
887.475	0.0159602
887.553	0.0158991
887.631	0.0159514
887.709	0.0159197
887.788	0.0158831
887.866	0.0159515
887.944	0.0159846
888.022	0.0159518
888.100	0.0158998
888.178	0.0159145
888.256	0.0159439
888.334	0.0157861
888.413	0.0158463
888.491	0.0159287
888.569	0.0157591
888.647	0.0157517
888.725	0.0157372
888.803	0.0156390
888.881	0.0156161
888.959	0.0157352
889.038	0.0157091
889.116	0.0157256
889.194	0.0156715
889.272	0.0156306
889.350	0.0156066
889.428	0.0156329
889.506	0.0155917
889.584	0.0155662
889.663	0.0156157
889.741	0.0155905
889.819	0.0156679
889.897	0.0155651
889.975	0.0156032
890.053	0.0155635
890.131	0.0155309
890.209	0.0156513
890.288	0.0157052
890.366	0.0156480
890.444	0.0155220
890.522	0.0155835
890.600	0.0156398
890.678	0.0156821
890.756	0.0155261
890.834	0.0155556
890.913	0.0155696
890.991	0.0156475
891.069	0.0156649
891.147	0.0156626
891.225	0.0158112
891.303	0.0157646
891.381	0.0156857
891.459	0.0158220
891.538	0.0157184
891.616	0.0158350
891.694	0.0157478
891.772	0.0157431
891.850	0.0156771
891.928	0.0158255
892.006	0.0158392
892.084	0.0157067
892.163	0.0158043
892.241	0.0157838
892.319	0.0157372
892.397	0.0158688
892.475	0.0156593
892.553	0.0157378
892.631	0.0157629
892.709	0.0157539
892.788	0.0157822
892.866	0.0157677
892.944	0.0156443
893.022	0.0157570
893.100	0.0156185
893.178	0.0157260
893.256	0.0156966
893.334	0.0156057
893.413	0.0156241
893.491	0.0158344
893.569	0.0158456
893.647	0.0157745
893.725	0.0157037
893.803	0.0157269
893.881	0.0157592
893.959	0.0156146
894.038	0.0156502
894.116	0.0156552
894.194	0.0155987
894.272	0.0156598
894.350	0.0157023
894.428	0.0157222
894.506	0.0156105
894.584	0.0156236
894.663	0.0156491
894.741	0.0156631
894.819	0.0159109
894.897	0.0158259
894.975	0.0158881
895.053	0.0158566
895.131	0.0158208
895.209	0.0157867
895.288	0.0158806
895.366	0.0158690
895.444	0.0158336
895.522	0.0158720
895.600	0.0157751
895.678	0.0158208
895.756	0.0158290
895.834	0.0158002
895.913	0.0158363
895.991	0.0158617
896.069	0.0158117
896.147	0.0159286
896.225	0.0158874
896.303	0.0158924
896.381	0.0158307
896.459	0.0156193
896.538	0.0157818
896.616	0.0158226
896.694	0.0157327
896.772	0.0156355
896.850	0.0156047
896.928	0.0156317
897.006	0.0156087
897.084	0.0156872
897.163	0.0156301
897.241	0.0156914
897.319	0.0157569
897.397	0.0157082
897.475	0.0156749
897.553	0.0155868
897.631	0.0156676
897.709	0.0157594
897.788	0.0156313
897.866	0.0155135
897.944	0.0156688
898.022	0.0156794
898.100	0.0157903
898.178	0.0156974
898.256	0.0156982
898.334	0.0157829
898.413	0.0157123
898.491	0.0156948
898.569	0.0156493
898.647	0.0156001
898.725	0.0157214
898.803	0.0158282
898.881	0.0157278
898.959	0.0156098
899.038	0.0157811
899.116	0.0157736
899.194	0.0158197
899.272	0.0158490
899.350	0.0157660
899.428	0.0158728
899.506	0.0157420
899.584	0.0158167
899.663	0.0157196
899.741	0.0158254
899.819	0.0158072
899.897	0.0158218
899.975	0.0157127
900.053	0.0157587
900.131	0.0155806
900.209	0.0157655
900.288	0.0156924
900.366	0.0157247
900.444	0.0156427
900.522	0.0156807
900.600	0.0156749
900.678	0.0155975
900.756	0.0154329
900.834	0.0156727
900.913	0.0155238
900.991	0.0155106
901.069	0.0155379
901.147	0.0154018
901.225	0.0154193
901.303	0.0155201
901.381	0.0155498
901.459	0.0155823
901.538	0.0156715
901.616	0.0156197
901.694	0.0156432
901.772	0.0155307
901.850	0.0157013
901.928	0.0156731
902.006	0.0157107
902.084	0.0157778
902.163	0.0157885
902.241	0.0158283
902.319	0.0157970
902.397	0.0157823
902.475	0.0157668
902.553	0.0157019
902.631	0.0157561
902.709	0.0158431
902.788	0.0156834
902.866	0.0156736
902.944	0.0156977
903.022	0.0156290
903.100	0.0156453
903.178	0.0157388
903.256	0.0156876
903.334	0.0158389
903.413	0.0156579
903.491	0.0156902
903.569	0.0157954
903.647	0.0157310
903.725	0.0157543
903.803	0.0156529
903.881	0.0157675
903.959	0.0158071
904.038	0.0156572
904.116	0.0157830
904.194	0.0158379
904.272	0.0156857
904.350	0.0157776
904.428	0.0156938
904.506	0.0157876
904.584	0.0155489
904.663	0.0156306
904.741	0.0157685
904.819	0.0157102
904.897	0.0156671
904.975	0.0156696
905.053	0.0156580
905.131	0.0156100
905.209	0.0157078
905.288	0.0155560
905.366	0.0156364
905.444	0.0157679
905.522	0.0155277
905.600	0.0157526
905.678	0.0157009
905.756	0.0156274
905.834	0.0157713
905.913	0.0157339
905.991	0.0156331
906.069	0.0156815
906.147	0.0156766
906.225	0.0157169
906.303	0.0156504
906.381	0.0157456
906.459	0.0157748
906.538	0.0157729
906.616	0.0158504
906.694	0.0158549
906.772	0.0156230
906.850	0.0156993
906.928	0.0157375
907.006	0.0157328
907.084	0.0156816
907.163	0.0157302
907.241	0.0156834
907.319	0.0157990
907.397	0.0156189
907.475	0.0157731
907.553	0.0158204
907.631	0.0156269
907.709	0.0158389
907.788	0.0158842
907.866	0.0157624
907.944	0.0157612
908.022	0.0156799
908.100	0.0157541
908.178	0.0157516
908.256	0.0158349
908.334	0.0158546
908.413	0.0158765
908.491	0.0159388
908.569	0.0159100
908.647	0.0158003
908.725	0.0159944
908.803	0.0160520
908.881	0.0159180
908.959	0.0159949
909.038	0.0157939
909.116	0.0159309
909.194	0.0158866
909.272	0.0158916
909.350	0.0157346
909.428	0.0159551
909.506	0.0158357
909.584	0.0157611
909.663	0.0158624
909.741	0.0157859
909.819	0.0157231
909.897	0.0156450
909.975	0.0156846
910.053	0.0156501
910.131	0.0156934
910.209	0.0156612
910.288	0.0156442
910.366	0.0156438
910.444	0.0155741
910.522	0.0156796
910.600	0.0156297
910.678	0.0156292
910.756	0.0156341
910.834	0.0156136
910.913	0.0157367
910.991	0.0158128
911.069	0.0157510
911.147	0.0159055
911.225	0.0158165
911.303	0.0157647
911.381	0.0158001
911.459	0.0158733
911.538	0.0158759
911.616	0.0158535
911.694	0.0158968
911.772	0.0159928
911.850	0.0158968
911.928	0.0158492
912.006	0.0158867
912.084	0.0158894
912.163	0.0158285
912.241	0.0158669
912.319	0.0157877
912.397	0.0158257
912.475	0.0160188
912.553	0.0158773
912.631	0.0157710
912.709	0.0159191
912.788	0.0157026
912.866	0.0158620
912.944	0.0157753
913.022	0.0158768
913.100	0.0158434
913.178	0.0157887
913.256	0.0157520
913.334	0.0157794
913.413	0.0157417
913.491	0.0157889
913.569	0.0157513
913.647	0.0156752
913.725	0.0157087
913.803	0.0158656
913.881	0.0157138
913.959	0.0156445
914.038	0.0157243
914.116	0.0157738
914.194	0.0157317
914.272	0.0158257
914.350	0.0158257
914.428	0.0157018
914.506	0.0158377
914.584	0.0156351
914.663	0.0157743
914.741	0.0157526
914.819	0.0156608
914.897	0.0158692
914.975	0.0156500
915.053	0.0156495
915.131	0.0155572
915.209	0.0154845
915.288	0.0156241
915.366	0.0155709
915.444	0.0156133
915.522	0.0157144
915.600	0.0157538
915.678	0.0155791
915.756	0.0157812
915.834	0.0158141
915.913	0.0157590
915.991	0.0157123
916.069	0.0158247
916.147	0.0157207
916.225	0.0158641
916.303	0.0157635
916.381	0.0158708
916.459	0.0160202
916.538	0.0158755
916.616	0.0157468
916.694	0.0158031
916.772	0.0159539
916.850	0.0159006
916.928	0.0158303
917.006	0.0158134
917.084	0.0160057
917.163	0.0158214
917.241	0.0157930
917.319	0.0157691
917.397	0.0157877
917.475	0.0157236
917.553	0.0157681
917.631	0.0158013
917.709	0.0158155
917.788	0.0157671
917.866	0.0157697
917.944	0.0157578
918.022	0.0157519
918.100	0.0155995
918.178	0.0158055
918.256	0.0156519
918.334	0.0156884
918.413	0.0157333
918.491	0.0155889
918.569	0.0155183
918.647	0.0155733
918.725	0.0155289
918.803	0.0155358
918.881	0.0153868
918.959	0.0154379
919.038	0.0155257
919.116	0.0153503
919.194	0.0153536
919.272	0.0155360
919.350	0.0153187
919.428	0.0154627
919.506	0.0154092
919.584	0.0153104
919.663	0.0153502
919.741	0.0153731
919.819	0.0155562
919.897	0.0155299
