05/27/2022	02:05:34	Ver.	4.1	UNKNOWN
Optical Delay	449.991307	Delta X		0.078125	Sweeps	1	Scan Rate	0/0
Coordinates	Axis 1	NaN	Axis 2	NaN	Axis 3	NaN	Axis 4	NaN	Axis 5	NaN	Axis 6	0.000000
TX Power	0.000000	RX Power	0.000000

449.991	0.0161057
450.069	0.0164043
450.148	0.0161282
450.226	0.0159836
450.304	0.0163830
450.382	0.0164406
450.460	0.0159645
450.538	0.0161331
450.616	0.0161983
450.694	0.0164207
450.773	0.0160213
450.851	0.0158474
450.929	0.0163219
451.007	0.0160748
451.085	0.0160343
451.163	0.0160156
451.241	0.0158108
451.319	0.0159660
451.398	0.0162041
451.476	0.0159927
451.554	0.0161182
451.632	0.0161797
451.710	0.0161674
451.788	0.0162567
451.866	0.0160530
451.944	0.0158020
452.023	0.0159851
452.101	0.0160023
452.179	0.0160908
452.257	0.0162899
452.335	0.0161953
452.413	0.0160339
452.491	0.0161232
452.569	0.0164822
452.648	0.0160900
452.726	0.0159702
452.804	0.0160400
452.882	0.0157745
452.960	0.0159397
453.038	0.0161758
453.116	0.0161922
453.194	0.0160179
453.273	0.0158691
453.351	0.0164028
453.429	0.0160141
453.507	0.0163300
453.585	0.0162701
453.663	0.0160290
453.741	0.0157398
453.819	0.0161888
453.898	0.0163826
453.976	0.0161758
454.054	0.0160721
454.132	0.0158115
454.210	0.0160610
454.288	0.0162155
454.366	0.0163715
454.444	0.0161285
454.523	0.0162506
454.601	0.0163105
454.679	0.0160591
454.757	0.0159966
454.835	0.0158829
454.913	0.0161800
454.991	0.0162624
455.069	0.0163666
455.148	0.0161549
455.226	0.0161304
455.304	0.0162949
455.382	0.0159847
455.460	0.0163143
455.538	0.0159630
455.616	0.0160721
455.694	0.0161034
455.773	0.0160828
455.851	0.0159927
455.929	0.0163765
456.007	0.0160538
456.085	0.0158379
456.163	0.0159775
456.241	0.0161472
456.319	0.0161583
456.398	0.0160873
456.476	0.0162209
456.554	0.0160290
456.632	0.0161343
456.710	0.0162006
456.788	0.0163128
456.866	0.0161648
456.944	0.0162201
457.023	0.0160488
457.101	0.0160561
457.179	0.0160542
457.257	0.0158566
457.335	0.0161987
457.413	0.0161591
457.491	0.0159954
457.569	0.0159794
457.648	0.0161312
457.726	0.0162868
457.804	0.0164246
457.882	0.0163506
457.960	0.0160778
458.038	0.0160301
458.116	0.0161831
458.194	0.0161545
458.273	0.0163258
458.351	0.0162544
458.429	0.0160011
458.507	0.0160957
458.585	0.0158386
458.663	0.0162842
458.741	0.0160770
458.819	0.0161011
458.898	0.0161041
458.976	0.0161419
459.054	0.0160923
459.132	0.0162506
459.210	0.0164680
459.288	0.0160641
459.366	0.0160980
459.444	0.0159439
459.523	0.0161434
459.601	0.0157719
459.679	0.0165115
459.757	0.0164837
459.835	0.0161388
459.913	0.0160862
459.991	0.0160526
460.069	0.0159119
460.148	0.0162434
460.226	0.0163170
460.304	0.0163513
460.382	0.0161900
460.460	0.0159840
460.538	0.0159348
460.616	0.0161076
460.694	0.0162563
460.773	0.0163513
460.851	0.0158230
460.929	0.0160782
461.007	0.0162979
461.085	0.0160393
461.163	0.0162334
461.241	0.0160786
461.319	0.0163685
461.398	0.0161522
461.476	0.0164013
461.554	0.0162582
461.632	0.0160938
461.710	0.0160637
461.788	0.0160370
461.866	0.0158646
461.944	0.0161629
462.023	0.0162590
462.101	0.0159683
462.179	0.0159428
462.257	0.0157780
462.335	0.0160763
462.413	0.0161003
462.491	0.0158909
462.569	0.0161190
462.648	0.0160072
462.726	0.0159336
462.804	0.0159924
462.882	0.0160561
462.960	0.0159874
463.038	0.0160667
463.116	0.0160553
463.194	0.0159489
463.273	0.0160370
463.351	0.0163834
463.429	0.0158051
463.507	0.0161686
463.585	0.0164928
463.663	0.0159809
463.741	0.0161453
463.819	0.0163406
463.898	0.0161377
463.976	0.0160244
464.054	0.0161335
464.132	0.0159294
464.210	0.0158951
464.288	0.0162682
464.366	0.0159245
464.444	0.0162041
464.523	0.0162045
464.601	0.0164387
464.679	0.0160355
464.757	0.0158752
464.835	0.0161259
464.913	0.0161491
464.991	0.0160519
465.069	0.0157677
465.148	0.0158733
465.226	0.0160919
465.304	0.0157887
465.382	0.0160923
465.460	0.0160908
465.538	0.0160938
465.616	0.0159454
465.694	0.0160793
465.773	0.0159870
465.851	0.0162109
465.929	0.0160412
466.007	0.0163731
466.085	0.0162292
466.163	0.0161762
466.241	0.0160629
466.319	0.0159416
466.398	0.0161518
466.476	0.0159271
466.554	0.0158691
466.632	0.0161621
466.710	0.0162540
466.788	0.0160419
466.866	0.0161755
466.944	0.0158546
467.023	0.0159260
467.101	0.0161076
467.179	0.0162956
467.257	0.0162415
467.335	0.0160114
467.413	0.0162266
467.491	0.0158016
467.569	0.0161465
467.648	0.0163696
467.726	0.0162334
467.804	0.0158436
467.882	0.0161144
467.960	0.0165623
468.038	0.0158020
468.116	0.0159691
468.194	0.0162392
468.273	0.0161907
468.351	0.0160202
468.429	0.0160492
468.507	0.0163204
468.585	0.0161396
468.663	0.0159752
468.741	0.0160603
468.819	0.0162510
468.898	0.0162598
468.976	0.0158562
469.054	0.0159367
469.132	0.0160801
469.210	0.0162312
469.288	0.0162296
469.366	0.0161118
469.444	0.0159794
469.523	0.0160015
469.601	0.0163376
469.679	0.0161144
469.757	0.0161911
469.835	0.0159840
469.913	0.0163288
469.991	0.0161709
470.069	0.0161716
470.148	0.0159462
470.226	0.0160172
470.304	0.0161278
470.382	0.0162334
470.460	0.0161293
470.538	0.0162056
470.616	0.0160694
470.694	0.0159893
470.773	0.0163330
470.851	0.0160828
470.929	0.0163345
471.007	0.0161758
471.085	0.0159557
471.163	0.0160053
471.241	0.0159580
471.319	0.0162743
471.398	0.0162193
471.476	0.0161240
471.554	0.0161869
471.632	0.0160961
471.710	0.0162834
471.788	0.0164165
471.866	0.0159779
471.944	0.0159584
472.023	0.0161430
472.101	0.0162640
472.179	0.0160225
472.257	0.0161446
472.335	0.0161892
472.413	0.0162403
472.491	0.0160748
472.569	0.0159103
472.648	0.0161095
472.726	0.0158310
472.804	0.0161266
472.882	0.0158138
472.960	0.0160500
473.038	0.0162994
473.116	0.0161865
473.194	0.0158741
473.273	0.0164108
473.351	0.0162853
473.429	0.0159557
473.507	0.0159016
473.585	0.0161232
473.663	0.0161545
473.741	0.0162689
473.819	0.0160061
473.898	0.0162868
473.976	0.0160316
474.054	0.0158951
474.132	0.0156975
474.210	0.0160889
474.288	0.0159573
474.366	0.0162876
474.444	0.0159847
474.523	0.0160831
474.601	0.0161671
474.679	0.0161774
474.757	0.0158848
474.835	0.0159924
474.913	0.0158001
474.991	0.0161324
475.069	0.0160435
475.148	0.0161415
475.226	0.0158428
475.304	0.0163277
475.382	0.0162529
475.460	0.0159546
475.538	0.0158661
475.616	0.0161163
475.694	0.0162579
475.773	0.0164024
475.851	0.0160416
475.929	0.0162777
476.007	0.0163399
476.085	0.0161110
476.163	0.0163265
476.241	0.0163353
476.319	0.0161888
476.398	0.0160145
476.476	0.0161736
476.554	0.0162548
476.632	0.0158703
476.710	0.0160458
476.788	0.0162205
476.866	0.0161961
476.944	0.0160950
477.023	0.0163044
477.101	0.0161560
477.179	0.0161533
477.257	0.0159355
477.335	0.0161121
477.413	0.0159004
477.491	0.0160675
477.569	0.0160191
477.648	0.0164650
477.726	0.0161835
477.804	0.0157345
477.882	0.0160751
477.960	0.0159218
478.038	0.0161839
478.116	0.0161594
478.194	0.0158772
478.273	0.0162266
478.351	0.0161816
478.429	0.0161987
478.507	0.0161392
478.585	0.0161846
478.663	0.0160091
478.741	0.0161167
478.819	0.0161854
478.898	0.0161331
478.976	0.0159683
479.054	0.0162735
479.132	0.0161949
479.210	0.0162231
479.288	0.0159462
479.366	0.0163605
479.444	0.0161049
479.523	0.0162140
479.601	0.0159824
479.679	0.0165585
479.757	0.0165726
479.835	0.0162319
479.913	0.0162201
479.991	0.0162384
480.069	0.0157490
480.148	0.0162952
480.226	0.0162621
480.304	0.0156456
480.382	0.0161854
480.460	0.0164223
480.538	0.0162338
480.616	0.0159302
480.694	0.0161274
480.773	0.0164650
480.851	0.0161804
480.929	0.0163830
481.007	0.0161213
481.085	0.0159565
481.163	0.0160664
481.241	0.0162331
481.319	0.0162743
481.398	0.0161072
481.476	0.0160957
481.554	0.0159550
481.632	0.0159618
481.710	0.0160202
481.788	0.0160194
481.866	0.0159836
481.944	0.0164860
482.023	0.0160732
482.101	0.0163265
482.179	0.0162460
482.257	0.0159332
482.335	0.0158474
482.413	0.0160908
482.491	0.0161060
482.569	0.0162315
482.648	0.0161057
482.726	0.0162006
482.804	0.0161781
482.882	0.0161949
482.960	0.0162380
483.038	0.0160885
483.116	0.0162277
483.194	0.0161678
483.273	0.0164101
483.351	0.0162373
483.429	0.0159660
483.507	0.0160072
483.585	0.0161167
483.663	0.0162346
483.741	0.0159889
483.819	0.0161045
483.898	0.0163052
483.976	0.0159313
484.054	0.0161785
484.132	0.0158428
484.210	0.0155533
484.288	0.0160717
484.366	0.0159637
484.444	0.0160564
484.523	0.0162086
484.601	0.0162457
484.679	0.0161396
484.757	0.0159637
484.835	0.0158070
484.913	0.0160854
484.991	0.0162472
485.069	0.0164398
485.148	0.0162067
485.226	0.0162167
485.304	0.0159138
485.382	0.0160252
485.460	0.0162395
485.538	0.0158508
485.616	0.0160385
485.694	0.0159245
485.773	0.0163364
485.851	0.0161705
485.929	0.0159199
486.007	0.0161198
486.085	0.0162460
486.163	0.0161224
486.241	0.0163277
486.319	0.0162113
486.398	0.0165077
486.476	0.0159718
486.554	0.0161160
486.632	0.0165462
486.710	0.0162971
486.788	0.0160889
486.866	0.0161961
486.944	0.0161713
487.023	0.0162632
487.101	0.0162125
487.179	0.0162392
487.257	0.0162430
487.335	0.0160404
487.413	0.0160835
487.491	0.0159473
487.569	0.0161606
487.648	0.0160614
487.726	0.0161278
487.804	0.0162254
487.882	0.0163048
487.960	0.0160698
488.038	0.0158699
488.116	0.0160316
488.194	0.0163540
488.273	0.0161415
488.351	0.0160931
488.429	0.0158829
488.507	0.0161774
488.585	0.0161285
488.663	0.0157478
488.741	0.0160347
488.819	0.0161781
488.898	0.0162140
488.976	0.0158699
489.054	0.0160351
489.132	0.0162132
489.210	0.0157337
489.288	0.0160965
489.366	0.0160305
489.444	0.0161415
489.523	0.0161316
489.601	0.0158970
489.679	0.0158054
489.757	0.0157242
489.835	0.0162289
489.913	0.0158638
489.991	0.0163105
490.069	0.0161777
490.148	0.0162422
490.226	0.0160927
490.304	0.0164124
490.382	0.0162258
490.460	0.0162891
490.538	0.0161308
490.616	0.0160748
490.694	0.0161926
490.773	0.0162643
490.851	0.0162132
490.929	0.0162067
491.007	0.0162884
491.085	0.0161385
491.163	0.0162174
491.241	0.0160309
491.319	0.0159443
491.398	0.0160450
491.476	0.0157284
491.554	0.0161587
491.632	0.0162231
491.710	0.0162102
491.788	0.0160378
491.866	0.0158615
491.944	0.0160599
492.023	0.0162682
492.101	0.0160099
492.179	0.0160778
492.257	0.0157852
492.335	0.0162052
492.413	0.0160698
492.491	0.0160671
492.569	0.0161747
492.648	0.0161037
492.726	0.0163467
492.804	0.0161022
492.882	0.0160278
492.960	0.0162937
493.038	0.0161449
493.116	0.0158882
493.194	0.0161377
493.273	0.0159431
493.351	0.0160828
493.429	0.0160473
493.507	0.0162907
493.585	0.0156277
493.663	0.0159523
493.741	0.0164429
493.819	0.0163460
493.898	0.0162819
493.976	0.0159794
494.054	0.0159958
494.132	0.0162788
494.210	0.0159332
494.288	0.0158432
494.366	0.0162384
494.444	0.0161335
494.523	0.0162807
494.601	0.0157726
494.679	0.0160591
494.757	0.0160580
494.835	0.0160778
494.913	0.0161877
494.991	0.0160679
495.069	0.0161034
495.148	0.0161175
495.226	0.0162155
495.304	0.0159515
495.382	0.0163292
495.460	0.0160267
495.538	0.0163006
495.616	0.0163441
495.694	0.0158596
495.773	0.0158566
495.851	0.0161293
495.929	0.0163433
496.007	0.0159645
496.085	0.0160786
496.163	0.0160954
496.241	0.0164143
496.319	0.0158253
496.398	0.0161797
496.476	0.0162807
496.554	0.0160114
496.632	0.0158024
496.710	0.0158566
496.788	0.0162754
496.866	0.0161617
496.944	0.0160698
497.023	0.0160965
497.101	0.0161526
497.179	0.0161495
497.257	0.0160954
497.335	0.0162701
497.413	0.0159931
497.491	0.0160351
497.569	0.0161526
497.648	0.0160717
497.726	0.0161102
497.804	0.0159431
497.882	0.0162216
497.960	0.0159859
498.038	0.0160484
498.116	0.0158974
498.194	0.0159748
498.273	0.0161259
498.351	0.0160057
498.429	0.0161716
498.507	0.0160961
498.585	0.0162846
498.663	0.0161999
498.741	0.0162018
498.819	0.0160122
498.898	0.0159851
498.976	0.0159851
499.054	0.0163612
499.132	0.0159771
499.210	0.0158432
499.288	0.0160275
499.366	0.0162029
499.444	0.0161102
499.523	0.0158371
499.601	0.0161011
499.679	0.0158920
499.757	0.0161114
499.835	0.0161163
499.913	0.0164661
499.991	0.0161823
500.069	0.0158291
500.148	0.0159481
500.226	0.0163425
500.304	0.0161896
500.382	0.0160900
500.460	0.0160851
500.538	0.0160263
500.616	0.0161015
500.694	0.0159874
500.773	0.0161285
500.851	0.0162601
500.929	0.0160461
501.007	0.0161427
501.085	0.0161346
501.163	0.0163830
501.241	0.0163326
501.319	0.0160828
501.398	0.0161118
501.476	0.0160069
501.554	0.0163498
501.632	0.0160728
501.710	0.0161232
501.788	0.0157536
501.866	0.0159512
501.944	0.0162918
502.023	0.0160332
502.101	0.0161373
502.179	0.0163280
502.257	0.0161545
502.335	0.0162086
502.413	0.0162514
502.491	0.0161446
502.569	0.0158489
502.648	0.0161606
502.726	0.0163326
502.804	0.0161602
502.882	0.0157700
502.960	0.0162052
503.038	0.0161453
503.116	0.0160740
503.194	0.0160664
503.273	0.0162300
503.351	0.0161606
503.429	0.0159843
503.507	0.0161304
503.585	0.0161549
503.663	0.0157925
503.741	0.0162338
503.819	0.0163147
503.898	0.0164448
503.976	0.0160366
504.054	0.0160767
504.132	0.0156971
504.210	0.0162148
504.288	0.0161674
504.366	0.0162449
504.444	0.0163570
504.523	0.0159477
504.601	0.0159241
504.679	0.0163731
504.757	0.0160889
504.835	0.0158974
504.913	0.0160213
504.991	0.0161686
505.069	0.0162254
505.148	0.0159069
505.226	0.0159039
505.304	0.0162022
505.382	0.0158352
505.460	0.0164097
505.538	0.0161392
505.616	0.0162956
505.694	0.0159393
505.773	0.0157185
505.851	0.0161770
505.929	0.0160439
506.007	0.0158333
506.085	0.0159428
506.163	0.0158466
506.241	0.0163155
506.319	0.0161980
506.398	0.0159626
506.476	0.0159908
506.554	0.0162350
506.632	0.0160248
506.710	0.0159370
506.788	0.0159649
506.866	0.0159897
506.944	0.0159065
507.023	0.0162037
507.101	0.0161797
507.179	0.0161217
507.257	0.0159611
507.335	0.0163891
507.413	0.0163704
507.491	0.0158669
507.569	0.0160072
507.648	0.0161106
507.726	0.0161118
507.804	0.0160805
507.882	0.0163284
507.960	0.0161697
508.038	0.0160450
508.116	0.0162746
508.194	0.0162430
508.273	0.0161037
508.351	0.0161194
508.429	0.0157333
508.507	0.0162777
508.585	0.0161633
508.663	0.0159050
508.741	0.0162365
508.819	0.0160954
508.898	0.0160599
508.976	0.0161873
509.054	0.0160717
509.132	0.0162952
509.210	0.0162395
509.288	0.0160393
509.366	0.0159935
509.444	0.0158993
509.523	0.0158955
509.601	0.0160122
509.679	0.0162109
509.757	0.0163116
509.835	0.0163868
509.913	0.0159744
509.991	0.0158195
510.069	0.0159840
510.148	0.0160843
510.226	0.0161182
510.304	0.0161415
510.382	0.0161964
510.460	0.0159702
510.538	0.0161282
510.616	0.0160603
510.694	0.0159103
510.773	0.0159081
510.851	0.0161251
510.929	0.0160011
511.007	0.0160725
511.085	0.0158497
511.163	0.0160374
511.241	0.0163483
511.319	0.0160172
511.398	0.0159843
511.476	0.0160946
511.554	0.0160908
511.632	0.0158047
511.710	0.0161770
511.788	0.0161438
511.866	0.0159134
511.944	0.0161060
512.023	0.0162735
512.101	0.0160248
512.179	0.0159336
512.257	0.0159397
512.335	0.0160149
512.413	0.0160839
512.491	0.0162224
512.569	0.0160522
512.648	0.0160336
512.726	0.0160839
512.804	0.0158527
512.882	0.0160866
512.960	0.0158195
513.038	0.0160496
513.116	0.0162971
513.194	0.0159611
513.273	0.0161472
513.351	0.0164951
513.429	0.0161179
513.507	0.0159512
513.585	0.0164398
513.663	0.0160278
513.741	0.0159943
513.819	0.0161800
513.898	0.0159748
513.976	0.0158497
514.054	0.0159267
514.132	0.0164551
514.210	0.0159306
514.288	0.0156204
514.366	0.0159966
514.444	0.0161991
514.523	0.0159737
514.601	0.0160263
514.679	0.0160049
514.757	0.0162006
514.835	0.0163158
514.913	0.0161083
514.991	0.0161934
515.069	0.0161522
515.148	0.0160812
515.226	0.0162876
515.304	0.0162312
515.382	0.0162289
515.460	0.0159420
515.538	0.0161514
515.616	0.0159859
515.694	0.0161713
515.773	0.0162251
515.851	0.0161297
515.929	0.0161972
516.007	0.0161160
516.085	0.0166611
516.163	0.0163521
516.241	0.0162689
516.319	0.0160568
516.398	0.0158962
516.476	0.0161087
516.554	0.0157673
516.632	0.0159985
516.710	0.0161194
516.788	0.0160038
516.866	0.0161915
516.944	0.0159298
517.023	0.0161407
517.101	0.0160206
517.179	0.0159222
517.257	0.0159409
517.335	0.0159245
517.413	0.0160553
517.491	0.0160969
517.569	0.0160671
517.648	0.0159370
517.726	0.0161217
517.804	0.0159801
517.882	0.0161407
517.960	0.0158035
518.038	0.0162453
518.116	0.0161919
518.194	0.0162937
518.273	0.0158463
518.351	0.0159664
518.429	0.0158943
518.507	0.0160004
518.585	0.0160042
518.663	0.0158749
518.741	0.0160625
518.819	0.0162182
518.898	0.0163815
518.976	0.0162010
519.054	0.0159809
519.132	0.0162292
519.210	0.0161545
519.288	0.0162224
519.366	0.0161884
519.444	0.0159813
519.523	0.0159744
519.601	0.0161640
519.679	0.0160740
519.757	0.0160606
519.835	0.0159492
519.913	0.0159485
519.991	0.0161694
520.069	0.0161835
520.148	0.0163342
520.226	0.0161613
520.304	0.0158424
520.382	0.0158810
520.460	0.0159744
520.538	0.0160046
520.616	0.0160439
520.694	0.0159374
520.773	0.0162346
520.851	0.0162022
520.929	0.0158768
521.007	0.0161663
521.085	0.0162731
521.163	0.0159069
521.241	0.0161034
521.319	0.0161148
521.398	0.0160950
521.476	0.0162987
521.554	0.0161407
521.632	0.0163998
521.710	0.0162380
521.788	0.0159805
521.866	0.0162453
521.944	0.0161213
522.023	0.0161961
522.101	0.0158184
522.179	0.0160862
522.257	0.0163490
522.335	0.0163132
522.413	0.0159634
522.491	0.0160725
522.569	0.0162121
522.648	0.0162090
522.726	0.0160896
522.804	0.0162888
522.882	0.0161659
522.960	0.0161240
523.038	0.0161304
523.116	0.0160164
523.194	0.0162666
523.273	0.0163086
523.351	0.0161945
523.429	0.0160091
523.507	0.0162575
523.585	0.0162785
523.663	0.0160870
523.741	0.0164402
523.819	0.0160103
523.898	0.0162682
523.976	0.0161297
524.054	0.0160885
524.132	0.0162880
524.210	0.0161198
524.288	0.0161629
524.366	0.0161041
524.444	0.0161606
524.523	0.0164574
524.601	0.0162216
524.679	0.0159267
524.757	0.0161381
524.835	0.0160439
524.913	0.0163170
524.991	0.0162201
525.069	0.0163376
525.148	0.0162483
525.226	0.0163204
525.304	0.0162369
525.382	0.0159657
525.460	0.0163151
525.538	0.0160168
525.616	0.0162708
525.694	0.0162857
525.773	0.0157051
525.851	0.0161400
525.929	0.0162327
526.007	0.0161148
526.085	0.0160435
526.163	0.0162083
526.241	0.0160923
526.319	0.0161110
526.398	0.0163628
526.476	0.0162502
526.554	0.0161926
526.632	0.0161568
526.710	0.0161266
526.788	0.0161007
526.866	0.0159931
526.944	0.0162540
527.023	0.0160671
527.101	0.0157585
527.179	0.0159943
527.257	0.0163296
527.335	0.0160606
527.413	0.0158455
527.491	0.0159115
527.569	0.0159878
527.648	0.0164169
527.726	0.0161354
527.804	0.0157322
527.882	0.0159496
527.960	0.0159676
528.038	0.0161263
528.116	0.0160160
528.194	0.0160145
528.273	0.0159996
528.351	0.0160126
528.429	0.0163620
528.507	0.0160820
528.585	0.0161045
528.663	0.0163624
528.741	0.0162861
528.819	0.0160019
528.898	0.0159836
528.976	0.0163246
529.054	0.0160397
529.132	0.0159283
529.210	0.0159409
529.288	0.0159218
529.366	0.0158211
529.444	0.0159527
529.523	0.0160892
529.601	0.0162647
529.679	0.0158394
529.757	0.0158966
529.835	0.0161236
529.913	0.0162281
529.991	0.0159378
530.069	0.0158398
530.148	0.0164253
530.226	0.0162624
530.304	0.0160461
530.382	0.0159954
530.460	0.0160431
530.538	0.0161129
530.616	0.0161388
530.694	0.0161449
530.773	0.0161324
530.851	0.0160484
530.929	0.0160229
531.007	0.0159386
531.085	0.0161022
531.163	0.0159378
531.241	0.0160225
531.319	0.0161171
531.398	0.0162838
531.476	0.0158913
531.554	0.0160278
531.632	0.0162819
531.710	0.0158855
531.788	0.0159367
531.866	0.0160622
531.944	0.0162334
532.023	0.0158447
532.101	0.0157516
532.179	0.0161087
532.257	0.0161209
532.335	0.0161259
532.413	0.0158474
532.491	0.0160488
532.569	0.0161575
532.648	0.0161251
532.726	0.0159439
532.804	0.0158539
532.882	0.0158115
532.960	0.0157791
533.038	0.0160133
533.116	0.0159031
533.194	0.0157619
533.273	0.0162121
533.351	0.0163429
533.429	0.0164265
533.507	0.0158260
533.585	0.0162174
533.663	0.0165108
533.741	0.0161942
533.819	0.0159878
533.898	0.0158115
533.976	0.0161037
534.054	0.0163662
534.132	0.0161083
534.210	0.0163822
534.288	0.0160427
534.366	0.0162350
534.444	0.0163071
534.523	0.0163528
534.601	0.0160313
534.679	0.0157295
534.757	0.0164570
534.835	0.0160736
534.913	0.0161655
534.991	0.0160942
535.069	0.0158337
535.148	0.0163013
535.226	0.0160210
535.304	0.0163712
535.382	0.0163067
535.460	0.0163071
535.538	0.0159485
535.616	0.0160355
535.694	0.0160969
535.773	0.0160366
535.851	0.0158829
535.929	0.0160202
536.007	0.0163921
536.085	0.0164318
536.163	0.0162312
536.241	0.0163639
536.319	0.0161755
536.398	0.0160767
536.476	0.0161591
536.554	0.0161766
536.632	0.0159634
536.710	0.0160789
536.788	0.0162601
536.866	0.0160763
536.944	0.0158257
537.023	0.0161518
537.101	0.0159161
537.179	0.0162106
537.257	0.0163074
537.335	0.0159786
537.413	0.0161053
537.491	0.0162479
537.569	0.0162415
537.648	0.0160187
537.726	0.0160416
537.804	0.0164772
537.882	0.0162254
537.960	0.0161732
538.038	0.0160534
538.116	0.0161175
538.194	0.0160519
538.273	0.0159687
538.351	0.0160305
538.429	0.0161552
538.507	0.0158985
538.585	0.0158623
538.663	0.0161072
538.741	0.0159721
538.819	0.0159840
538.898	0.0164436
538.976	0.0162731
539.054	0.0159863
539.132	0.0159889
539.210	0.0157467
539.288	0.0161366
539.366	0.0160137
539.444	0.0160900
539.523	0.0159492
539.601	0.0160770
539.679	0.0161022
539.757	0.0160217
539.835	0.0160767
539.913	0.0161613
539.991	0.0159752
540.069	0.0161209
540.148	0.0159851
540.226	0.0160110
540.304	0.0161354
540.382	0.0161255
540.460	0.0160465
540.538	0.0161777
540.616	0.0161293
540.694	0.0160553
540.773	0.0160530
540.851	0.0160461
540.929	0.0162640
541.007	0.0161263
541.085	0.0162086
541.163	0.0160397
541.241	0.0161819
541.319	0.0161121
541.398	0.0160522
541.476	0.0160461
541.554	0.0161892
541.632	0.0161461
541.710	0.0162472
541.788	0.0159325
541.866	0.0157520
541.944	0.0161453
542.023	0.0165302
542.101	0.0163460
542.179	0.0162342
542.257	0.0159733
542.335	0.0159512
542.413	0.0161301
542.491	0.0161060
542.569	0.0157490
542.648	0.0159222
542.726	0.0163857
542.804	0.0161640
542.882	0.0159325
542.960	0.0160748
543.038	0.0159996
543.116	0.0159981
543.194	0.0161037
543.273	0.0159782
543.351	0.0160828
543.429	0.0161636
543.507	0.0160709
543.585	0.0161377
543.663	0.0158623
543.741	0.0162079
543.819	0.0161739
543.898	0.0162544
543.976	0.0163036
544.054	0.0159630
544.132	0.0161854
544.210	0.0160812
544.288	0.0162868
544.366	0.0160736
544.444	0.0158947
544.523	0.0162689
544.601	0.0162201
544.679	0.0161972
544.757	0.0161243
544.835	0.0161961
544.913	0.0162434
544.991	0.0162647
545.069	0.0162315
545.148	0.0159882
545.226	0.0163074
545.304	0.0159496
545.382	0.0160027
545.460	0.0160084
545.538	0.0160439
545.616	0.0161755
545.694	0.0162079
545.773	0.0161213
545.851	0.0161087
545.929	0.0162128
546.007	0.0163681
546.085	0.0162289
546.163	0.0159821
546.241	0.0161919
546.319	0.0161228
546.398	0.0164257
546.476	0.0159374
546.554	0.0160648
546.632	0.0162529
546.710	0.0160168
546.788	0.0157475
546.866	0.0159351
546.944	0.0162731
547.023	0.0161423
547.101	0.0162144
547.179	0.0160263
547.257	0.0158070
547.335	0.0158291
547.413	0.0161690
547.491	0.0159813
547.569	0.0155750
547.648	0.0160740
547.726	0.0158207
547.804	0.0160572
547.882	0.0160397
547.960	0.0158070
548.038	0.0159428
548.116	0.0161041
548.194	0.0160034
548.273	0.0164165
548.351	0.0162807
548.429	0.0158619
548.507	0.0158623
548.585	0.0161812
548.663	0.0164036
548.741	0.0162312
548.819	0.0160084
548.898	0.0160942
548.976	0.0160389
549.054	0.0160858
549.132	0.0161438
549.210	0.0161610
549.288	0.0161140
549.366	0.0163033
549.444	0.0162716
549.523	0.0159443
549.601	0.0164246
549.679	0.0160049
549.757	0.0159512
549.835	0.0161125
549.913	0.0160759
549.991	0.0158241
550.069	0.0159439
550.148	0.0161018
550.226	0.0161938
550.304	0.0162807
550.382	0.0162968
550.460	0.0159458
550.538	0.0159889
550.616	0.0161724
550.694	0.0161781
550.773	0.0159988
550.851	0.0162643
550.929	0.0160965
551.007	0.0162766
551.085	0.0159416
551.163	0.0164227
551.241	0.0162457
551.319	0.0161716
551.398	0.0162338
551.476	0.0161453
551.554	0.0160439
551.632	0.0164455
551.710	0.0160202
551.788	0.0160503
551.866	0.0159889
551.944	0.0163338
552.023	0.0161160
552.101	0.0159634
552.179	0.0162060
552.257	0.0158882
552.335	0.0160336
552.413	0.0161625
552.491	0.0160831
552.569	0.0161221
552.648	0.0159042
552.726	0.0162109
552.804	0.0163296
552.882	0.0160751
552.960	0.0160778
553.038	0.0159843
553.116	0.0161549
553.194	0.0162205
553.273	0.0162930
553.351	0.0162392
553.429	0.0163631
553.507	0.0160984
553.585	0.0161003
553.663	0.0161797
553.741	0.0163677
553.819	0.0161945
553.898	0.0159073
553.976	0.0160435
554.054	0.0161263
554.132	0.0161518
554.210	0.0160252
554.288	0.0158875
554.366	0.0160736
554.444	0.0160107
554.523	0.0159435
554.601	0.0163921
554.679	0.0159218
554.757	0.0161064
554.835	0.0163403
554.913	0.0159889
554.991	0.0161217
555.069	0.0161198
555.148	0.0159962
555.226	0.0161015
555.304	0.0161480
555.382	0.0160275
555.460	0.0163548
555.538	0.0159374
555.616	0.0158833
555.694	0.0159809
555.773	0.0161278
555.851	0.0159130
555.929	0.0158665
556.007	0.0160931
556.085	0.0162056
556.163	0.0161800
556.241	0.0160797
556.319	0.0162388
556.398	0.0164764
556.476	0.0161678
556.554	0.0159615
556.632	0.0159733
556.710	0.0160038
556.788	0.0162640
556.866	0.0159153
556.944	0.0162418
557.023	0.0163639
557.101	0.0161503
557.179	0.0160202
557.257	0.0163414
557.335	0.0162262
557.413	0.0161861
557.491	0.0160049
557.569	0.0163696
557.648	0.0161953
557.726	0.0162056
557.804	0.0161140
557.882	0.0162159
557.960	0.0161034
558.038	0.0157963
558.116	0.0158634
558.194	0.0162437
558.273	0.0161400
558.351	0.0162746
558.429	0.0159603
558.507	0.0161526
558.585	0.0161327
558.663	0.0165043
558.741	0.0160130
558.819	0.0159695
558.898	0.0161827
558.976	0.0162472
559.054	0.0159435
559.132	0.0159889
559.210	0.0159203
559.288	0.0160339
559.366	0.0163551
559.444	0.0163544
559.523	0.0161427
559.601	0.0160397
559.679	0.0158501
559.757	0.0159870
559.835	0.0159920
559.913	0.0160744
559.991	0.0163235
560.069	0.0161377
560.148	0.0159561
560.226	0.0160282
560.304	0.0157124
560.382	0.0161713
560.460	0.0161335
560.538	0.0158985
560.616	0.0162327
560.694	0.0161125
560.773	0.0156811
560.851	0.0159248
560.929	0.0158321
561.007	0.0160351
561.085	0.0160683
561.163	0.0159210
561.241	0.0158825
561.319	0.0159260
561.398	0.0163979
561.476	0.0161469
561.554	0.0159836
561.632	0.0158020
561.710	0.0160011
561.788	0.0160511
561.866	0.0157990
561.944	0.0161537
562.023	0.0160244
562.101	0.0162144
562.179	0.0160866
562.257	0.0158611
562.335	0.0159752
562.413	0.0161201
562.491	0.0161762
562.569	0.0158726
562.648	0.0158985
562.726	0.0163437
562.804	0.0162716
562.882	0.0160248
562.960	0.0160294
563.038	0.0162025
563.116	0.0159538
563.194	0.0161568
563.273	0.0160187
563.351	0.0162277
563.429	0.0161278
563.507	0.0163082
563.585	0.0162724
563.663	0.0158886
563.741	0.0160992
563.819	0.0159798
563.898	0.0160629
563.976	0.0164581
564.054	0.0161674
564.132	0.0163029
564.210	0.0160007
564.288	0.0162380
564.366	0.0162273
564.444	0.0160160
564.523	0.0161583
564.601	0.0161228
564.679	0.0161270
564.757	0.0159031
564.835	0.0158993
564.913	0.0158936
564.991	0.0157665
565.069	0.0160088
565.148	0.0161049
565.226	0.0157066
565.304	0.0162506
565.382	0.0161510
565.460	0.0162945
565.538	0.0159149
565.616	0.0161026
565.694	0.0160381
565.773	0.0162956
565.851	0.0160267
565.929	0.0160458
566.007	0.0161152
566.085	0.0161179
566.163	0.0161285
566.241	0.0159855
566.319	0.0158901
566.398	0.0161842
566.476	0.0162304
566.554	0.0159855
566.632	0.0161156
566.710	0.0159275
566.788	0.0156017
566.866	0.0160183
566.944	0.0161373
567.023	0.0157864
567.101	0.0159184
567.179	0.0157654
567.257	0.0161320
567.335	0.0159042
567.413	0.0160358
567.491	0.0160160
567.569	0.0160595
567.648	0.0160290
567.726	0.0161648
567.804	0.0161793
567.882	0.0160774
567.960	0.0161140
568.038	0.0161854
568.116	0.0160000
568.194	0.0163757
568.273	0.0160316
568.351	0.0158600
568.429	0.0162022
568.507	0.0161037
568.585	0.0161819
568.663	0.0163841
568.741	0.0162312
568.819	0.0160065
568.898	0.0159817
568.976	0.0159489
569.054	0.0162659
569.132	0.0160763
569.210	0.0163334
569.288	0.0158478
569.366	0.0160851
569.444	0.0160244
569.523	0.0161491
569.601	0.0159508
569.679	0.0158680
569.757	0.0158600
569.835	0.0160637
569.913	0.0160351
569.991	0.0159935
570.069	0.0158249
570.148	0.0161053
570.226	0.0159817
570.304	0.0162445
570.382	0.0160900
570.460	0.0160088
570.538	0.0161430
570.616	0.0160816
570.694	0.0161137
570.773	0.0161129
570.851	0.0160671
570.929	0.0159111
571.007	0.0158501
571.085	0.0160404
571.163	0.0161613
571.241	0.0161354
571.319	0.0160587
571.398	0.0159203
571.476	0.0161903
571.554	0.0164375
571.632	0.0160065
571.710	0.0161324
571.788	0.0158340
571.866	0.0162949
571.944	0.0163692
572.023	0.0159431
572.101	0.0159367
572.179	0.0162212
572.257	0.0164379
572.335	0.0160912
572.413	0.0161678
572.491	0.0162529
572.569	0.0160793
572.648	0.0162258
572.726	0.0159779
572.804	0.0163303
572.882	0.0161060
572.960	0.0159897
573.038	0.0160797
573.116	0.0162029
573.194	0.0159153
573.273	0.0162994
573.351	0.0159779
573.429	0.0160641
573.507	0.0160404
573.585	0.0162739
573.663	0.0161877
573.741	0.0161350
573.819	0.0163631
573.898	0.0157822
573.976	0.0159977
574.054	0.0161308
574.132	0.0162643
574.210	0.0161160
574.288	0.0163685
574.366	0.0160618
574.444	0.0159145
574.523	0.0159878
574.601	0.0162159
574.679	0.0160133
574.757	0.0158203
574.835	0.0161171
574.913	0.0159321
574.991	0.0159008
575.069	0.0158844
575.148	0.0157646
575.226	0.0162201
575.304	0.0161793
575.382	0.0162457
575.460	0.0158566
575.538	0.0161392
575.616	0.0160213
575.694	0.0158634
575.773	0.0159744
575.851	0.0165440
575.929	0.0160194
576.007	0.0161163
576.085	0.0160671
576.163	0.0158989
576.241	0.0159756
576.319	0.0161755
576.398	0.0162926
576.476	0.0157337
576.554	0.0158909
576.632	0.0161934
576.710	0.0161362
576.788	0.0159931
576.866	0.0161144
576.944	0.0161987
577.023	0.0161907
577.101	0.0160091
577.179	0.0163757
577.257	0.0163380
577.335	0.0158249
577.413	0.0160091
577.491	0.0159668
577.569	0.0161572
577.648	0.0160683
577.726	0.0159939
577.804	0.0159008
577.882	0.0160999
577.960	0.0161537
578.038	0.0163479
578.116	0.0160149
578.194	0.0161613
578.273	0.0160854
578.351	0.0161160
578.429	0.0157970
578.507	0.0160690
578.585	0.0162933
578.663	0.0159966
578.741	0.0159817
578.819	0.0163414
578.898	0.0163063
578.976	0.0161453
579.054	0.0161369
579.132	0.0159946
579.210	0.0159615
579.288	0.0158875
579.366	0.0161255
579.444	0.0161327
579.523	0.0158627
579.601	0.0159714
579.679	0.0158653
579.757	0.0165855
579.835	0.0164146
579.913	0.0161373
579.991	0.0161411
580.069	0.0160015
580.148	0.0162575
580.226	0.0162567
580.304	0.0158684
580.382	0.0161549
580.460	0.0163139
580.538	0.0165752
580.616	0.0162571
580.694	0.0159149
580.773	0.0160892
580.851	0.0163239
580.929	0.0162483
581.007	0.0161049
581.085	0.0160267
581.163	0.0162327
581.241	0.0164570
581.319	0.0160011
581.398	0.0160320
581.476	0.0162987
581.554	0.0161659
581.632	0.0161167
581.710	0.0159252
581.788	0.0160923
581.866	0.0158756
581.944	0.0160500
582.023	0.0159283
582.101	0.0161297
582.179	0.0158642
582.257	0.0159447
582.335	0.0159298
582.413	0.0158386
582.491	0.0159325
582.569	0.0161777
582.648	0.0158333
582.726	0.0160519
582.804	0.0159733
582.882	0.0163223
582.960	0.0161800
583.038	0.0161926
583.116	0.0159981
583.194	0.0158665
583.273	0.0159515
583.351	0.0160221
583.429	0.0158932
583.507	0.0158344
583.585	0.0161667
583.663	0.0159496
583.741	0.0160641
583.819	0.0161083
583.898	0.0163559
583.976	0.0159016
584.054	0.0160789
584.132	0.0161480
584.210	0.0161137
584.288	0.0157951
584.366	0.0160332
584.444	0.0161018
584.523	0.0162224
584.601	0.0161503
584.679	0.0163578
584.757	0.0161697
584.835	0.0161404
584.913	0.0160995
584.991	0.0161785
585.069	0.0160183
585.148	0.0163181
585.226	0.0164974
585.304	0.0160599
585.382	0.0161629
585.460	0.0163158
585.538	0.0162430
585.616	0.0164558
585.694	0.0160027
585.773	0.0160007
585.851	0.0158894
585.929	0.0160679
586.007	0.0163258
586.085	0.0159176
586.163	0.0160233
586.241	0.0161060
586.319	0.0160633
586.398	0.0160625
586.476	0.0159462
586.554	0.0159008
586.632	0.0163094
586.710	0.0158718
586.788	0.0161633
586.866	0.0158237
586.944	0.0161438
587.023	0.0162502
587.101	0.0162155
587.179	0.0162506
587.257	0.0155487
587.335	0.0161297
587.413	0.0161011
587.491	0.0161232
587.569	0.0161152
587.648	0.0162876
587.726	0.0160938
587.804	0.0161846
587.882	0.0160587
587.960	0.0159870
588.038	0.0159847
588.116	0.0162270
588.194	0.0161839
588.273	0.0161068
588.351	0.0161201
588.429	0.0160652
588.507	0.0161526
588.585	0.0162613
588.663	0.0160179
588.741	0.0160168
588.819	0.0164318
588.898	0.0161758
588.976	0.0162617
589.054	0.0162251
589.132	0.0163834
589.210	0.0162376
589.288	0.0164288
589.366	0.0160301
589.444	0.0164524
589.523	0.0160744
589.601	0.0159821
589.679	0.0163025
589.757	0.0161106
589.835	0.0160007
589.913	0.0161495
589.991	0.0160423
590.069	0.0161797
590.148	0.0161686
590.226	0.0161121
590.304	0.0158680
590.382	0.0161846
590.460	0.0161499
590.538	0.0161564
590.616	0.0162624
590.694	0.0159580
590.773	0.0159325
590.851	0.0162655
590.929	0.0162975
591.007	0.0160580
591.085	0.0161381
591.163	0.0161655
591.241	0.0160599
591.319	0.0158112
591.398	0.0160141
591.476	0.0158646
591.554	0.0159634
591.632	0.0161224
591.710	0.0160797
591.788	0.0162136
591.866	0.0159733
591.944	0.0160858
592.023	0.0160263
592.101	0.0162861
592.179	0.0162880
592.257	0.0158825
592.335	0.0159973
592.413	0.0161060
592.491	0.0160599
592.569	0.0162212
592.648	0.0158077
592.726	0.0159508
592.804	0.0159599
592.882	0.0160664
592.960	0.0159225
593.038	0.0159508
593.116	0.0162525
593.194	0.0158802
593.273	0.0159813
593.351	0.0156437
593.429	0.0158104
593.507	0.0161602
593.585	0.0158127
593.663	0.0159618
593.741	0.0161674
593.819	0.0162983
593.898	0.0158890
593.976	0.0159904
594.054	0.0162941
594.132	0.0159496
594.210	0.0158577
594.288	0.0159100
594.366	0.0160419
594.444	0.0157810
594.523	0.0159176
594.601	0.0162769
594.679	0.0162216
594.757	0.0158794
594.835	0.0161259
594.913	0.0160957
594.991	0.0161736
595.069	0.0160423
595.148	0.0163013
595.226	0.0163502
595.304	0.0161652
595.382	0.0157993
595.460	0.0161194
595.538	0.0158409
595.616	0.0158405
595.694	0.0158417
595.773	0.0161915
595.851	0.0160728
595.929	0.0161983
596.007	0.0161770
596.085	0.0161129
596.163	0.0162136
596.241	0.0164059
596.319	0.0159828
596.398	0.0157269
596.476	0.0158672
596.554	0.0160843
596.632	0.0163422
596.710	0.0162823
596.788	0.0161964
596.866	0.0163078
596.944	0.0160892
597.023	0.0164265
597.101	0.0158802
597.179	0.0162296
597.257	0.0158539
597.335	0.0157059
597.413	0.0161873
597.491	0.0160988
597.569	0.0162403
597.648	0.0163067
597.726	0.0162834
597.804	0.0160061
597.882	0.0159748
597.960	0.0160824
598.038	0.0162151
598.116	0.0162971
598.194	0.0158600
598.273	0.0162964
598.351	0.0159412
598.429	0.0160332
598.507	0.0161686
598.585	0.0163055
598.663	0.0163792
598.741	0.0162411
598.819	0.0156815
598.898	0.0162148
598.976	0.0161423
599.054	0.0160809
599.132	0.0160484
599.210	0.0160000
599.288	0.0162689
599.366	0.0160450
599.444	0.0163189
599.523	0.0158669
599.601	0.0160091
599.679	0.0158699
599.757	0.0161537
599.835	0.0161652
599.913	0.0161888
599.991	0.0161110
600.069	0.0162140
600.148	0.0160542
600.226	0.0163155
600.304	0.0162865
600.382	0.0159554
600.460	0.0161831
600.538	0.0160637
600.616	0.0161255
600.694	0.0159801
600.773	0.0161800
600.851	0.0161304
600.929	0.0162376
601.007	0.0163208
601.085	0.0163235
601.163	0.0161682
601.241	0.0161709
601.319	0.0159027
601.398	0.0159298
601.476	0.0159676
601.554	0.0161976
601.632	0.0160137
601.710	0.0162552
601.788	0.0161270
601.866	0.0160027
601.944	0.0160400
602.023	0.0157307
602.101	0.0160473
602.179	0.0162468
602.257	0.0159271
602.335	0.0162544
602.413	0.0161690
602.491	0.0157906
602.569	0.0161137
602.648	0.0159893
602.726	0.0161751
602.804	0.0162754
602.882	0.0162003
602.960	0.0161221
603.038	0.0160904
603.116	0.0161537
603.194	0.0161354
603.273	0.0163635
603.351	0.0162308
603.429	0.0158546
603.507	0.0161972
603.585	0.0160511
603.663	0.0160107
603.741	0.0162777
603.819	0.0157455
603.898	0.0159344
603.976	0.0160076
604.054	0.0161579
604.132	0.0159924
604.210	0.0158802
604.288	0.0160542
604.366	0.0160778
604.444	0.0160175
604.523	0.0160732
604.601	0.0158688
604.679	0.0160290
604.757	0.0159924
604.835	0.0159992
604.913	0.0159275
604.991	0.0158726
605.069	0.0160164
605.148	0.0162846
605.226	0.0162235
605.304	0.0159874
605.382	0.0160679
605.460	0.0159615
605.538	0.0160706
605.616	0.0160728
605.694	0.0159824
605.773	0.0161217
605.851	0.0161407
605.929	0.0160782
606.007	0.0158676
606.085	0.0157185
606.163	0.0159664
606.241	0.0160957
606.319	0.0161674
606.398	0.0161201
606.476	0.0161133
606.554	0.0158260
606.632	0.0161743
606.710	0.0160885
606.788	0.0160957
606.866	0.0159756
606.944	0.0160782
607.023	0.0160099
607.101	0.0159645
607.179	0.0159630
607.257	0.0158245
607.335	0.0161488
607.413	0.0160736
607.491	0.0159218
607.569	0.0160717
607.648	0.0161533
607.726	0.0160084
607.804	0.0159348
607.882	0.0158554
607.960	0.0161064
608.038	0.0161144
608.116	0.0159130
608.194	0.0157475
608.273	0.0158775
608.351	0.0159718
608.429	0.0156784
608.507	0.0160019
608.585	0.0157265
608.663	0.0160023
608.741	0.0159466
608.819	0.0160908
608.898	0.0154274
608.976	0.0157906
609.054	0.0159660
609.132	0.0161301
609.210	0.0162579
609.288	0.0161293
609.366	0.0160564
609.444	0.0163612
609.523	0.0164944
609.601	0.0168053
609.679	0.0165810
609.757	0.0167793
609.835	0.0170013
609.913	0.0172741
609.991	0.0170952
610.069	0.0174053
610.148	0.0172256
610.226	0.0172932
610.304	0.0170094
610.382	0.0170605
610.460	0.0170563
610.538	0.0171566
610.616	0.0168392
610.694	0.0167572
610.773	0.0165787
610.851	0.0164028
610.929	0.0163570
611.007	0.0162014
611.085	0.0161251
611.163	0.0162189
611.241	0.0159401
611.319	0.0157154
611.398	0.0157867
611.476	0.0155888
611.554	0.0153320
611.632	0.0155827
611.710	0.0157303
611.788	0.0156822
611.866	0.0157291
611.944	0.0152538
612.023	0.0152077
612.101	0.0154202
612.179	0.0157726
612.257	0.0152283
612.335	0.0155460
612.413	0.0154297
612.491	0.0156063
612.569	0.0159187
612.648	0.0158272
612.726	0.0159737
612.804	0.0159718
612.882	0.0157589
612.960	0.0159801
613.038	0.0160320
613.116	0.0158894
613.194	0.0159019
613.273	0.0158543
613.351	0.0162209
613.429	0.0161701
613.507	0.0160152
613.585	0.0160156
613.663	0.0158871
613.741	0.0158611
613.819	0.0158672
613.898	0.0158745
613.976	0.0159092
614.054	0.0160419
614.132	0.0158638
614.210	0.0158691
614.288	0.0159130
614.366	0.0158623
614.444	0.0159172
614.523	0.0164566
614.601	0.0158665
614.679	0.0161350
614.757	0.0159737
614.835	0.0155926
614.913	0.0159084
614.991	0.0162468
615.069	0.0162502
615.148	0.0162453
615.226	0.0163765
615.304	0.0159119
615.382	0.0159576
615.460	0.0161392
615.538	0.0159752
615.616	0.0162235
615.694	0.0160156
615.773	0.0163361
615.851	0.0161545
615.929	0.0162601
616.007	0.0162880
616.085	0.0159801
616.163	0.0160252
616.241	0.0157040
616.319	0.0160751
616.398	0.0158978
616.476	0.0164227
616.554	0.0160358
616.632	0.0160679
616.710	0.0159485
616.788	0.0161125
616.866	0.0159145
616.944	0.0160385
617.023	0.0162727
617.101	0.0162388
617.179	0.0161678
617.257	0.0160919
617.335	0.0161304
617.413	0.0159977
617.491	0.0164097
617.569	0.0161671
617.648	0.0158669
617.726	0.0156837
617.804	0.0162785
617.882	0.0162395
617.960	0.0160297
618.038	0.0162426
618.116	0.0161610
618.194	0.0159702
618.273	0.0161694
618.351	0.0161915
618.429	0.0163837
618.507	0.0161030
618.585	0.0164680
618.663	0.0161774
618.741	0.0163849
618.819	0.0162762
618.898	0.0159885
618.976	0.0160309
619.054	0.0161888
619.132	0.0162083
619.210	0.0165051
619.288	0.0162010
619.366	0.0162201
619.444	0.0162769
619.523	0.0162926
619.601	0.0159966
619.679	0.0160534
619.757	0.0163116
619.835	0.0162510
619.913	0.0162884
619.991	0.0164806
620.069	0.0160141
620.148	0.0159336
620.226	0.0162777
620.304	0.0160767
620.382	0.0163151
620.460	0.0163010
620.538	0.0161430
620.616	0.0160271
620.694	0.0161472
620.773	0.0161896
620.851	0.0158760
620.929	0.0160770
621.007	0.0163052
621.085	0.0158802
621.163	0.0159260
621.241	0.0162674
621.319	0.0161114
621.398	0.0164631
621.476	0.0161465
621.554	0.0162014
621.632	0.0157654
621.710	0.0160133
621.788	0.0162708
621.866	0.0161644
621.944	0.0162411
622.023	0.0163692
622.101	0.0165398
622.179	0.0158085
622.257	0.0158253
622.335	0.0160168
622.413	0.0162243
622.491	0.0157845
622.569	0.0162025
622.648	0.0163792
622.726	0.0162025
622.804	0.0158482
622.882	0.0161476
622.960	0.0162624
623.038	0.0162338
623.116	0.0160191
623.194	0.0159790
623.273	0.0161423
623.351	0.0162342
623.429	0.0161987
623.507	0.0159737
623.585	0.0162552
623.663	0.0160149
623.741	0.0161583
623.819	0.0162247
623.898	0.0160988
623.976	0.0161209
624.054	0.0160576
624.132	0.0160057
624.210	0.0160736
624.288	0.0162281
624.366	0.0161312
624.444	0.0161854
624.523	0.0162895
624.601	0.0163383
624.679	0.0161366
624.757	0.0161686
624.835	0.0160671
624.913	0.0161789
624.991	0.0161209
625.069	0.0160950
625.148	0.0159775
625.226	0.0160889
625.304	0.0160175
625.382	0.0164173
625.460	0.0158878
625.538	0.0160522
625.616	0.0163780
625.694	0.0164787
625.773	0.0158768
625.851	0.0159817
625.929	0.0163376
626.007	0.0165192
626.085	0.0163132
626.163	0.0161423
626.241	0.0161823
626.319	0.0161407
626.398	0.0161999
626.476	0.0162754
626.554	0.0160938
626.632	0.0160793
626.710	0.0162758
626.788	0.0161079
626.866	0.0161079
626.944	0.0161888
627.023	0.0161167
627.101	0.0161640
627.179	0.0160709
627.257	0.0159866
627.335	0.0165279
627.413	0.0160786
627.491	0.0164043
627.569	0.0163792
627.648	0.0164024
627.726	0.0159420
627.804	0.0161930
627.882	0.0162991
627.960	0.0164040
628.038	0.0161476
628.116	0.0160538
628.194	0.0161381
628.273	0.0161144
628.351	0.0159985
628.429	0.0163265
628.507	0.0159649
628.585	0.0160812
628.663	0.0161098
628.741	0.0160175
628.819	0.0158855
628.898	0.0161301
628.976	0.0159565
629.054	0.0161537
629.132	0.0161594
629.210	0.0164185
629.288	0.0161606
629.366	0.0161083
629.444	0.0162785
629.523	0.0159031
629.601	0.0160633
629.679	0.0160671
629.757	0.0165077
629.835	0.0160423
629.913	0.0162369
629.991	0.0161251
630.069	0.0161858
630.148	0.0163250
630.226	0.0162014
630.304	0.0157448
630.382	0.0159794
630.460	0.0161991
630.538	0.0162247
630.616	0.0161827
630.694	0.0159828
630.773	0.0163647
630.851	0.0166073
630.929	0.0158188
631.007	0.0159573
631.085	0.0161728
631.163	0.0162872
631.241	0.0164009
631.319	0.0162163
631.398	0.0159275
631.476	0.0161495
631.554	0.0160309
631.632	0.0160969
631.710	0.0160686
631.788	0.0163208
631.866	0.0163143
631.944	0.0160084
632.023	0.0160542
632.101	0.0163109
632.179	0.0163097
632.257	0.0163250
632.335	0.0162998
632.413	0.0161221
632.491	0.0161331
632.569	0.0164154
632.648	0.0162399
632.726	0.0160988
632.804	0.0158207
632.882	0.0161903
632.960	0.0163582
633.038	0.0161488
633.116	0.0160717
633.194	0.0164364
633.273	0.0162979
633.351	0.0160923
633.429	0.0160408
633.507	0.0160633
633.585	0.0161427
633.663	0.0162777
633.741	0.0161694
633.819	0.0157970
633.898	0.0161938
633.976	0.0162266
634.054	0.0161697
634.132	0.0160065
634.210	0.0161259
634.288	0.0161083
634.366	0.0162025
634.444	0.0163857
634.523	0.0160824
634.601	0.0162689
634.679	0.0161777
634.757	0.0163486
634.835	0.0162880
634.913	0.0162090
634.991	0.0160500
635.069	0.0161934
635.148	0.0160732
635.226	0.0163830
635.304	0.0161545
635.382	0.0161938
635.460	0.0159241
635.538	0.0161434
635.616	0.0157192
635.694	0.0163113
635.773	0.0163109
635.851	0.0160892
635.929	0.0161278
636.007	0.0161053
636.085	0.0160664
636.163	0.0162102
636.241	0.0162174
636.319	0.0162758
636.398	0.0163776
636.476	0.0160297
636.554	0.0159752
636.632	0.0162331
636.710	0.0163403
636.788	0.0161633
636.866	0.0160858
636.944	0.0163029
637.023	0.0163048
637.101	0.0161835
637.179	0.0161659
637.257	0.0161686
637.335	0.0162773
637.413	0.0161293
637.491	0.0160145
637.569	0.0162373
637.648	0.0165573
637.726	0.0165401
637.804	0.0161659
637.882	0.0161995
637.960	0.0164639
638.038	0.0161205
638.116	0.0159595
638.194	0.0161045
638.273	0.0160397
638.351	0.0161751
638.429	0.0163475
638.507	0.0162006
638.585	0.0162758
638.663	0.0160690
638.741	0.0163486
638.819	0.0161957
638.898	0.0157818
638.976	0.0163300
639.054	0.0163029
639.132	0.0161991
639.210	0.0161587
639.288	0.0160450
639.366	0.0163406
639.444	0.0165478
639.523	0.0161964
639.601	0.0160980
639.679	0.0161407
639.757	0.0162457
639.835	0.0162560
639.913	0.0163681
639.991	0.0164734
640.069	0.0160816
640.148	0.0163353
640.226	0.0161701
640.304	0.0158951
640.382	0.0165112
640.460	0.0165306
640.538	0.0163525
640.616	0.0160698
640.694	0.0160858
640.773	0.0161415
640.851	0.0161530
640.929	0.0160866
641.007	0.0160442
641.085	0.0159718
641.163	0.0160187
641.241	0.0160427
641.319	0.0162098
641.398	0.0162197
641.476	0.0160034
641.554	0.0163494
641.632	0.0160175
641.710	0.0162045
641.788	0.0162205
641.866	0.0162308
641.944	0.0161129
642.023	0.0162079
642.101	0.0160378
642.179	0.0165134
642.257	0.0159454
642.335	0.0159035
642.413	0.0161629
642.491	0.0160702
642.569	0.0159061
642.648	0.0159626
642.726	0.0161072
642.804	0.0158966
642.882	0.0163471
642.960	0.0161850
643.038	0.0159943
643.116	0.0162262
643.194	0.0160721
643.273	0.0157925
643.351	0.0161732
643.429	0.0161674
643.507	0.0162331
643.585	0.0157307
643.663	0.0159748
643.741	0.0160564
643.819	0.0162342
643.898	0.0160545
643.976	0.0156693
644.054	0.0159416
644.132	0.0162827
644.210	0.0159271
644.288	0.0159058
644.366	0.0161469
644.444	0.0159256
644.523	0.0158886
644.601	0.0160595
644.679	0.0163410
644.757	0.0159885
644.835	0.0161976
644.913	0.0162205
644.991	0.0161343
645.069	0.0162571
645.148	0.0161606
645.226	0.0162792
645.304	0.0162464
645.382	0.0164024
645.460	0.0161831
645.538	0.0158497
645.616	0.0161953
645.694	0.0163261
645.773	0.0159576
645.851	0.0161770
645.929	0.0161331
646.007	0.0159031
646.085	0.0161278
646.163	0.0160004
646.241	0.0162701
646.319	0.0160183
646.398	0.0160625
646.476	0.0158375
646.554	0.0160122
646.632	0.0164589
646.710	0.0160271
646.788	0.0160271
646.866	0.0163120
646.944	0.0162693
647.023	0.0161568
647.101	0.0161453
647.179	0.0160248
647.257	0.0160389
647.335	0.0165722
647.413	0.0163067
647.491	0.0166199
647.569	0.0164734
647.648	0.0161194
647.726	0.0161957
647.804	0.0162632
647.882	0.0164715
647.960	0.0161934
648.038	0.0160496
648.116	0.0162704
648.194	0.0164993
648.273	0.0161678
648.351	0.0160679
648.429	0.0159588
648.507	0.0163651
648.585	0.0162029
648.663	0.0160801
648.741	0.0163181
648.819	0.0165508
648.898	0.0162186
648.976	0.0162785
649.054	0.0164547
649.132	0.0163639
649.210	0.0159431
649.288	0.0160439
649.366	0.0160297
649.444	0.0160797
649.523	0.0158058
649.601	0.0161640
649.679	0.0160198
649.757	0.0162014
649.835	0.0164471
649.913	0.0163086
649.991	0.0160801
650.069	0.0162788
650.148	0.0160206
650.226	0.0158634
650.304	0.0163502
650.382	0.0160343
650.460	0.0158051
650.538	0.0162041
650.616	0.0163994
650.694	0.0160580
650.773	0.0162991
650.851	0.0158195
650.929	0.0160973
651.007	0.0161415
651.085	0.0162971
651.163	0.0164158
651.241	0.0160995
651.319	0.0159161
651.398	0.0158607
651.476	0.0160564
651.554	0.0162197
651.632	0.0162975
651.710	0.0161251
651.788	0.0161213
651.866	0.0159729
651.944	0.0159775
652.023	0.0157368
652.101	0.0161602
652.179	0.0161049
652.257	0.0158848
652.335	0.0157398
652.413	0.0157307
652.491	0.0161255
652.569	0.0160069
652.648	0.0161377
652.726	0.0162014
652.804	0.0162560
652.882	0.0158875
652.960	0.0161098
653.038	0.0162132
653.116	0.0159805
653.194	0.0161095
653.273	0.0161690
653.351	0.0160885
653.429	0.0161766
653.507	0.0163193
653.585	0.0161411
653.663	0.0161358
653.741	0.0159679
653.819	0.0161602
653.898	0.0162342
653.976	0.0162212
654.054	0.0163536
654.132	0.0162048
654.210	0.0161205
654.288	0.0163071
654.366	0.0160839
654.444	0.0163284
654.523	0.0162487
654.601	0.0160839
654.679	0.0156361
654.757	0.0158058
654.835	0.0158028
654.913	0.0159767
654.991	0.0159973
655.069	0.0160175
655.148	0.0160950
655.226	0.0162617
655.304	0.0159615
655.382	0.0163342
655.460	0.0160156
655.538	0.0163456
655.616	0.0161758
655.694	0.0161774
655.773	0.0164127
655.851	0.0161381
655.929	0.0160725
656.007	0.0161980
656.085	0.0158901
656.163	0.0159756
656.241	0.0161991
656.319	0.0164558
656.398	0.0160503
656.476	0.0161884
656.554	0.0162476
656.632	0.0160606
656.710	0.0160328
656.788	0.0159946
656.866	0.0160786
656.944	0.0163471
657.023	0.0162910
657.101	0.0160694
657.179	0.0160763
657.257	0.0159397
657.335	0.0162086
657.413	0.0160786
657.491	0.0161610
657.569	0.0163433
657.648	0.0161247
657.726	0.0159061
657.804	0.0161991
657.882	0.0160851
657.960	0.0160271
658.038	0.0163147
658.116	0.0162029
658.194	0.0163429
658.273	0.0165253
658.351	0.0162910
658.429	0.0161877
658.507	0.0163765
658.585	0.0163368
658.663	0.0164307
658.741	0.0161518
658.819	0.0162674
658.898	0.0163853
658.976	0.0161911
659.054	0.0161175
659.132	0.0161987
659.210	0.0160061
659.288	0.0163940
659.366	0.0166763
659.444	0.0162960
659.523	0.0161026
659.601	0.0163021
659.679	0.0164200
659.757	0.0167244
659.835	0.0165325
659.913	0.0162865
659.991	0.0162670
660.069	0.0162800
660.148	0.0163029
660.226	0.0162060
660.304	0.0159706
660.382	0.0163502
660.460	0.0164242
660.538	0.0162598
660.616	0.0160828
660.694	0.0165077
660.773	0.0162643
660.851	0.0163818
660.929	0.0158882
661.007	0.0160252
661.085	0.0161671
661.163	0.0161716
661.241	0.0163353
661.319	0.0159458
661.398	0.0161671
661.476	0.0165508
661.554	0.0159550
661.632	0.0159920
661.710	0.0158878
661.788	0.0162167
661.866	0.0162682
661.944	0.0161991
662.023	0.0162079
662.101	0.0161720
662.179	0.0159489
662.257	0.0159225
662.335	0.0158978
662.413	0.0159321
662.491	0.0161240
662.569	0.0161724
662.648	0.0160355
662.726	0.0159245
662.804	0.0159031
662.882	0.0160873
662.960	0.0163414
663.038	0.0160908
663.116	0.0158600
663.194	0.0159439
663.273	0.0160637
663.351	0.0157986
663.429	0.0157829
663.507	0.0159580
663.585	0.0164951
663.663	0.0158092
663.741	0.0157021
663.819	0.0159508
663.898	0.0159187
663.976	0.0160053
664.054	0.0160469
664.132	0.0162872
664.210	0.0159336
664.288	0.0159248
664.366	0.0160057
664.444	0.0156185
664.523	0.0157635
664.601	0.0159187
664.679	0.0159298
664.757	0.0157219
664.835	0.0160156
664.913	0.0155872
664.991	0.0156670
665.069	0.0159611
665.148	0.0158020
665.226	0.0158718
665.304	0.0158031
665.382	0.0157314
665.460	0.0160748
665.538	0.0161716
665.616	0.0160973
665.694	0.0158504
665.773	0.0157444
665.851	0.0160793
665.929	0.0160069
666.007	0.0158623
666.085	0.0158573
666.163	0.0159534
666.241	0.0157852
666.319	0.0155964
666.398	0.0161434
666.476	0.0161007
666.554	0.0159092
666.632	0.0161583
666.710	0.0160362
666.788	0.0161694
666.866	0.0161087
666.944	0.0160732
667.023	0.0160393
667.101	0.0158508
667.179	0.0161671
667.257	0.0161888
667.335	0.0163174
667.413	0.0159096
667.491	0.0159424
667.569	0.0160889
667.648	0.0159512
667.726	0.0158363
667.804	0.0164482
667.882	0.0161858
667.960	0.0157280
668.038	0.0161980
668.116	0.0160877
668.194	0.0164917
668.273	0.0163475
668.351	0.0160347
668.429	0.0162346
668.507	0.0163227
668.585	0.0162231
668.663	0.0160378
668.741	0.0164459
668.819	0.0163475
668.898	0.0163105
668.976	0.0165150
669.054	0.0166214
669.132	0.0161297
669.210	0.0159721
669.288	0.0161827
669.366	0.0164261
669.444	0.0163990
669.523	0.0163429
669.601	0.0163567
669.679	0.0163074
669.757	0.0164097
669.835	0.0164082
669.913	0.0164253
669.991	0.0164326
670.069	0.0163612
670.148	0.0164360
670.226	0.0164410
670.304	0.0161770
670.382	0.0165787
670.460	0.0163391
670.538	0.0165344
670.616	0.0165611
670.694	0.0165798
670.773	0.0165176
670.851	0.0165359
670.929	0.0164341
671.007	0.0160313
671.085	0.0165165
671.163	0.0162167
671.241	0.0164818
671.319	0.0161015
671.398	0.0164768
671.476	0.0164192
671.554	0.0163490
671.632	0.0163578
671.710	0.0162968
671.788	0.0165276
671.866	0.0161957
671.944	0.0164719
672.023	0.0165119
672.101	0.0164185
672.179	0.0164894
672.257	0.0167309
672.335	0.0163254
672.413	0.0164719
672.491	0.0163651
672.569	0.0162716
672.648	0.0164581
672.726	0.0164661
672.804	0.0162453
672.882	0.0165058
672.960	0.0161797
673.038	0.0164791
673.116	0.0163982
673.194	0.0162621
673.273	0.0165009
673.351	0.0163715
673.429	0.0165539
673.507	0.0166470
673.585	0.0161873
673.663	0.0161797
673.741	0.0163353
673.819	0.0163475
673.898	0.0163506
673.976	0.0162617
674.054	0.0162586
674.132	0.0164162
674.210	0.0163937
674.288	0.0163021
674.366	0.0163536
674.444	0.0163177
674.523	0.0160507
674.601	0.0162285
674.679	0.0162609
674.757	0.0161289
674.835	0.0162212
674.913	0.0163128
674.991	0.0160881
675.069	0.0160919
675.148	0.0161270
675.226	0.0160244
675.304	0.0162628
675.382	0.0158512
675.460	0.0158417
675.538	0.0157345
675.616	0.0156487
675.694	0.0159790
675.773	0.0156033
675.851	0.0156403
675.929	0.0160789
676.007	0.0157867
676.085	0.0157257
676.163	0.0155586
676.241	0.0157204
676.319	0.0154797
676.398	0.0158005
676.476	0.0155811
676.554	0.0154358
676.632	0.0155807
676.710	0.0156647
676.788	0.0156708
676.866	0.0157204
676.944	0.0159939
677.023	0.0157143
677.101	0.0159725
677.179	0.0160366
677.257	0.0156147
677.335	0.0156792
677.413	0.0159149
677.491	0.0159088
677.569	0.0160133
677.648	0.0157330
677.726	0.0163254
677.804	0.0163139
677.882	0.0159981
677.960	0.0157455
678.038	0.0158039
678.116	0.0157650
678.194	0.0161999
678.273	0.0161694
678.351	0.0159714
678.429	0.0155720
678.507	0.0157421
678.585	0.0158463
678.663	0.0156662
678.741	0.0157478
678.819	0.0154728
678.898	0.0155758
678.976	0.0156670
679.054	0.0154465
679.132	0.0151978
679.210	0.0154457
679.288	0.0151871
679.366	0.0150322
679.444	0.0154488
679.523	0.0152916
679.601	0.0150539
679.679	0.0154247
679.757	0.0149185
679.835	0.0152412
679.913	0.0150547
679.991	0.0151741
680.069	0.0150303
680.148	0.0149826
680.226	0.0150326
680.304	0.0150085
680.382	0.0152939
680.460	0.0150196
680.538	0.0150917
680.616	0.0152859
680.694	0.0151417
680.773	0.0151306
680.851	0.0152748
680.929	0.0151920
681.007	0.0150898
681.085	0.0149609
681.163	0.0151379
681.241	0.0151066
681.319	0.0150333
681.398	0.0146397
681.476	0.0145603
681.554	0.0143959
681.632	0.0146328
681.710	0.0141712
681.788	0.0142853
681.866	0.0144871
681.944	0.0143116
682.023	0.0142082
682.101	0.0141586
682.179	0.0140579
682.257	0.0138977
682.335	0.0140415
682.413	0.0136269
682.491	0.0133801
682.569	0.0133980
682.648	0.0136337
682.726	0.0132587
682.804	0.0135643
682.882	0.0135048
682.960	0.0135784
683.038	0.0135410
683.116	0.0130974
683.194	0.0134991
683.273	0.0133595
683.351	0.0132919
683.429	0.0133495
683.507	0.0135624
683.585	0.0135246
683.663	0.0134380
683.741	0.0129501
683.819	0.0131210
683.898	0.0129879
683.976	0.0129791
684.054	0.0129177
684.132	0.0130753
684.210	0.0129341
684.288	0.0130035
684.366	0.0125328
684.444	0.0125252
684.523	0.0125942
684.601	0.0122131
684.679	0.0122021
684.757	0.0118786
684.835	0.0116554
684.913	0.0115437
684.991	0.0111008
685.069	0.0107288
685.148	0.0104408
685.226	0.0102371
685.304	0.00978928
685.382	0.00911179
685.460	0.00869560
685.538	0.00861130
685.616	0.00778694
685.694	0.00752296
685.773	0.00716171
685.851	0.00644722
685.929	0.00580254
686.007	0.00512772
686.085	0.00454597
686.163	0.00363159
686.241	0.00296173
686.319	0.00222168
686.398	0.00144806
686.476	0.000334167
686.554	-0.000909424
686.632	-0.00155411
686.710	-0.00263939
686.788	-0.00371780
686.866	-0.00438805
686.944	-0.00574188
687.023	-0.00693474
687.101	-0.00813217
687.179	-0.00913124
687.257	-0.0101349
687.335	-0.0113682
687.413	-0.0130096
687.491	-0.0142216
687.569	-0.0149609
687.648	-0.0164928
687.726	-0.0176720
687.804	-0.0188297
687.882	-0.0195076
687.960	-0.0197254
688.038	-0.0187462
688.116	-0.0163567
688.194	-0.0119396
688.273	-0.00486145
688.351	0.00545082
688.429	0.0189011
688.507	0.0354816
688.585	0.0550968
688.663	0.0771561
688.741	0.101086
688.819	0.125657
688.898	0.149636
688.976	0.172577
689.054	0.193860
689.132	0.212043
689.210	0.226219
689.288	0.236321
689.366	0.242536
689.444	0.244210
689.523	0.241407
689.601	0.235009
689.679	0.224595
689.757	0.211314
689.835	0.194691
689.913	0.175620
689.991	0.154849
690.069	0.132818
690.148	0.108721
690.226	0.0840164
690.304	0.0590946
690.382	0.0331795
690.460	0.00709610
690.538	-0.0177647
690.616	-0.0413101
690.694	-0.0631550
690.773	-0.0821316
690.851	-0.0984962
690.929	-0.111472
691.007	-0.121428
691.085	-0.128273
691.163	-0.131199
691.241	-0.130785
691.319	-0.128021
691.398	-0.122931
691.476	-0.115882
691.554	-0.107352
691.632	-0.0978901
691.710	-0.0881908
691.788	-0.0786282
691.866	-0.0692741
691.944	-0.0608505
692.023	-0.0528278
692.101	-0.0458271
692.179	-0.0396442
692.257	-0.0340431
692.335	-0.0290264
692.413	-0.0251766
692.491	-0.0219395
692.569	-0.0192005
692.648	-0.0170654
692.726	-0.0160294
692.804	-0.0145374
692.882	-0.0137501
692.960	-0.0127556
693.038	-0.0123718
693.116	-0.0119976
693.194	-0.0113304
693.273	-0.0108494
693.351	-0.0103146
693.429	-0.0102451
693.507	-0.00953598
693.585	-0.00881767
693.663	-0.00782928
693.741	-0.00669937
693.819	-0.00506821
693.898	-0.00312843
693.976	-0.00103493
694.054	0.000733948
694.132	0.00235863
694.210	0.00423813
694.288	0.00569916
694.366	0.00728493
694.444	0.00834885
694.523	0.00877457
694.601	0.00948868
694.679	0.00959740
694.757	0.0100121
694.835	0.00986977
694.913	0.00965500
694.991	0.00946274
695.069	0.00881691
695.148	0.00878792
695.226	0.00852394
695.304	0.00802422
695.382	0.00802383
695.460	0.00759468
695.538	0.00775261
695.616	0.00762863
695.694	0.00766182
695.773	0.00845833
695.851	0.00846024
695.929	0.00881424
696.007	0.00985031
696.085	0.0105194
696.163	0.0118504
696.241	0.0129452
696.319	0.0142494
696.398	0.0151245
696.476	0.0166119
696.554	0.0184177
696.632	0.0197617
696.710	0.0209698
696.788	0.0228172
696.866	0.0242916
696.944	0.0261345
697.023	0.0280365
697.101	0.0298523
697.179	0.0310421
697.257	0.0327904
697.335	0.0342880
697.413	0.0356781
697.491	0.0365917
697.569	0.0371826
697.648	0.0379856
697.726	0.0380703
697.804	0.0377869
697.882	0.0371876
697.960	0.0363071
698.038	0.0353291
698.116	0.0344936
698.194	0.0335209
698.273	0.0320618
698.351	0.0311508
698.429	0.0296410
698.507	0.0287189
698.585	0.0281818
698.663	0.0276386
698.741	0.0272938
698.819	0.0271011
698.898	0.0274246
698.976	0.0279263
699.054	0.0281548
699.132	0.0288624
699.210	0.0299709
699.288	0.0306965
699.366	0.0313473
699.444	0.0323250
699.523	0.0330521
699.601	0.0337452
699.679	0.0344162
699.757	0.0351688
699.835	0.0352749
699.913	0.0354172
699.991	0.0356640
700.069	0.0357227
700.148	0.0352390
700.226	0.0347172
700.304	0.0338642
700.382	0.0328693
700.460	0.0318634
700.538	0.0301128
700.616	0.0288464
700.694	0.0268845
700.773	0.0251392
700.851	0.0235493
700.929	0.0218540
701.007	0.0201412
701.085	0.0184734
701.163	0.0167446
701.241	0.0153484
701.319	0.0139946
701.398	0.0124813
701.476	0.0112587
701.554	0.0106281
701.632	0.00980186
701.710	0.00935936
701.788	0.00912743
701.866	0.00927048
701.944	0.00932159
702.023	0.00937042
702.101	0.00956459
702.179	0.0103741
702.257	0.0105427
702.335	0.0113998
702.413	0.0113735
702.491	0.0122433
702.569	0.0128849
702.648	0.0134064
702.726	0.0140446
702.804	0.0139935
702.882	0.0146564
702.960	0.0147804
703.038	0.0146072
703.116	0.0146545
703.194	0.0144463
703.273	0.0139702
703.351	0.0133774
703.429	0.0131264
703.507	0.0126324
703.585	0.0122902
703.663	0.0120449
703.741	0.0119247
703.819	0.0120964
703.898	0.0121117
703.976	0.0121731
704.054	0.0121376
704.132	0.0121891
704.210	0.0121147
704.288	0.0122303
704.366	0.0126335
704.444	0.0126846
704.523	0.0133781
704.601	0.0134357
704.679	0.0136425
704.757	0.0134769
704.835	0.0132378
704.913	0.0137756
704.991	0.0131905
705.069	0.0130722
705.148	0.0130497
705.226	0.0134552
705.304	0.0134899
705.382	0.0132378
705.460	0.0131187
705.538	0.0138004
705.616	0.0144024
705.694	0.0142601
705.773	0.0146431
705.851	0.0151569
705.929	0.0154274
706.007	0.0155655
706.085	0.0160553
706.163	0.0164898
706.241	0.0168705
706.319	0.0173084
706.398	0.0173412
706.476	0.0177773
706.554	0.0179947
706.632	0.0182957
706.710	0.0179737
706.788	0.0180199
706.866	0.0176338
706.944	0.0177788
707.023	0.0177017
707.101	0.0175724
707.179	0.0175869
707.257	0.0169182
707.335	0.0168385
707.413	0.0168468
707.491	0.0167034
707.569	0.0166931
707.648	0.0167267
707.726	0.0165676
707.804	0.0171307
707.882	0.0176586
707.960	0.0176735
708.038	0.0177639
708.116	0.0181122
708.194	0.0180496
708.273	0.0176521
708.351	0.0178696
708.429	0.0176903
708.507	0.0168587
708.585	0.0165997
708.663	0.0160320
708.741	0.0156067
708.819	0.0149338
708.898	0.0144279
708.976	0.0144161
709.054	0.0136444
709.132	0.0135353
709.210	0.0138962
709.288	0.0139587
709.366	0.0144264
709.444	0.0147530
709.523	0.0151428
709.601	0.0157082
709.679	0.0164093
709.757	0.0166862
709.835	0.0172535
709.913	0.0176807
709.991	0.0180588
710.069	0.0180630
710.148	0.0188370
710.226	0.0187099
710.304	0.0192505
710.382	0.0191021
710.460	0.0195328
710.538	0.0195389
710.616	0.0201141
710.694	0.0203899
710.773	0.0205582
710.851	0.0212376
710.929	0.0214737
711.007	0.0216412
711.085	0.0217815
711.163	0.0215607
711.241	0.0212124
711.319	0.0215096
711.398	0.0219292
711.476	0.0219738
711.554	0.0221283
711.632	0.0220455
711.710	0.0217728
711.788	0.0224392
711.866	0.0222446
711.944	0.0219040
712.023	0.0221161
712.101	0.0223789
712.179	0.0222782
712.257	0.0224518
712.335	0.0222164
712.413	0.0224384
712.491	0.0222813
712.569	0.0220562
712.648	0.0219345
712.726	0.0217739
712.804	0.0213234
712.882	0.0211109
712.960	0.0210045
713.038	0.0208881
713.116	0.0207073
713.194	0.0205425
713.273	0.0205887
713.351	0.0200321
713.429	0.0200291
713.507	0.0192886
713.585	0.0185844
713.663	0.0182076
713.741	0.0175652
713.819	0.0164700
713.898	0.0154095
713.976	0.0143860
714.054	0.0133942
714.132	0.0128094
714.210	0.0115353
714.288	0.0107849
714.366	0.0103069
714.444	0.00941391
714.523	0.00906258
714.601	0.00889511
714.679	0.00847588
714.757	0.00885887
714.835	0.00841255
714.913	0.00869179
714.991	0.00884781
715.069	0.00892754
715.148	0.00852852
715.226	0.00876160
715.304	0.00879250
715.382	0.00898666
715.460	0.00954628
715.538	0.00908928
715.616	0.00947495
715.694	0.00955772
715.773	0.00948868
715.851	0.00981598
715.929	0.0103718
716.007	0.0104397
716.085	0.0106705
716.163	0.0110786
716.241	0.0113453
716.319	0.0116348
716.398	0.0118084
716.476	0.0123493
716.554	0.0126961
716.632	0.0129459
716.710	0.0133278
716.788	0.0132328
716.866	0.0133667
716.944	0.0135971
717.023	0.0135723
717.101	0.0135704
717.179	0.0139084
717.257	0.0137997
717.335	0.0139137
717.413	0.0137169
717.491	0.0136734
717.569	0.0138165
717.648	0.0137783
717.726	0.0138195
717.804	0.0136349
717.882	0.0135826
717.960	0.0138954
718.038	0.0139305
718.116	0.0139339
718.194	0.0139603
718.273	0.0141636
718.351	0.0145367
718.429	0.0148090
718.507	0.0152122
718.585	0.0151905
718.663	0.0155819
718.741	0.0158684
718.819	0.0160576
718.898	0.0164085
718.976	0.0166077
719.054	0.0168938
719.132	0.0171139
719.210	0.0170383
719.288	0.0166954
719.366	0.0165821
719.444	0.0164875
719.523	0.0165504
719.601	0.0162838
719.679	0.0165905
719.757	0.0166897
719.835	0.0167072
719.913	0.0164616
719.991	0.0168896
720.069	0.0167442
720.148	0.0168072
720.226	0.0169235
720.304	0.0169186
720.382	0.0169132
720.460	0.0165501
720.538	0.0167759
720.616	0.0163471
720.694	0.0161846
720.773	0.0161552
720.851	0.0155643
720.929	0.0159843
721.007	0.0156967
721.085	0.0152607
721.163	0.0153130
721.241	0.0149189
721.319	0.0149010
721.398	0.0147003
721.476	0.0143711
721.554	0.0145443
721.632	0.0143185
721.710	0.0138626
721.788	0.0139935
721.866	0.0139732
721.944	0.0140404
722.023	0.0139236
722.101	0.0136768
722.179	0.0134132
722.257	0.0134460
722.335	0.0133404
722.413	0.0131977
722.491	0.0128025
722.569	0.0129791
722.648	0.0125023
722.726	0.0122913
722.804	0.0119156
722.882	0.0118374
722.960	0.0118427
723.038	0.0114574
723.116	0.0109222
723.194	0.0108685
723.273	0.0107124
723.351	0.0107269
723.429	0.0101974
723.507	0.0105137
723.585	0.0106514
723.663	0.0106678
723.741	0.0112698
723.819	0.0114769
723.898	0.0122162
723.976	0.0130138
724.054	0.0134766
724.132	0.0140354
724.210	0.0151752
724.288	0.0155983
724.366	0.0157467
724.444	0.0166077
724.523	0.0165958
724.601	0.0168533
724.679	0.0172222
724.757	0.0173527
724.835	0.0174446
724.913	0.0170696
724.991	0.0174210
725.069	0.0174118
725.148	0.0175156
725.226	0.0178299
725.304	0.0177616
725.382	0.0179207
725.460	0.0181385
725.538	0.0183559
725.616	0.0185585
725.694	0.0187382
725.773	0.0185787
725.851	0.0186466
725.929	0.0186581
726.007	0.0183369
726.085	0.0183178
726.163	0.0183907
726.241	0.0183640
726.319	0.0181293
726.398	0.0182621
726.476	0.0181095
726.554	0.0179413
726.632	0.0180996
726.710	0.0181126
726.788	0.0182789
726.866	0.0184734
726.944	0.0184856
727.023	0.0183205
727.101	0.0182068
727.179	0.0183212
727.257	0.0183498
727.335	0.0183716
727.413	0.0184174
727.491	0.0186985
727.569	0.0187500
727.648	0.0185043
727.726	0.0187679
727.804	0.0187626
727.882	0.0189159
727.960	0.0190426
728.038	0.0193047
728.116	0.0193432
728.194	0.0194038
728.273	0.0196209
728.351	0.0192909
728.429	0.0198807
728.507	0.0197975
728.585	0.0197723
728.663	0.0197113
728.741	0.0197037
728.819	0.0191315
728.898	0.0194851
728.976	0.0199116
729.054	0.0196754
729.132	0.0197060
729.210	0.0200878
729.288	0.0203365
729.366	0.0202938
729.444	0.0204212
729.523	0.0205025
729.601	0.0207085
729.679	0.0206955
729.757	0.0203857
729.835	0.0204758
729.913	0.0198502
729.991	0.0196407
730.069	0.0193523
730.148	0.0191284
730.226	0.0188507
730.304	0.0186302
730.382	0.0182487
730.460	0.0181763
730.538	0.0178185
730.616	0.0178535
730.694	0.0177914
730.773	0.0178352
730.851	0.0179863
730.929	0.0179878
731.007	0.0177956
731.085	0.0174473
731.163	0.0180904
731.241	0.0175274
731.319	0.0173080
731.398	0.0172932
731.476	0.0170238
731.554	0.0167732
731.632	0.0162926
731.710	0.0163078
731.788	0.0161427
731.866	0.0154099
731.944	0.0158688
732.023	0.0151909
732.101	0.0156071
732.179	0.0152664
732.257	0.0153339
732.335	0.0151024
732.413	0.0148495
732.491	0.0151108
732.569	0.0149670
732.648	0.0151493
732.726	0.0148735
732.804	0.0150433
732.882	0.0154655
732.960	0.0155945
733.038	0.0154423
733.116	0.0158146
733.194	0.0157352
733.273	0.0164337
733.351	0.0162647
733.429	0.0164330
733.507	0.0168442
733.585	0.0167274
733.663	0.0164204
733.741	0.0164616
733.819	0.0164738
733.898	0.0164078
733.976	0.0163990
734.054	0.0159378
734.132	0.0158531
734.210	0.0158760
734.288	0.0158604
734.366	0.0159245
734.444	0.0155460
734.523	0.0154552
734.601	0.0154728
734.679	0.0153297
734.757	0.0158085
734.835	0.0158844
734.913	0.0156963
734.991	0.0156536
735.069	0.0158337
735.148	0.0158871
735.226	0.0155483
735.304	0.0154743
735.382	0.0151024
735.460	0.0148907
735.538	0.0150620
735.616	0.0147987
735.694	0.0145962
735.773	0.0142189
735.851	0.0144234
735.929	0.0140228
736.007	0.0142933
736.085	0.0139854
736.163	0.0138260
736.241	0.0142254
736.319	0.0139835
736.398	0.0142445
736.476	0.0140442
736.554	0.0142429
736.632	0.0143566
736.710	0.0143719
736.788	0.0142944
736.866	0.0145954
736.944	0.0148190
737.023	0.0147305
737.101	0.0153629
737.179	0.0154758
737.257	0.0156986
737.335	0.0157997
737.413	0.0157436
737.491	0.0162693
737.569	0.0170109
737.648	0.0171333
737.726	0.0170059
737.804	0.0176060
737.882	0.0181705
737.960	0.0181149
738.038	0.0183552
738.116	0.0187016
738.194	0.0188217
738.273	0.0197369
738.351	0.0203503
738.429	0.0207230
738.507	0.0213390
738.585	0.0214783
738.663	0.0221066
738.741	0.0223949
738.819	0.0226364
738.898	0.0228237
738.976	0.0231178
739.054	0.0231472
739.132	0.0233517
739.210	0.0230865
739.288	0.0223923
739.366	0.0219307
739.444	0.0209801
739.523	0.0196911
739.601	0.0187653
739.679	0.0175957
739.757	0.0165264
739.835	0.0155174
739.913	0.0144199
739.991	0.0135632
740.069	0.0126320
740.148	0.0117355
740.226	0.0108986
740.304	0.0104511
740.382	0.00978851
740.460	0.00938492
740.538	0.00913734
740.616	0.00901794
740.694	0.00853577
740.773	0.00796928
740.851	0.00839500
740.929	0.00831146
741.007	0.00872269
741.085	0.00912018
741.163	0.00933838
741.241	0.0101833
741.319	0.0108143
741.398	0.0115150
741.476	0.0116829
741.554	0.0124699
741.632	0.0130390
741.710	0.0135433
741.788	0.0141190
741.866	0.0147526
741.944	0.0152401
742.023	0.0155754
742.101	0.0161903
742.179	0.0165947
742.257	0.0167561
742.335	0.0169102
742.413	0.0167709
742.491	0.0164383
742.569	0.0165691
742.648	0.0161751
742.726	0.0162270
742.804	0.0161617
742.882	0.0158405
742.960	0.0154732
743.038	0.0151489
743.116	0.0149017
743.194	0.0148090
743.273	0.0147655
743.351	0.0147816
743.429	0.0144375
743.507	0.0145321
743.585	0.0144882
743.663	0.0144920
743.741	0.0144951
743.819	0.0143139
743.898	0.0144436
743.976	0.0144764
744.054	0.0144470
744.132	0.0142570
744.210	0.0142353
744.288	0.0144871
744.366	0.0143482
744.444	0.0139183
744.523	0.0140034
744.601	0.0140263
744.679	0.0142109
744.757	0.0143261
744.835	0.0146404
744.913	0.0146889
744.991	0.0145111
745.069	0.0151302
745.148	0.0158863
745.226	0.0160244
745.304	0.0162781
745.382	0.0164246
745.460	0.0175106
745.538	0.0176651
745.616	0.0179501
745.694	0.0183460
745.773	0.0180332
745.851	0.0184597
745.929	0.0185322
746.007	0.0187099
746.085	0.0188213
746.163	0.0182430
746.241	0.0182968
746.319	0.0183659
746.398	0.0186527
746.476	0.0187588
746.554	0.0183556
746.632	0.0181690
746.710	0.0180733
746.788	0.0183926
746.866	0.0179852
746.944	0.0181030
747.023	0.0179356
747.101	0.0180550
747.179	0.0176704
747.257	0.0175976
747.335	0.0173157
747.413	0.0175907
747.491	0.0173702
747.569	0.0170677
747.648	0.0169914
747.726	0.0169403
747.804	0.0169903
747.882	0.0171864
747.960	0.0172588
748.038	0.0171696
748.116	0.0172386
748.194	0.0170597
748.273	0.0174835
748.351	0.0175842
748.429	0.0176323
748.507	0.0172886
748.585	0.0175549
748.663	0.0175541
748.741	0.0171963
748.819	0.0172825
748.898	0.0170235
748.976	0.0172958
749.054	0.0173481
749.132	0.0171535
749.210	0.0171093
749.288	0.0170612
749.366	0.0171902
749.444	0.0167999
749.523	0.0167809
749.601	0.0166542
749.679	0.0163811
749.757	0.0161106
749.835	0.0157990
749.913	0.0159260
749.991	0.0157265
750.069	0.0152843
750.148	0.0153797
750.226	0.0154716
750.304	0.0154804
750.382	0.0151989
750.460	0.0155670
750.538	0.0156796
750.616	0.0155327
750.694	0.0158939
750.773	0.0159584
750.851	0.0160130
750.929	0.0162308
751.007	0.0162556
751.085	0.0160954
751.163	0.0161030
751.241	0.0163197
751.319	0.0162041
751.398	0.0166626
751.476	0.0162312
751.554	0.0165524
751.632	0.0164406
751.710	0.0166252
751.788	0.0166935
751.866	0.0169567
751.944	0.0168205
752.023	0.0171253
752.101	0.0171532
752.179	0.0173985
752.257	0.0175850
752.335	0.0173656
752.413	0.0171329
752.491	0.0173256
752.569	0.0174702
752.648	0.0172981
752.726	0.0168499
752.804	0.0173416
752.882	0.0172295
752.960	0.0170063
753.038	0.0171219
753.116	0.0168747
753.194	0.0164783
753.273	0.0166862
753.351	0.0167931
753.429	0.0168968
753.507	0.0166157
753.585	0.0166161
753.663	0.0160271
753.741	0.0162395
753.819	0.0161388
753.898	0.0161716
753.976	0.0156906
754.054	0.0158058
754.132	0.0157993
754.210	0.0157387
754.288	0.0157722
754.366	0.0157570
754.444	0.0160160
754.523	0.0161255
754.601	0.0162956
754.679	0.0161411
754.757	0.0162247
754.835	0.0162384
754.913	0.0164551
754.991	0.0158154
755.069	0.0161514
755.148	0.0156429
755.226	0.0158264
755.304	0.0160225
755.382	0.0158043
755.460	0.0156399
755.538	0.0154633
755.616	0.0153526
755.694	0.0155785
755.773	0.0155910
755.851	0.0156193
755.929	0.0154041
756.007	0.0155807
756.085	0.0154774
756.163	0.0154087
756.241	0.0161118
756.319	0.0157303
756.398	0.0159958
756.476	0.0158863
756.554	0.0157333
756.632	0.0159737
756.710	0.0158730
756.788	0.0157490
756.866	0.0158115
756.944	0.0156052
757.023	0.0156723
757.101	0.0157223
757.179	0.0155602
757.257	0.0156208
757.335	0.0160187
757.413	0.0156124
757.491	0.0158504
757.569	0.0158012
757.648	0.0157463
757.726	0.0157066
757.804	0.0156021
757.882	0.0157276
757.960	0.0155159
758.038	0.0154854
758.116	0.0153965
758.194	0.0153343
758.273	0.0159332
758.351	0.0156075
758.429	0.0153458
758.507	0.0152161
758.585	0.0154072
758.663	0.0147411
758.741	0.0150654
758.819	0.0144234
758.898	0.0146801
758.976	0.0145882
759.054	0.0144695
759.132	0.0143349
759.210	0.0142620
759.288	0.0139557
759.366	0.0140255
759.444	0.0138214
759.523	0.0139500
759.601	0.0137215
759.679	0.0137367
759.757	0.0139153
759.835	0.0137165
759.913	0.0139095
759.991	0.0136299
760.069	0.0140652
760.148	0.0140873
760.226	0.0139896
760.304	0.0144566
760.382	0.0139671
760.460	0.0140961
760.538	0.0143581
760.616	0.0141293
760.694	0.0140251
760.773	0.0142166
760.851	0.0146351
760.929	0.0145416
761.007	0.0145004
761.085	0.0146503
761.163	0.0148163
761.241	0.0149124
761.319	0.0152855
761.398	0.0155525
761.476	0.0153221
761.554	0.0153797
761.632	0.0157185
761.710	0.0162338
761.788	0.0161098
761.866	0.0157436
761.944	0.0161648
762.023	0.0159241
762.101	0.0166008
762.179	0.0161983
762.257	0.0164463
762.335	0.0163906
762.413	0.0164280
762.491	0.0165672
762.569	0.0166809
762.648	0.0169373
762.726	0.0169178
762.804	0.0167950
762.882	0.0170933
762.960	0.0171947
763.038	0.0169662
763.116	0.0171631
763.194	0.0167435
763.273	0.0170765
763.351	0.0170273
763.429	0.0169083
763.507	0.0166027
763.585	0.0167282
763.663	0.0168629
763.741	0.0170181
763.819	0.0167034
763.898	0.0167568
763.976	0.0163704
764.054	0.0165737
764.132	0.0161682
764.210	0.0163128
764.288	0.0163662
764.366	0.0159927
764.444	0.0157848
764.523	0.0164307
764.601	0.0163101
764.679	0.0161633
764.757	0.0163250
764.835	0.0163410
764.913	0.0167999
764.991	0.0169659
765.069	0.0172085
765.148	0.0173920
765.226	0.0172340
765.304	0.0173923
765.382	0.0175293
765.460	0.0176723
765.538	0.0177002
765.616	0.0172913
765.694	0.0177242
765.773	0.0175442
765.851	0.0172966
765.929	0.0168442
766.007	0.0170059
766.085	0.0169640
766.163	0.0166149
766.241	0.0164780
766.319	0.0159603
766.398	0.0163288
766.476	0.0162998
766.554	0.0163692
766.632	0.0162800
766.710	0.0161266
766.788	0.0160629
766.866	0.0163399
766.944	0.0161942
767.023	0.0163025
767.101	0.0163639
767.179	0.0162148
767.257	0.0164448
767.335	0.0165623
767.413	0.0162991
767.491	0.0167652
767.569	0.0170307
767.648	0.0175175
767.726	0.0175159
767.804	0.0175198
767.882	0.0178741
767.960	0.0184551
768.038	0.0187096
768.116	0.0189999
768.194	0.0196728
768.273	0.0196190
768.351	0.0194187
768.429	0.0195679
768.507	0.0199345
768.585	0.0195679
768.663	0.0197582
768.741	0.0196129
768.819	0.0193855
768.898	0.0194328
768.976	0.0191006
769.054	0.0189636
769.132	0.0188232
769.210	0.0185921
769.288	0.0182243
769.366	0.0178020
769.444	0.0176376
769.523	0.0176643
769.601	0.0167801
769.679	0.0165970
769.757	0.0163635
769.835	0.0160412
769.913	0.0158615
