05/27/2022	02:12:52	Ver.	4.1	UNKNOWN
Optical Delay	449.991307	Delta X		0.078125	Sweeps	1	Scan Rate	0/0
Coordinates	Axis 1	NaN	Axis 2	NaN	Axis 3	NaN	Axis 4	NaN	Axis 5	NaN	Axis 6	0.000000
TX Power	0.000000	RX Power	0.000000

449.991	0.0166985
450.069	0.0166668
450.148	0.0162945
450.226	0.0168503
450.304	0.0166492
450.382	0.0163502
450.460	0.0167450
450.538	0.0168667
450.616	0.0167236
450.694	0.0166283
450.773	0.0168762
450.851	0.0167377
450.929	0.0168106
451.007	0.0169178
451.085	0.0166416
451.163	0.0168644
451.241	0.0166229
451.319	0.0165211
451.398	0.0166553
451.476	0.0166527
451.554	0.0164986
451.632	0.0166904
451.710	0.0168499
451.788	0.0166988
451.866	0.0165226
451.944	0.0166946
452.023	0.0167397
452.101	0.0166237
452.179	0.0166115
452.257	0.0166286
452.335	0.0163761
452.413	0.0167057
452.491	0.0167305
452.569	0.0166649
452.648	0.0165123
452.726	0.0168015
452.804	0.0165970
452.882	0.0168201
452.960	0.0167961
453.038	0.0167625
453.116	0.0164463
453.194	0.0167332
453.273	0.0166790
453.351	0.0166107
453.429	0.0169365
453.507	0.0166473
453.585	0.0166805
453.663	0.0167999
453.741	0.0166267
453.819	0.0168182
453.898	0.0166206
453.976	0.0165852
454.054	0.0168354
454.132	0.0165024
454.210	0.0166668
454.288	0.0168385
454.366	0.0169456
454.444	0.0163448
454.523	0.0163391
454.601	0.0170460
454.679	0.0170013
454.757	0.0167484
454.835	0.0167240
454.913	0.0167259
454.991	0.0167248
455.069	0.0164585
455.148	0.0167370
455.226	0.0165009
455.304	0.0171642
455.382	0.0169254
455.460	0.0166439
455.538	0.0164318
455.616	0.0167778
455.694	0.0167351
455.773	0.0166668
455.851	0.0166424
455.929	0.0167507
456.007	0.0164120
456.085	0.0166584
456.163	0.0164394
456.241	0.0166462
456.319	0.0168575
456.398	0.0165218
456.476	0.0166637
456.554	0.0167057
456.632	0.0166275
456.710	0.0166794
456.788	0.0165524
456.866	0.0163532
456.944	0.0166416
457.023	0.0162315
457.101	0.0164459
457.179	0.0167610
457.257	0.0167847
457.335	0.0165874
457.413	0.0167496
457.491	0.0167645
457.569	0.0164288
457.648	0.0164379
457.726	0.0164673
457.804	0.0166374
457.882	0.0167675
457.960	0.0168324
458.038	0.0165401
458.116	0.0165363
458.194	0.0169292
458.273	0.0166515
458.351	0.0167122
458.429	0.0163200
458.507	0.0165936
458.585	0.0165863
458.663	0.0165638
458.741	0.0165924
458.819	0.0165405
458.898	0.0165390
458.976	0.0169769
459.054	0.0169315
459.132	0.0167503
459.210	0.0165508
459.288	0.0165752
459.366	0.0166550
459.444	0.0168648
459.523	0.0166077
459.601	0.0167736
459.679	0.0168907
459.757	0.0165894
459.835	0.0168182
459.913	0.0166519
459.991	0.0163269
460.069	0.0167412
460.148	0.0166126
460.226	0.0167343
460.304	0.0166176
460.382	0.0164997
460.460	0.0167423
460.538	0.0166420
460.616	0.0166149
460.694	0.0164188
460.773	0.0166199
460.851	0.0164440
460.929	0.0165852
461.007	0.0167240
461.085	0.0170364
461.163	0.0168495
461.241	0.0169693
461.319	0.0168533
461.398	0.0164940
461.476	0.0169102
461.554	0.0167740
461.632	0.0168079
461.710	0.0168793
461.788	0.0168785
461.866	0.0166756
461.944	0.0167953
462.023	0.0165298
462.101	0.0166481
462.179	0.0165985
462.257	0.0166134
462.335	0.0170479
462.413	0.0167057
462.491	0.0166744
462.569	0.0168888
462.648	0.0166855
462.726	0.0169743
462.804	0.0163540
462.882	0.0165157
462.960	0.0166351
463.038	0.0168594
463.116	0.0165871
463.194	0.0166355
463.273	0.0163364
463.351	0.0165512
463.429	0.0167686
463.507	0.0167496
463.585	0.0166939
463.663	0.0164116
463.741	0.0166954
463.819	0.0166794
463.898	0.0166183
463.976	0.0168945
464.054	0.0167088
464.132	0.0166672
464.210	0.0165611
464.288	0.0167431
464.366	0.0166912
464.444	0.0169044
464.523	0.0168461
464.601	0.0164684
464.679	0.0169975
464.757	0.0167645
464.835	0.0165169
464.913	0.0166473
464.991	0.0169430
465.069	0.0168373
465.148	0.0166576
465.226	0.0167339
465.304	0.0168308
465.382	0.0164532
465.460	0.0165997
465.538	0.0165760
465.616	0.0167446
465.694	0.0167610
465.773	0.0167519
465.851	0.0168201
465.929	0.0168278
466.007	0.0170418
466.085	0.0165016
466.163	0.0164772
466.241	0.0164440
466.319	0.0164474
466.398	0.0164124
466.476	0.0167229
466.554	0.0168575
466.632	0.0168392
466.710	0.0168343
466.788	0.0166363
466.866	0.0165474
466.944	0.0166420
467.023	0.0167706
467.101	0.0167175
467.179	0.0167000
467.257	0.0167557
467.335	0.0168301
467.413	0.0167072
467.491	0.0164207
467.569	0.0166431
467.648	0.0166351
467.726	0.0164776
467.804	0.0164909
467.882	0.0164330
467.960	0.0168045
468.038	0.0167191
468.116	0.0165787
468.194	0.0168964
468.273	0.0168152
468.351	0.0167606
468.429	0.0166283
468.507	0.0169518
468.585	0.0168461
468.663	0.0164612
468.741	0.0166344
468.819	0.0170174
468.898	0.0166405
468.976	0.0163853
469.054	0.0166809
469.132	0.0170124
469.210	0.0167099
469.288	0.0166004
469.366	0.0167572
469.444	0.0169495
469.523	0.0170769
469.601	0.0165844
469.679	0.0166519
469.757	0.0167347
469.835	0.0164761
469.913	0.0167122
469.991	0.0167610
470.069	0.0166889
470.148	0.0170361
470.226	0.0168343
470.304	0.0170231
470.382	0.0170013
470.460	0.0169792
470.538	0.0165710
470.616	0.0165756
470.694	0.0165573
470.773	0.0165966
470.851	0.0168114
470.929	0.0168610
471.007	0.0168247
471.085	0.0167400
471.163	0.0166527
471.241	0.0168819
471.319	0.0168270
471.398	0.0166946
471.476	0.0169979
471.554	0.0167732
471.632	0.0165535
471.710	0.0167538
471.788	0.0169765
471.866	0.0165607
471.944	0.0168533
472.023	0.0168186
472.101	0.0166763
472.179	0.0167065
472.257	0.0168392
472.335	0.0166714
472.413	0.0170536
472.491	0.0166656
472.569	0.0166668
472.648	0.0169430
472.726	0.0170704
472.804	0.0164658
472.882	0.0168602
472.960	0.0169285
473.038	0.0167191
473.116	0.0166924
473.194	0.0167610
473.273	0.0168636
473.351	0.0167976
473.429	0.0165295
473.507	0.0167141
473.585	0.0168011
473.663	0.0165604
473.741	0.0164608
473.819	0.0170055
473.898	0.0166855
473.976	0.0167301
474.054	0.0168472
474.132	0.0168606
474.210	0.0165634
474.288	0.0165623
474.366	0.0166054
474.444	0.0164635
474.523	0.0167797
474.601	0.0166542
474.679	0.0168354
474.757	0.0168941
474.835	0.0167759
474.913	0.0169708
474.991	0.0167107
475.069	0.0169052
475.148	0.0165287
475.226	0.0165718
475.304	0.0165653
475.382	0.0167923
475.460	0.0165760
475.538	0.0166637
475.616	0.0167477
475.694	0.0166485
475.773	0.0171612
475.851	0.0168636
475.929	0.0166412
476.007	0.0166885
476.085	0.0168270
476.163	0.0164841
476.241	0.0167843
476.319	0.0167809
476.398	0.0168102
476.476	0.0167439
476.554	0.0168716
476.632	0.0168808
476.710	0.0169868
476.788	0.0164948
476.866	0.0167973
476.944	0.0168121
477.023	0.0166023
477.101	0.0168453
477.179	0.0169563
477.257	0.0168030
477.335	0.0163700
477.413	0.0168602
477.491	0.0168823
477.569	0.0167877
477.648	0.0166988
477.726	0.0165775
477.804	0.0165558
477.882	0.0166145
477.960	0.0169670
478.038	0.0167019
478.116	0.0166546
478.194	0.0167831
478.273	0.0166630
478.351	0.0166576
478.429	0.0165527
478.507	0.0164001
478.585	0.0166939
478.663	0.0170361
478.741	0.0168705
478.819	0.0168877
478.898	0.0168034
478.976	0.0168159
479.054	0.0167542
479.132	0.0167961
479.210	0.0170692
479.288	0.0167976
479.366	0.0165352
479.444	0.0167583
479.523	0.0165688
479.601	0.0167797
479.679	0.0168243
479.757	0.0166386
479.835	0.0166924
479.913	0.0166576
479.991	0.0169041
480.069	0.0169163
480.148	0.0169739
480.226	0.0168320
480.304	0.0167503
480.382	0.0169556
480.460	0.0166340
480.538	0.0168724
480.616	0.0167843
480.694	0.0168941
480.773	0.0168171
480.851	0.0168613
480.929	0.0168270
481.007	0.0168301
481.085	0.0165714
481.163	0.0166706
481.241	0.0169106
481.319	0.0169083
481.398	0.0168949
481.476	0.0168438
481.554	0.0169666
481.632	0.0166138
481.710	0.0166683
481.788	0.0170055
481.866	0.0166954
481.944	0.0167484
482.023	0.0168976
482.101	0.0164497
482.179	0.0168774
482.257	0.0170341
482.335	0.0168022
482.413	0.0168808
482.491	0.0165989
482.569	0.0169167
482.648	0.0165703
482.726	0.0171139
482.804	0.0168552
482.882	0.0168343
482.960	0.0169640
483.038	0.0169281
483.116	0.0168106
483.194	0.0169609
483.273	0.0169464
483.351	0.0169666
483.429	0.0165691
483.507	0.0168381
483.585	0.0167473
483.663	0.0169521
483.741	0.0168274
483.819	0.0170918
483.898	0.0168194
483.976	0.0167431
484.054	0.0167179
484.132	0.0168266
484.210	0.0172314
484.288	0.0168724
484.366	0.0166000
484.444	0.0166790
484.523	0.0169659
484.601	0.0167336
484.679	0.0168007
484.757	0.0168911
484.835	0.0172161
484.913	0.0167763
484.991	0.0165752
485.069	0.0166267
485.148	0.0167583
485.226	0.0166378
485.304	0.0166088
485.382	0.0166225
485.460	0.0168880
485.538	0.0167259
485.616	0.0167831
485.694	0.0166271
485.773	0.0168037
485.851	0.0166992
485.929	0.0167461
486.007	0.0166245
486.085	0.0169640
486.163	0.0165203
486.241	0.0169373
486.319	0.0170471
486.398	0.0169514
486.476	0.0166649
486.554	0.0166359
486.632	0.0168236
486.710	0.0169804
486.788	0.0166412
486.866	0.0169144
486.944	0.0162766
487.023	0.0164246
487.101	0.0167995
487.179	0.0167019
487.257	0.0166550
487.335	0.0170425
487.413	0.0165016
487.491	0.0167286
487.569	0.0168015
487.648	0.0166348
487.726	0.0167542
487.804	0.0167339
487.882	0.0169758
487.960	0.0167404
488.038	0.0168827
488.116	0.0169296
488.194	0.0167793
488.273	0.0166073
488.351	0.0167793
488.429	0.0170574
488.507	0.0167007
488.585	0.0169529
488.663	0.0164909
488.741	0.0166485
488.819	0.0168343
488.898	0.0169323
488.976	0.0169266
489.054	0.0164219
489.132	0.0166615
489.210	0.0164658
489.288	0.0167259
489.366	0.0169815
489.444	0.0166679
489.523	0.0169258
489.601	0.0168179
489.679	0.0166359
489.757	0.0169971
489.835	0.0169807
489.913	0.0166332
489.991	0.0169868
490.069	0.0165123
490.148	0.0166561
490.226	0.0168022
490.304	0.0167694
490.382	0.0163982
490.460	0.0167637
490.538	0.0165188
490.616	0.0168606
490.694	0.0167698
490.773	0.0167561
490.851	0.0170158
490.929	0.0168129
491.007	0.0164513
491.085	0.0167797
491.163	0.0165531
491.241	0.0167347
491.319	0.0169235
491.398	0.0166798
491.476	0.0166576
491.554	0.0167992
491.632	0.0166958
491.710	0.0165920
491.788	0.0164776
491.866	0.0168209
491.944	0.0165936
492.023	0.0165546
492.101	0.0165630
492.179	0.0171043
492.257	0.0169571
492.335	0.0165192
492.413	0.0167843
492.491	0.0168320
492.569	0.0169643
492.648	0.0169552
492.726	0.0165497
492.804	0.0168129
492.882	0.0167446
492.960	0.0166367
493.038	0.0167343
493.116	0.0170414
493.194	0.0169537
493.273	0.0167076
493.351	0.0166744
493.429	0.0164577
493.507	0.0168823
493.585	0.0167213
493.663	0.0169933
493.741	0.0167698
493.819	0.0166817
493.898	0.0169636
493.976	0.0168739
494.054	0.0165920
494.132	0.0166832
494.210	0.0165970
494.288	0.0166096
494.366	0.0167198
494.444	0.0167397
494.523	0.0166447
494.601	0.0168331
494.679	0.0166092
494.757	0.0163933
494.835	0.0164948
494.913	0.0163826
494.991	0.0164261
495.069	0.0167095
495.148	0.0165798
495.226	0.0166573
495.304	0.0167534
495.382	0.0164497
495.460	0.0165272
495.538	0.0167732
495.616	0.0166496
495.694	0.0165783
495.773	0.0164124
495.851	0.0162357
495.929	0.0167786
496.007	0.0166393
496.085	0.0164749
496.163	0.0167831
496.241	0.0166191
496.319	0.0168129
496.398	0.0168709
496.476	0.0168484
496.554	0.0167900
496.632	0.0168911
496.710	0.0168430
496.788	0.0165905
496.866	0.0165085
496.944	0.0165054
497.023	0.0167526
497.101	0.0168400
497.179	0.0167248
497.257	0.0165329
497.335	0.0167660
497.413	0.0168598
497.491	0.0166386
497.569	0.0169846
497.648	0.0165070
497.726	0.0165913
497.804	0.0166958
497.882	0.0165810
497.960	0.0165859
498.038	0.0166100
498.116	0.0162987
498.194	0.0164577
498.273	0.0166676
498.351	0.0168926
498.429	0.0164593
498.507	0.0166203
498.585	0.0167747
498.663	0.0166840
498.741	0.0165680
498.819	0.0164257
498.898	0.0165405
498.976	0.0168510
499.054	0.0168861
499.132	0.0167191
499.210	0.0167801
499.288	0.0165310
499.366	0.0164680
499.444	0.0165417
499.523	0.0165119
499.601	0.0163528
499.679	0.0166725
499.757	0.0164673
499.835	0.0168831
499.913	0.0170864
499.991	0.0164421
500.069	0.0169624
500.148	0.0165508
500.226	0.0166821
500.304	0.0170128
500.382	0.0168266
500.460	0.0167496
500.538	0.0168777
500.616	0.0167866
500.694	0.0166710
500.773	0.0165817
500.851	0.0171505
500.929	0.0170120
501.007	0.0166870
501.085	0.0165646
501.163	0.0165398
501.241	0.0169479
501.319	0.0168137
501.398	0.0167370
501.476	0.0168129
501.554	0.0170418
501.632	0.0167400
501.710	0.0165134
501.788	0.0168182
501.866	0.0166100
501.944	0.0166847
502.023	0.0168545
502.101	0.0169353
502.179	0.0168797
502.257	0.0168064
502.335	0.0166813
502.413	0.0165951
502.491	0.0168739
502.569	0.0166924
502.648	0.0171032
502.726	0.0169979
502.804	0.0166306
502.882	0.0168221
502.960	0.0169262
503.038	0.0168079
503.116	0.0167953
503.194	0.0170403
503.273	0.0169865
503.351	0.0167068
503.429	0.0167542
503.507	0.0168339
503.585	0.0164413
503.663	0.0167629
503.741	0.0167683
503.819	0.0169422
503.898	0.0166946
503.976	0.0168789
504.054	0.0167931
504.132	0.0163879
504.210	0.0170216
504.288	0.0167732
504.366	0.0168491
504.444	0.0169079
504.523	0.0165554
504.601	0.0166836
504.679	0.0170372
504.757	0.0167320
504.835	0.0167309
504.913	0.0169125
504.991	0.0164448
505.069	0.0168930
505.148	0.0165478
505.226	0.0166492
505.304	0.0167561
505.382	0.0168941
505.460	0.0168476
505.538	0.0167408
505.616	0.0169884
505.694	0.0168278
505.773	0.0168129
505.851	0.0169346
505.929	0.0167091
506.007	0.0168606
506.085	0.0169781
506.163	0.0162968
506.241	0.0166794
506.319	0.0166920
506.398	0.0168842
506.476	0.0168373
506.554	0.0167343
506.632	0.0169273
506.710	0.0165668
506.788	0.0165977
506.866	0.0169174
506.944	0.0167953
507.023	0.0164394
507.101	0.0165707
507.179	0.0168678
507.257	0.0169376
507.335	0.0167809
507.413	0.0168358
507.491	0.0166500
507.569	0.0165436
507.648	0.0168362
507.726	0.0169693
507.804	0.0166817
507.882	0.0165806
507.960	0.0172424
508.038	0.0165440
508.116	0.0166866
508.194	0.0165920
508.273	0.0166775
508.351	0.0166702
508.429	0.0165916
508.507	0.0167896
508.585	0.0167294
508.663	0.0166687
508.741	0.0165710
508.819	0.0170269
508.898	0.0166245
508.976	0.0168056
509.054	0.0164505
509.132	0.0164742
509.210	0.0166439
509.288	0.0169056
509.366	0.0168839
509.444	0.0166779
509.523	0.0166771
509.601	0.0166214
509.679	0.0168930
509.757	0.0165478
509.835	0.0165073
509.913	0.0167313
509.991	0.0164112
510.069	0.0164276
510.148	0.0167103
510.226	0.0164715
510.304	0.0164291
510.382	0.0164875
510.460	0.0166485
510.538	0.0164555
510.616	0.0166042
510.694	0.0167515
510.773	0.0168346
510.851	0.0168484
510.929	0.0165844
511.007	0.0166454
511.085	0.0168156
511.163	0.0165581
511.241	0.0167686
511.319	0.0167965
511.398	0.0165867
511.476	0.0167896
511.554	0.0165710
511.632	0.0168869
511.710	0.0168713
511.788	0.0163734
511.866	0.0164925
511.944	0.0168861
512.023	0.0167309
512.101	0.0167706
512.179	0.0164051
512.257	0.0164417
512.335	0.0166416
512.413	0.0169323
512.491	0.0167301
512.569	0.0165623
512.648	0.0166077
512.726	0.0168003
512.804	0.0168030
512.882	0.0165070
512.960	0.0166428
513.038	0.0167595
513.116	0.0167568
513.194	0.0166012
513.273	0.0167400
513.351	0.0166126
513.429	0.0166611
513.507	0.0165688
513.585	0.0167671
513.663	0.0164764
513.741	0.0166424
513.819	0.0168282
513.898	0.0166866
513.976	0.0168045
514.054	0.0170925
514.132	0.0169353
514.210	0.0165794
514.288	0.0166718
514.366	0.0167736
514.444	0.0169865
514.523	0.0170120
514.601	0.0167156
514.679	0.0169437
514.757	0.0167427
514.835	0.0165508
514.913	0.0167046
514.991	0.0166904
515.069	0.0164497
515.148	0.0167885
515.226	0.0165897
515.304	0.0164078
515.382	0.0166817
515.460	0.0163380
515.538	0.0168575
515.616	0.0166885
515.694	0.0167133
515.773	0.0170193
515.851	0.0166618
515.929	0.0166561
516.007	0.0165562
516.085	0.0166332
516.163	0.0164474
516.241	0.0164352
516.319	0.0166817
516.398	0.0166710
516.476	0.0166077
516.554	0.0167255
516.632	0.0162796
516.710	0.0164677
516.788	0.0166065
516.866	0.0166088
516.944	0.0165672
517.023	0.0168591
517.101	0.0166985
517.179	0.0164719
517.257	0.0169773
517.335	0.0168179
517.413	0.0167019
517.491	0.0168411
517.569	0.0165108
517.648	0.0166801
517.726	0.0167114
517.804	0.0163803
517.882	0.0167599
517.960	0.0166668
518.038	0.0166664
518.116	0.0165264
518.194	0.0166050
518.273	0.0167530
518.351	0.0168594
518.429	0.0169060
518.507	0.0165012
518.585	0.0162552
518.663	0.0168785
518.741	0.0164486
518.819	0.0165962
518.898	0.0167854
518.976	0.0169304
519.054	0.0168663
519.132	0.0167233
519.210	0.0167252
519.288	0.0167652
519.366	0.0163612
519.444	0.0167694
519.523	0.0163174
519.601	0.0166763
519.679	0.0166229
519.757	0.0166248
519.835	0.0165833
519.913	0.0169209
519.991	0.0166248
520.069	0.0161888
520.148	0.0165630
520.226	0.0167622
520.304	0.0168804
520.382	0.0167961
520.460	0.0165607
520.538	0.0167347
520.616	0.0165993
520.694	0.0167789
520.773	0.0169140
520.851	0.0167488
520.929	0.0165913
521.007	0.0164825
521.085	0.0166710
521.163	0.0168694
521.241	0.0163925
521.319	0.0168327
521.398	0.0165302
521.476	0.0165508
521.554	0.0166889
521.632	0.0170010
521.710	0.0168037
521.788	0.0167500
521.866	0.0166538
521.944	0.0165489
522.023	0.0167290
522.101	0.0167038
522.179	0.0168465
522.257	0.0166683
522.335	0.0168777
522.413	0.0168213
522.491	0.0166298
522.569	0.0170357
522.648	0.0168694
522.726	0.0167843
522.804	0.0167702
522.882	0.0166981
522.960	0.0167797
523.038	0.0169441
523.116	0.0165688
523.194	0.0166622
523.273	0.0169964
523.351	0.0171139
523.429	0.0166008
523.507	0.0164448
523.585	0.0166485
523.663	0.0170650
523.741	0.0169159
523.819	0.0164589
523.898	0.0165474
523.976	0.0167271
524.054	0.0166840
524.132	0.0166756
524.210	0.0167767
524.288	0.0167656
524.366	0.0169651
524.444	0.0167538
524.523	0.0166817
524.601	0.0167290
524.679	0.0163956
524.757	0.0169102
524.835	0.0168949
524.913	0.0168003
524.991	0.0166767
525.069	0.0168594
525.148	0.0167736
525.226	0.0166573
525.304	0.0165493
525.382	0.0166740
525.460	0.0169563
525.538	0.0166130
525.616	0.0168480
525.694	0.0166454
525.773	0.0167999
525.851	0.0170490
525.929	0.0163624
526.007	0.0165474
526.085	0.0166042
526.163	0.0167034
526.241	0.0169258
526.319	0.0165905
526.398	0.0165520
526.476	0.0168549
526.554	0.0166733
526.632	0.0166431
526.710	0.0166386
526.788	0.0168156
526.866	0.0166225
526.944	0.0168766
527.023	0.0168919
527.101	0.0166431
527.179	0.0166553
527.257	0.0168030
527.335	0.0167030
527.413	0.0166443
527.491	0.0167744
527.569	0.0166645
527.648	0.0169037
527.726	0.0169571
527.804	0.0166683
527.882	0.0167084
527.960	0.0165783
528.038	0.0169937
528.116	0.0166172
528.194	0.0164051
528.273	0.0166477
528.351	0.0168079
528.429	0.0165749
528.507	0.0165653
528.585	0.0166882
528.663	0.0166069
528.741	0.0167042
528.819	0.0165981
528.898	0.0166031
528.976	0.0167076
529.054	0.0165359
529.132	0.0165184
529.210	0.0167225
529.288	0.0168423
529.366	0.0167870
529.444	0.0166954
529.523	0.0164471
529.601	0.0166565
529.679	0.0166943
529.757	0.0164783
529.835	0.0166039
529.913	0.0167084
529.991	0.0166424
530.069	0.0170135
530.148	0.0165768
530.226	0.0167461
530.304	0.0167004
530.382	0.0167469
530.460	0.0169556
530.538	0.0165455
530.616	0.0167271
530.694	0.0167126
530.773	0.0164135
530.851	0.0166531
530.929	0.0167770
531.007	0.0167027
531.085	0.0164604
531.163	0.0166302
531.241	0.0167809
531.319	0.0166958
531.398	0.0165554
531.476	0.0166531
531.554	0.0167572
531.632	0.0168072
531.710	0.0167625
531.788	0.0168247
531.866	0.0170197
531.944	0.0166172
532.023	0.0165775
532.101	0.0165047
532.179	0.0166477
532.257	0.0167423
532.335	0.0170780
532.413	0.0167957
532.491	0.0167507
532.569	0.0167057
532.648	0.0166069
532.726	0.0165890
532.804	0.0164471
532.882	0.0170326
532.960	0.0169056
533.038	0.0167294
533.116	0.0167297
533.194	0.0166466
533.273	0.0168320
533.351	0.0165386
533.429	0.0167774
533.507	0.0167374
533.585	0.0166870
533.663	0.0167953
533.741	0.0166836
533.819	0.0166065
533.898	0.0168671
533.976	0.0167057
534.054	0.0168324
534.132	0.0167034
534.210	0.0167877
534.288	0.0166248
534.366	0.0165607
534.444	0.0167183
534.523	0.0166931
534.601	0.0167648
534.679	0.0167328
534.757	0.0162022
534.835	0.0165710
534.913	0.0170021
534.991	0.0167194
535.069	0.0165733
535.148	0.0166538
535.226	0.0165157
535.304	0.0169182
535.382	0.0168274
535.460	0.0166973
535.538	0.0167965
535.616	0.0164822
535.694	0.0168659
535.773	0.0168270
535.851	0.0168083
535.929	0.0169228
536.007	0.0168076
536.085	0.0166943
536.163	0.0164555
536.241	0.0169086
536.319	0.0168289
536.398	0.0164310
536.476	0.0165447
536.554	0.0168736
536.632	0.0169224
536.710	0.0168205
536.788	0.0164375
536.866	0.0166428
536.944	0.0165394
537.023	0.0167690
537.101	0.0166286
537.179	0.0166031
537.257	0.0168873
537.335	0.0165531
537.413	0.0168377
537.491	0.0166397
537.569	0.0166180
537.648	0.0167492
537.726	0.0163963
537.804	0.0166435
537.882	0.0167011
537.960	0.0164242
538.038	0.0163620
538.116	0.0167068
538.194	0.0168236
538.273	0.0165943
538.351	0.0165619
538.429	0.0166183
538.507	0.0162827
538.585	0.0168434
538.663	0.0164680
538.741	0.0165005
538.819	0.0167210
538.898	0.0162029
538.976	0.0167210
539.054	0.0167423
539.132	0.0162529
539.210	0.0165428
539.288	0.0165604
539.366	0.0164474
539.444	0.0165180
539.523	0.0167633
539.601	0.0166061
539.679	0.0164352
539.757	0.0163647
539.835	0.0162846
539.913	0.0166630
539.991	0.0165337
540.069	0.0166683
540.148	0.0167160
540.226	0.0168839
540.304	0.0167774
540.382	0.0166065
540.460	0.0166672
540.538	0.0166885
540.616	0.0164875
540.694	0.0164894
540.773	0.0167339
540.851	0.0167992
540.929	0.0167133
541.007	0.0166588
541.085	0.0168217
541.163	0.0167480
541.241	0.0167145
541.319	0.0166016
541.398	0.0168018
541.476	0.0164505
541.554	0.0165951
541.632	0.0165363
541.710	0.0167225
541.788	0.0165562
541.866	0.0168591
541.944	0.0169827
542.023	0.0164150
542.101	0.0167633
542.179	0.0170143
542.257	0.0167381
542.335	0.0168800
542.413	0.0166759
542.491	0.0167618
542.569	0.0165230
542.648	0.0166550
542.726	0.0168148
542.804	0.0167988
542.882	0.0165295
542.960	0.0165695
543.038	0.0167084
543.116	0.0168190
543.194	0.0164825
543.273	0.0168140
543.351	0.0167759
543.429	0.0166771
543.507	0.0165142
543.585	0.0166641
543.663	0.0167789
543.741	0.0169216
543.819	0.0166462
543.898	0.0168587
543.976	0.0169762
544.054	0.0163258
544.132	0.0167587
544.210	0.0168167
544.288	0.0167866
544.366	0.0167206
544.444	0.0166431
544.523	0.0168510
544.601	0.0169575
544.679	0.0168144
544.757	0.0168804
544.835	0.0169239
544.913	0.0167614
544.991	0.0165653
545.069	0.0166420
545.148	0.0170334
545.226	0.0168560
545.304	0.0167881
545.382	0.0167786
545.460	0.0164501
545.538	0.0164928
545.616	0.0166546
545.694	0.0167156
545.773	0.0166355
545.851	0.0166786
545.929	0.0169117
546.007	0.0166832
546.085	0.0170399
546.163	0.0167202
546.241	0.0172600
546.319	0.0166100
546.398	0.0165905
546.476	0.0165028
546.554	0.0168289
546.632	0.0166054
546.710	0.0164921
546.788	0.0166264
546.866	0.0166382
546.944	0.0168213
547.023	0.0164940
547.101	0.0167854
547.179	0.0168392
547.257	0.0167820
547.335	0.0166988
547.413	0.0166336
547.491	0.0168312
547.569	0.0165764
547.648	0.0168926
547.726	0.0168896
547.804	0.0166145
547.882	0.0166470
547.960	0.0167454
548.038	0.0166889
548.116	0.0165180
548.194	0.0165340
548.273	0.0167679
548.351	0.0165932
548.429	0.0166367
548.507	0.0167454
548.585	0.0166241
548.663	0.0166096
548.741	0.0165936
548.819	0.0168797
548.898	0.0167625
548.976	0.0165092
549.054	0.0168106
549.132	0.0167187
549.210	0.0166531
549.288	0.0167778
549.366	0.0166973
549.444	0.0161873
549.523	0.0167080
549.601	0.0166916
549.679	0.0167980
549.757	0.0164604
549.835	0.0168125
549.913	0.0167019
549.991	0.0166523
550.069	0.0165375
550.148	0.0166191
550.226	0.0166328
550.304	0.0165596
550.382	0.0165234
550.460	0.0163612
550.538	0.0165588
550.616	0.0167187
550.694	0.0165607
550.773	0.0165260
550.851	0.0167263
550.929	0.0166378
551.007	0.0165283
551.085	0.0167915
551.163	0.0166523
551.241	0.0168766
551.319	0.0166004
551.398	0.0164677
551.476	0.0164631
551.554	0.0167156
551.632	0.0167332
551.710	0.0160767
551.788	0.0162186
551.866	0.0165222
551.944	0.0165127
552.023	0.0170544
552.101	0.0165165
552.179	0.0166611
552.257	0.0166107
552.335	0.0167740
552.413	0.0167068
552.491	0.0168545
552.569	0.0169674
552.648	0.0168228
552.726	0.0165382
552.804	0.0165974
552.882	0.0168560
552.960	0.0167385
553.038	0.0166241
553.116	0.0166672
553.194	0.0167328
553.273	0.0164879
553.351	0.0164940
553.429	0.0168053
553.507	0.0164810
553.585	0.0166451
553.663	0.0168484
553.741	0.0167564
553.819	0.0167019
553.898	0.0168373
553.976	0.0167809
554.054	0.0167263
554.132	0.0167519
554.210	0.0167664
554.288	0.0165939
554.366	0.0167461
554.444	0.0167580
554.523	0.0171021
554.601	0.0166866
554.679	0.0167778
554.757	0.0168247
554.835	0.0168556
554.913	0.0166946
554.991	0.0165031
555.069	0.0166668
555.148	0.0167431
555.226	0.0169762
555.304	0.0167309
555.382	0.0164886
555.460	0.0168392
555.538	0.0166637
555.616	0.0164742
555.694	0.0164692
555.773	0.0167034
555.851	0.0168541
555.929	0.0163040
556.007	0.0163876
556.085	0.0165741
556.163	0.0163860
556.241	0.0166431
556.319	0.0166641
556.398	0.0164505
556.476	0.0164509
556.554	0.0165306
556.632	0.0167076
556.710	0.0165051
556.788	0.0165325
556.866	0.0168007
556.944	0.0164837
557.023	0.0167061
557.101	0.0165016
557.179	0.0166767
557.257	0.0167862
557.335	0.0165661
557.413	0.0165909
557.491	0.0168236
557.569	0.0165157
557.648	0.0168266
557.726	0.0169827
557.804	0.0165855
557.882	0.0163708
557.960	0.0165550
558.038	0.0167831
558.116	0.0168030
558.194	0.0167183
558.273	0.0165394
558.351	0.0166531
558.429	0.0167774
558.507	0.0168839
558.585	0.0168484
558.663	0.0166546
558.741	0.0163628
558.819	0.0169369
558.898	0.0167545
558.976	0.0165947
559.054	0.0168674
559.132	0.0166962
559.210	0.0168503
559.288	0.0166664
559.366	0.0166496
559.444	0.0163319
559.523	0.0165668
559.601	0.0166183
559.679	0.0162369
559.757	0.0168030
559.835	0.0164299
559.913	0.0165188
559.991	0.0166836
560.069	0.0165894
560.148	0.0167408
560.226	0.0163284
560.304	0.0167080
560.382	0.0164635
560.460	0.0166119
560.538	0.0165215
560.616	0.0165066
560.694	0.0166698
560.773	0.0163681
560.851	0.0165913
560.929	0.0166546
561.007	0.0169060
561.085	0.0168385
561.163	0.0166252
561.241	0.0166050
561.319	0.0165627
561.398	0.0163631
561.476	0.0166306
561.554	0.0167587
561.632	0.0166157
561.710	0.0166637
561.788	0.0168686
561.866	0.0163609
561.944	0.0164711
562.023	0.0164429
562.101	0.0166874
562.179	0.0165997
562.257	0.0163532
562.335	0.0165447
562.413	0.0163338
562.491	0.0167221
562.569	0.0166622
562.648	0.0162155
562.726	0.0166016
562.804	0.0163948
562.882	0.0166286
562.960	0.0167210
563.038	0.0169582
563.116	0.0165951
563.194	0.0166504
563.273	0.0166256
563.351	0.0166050
563.429	0.0164917
563.507	0.0162872
563.585	0.0165825
563.663	0.0165596
563.741	0.0165451
563.819	0.0166267
563.898	0.0164810
563.976	0.0166248
564.054	0.0166115
564.132	0.0168537
564.210	0.0165951
564.288	0.0165619
564.366	0.0165886
564.444	0.0168278
564.523	0.0166824
564.601	0.0165375
564.679	0.0167759
564.757	0.0168159
564.835	0.0166527
564.913	0.0165440
564.991	0.0165520
565.069	0.0164303
565.148	0.0167385
565.226	0.0163876
565.304	0.0166756
565.382	0.0168007
565.460	0.0166851
565.538	0.0167625
565.616	0.0164795
565.694	0.0165459
565.773	0.0162354
565.851	0.0168705
565.929	0.0167053
566.007	0.0164108
566.085	0.0166447
566.163	0.0165916
566.241	0.0165031
566.319	0.0164402
566.398	0.0159950
566.476	0.0164417
566.554	0.0167690
566.632	0.0165218
566.710	0.0167301
566.788	0.0165997
566.866	0.0165798
566.944	0.0167568
567.023	0.0167980
567.101	0.0166458
567.179	0.0167316
567.257	0.0164711
567.335	0.0164974
567.413	0.0164383
567.491	0.0164597
567.569	0.0164516
567.648	0.0165497
567.726	0.0164989
567.804	0.0164352
567.882	0.0165604
567.960	0.0167564
568.038	0.0165119
568.116	0.0170315
568.194	0.0164978
568.273	0.0166546
568.351	0.0166412
568.429	0.0164574
568.507	0.0163815
568.585	0.0167599
568.663	0.0165955
568.741	0.0163616
568.819	0.0165161
568.898	0.0166599
568.976	0.0164249
569.054	0.0167103
569.132	0.0166573
569.210	0.0167458
569.288	0.0167850
569.366	0.0166218
569.444	0.0166557
569.523	0.0165165
569.601	0.0166656
569.679	0.0167496
569.757	0.0166588
569.835	0.0164005
569.913	0.0163960
569.991	0.0167389
570.069	0.0165379
570.148	0.0168377
570.226	0.0168621
570.304	0.0166378
570.382	0.0167969
570.460	0.0166512
570.538	0.0166061
570.616	0.0166557
570.694	0.0166729
570.773	0.0168949
570.851	0.0165855
570.929	0.0166767
571.007	0.0168171
571.085	0.0166241
571.163	0.0166481
571.241	0.0164028
571.319	0.0170811
571.398	0.0165714
571.476	0.0169212
571.554	0.0168049
571.632	0.0164764
571.710	0.0164730
571.788	0.0164146
571.866	0.0166965
571.944	0.0165215
572.023	0.0166885
572.101	0.0168793
572.179	0.0166611
572.257	0.0166931
572.335	0.0165607
572.413	0.0164410
572.491	0.0164314
572.569	0.0164181
572.648	0.0168716
572.726	0.0167225
572.804	0.0167240
572.882	0.0166775
572.960	0.0165318
573.038	0.0166512
573.116	0.0165878
573.194	0.0165977
573.273	0.0166588
573.351	0.0171898
573.429	0.0166218
573.507	0.0167809
573.585	0.0167484
573.663	0.0168419
573.741	0.0167671
573.819	0.0163815
573.898	0.0167675
573.976	0.0168671
574.054	0.0168125
574.132	0.0164894
574.210	0.0166100
574.288	0.0167343
574.366	0.0167343
574.444	0.0165298
574.523	0.0168110
574.601	0.0166313
574.679	0.0165802
574.757	0.0164127
574.835	0.0165806
574.913	0.0166862
574.991	0.0165222
575.069	0.0166656
575.148	0.0166187
575.226	0.0165241
575.304	0.0164822
575.382	0.0166763
575.460	0.0166878
575.538	0.0165672
575.616	0.0168396
575.694	0.0164871
575.773	0.0165596
575.851	0.0165451
575.929	0.0164780
576.007	0.0166862
576.085	0.0166603
576.163	0.0164383
576.241	0.0167988
576.319	0.0166855
576.398	0.0167656
576.476	0.0167469
576.554	0.0163860
576.632	0.0165916
576.710	0.0165436
576.788	0.0168777
576.866	0.0166920
576.944	0.0164719
577.023	0.0167694
577.101	0.0163967
577.179	0.0166962
577.257	0.0169849
577.335	0.0167648
577.413	0.0167419
577.491	0.0164429
577.569	0.0166515
577.648	0.0170113
577.726	0.0166828
577.804	0.0169102
577.882	0.0166607
577.960	0.0163799
578.038	0.0167049
578.116	0.0165916
578.194	0.0166176
578.273	0.0168549
578.351	0.0166874
578.429	0.0164738
578.507	0.0167717
578.585	0.0169083
578.663	0.0166740
578.741	0.0168255
578.819	0.0166954
578.898	0.0164192
578.976	0.0166782
579.054	0.0167110
579.132	0.0168621
579.210	0.0167648
579.288	0.0166073
579.366	0.0167034
579.444	0.0166641
579.523	0.0168846
579.601	0.0168365
579.679	0.0165417
579.757	0.0167011
579.835	0.0167324
579.913	0.0168068
579.991	0.0166599
580.069	0.0166351
580.148	0.0169277
580.226	0.0167789
580.304	0.0167049
580.382	0.0169350
580.460	0.0167595
580.538	0.0171505
580.616	0.0166115
580.694	0.0168938
580.773	0.0165977
580.851	0.0166859
580.929	0.0168743
581.007	0.0169529
581.085	0.0166737
581.163	0.0165749
581.241	0.0164085
581.319	0.0163967
581.398	0.0167980
581.476	0.0166344
581.554	0.0166664
581.632	0.0166542
581.710	0.0166821
581.788	0.0166962
581.866	0.0166489
581.944	0.0165512
582.023	0.0164490
582.101	0.0166603
582.179	0.0166210
582.257	0.0167316
582.335	0.0166779
582.413	0.0164753
582.491	0.0164494
582.569	0.0166687
582.648	0.0163399
582.726	0.0167065
582.804	0.0166191
582.882	0.0168690
582.960	0.0167301
583.038	0.0167324
583.116	0.0167362
583.194	0.0165203
583.273	0.0165054
583.351	0.0162155
583.429	0.0164810
583.507	0.0168339
583.585	0.0167404
583.663	0.0164268
583.741	0.0167191
583.819	0.0168121
583.898	0.0163948
583.976	0.0164608
584.054	0.0169624
584.132	0.0167484
584.210	0.0165779
584.288	0.0168194
584.366	0.0165508
584.444	0.0166302
584.523	0.0165371
584.601	0.0166267
584.679	0.0165348
584.757	0.0167950
584.835	0.0166069
584.913	0.0166157
584.991	0.0165195
585.069	0.0165031
585.148	0.0164120
585.226	0.0165649
585.304	0.0168804
585.382	0.0167534
585.460	0.0165386
585.538	0.0165962
585.616	0.0166035
585.694	0.0166286
585.773	0.0165516
585.851	0.0169495
585.929	0.0166122
586.007	0.0166954
586.085	0.0168873
586.163	0.0166439
586.241	0.0165531
586.319	0.0167007
586.398	0.0169094
586.476	0.0166065
586.554	0.0163460
586.632	0.0168282
586.710	0.0166676
586.788	0.0166920
586.866	0.0169724
586.944	0.0166035
587.023	0.0165451
587.101	0.0166031
587.179	0.0168320
587.257	0.0165230
587.335	0.0166470
587.413	0.0165562
587.491	0.0165230
587.569	0.0169445
587.648	0.0168114
587.726	0.0169743
587.804	0.0167961
587.882	0.0168404
587.960	0.0166100
588.038	0.0168030
588.116	0.0167522
588.194	0.0169384
588.273	0.0167171
588.351	0.0167042
588.429	0.0168049
588.507	0.0165710
588.585	0.0164906
588.663	0.0166920
588.741	0.0167648
588.819	0.0166801
588.898	0.0168449
588.976	0.0167984
589.054	0.0167446
589.132	0.0165936
589.210	0.0165405
589.288	0.0166836
589.366	0.0167229
589.444	0.0168518
589.523	0.0164669
589.601	0.0166466
589.679	0.0167152
589.757	0.0167530
589.835	0.0166058
589.913	0.0167339
589.991	0.0168602
590.069	0.0166294
590.148	0.0164932
590.226	0.0165707
590.304	0.0168713
590.382	0.0167393
590.460	0.0169189
590.538	0.0167358
590.616	0.0165638
590.694	0.0165710
590.773	0.0164215
590.851	0.0165733
590.929	0.0169876
591.007	0.0165611
591.085	0.0164108
591.163	0.0169579
591.241	0.0167992
591.319	0.0163902
591.398	0.0166531
591.476	0.0166412
591.554	0.0166256
591.632	0.0164059
591.710	0.0163914
591.788	0.0165726
591.866	0.0170540
591.944	0.0167171
592.023	0.0165489
592.101	0.0166065
592.179	0.0165619
592.257	0.0169029
592.335	0.0167572
592.413	0.0165123
592.491	0.0165443
592.569	0.0166325
592.648	0.0167126
592.726	0.0168987
592.804	0.0168148
592.882	0.0166183
592.960	0.0167820
593.038	0.0168579
593.116	0.0167217
593.194	0.0165531
593.273	0.0167286
593.351	0.0166794
593.429	0.0165939
593.507	0.0166546
593.585	0.0167900
593.663	0.0166260
593.741	0.0165497
593.819	0.0165871
593.898	0.0168961
593.976	0.0168129
594.054	0.0167675
594.132	0.0169376
594.210	0.0163704
594.288	0.0167732
594.366	0.0164925
594.444	0.0167202
594.523	0.0166595
594.601	0.0167515
594.679	0.0167255
594.757	0.0165894
594.835	0.0169830
594.913	0.0166943
594.991	0.0165855
595.069	0.0165936
595.148	0.0168346
595.226	0.0167553
595.304	0.0167370
595.382	0.0168144
595.460	0.0167953
595.538	0.0167858
595.616	0.0163597
595.694	0.0164532
595.773	0.0167023
595.851	0.0168949
595.929	0.0169914
596.007	0.0166050
596.085	0.0167782
596.163	0.0168755
596.241	0.0166462
596.319	0.0166264
596.398	0.0169289
596.476	0.0168190
596.554	0.0166744
596.632	0.0169601
596.710	0.0170044
596.788	0.0166939
596.866	0.0166592
596.944	0.0165962
597.023	0.0165714
597.101	0.0167095
597.179	0.0167252
597.257	0.0164417
597.335	0.0164478
597.413	0.0162727
597.491	0.0166180
597.569	0.0165493
597.648	0.0164501
597.726	0.0165855
597.804	0.0169056
597.882	0.0164906
597.960	0.0170418
598.038	0.0168980
598.116	0.0166695
598.194	0.0167522
598.273	0.0165131
598.351	0.0170872
598.429	0.0167030
598.507	0.0163925
598.585	0.0166161
598.663	0.0167664
598.741	0.0164356
598.819	0.0168877
598.898	0.0169300
598.976	0.0165962
599.054	0.0167816
599.132	0.0167526
599.210	0.0165936
599.288	0.0164265
599.366	0.0165878
599.444	0.0167942
599.523	0.0169575
599.601	0.0165081
599.679	0.0166294
599.757	0.0168381
599.835	0.0168243
599.913	0.0165512
599.991	0.0168545
600.069	0.0168507
600.148	0.0165634
600.226	0.0168781
600.304	0.0168941
600.382	0.0167484
600.460	0.0164612
600.538	0.0167450
600.616	0.0167236
600.694	0.0166904
600.773	0.0166664
600.851	0.0166424
600.929	0.0168610
601.007	0.0167683
601.085	0.0164536
601.163	0.0168156
601.241	0.0168709
601.319	0.0164749
601.398	0.0168633
601.476	0.0167728
601.554	0.0168785
601.632	0.0167820
601.710	0.0166706
601.788	0.0166214
601.866	0.0165791
601.944	0.0167366
602.023	0.0163891
602.101	0.0163731
602.179	0.0166153
602.257	0.0167545
602.335	0.0165909
602.413	0.0167248
602.491	0.0167763
602.569	0.0164684
602.648	0.0164528
602.726	0.0166775
602.804	0.0166714
602.882	0.0168736
602.960	0.0166332
603.038	0.0165844
603.116	0.0166279
603.194	0.0170609
603.273	0.0164825
603.351	0.0166374
603.429	0.0167393
603.507	0.0166828
603.585	0.0166157
603.663	0.0165722
603.741	0.0167034
603.819	0.0167194
603.898	0.0166267
603.976	0.0164436
604.054	0.0167385
604.132	0.0164864
604.210	0.0164684
604.288	0.0166264
604.366	0.0164444
604.444	0.0165966
604.523	0.0169403
604.601	0.0165314
604.679	0.0166744
604.757	0.0166523
604.835	0.0165237
604.913	0.0166428
604.991	0.0165550
605.069	0.0170231
605.148	0.0166725
605.226	0.0166908
605.304	0.0166016
605.382	0.0165836
605.460	0.0165096
605.538	0.0167091
605.616	0.0164753
605.694	0.0167633
605.773	0.0166656
605.851	0.0163868
605.929	0.0166077
606.007	0.0168282
606.085	0.0165947
606.163	0.0169083
606.241	0.0166611
606.319	0.0167305
606.398	0.0166798
606.476	0.0166977
606.554	0.0164459
606.632	0.0164295
606.710	0.0170120
606.788	0.0167202
606.866	0.0167759
606.944	0.0166267
607.023	0.0166428
607.101	0.0166897
607.179	0.0164883
607.257	0.0165634
607.335	0.0168381
607.413	0.0164619
607.491	0.0164917
607.569	0.0169064
607.648	0.0163872
607.726	0.0165688
607.804	0.0167862
607.882	0.0166149
607.960	0.0165382
608.038	0.0164448
608.116	0.0164837
608.194	0.0163143
608.273	0.0167049
608.351	0.0165169
608.429	0.0166039
608.507	0.0163963
608.585	0.0164669
608.663	0.0164597
608.741	0.0164230
608.819	0.0166214
608.898	0.0166348
608.976	0.0166183
609.054	0.0161739
609.132	0.0166714
609.210	0.0166008
609.288	0.0165417
609.366	0.0168900
609.444	0.0170746
609.523	0.0172215
609.601	0.0168758
609.679	0.0173645
609.757	0.0174931
609.835	0.0171303
609.913	0.0172497
609.991	0.0174770
610.069	0.0173962
610.148	0.0172733
610.226	0.0175930
610.304	0.0176682
610.382	0.0175327
610.460	0.0174427
610.538	0.0172325
610.616	0.0172440
610.694	0.0175896
610.773	0.0172642
610.851	0.0172855
610.929	0.0171219
611.007	0.0172634
611.085	0.0168373
611.163	0.0169441
611.241	0.0167316
611.319	0.0166519
611.398	0.0164898
611.476	0.0165638
611.554	0.0164383
611.632	0.0158558
611.710	0.0159946
611.788	0.0159889
611.866	0.0157520
611.944	0.0159855
612.023	0.0159359
612.101	0.0164059
612.179	0.0158897
612.257	0.0158775
612.335	0.0163242
612.413	0.0161339
612.491	0.0160793
612.569	0.0162842
612.648	0.0163567
612.726	0.0166988
612.804	0.0162872
612.882	0.0162941
612.960	0.0164799
613.038	0.0165169
613.116	0.0166767
613.194	0.0164978
613.273	0.0166115
613.351	0.0166164
613.429	0.0165257
613.507	0.0164787
613.585	0.0166309
613.663	0.0165730
613.741	0.0164230
613.819	0.0163605
613.898	0.0164806
613.976	0.0164421
614.054	0.0168751
614.132	0.0164669
614.210	0.0161140
614.288	0.0167294
614.366	0.0163170
614.444	0.0161903
614.523	0.0164074
614.601	0.0165012
614.679	0.0168415
614.757	0.0164303
614.835	0.0168396
614.913	0.0167049
614.991	0.0167179
615.069	0.0165066
615.148	0.0166637
615.226	0.0165478
615.304	0.0164280
615.382	0.0169296
615.460	0.0166382
615.538	0.0167030
615.616	0.0166805
615.694	0.0164822
615.773	0.0163567
615.851	0.0168034
615.929	0.0164700
616.007	0.0167152
616.085	0.0167820
616.163	0.0167347
616.241	0.0165215
616.319	0.0165958
616.398	0.0167065
616.476	0.0168285
616.554	0.0164848
616.632	0.0162708
616.710	0.0163479
616.788	0.0165516
616.866	0.0166050
616.944	0.0165779
617.023	0.0166943
617.101	0.0166496
617.179	0.0166336
617.257	0.0166512
617.335	0.0164444
617.413	0.0167767
617.491	0.0167912
617.569	0.0165207
617.648	0.0166367
617.726	0.0165951
617.804	0.0169247
617.882	0.0169445
617.960	0.0165939
618.038	0.0166866
618.116	0.0166431
618.194	0.0165588
618.273	0.0171078
618.351	0.0169544
618.429	0.0168453
618.507	0.0166695
618.585	0.0166737
618.663	0.0169071
618.741	0.0166100
618.819	0.0164967
618.898	0.0167099
618.976	0.0166565
619.054	0.0167206
619.132	0.0166996
619.210	0.0168781
619.288	0.0166553
619.366	0.0168564
619.444	0.0168217
619.523	0.0162834
619.601	0.0166618
619.679	0.0162991
619.757	0.0167553
619.835	0.0168793
619.913	0.0171299
619.991	0.0164070
620.069	0.0166679
620.148	0.0170002
620.226	0.0167332
620.304	0.0167797
620.382	0.0168137
620.460	0.0166035
620.538	0.0165417
620.616	0.0166145
620.694	0.0167561
620.773	0.0168316
620.851	0.0167118
620.929	0.0163200
621.007	0.0166885
621.085	0.0168102
621.163	0.0166546
621.241	0.0168896
621.319	0.0170193
621.398	0.0170013
621.476	0.0166519
621.554	0.0166676
621.632	0.0165257
621.710	0.0167561
621.788	0.0170212
621.866	0.0166019
621.944	0.0165405
622.023	0.0166023
622.101	0.0164452
622.179	0.0168015
622.257	0.0166809
622.335	0.0163380
622.413	0.0165611
622.491	0.0167980
622.569	0.0166664
622.648	0.0165142
622.726	0.0164211
622.804	0.0167137
622.882	0.0163006
622.960	0.0167320
623.038	0.0165440
623.116	0.0169800
623.194	0.0167614
623.273	0.0168533
623.351	0.0168365
623.429	0.0163368
623.507	0.0164856
623.585	0.0167534
623.663	0.0167130
623.741	0.0167900
623.819	0.0168167
623.898	0.0167904
623.976	0.0164806
624.054	0.0164425
624.132	0.0166744
624.210	0.0166752
624.288	0.0164497
624.366	0.0167213
624.444	0.0168484
624.523	0.0167065
624.601	0.0167130
624.679	0.0165070
624.757	0.0167492
624.835	0.0165112
624.913	0.0164471
624.991	0.0166256
625.069	0.0169312
625.148	0.0167114
625.226	0.0167782
625.304	0.0163979
625.382	0.0167469
625.460	0.0167667
625.538	0.0167439
625.616	0.0166481
625.694	0.0165676
625.773	0.0167778
625.851	0.0169701
625.929	0.0169022
626.007	0.0166477
626.085	0.0166996
626.163	0.0164677
626.241	0.0164158
626.319	0.0169018
626.398	0.0167236
626.476	0.0167213
626.554	0.0167057
626.632	0.0168949
626.710	0.0168041
626.788	0.0166439
626.866	0.0169033
626.944	0.0166161
627.023	0.0166775
627.101	0.0168545
627.179	0.0167366
627.257	0.0165878
627.335	0.0165852
627.413	0.0166084
627.491	0.0164772
627.569	0.0165592
627.648	0.0167316
627.726	0.0165386
627.804	0.0165756
627.882	0.0167397
627.960	0.0166229
628.038	0.0165169
628.116	0.0167847
628.194	0.0166763
628.273	0.0164585
628.351	0.0166344
628.429	0.0165569
628.507	0.0168053
628.585	0.0166824
628.663	0.0170753
628.741	0.0168343
628.819	0.0166168
628.898	0.0166794
628.976	0.0166912
629.054	0.0167553
629.132	0.0170296
629.210	0.0165409
629.288	0.0168652
629.366	0.0167313
629.444	0.0167519
629.523	0.0164337
629.601	0.0167061
629.679	0.0168865
629.757	0.0167721
629.835	0.0163925
629.913	0.0169132
629.991	0.0167904
630.069	0.0164604
630.148	0.0166645
630.226	0.0165386
630.304	0.0169239
630.382	0.0166603
630.460	0.0163448
630.538	0.0164356
630.616	0.0166393
630.694	0.0165173
630.773	0.0163727
630.851	0.0169403
630.929	0.0167568
631.007	0.0166298
631.085	0.0164326
631.163	0.0166260
631.241	0.0164913
631.319	0.0168201
631.398	0.0166309
631.476	0.0167217
631.554	0.0165993
631.632	0.0167507
631.710	0.0166107
631.788	0.0164387
631.866	0.0165066
631.944	0.0167034
632.023	0.0166069
632.101	0.0168514
632.179	0.0166122
632.257	0.0166183
632.335	0.0168869
632.413	0.0167217
632.491	0.0165783
632.569	0.0165920
632.648	0.0168877
632.726	0.0168728
632.804	0.0167957
632.882	0.0167953
632.960	0.0166107
633.038	0.0170528
633.116	0.0166698
633.194	0.0163593
633.273	0.0165916
633.351	0.0163437
633.429	0.0166714
633.507	0.0166622
633.585	0.0164963
633.663	0.0164513
633.741	0.0166996
633.819	0.0167870
633.898	0.0165688
633.976	0.0168499
634.054	0.0165699
634.132	0.0168137
634.210	0.0168884
634.288	0.0165550
634.366	0.0167278
634.444	0.0166557
634.523	0.0168362
634.601	0.0165237
634.679	0.0168507
634.757	0.0167774
634.835	0.0168030
634.913	0.0164478
634.991	0.0164532
635.069	0.0167812
635.148	0.0166508
635.226	0.0164665
635.304	0.0164646
635.382	0.0165672
635.460	0.0169254
635.538	0.0164917
635.616	0.0165558
635.694	0.0164913
635.773	0.0167290
635.851	0.0167610
635.929	0.0163265
636.007	0.0167999
636.085	0.0168377
636.163	0.0167854
636.241	0.0167629
636.319	0.0164825
636.398	0.0166649
636.476	0.0167786
636.554	0.0168240
636.632	0.0164597
636.710	0.0167889
636.788	0.0168446
636.866	0.0167164
636.944	0.0167423
637.023	0.0167034
637.101	0.0165066
637.179	0.0167637
637.257	0.0166199
637.335	0.0164970
637.413	0.0167385
637.491	0.0166218
637.569	0.0170746
637.648	0.0166069
637.726	0.0164055
637.804	0.0165886
637.882	0.0164585
637.960	0.0164104
638.038	0.0168541
638.116	0.0166496
638.194	0.0168842
638.273	0.0166618
638.351	0.0165398
638.429	0.0165661
638.507	0.0165863
638.585	0.0166542
638.663	0.0170418
638.741	0.0165577
638.819	0.0167831
638.898	0.0168015
638.976	0.0166107
639.054	0.0167618
639.132	0.0166634
639.210	0.0165546
639.288	0.0168270
639.366	0.0166214
639.444	0.0164673
639.523	0.0168102
639.601	0.0168541
639.679	0.0167450
639.757	0.0167336
639.835	0.0168068
639.913	0.0166664
639.991	0.0165878
640.069	0.0166439
640.148	0.0162754
640.226	0.0167065
640.304	0.0170349
640.382	0.0164131
640.460	0.0164146
640.538	0.0163811
640.616	0.0167683
640.694	0.0168846
640.773	0.0166508
640.851	0.0170002
640.929	0.0167763
641.007	0.0166508
641.085	0.0166611
641.163	0.0165333
641.241	0.0164169
641.319	0.0165337
641.398	0.0166008
641.476	0.0165710
641.554	0.0165939
641.632	0.0163223
641.710	0.0168190
641.788	0.0166843
641.866	0.0166264
641.944	0.0164276
642.023	0.0169453
642.101	0.0166695
642.179	0.0165928
642.257	0.0166832
642.335	0.0165138
642.413	0.0167492
642.491	0.0167419
642.569	0.0168213
642.648	0.0167599
642.726	0.0164696
642.804	0.0165337
642.882	0.0163445
642.960	0.0169697
643.038	0.0165962
643.116	0.0167023
643.194	0.0166451
643.273	0.0165295
643.351	0.0167370
643.429	0.0167057
643.507	0.0170280
643.585	0.0169525
643.663	0.0168240
643.741	0.0169571
643.819	0.0168079
643.898	0.0164608
643.976	0.0165134
644.054	0.0167355
644.132	0.0164997
644.210	0.0166695
644.288	0.0168705
644.366	0.0166691
644.444	0.0166100
644.523	0.0166302
644.601	0.0168083
644.679	0.0168217
644.757	0.0168133
644.835	0.0165958
644.913	0.0164131
644.991	0.0168434
645.069	0.0166695
645.148	0.0167038
645.226	0.0166809
645.304	0.0167507
645.382	0.0167351
645.460	0.0168003
645.538	0.0164509
645.616	0.0163086
645.694	0.0166340
645.773	0.0167034
645.851	0.0167889
645.929	0.0163506
646.007	0.0165531
646.085	0.0164543
646.163	0.0166245
646.241	0.0169823
646.319	0.0168835
646.398	0.0163780
646.476	0.0165890
646.554	0.0166706
646.632	0.0166550
646.710	0.0166061
646.788	0.0166767
646.866	0.0167423
646.944	0.0166542
647.023	0.0166164
647.101	0.0163372
647.179	0.0167622
647.257	0.0167770
647.335	0.0170689
647.413	0.0165161
647.491	0.0165665
647.569	0.0163876
647.648	0.0166317
647.726	0.0166767
647.804	0.0165592
647.882	0.0166302
647.960	0.0167591
648.038	0.0166336
648.116	0.0167103
648.194	0.0169651
648.273	0.0164246
648.351	0.0166351
648.429	0.0167229
648.507	0.0166492
648.585	0.0165939
648.663	0.0167976
648.741	0.0164040
648.819	0.0165455
648.898	0.0166691
648.976	0.0164555
649.054	0.0168758
649.132	0.0170540
649.210	0.0165031
649.288	0.0166542
649.366	0.0168476
649.444	0.0166042
649.523	0.0165989
649.601	0.0168102
649.679	0.0166695
649.757	0.0169647
649.835	0.0167423
649.913	0.0168030
649.991	0.0168411
650.069	0.0166222
650.148	0.0165596
650.226	0.0165112
650.304	0.0166637
650.382	0.0167641
650.460	0.0166775
650.538	0.0169617
650.616	0.0164230
650.694	0.0166348
650.773	0.0166096
650.851	0.0164211
650.929	0.0165310
651.007	0.0164486
651.085	0.0165279
651.163	0.0166824
651.241	0.0168907
651.319	0.0165062
651.398	0.0163300
651.476	0.0164158
651.554	0.0168983
651.632	0.0165745
651.710	0.0165562
651.788	0.0167454
651.866	0.0163883
651.944	0.0164127
652.023	0.0165161
652.101	0.0168835
652.179	0.0164883
652.257	0.0166656
652.335	0.0168533
652.413	0.0164703
652.491	0.0167915
652.569	0.0167915
652.648	0.0164478
652.726	0.0166336
652.804	0.0168316
652.882	0.0165325
652.960	0.0165661
653.038	0.0163635
653.116	0.0166538
653.194	0.0167202
653.273	0.0167538
653.351	0.0164036
653.429	0.0162983
653.507	0.0167610
653.585	0.0163670
653.663	0.0166149
653.741	0.0168446
653.819	0.0164677
653.898	0.0164608
653.976	0.0165741
654.054	0.0164745
654.132	0.0166294
654.210	0.0166492
654.288	0.0164776
654.366	0.0165771
654.444	0.0167431
654.523	0.0167252
654.601	0.0167400
654.679	0.0164673
654.757	0.0168285
654.835	0.0166191
654.913	0.0164326
654.991	0.0169094
655.069	0.0167496
655.148	0.0167255
655.226	0.0166328
655.304	0.0165466
655.382	0.0165749
655.460	0.0165886
655.538	0.0167110
655.616	0.0165520
655.694	0.0164917
655.773	0.0166790
655.851	0.0166367
655.929	0.0165901
656.007	0.0165100
656.085	0.0166580
656.163	0.0167362
656.241	0.0165829
656.319	0.0168339
656.398	0.0165661
656.476	0.0168175
656.554	0.0165596
656.632	0.0165703
656.710	0.0168148
656.788	0.0166363
656.866	0.0163708
656.944	0.0166248
657.023	0.0166340
657.101	0.0167400
657.179	0.0163692
657.257	0.0163574
657.335	0.0164673
657.413	0.0166603
657.491	0.0165932
657.569	0.0162525
657.648	0.0164997
657.726	0.0165127
657.804	0.0165627
657.882	0.0164600
657.960	0.0167946
658.038	0.0165993
658.116	0.0162918
658.194	0.0165585
658.273	0.0165344
658.351	0.0165524
658.429	0.0167149
658.507	0.0167381
658.585	0.0168362
658.663	0.0165859
658.741	0.0166882
658.819	0.0169109
658.898	0.0168354
658.976	0.0167374
659.054	0.0165043
659.132	0.0169746
659.210	0.0167961
659.288	0.0167805
659.366	0.0168137
659.444	0.0167267
659.523	0.0168934
659.601	0.0167866
659.679	0.0168201
659.757	0.0170765
659.835	0.0170967
659.913	0.0171009
659.991	0.0169540
660.069	0.0168507
660.148	0.0166569
660.226	0.0168575
660.304	0.0168751
660.382	0.0168179
660.460	0.0166771
660.538	0.0168938
660.616	0.0169090
660.694	0.0167885
660.773	0.0165989
660.851	0.0169304
660.929	0.0168724
661.007	0.0166264
661.085	0.0167255
661.163	0.0170494
661.241	0.0166069
661.319	0.0166958
661.398	0.0166698
661.476	0.0167217
661.554	0.0168983
661.632	0.0164040
661.710	0.0164764
661.788	0.0167591
661.866	0.0166927
661.944	0.0166962
662.023	0.0164265
662.101	0.0166012
662.179	0.0162716
662.257	0.0163292
662.335	0.0166473
662.413	0.0167374
662.491	0.0167866
662.569	0.0163479
662.648	0.0164478
662.726	0.0168217
662.804	0.0165493
662.882	0.0164207
662.960	0.0164387
663.038	0.0164295
663.116	0.0168247
663.194	0.0163448
663.273	0.0167000
663.351	0.0164951
663.429	0.0165405
663.507	0.0165127
663.585	0.0166805
663.663	0.0165337
663.741	0.0166386
663.819	0.0164768
663.898	0.0162067
663.976	0.0165070
664.054	0.0163486
664.132	0.0162193
664.210	0.0165485
664.288	0.0166672
664.366	0.0163151
664.444	0.0164345
664.523	0.0166405
664.601	0.0167419
664.679	0.0162785
664.757	0.0161228
664.835	0.0162292
664.913	0.0165985
664.991	0.0164467
665.069	0.0162910
665.148	0.0166462
665.226	0.0164738
665.304	0.0164871
665.382	0.0162079
665.460	0.0164635
665.538	0.0164200
665.616	0.0167622
665.694	0.0162766
665.773	0.0165546
665.851	0.0164249
665.929	0.0165363
666.007	0.0165768
666.085	0.0163391
666.163	0.0163170
666.241	0.0164131
666.319	0.0167068
666.398	0.0165646
666.476	0.0162144
666.554	0.0163425
666.632	0.0164837
666.710	0.0163654
666.788	0.0159882
666.866	0.0165619
666.944	0.0167614
667.023	0.0163216
667.101	0.0162895
667.179	0.0167641
667.257	0.0165993
667.335	0.0165981
667.413	0.0166248
667.491	0.0166294
667.569	0.0164154
667.648	0.0162842
667.726	0.0166218
667.804	0.0165638
667.882	0.0164352
667.960	0.0163754
668.038	0.0164051
668.116	0.0164265
668.194	0.0165577
668.273	0.0166111
668.351	0.0166134
668.429	0.0163784
668.507	0.0167450
668.585	0.0168472
668.663	0.0166107
668.741	0.0166348
668.819	0.0167847
668.898	0.0167519
668.976	0.0166222
669.054	0.0165195
669.132	0.0168102
669.210	0.0164490
669.288	0.0165741
669.366	0.0171112
669.444	0.0167877
669.523	0.0166195
669.601	0.0166824
669.679	0.0168999
669.757	0.0169106
669.835	0.0167484
669.913	0.0170765
669.991	0.0167854
670.069	0.0168598
670.148	0.0167252
670.226	0.0170216
670.304	0.0167488
670.382	0.0166180
670.460	0.0168892
670.538	0.0168144
670.616	0.0169216
670.694	0.0167828
670.773	0.0167759
670.851	0.0171062
670.929	0.0166641
671.007	0.0167145
671.085	0.0169804
671.163	0.0168484
671.241	0.0167942
671.319	0.0167744
671.398	0.0167030
671.476	0.0169350
671.554	0.0169506
671.632	0.0171581
671.710	0.0170174
671.788	0.0168201
671.866	0.0166740
671.944	0.0168217
672.023	0.0169415
672.101	0.0166832
672.179	0.0170334
672.257	0.0163303
672.335	0.0165890
672.413	0.0167850
672.491	0.0168259
672.569	0.0170376
672.648	0.0168015
672.726	0.0169880
672.804	0.0168724
672.882	0.0166920
672.960	0.0168659
673.038	0.0169266
673.116	0.0168747
673.194	0.0168777
673.273	0.0167568
673.351	0.0169144
673.429	0.0169621
673.507	0.0169964
673.585	0.0171013
673.663	0.0168140
673.741	0.0170807
673.819	0.0167324
673.898	0.0166725
673.976	0.0168446
674.054	0.0168900
674.132	0.0168922
674.210	0.0167019
674.288	0.0169590
674.366	0.0168804
674.444	0.0167439
674.523	0.0168221
674.601	0.0167633
674.679	0.0167244
674.757	0.0167965
674.835	0.0166771
674.913	0.0166824
674.991	0.0168259
675.069	0.0164635
675.148	0.0166023
675.226	0.0163055
675.304	0.0166389
675.382	0.0168388
675.460	0.0165306
675.538	0.0166374
675.616	0.0166603
675.694	0.0164940
675.773	0.0165367
675.851	0.0164993
675.929	0.0164196
676.007	0.0163189
676.085	0.0166473
676.163	0.0164253
676.241	0.0160789
676.319	0.0162167
676.398	0.0161140
676.476	0.0163342
676.554	0.0162628
676.632	0.0159931
676.710	0.0160843
676.788	0.0162487
676.866	0.0162189
676.944	0.0164463
677.023	0.0160477
677.101	0.0161827
677.179	0.0164101
677.257	0.0164680
677.335	0.0165649
677.413	0.0164043
677.491	0.0167953
677.569	0.0166969
677.648	0.0165138
677.726	0.0164780
677.804	0.0163502
677.882	0.0170242
677.960	0.0167740
678.038	0.0164486
678.116	0.0165852
678.194	0.0162201
678.273	0.0167084
678.351	0.0164948
678.429	0.0166203
678.507	0.0162067
678.585	0.0163170
678.663	0.0164139
678.741	0.0161812
678.819	0.0160450
678.898	0.0163086
678.976	0.0162640
679.054	0.0164207
679.132	0.0161060
679.210	0.0160381
679.288	0.0159981
679.366	0.0157707
679.444	0.0157227
679.523	0.0157585
679.601	0.0159027
679.679	0.0158291
679.757	0.0158848
679.835	0.0159443
679.913	0.0156555
679.991	0.0158615
680.069	0.0157291
680.148	0.0158100
680.226	0.0158176
680.304	0.0160446
680.382	0.0154831
680.460	0.0160282
680.538	0.0158478
680.616	0.0160999
680.694	0.0159706
680.773	0.0157146
680.851	0.0159389
680.929	0.0160110
681.007	0.0158585
681.085	0.0158871
681.163	0.0156574
681.241	0.0156448
681.319	0.0156898
681.398	0.0155998
681.476	0.0153786
681.554	0.0152317
681.632	0.0152920
681.710	0.0151855
681.788	0.0150883
681.866	0.0152847
681.944	0.0151791
682.023	0.0149399
682.101	0.0145977
682.179	0.0145462
682.257	0.0144409
682.335	0.0144508
682.413	0.0146278
682.491	0.0143482
682.569	0.0143070
682.648	0.0142040
682.726	0.0144161
682.804	0.0144028
682.882	0.0143230
682.960	0.0141766
683.038	0.0142128
683.116	0.0141605
683.194	0.0140621
683.273	0.0140137
683.351	0.0143169
683.429	0.0139374
683.507	0.0139805
683.585	0.0141727
683.663	0.0137970
683.741	0.0140270
683.819	0.0142315
683.898	0.0137791
683.976	0.0137817
684.054	0.0137871
684.132	0.0138760
684.210	0.0135357
684.288	0.0134453
684.366	0.0133957
684.444	0.0132431
684.523	0.0132557
684.601	0.0130962
684.679	0.0130032
684.757	0.0128162
684.835	0.0126678
684.913	0.0123501
684.991	0.0123367
685.069	0.0120480
685.148	0.0117798
685.226	0.0112164
685.304	0.0111237
685.382	0.0105839
685.460	0.0103214
685.538	0.0101368
685.616	0.00999336
685.694	0.00954819
685.773	0.00899086
685.851	0.00899391
685.929	0.00787582
686.007	0.00728722
686.085	0.00681953
686.163	0.00635223
686.241	0.00576591
686.319	0.00508804
686.398	0.00434494
686.476	0.00349884
686.554	0.00271454
686.632	0.00191841
686.710	0.000865936
686.788	0.0000953674
686.866	-0.000481033
686.944	-0.00162468
687.023	-0.00268288
687.101	-0.00384064
687.179	-0.00480690
687.257	-0.00560760
687.335	-0.00674706
687.413	-0.00816422
687.491	-0.00908813
687.569	-0.0100391
687.648	-0.0112736
687.726	-0.0124538
687.804	-0.0135796
687.882	-0.0145977
687.960	-0.0151215
688.038	-0.0157131
688.116	-0.0151958
688.194	-0.0132626
688.273	-0.0100945
688.351	-0.00469894
688.429	0.00301323
688.507	0.0129864
688.585	0.0250134
688.663	0.0396965
688.741	0.0565063
688.819	0.0743252
688.898	0.0936874
688.976	0.113338
689.054	0.132468
689.132	0.150502
689.210	0.167394
689.288	0.181709
689.366	0.193518
689.444	0.202666
689.523	0.208025
689.601	0.210136
689.679	0.208938
689.757	0.204133
689.835	0.196577
689.913	0.185791
689.991	0.173043
690.069	0.157301
690.148	0.139903
690.226	0.120541
690.304	0.0997166
690.382	0.0787884
690.460	0.0565723
690.538	0.0346558
690.616	0.0130016
690.694	-0.00732460
690.773	-0.0265736
690.851	-0.0441605
690.929	-0.0592018
691.007	-0.0716652
691.085	-0.0817440
691.163	-0.0894413
691.241	-0.0942139
691.319	-0.0962124
691.398	-0.0963264
691.476	-0.0934975
691.554	-0.0893623
691.632	-0.0841957
691.710	-0.0772652
691.788	-0.0703415
691.866	-0.0629337
691.944	-0.0553471
692.023	-0.0482590
692.101	-0.0420128
692.179	-0.0361607
692.257	-0.0306908
692.335	-0.0265614
692.413	-0.0230488
692.491	-0.0204071
692.569	-0.0185665
692.648	-0.0174763
692.726	-0.0169735
692.804	-0.0166813
692.882	-0.0171368
692.960	-0.0178104
693.038	-0.0186184
693.116	-0.0186558
693.194	-0.0192997
693.273	-0.0197136
693.351	-0.0197834
693.429	-0.0196808
693.507	-0.0191074
693.585	-0.0187119
693.663	-0.0180767
693.741	-0.0168972
693.819	-0.0152084
693.898	-0.0130985
693.976	-0.0114223
694.054	-0.00915298
694.132	-0.00708008
694.210	-0.00468903
694.288	-0.00280190
694.366	-0.000833511
694.444	0.000955200
694.523	0.00220222
694.601	0.00375481
694.679	0.00515060
694.757	0.00607605
694.835	0.00675926
694.913	0.00739174
694.991	0.00783844
695.069	0.00811195
695.148	0.00780792
695.226	0.00798607
695.304	0.00782089
695.382	0.00804825
695.460	0.00817757
695.538	0.00771179
695.616	0.00768356
695.694	0.00799904
695.773	0.00862732
695.851	0.00851288
695.929	0.00866585
696.007	0.00946503
696.085	0.00978203
696.163	0.0109123
696.241	0.0120815
696.319	0.0127434
696.398	0.0137173
696.476	0.0149712
696.554	0.0162922
696.632	0.0174408
696.710	0.0189919
696.788	0.0201084
696.866	0.0214069
696.944	0.0228935
697.023	0.0241665
697.101	0.0255325
697.179	0.0270996
697.257	0.0283630
697.335	0.0296787
697.413	0.0312599
697.491	0.0321236
697.569	0.0329872
697.648	0.0338673
697.726	0.0345383
697.804	0.0348305
697.882	0.0350239
697.960	0.0349709
698.038	0.0345585
698.116	0.0341393
698.194	0.0334682
698.273	0.0327991
698.351	0.0319893
698.429	0.0312256
698.507	0.0302876
698.585	0.0293159
698.663	0.0285221
698.741	0.0280960
698.819	0.0278202
698.898	0.0275837
698.976	0.0272068
699.054	0.0277119
699.132	0.0281673
699.210	0.0287056
699.288	0.0292767
699.366	0.0302158
699.444	0.0309002
699.523	0.0316700
699.601	0.0321377
699.679	0.0331802
699.757	0.0344486
699.835	0.0347652
699.913	0.0348541
699.991	0.0354473
700.069	0.0360325
700.148	0.0356186
700.226	0.0356171
700.304	0.0352367
700.382	0.0347160
700.460	0.0339760
700.538	0.0328747
700.616	0.0320263
700.694	0.0308105
700.773	0.0295948
700.851	0.0279480
700.929	0.0270744
701.007	0.0252010
701.085	0.0233772
701.163	0.0222286
701.241	0.0206619
701.319	0.0191067
701.398	0.0179478
701.476	0.0168930
701.554	0.0157722
701.632	0.0150948
701.710	0.0142757
701.788	0.0138096
701.866	0.0134411
701.944	0.0130543
702.023	0.0126282
702.101	0.0126255
702.179	0.0126678
702.257	0.0128384
702.335	0.0129059
702.413	0.0131359
702.491	0.0133793
702.569	0.0134815
702.648	0.0138874
702.726	0.0140873
702.804	0.0141376
702.882	0.0150162
702.960	0.0151196
703.038	0.0150745
703.116	0.0149269
703.194	0.0147739
703.273	0.0144657
703.351	0.0142815
703.429	0.0138561
703.507	0.0137272
703.585	0.0132149
703.663	0.0128784
703.741	0.0128593
703.819	0.0124199
703.898	0.0123016
703.976	0.0120972
704.054	0.0121887
704.132	0.0123520
704.210	0.0121140
704.288	0.0123802
704.366	0.0128609
704.444	0.0125870
704.523	0.0129402
704.601	0.0131783
704.679	0.0134525
704.757	0.0138256
704.835	0.0135880
704.913	0.0138386
704.991	0.0140594
705.069	0.0142185
705.148	0.0142273
705.226	0.0140400
705.304	0.0137020
705.382	0.0138664
705.460	0.0142059
705.538	0.0141327
705.616	0.0145905
705.694	0.0143360
705.773	0.0146706
705.851	0.0148476
705.929	0.0149803
706.007	0.0153584
706.085	0.0155304
706.163	0.0157261
706.241	0.0161804
706.319	0.0162899
706.398	0.0166344
706.476	0.0168724
706.554	0.0172550
706.632	0.0171265
706.710	0.0173611
706.788	0.0175407
706.866	0.0174747
706.944	0.0174362
707.023	0.0174160
707.101	0.0175045
707.179	0.0174290
707.257	0.0172272
707.335	0.0171062
707.413	0.0171680
707.491	0.0166256
707.569	0.0167461
707.648	0.0168167
707.726	0.0172474
707.804	0.0168301
707.882	0.0172737
707.960	0.0172226
708.038	0.0178642
708.116	0.0180000
708.194	0.0184162
708.273	0.0182190
708.351	0.0184673
708.429	0.0186138
708.507	0.0186104
708.585	0.0182178
708.663	0.0179874
708.741	0.0174206
708.819	0.0167900
708.898	0.0168777
708.976	0.0162518
709.054	0.0162720
709.132	0.0159496
709.210	0.0157269
709.288	0.0155807
709.366	0.0156784
709.444	0.0154934
709.523	0.0155682
709.601	0.0157887
709.679	0.0163059
709.757	0.0167706
709.835	0.0168133
709.913	0.0174160
709.991	0.0177773
710.069	0.0179386
710.148	0.0179333
710.226	0.0185246
710.304	0.0186596
710.382	0.0192661
710.460	0.0190884
710.538	0.0194023
710.616	0.0197830
710.694	0.0198708
710.773	0.0203480
710.851	0.0208042
710.929	0.0206764
711.007	0.0208233
711.085	0.0207439
711.163	0.0207706
711.241	0.0212795
711.319	0.0209579
711.398	0.0209988
711.476	0.0211296
711.554	0.0212994
711.632	0.0212215
711.710	0.0214279
711.788	0.0216644
711.866	0.0218258
711.944	0.0218460
712.023	0.0218449
712.101	0.0220554
712.179	0.0220131
712.257	0.0222218
712.335	0.0224125
712.413	0.0224255
712.491	0.0224316
712.569	0.0223885
712.648	0.0224110
712.726	0.0223984
712.804	0.0224274
712.882	0.0220135
712.960	0.0220757
713.038	0.0221764
713.116	0.0217014
713.194	0.0215439
713.273	0.0217270
713.351	0.0211819
713.429	0.0213001
713.507	0.0206150
713.585	0.0203793
713.663	0.0202961
713.741	0.0191551
713.819	0.0187180
713.898	0.0179550
713.976	0.0174587
714.054	0.0165752
714.132	0.0154694
714.210	0.0148689
714.288	0.0142570
714.366	0.0130554
714.444	0.0122540
714.523	0.0119987
714.601	0.0111954
714.679	0.0110912
714.757	0.0107933
714.835	0.0105106
714.913	0.0106483
714.991	0.00988770
715.069	0.00967827
715.148	0.0101231
715.226	0.0102058
715.304	0.0103947
715.382	0.0102936
715.460	0.0102470
715.538	0.0102692
715.616	0.0102776
715.694	0.0106453
715.773	0.0106258
715.851	0.0106236
715.929	0.0109150
716.007	0.0112606
716.085	0.0111382
716.163	0.0112667
716.241	0.0116955
716.319	0.0115440
716.398	0.0119087
716.476	0.0122932
716.554	0.0120945
716.632	0.0124615
716.710	0.0125542
716.788	0.0127151
716.866	0.0129314
716.944	0.0130295
717.023	0.0131512
717.101	0.0129456
717.179	0.0132553
717.257	0.0133675
717.335	0.0130730
717.413	0.0132946
717.491	0.0133835
717.569	0.0134129
717.648	0.0131634
717.726	0.0136036
717.804	0.0132923
717.882	0.0133770
717.960	0.0140354
718.038	0.0136177
718.116	0.0134262
718.194	0.0140301
718.273	0.0142029
718.351	0.0146553
718.429	0.0145954
718.507	0.0147148
718.585	0.0154907
718.663	0.0153740
718.741	0.0157520
718.819	0.0161320
718.898	0.0166225
718.976	0.0167580
719.054	0.0167671
719.132	0.0171284
719.210	0.0175369
719.288	0.0175247
719.366	0.0173443
719.444	0.0173393
719.523	0.0174362
719.601	0.0175354
719.679	0.0174755
719.757	0.0176979
719.835	0.0177383
719.913	0.0176765
719.991	0.0177906
720.069	0.0176945
720.148	0.0177368
720.226	0.0178318
720.304	0.0176666
720.382	0.0177273
720.460	0.0177437
720.538	0.0173965
720.616	0.0173328
720.694	0.0173065
720.773	0.0169811
720.851	0.0168617
720.929	0.0169338
721.007	0.0166676
721.085	0.0163090
721.163	0.0160946
721.241	0.0158710
721.319	0.0156956
721.398	0.0158745
721.476	0.0155876
721.554	0.0153358
721.632	0.0153061
721.710	0.0151989
721.788	0.0149269
721.866	0.0148041
721.944	0.0146908
722.023	0.0146671
722.101	0.0144005
722.179	0.0143467
722.257	0.0143829
722.335	0.0141518
722.413	0.0139172
722.491	0.0140800
722.569	0.0138542
722.648	0.0137711
722.726	0.0136292
722.804	0.0135555
722.882	0.0131493
722.960	0.0129704
723.038	0.0127468
723.116	0.0127354
723.194	0.0122322
723.273	0.0119781
723.351	0.0119030
723.429	0.0118267
723.507	0.0115505
723.585	0.0115128
723.663	0.0119446
723.741	0.0118740
723.819	0.0120663
723.898	0.0125637
723.976	0.0130592
724.054	0.0135189
724.132	0.0137596
724.210	0.0142948
724.288	0.0148540
724.366	0.0153053
724.444	0.0155987
724.523	0.0161438
724.601	0.0163528
724.679	0.0166504
724.757	0.0168644
724.835	0.0168076
724.913	0.0169289
724.991	0.0173870
725.069	0.0174629
725.148	0.0174332
725.226	0.0171623
725.304	0.0174938
725.382	0.0174747
725.460	0.0175167
725.538	0.0177284
725.616	0.0178699
725.694	0.0179741
725.773	0.0183075
725.851	0.0181107
725.929	0.0185863
726.007	0.0186817
726.085	0.0184696
726.163	0.0186615
726.241	0.0184254
726.319	0.0181957
726.398	0.0182507
726.476	0.0180981
726.554	0.0184265
726.632	0.0184200
726.710	0.0186497
726.788	0.0185127
726.866	0.0184273
726.944	0.0185997
727.023	0.0187187
727.101	0.0187614
727.179	0.0185398
727.257	0.0184811
727.335	0.0183567
727.413	0.0187016
727.491	0.0187546
727.569	0.0187984
727.648	0.0190487
727.726	0.0192196
727.804	0.0189449
727.882	0.0191032
727.960	0.0185452
728.038	0.0192097
728.116	0.0195839
728.194	0.0194172
728.273	0.0194691
728.351	0.0198570
728.429	0.0197769
728.507	0.0195576
728.585	0.0200329
728.663	0.0199585
728.741	0.0196846
728.819	0.0199154
728.898	0.0197433
728.976	0.0201237
729.054	0.0201870
729.132	0.0196770
729.210	0.0200661
729.288	0.0202766
729.366	0.0201611
729.444	0.0202724
729.523	0.0207596
729.601	0.0205936
729.679	0.0205956
729.757	0.0202667
729.835	0.0207355
729.913	0.0206387
729.991	0.0205379
730.069	0.0201279
730.148	0.0200638
730.226	0.0196644
730.304	0.0191559
730.382	0.0192623
730.460	0.0188347
730.538	0.0189705
730.616	0.0186447
730.694	0.0188461
730.773	0.0183475
730.851	0.0182030
730.929	0.0181442
731.007	0.0183689
731.085	0.0183647
731.163	0.0183331
731.241	0.0183014
731.319	0.0181118
731.398	0.0181976
731.476	0.0177067
731.554	0.0178146
731.632	0.0174892
731.710	0.0172169
731.788	0.0169441
731.866	0.0167614
731.944	0.0168003
732.023	0.0164665
732.101	0.0165100
732.179	0.0162785
732.257	0.0161049
732.335	0.0161655
732.413	0.0159214
732.491	0.0155483
732.569	0.0157803
732.648	0.0155373
732.726	0.0154675
732.804	0.0160625
732.882	0.0158474
732.960	0.0158409
733.038	0.0160004
733.116	0.0161102
733.194	0.0166920
733.273	0.0162121
733.351	0.0165653
733.429	0.0166943
733.507	0.0166615
733.585	0.0166805
733.663	0.0170036
733.741	0.0169559
733.819	0.0170952
733.898	0.0170666
733.976	0.0169067
734.054	0.0165916
734.132	0.0166679
734.210	0.0168465
734.288	0.0167587
734.366	0.0166470
734.444	0.0163578
734.523	0.0164875
734.601	0.0162788
734.679	0.0160049
734.757	0.0160858
734.835	0.0162121
734.913	0.0160027
734.991	0.0160946
735.069	0.0162888
735.148	0.0161022
735.226	0.0160030
735.304	0.0161911
735.382	0.0163204
735.460	0.0160255
735.538	0.0158024
735.616	0.0155945
735.694	0.0154598
735.773	0.0154495
735.851	0.0152309
735.929	0.0152729
736.007	0.0151039
736.085	0.0150150
736.163	0.0150936
736.241	0.0150631
736.319	0.0148449
736.398	0.0147144
736.476	0.0151222
736.554	0.0147091
736.632	0.0150604
736.710	0.0150463
736.788	0.0153221
736.866	0.0151585
736.944	0.0152382
737.023	0.0156586
737.101	0.0158539
737.179	0.0157951
737.257	0.0160366
737.335	0.0160191
737.413	0.0160416
737.491	0.0164379
737.569	0.0167015
737.648	0.0168964
737.726	0.0173458
737.804	0.0175652
737.882	0.0174149
737.960	0.0178738
738.038	0.0181656
738.116	0.0184475
738.194	0.0188881
738.273	0.0195312
738.351	0.0196831
738.429	0.0199974
738.507	0.0204445
738.585	0.0208725
738.663	0.0209789
738.741	0.0214890
738.819	0.0218155
738.898	0.0220013
738.976	0.0223690
739.054	0.0225086
739.132	0.0227764
739.210	0.0223743
739.288	0.0223278
739.366	0.0223137
739.444	0.0221622
739.523	0.0212879
739.601	0.0206112
739.679	0.0200378
739.757	0.0189201
739.835	0.0180428
739.913	0.0173504
739.991	0.0166290
740.069	0.0153828
740.148	0.0146873
740.226	0.0142815
740.304	0.0135796
740.382	0.0127354
740.460	0.0121517
740.538	0.0116638
740.616	0.0111996
740.694	0.0109352
740.773	0.0110413
740.851	0.00990067
740.929	0.0105591
741.007	0.0105831
741.085	0.0108501
741.163	0.0107025
741.241	0.0113613
741.319	0.0112236
741.398	0.0121059
741.476	0.0122944
741.554	0.0127480
741.632	0.0132980
741.710	0.0140560
741.788	0.0139313
741.866	0.0144157
741.944	0.0149616
742.023	0.0154774
742.101	0.0156807
742.179	0.0160000
742.257	0.0164379
742.335	0.0163555
742.413	0.0165092
742.491	0.0165871
742.569	0.0167923
742.648	0.0165020
742.726	0.0166592
742.804	0.0166882
742.882	0.0160816
742.960	0.0157658
743.038	0.0157894
743.116	0.0160004
743.194	0.0156780
743.273	0.0154545
743.351	0.0150997
743.429	0.0147449
743.507	0.0144585
743.585	0.0150513
743.663	0.0149731
743.741	0.0149307
743.819	0.0144638
743.898	0.0146702
743.976	0.0148182
744.054	0.0150513
744.132	0.0148876
744.210	0.0149513
744.288	0.0149384
744.366	0.0147343
744.444	0.0146667
744.523	0.0149464
744.601	0.0151207
744.679	0.0146450
744.757	0.0150845
744.835	0.0148903
744.913	0.0152119
744.991	0.0152397
745.069	0.0153111
745.148	0.0158009
745.226	0.0159542
745.304	0.0161728
745.382	0.0168831
745.460	0.0173435
745.538	0.0175053
745.616	0.0175587
745.694	0.0174652
745.773	0.0184147
745.851	0.0187080
745.929	0.0187473
746.007	0.0188732
746.085	0.0189304
746.163	0.0189579
746.241	0.0192863
746.319	0.0191368
746.398	0.0190495
746.476	0.0189327
746.554	0.0189945
746.632	0.0190155
746.710	0.0187393
746.788	0.0185589
746.866	0.0187592
746.944	0.0184105
747.023	0.0181492
747.101	0.0180538
747.179	0.0182541
747.257	0.0179260
747.335	0.0180077
747.413	0.0180851
747.491	0.0176674
747.569	0.0177334
747.648	0.0182590
747.726	0.0179443
747.804	0.0178162
747.882	0.0178200
747.960	0.0175060
748.038	0.0179222
748.116	0.0179501
748.194	0.0176998
748.273	0.0177906
748.351	0.0179077
748.429	0.0175217
748.507	0.0174538
748.585	0.0175056
748.663	0.0177120
748.741	0.0170982
748.819	0.0170532
748.898	0.0168995
748.976	0.0169510
749.054	0.0170891
749.132	0.0172852
749.210	0.0169884
749.288	0.0170238
749.366	0.0171505
749.444	0.0171951
749.523	0.0170284
749.601	0.0171482
749.679	0.0169636
749.757	0.0169964
749.835	0.0170441
749.913	0.0169743
749.991	0.0172832
750.069	0.0170872
750.148	0.0168301
750.226	0.0169388
750.304	0.0169178
750.382	0.0167011
750.460	0.0170845
750.538	0.0167648
750.616	0.0168400
750.694	0.0167072
750.773	0.0166752
750.851	0.0166782
750.929	0.0164371
751.007	0.0168571
751.085	0.0167088
751.163	0.0167465
751.241	0.0166893
751.319	0.0170288
751.398	0.0168987
751.476	0.0170101
751.554	0.0171947
751.632	0.0165188
751.710	0.0169094
751.788	0.0172367
751.866	0.0169647
751.944	0.0171230
752.023	0.0174946
752.101	0.0178112
752.179	0.0172874
752.257	0.0172462
752.335	0.0176834
752.413	0.0173401
752.491	0.0176762
752.569	0.0175560
752.648	0.0179108
752.726	0.0178242
752.804	0.0176544
752.882	0.0174454
752.960	0.0176586
753.038	0.0175362
753.116	0.0174950
753.194	0.0177227
753.273	0.0172947
753.351	0.0174458
753.429	0.0171494
753.507	0.0176167
753.585	0.0175289
753.663	0.0169998
753.741	0.0168365
753.819	0.0165058
753.898	0.0163841
753.976	0.0165462
754.054	0.0163746
754.132	0.0162617
754.210	0.0161190
754.288	0.0163799
754.366	0.0164658
754.444	0.0164326
754.523	0.0165253
754.601	0.0163490
754.679	0.0161728
754.757	0.0165367
754.835	0.0167400
754.913	0.0171646
754.991	0.0165936
755.069	0.0166309
755.148	0.0168224
755.226	0.0168110
755.304	0.0166550
755.382	0.0168522
755.460	0.0169498
755.538	0.0164841
755.616	0.0165462
755.694	0.0165306
755.773	0.0163387
755.851	0.0165043
755.929	0.0163765
756.007	0.0159958
756.085	0.0163216
756.163	0.0161488
756.241	0.0160271
756.319	0.0162582
756.398	0.0161549
756.476	0.0161129
756.554	0.0160923
756.632	0.0161694
756.710	0.0159893
756.788	0.0159851
756.866	0.0160454
756.944	0.0161102
757.023	0.0162731
757.101	0.0161892
757.179	0.0162182
757.257	0.0165833
757.335	0.0163086
757.413	0.0161686
757.491	0.0164707
757.569	0.0166046
757.648	0.0167072
757.726	0.0164028
757.804	0.0163635
757.882	0.0164635
757.960	0.0163258
758.038	0.0161579
758.116	0.0163353
758.194	0.0160797
758.273	0.0162140
758.351	0.0163879
758.429	0.0160126
758.507	0.0157318
758.585	0.0157181
758.663	0.0159073
758.741	0.0157047
758.819	0.0153965
758.898	0.0152950
758.976	0.0152138
759.054	0.0154728
759.132	0.0152660
759.210	0.0150661
759.288	0.0150841
759.366	0.0148205
759.444	0.0146057
759.523	0.0146885
759.601	0.0147587
759.679	0.0144890
759.757	0.0147404
759.835	0.0145897
759.913	0.0146698
759.991	0.0144978
760.069	0.0148930
760.148	0.0149994
760.226	0.0146824
760.304	0.0147129
760.382	0.0149357
760.460	0.0149071
760.538	0.0146736
760.616	0.0147823
760.694	0.0151455
760.773	0.0148399
760.851	0.0149757
760.929	0.0152412
761.007	0.0150883
761.085	0.0151833
761.163	0.0152424
761.241	0.0153893
761.319	0.0156166
761.398	0.0158192
761.476	0.0159275
761.554	0.0157707
761.632	0.0161171
761.710	0.0159958
761.788	0.0162930
761.866	0.0162052
761.944	0.0163467
762.023	0.0164536
762.101	0.0165497
762.179	0.0165192
762.257	0.0168320
762.335	0.0166405
762.413	0.0168182
762.491	0.0167603
762.569	0.0170097
762.648	0.0171886
762.726	0.0169262
762.804	0.0174072
762.882	0.0172436
762.960	0.0170715
763.038	0.0174412
763.116	0.0171528
763.194	0.0172421
763.273	0.0171474
763.351	0.0172176
763.429	0.0174511
763.507	0.0168987
763.585	0.0172249
763.663	0.0170437
763.741	0.0171627
763.819	0.0170261
763.898	0.0167747
763.976	0.0170277
764.054	0.0168781
764.132	0.0168716
764.210	0.0167686
764.288	0.0166248
764.366	0.0167892
764.444	0.0167057
764.523	0.0164570
764.601	0.0165462
764.679	0.0166275
764.757	0.0167671
764.835	0.0171661
764.913	0.0172665
764.991	0.0170986
765.069	0.0172756
765.148	0.0176208
765.226	0.0174057
765.304	0.0175179
765.382	0.0179741
765.460	0.0179073
765.538	0.0178898
765.616	0.0180836
765.694	0.0179745
765.773	0.0177650
765.851	0.0181999
765.929	0.0181503
766.007	0.0177555
766.085	0.0177650
766.163	0.0174660
766.241	0.0176704
766.319	0.0173546
766.398	0.0174118
766.476	0.0170158
766.554	0.0170959
766.632	0.0169273
766.710	0.0166065
766.788	0.0170219
766.866	0.0171009
766.944	0.0168354
767.023	0.0168938
767.101	0.0166759
767.179	0.0168800
767.257	0.0171223
767.335	0.0170948
767.413	0.0172428
767.491	0.0171654
767.569	0.0170856
767.648	0.0175930
767.726	0.0179886
767.804	0.0181339
767.882	0.0181427
767.960	0.0182976
768.038	0.0186546
768.116	0.0189045
768.194	0.0195816
768.273	0.0193432
768.351	0.0193707
768.429	0.0194283
768.507	0.0200142
768.585	0.0199413
768.663	0.0195297
768.741	0.0200089
768.819	0.0200359
768.898	0.0196579
768.976	0.0193237
769.054	0.0196114
769.132	0.0194580
769.210	0.0193600
769.288	0.0189190
769.366	0.0186573
769.444	0.0185776
769.523	0.0182499
769.601	0.0183590
769.679	0.0178696
769.757	0.0173100
769.835	0.0170933
769.913	0.0166973
