05/27/2022	02:07:57	Ver.	4.1	UNKNOWN
Optical Delay	449.991307	Delta X		0.078125	Sweeps	1	Scan Rate	0/0
Coordinates	Axis 1	NaN	Axis 2	NaN	Axis 3	NaN	Axis 4	NaN	Axis 5	NaN	Axis 6	0.000000
TX Power	0.000000	RX Power	0.000000

449.991	0.0156467
450.069	0.0158260
450.148	0.0157021
450.226	0.0160709
450.304	0.0160255
450.382	0.0154831
450.460	0.0157883
450.538	0.0159046
450.616	0.0156761
450.694	0.0157276
450.773	0.0159859
450.851	0.0158226
450.929	0.0157375
451.007	0.0156578
451.085	0.0158047
451.163	0.0157074
451.241	0.0158798
451.319	0.0157555
451.398	0.0157089
451.476	0.0161396
451.554	0.0155582
451.632	0.0156551
451.710	0.0155117
451.788	0.0157234
451.866	0.0160034
451.944	0.0159725
452.023	0.0156212
452.101	0.0157223
452.179	0.0158562
452.257	0.0157093
452.335	0.0155670
452.413	0.0154507
452.491	0.0156345
452.569	0.0158092
452.648	0.0159492
452.726	0.0157616
452.804	0.0155441
452.882	0.0157246
452.960	0.0155689
453.038	0.0157475
453.116	0.0156998
453.194	0.0158154
453.273	0.0156776
453.351	0.0157097
453.429	0.0157593
453.507	0.0158432
453.585	0.0155613
453.663	0.0155346
453.741	0.0154530
453.819	0.0157494
453.898	0.0154701
453.976	0.0156162
454.054	0.0156628
454.132	0.0156330
454.210	0.0156048
454.288	0.0157085
454.366	0.0158421
454.444	0.0156303
454.523	0.0156872
454.601	0.0158768
454.679	0.0156567
454.757	0.0155331
454.835	0.0155880
454.913	0.0157795
454.991	0.0155518
455.069	0.0157234
455.148	0.0156742
455.226	0.0157654
455.304	0.0159046
455.382	0.0159290
455.460	0.0155125
455.538	0.0159378
455.616	0.0158585
455.694	0.0158482
455.773	0.0154888
455.851	0.0158405
455.929	0.0156860
456.007	0.0158817
456.085	0.0157040
456.163	0.0158058
456.241	0.0156021
456.319	0.0154987
456.398	0.0158344
456.476	0.0159668
456.554	0.0159767
456.632	0.0157570
456.710	0.0156952
456.788	0.0157974
456.866	0.0157162
456.944	0.0155964
457.023	0.0155190
457.101	0.0157402
457.179	0.0158859
457.257	0.0155239
457.335	0.0155979
457.413	0.0158035
457.491	0.0154400
457.569	0.0155434
457.648	0.0154545
457.726	0.0155125
457.804	0.0158466
457.882	0.0154675
457.960	0.0159580
458.038	0.0158703
458.116	0.0154488
458.194	0.0156590
458.273	0.0158558
458.351	0.0158398
458.429	0.0155628
458.507	0.0158211
458.585	0.0158810
458.663	0.0156960
458.741	0.0157757
458.819	0.0160595
458.898	0.0155083
458.976	0.0153576
459.054	0.0155609
459.132	0.0156189
459.210	0.0156685
459.288	0.0155743
459.366	0.0157703
459.444	0.0156128
459.523	0.0156223
459.601	0.0156078
459.679	0.0158566
459.757	0.0159019
459.835	0.0156170
459.913	0.0158512
459.991	0.0154526
460.069	0.0154964
460.148	0.0154865
460.226	0.0157742
460.304	0.0159241
460.382	0.0156548
460.460	0.0156109
460.538	0.0157433
460.616	0.0158352
460.694	0.0156757
460.773	0.0155937
460.851	0.0155880
460.929	0.0155624
461.007	0.0156055
461.085	0.0159523
461.163	0.0158211
461.241	0.0153893
461.319	0.0155582
461.398	0.0157349
461.476	0.0158047
461.554	0.0157661
461.632	0.0158405
461.710	0.0156586
461.788	0.0156364
461.866	0.0159389
461.944	0.0158337
462.023	0.0156357
462.101	0.0155277
462.179	0.0154156
462.257	0.0155922
462.335	0.0156147
462.413	0.0156464
462.491	0.0156746
462.569	0.0157005
462.648	0.0155174
462.726	0.0156696
462.804	0.0158119
462.882	0.0155056
462.960	0.0158798
463.038	0.0156765
463.116	0.0157604
463.194	0.0158127
463.273	0.0156200
463.351	0.0156048
463.429	0.0157604
463.507	0.0155357
463.585	0.0157127
463.663	0.0156372
463.741	0.0156376
463.819	0.0156174
463.898	0.0157135
463.976	0.0157314
464.054	0.0159801
464.132	0.0157619
464.210	0.0157696
464.288	0.0157738
464.366	0.0155773
464.444	0.0157944
464.523	0.0156086
464.601	0.0154537
464.679	0.0155540
464.757	0.0159988
464.835	0.0158508
464.913	0.0155762
464.991	0.0156288
465.069	0.0158253
465.148	0.0156254
465.226	0.0156055
465.304	0.0157223
465.382	0.0158802
465.460	0.0155132
465.538	0.0156303
465.616	0.0158997
465.694	0.0160370
465.773	0.0155205
465.851	0.0159649
465.929	0.0160637
466.007	0.0157368
466.085	0.0157902
466.163	0.0157272
466.241	0.0155109
466.319	0.0155792
466.398	0.0157600
466.476	0.0158611
466.554	0.0157749
466.632	0.0158047
466.710	0.0157696
466.788	0.0157379
466.866	0.0157814
466.944	0.0159542
467.023	0.0157188
467.101	0.0157814
467.179	0.0158619
467.257	0.0160278
467.335	0.0158062
467.413	0.0155235
467.491	0.0156399
467.569	0.0156116
467.648	0.0156937
467.726	0.0159744
467.804	0.0158028
467.882	0.0154556
467.960	0.0158489
468.038	0.0157207
468.116	0.0156822
468.194	0.0153454
468.273	0.0156853
468.351	0.0158833
468.429	0.0157181
468.507	0.0158379
468.585	0.0154541
468.663	0.0159721
468.741	0.0155918
468.819	0.0154617
468.898	0.0157688
468.976	0.0157101
469.054	0.0155045
469.132	0.0155949
469.210	0.0158077
469.288	0.0157314
469.366	0.0154419
469.444	0.0153778
469.523	0.0154442
469.601	0.0156563
469.679	0.0154839
469.757	0.0153576
469.835	0.0157196
469.913	0.0156525
469.991	0.0155937
470.069	0.0153248
470.148	0.0155918
470.226	0.0157455
470.304	0.0154263
470.382	0.0155514
470.460	0.0156910
470.538	0.0154240
470.616	0.0157314
470.694	0.0156391
470.773	0.0155281
470.851	0.0155117
470.929	0.0155083
471.007	0.0156673
471.085	0.0158257
471.163	0.0156277
471.241	0.0156654
471.319	0.0157097
471.398	0.0156364
471.476	0.0154942
471.554	0.0157993
471.632	0.0156166
471.710	0.0155018
471.788	0.0156170
471.866	0.0158112
471.944	0.0157585
472.023	0.0154232
472.101	0.0156509
472.179	0.0155415
472.257	0.0152603
472.335	0.0158840
472.413	0.0156803
472.491	0.0156254
472.569	0.0154572
472.648	0.0155842
472.726	0.0156315
472.804	0.0157120
472.882	0.0154842
472.960	0.0158554
473.038	0.0156513
473.116	0.0156197
473.194	0.0153847
473.273	0.0159248
473.351	0.0158081
473.429	0.0155148
473.507	0.0155396
473.585	0.0158585
473.663	0.0156578
473.741	0.0158058
473.819	0.0156139
473.898	0.0157417
473.976	0.0155876
474.054	0.0156971
474.132	0.0155273
474.210	0.0152149
474.288	0.0155418
474.366	0.0157547
474.444	0.0157627
474.523	0.0154041
474.601	0.0155304
474.679	0.0157688
474.757	0.0157532
474.835	0.0154507
474.913	0.0155930
474.991	0.0157215
475.069	0.0155743
475.148	0.0157829
475.226	0.0155552
475.304	0.0155560
475.382	0.0154831
475.460	0.0157566
475.538	0.0159676
475.616	0.0158001
475.694	0.0156193
475.773	0.0155960
475.851	0.0154381
475.929	0.0156071
476.007	0.0154915
476.085	0.0158474
476.163	0.0159634
476.241	0.0154381
476.319	0.0156921
476.398	0.0158993
476.476	0.0156982
476.554	0.0158707
476.632	0.0156940
476.710	0.0155731
476.788	0.0153439
476.866	0.0157829
476.944	0.0151741
477.023	0.0155888
477.101	0.0159695
477.179	0.0154610
477.257	0.0158318
477.335	0.0160290
477.413	0.0157440
477.491	0.0157860
477.569	0.0160690
477.648	0.0157108
477.726	0.0155972
477.804	0.0156887
477.882	0.0155174
477.960	0.0157490
478.038	0.0156212
478.116	0.0158787
478.194	0.0158333
478.273	0.0154423
478.351	0.0158669
478.429	0.0158848
478.507	0.0156212
478.585	0.0156162
478.663	0.0156742
478.741	0.0157501
478.819	0.0154690
478.898	0.0160358
478.976	0.0157909
479.054	0.0153606
479.132	0.0153469
479.210	0.0157692
479.288	0.0158535
479.366	0.0154617
479.444	0.0156979
479.523	0.0156178
479.601	0.0158321
479.679	0.0156834
479.757	0.0155182
479.835	0.0158726
479.913	0.0158669
479.991	0.0158886
480.069	0.0158642
480.148	0.0159485
480.226	0.0155003
480.304	0.0155598
480.382	0.0159599
480.460	0.0156315
480.538	0.0154789
480.616	0.0155937
480.694	0.0155788
480.773	0.0156116
480.851	0.0157784
480.929	0.0156494
481.007	0.0158718
481.085	0.0156410
481.163	0.0155201
481.241	0.0153675
481.319	0.0155602
481.398	0.0155197
481.476	0.0159336
481.554	0.0158230
481.632	0.0157040
481.710	0.0155453
481.788	0.0155769
481.866	0.0154663
481.944	0.0157970
482.023	0.0158600
482.101	0.0156456
482.179	0.0157608
482.257	0.0156662
482.335	0.0156742
482.413	0.0157684
482.491	0.0155941
482.569	0.0158253
482.648	0.0156425
482.726	0.0161121
482.804	0.0159412
482.882	0.0156300
482.960	0.0158867
483.038	0.0155025
483.116	0.0151142
483.194	0.0156288
483.273	0.0161022
483.351	0.0155891
483.429	0.0157391
483.507	0.0157196
483.585	0.0157173
483.663	0.0157066
483.741	0.0158073
483.819	0.0153461
483.898	0.0155457
483.976	0.0156475
484.054	0.0156399
484.132	0.0157421
484.210	0.0156967
484.288	0.0158745
484.366	0.0156803
484.444	0.0157852
484.523	0.0159836
484.601	0.0157299
484.679	0.0154732
484.757	0.0156445
484.835	0.0159748
484.913	0.0159382
484.991	0.0153141
485.069	0.0155449
485.148	0.0156250
485.226	0.0155949
485.304	0.0156151
485.382	0.0155857
485.460	0.0157539
485.538	0.0157967
485.616	0.0157921
485.694	0.0154972
485.773	0.0157089
485.851	0.0157978
485.929	0.0156139
486.007	0.0157051
486.085	0.0153954
486.163	0.0156765
486.241	0.0156269
486.319	0.0157162
486.398	0.0158497
486.476	0.0155552
486.554	0.0158279
486.632	0.0153576
486.710	0.0158947
486.788	0.0159203
486.866	0.0152958
486.944	0.0159145
487.023	0.0158974
487.101	0.0158363
487.179	0.0154907
487.257	0.0156147
487.335	0.0160645
487.413	0.0158020
487.491	0.0154270
487.569	0.0157497
487.648	0.0155968
487.726	0.0157413
487.804	0.0157490
487.882	0.0158031
487.960	0.0156929
488.038	0.0155354
488.116	0.0156986
488.194	0.0156410
488.273	0.0157612
488.351	0.0155891
488.429	0.0155487
488.507	0.0157093
488.585	0.0157234
488.663	0.0156910
488.741	0.0156578
488.819	0.0157639
488.898	0.0154064
488.976	0.0154545
489.054	0.0156033
489.132	0.0156811
489.210	0.0156624
489.288	0.0157654
489.366	0.0154446
489.444	0.0156921
489.523	0.0158680
489.601	0.0154167
489.679	0.0157978
489.757	0.0158356
489.835	0.0155369
489.913	0.0155937
489.991	0.0160149
490.069	0.0156876
490.148	0.0157661
490.226	0.0158615
490.304	0.0157562
490.382	0.0156490
490.460	0.0158405
490.538	0.0154427
490.616	0.0160599
490.694	0.0160053
490.773	0.0154442
490.851	0.0158100
490.929	0.0155567
491.007	0.0156525
491.085	0.0160255
491.163	0.0159412
491.241	0.0153847
491.319	0.0156693
491.398	0.0154736
491.476	0.0159538
491.554	0.0158119
491.632	0.0156204
491.710	0.0155754
491.788	0.0155998
491.866	0.0159397
491.944	0.0156967
492.023	0.0156456
492.101	0.0158367
492.179	0.0158699
492.257	0.0156609
492.335	0.0157955
492.413	0.0157024
492.491	0.0157326
492.569	0.0154373
492.648	0.0158340
492.726	0.0155624
492.804	0.0154381
492.882	0.0158081
492.960	0.0157619
493.038	0.0161724
493.116	0.0155472
493.194	0.0158169
493.273	0.0156620
493.351	0.0158077
493.429	0.0158615
493.507	0.0153458
493.585	0.0155663
493.663	0.0155933
493.741	0.0159111
493.819	0.0156605
493.898	0.0154678
493.976	0.0156372
494.054	0.0159325
494.132	0.0156361
494.210	0.0158741
494.288	0.0157757
494.366	0.0158524
494.444	0.0157993
494.523	0.0158848
494.601	0.0155655
494.679	0.0158691
494.757	0.0155342
494.835	0.0156498
494.913	0.0153645
494.991	0.0157677
495.069	0.0157898
495.148	0.0156879
495.226	0.0155827
495.304	0.0157585
495.382	0.0154095
495.460	0.0155647
495.538	0.0156361
495.616	0.0157131
495.694	0.0156597
495.773	0.0157612
495.851	0.0158642
495.929	0.0158688
496.007	0.0157558
496.085	0.0156635
496.163	0.0155586
496.241	0.0159279
496.319	0.0156555
496.398	0.0155266
496.476	0.0157093
496.554	0.0156067
496.632	0.0157871
496.710	0.0159348
496.788	0.0155449
496.866	0.0156895
496.944	0.0158970
497.023	0.0158401
497.101	0.0155384
497.179	0.0156502
497.257	0.0158363
497.335	0.0157192
497.413	0.0155907
497.491	0.0156967
497.569	0.0158131
497.648	0.0159668
497.726	0.0156040
497.804	0.0156525
497.882	0.0158592
497.960	0.0157066
498.038	0.0155365
498.116	0.0155155
498.194	0.0158455
498.273	0.0158215
498.351	0.0157791
498.429	0.0155079
498.507	0.0157806
498.585	0.0159641
498.663	0.0155655
498.741	0.0154873
498.819	0.0155582
498.898	0.0156425
498.976	0.0155575
499.054	0.0157249
499.132	0.0155739
499.210	0.0154732
499.288	0.0155285
499.366	0.0157238
499.444	0.0156849
499.523	0.0157829
499.601	0.0156780
499.679	0.0155766
499.757	0.0155788
499.835	0.0159794
499.913	0.0154919
499.991	0.0157295
500.069	0.0155140
500.148	0.0156845
500.226	0.0156380
500.304	0.0158897
500.382	0.0156223
500.460	0.0158005
500.538	0.0158855
500.616	0.0153553
500.694	0.0153976
500.773	0.0156284
500.851	0.0157082
500.929	0.0156029
501.007	0.0157097
501.085	0.0157627
501.163	0.0159542
501.241	0.0156849
501.319	0.0155777
501.398	0.0156784
501.476	0.0158848
501.554	0.0153187
501.632	0.0159019
501.710	0.0157471
501.788	0.0154758
501.866	0.0159328
501.944	0.0158432
502.023	0.0156059
502.101	0.0158817
502.179	0.0157665
502.257	0.0155094
502.335	0.0153912
502.413	0.0153545
502.491	0.0155647
502.569	0.0157619
502.648	0.0155331
502.726	0.0156723
502.804	0.0157227
502.882	0.0155777
502.960	0.0157333
503.038	0.0153854
503.116	0.0157005
503.194	0.0155888
503.273	0.0156067
503.351	0.0155331
503.429	0.0157951
503.507	0.0155815
503.585	0.0156208
503.663	0.0158192
503.741	0.0157608
503.819	0.0154083
503.898	0.0157169
503.976	0.0157860
504.054	0.0156204
504.132	0.0156139
504.210	0.0158813
504.288	0.0155888
504.366	0.0158012
504.444	0.0156757
504.523	0.0156479
504.601	0.0157898
504.679	0.0157593
504.757	0.0155869
504.835	0.0153599
504.913	0.0155201
504.991	0.0156536
505.069	0.0156368
505.148	0.0156845
505.226	0.0159248
505.304	0.0155945
505.382	0.0157288
505.460	0.0153648
505.538	0.0157574
505.616	0.0154873
505.694	0.0156345
505.773	0.0159492
505.851	0.0158138
505.929	0.0156773
506.007	0.0156555
506.085	0.0158974
506.163	0.0160229
506.241	0.0156528
506.319	0.0155834
506.398	0.0155895
506.476	0.0157681
506.554	0.0156361
506.632	0.0158028
506.710	0.0156864
506.788	0.0155907
506.866	0.0157001
506.944	0.0155651
507.023	0.0155449
507.101	0.0156441
507.179	0.0156963
507.257	0.0155239
507.335	0.0154381
507.413	0.0157459
507.491	0.0162491
507.569	0.0157047
507.648	0.0155251
507.726	0.0154766
507.804	0.0157066
507.882	0.0159523
507.960	0.0158623
508.038	0.0157650
508.116	0.0156235
508.194	0.0158321
508.273	0.0158970
508.351	0.0155487
508.429	0.0155285
508.507	0.0154873
508.585	0.0156509
508.663	0.0157009
508.741	0.0159389
508.819	0.0156475
508.898	0.0154274
508.976	0.0158207
509.054	0.0155556
509.132	0.0155155
509.210	0.0157623
509.288	0.0158607
509.366	0.0154617
509.444	0.0157619
509.523	0.0158573
509.601	0.0159988
509.679	0.0157101
509.757	0.0153633
509.835	0.0154018
509.913	0.0156311
509.991	0.0158051
510.069	0.0158871
510.148	0.0154388
510.226	0.0156078
510.304	0.0154453
510.382	0.0154804
510.460	0.0155083
510.538	0.0157806
510.616	0.0159424
510.694	0.0157551
510.773	0.0156136
510.851	0.0157036
510.929	0.0158356
511.007	0.0159187
511.085	0.0156837
511.163	0.0159058
511.241	0.0155975
511.319	0.0156788
511.398	0.0156387
511.476	0.0157375
511.554	0.0153522
511.632	0.0154915
511.710	0.0157059
511.788	0.0157722
511.866	0.0153549
511.944	0.0153549
512.023	0.0158394
512.101	0.0155396
512.179	0.0154823
512.257	0.0155651
512.335	0.0159981
512.413	0.0158134
512.491	0.0158371
512.569	0.0155499
512.648	0.0154598
512.726	0.0157425
512.804	0.0160992
512.882	0.0156738
512.960	0.0156437
513.038	0.0156368
513.116	0.0159229
513.194	0.0156857
513.273	0.0156330
513.351	0.0154839
513.429	0.0152504
513.507	0.0157234
513.585	0.0157589
513.663	0.0157856
513.741	0.0158264
513.819	0.0156601
513.898	0.0156986
513.976	0.0152355
514.054	0.0157875
514.132	0.0157551
514.210	0.0160744
514.288	0.0155792
514.366	0.0152596
514.444	0.0155762
514.523	0.0157291
514.601	0.0157150
514.679	0.0158924
514.757	0.0156151
514.835	0.0158245
514.913	0.0155640
514.991	0.0156132
515.069	0.0158539
515.148	0.0155609
515.226	0.0156158
515.304	0.0157402
515.382	0.0161057
515.460	0.0156513
515.538	0.0158360
515.616	0.0154190
515.694	0.0156532
515.773	0.0157513
515.851	0.0157745
515.929	0.0157688
516.007	0.0157806
516.085	0.0155521
516.163	0.0156204
516.241	0.0157276
516.319	0.0155640
516.398	0.0161110
516.476	0.0157604
516.554	0.0155354
516.632	0.0156151
516.710	0.0156826
516.788	0.0160004
516.866	0.0157288
516.944	0.0155849
517.023	0.0154526
517.101	0.0155045
517.179	0.0157253
517.257	0.0158478
517.335	0.0157780
517.413	0.0158291
517.491	0.0154919
517.569	0.0153645
517.648	0.0157112
517.726	0.0157967
517.804	0.0154495
517.882	0.0154648
517.960	0.0157066
518.038	0.0155869
518.116	0.0153553
518.194	0.0159740
518.273	0.0159111
518.351	0.0158287
518.429	0.0153893
518.507	0.0154690
518.585	0.0156277
518.663	0.0156612
518.741	0.0159374
518.819	0.0153423
518.898	0.0158699
518.976	0.0157867
519.054	0.0156548
519.132	0.0160881
519.210	0.0155373
519.288	0.0159832
519.366	0.0155228
519.444	0.0156086
519.523	0.0161018
519.601	0.0158207
519.679	0.0156246
519.757	0.0156525
519.835	0.0156841
519.913	0.0155674
519.991	0.0156929
520.069	0.0157394
520.148	0.0156300
520.226	0.0153431
520.304	0.0159271
520.382	0.0156944
520.460	0.0155243
520.538	0.0157570
520.616	0.0158642
520.694	0.0155544
520.773	0.0155720
520.851	0.0159008
520.929	0.0159405
521.007	0.0156685
521.085	0.0157562
521.163	0.0153927
521.241	0.0154774
521.319	0.0155334
521.398	0.0159996
521.476	0.0158817
521.554	0.0152569
521.632	0.0159199
521.710	0.0156075
521.788	0.0152969
521.866	0.0157742
521.944	0.0155685
522.023	0.0153431
522.101	0.0156792
522.179	0.0154495
522.257	0.0154896
522.335	0.0157902
522.413	0.0157570
522.491	0.0154461
522.569	0.0156925
522.648	0.0156723
522.726	0.0158504
522.804	0.0158638
522.882	0.0159359
522.960	0.0159058
523.038	0.0155914
523.116	0.0155880
523.194	0.0156303
523.273	0.0158646
523.351	0.0160458
523.429	0.0158493
523.507	0.0157379
523.585	0.0154362
523.663	0.0155983
523.741	0.0157383
523.819	0.0156109
523.898	0.0158474
523.976	0.0157936
524.054	0.0156368
524.132	0.0158051
524.210	0.0157097
524.288	0.0156445
524.366	0.0155365
524.444	0.0152405
524.523	0.0157120
524.601	0.0159969
524.679	0.0156967
524.757	0.0159534
524.835	0.0155941
524.913	0.0156487
524.991	0.0153091
525.069	0.0155121
525.148	0.0158745
525.226	0.0156223
525.304	0.0158813
525.382	0.0157051
525.460	0.0157925
525.538	0.0156002
525.616	0.0157887
525.694	0.0156994
525.773	0.0155884
525.851	0.0157330
525.929	0.0155697
526.007	0.0156738
526.085	0.0155888
526.163	0.0157528
526.241	0.0157181
526.319	0.0153210
526.398	0.0154930
526.476	0.0159954
526.554	0.0158318
526.632	0.0155876
526.710	0.0157204
526.788	0.0156582
526.866	0.0154209
526.944	0.0156353
527.023	0.0158558
527.101	0.0158375
527.179	0.0158409
527.257	0.0154152
527.335	0.0157135
527.413	0.0154133
527.491	0.0155376
527.569	0.0156834
527.648	0.0156639
527.726	0.0157322
527.804	0.0157616
527.882	0.0156277
527.960	0.0152596
528.038	0.0154369
528.116	0.0159008
528.194	0.0156792
528.273	0.0155697
528.351	0.0157448
528.429	0.0157574
528.507	0.0158257
528.585	0.0156548
528.663	0.0157455
528.741	0.0158440
528.819	0.0155350
528.898	0.0158367
528.976	0.0158546
529.054	0.0156723
529.132	0.0158836
529.210	0.0156288
529.288	0.0155415
529.366	0.0157433
529.444	0.0159985
529.523	0.0156616
529.601	0.0155926
529.679	0.0153877
529.757	0.0154057
529.835	0.0158894
529.913	0.0156509
529.991	0.0156563
530.069	0.0156033
530.148	0.0156311
530.226	0.0154850
530.304	0.0154655
530.382	0.0157906
530.460	0.0158703
530.538	0.0155495
530.616	0.0155098
530.694	0.0157829
530.773	0.0158974
530.851	0.0156773
530.929	0.0159561
531.007	0.0158062
531.085	0.0155952
531.163	0.0159775
531.241	0.0160046
531.319	0.0157825
531.398	0.0156761
531.476	0.0162502
531.554	0.0156853
531.632	0.0156776
531.710	0.0160362
531.788	0.0157410
531.866	0.0157864
531.944	0.0158993
532.023	0.0156826
532.101	0.0158619
532.179	0.0158669
532.257	0.0156029
532.335	0.0156200
532.413	0.0159195
532.491	0.0156803
532.569	0.0158215
532.648	0.0156567
532.726	0.0158966
532.804	0.0159576
532.882	0.0157169
532.960	0.0154579
533.038	0.0156948
533.116	0.0158554
533.194	0.0157570
533.273	0.0156841
533.351	0.0159336
533.429	0.0158901
533.507	0.0158863
533.585	0.0161285
533.663	0.0157112
533.741	0.0157383
533.819	0.0160625
533.898	0.0156757
533.976	0.0155697
534.054	0.0156364
534.132	0.0156769
534.210	0.0155907
534.288	0.0160587
534.366	0.0157375
534.444	0.0157890
534.523	0.0157166
534.601	0.0154850
534.679	0.0156414
534.757	0.0158527
534.835	0.0158813
534.913	0.0157906
534.991	0.0157116
535.069	0.0158985
535.148	0.0157227
535.226	0.0156887
535.304	0.0155891
535.382	0.0158009
535.460	0.0156742
535.538	0.0158398
535.616	0.0155476
535.694	0.0153633
535.773	0.0156769
535.851	0.0157646
535.929	0.0158340
536.007	0.0157555
536.085	0.0154846
536.163	0.0156258
536.241	0.0158966
536.319	0.0155602
536.398	0.0154446
536.476	0.0155972
536.554	0.0152843
536.632	0.0156277
536.710	0.0157261
536.788	0.0156078
536.866	0.0156364
536.944	0.0154976
537.023	0.0157101
537.101	0.0159660
537.179	0.0157505
537.257	0.0154934
537.335	0.0156754
537.413	0.0157917
537.491	0.0154564
537.569	0.0159267
537.648	0.0158253
537.726	0.0155846
537.804	0.0155163
537.882	0.0154980
537.960	0.0155716
538.038	0.0156353
538.116	0.0159679
538.194	0.0156246
538.273	0.0157772
538.351	0.0152935
538.429	0.0156239
538.507	0.0155033
538.585	0.0157917
538.663	0.0157513
538.741	0.0158340
538.819	0.0157097
538.898	0.0155098
538.976	0.0153091
539.054	0.0154778
539.132	0.0158524
539.210	0.0154724
539.288	0.0156597
539.366	0.0158470
539.444	0.0154743
539.523	0.0157757
539.601	0.0154621
539.679	0.0155376
539.757	0.0155666
539.835	0.0154419
539.913	0.0156288
539.991	0.0154297
540.069	0.0158432
540.148	0.0159893
540.226	0.0156258
540.304	0.0158409
540.382	0.0155296
540.460	0.0153942
540.538	0.0157200
540.616	0.0153545
540.694	0.0154385
540.773	0.0154675
540.851	0.0157894
540.929	0.0155201
541.007	0.0156681
541.085	0.0155186
541.163	0.0157089
541.241	0.0155670
541.319	0.0158081
541.398	0.0157997
541.476	0.0155731
541.554	0.0158127
541.632	0.0156693
541.710	0.0154469
541.788	0.0156219
541.866	0.0156982
541.944	0.0157310
542.023	0.0155819
542.101	0.0157452
542.179	0.0155029
542.257	0.0155846
542.335	0.0155468
542.413	0.0155720
542.491	0.0157822
542.569	0.0156521
542.648	0.0153625
542.726	0.0156349
542.804	0.0157143
542.882	0.0156235
542.960	0.0154037
543.038	0.0153885
543.116	0.0154861
543.194	0.0157150
543.273	0.0154945
543.351	0.0154514
543.429	0.0156662
543.507	0.0157619
543.585	0.0154282
543.663	0.0155033
543.741	0.0156010
543.819	0.0155075
543.898	0.0157639
543.976	0.0155525
544.054	0.0157955
544.132	0.0158997
544.210	0.0157661
544.288	0.0155437
544.366	0.0154987
544.444	0.0159042
544.523	0.0158150
544.601	0.0154312
544.679	0.0157726
544.757	0.0156158
544.835	0.0157631
544.913	0.0155144
544.991	0.0157845
545.069	0.0154827
545.148	0.0156403
545.226	0.0154858
545.304	0.0154564
545.382	0.0157665
545.460	0.0156696
545.538	0.0157925
545.616	0.0157730
545.694	0.0155499
545.773	0.0151791
545.851	0.0155582
545.929	0.0156208
546.007	0.0156937
546.085	0.0157688
546.163	0.0156464
546.241	0.0154915
546.319	0.0156860
546.398	0.0153111
546.476	0.0155170
546.554	0.0157959
546.632	0.0159832
546.710	0.0154732
546.788	0.0158279
546.866	0.0159309
546.944	0.0158024
547.023	0.0156895
547.101	0.0154564
547.179	0.0159069
547.257	0.0157803
547.335	0.0156227
547.413	0.0156574
547.491	0.0155621
547.569	0.0154789
547.648	0.0156326
547.726	0.0160137
547.804	0.0155727
547.882	0.0156349
547.960	0.0156273
548.038	0.0157207
548.116	0.0155266
548.194	0.0155319
548.273	0.0157627
548.351	0.0159046
548.429	0.0158596
548.507	0.0155254
548.585	0.0154564
548.663	0.0158325
548.741	0.0158245
548.819	0.0159798
548.898	0.0159248
548.976	0.0157204
549.054	0.0155243
549.132	0.0154716
549.210	0.0157326
549.288	0.0154125
549.366	0.0157047
549.444	0.0158119
549.523	0.0159119
549.601	0.0156181
549.679	0.0156883
549.757	0.0157417
549.835	0.0158642
549.913	0.0160679
549.991	0.0158546
550.069	0.0155983
550.148	0.0155865
550.226	0.0161015
550.304	0.0153812
550.382	0.0156528
550.460	0.0157070
550.538	0.0154285
550.616	0.0156960
550.694	0.0157871
550.773	0.0158249
550.851	0.0156273
550.929	0.0157673
551.007	0.0157017
551.085	0.0155041
551.163	0.0157894
551.241	0.0156067
551.319	0.0155804
551.398	0.0154034
551.476	0.0159378
551.554	0.0157017
551.632	0.0157280
551.710	0.0158806
551.788	0.0156990
551.866	0.0157063
551.944	0.0155510
552.023	0.0156616
552.101	0.0153618
552.179	0.0159191
552.257	0.0156826
552.335	0.0153275
552.413	0.0156422
552.491	0.0156746
552.569	0.0155739
552.648	0.0157860
552.726	0.0158691
552.804	0.0155724
552.882	0.0156452
552.960	0.0155811
553.038	0.0157810
553.116	0.0158073
553.194	0.0157047
553.273	0.0155041
553.351	0.0156345
553.429	0.0161293
553.507	0.0153324
553.585	0.0155888
553.663	0.0157497
553.741	0.0157280
553.819	0.0157879
553.898	0.0155544
553.976	0.0155796
554.054	0.0156269
554.132	0.0157665
554.210	0.0155506
554.288	0.0156296
554.366	0.0157688
554.444	0.0157051
554.523	0.0158787
554.601	0.0154228
554.679	0.0155823
554.757	0.0155048
554.835	0.0157921
554.913	0.0156517
554.991	0.0153290
555.069	0.0158035
555.148	0.0157722
555.226	0.0158405
555.304	0.0159172
555.382	0.0158241
555.460	0.0158241
555.538	0.0157932
555.616	0.0159454
555.694	0.0157928
555.773	0.0156799
555.851	0.0157055
555.929	0.0157440
556.007	0.0158970
556.085	0.0155415
556.163	0.0156712
556.241	0.0157127
556.319	0.0156101
556.398	0.0156845
556.476	0.0155289
556.554	0.0157345
556.632	0.0157867
556.710	0.0158962
556.788	0.0157066
556.866	0.0157169
556.944	0.0159218
557.023	0.0157898
557.101	0.0156445
557.179	0.0157501
557.257	0.0160728
557.335	0.0159378
557.413	0.0155685
557.491	0.0155994
557.569	0.0155155
557.648	0.0156757
557.726	0.0160206
557.804	0.0156197
557.882	0.0158783
557.960	0.0158863
558.038	0.0154415
558.116	0.0160885
558.194	0.0159950
558.273	0.0157658
558.351	0.0158195
558.429	0.0158642
558.507	0.0157803
558.585	0.0160336
558.663	0.0157043
558.741	0.0156254
558.819	0.0159325
558.898	0.0158939
558.976	0.0157139
559.054	0.0158112
559.132	0.0159313
559.210	0.0156345
559.288	0.0157562
559.366	0.0158169
559.444	0.0155148
559.523	0.0157196
559.601	0.0157116
559.679	0.0155602
559.757	0.0157097
559.835	0.0160389
559.913	0.0158192
559.991	0.0156307
560.069	0.0160839
560.148	0.0158474
560.226	0.0155842
560.304	0.0155270
560.382	0.0157600
560.460	0.0157814
560.538	0.0156982
560.616	0.0155449
560.694	0.0156876
560.773	0.0156525
560.851	0.0154819
560.929	0.0155659
561.007	0.0155407
561.085	0.0157055
561.163	0.0158710
561.241	0.0159992
561.319	0.0158348
561.398	0.0158821
561.476	0.0157150
561.554	0.0158703
561.632	0.0158020
561.710	0.0157139
561.788	0.0156620
561.866	0.0157520
561.944	0.0159763
562.023	0.0158203
562.101	0.0156799
562.179	0.0155918
562.257	0.0157433
562.335	0.0160423
562.413	0.0159004
562.491	0.0157021
562.569	0.0155231
562.648	0.0154579
562.726	0.0157295
562.804	0.0156696
562.882	0.0158798
562.960	0.0158798
563.038	0.0158497
563.116	0.0155365
563.194	0.0157497
563.273	0.0155647
563.351	0.0157990
563.429	0.0159969
563.507	0.0160175
563.585	0.0157040
563.663	0.0156738
563.741	0.0157364
563.819	0.0158466
563.898	0.0157433
563.976	0.0155933
564.054	0.0158688
564.132	0.0155403
564.210	0.0157097
564.288	0.0155834
564.366	0.0157520
564.444	0.0157330
564.523	0.0159863
564.601	0.0160152
564.679	0.0156670
564.757	0.0156929
564.835	0.0158386
564.913	0.0159847
564.991	0.0159695
565.069	0.0156452
565.148	0.0159061
565.226	0.0156296
565.304	0.0158466
565.382	0.0156410
565.460	0.0158272
565.538	0.0159332
565.616	0.0157173
565.694	0.0157772
565.773	0.0157116
565.851	0.0158794
565.929	0.0156273
566.007	0.0158077
566.085	0.0157017
566.163	0.0157173
566.241	0.0154049
566.319	0.0156727
566.398	0.0159149
566.476	0.0161324
566.554	0.0156105
566.632	0.0157650
566.710	0.0161007
566.788	0.0155437
566.866	0.0156239
566.944	0.0158012
567.023	0.0157787
567.101	0.0159916
567.179	0.0160683
567.257	0.0157127
567.335	0.0156475
567.413	0.0157642
567.491	0.0156731
567.569	0.0155746
567.648	0.0157345
567.726	0.0160027
567.804	0.0159382
567.882	0.0157612
567.960	0.0156979
568.038	0.0156048
568.116	0.0156322
568.194	0.0159027
568.273	0.0159420
568.351	0.0159088
568.429	0.0156532
568.507	0.0156872
568.585	0.0155300
568.663	0.0157433
568.741	0.0157909
568.819	0.0157936
568.898	0.0156780
568.976	0.0158207
569.054	0.0159523
569.132	0.0159744
569.210	0.0158237
569.288	0.0155800
569.366	0.0157463
569.444	0.0156994
569.523	0.0156246
569.601	0.0158882
569.679	0.0157669
569.757	0.0159706
569.835	0.0158176
569.913	0.0157593
569.991	0.0155861
570.069	0.0157467
570.148	0.0157661
570.226	0.0158173
570.304	0.0156891
570.382	0.0158241
570.460	0.0159954
570.538	0.0155838
570.616	0.0158680
570.694	0.0158543
570.773	0.0155312
570.851	0.0158730
570.929	0.0160984
571.007	0.0160812
571.085	0.0156631
571.163	0.0152481
571.241	0.0158310
571.319	0.0155582
571.398	0.0156223
571.476	0.0158260
571.554	0.0158257
571.632	0.0156689
571.710	0.0158073
571.788	0.0157219
571.866	0.0157871
571.944	0.0154953
572.023	0.0154064
572.101	0.0156227
572.179	0.0157829
572.257	0.0159546
572.335	0.0154819
572.413	0.0158264
572.491	0.0156651
572.569	0.0156967
572.648	0.0156265
572.726	0.0156109
572.804	0.0158131
572.882	0.0159924
572.960	0.0155312
573.038	0.0154152
573.116	0.0156776
573.194	0.0160759
573.273	0.0158466
573.351	0.0157207
573.429	0.0155979
573.507	0.0155830
573.585	0.0155998
573.663	0.0158657
573.741	0.0157669
573.819	0.0155552
573.898	0.0154587
573.976	0.0158165
574.054	0.0155815
574.132	0.0158455
574.210	0.0156036
574.288	0.0156326
574.366	0.0156986
574.444	0.0153511
574.523	0.0154690
574.601	0.0156506
574.679	0.0160496
574.757	0.0157715
574.835	0.0156540
574.913	0.0156517
574.991	0.0155209
575.069	0.0157787
575.148	0.0156097
575.226	0.0156532
575.304	0.0157009
575.382	0.0154247
575.460	0.0159626
575.538	0.0157574
575.616	0.0157223
575.694	0.0154476
575.773	0.0156448
575.851	0.0156517
575.929	0.0156212
576.007	0.0153061
576.085	0.0158463
576.163	0.0157345
576.241	0.0156567
576.319	0.0156643
576.398	0.0154057
576.476	0.0155918
576.554	0.0155876
576.632	0.0157425
576.710	0.0156254
576.788	0.0155037
576.866	0.0157581
576.944	0.0156078
577.023	0.0158943
577.101	0.0156628
577.179	0.0154701
577.257	0.0154316
577.335	0.0158268
577.413	0.0158031
577.491	0.0155006
577.569	0.0157970
577.648	0.0160706
577.726	0.0152592
577.804	0.0154037
577.882	0.0159294
577.960	0.0157661
578.038	0.0156349
578.116	0.0156960
578.194	0.0159119
578.273	0.0154800
578.351	0.0156261
578.429	0.0155689
578.507	0.0158077
578.585	0.0159782
578.663	0.0157742
578.741	0.0153378
578.819	0.0155865
578.898	0.0159286
578.976	0.0157806
579.054	0.0160271
579.132	0.0158661
579.210	0.0155617
579.288	0.0155491
579.366	0.0157379
579.444	0.0158527
579.523	0.0154850
579.601	0.0158474
579.679	0.0157894
579.757	0.0154209
579.835	0.0155537
579.913	0.0157043
579.991	0.0156918
580.069	0.0158752
580.148	0.0157711
580.226	0.0155151
580.304	0.0160347
580.382	0.0157585
580.460	0.0156258
580.538	0.0153786
580.616	0.0155827
580.694	0.0158699
580.773	0.0157902
580.851	0.0158241
580.929	0.0155392
581.007	0.0157585
581.085	0.0160114
581.163	0.0158085
581.241	0.0158756
581.319	0.0157955
581.398	0.0157780
581.476	0.0158134
581.554	0.0160572
581.632	0.0160164
581.710	0.0157181
581.788	0.0158089
581.866	0.0156071
581.944	0.0157501
582.023	0.0156002
582.101	0.0158726
582.179	0.0160233
582.257	0.0158974
582.335	0.0154488
582.413	0.0157738
582.491	0.0158352
582.569	0.0154236
582.648	0.0156021
582.726	0.0156731
582.804	0.0157143
582.882	0.0156452
582.960	0.0159840
583.038	0.0156387
583.116	0.0160660
583.194	0.0158569
583.273	0.0158329
583.351	0.0156902
583.429	0.0155468
583.507	0.0157887
583.585	0.0159058
583.663	0.0159412
583.741	0.0158241
583.819	0.0155155
583.898	0.0154617
583.976	0.0158318
584.054	0.0157471
584.132	0.0157646
584.210	0.0152534
584.288	0.0156319
584.366	0.0158234
584.444	0.0155876
584.523	0.0155899
584.601	0.0156704
584.679	0.0157894
584.757	0.0156384
584.835	0.0155853
584.913	0.0158215
584.991	0.0158470
585.069	0.0155876
585.148	0.0157116
585.226	0.0155975
585.304	0.0156151
585.382	0.0158363
585.460	0.0158237
585.538	0.0156776
585.616	0.0156071
585.694	0.0154526
585.773	0.0156261
585.851	0.0158859
585.929	0.0157539
586.007	0.0158302
586.085	0.0157005
586.163	0.0155567
586.241	0.0157810
586.319	0.0158070
586.398	0.0156010
586.476	0.0155258
586.554	0.0157063
586.632	0.0157581
586.710	0.0157135
586.788	0.0150532
586.866	0.0159767
586.944	0.0154301
587.023	0.0157310
587.101	0.0157223
587.179	0.0155235
587.257	0.0156883
587.335	0.0158161
587.413	0.0153549
587.491	0.0157421
587.569	0.0156384
587.648	0.0154552
587.726	0.0154392
587.804	0.0155582
587.882	0.0156094
587.960	0.0157284
588.038	0.0157948
588.116	0.0154510
588.194	0.0153816
588.273	0.0158169
588.351	0.0157043
588.429	0.0158257
588.507	0.0157001
588.585	0.0152954
588.663	0.0156395
588.741	0.0155624
588.819	0.0152214
588.898	0.0158539
588.976	0.0155235
589.054	0.0157391
589.132	0.0160175
589.210	0.0153984
589.288	0.0157341
589.366	0.0156113
589.444	0.0155365
589.523	0.0157032
589.601	0.0156780
589.679	0.0155441
589.757	0.0157448
589.835	0.0156944
589.913	0.0159237
589.991	0.0157993
590.069	0.0155560
590.148	0.0156277
590.226	0.0156212
590.304	0.0156685
590.382	0.0155102
590.460	0.0156570
590.538	0.0156834
590.616	0.0155048
590.694	0.0156498
590.773	0.0155281
590.851	0.0156506
590.929	0.0156410
591.007	0.0158550
591.085	0.0157566
591.163	0.0154060
591.241	0.0155346
591.319	0.0158249
591.398	0.0156876
591.476	0.0159122
591.554	0.0156334
591.632	0.0156624
591.710	0.0155155
591.788	0.0156399
591.866	0.0157608
591.944	0.0158226
592.023	0.0159233
592.101	0.0159431
592.179	0.0157623
592.257	0.0155769
592.335	0.0157818
592.413	0.0156082
592.491	0.0158211
592.569	0.0157867
592.648	0.0154369
592.726	0.0153683
592.804	0.0158291
592.882	0.0156189
592.960	0.0156021
593.038	0.0158112
593.116	0.0156422
593.194	0.0154018
593.273	0.0157505
593.351	0.0152901
593.429	0.0156345
593.507	0.0158825
593.585	0.0156559
593.663	0.0156940
593.741	0.0158607
593.819	0.0156258
593.898	0.0157597
593.976	0.0154324
594.054	0.0160656
594.132	0.0156574
594.210	0.0157444
594.288	0.0155201
594.366	0.0158619
594.444	0.0157928
594.523	0.0154087
594.601	0.0157608
594.679	0.0157436
594.757	0.0161377
594.835	0.0156929
594.913	0.0157104
594.991	0.0158962
595.069	0.0157352
595.148	0.0157814
595.226	0.0155251
595.304	0.0158348
595.382	0.0155327
595.460	0.0157665
595.538	0.0159378
595.616	0.0158733
595.694	0.0155888
595.773	0.0153744
595.851	0.0158886
595.929	0.0155212
596.007	0.0152496
596.085	0.0155212
596.163	0.0156811
596.241	0.0156803
596.319	0.0156475
596.398	0.0153343
596.476	0.0152550
596.554	0.0154606
596.632	0.0155270
596.710	0.0157970
596.788	0.0154095
596.866	0.0157433
596.944	0.0158199
597.023	0.0155037
597.101	0.0157082
597.179	0.0157192
597.257	0.0156250
597.335	0.0157394
597.413	0.0154327
597.491	0.0156193
597.569	0.0159008
597.648	0.0157913
597.726	0.0156815
597.804	0.0159550
597.882	0.0156727
597.960	0.0155869
598.038	0.0157291
598.116	0.0156082
598.194	0.0158791
598.273	0.0155785
598.351	0.0156490
598.429	0.0157650
598.507	0.0158394
598.585	0.0158817
598.663	0.0154957
598.741	0.0159222
598.819	0.0157833
598.898	0.0157597
598.976	0.0156460
599.054	0.0156803
599.132	0.0156010
599.210	0.0156666
599.288	0.0159641
599.366	0.0157219
599.444	0.0156563
599.523	0.0159374
599.601	0.0157555
599.679	0.0156101
599.757	0.0159027
599.835	0.0156372
599.913	0.0157856
599.991	0.0151558
600.069	0.0157898
600.148	0.0157265
600.226	0.0158302
600.304	0.0158005
600.382	0.0158932
600.460	0.0153931
600.538	0.0156040
600.616	0.0158314
600.694	0.0156281
600.773	0.0156223
600.851	0.0157154
600.929	0.0157253
601.007	0.0154587
601.085	0.0158012
601.163	0.0156780
601.241	0.0156616
601.319	0.0156158
601.398	0.0157597
601.476	0.0156425
601.554	0.0157566
601.632	0.0156403
601.710	0.0156525
601.788	0.0159500
601.866	0.0159313
601.944	0.0155182
602.023	0.0159096
602.101	0.0156734
602.179	0.0158043
602.257	0.0158707
602.335	0.0157089
602.413	0.0158089
602.491	0.0158722
602.569	0.0156010
602.648	0.0156612
602.726	0.0157124
602.804	0.0153534
602.882	0.0157360
602.960	0.0156914
603.038	0.0158951
603.116	0.0155846
603.194	0.0156967
603.273	0.0157936
603.351	0.0155628
603.429	0.0155064
603.507	0.0153633
603.585	0.0159740
603.663	0.0158894
603.741	0.0158440
603.819	0.0158871
603.898	0.0156647
603.976	0.0157650
604.054	0.0155869
604.132	0.0154663
604.210	0.0154846
604.288	0.0157032
604.366	0.0156662
604.444	0.0155998
604.523	0.0158028
604.601	0.0160351
604.679	0.0156269
604.757	0.0156754
604.835	0.0157276
604.913	0.0155514
604.991	0.0157475
605.069	0.0157082
605.148	0.0158276
605.226	0.0160515
605.304	0.0155746
605.382	0.0156147
605.460	0.0158298
605.538	0.0157841
605.616	0.0157249
605.694	0.0154869
605.773	0.0159813
605.851	0.0157860
605.929	0.0157906
606.007	0.0157608
606.085	0.0156746
606.163	0.0156918
606.241	0.0157646
606.319	0.0156372
606.398	0.0159172
606.476	0.0156189
606.554	0.0155636
606.632	0.0156006
606.710	0.0156906
606.788	0.0159718
606.866	0.0158718
606.944	0.0156773
607.023	0.0158783
607.101	0.0156353
607.179	0.0157242
607.257	0.0156506
607.335	0.0156094
607.413	0.0153824
607.491	0.0155441
607.569	0.0156757
607.648	0.0161152
607.726	0.0155903
607.804	0.0156540
607.882	0.0156521
607.960	0.0159046
608.038	0.0157688
608.116	0.0155804
608.194	0.0155293
608.273	0.0155254
608.351	0.0157722
608.429	0.0155434
608.507	0.0152122
608.585	0.0154648
608.663	0.0154827
608.741	0.0157661
608.819	0.0155769
608.898	0.0154922
608.976	0.0154213
609.054	0.0153584
609.132	0.0155006
609.210	0.0155476
609.288	0.0156895
609.366	0.0157635
609.444	0.0158894
609.523	0.0159710
609.601	0.0160027
609.679	0.0161118
609.757	0.0163593
609.835	0.0159821
609.913	0.0164326
609.991	0.0162472
610.069	0.0162956
610.148	0.0160748
610.226	0.0158966
610.304	0.0161545
610.382	0.0159683
610.460	0.0159916
610.538	0.0161491
610.616	0.0161636
610.694	0.0159641
610.773	0.0156368
610.851	0.0156872
610.929	0.0158691
611.007	0.0159515
611.085	0.0155994
611.163	0.0155384
611.241	0.0154690
611.319	0.0153408
611.398	0.0153866
611.476	0.0153481
611.554	0.0151508
611.632	0.0152065
611.710	0.0155319
611.788	0.0153698
611.866	0.0151680
611.944	0.0159565
612.023	0.0152798
612.101	0.0150688
612.179	0.0153843
612.257	0.0155598
612.335	0.0152283
612.413	0.0154278
612.491	0.0156216
612.569	0.0153816
612.648	0.0154266
612.726	0.0156708
612.804	0.0159180
612.882	0.0156929
612.960	0.0154037
613.038	0.0155056
613.116	0.0158390
613.194	0.0160946
613.273	0.0156948
613.351	0.0156281
613.429	0.0156475
613.507	0.0156166
613.585	0.0157104
613.663	0.0158340
613.741	0.0155960
613.819	0.0158028
613.898	0.0151554
613.976	0.0155430
614.054	0.0156826
614.132	0.0159870
614.210	0.0154835
614.288	0.0154461
614.366	0.0157272
614.444	0.0156445
614.523	0.0158249
614.601	0.0156693
614.679	0.0154892
614.757	0.0155502
614.835	0.0159668
614.913	0.0156250
614.991	0.0156376
615.069	0.0157204
615.148	0.0157547
615.226	0.0157089
615.304	0.0156044
615.382	0.0157772
615.460	0.0157902
615.538	0.0157051
615.616	0.0157902
615.694	0.0155098
615.773	0.0155861
615.851	0.0157974
615.929	0.0157360
616.007	0.0154289
616.085	0.0156204
616.163	0.0157116
616.241	0.0157875
616.319	0.0157459
616.398	0.0157406
616.476	0.0154606
616.554	0.0158108
616.632	0.0154999
616.710	0.0157459
616.788	0.0159672
616.866	0.0159260
616.944	0.0154053
617.023	0.0156021
617.101	0.0158672
617.179	0.0156700
617.257	0.0155464
617.335	0.0153179
617.413	0.0159348
617.491	0.0157928
617.569	0.0155846
617.648	0.0159588
617.726	0.0155483
617.804	0.0157112
617.882	0.0157036
617.960	0.0158241
618.038	0.0155861
618.116	0.0159603
618.194	0.0153297
618.273	0.0154461
618.351	0.0156403
618.429	0.0158340
618.507	0.0155006
618.585	0.0157917
618.663	0.0158127
618.741	0.0155949
618.819	0.0158840
618.898	0.0157902
618.976	0.0156200
619.054	0.0158344
619.132	0.0158298
619.210	0.0151646
619.288	0.0154831
619.366	0.0156940
619.444	0.0156284
619.523	0.0156727
619.601	0.0157757
619.679	0.0155071
619.757	0.0154633
619.835	0.0155636
619.913	0.0157349
619.991	0.0156433
620.069	0.0158188
620.148	0.0158875
620.226	0.0159077
620.304	0.0156544
620.382	0.0157097
620.460	0.0156120
620.538	0.0158386
620.616	0.0158043
620.694	0.0159595
620.773	0.0159481
620.851	0.0158009
620.929	0.0159370
621.007	0.0158386
621.085	0.0155045
621.163	0.0154541
621.241	0.0158562
621.319	0.0156960
621.398	0.0156673
621.476	0.0158665
621.554	0.0156757
621.632	0.0155155
621.710	0.0159031
621.788	0.0157211
621.866	0.0157234
621.944	0.0157391
622.023	0.0154877
622.101	0.0159832
622.179	0.0156738
622.257	0.0156384
622.335	0.0156837
622.413	0.0160721
622.491	0.0152168
622.569	0.0154667
622.648	0.0156330
622.726	0.0157822
622.804	0.0157303
622.882	0.0155968
622.960	0.0153580
623.038	0.0158504
623.116	0.0158154
623.194	0.0157059
623.273	0.0154884
623.351	0.0155872
623.429	0.0155922
623.507	0.0156727
623.585	0.0158390
623.663	0.0159222
623.741	0.0155750
623.819	0.0154953
623.898	0.0157703
623.976	0.0155239
624.054	0.0156826
624.132	0.0156792
624.210	0.0154804
624.288	0.0156048
624.366	0.0158981
624.444	0.0156010
624.523	0.0156254
624.601	0.0156128
624.679	0.0155811
624.757	0.0153923
624.835	0.0156551
624.913	0.0158813
624.991	0.0160080
625.069	0.0156216
625.148	0.0158554
625.226	0.0156097
625.304	0.0157135
625.382	0.0157471
625.460	0.0157646
625.538	0.0158348
625.616	0.0155830
625.694	0.0155495
625.773	0.0157333
625.851	0.0157055
625.929	0.0155109
626.007	0.0155224
626.085	0.0154602
626.163	0.0153740
626.241	0.0155430
626.319	0.0156322
626.398	0.0154705
626.476	0.0155903
626.554	0.0155754
626.632	0.0157204
626.710	0.0157948
626.788	0.0158966
626.866	0.0156471
626.944	0.0156559
627.023	0.0155857
627.101	0.0155205
627.179	0.0159344
627.257	0.0157951
627.335	0.0155651
627.413	0.0158875
627.491	0.0155670
627.569	0.0155849
627.648	0.0156731
627.726	0.0157734
627.804	0.0154545
627.882	0.0153400
627.960	0.0154217
628.038	0.0153770
628.116	0.0155388
628.194	0.0157269
628.273	0.0157852
628.351	0.0154655
628.429	0.0156010
628.507	0.0158123
628.585	0.0157207
628.663	0.0155598
628.741	0.0156887
628.819	0.0157040
628.898	0.0156887
628.976	0.0155243
629.054	0.0158482
629.132	0.0158386
629.210	0.0153900
629.288	0.0155727
629.366	0.0155846
629.444	0.0157715
629.523	0.0155525
629.601	0.0158268
629.679	0.0159725
629.757	0.0157276
629.835	0.0156578
629.913	0.0159664
629.991	0.0156441
630.069	0.0153461
630.148	0.0158787
630.226	0.0157642
630.304	0.0157478
630.382	0.0157627
630.460	0.0159397
630.538	0.0157246
630.616	0.0155556
630.694	0.0155220
630.773	0.0159279
630.851	0.0156204
630.929	0.0155689
631.007	0.0158951
631.085	0.0154633
631.163	0.0155407
631.241	0.0158230
631.319	0.0157654
631.398	0.0157394
631.476	0.0158958
631.554	0.0157593
631.632	0.0157070
631.710	0.0158249
631.788	0.0158127
631.866	0.0154755
631.944	0.0157562
632.023	0.0153522
632.101	0.0155045
632.179	0.0155125
632.257	0.0155869
632.335	0.0153778
632.413	0.0156193
632.491	0.0157444
632.569	0.0157909
632.648	0.0154778
632.726	0.0155060
632.804	0.0156673
632.882	0.0158710
632.960	0.0156700
633.038	0.0157253
633.116	0.0159973
633.194	0.0156746
633.273	0.0156822
633.351	0.0159477
633.429	0.0156799
633.507	0.0157692
633.585	0.0157848
633.663	0.0156433
633.741	0.0154819
633.819	0.0154640
633.898	0.0159538
633.976	0.0160648
634.054	0.0155590
634.132	0.0157562
634.210	0.0159382
634.288	0.0156700
634.366	0.0157471
634.444	0.0158607
634.523	0.0157284
634.601	0.0157913
634.679	0.0152615
634.757	0.0155071
634.835	0.0157692
634.913	0.0157764
634.991	0.0161110
635.069	0.0157436
635.148	0.0157658
635.226	0.0157635
635.304	0.0160316
635.382	0.0157597
635.460	0.0158169
635.538	0.0157059
635.616	0.0156467
635.694	0.0158482
635.773	0.0158710
635.851	0.0157360
635.929	0.0160271
636.007	0.0156918
636.085	0.0156826
636.163	0.0160130
636.241	0.0157131
636.319	0.0157608
636.398	0.0156242
636.476	0.0157539
636.554	0.0154705
636.632	0.0158497
636.710	0.0158413
636.788	0.0156475
636.866	0.0157391
636.944	0.0155945
637.023	0.0153427
637.101	0.0159313
637.179	0.0157059
637.257	0.0159039
637.335	0.0156216
637.413	0.0156124
637.491	0.0157959
637.569	0.0161377
637.648	0.0158432
637.726	0.0156715
637.804	0.0158054
637.882	0.0157948
637.960	0.0158031
638.038	0.0160484
638.116	0.0155891
638.194	0.0155575
638.273	0.0158760
638.351	0.0157707
638.429	0.0157234
638.507	0.0159779
638.585	0.0157051
638.663	0.0157356
638.741	0.0160011
638.819	0.0157024
638.898	0.0155575
638.976	0.0157410
639.054	0.0156929
639.132	0.0157867
639.210	0.0158100
639.288	0.0159142
639.366	0.0156513
639.444	0.0155670
639.523	0.0156429
639.601	0.0159817
639.679	0.0159927
639.757	0.0159149
639.835	0.0157082
639.913	0.0156467
639.991	0.0155960
640.069	0.0156380
640.148	0.0157032
640.226	0.0157593
640.304	0.0157536
640.382	0.0155697
640.460	0.0156143
640.538	0.0154682
640.616	0.0157215
640.694	0.0156445
640.773	0.0158737
640.851	0.0156998
640.929	0.0154602
641.007	0.0156658
641.085	0.0158062
641.163	0.0154285
641.241	0.0158623
641.319	0.0155602
641.398	0.0158859
641.476	0.0160385
641.554	0.0158501
641.632	0.0155262
641.710	0.0156502
641.788	0.0156834
641.866	0.0159676
641.944	0.0157696
642.023	0.0158020
642.101	0.0153854
642.179	0.0155857
642.257	0.0158466
642.335	0.0156506
642.413	0.0156834
642.491	0.0155254
642.569	0.0156796
642.648	0.0157860
642.726	0.0154552
642.804	0.0157898
642.882	0.0153111
642.960	0.0155430
643.038	0.0156792
643.116	0.0157780
643.194	0.0159561
643.273	0.0156769
643.351	0.0158619
643.429	0.0156200
643.507	0.0157677
643.585	0.0156437
643.663	0.0154438
643.741	0.0157280
643.819	0.0155663
643.898	0.0159317
643.976	0.0157642
644.054	0.0153648
644.132	0.0155190
644.210	0.0156288
644.288	0.0155174
644.366	0.0157001
644.444	0.0156757
644.523	0.0154255
644.601	0.0153721
644.679	0.0158989
644.757	0.0158337
644.835	0.0154297
644.913	0.0157177
644.991	0.0158051
645.069	0.0158520
645.148	0.0157246
645.226	0.0155926
645.304	0.0157139
645.382	0.0157108
645.460	0.0156666
645.538	0.0156773
645.616	0.0157661
645.694	0.0158432
645.773	0.0157513
645.851	0.0157215
645.929	0.0157558
646.007	0.0156803
646.085	0.0157341
646.163	0.0155994
646.241	0.0156284
646.319	0.0152630
646.398	0.0155441
646.476	0.0155857
646.554	0.0155529
646.632	0.0153828
646.710	0.0158020
646.788	0.0159599
646.866	0.0157475
646.944	0.0158581
647.023	0.0157776
647.101	0.0158642
647.179	0.0157986
647.257	0.0157120
647.335	0.0156811
647.413	0.0159931
647.491	0.0156101
647.569	0.0155579
647.648	0.0158649
647.726	0.0157578
647.804	0.0159458
647.882	0.0156956
647.960	0.0155048
648.038	0.0158489
648.116	0.0158012
648.194	0.0161549
648.273	0.0155643
648.351	0.0157921
648.429	0.0156986
648.507	0.0156048
648.585	0.0159496
648.663	0.0157925
648.741	0.0154385
648.819	0.0155598
648.898	0.0155155
648.976	0.0158913
649.054	0.0155800
649.132	0.0158691
649.210	0.0155949
649.288	0.0158115
649.366	0.0157642
649.444	0.0157654
649.523	0.0156223
649.601	0.0155312
649.679	0.0157551
649.757	0.0158268
649.835	0.0157845
649.913	0.0155098
649.991	0.0158569
650.069	0.0157322
650.148	0.0157654
650.226	0.0157269
650.304	0.0156170
650.382	0.0157284
650.460	0.0154202
650.538	0.0155262
650.616	0.0157104
650.694	0.0155151
650.773	0.0158131
650.851	0.0156982
650.929	0.0157806
651.007	0.0158810
651.085	0.0156693
651.163	0.0162315
651.241	0.0160595
651.319	0.0156219
651.398	0.0155674
651.476	0.0156887
651.554	0.0156467
651.632	0.0157448
651.710	0.0157169
651.788	0.0158783
651.866	0.0160183
651.944	0.0159920
652.023	0.0157627
652.101	0.0155918
652.179	0.0157429
652.257	0.0156658
652.335	0.0158508
652.413	0.0154045
652.491	0.0158394
652.569	0.0159508
652.648	0.0156322
652.726	0.0157124
652.804	0.0156677
652.882	0.0156544
652.960	0.0158867
653.038	0.0154724
653.116	0.0158009
653.194	0.0158962
653.273	0.0155727
653.351	0.0157742
653.429	0.0159199
653.507	0.0157494
653.585	0.0155918
653.663	0.0155769
653.741	0.0155926
653.819	0.0160751
653.898	0.0158066
653.976	0.0158070
654.054	0.0158073
654.132	0.0158653
654.210	0.0156334
654.288	0.0154881
654.366	0.0158138
654.444	0.0158409
654.523	0.0158852
654.601	0.0157204
654.679	0.0155106
654.757	0.0157951
654.835	0.0158409
654.913	0.0157597
654.991	0.0156063
655.069	0.0156590
655.148	0.0157139
655.226	0.0156937
655.304	0.0157963
655.382	0.0160572
655.460	0.0155010
655.538	0.0155277
655.616	0.0156986
655.694	0.0155037
655.773	0.0161053
655.851	0.0159981
655.929	0.0155331
656.007	0.0159531
656.085	0.0155746
656.163	0.0157764
656.241	0.0159798
656.319	0.0155609
656.398	0.0153358
656.476	0.0155098
656.554	0.0158134
656.632	0.0159309
656.710	0.0160954
656.788	0.0157459
656.866	0.0156136
656.944	0.0156811
657.023	0.0159405
657.101	0.0156158
657.179	0.0154957
657.257	0.0155670
657.335	0.0160748
657.413	0.0156998
657.491	0.0154778
657.569	0.0158279
657.648	0.0156345
657.726	0.0156494
657.804	0.0156746
657.882	0.0157566
657.960	0.0158741
658.038	0.0157909
658.116	0.0157200
658.194	0.0158699
658.273	0.0158024
658.351	0.0157112
658.429	0.0157909
658.507	0.0157913
658.585	0.0156799
658.663	0.0158520
658.741	0.0158527
658.819	0.0157425
658.898	0.0157936
658.976	0.0154335
659.054	0.0159431
659.132	0.0157818
659.210	0.0157749
659.288	0.0155926
659.366	0.0156403
659.444	0.0156754
659.523	0.0158855
659.601	0.0160675
659.679	0.0158180
659.757	0.0159706
659.835	0.0159294
659.913	0.0161892
659.991	0.0160198
660.069	0.0156322
660.148	0.0157734
660.226	0.0156799
660.304	0.0157387
660.382	0.0158672
660.460	0.0159428
660.538	0.0157139
660.616	0.0160007
660.694	0.0158054
660.773	0.0159954
660.851	0.0157066
660.929	0.0157070
661.007	0.0159203
661.085	0.0160175
661.163	0.0159447
661.241	0.0155994
661.319	0.0157040
661.398	0.0158714
661.476	0.0156319
661.554	0.0154289
661.632	0.0156273
661.710	0.0158585
661.788	0.0154404
661.866	0.0159088
661.944	0.0157589
662.023	0.0152031
662.101	0.0158329
662.179	0.0156967
662.257	0.0160648
662.335	0.0156330
662.413	0.0154915
662.491	0.0155884
662.569	0.0155727
662.648	0.0154903
662.726	0.0155941
662.804	0.0157299
662.882	0.0156185
662.960	0.0157768
663.038	0.0157600
663.116	0.0156162
663.194	0.0159172
663.273	0.0159451
663.351	0.0155354
663.429	0.0157429
663.507	0.0154484
663.585	0.0155697
663.663	0.0157169
663.741	0.0153893
663.819	0.0157295
663.898	0.0157387
663.976	0.0157494
664.054	0.0158348
664.132	0.0155937
664.210	0.0158642
664.288	0.0155518
664.366	0.0156582
664.444	0.0158115
664.523	0.0156143
664.601	0.0158394
664.679	0.0155235
664.757	0.0157459
664.835	0.0156750
664.913	0.0156223
664.991	0.0156357
665.069	0.0157978
665.148	0.0156765
665.226	0.0158009
665.304	0.0156132
665.382	0.0157619
665.460	0.0156445
665.538	0.0156670
665.616	0.0156921
665.694	0.0156387
665.773	0.0157761
665.851	0.0155354
665.929	0.0155373
666.007	0.0155579
666.085	0.0158100
666.163	0.0158077
666.241	0.0155270
666.319	0.0156639
666.398	0.0155701
666.476	0.0154633
666.554	0.0160244
666.632	0.0158234
666.710	0.0158314
666.788	0.0157883
666.866	0.0158054
666.944	0.0155258
667.023	0.0159615
667.101	0.0159424
667.179	0.0158581
667.257	0.0160107
667.335	0.0156509
667.413	0.0157520
667.491	0.0157356
667.569	0.0158722
667.648	0.0157085
667.726	0.0156803
667.804	0.0159573
667.882	0.0158623
667.960	0.0157581
668.038	0.0157627
668.116	0.0157547
668.194	0.0153587
668.273	0.0157963
668.351	0.0158657
668.429	0.0157597
668.507	0.0154713
668.585	0.0157867
668.663	0.0157135
668.741	0.0156418
668.819	0.0155636
668.898	0.0162365
668.976	0.0158733
669.054	0.0157349
669.132	0.0159737
669.210	0.0160725
669.288	0.0157059
669.366	0.0158226
669.444	0.0158180
669.523	0.0157597
669.601	0.0157734
669.679	0.0156982
669.757	0.0157707
669.835	0.0157650
669.913	0.0156330
669.991	0.0161663
670.069	0.0161415
670.148	0.0159607
670.226	0.0158302
670.304	0.0155247
670.382	0.0158474
670.460	0.0160328
670.538	0.0156765
670.616	0.0157852
670.694	0.0160007
670.773	0.0157135
670.851	0.0160763
670.929	0.0158058
671.007	0.0157017
671.085	0.0160576
671.163	0.0158970
671.241	0.0159580
671.319	0.0158337
671.398	0.0158077
671.476	0.0157970
671.554	0.0157326
671.632	0.0158779
671.710	0.0155594
671.788	0.0159504
671.866	0.0158092
671.944	0.0156654
672.023	0.0159664
672.101	0.0157707
672.179	0.0158726
672.257	0.0158421
672.335	0.0160175
672.413	0.0158215
672.491	0.0157646
672.569	0.0160496
672.648	0.0157349
672.726	0.0160255
672.804	0.0156780
672.882	0.0156998
672.960	0.0157467
673.038	0.0159721
673.116	0.0156689
673.194	0.0157421
673.273	0.0159233
673.351	0.0158058
673.429	0.0160152
673.507	0.0157990
673.585	0.0157204
673.663	0.0159061
673.741	0.0160862
673.819	0.0158501
673.898	0.0159538
673.976	0.0157230
674.054	0.0155815
674.132	0.0158138
674.210	0.0157825
674.288	0.0155350
674.366	0.0157127
674.444	0.0154457
674.523	0.0157711
674.601	0.0157417
674.679	0.0157452
674.757	0.0157150
674.835	0.0160599
674.913	0.0158787
674.991	0.0158028
675.069	0.0158432
675.148	0.0154659
675.226	0.0156704
675.304	0.0156853
675.382	0.0156605
675.460	0.0153275
675.538	0.0156040
675.616	0.0154266
675.694	0.0152023
675.773	0.0156372
675.851	0.0157276
675.929	0.0154514
676.007	0.0157265
676.085	0.0159676
676.163	0.0153015
676.241	0.0156517
676.319	0.0156013
676.398	0.0156666
676.476	0.0155735
676.554	0.0153748
676.632	0.0154003
676.710	0.0155251
676.788	0.0154865
676.866	0.0155701
676.944	0.0155346
677.023	0.0158516
677.101	0.0154373
677.179	0.0154060
677.257	0.0157230
677.335	0.0158810
677.413	0.0156521
677.491	0.0155224
677.569	0.0156841
677.648	0.0157024
677.726	0.0159672
677.804	0.0156822
677.882	0.0157116
677.960	0.0160313
678.038	0.0158150
678.116	0.0159397
678.194	0.0155445
678.273	0.0157413
678.351	0.0158001
678.429	0.0157433
678.507	0.0154995
678.585	0.0155899
678.663	0.0154797
678.741	0.0152905
678.819	0.0154068
678.898	0.0156384
678.976	0.0156422
679.054	0.0153564
679.132	0.0153393
679.210	0.0153477
679.288	0.0153168
679.366	0.0154755
679.444	0.0153690
679.523	0.0153622
679.601	0.0152351
679.679	0.0151951
679.757	0.0152878
679.835	0.0152462
679.913	0.0153294
679.991	0.0151604
680.069	0.0155357
680.148	0.0154766
680.226	0.0154362
680.304	0.0150898
680.382	0.0150631
680.460	0.0152294
680.538	0.0153061
680.616	0.0151501
680.694	0.0154736
680.773	0.0155193
680.851	0.0152592
680.929	0.0150318
681.007	0.0154545
681.085	0.0152878
681.163	0.0154514
681.241	0.0153046
681.319	0.0148476
681.398	0.0148750
681.476	0.0150028
681.554	0.0152599
681.632	0.0148918
681.710	0.0150982
681.788	0.0146805
681.866	0.0148258
681.944	0.0150028
682.023	0.0148624
682.101	0.0147770
682.179	0.0143261
682.257	0.0149677
682.335	0.0147419
682.413	0.0144955
682.491	0.0148975
682.569	0.0143951
682.648	0.0143894
682.726	0.0146835
682.804	0.0147366
682.882	0.0150097
682.960	0.0147194
683.038	0.0141750
683.116	0.0146221
683.194	0.0147736
683.273	0.0142353
683.351	0.0146793
683.429	0.0144363
683.507	0.0142269
683.585	0.0148499
683.663	0.0143650
683.741	0.0139885
683.819	0.0144993
683.898	0.0146935
683.976	0.0141926
684.054	0.0142479
684.132	0.0142952
684.210	0.0142681
684.288	0.0141460
684.366	0.0139473
684.444	0.0142059
684.523	0.0139919
684.601	0.0140312
684.679	0.0136425
684.757	0.0141502
684.835	0.0139740
684.913	0.0133522
684.991	0.0133133
685.069	0.0135658
685.148	0.0133053
685.226	0.0129963
685.304	0.0131443
685.382	0.0129341
685.460	0.0128277
685.538	0.0128284
685.616	0.0126438
685.694	0.0123631
685.773	0.0122818
685.851	0.0118786
685.929	0.0114246
686.007	0.0116005
686.085	0.0112331
686.163	0.0109474
686.241	0.0106998
686.319	0.0104961
686.398	0.0101444
686.476	0.00976372
686.554	0.00939674
686.632	0.00900383
686.710	0.00902596
686.788	0.00853043
686.866	0.00755157
686.944	0.00738678
687.023	0.00717926
687.101	0.00672836
687.179	0.00628014
687.257	0.00573311
687.335	0.00524979
687.413	0.00506134
687.491	0.00470390
687.569	0.00414085
687.648	0.00380325
687.726	0.00306282
687.804	0.00284081
687.882	0.00276260
687.960	0.00308380
688.038	0.00324783
688.116	0.00416527
688.194	0.00600700
688.273	0.00885468
688.351	0.0134174
688.429	0.0191845
688.507	0.0265518
688.585	0.0348850
688.663	0.0443619
688.741	0.0546574
688.819	0.0656868
688.898	0.0760612
688.976	0.0862999
689.054	0.0955341
689.132	0.103344
689.210	0.109495
689.288	0.114121
689.366	0.116110
689.444	0.116852
689.523	0.114351
689.601	0.110708
689.679	0.105033
689.757	0.0971710
689.835	0.0881458
689.913	0.0777706
689.991	0.0663204
690.069	0.0544106
690.148	0.0423355
690.226	0.0291927
690.304	0.0167141
690.382	0.00443039
690.460	-0.00772095
690.538	-0.0190983
690.616	-0.0293888
690.694	-0.0383587
690.773	-0.0458969
690.851	-0.0521572
690.929	-0.0562771
691.007	-0.0585255
691.085	-0.0592922
691.163	-0.0588959
691.241	-0.0564606
691.319	-0.0529465
691.398	-0.0482483
691.476	-0.0430744
691.554	-0.0371082
691.632	-0.0311153
691.710	-0.0251850
691.788	-0.0191891
691.866	-0.0139263
691.944	-0.00876045
692.023	-0.00467491
692.101	-0.000717163
692.179	0.00262375
692.257	0.00512924
692.335	0.00722198
692.413	0.00856743
692.491	0.00966415
692.569	0.0103931
692.648	0.0103127
692.726	0.0106003
692.804	0.0101181
692.882	0.00940971
692.960	0.00909195
693.038	0.00856628
693.116	0.00815430
693.194	0.00750656
693.273	0.00694580
693.351	0.00705643
693.429	0.00724831
693.507	0.00696106
693.585	0.00713043
693.663	0.00764771
693.741	0.00834389
693.819	0.00880089
693.898	0.00981636
693.976	0.0110840
694.054	0.0120819
694.132	0.0133884
694.210	0.0139709
694.288	0.0150028
694.366	0.0150486
694.444	0.0155285
694.523	0.0155453
694.601	0.0161247
694.679	0.0160088
694.757	0.0157890
694.835	0.0156105
694.913	0.0155643
694.991	0.0151833
695.069	0.0145912
695.148	0.0145061
695.226	0.0141247
695.304	0.0135414
695.382	0.0135059
695.460	0.0133099
695.538	0.0131702
695.616	0.0133999
695.694	0.0132801
695.773	0.0130615
695.851	0.0132324
695.929	0.0132191
696.007	0.0133823
696.085	0.0139641
696.163	0.0144493
696.241	0.0150581
696.319	0.0155777
696.398	0.0164253
696.476	0.0169159
696.554	0.0174484
696.632	0.0183479
696.710	0.0190048
696.788	0.0194637
696.866	0.0204384
696.944	0.0213146
697.023	0.0221424
697.101	0.0230663
697.179	0.0235916
697.257	0.0242405
697.335	0.0249619
697.413	0.0252956
697.491	0.0255909
697.569	0.0261837
697.648	0.0260979
697.726	0.0255299
697.804	0.0257267
697.882	0.0251087
697.960	0.0248138
698.038	0.0240112
698.116	0.0233692
698.194	0.0225010
698.273	0.0221371
698.351	0.0212990
698.429	0.0200954
698.507	0.0200466
698.585	0.0193947
698.663	0.0189507
698.741	0.0183712
698.819	0.0183086
698.898	0.0182442
698.976	0.0180561
699.054	0.0183556
699.132	0.0184345
699.210	0.0187569
699.288	0.0190277
699.366	0.0193439
699.444	0.0198971
699.523	0.0201195
699.601	0.0203899
699.679	0.0205460
699.757	0.0208927
699.835	0.0213520
699.913	0.0216137
699.991	0.0216553
700.069	0.0215549
700.148	0.0211864
700.226	0.0212223
700.304	0.0209015
700.382	0.0204617
700.460	0.0198494
700.538	0.0194061
700.616	0.0186283
700.694	0.0178547
700.773	0.0173775
700.851	0.0168030
700.929	0.0163406
701.007	0.0153389
701.085	0.0145596
701.163	0.0141296
701.241	0.0137718
701.319	0.0130436
701.398	0.0129345
701.476	0.0127186
701.554	0.0122356
701.632	0.0121994
701.710	0.0119884
701.788	0.0120735
701.866	0.0122349
701.944	0.0125595
702.023	0.0126797
702.101	0.0130699
702.179	0.0132977
702.257	0.0135777
702.335	0.0139320
702.413	0.0141224
702.491	0.0146320
702.569	0.0151299
702.648	0.0152275
702.726	0.0154007
702.804	0.0156322
702.882	0.0160397
702.960	0.0162125
703.038	0.0162006
703.116	0.0159470
703.194	0.0158554
703.273	0.0155258
703.351	0.0153439
703.429	0.0150276
703.507	0.0147274
703.585	0.0145233
703.663	0.0144993
703.741	0.0146481
703.819	0.0142517
703.898	0.0140923
703.976	0.0140400
704.054	0.0144070
704.132	0.0141899
704.210	0.0141441
704.288	0.0141296
704.366	0.0141079
704.444	0.0143566
704.523	0.0148331
704.601	0.0149803
704.679	0.0150688
704.757	0.0150871
704.835	0.0148544
704.913	0.0150555
704.991	0.0148838
705.069	0.0146618
705.148	0.0150581
705.226	0.0153717
705.304	0.0148239
705.382	0.0149155
705.460	0.0152023
705.538	0.0150623
705.616	0.0149082
705.694	0.0154083
705.773	0.0157154
705.851	0.0155613
705.929	0.0159405
706.007	0.0160683
706.085	0.0157639
706.163	0.0163338
706.241	0.0168884
706.319	0.0167248
706.398	0.0169476
706.476	0.0172073
706.554	0.0169529
706.632	0.0170334
706.710	0.0169830
706.788	0.0168972
706.866	0.0168373
706.944	0.0169220
707.023	0.0168964
707.101	0.0170639
707.179	0.0168297
707.257	0.0165874
707.335	0.0164722
707.413	0.0165203
707.491	0.0163490
707.569	0.0162392
707.648	0.0163265
707.726	0.0160465
707.804	0.0164284
707.882	0.0166397
707.960	0.0169018
708.038	0.0163967
708.116	0.0166843
708.194	0.0168724
708.273	0.0165119
708.351	0.0167492
708.429	0.0168446
708.507	0.0163502
708.585	0.0162060
708.663	0.0156963
708.741	0.0153515
708.819	0.0151833
708.898	0.0147720
708.976	0.0144001
709.054	0.0145073
709.132	0.0143303
709.210	0.0142010
709.288	0.0138546
709.366	0.0140102
709.444	0.0144745
709.523	0.0145042
709.601	0.0145897
709.679	0.0148163
709.757	0.0150211
709.835	0.0152588
709.913	0.0155308
709.991	0.0162323
710.069	0.0162136
710.148	0.0164112
710.226	0.0160404
710.304	0.0161827
710.382	0.0165718
710.460	0.0166168
710.538	0.0167000
710.616	0.0168308
710.694	0.0169628
710.773	0.0171223
710.851	0.0172153
710.929	0.0172764
711.007	0.0172493
711.085	0.0173031
711.163	0.0175461
711.241	0.0175034
711.319	0.0172165
711.398	0.0174889
711.476	0.0174179
711.554	0.0174984
711.632	0.0176853
711.710	0.0177216
711.788	0.0181133
711.866	0.0178368
711.944	0.0182114
712.023	0.0181248
712.101	0.0180496
712.179	0.0182999
712.257	0.0183357
712.335	0.0181812
712.413	0.0182129
712.491	0.0184063
712.569	0.0181641
712.648	0.0181637
712.726	0.0181633
712.804	0.0178219
712.882	0.0179928
712.960	0.0175545
713.038	0.0177776
713.116	0.0176086
713.194	0.0175484
713.273	0.0176941
713.351	0.0170403
713.429	0.0171329
713.507	0.0169319
713.585	0.0168491
713.663	0.0167110
713.741	0.0162365
713.819	0.0157803
713.898	0.0148865
713.976	0.0147240
714.054	0.0146717
714.132	0.0142620
714.210	0.0132168
714.288	0.0129738
714.366	0.0126850
714.444	0.0122490
714.523	0.0120323
714.601	0.0123024
714.679	0.0119492
714.757	0.0121124
714.835	0.0117462
714.913	0.0119331
714.991	0.0119537
715.069	0.0121323
715.148	0.0125736
715.226	0.0124645
715.304	0.0121456
715.382	0.0128307
715.460	0.0130924
715.538	0.0127911
715.616	0.0130901
715.694	0.0130108
715.773	0.0134003
715.851	0.0137062
715.929	0.0134666
716.007	0.0138557
716.085	0.0139477
716.163	0.0138744
716.241	0.0143673
716.319	0.0139477
716.398	0.0143101
716.476	0.0147720
716.554	0.0145252
716.632	0.0147476
716.710	0.0146420
716.788	0.0148792
716.866	0.0149296
716.944	0.0150890
717.023	0.0150211
717.101	0.0151550
717.179	0.0151852
717.257	0.0154205
717.335	0.0152481
717.413	0.0151257
717.491	0.0153107
717.569	0.0154984
717.648	0.0152546
717.726	0.0151314
717.804	0.0150425
717.882	0.0150154
717.960	0.0152325
718.038	0.0152122
718.116	0.0153908
718.194	0.0154034
718.273	0.0155396
718.351	0.0156677
718.429	0.0155899
718.507	0.0158432
718.585	0.0158451
718.663	0.0157509
718.741	0.0164124
718.819	0.0164677
718.898	0.0166328
718.976	0.0167389
719.054	0.0166027
719.132	0.0168316
719.210	0.0168034
719.288	0.0166798
719.366	0.0167046
719.444	0.0162895
719.523	0.0163700
719.601	0.0163723
719.679	0.0162525
719.757	0.0158688
719.835	0.0158573
719.913	0.0161495
719.991	0.0162689
720.069	0.0160973
720.148	0.0157825
720.226	0.0162529
720.304	0.0160786
720.382	0.0159714
720.460	0.0158089
720.538	0.0156532
720.616	0.0156933
720.694	0.0153271
720.773	0.0152725
720.851	0.0153156
720.929	0.0152195
721.007	0.0155132
721.085	0.0149487
721.163	0.0150692
721.241	0.0149052
721.319	0.0147823
721.398	0.0143410
721.476	0.0146812
721.554	0.0146774
721.632	0.0145576
721.710	0.0140263
721.788	0.0142818
721.866	0.0146305
721.944	0.0143913
722.023	0.0144077
722.101	0.0143265
722.179	0.0144505
722.257	0.0146461
722.335	0.0141838
722.413	0.0142323
722.491	0.0139904
722.569	0.0138287
722.648	0.0136616
722.726	0.0138298
722.804	0.0137276
722.882	0.0135746
722.960	0.0133541
723.038	0.0133060
723.116	0.0132900
723.194	0.0133186
723.273	0.0130066
723.351	0.0128922
723.429	0.0129814
723.507	0.0131245
723.585	0.0130177
723.663	0.0134224
723.741	0.0134716
723.819	0.0136173
723.898	0.0141106
723.976	0.0143547
724.054	0.0148335
724.132	0.0149868
724.210	0.0154072
724.288	0.0159840
724.366	0.0158577
724.444	0.0165714
724.523	0.0163406
724.601	0.0165928
724.679	0.0167572
724.757	0.0167694
724.835	0.0165489
724.913	0.0168228
724.991	0.0166241
725.069	0.0164597
725.148	0.0163570
725.226	0.0164894
725.304	0.0165123
725.382	0.0165249
725.460	0.0165005
725.538	0.0167927
725.616	0.0165405
725.694	0.0169125
725.773	0.0165867
725.851	0.0168175
725.929	0.0163895
726.007	0.0167553
726.085	0.0168983
726.163	0.0166420
726.241	0.0166302
726.319	0.0164116
726.398	0.0167221
726.476	0.0165779
726.554	0.0163326
726.632	0.0163933
726.710	0.0164024
726.788	0.0167770
726.866	0.0164627
726.944	0.0163635
727.023	0.0168049
727.101	0.0163544
727.179	0.0163010
727.257	0.0165432
727.335	0.0163216
727.413	0.0164963
727.491	0.0165234
727.569	0.0167358
727.648	0.0164780
727.726	0.0168064
727.804	0.0167568
727.882	0.0165836
727.960	0.0168610
728.038	0.0170933
728.116	0.0171440
728.194	0.0170326
728.273	0.0170036
728.351	0.0170918
728.429	0.0170254
728.507	0.0170296
728.585	0.0168121
728.663	0.0169949
728.741	0.0169228
728.819	0.0163994
728.898	0.0166195
728.976	0.0167397
729.054	0.0165176
729.132	0.0166668
729.210	0.0167473
729.288	0.0167904
729.366	0.0170670
729.444	0.0171169
729.523	0.0172634
729.601	0.0171616
729.679	0.0168957
729.757	0.0170006
729.835	0.0170925
729.913	0.0169434
729.991	0.0168320
730.069	0.0168571
730.148	0.0164379
730.226	0.0165173
730.304	0.0162830
730.382	0.0159023
730.460	0.0158195
730.538	0.0160027
730.616	0.0160236
730.694	0.0159611
730.773	0.0157341
730.851	0.0160591
730.929	0.0159325
731.007	0.0158379
731.085	0.0159386
731.163	0.0160854
731.241	0.0155781
731.319	0.0154228
731.398	0.0160095
731.476	0.0159893
731.554	0.0158195
731.632	0.0155556
731.710	0.0153900
731.788	0.0153557
731.866	0.0152210
731.944	0.0155930
732.023	0.0150387
732.101	0.0153698
732.179	0.0153271
732.257	0.0153755
732.335	0.0153908
732.413	0.0153984
732.491	0.0153053
732.569	0.0151886
732.648	0.0152084
732.726	0.0155949
732.804	0.0156532
732.882	0.0153412
732.960	0.0155712
733.038	0.0158562
733.116	0.0158234
733.194	0.0159489
733.273	0.0158985
733.351	0.0163811
733.429	0.0159328
733.507	0.0161724
733.585	0.0159588
733.663	0.0159218
733.741	0.0161575
733.819	0.0162018
733.898	0.0160366
733.976	0.0161411
734.054	0.0162621
734.132	0.0158680
734.210	0.0157505
734.288	0.0158577
734.366	0.0154305
734.444	0.0157761
734.523	0.0157692
734.601	0.0154831
734.679	0.0157681
734.757	0.0156769
734.835	0.0154602
734.913	0.0154331
734.991	0.0154819
735.069	0.0154015
735.148	0.0156075
735.226	0.0157135
735.304	0.0156284
735.382	0.0156460
735.460	0.0155540
735.538	0.0151554
735.616	0.0151752
735.694	0.0150726
735.773	0.0149395
735.851	0.0149124
735.929	0.0150887
736.007	0.0148846
736.085	0.0148487
736.163	0.0147903
736.241	0.0146900
736.319	0.0148956
736.398	0.0145653
736.476	0.0147675
736.554	0.0151798
736.632	0.0152695
736.710	0.0149979
736.788	0.0154388
736.866	0.0152718
736.944	0.0156017
737.023	0.0157429
737.101	0.0153671
737.179	0.0152786
737.257	0.0156017
737.335	0.0157009
737.413	0.0159149
737.491	0.0159149
737.569	0.0158672
737.648	0.0161560
737.726	0.0163715
737.804	0.0161995
737.882	0.0162422
737.960	0.0168072
738.038	0.0168926
738.116	0.0165340
738.194	0.0170841
738.273	0.0171570
738.351	0.0173126
738.429	0.0171532
738.507	0.0178772
738.585	0.0179813
738.663	0.0179581
738.741	0.0182541
738.819	0.0183514
738.898	0.0182980
738.976	0.0182068
739.054	0.0186138
739.132	0.0184528
739.210	0.0182213
739.288	0.0181282
739.366	0.0177834
739.444	0.0174751
739.523	0.0171173
739.601	0.0166309
739.679	0.0161190
739.757	0.0157791
739.835	0.0147327
739.913	0.0143867
739.991	0.0140213
740.069	0.0137981
740.148	0.0134502
740.226	0.0130886
740.304	0.0127453
740.382	0.0124435
740.460	0.0124256
740.538	0.0123966
740.616	0.0121136
740.694	0.0123325
740.773	0.0124104
740.851	0.0124451
740.929	0.0124168
741.007	0.0125351
741.085	0.0129116
741.163	0.0132107
741.241	0.0133366
741.319	0.0138882
741.398	0.0139915
741.476	0.0143585
741.554	0.0145603
741.632	0.0150738
741.710	0.0153210
741.788	0.0158226
741.866	0.0160309
741.944	0.0162453
742.023	0.0165443
742.101	0.0166203
742.179	0.0164993
742.257	0.0166389
742.335	0.0167286
742.413	0.0168941
742.491	0.0166389
742.569	0.0164360
742.648	0.0162312
742.726	0.0162849
742.804	0.0164860
742.882	0.0158894
742.960	0.0159622
743.038	0.0156540
743.116	0.0158310
743.194	0.0156845
743.273	0.0155926
743.351	0.0155315
743.429	0.0151833
743.507	0.0154984
743.585	0.0154636
743.663	0.0153950
743.741	0.0154739
743.819	0.0155437
743.898	0.0154140
743.976	0.0153877
744.054	0.0152786
744.132	0.0154884
744.210	0.0157364
744.288	0.0154285
744.366	0.0153130
744.444	0.0157249
744.523	0.0157360
744.601	0.0154804
744.679	0.0151672
744.757	0.0155968
744.835	0.0154911
744.913	0.0157692
744.991	0.0158298
745.069	0.0160007
745.148	0.0159252
745.226	0.0160664
745.304	0.0159546
745.382	0.0164356
745.460	0.0166885
745.538	0.0167118
745.616	0.0170311
745.694	0.0167938
745.773	0.0170853
745.851	0.0167179
745.929	0.0168156
746.007	0.0169968
746.085	0.0168743
746.163	0.0168381
746.241	0.0166672
746.319	0.0163704
746.398	0.0162029
746.476	0.0159286
746.554	0.0160633
746.632	0.0157921
746.710	0.0158554
746.788	0.0156040
746.866	0.0157539
746.944	0.0153713
747.023	0.0156750
747.101	0.0153236
747.179	0.0155445
747.257	0.0156368
747.335	0.0152431
747.413	0.0152061
747.491	0.0153076
747.569	0.0152157
747.648	0.0150650
747.726	0.0154896
747.804	0.0154202
747.882	0.0152447
747.960	0.0155205
748.038	0.0156818
748.116	0.0154381
748.194	0.0154469
748.273	0.0155224
748.351	0.0156071
748.429	0.0155716
748.507	0.0156273
748.585	0.0154697
748.663	0.0154266
748.741	0.0155376
748.819	0.0154015
748.898	0.0158611
748.976	0.0154488
749.054	0.0154247
749.132	0.0159161
749.210	0.0160213
749.288	0.0159847
749.366	0.0161041
749.444	0.0161579
749.523	0.0164207
749.601	0.0163616
749.679	0.0163940
749.757	0.0159492
749.835	0.0162895
749.913	0.0161465
749.991	0.0158714
750.069	0.0157761
750.148	0.0159096
750.226	0.0158424
750.304	0.0157532
750.382	0.0156284
750.460	0.0157604
750.538	0.0155022
750.616	0.0157074
750.694	0.0155472
750.773	0.0156876
750.851	0.0156532
750.929	0.0157421
751.007	0.0156338
751.085	0.0154377
751.163	0.0158382
751.241	0.0156624
751.319	0.0157135
751.398	0.0157528
751.476	0.0158501
751.554	0.0159107
751.632	0.0157066
751.710	0.0158134
751.788	0.0161392
751.866	0.0162201
751.944	0.0162247
752.023	0.0163143
752.101	0.0162655
752.179	0.0163788
752.257	0.0161072
752.335	0.0163864
752.413	0.0163567
752.491	0.0164440
752.569	0.0164745
752.648	0.0165401
752.726	0.0164192
752.804	0.0163837
752.882	0.0164349
752.960	0.0164288
753.038	0.0164799
753.116	0.0167133
753.194	0.0162018
753.273	0.0162785
753.351	0.0164097
753.429	0.0160835
753.507	0.0160000
753.585	0.0163803
753.663	0.0159271
753.741	0.0156662
753.819	0.0158833
753.898	0.0157074
753.976	0.0155251
754.054	0.0158440
754.132	0.0155876
754.210	0.0154133
754.288	0.0154335
754.366	0.0152634
754.444	0.0153450
754.523	0.0154556
754.601	0.0158360
754.679	0.0158127
754.757	0.0155067
754.835	0.0152676
754.913	0.0155628
754.991	0.0154144
755.069	0.0158016
755.148	0.0157360
755.226	0.0154789
755.304	0.0153324
755.382	0.0155567
755.460	0.0153442
755.538	0.0152260
755.616	0.0153347
755.694	0.0155102
755.773	0.0152660
755.851	0.0150879
755.929	0.0153179
756.007	0.0153763
756.085	0.0153908
756.163	0.0155453
756.241	0.0156128
756.319	0.0153057
756.398	0.0156963
756.476	0.0156601
756.554	0.0156357
756.632	0.0155285
756.710	0.0154892
756.788	0.0157944
756.866	0.0157200
756.944	0.0159164
757.023	0.0159439
757.101	0.0155800
757.179	0.0156765
757.257	0.0158875
757.335	0.0159794
757.413	0.0156960
757.491	0.0154449
757.569	0.0156818
757.648	0.0161736
757.726	0.0161762
757.804	0.0159229
757.882	0.0156830
757.960	0.0157295
758.038	0.0158665
758.116	0.0156345
758.194	0.0153797
758.273	0.0153545
758.351	0.0155914
758.429	0.0150978
758.507	0.0150436
758.585	0.0153027
758.663	0.0153011
758.741	0.0152485
758.819	0.0150894
758.898	0.0153172
758.976	0.0149555
759.054	0.0144390
759.132	0.0147972
759.210	0.0146992
759.288	0.0147369
759.366	0.0147350
759.444	0.0145237
759.523	0.0147247
759.601	0.0146667
759.679	0.0148895
759.757	0.0145611
759.835	0.0147171
759.913	0.0146553
759.991	0.0146824
760.069	0.0146984
760.148	0.0148525
760.226	0.0150085
760.304	0.0149120
760.382	0.0150166
760.460	0.0148502
760.538	0.0149136
760.616	0.0148384
760.694	0.0149956
760.773	0.0150314
760.851	0.0147758
760.929	0.0150932
761.007	0.0151520
761.085	0.0149021
761.163	0.0153107
761.241	0.0153465
761.319	0.0152424
761.398	0.0155266
761.476	0.0155869
761.554	0.0154961
761.632	0.0156727
761.710	0.0157207
761.788	0.0155849
761.866	0.0154190
761.944	0.0157757
762.023	0.0157650
762.101	0.0159943
762.179	0.0158554
762.257	0.0158417
762.335	0.0161091
762.413	0.0158672
762.491	0.0160332
762.569	0.0160976
762.648	0.0160614
762.726	0.0162342
762.804	0.0159061
762.882	0.0160748
762.960	0.0160374
763.038	0.0161949
763.116	0.0162220
763.194	0.0161442
763.273	0.0161182
763.351	0.0161514
763.429	0.0159355
763.507	0.0160294
763.585	0.0162434
763.663	0.0161736
763.741	0.0161129
763.819	0.0158932
763.898	0.0159378
763.976	0.0157227
764.054	0.0158855
764.132	0.0158398
764.210	0.0159107
764.288	0.0158825
764.366	0.0157665
764.444	0.0156982
764.523	0.0157738
764.601	0.0158932
764.679	0.0158169
764.757	0.0157940
764.835	0.0159466
764.913	0.0159180
764.991	0.0160149
765.069	0.0162788
765.148	0.0162594
765.226	0.0162174
765.304	0.0164402
765.382	0.0164688
765.460	0.0165176
765.538	0.0165157
765.616	0.0164913
765.694	0.0163601
765.773	0.0162155
765.851	0.0162006
765.929	0.0160511
766.007	0.0161129
766.085	0.0159702
766.163	0.0157642
766.241	0.0157726
766.319	0.0155964
766.398	0.0155235
766.476	0.0156845
766.554	0.0154640
766.632	0.0152901
766.710	0.0153809
766.788	0.0156620
766.866	0.0154312
766.944	0.0152035
767.023	0.0153454
767.101	0.0157227
767.179	0.0155724
767.257	0.0154503
767.335	0.0156864
767.413	0.0158852
767.491	0.0153988
767.569	0.0161015
767.648	0.0159584
767.726	0.0157600
767.804	0.0163464
767.882	0.0166805
767.960	0.0165237
768.038	0.0168461
768.116	0.0170723
768.194	0.0169724
768.273	0.0168808
768.351	0.0171154
768.429	0.0174068
768.507	0.0172112
768.585	0.0173683
768.663	0.0172619
768.741	0.0170269
768.819	0.0173561
768.898	0.0168552
768.976	0.0168934
769.054	0.0170158
769.132	0.0166142
769.210	0.0168484
769.288	0.0165722
769.366	0.0163273
769.444	0.0160179
769.523	0.0161289
769.601	0.0159100
769.679	0.0154934
769.757	0.0157703
769.835	0.0153885
769.913	0.0150414
