05/27/2022	02:08:22	Ver.	4.1	UNKNOWN
Optical Delay	449.991307	Delta X		0.078125	Sweeps	1	Scan Rate	0/0
Coordinates	Axis 1	NaN	Axis 2	NaN	Axis 3	NaN	Axis 4	NaN	Axis 5	NaN	Axis 6	0.000000
TX Power	0.000000	RX Power	0.000000

449.991	0.0158218
450.069	0.0162781
450.148	0.0156078
450.226	0.0156551
450.304	0.0160522
450.382	0.0160007
450.460	0.0158253
450.538	0.0158154
450.616	0.0157364
450.694	0.0161224
450.773	0.0158451
450.851	0.0156792
450.929	0.0159275
451.007	0.0156746
451.085	0.0158253
451.163	0.0159126
451.241	0.0160114
451.319	0.0157722
451.398	0.0157810
451.476	0.0157993
451.554	0.0157238
451.632	0.0157780
451.710	0.0160004
451.788	0.0161098
451.866	0.0154942
451.944	0.0158989
452.023	0.0159073
452.101	0.0156357
452.179	0.0157543
452.257	0.0161625
452.335	0.0161514
452.413	0.0159065
452.491	0.0157738
452.569	0.0157978
452.648	0.0157757
452.726	0.0158268
452.804	0.0156372
452.882	0.0156002
452.960	0.0155499
453.038	0.0163960
453.116	0.0158562
453.194	0.0155209
453.273	0.0156830
453.351	0.0159454
453.429	0.0159489
453.507	0.0159931
453.585	0.0158035
453.663	0.0158962
453.741	0.0159035
453.819	0.0161388
453.898	0.0159622
453.976	0.0159386
454.054	0.0157749
454.132	0.0157795
454.210	0.0160530
454.288	0.0158260
454.366	0.0158195
454.444	0.0157322
454.523	0.0160885
454.601	0.0159023
454.679	0.0158649
454.757	0.0158871
454.835	0.0157463
454.913	0.0156319
454.991	0.0159557
455.069	0.0161537
455.148	0.0158474
455.226	0.0158760
455.304	0.0159138
455.382	0.0160934
455.460	0.0159504
455.538	0.0158600
455.616	0.0158535
455.694	0.0158276
455.773	0.0158268
455.851	0.0159744
455.929	0.0158382
456.007	0.0158363
456.085	0.0159298
456.163	0.0155674
456.241	0.0157814
456.319	0.0159519
456.398	0.0162094
456.476	0.0159760
456.554	0.0159451
456.632	0.0157688
456.710	0.0159294
456.788	0.0160904
456.866	0.0161213
456.944	0.0159420
457.023	0.0157021
457.101	0.0157555
457.179	0.0158627
457.257	0.0161522
457.335	0.0157192
457.413	0.0159859
457.491	0.0159443
457.569	0.0157917
457.648	0.0158966
457.726	0.0158081
457.804	0.0158886
457.882	0.0159233
457.960	0.0158630
458.038	0.0158634
458.116	0.0159420
458.194	0.0160275
458.273	0.0157951
458.351	0.0157467
458.429	0.0159882
458.507	0.0159042
458.585	0.0159447
458.663	0.0159042
458.741	0.0155743
458.819	0.0158516
458.898	0.0158295
458.976	0.0156754
459.054	0.0160320
459.132	0.0160217
459.210	0.0154175
459.288	0.0157082
459.366	0.0157837
459.444	0.0157192
459.523	0.0156929
459.601	0.0159489
459.679	0.0157928
459.757	0.0157978
459.835	0.0161076
459.913	0.0158375
459.991	0.0156799
460.069	0.0161350
460.148	0.0157860
460.226	0.0157196
460.304	0.0159016
460.382	0.0157436
460.460	0.0157745
460.538	0.0158756
460.616	0.0156399
460.694	0.0158371
460.773	0.0160252
460.851	0.0155422
460.929	0.0160095
461.007	0.0156773
461.085	0.0156902
461.163	0.0158092
461.241	0.0155678
461.319	0.0159714
461.398	0.0158108
461.476	0.0157589
461.554	0.0158970
461.632	0.0161026
461.710	0.0157246
461.788	0.0161064
461.866	0.0159161
461.944	0.0158958
462.023	0.0158379
462.101	0.0160118
462.179	0.0158875
462.257	0.0156677
462.335	0.0159443
462.413	0.0158333
462.491	0.0155285
462.569	0.0159477
462.648	0.0158115
462.726	0.0155434
462.804	0.0157688
462.882	0.0160534
462.960	0.0156944
463.038	0.0156982
463.116	0.0156792
463.194	0.0155155
463.273	0.0161495
463.351	0.0159508
463.429	0.0159920
463.507	0.0156898
463.585	0.0159233
463.663	0.0159046
463.741	0.0157394
463.819	0.0159714
463.898	0.0158363
463.976	0.0153324
464.054	0.0159241
464.132	0.0159740
464.210	0.0158627
464.288	0.0158009
464.366	0.0158276
464.444	0.0159908
464.523	0.0156719
464.601	0.0157562
464.679	0.0158924
464.757	0.0157837
464.835	0.0159000
464.913	0.0162083
464.991	0.0159042
465.069	0.0158287
465.148	0.0156357
465.226	0.0158936
465.304	0.0161396
465.382	0.0158142
465.460	0.0156662
465.538	0.0159164
465.616	0.0157429
465.694	0.0159126
465.773	0.0162590
465.851	0.0158871
465.929	0.0159561
466.007	0.0157631
466.085	0.0159271
466.163	0.0156776
466.241	0.0155025
466.319	0.0158581
466.398	0.0156384
466.476	0.0161453
466.554	0.0158985
466.632	0.0156490
466.710	0.0157730
466.788	0.0159027
466.866	0.0158661
466.944	0.0157616
467.023	0.0158558
467.101	0.0156715
467.179	0.0157913
467.257	0.0158566
467.335	0.0159077
467.413	0.0157162
467.491	0.0160549
467.569	0.0158894
467.648	0.0160389
467.726	0.0159550
467.804	0.0156277
467.882	0.0158371
467.960	0.0161049
468.038	0.0160091
468.116	0.0159149
468.194	0.0158237
468.273	0.0161812
468.351	0.0158295
468.429	0.0157944
468.507	0.0157558
468.585	0.0156708
468.663	0.0158009
468.741	0.0154202
468.819	0.0156479
468.898	0.0162033
468.976	0.0159687
469.054	0.0158642
469.132	0.0159603
469.210	0.0159443
469.288	0.0159237
469.366	0.0156136
469.444	0.0157005
469.523	0.0159534
469.601	0.0158436
469.679	0.0158627
469.757	0.0157326
469.835	0.0157173
469.913	0.0157101
469.991	0.0157288
470.069	0.0162182
470.148	0.0157623
470.226	0.0159138
470.304	0.0157509
470.382	0.0161781
470.460	0.0157135
470.538	0.0158134
470.616	0.0160835
470.694	0.0159187
470.773	0.0161030
470.851	0.0157204
470.929	0.0159790
471.007	0.0160862
471.085	0.0160580
471.163	0.0157494
471.241	0.0159904
471.319	0.0158871
471.398	0.0158054
471.476	0.0158901
471.554	0.0160961
471.632	0.0157688
471.710	0.0161396
471.788	0.0160656
471.866	0.0155510
471.944	0.0157055
472.023	0.0159657
472.101	0.0160255
472.179	0.0159454
472.257	0.0160793
472.335	0.0159393
472.413	0.0156845
472.491	0.0157001
472.569	0.0159992
472.648	0.0158661
472.726	0.0161060
472.804	0.0159618
472.882	0.0160191
472.960	0.0160206
473.038	0.0155312
473.116	0.0157654
473.194	0.0157494
473.273	0.0156807
473.351	0.0158981
473.429	0.0155079
473.507	0.0159447
473.585	0.0158188
473.663	0.0159260
473.741	0.0157257
473.819	0.0159836
473.898	0.0161949
473.976	0.0159454
474.054	0.0156876
474.132	0.0159214
474.210	0.0161777
474.288	0.0159454
474.366	0.0160370
474.444	0.0157330
474.523	0.0157173
474.601	0.0162262
474.679	0.0159603
474.757	0.0158058
474.835	0.0158688
474.913	0.0157425
474.991	0.0156967
475.069	0.0159973
475.148	0.0158241
475.226	0.0157990
475.304	0.0158424
475.382	0.0160145
475.460	0.0159256
475.538	0.0159813
475.616	0.0161076
475.694	0.0159668
475.773	0.0156384
475.851	0.0157955
475.929	0.0161522
476.007	0.0161297
476.085	0.0160927
476.163	0.0155876
476.241	0.0159531
476.319	0.0159698
476.398	0.0162281
476.476	0.0162167
476.554	0.0156948
476.632	0.0159668
476.710	0.0159344
476.788	0.0159081
476.866	0.0156597
476.944	0.0157955
477.023	0.0158123
477.101	0.0161068
477.179	0.0156334
477.257	0.0157494
477.335	0.0157814
477.413	0.0158157
477.491	0.0158222
477.569	0.0158554
477.648	0.0157845
477.726	0.0159809
477.804	0.0157780
477.882	0.0158234
477.960	0.0157635
478.038	0.0157898
478.116	0.0159031
478.194	0.0159767
478.273	0.0157688
478.351	0.0156849
478.429	0.0161552
478.507	0.0158775
478.585	0.0159084
478.663	0.0159569
478.741	0.0160942
478.819	0.0160450
478.898	0.0158463
478.976	0.0156940
479.054	0.0157604
479.132	0.0161404
479.210	0.0159698
479.288	0.0159115
479.366	0.0160099
479.444	0.0158825
479.523	0.0159248
479.601	0.0160866
479.679	0.0159672
479.757	0.0159367
479.835	0.0161427
479.913	0.0160660
479.991	0.0158394
480.069	0.0157520
480.148	0.0156734
480.226	0.0159355
480.304	0.0158188
480.382	0.0158417
480.460	0.0159634
480.538	0.0159672
480.616	0.0158039
480.694	0.0158962
480.773	0.0159088
480.851	0.0158295
480.929	0.0158302
481.007	0.0158707
481.085	0.0156597
481.163	0.0160999
481.241	0.0159267
481.319	0.0159035
481.398	0.0160408
481.476	0.0158794
481.554	0.0159286
481.632	0.0157040
481.710	0.0159157
481.788	0.0159275
481.866	0.0156151
481.944	0.0156376
482.023	0.0157158
482.101	0.0158985
482.179	0.0157009
482.257	0.0158066
482.335	0.0161842
482.413	0.0158066
482.491	0.0156269
482.569	0.0160919
482.648	0.0156799
482.726	0.0155869
482.804	0.0159237
482.882	0.0160255
482.960	0.0158382
483.038	0.0155788
483.116	0.0159813
483.194	0.0161346
483.273	0.0158779
483.351	0.0155788
483.429	0.0158207
483.507	0.0156334
483.585	0.0159340
483.663	0.0157700
483.741	0.0159145
483.819	0.0156601
483.898	0.0157990
483.976	0.0159889
484.054	0.0156704
484.132	0.0156330
484.210	0.0156864
484.288	0.0159893
484.366	0.0158333
484.444	0.0158146
484.523	0.0157974
484.601	0.0156467
484.679	0.0157299
484.757	0.0159138
484.835	0.0157028
484.913	0.0157806
484.991	0.0158089
485.069	0.0157833
485.148	0.0158726
485.226	0.0160767
485.304	0.0157665
485.382	0.0158524
485.460	0.0156326
485.538	0.0158333
485.616	0.0158985
485.694	0.0155987
485.773	0.0158886
485.851	0.0158806
485.929	0.0159672
486.007	0.0160862
486.085	0.0156319
486.163	0.0156967
486.241	0.0157101
486.319	0.0159454
486.398	0.0155903
486.476	0.0157990
486.554	0.0158451
486.632	0.0157494
486.710	0.0157246
486.788	0.0156567
486.866	0.0159431
486.944	0.0154175
487.023	0.0158100
487.101	0.0160480
487.179	0.0160294
487.257	0.0155041
487.335	0.0159550
487.413	0.0160160
487.491	0.0157417
487.569	0.0157337
487.648	0.0159405
487.726	0.0154930
487.804	0.0156555
487.882	0.0160797
487.960	0.0159443
488.038	0.0157864
488.116	0.0156990
488.194	0.0158630
488.273	0.0160179
488.351	0.0157192
488.429	0.0157589
488.507	0.0157547
488.585	0.0159267
488.663	0.0159733
488.741	0.0160931
488.819	0.0158276
488.898	0.0160255
488.976	0.0159512
489.054	0.0157143
489.132	0.0158134
489.210	0.0158077
489.288	0.0155720
489.366	0.0158634
489.444	0.0160145
489.523	0.0158291
489.601	0.0156967
489.679	0.0158951
489.757	0.0155205
489.835	0.0155704
489.913	0.0158787
489.991	0.0158478
490.069	0.0158726
490.148	0.0156826
490.226	0.0156700
490.304	0.0157055
490.382	0.0159184
490.460	0.0159252
490.538	0.0161797
490.616	0.0158546
490.694	0.0158596
490.773	0.0156563
490.851	0.0158424
490.929	0.0160442
491.007	0.0159470
491.085	0.0161854
491.163	0.0158092
491.241	0.0159271
491.319	0.0158985
491.398	0.0159241
491.476	0.0156815
491.554	0.0158916
491.632	0.0159599
491.710	0.0156956
491.788	0.0158569
491.866	0.0158184
491.944	0.0157494
492.023	0.0158852
492.101	0.0159447
492.179	0.0158054
492.257	0.0158337
492.335	0.0160828
492.413	0.0159237
492.491	0.0157440
492.569	0.0158749
492.648	0.0159595
492.726	0.0158600
492.804	0.0159100
492.882	0.0158043
492.960	0.0156818
493.038	0.0157219
493.116	0.0159107
493.194	0.0156162
493.273	0.0158173
493.351	0.0158978
493.429	0.0157879
493.507	0.0157158
493.585	0.0159794
493.663	0.0160019
493.741	0.0158226
493.819	0.0155758
493.898	0.0157127
493.976	0.0160210
494.054	0.0157806
494.132	0.0156036
494.210	0.0157253
494.288	0.0157307
494.366	0.0159344
494.444	0.0156555
494.523	0.0157021
494.601	0.0159786
494.679	0.0158043
494.757	0.0159504
494.835	0.0158665
494.913	0.0157204
494.991	0.0158531
495.069	0.0155533
495.148	0.0156979
495.226	0.0156063
495.304	0.0157516
495.382	0.0156975
495.460	0.0155895
495.538	0.0159458
495.616	0.0158180
495.694	0.0157108
495.773	0.0158276
495.851	0.0159996
495.929	0.0160145
496.007	0.0158218
496.085	0.0158699
496.163	0.0157398
496.241	0.0157181
496.319	0.0155792
496.398	0.0160015
496.476	0.0158863
496.554	0.0155094
496.632	0.0159039
496.710	0.0162327
496.788	0.0156609
496.866	0.0157787
496.944	0.0158550
497.023	0.0157986
497.101	0.0161175
497.179	0.0158737
497.257	0.0158924
497.335	0.0158478
497.413	0.0159306
497.491	0.0157684
497.569	0.0156139
497.648	0.0159695
497.726	0.0160103
497.804	0.0159042
497.882	0.0157249
497.960	0.0158028
498.038	0.0158092
498.116	0.0157043
498.194	0.0157166
498.273	0.0158695
498.351	0.0155842
498.429	0.0158989
498.507	0.0156395
498.585	0.0156750
498.663	0.0160301
498.741	0.0155327
498.819	0.0159428
498.898	0.0161720
498.976	0.0156452
499.054	0.0157001
499.132	0.0158855
499.210	0.0157158
499.288	0.0158787
499.366	0.0159752
499.444	0.0157158
499.523	0.0154594
499.601	0.0157642
499.679	0.0158615
499.757	0.0160538
499.835	0.0155701
499.913	0.0158092
499.991	0.0158237
500.069	0.0157066
500.148	0.0156811
500.226	0.0162048
500.304	0.0157707
500.382	0.0156082
500.460	0.0160316
500.538	0.0158672
500.616	0.0159325
500.694	0.0154972
500.773	0.0159382
500.851	0.0160252
500.929	0.0158348
501.007	0.0156509
501.085	0.0158062
501.163	0.0158882
501.241	0.0156612
501.319	0.0158157
501.398	0.0160267
501.476	0.0159119
501.554	0.0155334
501.632	0.0158955
501.710	0.0160542
501.788	0.0158562
501.866	0.0157528
501.944	0.0158539
502.023	0.0158836
502.101	0.0158020
502.179	0.0159103
502.257	0.0160213
502.335	0.0160168
502.413	0.0158573
502.491	0.0157539
502.569	0.0160542
502.648	0.0162704
502.726	0.0158180
502.804	0.0158539
502.882	0.0158989
502.960	0.0159477
503.038	0.0159542
503.116	0.0161377
503.194	0.0159901
503.273	0.0157402
503.351	0.0156582
503.429	0.0158699
503.507	0.0161003
503.585	0.0160828
503.663	0.0156445
503.741	0.0159683
503.819	0.0159569
503.898	0.0157452
503.976	0.0159321
504.054	0.0158245
504.132	0.0160854
504.210	0.0157551
504.288	0.0155460
504.366	0.0159760
504.444	0.0160934
504.523	0.0154858
504.601	0.0156624
504.679	0.0160610
504.757	0.0158672
504.835	0.0158184
504.913	0.0158463
504.991	0.0157558
505.069	0.0157009
505.148	0.0160698
505.226	0.0157169
505.304	0.0159542
505.382	0.0160896
505.460	0.0161125
505.538	0.0160309
505.616	0.0158512
505.694	0.0157356
505.773	0.0156860
505.851	0.0157265
505.929	0.0158279
506.007	0.0159340
506.085	0.0157990
506.163	0.0157360
506.241	0.0158066
506.319	0.0159271
506.398	0.0160744
506.476	0.0160099
506.554	0.0158440
506.632	0.0161167
506.710	0.0158958
506.788	0.0157070
506.866	0.0161606
506.944	0.0160007
507.023	0.0156181
507.101	0.0152618
507.179	0.0155972
507.257	0.0160126
507.335	0.0160206
507.413	0.0157921
507.491	0.0158913
507.569	0.0157253
507.648	0.0159050
507.726	0.0156700
507.804	0.0158115
507.882	0.0159908
507.960	0.0158062
508.038	0.0158726
508.116	0.0159111
508.194	0.0159561
508.273	0.0157413
508.351	0.0159149
508.429	0.0156677
508.507	0.0159302
508.585	0.0159271
508.663	0.0158455
508.741	0.0160812
508.819	0.0157787
508.898	0.0161175
508.976	0.0162052
509.054	0.0158207
509.132	0.0157421
509.210	0.0159039
509.288	0.0161026
509.366	0.0158207
509.444	0.0159054
509.523	0.0159649
509.601	0.0158680
509.679	0.0159676
509.757	0.0160213
509.835	0.0156631
509.913	0.0157486
509.991	0.0158806
510.069	0.0154762
510.148	0.0158264
510.226	0.0157402
510.304	0.0158535
510.382	0.0157574
510.460	0.0160172
510.538	0.0159584
510.616	0.0159847
510.694	0.0158165
510.773	0.0156525
510.851	0.0156479
510.929	0.0157635
511.007	0.0157177
511.085	0.0159386
511.163	0.0159702
511.241	0.0160805
511.319	0.0160492
511.398	0.0159985
511.476	0.0159100
511.554	0.0159073
511.632	0.0159351
511.710	0.0158085
511.788	0.0159397
511.866	0.0158333
511.944	0.0158688
512.023	0.0158665
512.101	0.0156658
512.179	0.0157543
512.257	0.0159512
512.335	0.0158489
512.413	0.0157635
512.491	0.0155430
512.569	0.0155479
512.648	0.0157661
512.726	0.0159897
512.804	0.0158424
512.882	0.0156231
512.960	0.0156071
513.038	0.0159096
513.116	0.0159031
513.194	0.0158482
513.273	0.0156303
513.351	0.0158398
513.429	0.0159641
513.507	0.0155212
513.585	0.0160069
513.663	0.0159611
513.741	0.0160683
513.819	0.0158928
513.898	0.0158218
513.976	0.0161102
514.054	0.0158501
514.132	0.0159233
514.210	0.0157402
514.288	0.0160904
514.366	0.0158325
514.444	0.0157867
514.523	0.0155048
514.601	0.0156704
514.679	0.0158508
514.757	0.0160980
514.835	0.0159927
514.913	0.0161823
514.991	0.0155827
515.069	0.0157524
515.148	0.0158569
515.226	0.0159859
515.304	0.0158596
515.382	0.0156528
515.460	0.0157059
515.538	0.0157539
515.616	0.0157482
515.694	0.0158161
515.773	0.0159271
515.851	0.0159943
515.929	0.0159580
516.007	0.0157467
516.085	0.0156742
516.163	0.0156387
516.241	0.0158234
516.319	0.0157196
516.398	0.0156063
516.476	0.0157364
516.554	0.0157322
516.632	0.0156837
516.710	0.0156281
516.788	0.0157024
516.866	0.0156494
516.944	0.0156239
517.023	0.0158413
517.101	0.0160294
517.179	0.0155636
517.257	0.0158581
517.335	0.0158115
517.413	0.0160271
517.491	0.0155960
517.569	0.0156006
517.648	0.0159504
517.726	0.0157421
517.804	0.0159569
517.882	0.0157314
517.960	0.0157509
518.038	0.0158215
518.116	0.0156178
518.194	0.0158554
518.273	0.0159550
518.351	0.0160614
518.429	0.0156097
518.507	0.0159687
518.585	0.0160156
518.663	0.0156563
518.741	0.0152645
518.819	0.0155308
518.898	0.0158554
518.976	0.0159653
519.054	0.0160885
519.132	0.0157040
519.210	0.0156887
519.288	0.0157852
519.366	0.0156349
519.444	0.0154835
519.523	0.0158123
519.601	0.0158375
519.679	0.0159035
519.757	0.0156376
519.835	0.0158508
519.913	0.0157833
519.991	0.0156269
520.069	0.0158501
520.148	0.0160603
520.226	0.0157288
520.304	0.0158566
520.382	0.0157650
520.460	0.0158154
520.538	0.0158978
520.616	0.0158379
520.694	0.0159561
520.773	0.0159222
520.851	0.0157684
520.929	0.0159142
521.007	0.0155273
521.085	0.0158268
521.163	0.0160553
521.241	0.0156872
521.319	0.0155621
521.398	0.0157337
521.476	0.0158722
521.554	0.0158199
521.632	0.0154476
521.710	0.0153782
521.788	0.0158211
521.866	0.0160854
521.944	0.0156590
522.023	0.0157372
522.101	0.0161457
522.179	0.0159088
522.257	0.0155758
522.335	0.0156269
522.413	0.0159588
522.491	0.0158199
522.569	0.0158463
522.648	0.0155838
522.726	0.0158688
522.804	0.0159203
522.882	0.0159031
522.960	0.0156906
523.038	0.0158466
523.116	0.0160084
523.194	0.0161777
523.273	0.0157417
523.351	0.0157501
523.429	0.0158394
523.507	0.0158905
523.585	0.0157398
523.663	0.0157734
523.741	0.0160885
523.819	0.0159592
523.898	0.0158504
523.976	0.0160858
524.054	0.0159031
524.132	0.0157879
524.210	0.0158325
524.288	0.0156536
524.366	0.0158768
524.444	0.0158878
524.523	0.0159496
524.601	0.0158012
524.679	0.0158787
524.757	0.0160385
524.835	0.0159458
524.913	0.0158619
524.991	0.0157433
525.069	0.0158539
525.148	0.0160446
525.226	0.0159000
525.304	0.0156296
525.382	0.0159092
525.460	0.0159760
525.538	0.0156212
525.616	0.0157421
525.694	0.0159565
525.773	0.0160103
525.851	0.0158546
525.929	0.0157047
526.007	0.0159237
526.085	0.0160568
526.163	0.0158169
526.241	0.0158104
526.319	0.0160538
526.398	0.0161003
526.476	0.0156971
526.554	0.0158020
526.632	0.0158188
526.710	0.0155640
526.788	0.0159027
526.866	0.0161652
526.944	0.0157326
527.023	0.0158295
527.101	0.0156204
527.179	0.0160721
527.257	0.0161488
527.335	0.0156490
527.413	0.0155914
527.491	0.0160179
527.569	0.0157684
527.648	0.0156368
527.726	0.0158176
527.804	0.0158222
527.882	0.0156071
527.960	0.0155777
528.038	0.0159275
528.116	0.0156094
528.194	0.0158211
528.273	0.0158737
528.351	0.0156605
528.429	0.0155701
528.507	0.0158970
528.585	0.0158936
528.663	0.0161755
528.741	0.0161209
528.819	0.0160637
528.898	0.0159698
528.976	0.0160458
529.054	0.0157166
529.132	0.0160049
529.210	0.0157726
529.288	0.0155319
529.366	0.0157677
529.444	0.0156742
529.523	0.0159904
529.601	0.0157974
529.679	0.0155926
529.757	0.0157078
529.835	0.0159779
529.913	0.0156960
529.991	0.0157036
530.069	0.0158577
530.148	0.0159500
530.226	0.0157730
530.304	0.0158089
530.382	0.0159260
530.460	0.0161140
530.538	0.0157120
530.616	0.0157356
530.694	0.0159641
530.773	0.0160961
530.851	0.0157619
530.929	0.0157398
531.007	0.0157322
531.085	0.0160408
531.163	0.0157597
531.241	0.0157860
531.319	0.0159088
531.398	0.0159790
531.476	0.0157497
531.554	0.0157005
531.632	0.0158287
531.710	0.0158215
531.788	0.0157894
531.866	0.0159729
531.944	0.0158173
532.023	0.0162022
532.101	0.0157608
532.179	0.0156723
532.257	0.0160751
532.335	0.0161228
532.413	0.0159840
532.491	0.0159485
532.569	0.0155293
532.648	0.0159069
532.726	0.0159603
532.804	0.0160736
532.882	0.0159531
532.960	0.0160244
533.038	0.0157688
533.116	0.0157806
533.194	0.0158646
533.273	0.0159679
533.351	0.0158981
533.429	0.0159237
533.507	0.0161221
533.585	0.0160755
533.663	0.0157581
533.741	0.0157452
533.819	0.0156155
533.898	0.0157745
533.976	0.0159428
534.054	0.0158199
534.132	0.0157558
534.210	0.0160652
534.288	0.0161655
534.366	0.0157764
534.444	0.0160408
534.523	0.0157608
534.601	0.0158302
534.679	0.0159527
534.757	0.0159164
534.835	0.0157200
534.913	0.0158737
534.991	0.0158756
535.069	0.0157440
535.148	0.0160679
535.226	0.0157368
535.304	0.0158611
535.382	0.0158325
535.460	0.0159416
535.538	0.0157616
535.616	0.0158333
535.694	0.0160271
535.773	0.0162647
535.851	0.0158077
535.929	0.0157692
536.007	0.0159824
536.085	0.0160789
536.163	0.0160027
536.241	0.0161102
536.319	0.0159107
536.398	0.0158260
536.476	0.0157436
536.554	0.0162132
536.632	0.0157383
536.710	0.0160786
536.788	0.0158821
536.866	0.0160507
536.944	0.0159626
537.023	0.0158569
537.101	0.0159748
537.179	0.0160015
537.257	0.0157394
537.335	0.0160023
537.413	0.0159611
537.491	0.0159264
537.569	0.0159325
537.648	0.0160675
537.726	0.0161484
537.804	0.0159840
537.882	0.0156479
537.960	0.0158684
538.038	0.0160515
538.116	0.0159508
538.194	0.0160576
538.273	0.0158527
538.351	0.0156895
538.429	0.0161472
538.507	0.0158321
538.585	0.0160717
538.663	0.0159130
538.741	0.0160919
538.819	0.0158825
538.898	0.0157276
538.976	0.0159172
539.054	0.0156189
539.132	0.0157974
539.210	0.0156704
539.288	0.0159767
539.366	0.0159809
539.444	0.0160740
539.523	0.0156425
539.601	0.0157524
539.679	0.0159237
539.757	0.0159779
539.835	0.0158749
539.913	0.0159199
539.991	0.0157715
540.069	0.0157639
540.148	0.0161758
540.226	0.0160007
540.304	0.0163181
540.382	0.0155319
540.460	0.0155476
540.538	0.0155094
540.616	0.0161377
540.694	0.0156818
540.773	0.0157867
540.851	0.0158894
540.929	0.0155930
541.007	0.0159985
541.085	0.0160927
541.163	0.0158043
541.241	0.0161137
541.319	0.0158310
541.398	0.0159412
541.476	0.0158470
541.554	0.0161148
541.632	0.0158878
541.710	0.0160416
541.788	0.0159473
541.866	0.0162601
541.944	0.0156559
542.023	0.0158474
542.101	0.0159462
542.179	0.0158173
542.257	0.0160709
542.335	0.0160984
542.413	0.0159355
542.491	0.0158501
542.569	0.0157925
542.648	0.0157440
542.726	0.0158642
542.804	0.0159626
542.882	0.0159081
542.960	0.0161465
543.038	0.0158829
543.116	0.0160252
543.194	0.0156742
543.273	0.0160892
543.351	0.0161133
543.429	0.0158043
543.507	0.0158154
543.585	0.0156895
543.663	0.0158234
543.741	0.0158794
543.819	0.0156689
543.898	0.0158943
543.976	0.0159580
544.054	0.0158672
544.132	0.0159138
544.210	0.0156792
544.288	0.0159775
544.366	0.0160549
544.444	0.0159313
544.523	0.0156696
544.601	0.0157146
544.679	0.0160114
544.757	0.0159065
544.835	0.0160736
544.913	0.0162037
544.991	0.0155685
545.069	0.0158173
545.148	0.0160404
545.226	0.0156914
545.304	0.0156788
545.382	0.0158527
545.460	0.0157543
545.538	0.0158821
545.616	0.0158211
545.694	0.0161499
545.773	0.0159237
545.851	0.0158264
545.929	0.0163895
546.007	0.0159870
546.085	0.0160244
546.163	0.0159508
546.241	0.0159039
546.319	0.0160629
546.398	0.0157413
546.476	0.0158169
546.554	0.0159000
546.632	0.0160992
546.710	0.0157185
546.788	0.0158855
546.866	0.0160225
546.944	0.0159332
547.023	0.0161228
547.101	0.0158630
547.179	0.0156578
547.257	0.0157700
547.335	0.0156666
547.413	0.0157032
547.491	0.0156879
547.569	0.0157272
547.648	0.0158104
547.726	0.0155712
547.804	0.0156635
547.882	0.0156181
547.960	0.0160427
548.038	0.0160034
548.116	0.0157135
548.194	0.0158810
548.273	0.0158848
548.351	0.0160629
548.429	0.0159451
548.507	0.0158863
548.585	0.0159035
548.663	0.0157829
548.741	0.0155819
548.819	0.0160000
548.898	0.0160961
548.976	0.0158627
549.054	0.0157310
549.132	0.0160725
549.210	0.0158546
549.288	0.0159229
549.366	0.0157234
549.444	0.0158707
549.523	0.0159458
549.601	0.0160664
549.679	0.0160744
549.757	0.0157852
549.835	0.0163174
549.913	0.0160816
549.991	0.0160519
550.069	0.0159588
550.148	0.0159218
550.226	0.0159260
550.304	0.0157799
550.382	0.0157673
550.460	0.0159119
550.538	0.0160774
550.616	0.0156067
550.694	0.0158943
550.773	0.0161846
550.851	0.0157906
550.929	0.0156628
551.007	0.0158688
551.085	0.0157440
551.163	0.0158100
551.241	0.0159657
551.319	0.0159966
551.398	0.0159290
551.476	0.0158443
551.554	0.0159676
551.632	0.0158775
551.710	0.0158775
551.788	0.0161091
551.866	0.0157536
551.944	0.0158947
552.023	0.0158020
552.101	0.0157406
552.179	0.0156811
552.257	0.0157532
552.335	0.0158295
552.413	0.0157909
552.491	0.0157814
552.569	0.0160782
552.648	0.0156261
552.726	0.0159336
552.804	0.0158623
552.882	0.0158787
552.960	0.0158321
553.038	0.0159328
553.116	0.0158257
553.194	0.0158691
553.273	0.0157604
553.351	0.0159275
553.429	0.0156681
553.507	0.0157269
553.585	0.0158905
553.663	0.0157974
553.741	0.0156918
553.819	0.0157650
553.898	0.0161705
553.976	0.0157986
554.054	0.0159485
554.132	0.0158489
554.210	0.0159081
554.288	0.0159912
554.366	0.0160824
554.444	0.0159138
554.523	0.0160217
554.601	0.0159996
554.679	0.0157925
554.757	0.0158649
554.835	0.0158333
554.913	0.0157856
554.991	0.0160000
555.069	0.0160179
555.148	0.0159859
555.226	0.0155582
555.304	0.0162434
555.382	0.0161098
555.460	0.0155537
555.538	0.0163177
555.616	0.0158512
555.694	0.0154530
555.773	0.0159203
555.851	0.0158909
555.929	0.0158180
556.007	0.0156918
556.085	0.0160191
556.163	0.0159878
556.241	0.0160431
556.319	0.0161495
556.398	0.0159824
556.476	0.0157772
556.554	0.0159649
556.632	0.0159763
556.710	0.0157661
556.788	0.0159607
556.866	0.0159203
556.944	0.0158779
557.023	0.0159782
557.101	0.0160767
557.179	0.0156826
557.257	0.0159908
557.335	0.0159752
557.413	0.0159893
557.491	0.0160164
557.569	0.0156998
557.648	0.0159660
557.726	0.0159565
557.804	0.0164276
557.882	0.0155945
557.960	0.0155777
558.038	0.0160614
558.116	0.0161049
558.194	0.0161121
558.273	0.0159538
558.351	0.0160465
558.429	0.0161442
558.507	0.0157673
558.585	0.0158314
558.663	0.0158314
558.741	0.0156219
558.819	0.0155174
558.898	0.0157906
558.976	0.0158653
559.054	0.0157207
559.132	0.0159389
559.210	0.0157101
559.288	0.0158672
559.366	0.0158936
559.444	0.0160137
559.523	0.0160385
559.601	0.0158432
559.679	0.0159008
559.757	0.0159145
559.835	0.0160671
559.913	0.0155788
559.991	0.0160641
560.069	0.0158768
560.148	0.0158928
560.226	0.0156448
560.304	0.0161285
560.382	0.0158855
560.460	0.0162621
560.538	0.0160419
560.616	0.0161186
560.694	0.0157051
560.773	0.0159405
560.851	0.0159451
560.929	0.0157715
561.007	0.0157677
561.085	0.0158283
561.163	0.0158504
561.241	0.0161034
561.319	0.0159443
561.398	0.0159878
561.476	0.0158360
561.554	0.0160046
561.632	0.0160694
561.710	0.0159115
561.788	0.0158916
561.866	0.0158962
561.944	0.0160950
562.023	0.0157291
562.101	0.0156792
562.179	0.0159325
562.257	0.0159229
562.335	0.0161446
562.413	0.0159946
562.491	0.0158329
562.569	0.0161938
562.648	0.0158939
562.726	0.0157253
562.804	0.0159290
562.882	0.0163116
562.960	0.0157719
563.038	0.0162292
563.116	0.0158371
563.194	0.0156227
563.273	0.0158531
563.351	0.0158951
563.429	0.0156883
563.507	0.0157494
563.585	0.0161404
563.663	0.0157913
563.741	0.0156918
563.819	0.0160645
563.898	0.0161079
563.976	0.0158211
564.054	0.0159603
564.132	0.0159294
564.210	0.0161022
564.288	0.0158428
564.366	0.0159004
564.444	0.0158550
564.523	0.0158566
564.601	0.0158485
564.679	0.0159035
564.757	0.0161716
564.835	0.0158192
564.913	0.0159664
564.991	0.0157627
565.069	0.0157757
565.148	0.0161526
565.226	0.0160152
565.304	0.0160755
565.382	0.0160767
565.460	0.0158115
565.538	0.0161243
565.616	0.0161613
565.694	0.0160931
565.773	0.0156105
565.851	0.0160084
565.929	0.0157715
566.007	0.0158985
566.085	0.0160774
566.163	0.0160301
566.241	0.0159325
566.319	0.0157188
566.398	0.0159679
566.476	0.0158478
566.554	0.0156635
566.632	0.0157585
566.710	0.0161297
566.788	0.0159256
566.866	0.0161289
566.944	0.0158951
567.023	0.0158840
567.101	0.0158997
567.179	0.0158386
567.257	0.0158566
567.335	0.0158871
567.413	0.0160637
567.491	0.0158455
567.569	0.0160812
567.648	0.0157970
567.726	0.0158859
567.804	0.0159817
567.882	0.0160927
567.960	0.0159691
568.038	0.0156979
568.116	0.0157040
568.194	0.0157398
568.273	0.0159126
568.351	0.0162743
568.429	0.0160568
568.507	0.0162106
568.585	0.0159264
568.663	0.0156162
568.741	0.0157032
568.819	0.0160881
568.898	0.0160831
568.976	0.0158772
569.054	0.0160965
569.132	0.0161648
569.210	0.0161285
569.288	0.0159302
569.366	0.0156963
569.444	0.0156586
569.523	0.0157471
569.601	0.0161850
569.679	0.0160671
569.757	0.0157898
569.835	0.0157574
569.913	0.0157726
569.991	0.0161598
570.069	0.0161346
570.148	0.0159782
570.226	0.0161369
570.304	0.0158379
570.382	0.0159233
570.460	0.0162075
570.538	0.0161949
570.616	0.0159599
570.694	0.0159668
570.773	0.0159267
570.851	0.0155674
570.929	0.0157627
571.007	0.0157890
571.085	0.0159584
571.163	0.0158157
571.241	0.0158409
571.319	0.0162937
571.398	0.0158920
571.476	0.0161777
571.554	0.0156944
571.632	0.0156532
571.710	0.0160873
571.788	0.0160431
571.866	0.0159641
571.944	0.0158978
572.023	0.0161938
572.101	0.0154625
572.179	0.0158501
572.257	0.0157036
572.335	0.0159977
572.413	0.0160133
572.491	0.0159222
572.569	0.0158653
572.648	0.0157230
572.726	0.0157730
572.804	0.0157703
572.882	0.0161396
572.960	0.0158554
573.038	0.0156597
573.116	0.0158001
573.194	0.0160736
573.273	0.0158035
573.351	0.0159874
573.429	0.0159874
573.507	0.0159271
573.585	0.0160069
573.663	0.0160328
573.741	0.0157177
573.819	0.0159111
573.898	0.0159580
573.976	0.0160938
574.054	0.0159088
574.132	0.0159573
574.210	0.0159218
574.288	0.0155567
574.366	0.0157646
574.444	0.0158768
574.523	0.0158688
574.601	0.0155102
574.679	0.0157810
574.757	0.0163181
574.835	0.0159382
574.913	0.0157227
574.991	0.0157871
575.069	0.0159100
575.148	0.0158173
575.226	0.0160336
575.304	0.0157524
575.382	0.0159630
575.460	0.0158718
575.538	0.0157757
575.616	0.0158649
575.694	0.0159283
575.773	0.0156666
575.851	0.0161163
575.929	0.0160217
576.007	0.0159603
576.085	0.0159805
576.163	0.0160999
576.241	0.0158287
576.319	0.0156082
576.398	0.0160225
576.476	0.0157562
576.554	0.0158295
576.632	0.0159561
576.710	0.0160130
576.788	0.0157074
576.866	0.0158714
576.944	0.0161045
577.023	0.0159367
577.101	0.0155678
577.179	0.0159878
577.257	0.0160049
577.335	0.0159134
577.413	0.0158138
577.491	0.0158730
577.569	0.0157387
577.648	0.0158344
577.726	0.0160744
577.804	0.0160561
577.882	0.0157497
577.960	0.0160320
578.038	0.0158493
578.116	0.0156113
578.194	0.0157490
578.273	0.0159252
578.351	0.0156178
578.429	0.0156265
578.507	0.0163288
578.585	0.0158310
578.663	0.0158684
578.741	0.0158657
578.819	0.0160706
578.898	0.0156620
578.976	0.0160938
579.054	0.0158466
579.132	0.0157135
579.210	0.0157150
579.288	0.0158901
579.366	0.0155643
579.444	0.0158356
579.523	0.0155411
579.601	0.0159443
579.679	0.0159981
579.757	0.0160698
579.835	0.0158382
579.913	0.0158710
579.991	0.0158791
580.069	0.0158230
580.148	0.0157055
580.226	0.0157959
580.304	0.0159729
580.382	0.0157574
580.460	0.0158585
580.538	0.0158470
580.616	0.0160038
580.694	0.0160164
580.773	0.0157993
580.851	0.0153942
580.929	0.0158524
581.007	0.0160099
581.085	0.0157890
581.163	0.0159584
581.241	0.0159847
581.319	0.0157730
581.398	0.0159256
581.476	0.0157791
581.554	0.0159973
581.632	0.0158489
581.710	0.0161182
581.788	0.0160019
581.866	0.0157532
581.944	0.0156933
582.023	0.0153851
582.101	0.0158978
582.179	0.0158512
582.257	0.0159142
582.335	0.0157528
582.413	0.0158257
582.491	0.0159328
582.569	0.0157433
582.648	0.0158951
582.726	0.0159477
582.804	0.0157177
582.882	0.0156563
582.960	0.0156281
583.038	0.0161823
583.116	0.0157528
583.194	0.0155437
583.273	0.0159286
583.351	0.0160007
583.429	0.0158764
583.507	0.0158867
583.585	0.0158875
583.663	0.0159321
583.741	0.0155434
583.819	0.0157703
583.898	0.0157513
583.976	0.0155209
584.054	0.0158562
584.132	0.0158813
584.210	0.0156403
584.288	0.0157154
584.366	0.0162258
584.444	0.0159466
584.523	0.0161461
584.601	0.0155239
584.679	0.0157726
584.757	0.0160931
584.835	0.0158470
584.913	0.0158054
584.991	0.0156750
585.069	0.0156696
585.148	0.0156918
585.226	0.0160175
585.304	0.0156513
585.382	0.0156368
585.460	0.0155689
585.538	0.0158413
585.616	0.0157246
585.694	0.0156776
585.773	0.0159584
585.851	0.0158123
585.929	0.0157501
586.007	0.0155251
586.085	0.0156662
586.163	0.0155876
586.241	0.0157337
586.319	0.0161301
586.398	0.0159214
586.476	0.0158363
586.554	0.0156837
586.632	0.0157211
586.710	0.0159016
586.788	0.0158272
586.866	0.0159653
586.944	0.0160011
587.023	0.0157707
587.101	0.0157162
587.179	0.0158756
587.257	0.0156498
587.335	0.0154987
587.413	0.0158169
587.491	0.0158840
587.569	0.0159336
587.648	0.0156616
587.726	0.0157841
587.804	0.0159565
587.882	0.0157356
587.960	0.0156155
588.038	0.0156410
588.116	0.0158348
588.194	0.0155071
588.273	0.0158020
588.351	0.0157677
588.429	0.0155788
588.507	0.0157173
588.585	0.0159657
588.663	0.0157349
588.741	0.0158871
588.819	0.0160866
588.898	0.0155701
588.976	0.0157452
589.054	0.0161568
589.132	0.0156349
589.210	0.0159878
589.288	0.0159523
589.366	0.0160789
589.444	0.0158615
589.523	0.0161144
589.601	0.0159534
589.679	0.0160847
589.757	0.0158806
589.835	0.0156918
589.913	0.0157669
589.991	0.0159782
590.069	0.0157490
590.148	0.0158035
590.226	0.0159599
590.304	0.0161205
590.382	0.0157154
590.460	0.0155701
590.538	0.0159416
590.616	0.0157352
590.694	0.0159569
590.773	0.0160503
590.851	0.0158192
590.929	0.0158760
591.007	0.0156506
591.085	0.0159496
591.163	0.0155506
591.241	0.0160072
591.319	0.0157387
591.398	0.0155643
591.476	0.0158325
591.554	0.0159863
591.632	0.0154976
591.710	0.0155029
591.788	0.0159149
591.866	0.0159512
591.944	0.0159515
592.023	0.0159912
592.101	0.0155651
592.179	0.0154976
592.257	0.0157749
592.335	0.0159866
592.413	0.0161892
592.491	0.0157543
592.569	0.0157040
592.648	0.0158367
592.726	0.0160347
592.804	0.0161011
592.882	0.0159431
592.960	0.0159283
593.038	0.0156281
593.116	0.0154758
593.194	0.0157001
593.273	0.0158474
593.351	0.0155769
593.429	0.0157169
593.507	0.0161484
593.585	0.0157269
593.663	0.0154884
593.741	0.0157635
593.819	0.0163498
593.898	0.0160664
593.976	0.0157101
594.054	0.0156933
594.132	0.0156620
594.210	0.0159462
594.288	0.0158222
594.366	0.0157742
594.444	0.0156979
594.523	0.0155800
594.601	0.0158199
594.679	0.0159668
594.757	0.0158188
594.835	0.0159702
594.913	0.0159344
594.991	0.0160896
595.069	0.0159817
595.148	0.0161678
595.226	0.0161133
595.304	0.0157364
595.382	0.0159462
595.460	0.0160187
595.538	0.0157822
595.616	0.0159290
595.694	0.0156597
595.773	0.0157894
595.851	0.0161106
595.929	0.0156185
596.007	0.0155121
596.085	0.0160469
596.163	0.0157578
596.241	0.0153492
596.319	0.0159546
596.398	0.0157421
596.476	0.0158951
596.554	0.0159348
596.632	0.0161083
596.710	0.0159462
596.788	0.0154957
596.866	0.0155582
596.944	0.0161217
597.023	0.0156807
597.101	0.0156372
597.179	0.0157906
597.257	0.0158489
597.335	0.0157555
597.413	0.0157909
597.491	0.0156223
597.569	0.0155941
597.648	0.0158222
597.726	0.0160374
597.804	0.0157848
597.882	0.0157291
597.960	0.0156818
598.038	0.0161125
598.116	0.0158890
598.194	0.0156467
598.273	0.0157337
598.351	0.0159615
598.429	0.0158161
598.507	0.0157578
598.585	0.0155338
598.663	0.0157860
598.741	0.0158707
598.819	0.0161282
598.898	0.0160229
598.976	0.0157436
599.054	0.0156879
599.132	0.0158749
599.210	0.0159973
599.288	0.0158756
599.366	0.0158749
599.444	0.0153152
599.523	0.0157890
599.601	0.0156712
599.679	0.0159420
599.757	0.0159515
599.835	0.0156933
599.913	0.0158813
599.991	0.0159401
600.069	0.0157898
600.148	0.0159203
600.226	0.0157501
600.304	0.0158974
600.382	0.0159729
600.460	0.0157856
600.538	0.0158756
600.616	0.0158680
600.694	0.0159645
600.773	0.0159756
600.851	0.0154449
600.929	0.0155510
601.007	0.0156689
601.085	0.0160717
601.163	0.0160946
601.241	0.0157120
601.319	0.0155613
601.398	0.0158546
601.476	0.0161983
601.554	0.0159496
601.632	0.0162922
601.710	0.0160114
601.788	0.0157795
601.866	0.0157665
601.944	0.0158161
602.023	0.0161446
602.101	0.0160091
602.179	0.0155529
602.257	0.0158661
602.335	0.0164089
602.413	0.0161472
602.491	0.0158211
602.569	0.0157276
602.648	0.0158672
602.726	0.0154865
602.804	0.0158901
602.882	0.0161888
602.960	0.0157692
603.038	0.0158665
603.116	0.0157215
603.194	0.0157745
603.273	0.0156696
603.351	0.0158974
603.429	0.0159416
603.507	0.0162449
603.585	0.0158566
603.663	0.0160316
603.741	0.0152935
603.819	0.0156055
603.898	0.0158413
603.976	0.0157230
604.054	0.0159214
604.132	0.0161697
604.210	0.0157970
604.288	0.0156349
604.366	0.0157879
604.444	0.0161465
604.523	0.0159863
604.601	0.0157188
604.679	0.0156742
604.757	0.0159214
604.835	0.0158806
604.913	0.0157162
604.991	0.0158054
605.069	0.0158939
605.148	0.0158424
605.226	0.0157635
605.304	0.0156155
605.382	0.0156734
605.460	0.0160683
605.538	0.0159557
605.616	0.0156715
605.694	0.0157043
605.773	0.0158756
605.851	0.0160652
605.929	0.0158646
606.007	0.0156986
606.085	0.0155750
606.163	0.0159897
606.241	0.0159721
606.319	0.0157867
606.398	0.0156841
606.476	0.0159199
606.554	0.0154755
606.632	0.0157692
606.710	0.0157856
606.788	0.0157131
606.866	0.0159805
606.944	0.0156940
607.023	0.0158195
607.101	0.0157555
607.179	0.0158298
607.257	0.0158382
607.335	0.0160938
607.413	0.0159687
607.491	0.0158154
607.569	0.0159000
607.648	0.0157925
607.726	0.0157654
607.804	0.0157536
607.882	0.0156719
607.960	0.0158245
608.038	0.0161449
608.116	0.0160484
608.194	0.0160347
608.273	0.0159042
608.351	0.0156979
608.429	0.0156185
608.507	0.0157726
608.585	0.0161945
608.663	0.0157433
608.741	0.0158501
608.819	0.0154118
608.898	0.0158092
608.976	0.0157127
609.054	0.0157684
609.132	0.0159042
609.210	0.0158802
609.288	0.0156876
609.366	0.0161282
609.444	0.0161888
609.523	0.0158546
609.601	0.0160370
609.679	0.0160492
609.757	0.0160538
609.835	0.0161945
609.913	0.0160683
609.991	0.0159969
610.069	0.0161606
610.148	0.0161896
610.226	0.0163139
610.304	0.0159912
610.382	0.0160797
610.460	0.0160629
610.538	0.0160175
610.616	0.0161930
610.694	0.0158295
610.773	0.0159492
610.851	0.0158703
610.929	0.0155704
611.007	0.0159611
611.085	0.0161030
611.163	0.0155487
611.241	0.0156879
611.319	0.0155567
611.398	0.0155762
611.476	0.0155720
611.554	0.0155773
611.632	0.0153664
611.710	0.0158745
611.788	0.0156967
611.866	0.0155846
611.944	0.0158207
612.023	0.0155624
612.101	0.0154385
612.179	0.0154728
612.257	0.0154327
612.335	0.0153252
612.413	0.0156975
612.491	0.0159000
612.569	0.0157768
612.648	0.0157345
612.726	0.0157757
612.804	0.0156662
612.882	0.0158489
612.960	0.0160995
613.038	0.0156796
613.116	0.0157837
613.194	0.0158390
613.273	0.0159218
613.351	0.0155766
613.429	0.0157440
613.507	0.0157799
613.585	0.0159561
613.663	0.0160465
613.741	0.0160774
613.819	0.0159073
613.898	0.0156643
613.976	0.0160492
614.054	0.0156681
614.132	0.0156330
614.210	0.0158897
614.288	0.0157749
614.366	0.0157772
614.444	0.0162186
614.523	0.0157429
614.601	0.0158619
614.679	0.0156170
614.757	0.0160179
614.835	0.0158527
614.913	0.0157902
614.991	0.0162922
615.069	0.0157513
615.148	0.0158646
615.226	0.0159348
615.304	0.0158592
615.382	0.0156902
615.460	0.0160755
615.538	0.0158016
615.616	0.0160801
615.694	0.0157333
615.773	0.0157452
615.851	0.0159851
615.929	0.0160240
616.007	0.0158772
616.085	0.0157291
616.163	0.0157684
616.241	0.0159405
616.319	0.0157494
616.398	0.0158169
616.476	0.0157860
616.554	0.0158020
616.632	0.0158470
616.710	0.0158764
616.788	0.0157135
616.866	0.0157890
616.944	0.0160332
617.023	0.0159939
617.101	0.0160355
617.179	0.0157974
617.257	0.0160057
617.335	0.0158325
617.413	0.0157375
617.491	0.0159233
617.569	0.0159592
617.648	0.0160809
617.726	0.0161732
617.804	0.0158436
617.882	0.0155956
617.960	0.0161606
618.038	0.0158886
618.116	0.0159180
618.194	0.0160675
618.273	0.0158588
618.351	0.0159317
618.429	0.0161098
618.507	0.0156216
618.585	0.0159218
618.663	0.0159977
618.741	0.0156303
618.819	0.0159824
618.898	0.0161831
618.976	0.0159824
619.054	0.0156643
619.132	0.0159225
619.210	0.0158272
619.288	0.0156670
619.366	0.0156197
619.444	0.0159531
619.523	0.0156937
619.601	0.0155949
619.679	0.0157082
619.757	0.0155735
619.835	0.0157753
619.913	0.0160938
619.991	0.0157299
620.069	0.0157200
620.148	0.0157581
620.226	0.0160770
620.304	0.0161217
620.382	0.0158226
620.460	0.0158653
620.538	0.0158833
620.616	0.0158024
620.694	0.0157234
620.773	0.0156593
620.851	0.0158993
620.929	0.0154945
621.007	0.0157333
621.085	0.0157024
621.163	0.0156742
621.241	0.0158173
621.319	0.0159294
621.398	0.0157505
621.476	0.0158123
621.554	0.0160130
621.632	0.0156460
621.710	0.0159031
621.788	0.0158775
621.866	0.0163074
621.944	0.0157326
622.023	0.0160450
622.101	0.0159054
622.179	0.0157608
622.257	0.0158356
622.335	0.0157982
622.413	0.0158497
622.491	0.0159172
622.569	0.0155586
622.648	0.0156685
622.726	0.0159061
622.804	0.0159603
622.882	0.0158340
622.960	0.0160133
623.038	0.0160156
623.116	0.0160301
623.194	0.0157001
623.273	0.0156143
623.351	0.0155781
623.429	0.0160782
623.507	0.0160286
623.585	0.0158409
623.663	0.0155918
623.741	0.0160007
623.819	0.0156891
623.898	0.0156956
623.976	0.0159607
624.054	0.0160339
624.132	0.0161991
624.210	0.0162045
624.288	0.0155750
624.366	0.0156563
624.444	0.0158394
624.523	0.0158817
624.601	0.0158268
624.679	0.0159065
624.757	0.0159760
624.835	0.0160236
624.913	0.0155537
624.991	0.0157692
625.069	0.0158806
625.148	0.0156849
625.226	0.0157265
625.304	0.0157932
625.382	0.0159988
625.460	0.0158829
625.538	0.0161282
625.616	0.0159615
625.694	0.0157116
625.773	0.0157589
625.851	0.0155506
625.929	0.0155987
626.007	0.0158474
626.085	0.0156864
626.163	0.0157688
626.241	0.0161156
626.319	0.0158264
626.398	0.0154266
626.476	0.0156013
626.554	0.0157269
626.632	0.0160168
626.710	0.0158440
626.788	0.0160507
626.866	0.0158466
626.944	0.0156231
627.023	0.0157314
627.101	0.0157333
627.179	0.0159496
627.257	0.0160721
627.335	0.0156483
627.413	0.0155964
627.491	0.0157909
627.569	0.0156742
627.648	0.0157272
627.726	0.0159492
627.804	0.0161972
627.882	0.0157696
627.960	0.0159374
628.038	0.0157162
628.116	0.0156319
628.194	0.0157154
628.273	0.0159344
628.351	0.0158470
628.429	0.0154831
628.507	0.0161594
628.585	0.0159706
628.663	0.0155418
628.741	0.0157154
628.819	0.0157536
628.898	0.0161846
628.976	0.0160648
629.054	0.0156471
629.132	0.0157722
629.210	0.0159389
629.288	0.0159672
629.366	0.0159779
629.444	0.0162285
629.523	0.0155270
629.601	0.0157444
629.679	0.0158142
629.757	0.0159561
629.835	0.0159679
629.913	0.0156227
629.991	0.0155571
630.069	0.0159279
630.148	0.0159389
630.226	0.0159634
630.304	0.0160160
630.382	0.0156963
630.460	0.0155579
630.538	0.0156776
630.616	0.0160568
630.694	0.0158596
630.773	0.0159306
630.851	0.0159286
630.929	0.0157459
631.007	0.0159298
631.085	0.0160561
631.163	0.0157516
631.241	0.0158237
631.319	0.0159626
631.398	0.0160019
631.476	0.0157467
631.554	0.0158131
631.632	0.0159790
631.710	0.0159359
631.788	0.0159660
631.866	0.0159470
631.944	0.0157959
632.023	0.0158787
632.101	0.0158840
632.179	0.0159264
632.257	0.0157352
632.335	0.0158817
632.413	0.0159977
632.491	0.0158504
632.569	0.0156372
632.648	0.0157108
632.726	0.0161282
632.804	0.0161213
632.882	0.0157711
632.960	0.0156933
633.038	0.0159706
633.116	0.0157249
633.194	0.0157269
633.273	0.0156902
633.351	0.0158600
633.429	0.0159069
633.507	0.0161133
633.585	0.0158653
633.663	0.0158806
633.741	0.0156963
633.819	0.0159397
633.898	0.0156834
633.976	0.0155800
634.054	0.0158630
634.132	0.0162453
634.210	0.0156734
634.288	0.0157150
634.366	0.0157948
634.444	0.0156364
634.523	0.0158276
634.601	0.0157185
634.679	0.0155895
634.757	0.0157856
634.835	0.0156582
634.913	0.0158154
634.991	0.0158752
635.069	0.0157162
635.148	0.0158497
635.226	0.0161591
635.304	0.0159893
635.382	0.0159515
635.460	0.0158306
635.538	0.0155846
635.616	0.0158031
635.694	0.0159603
635.773	0.0159603
635.851	0.0155422
635.929	0.0158543
636.007	0.0155457
636.085	0.0155846
636.163	0.0158978
636.241	0.0154446
636.319	0.0158085
636.398	0.0158226
636.476	0.0157669
636.554	0.0161026
636.632	0.0158909
636.710	0.0159069
636.788	0.0159306
636.866	0.0157265
636.944	0.0159622
637.023	0.0158722
637.101	0.0156437
637.179	0.0157181
637.257	0.0156895
637.335	0.0158932
637.413	0.0159950
637.491	0.0158192
637.569	0.0158207
637.648	0.0159904
637.726	0.0156925
637.804	0.0159428
637.882	0.0157822
637.960	0.0157867
638.038	0.0157440
638.116	0.0156944
638.194	0.0159786
638.273	0.0158138
638.351	0.0158665
638.429	0.0158962
638.507	0.0156509
638.585	0.0157448
638.663	0.0155434
638.741	0.0156624
638.819	0.0157902
638.898	0.0160412
638.976	0.0159382
639.054	0.0156818
639.132	0.0157093
639.210	0.0158562
639.288	0.0156261
639.366	0.0159443
639.444	0.0161297
639.523	0.0158131
639.601	0.0158890
639.679	0.0156219
639.757	0.0159817
639.835	0.0160294
639.913	0.0161037
639.991	0.0158852
640.069	0.0157967
640.148	0.0159042
640.226	0.0159813
640.304	0.0160599
640.382	0.0158646
640.460	0.0158428
640.538	0.0159412
640.616	0.0161320
640.694	0.0160427
640.773	0.0159252
640.851	0.0155880
640.929	0.0159447
641.007	0.0158966
641.085	0.0159897
641.163	0.0158142
641.241	0.0158924
641.319	0.0158737
641.398	0.0158173
641.476	0.0156715
641.554	0.0156559
641.632	0.0160454
641.710	0.0156635
641.788	0.0159805
641.866	0.0160530
641.944	0.0157726
642.023	0.0157013
642.101	0.0156075
642.179	0.0158825
642.257	0.0159584
642.335	0.0160576
642.413	0.0156395
642.491	0.0157269
642.569	0.0158016
642.648	0.0160702
642.726	0.0158737
642.804	0.0159882
642.882	0.0161217
642.960	0.0160816
643.038	0.0158318
643.116	0.0156666
643.194	0.0159313
643.273	0.0159100
643.351	0.0156586
643.429	0.0156460
643.507	0.0156124
643.585	0.0157764
643.663	0.0160397
643.741	0.0158688
643.819	0.0154594
643.898	0.0157822
643.976	0.0157993
644.054	0.0157055
644.132	0.0157436
644.210	0.0158245
644.288	0.0156616
644.366	0.0158039
644.444	0.0154678
644.523	0.0154980
644.601	0.0158852
644.679	0.0157040
644.757	0.0156281
644.835	0.0156586
644.913	0.0156506
644.991	0.0154991
645.069	0.0159443
645.148	0.0159027
645.226	0.0156406
645.304	0.0158215
645.382	0.0159153
645.460	0.0160343
645.538	0.0156662
645.616	0.0157681
645.694	0.0159641
645.773	0.0158318
645.851	0.0159634
645.929	0.0158230
646.007	0.0158863
646.085	0.0159367
646.163	0.0156563
646.241	0.0160286
646.319	0.0157475
646.398	0.0159004
646.476	0.0161022
646.554	0.0158131
646.632	0.0155605
646.710	0.0157356
646.788	0.0158081
646.866	0.0156956
646.944	0.0158775
647.023	0.0158684
647.101	0.0155682
647.179	0.0158440
647.257	0.0158302
647.335	0.0158749
647.413	0.0157162
647.491	0.0158535
647.569	0.0161167
647.648	0.0159927
647.726	0.0157700
647.804	0.0158882
647.882	0.0159809
647.960	0.0157986
648.038	0.0155693
648.116	0.0160816
648.194	0.0159058
648.273	0.0159008
648.351	0.0160061
648.429	0.0156689
648.507	0.0158440
648.585	0.0159546
648.663	0.0157513
648.741	0.0160126
648.819	0.0157887
648.898	0.0157635
648.976	0.0157185
649.054	0.0158596
649.132	0.0157131
649.210	0.0157410
649.288	0.0157448
649.366	0.0158688
649.444	0.0160130
649.523	0.0159733
649.601	0.0154491
649.679	0.0158447
649.757	0.0160522
649.835	0.0157959
649.913	0.0160042
649.991	0.0158222
650.069	0.0155430
650.148	0.0158920
650.226	0.0160809
650.304	0.0159615
650.382	0.0159641
650.460	0.0162006
650.538	0.0156601
650.616	0.0159153
650.694	0.0157673
650.773	0.0156250
650.851	0.0158123
650.929	0.0160759
651.007	0.0160679
651.085	0.0160625
651.163	0.0159256
651.241	0.0155651
651.319	0.0159912
651.398	0.0159374
651.476	0.0158268
651.554	0.0161224
651.632	0.0158009
651.710	0.0157181
651.788	0.0157791
651.866	0.0160599
651.944	0.0158630
652.023	0.0158894
652.101	0.0159157
652.179	0.0155006
652.257	0.0158688
652.335	0.0156128
652.413	0.0159031
652.491	0.0159618
652.569	0.0159355
652.648	0.0161991
652.726	0.0157486
652.804	0.0157192
652.882	0.0159607
652.960	0.0158943
653.038	0.0158184
653.116	0.0160137
653.194	0.0160004
653.273	0.0160732
653.351	0.0158333
653.429	0.0159470
653.507	0.0157349
653.585	0.0161911
653.663	0.0162346
653.741	0.0158974
653.819	0.0157455
653.898	0.0159798
653.976	0.0158932
654.054	0.0156254
654.132	0.0158825
654.210	0.0161598
654.288	0.0160587
654.366	0.0160572
654.444	0.0156624
654.523	0.0161381
654.601	0.0159008
654.679	0.0157600
654.757	0.0159382
654.835	0.0158432
654.913	0.0157558
654.991	0.0159016
655.069	0.0157413
655.148	0.0158001
655.226	0.0158916
655.304	0.0159786
655.382	0.0160580
655.460	0.0160393
655.538	0.0157444
655.616	0.0158379
655.694	0.0158825
655.773	0.0157574
655.851	0.0161167
655.929	0.0158669
656.007	0.0160374
656.085	0.0158340
656.163	0.0157642
656.241	0.0160660
656.319	0.0158398
656.398	0.0157906
656.476	0.0158508
656.554	0.0155476
656.632	0.0160175
656.710	0.0160748
656.788	0.0158493
656.866	0.0160614
656.944	0.0159283
657.023	0.0160294
657.101	0.0159031
657.179	0.0159218
657.257	0.0159161
657.335	0.0160210
657.413	0.0158234
657.491	0.0160618
657.569	0.0157818
657.648	0.0156700
657.726	0.0157829
657.804	0.0159904
657.882	0.0160500
657.960	0.0159382
658.038	0.0158195
658.116	0.0160789
658.194	0.0159065
658.273	0.0158077
658.351	0.0157879
658.429	0.0157417
658.507	0.0157921
658.585	0.0161377
658.663	0.0160545
658.741	0.0158703
658.819	0.0161163
658.898	0.0161640
658.976	0.0158451
659.054	0.0157063
659.132	0.0158451
659.210	0.0160042
659.288	0.0158764
659.366	0.0157475
659.444	0.0161495
659.523	0.0158028
659.601	0.0157719
659.679	0.0160328
659.757	0.0160961
659.835	0.0158382
659.913	0.0160694
659.991	0.0160175
660.069	0.0158684
660.148	0.0162102
660.226	0.0158195
660.304	0.0157959
660.382	0.0157406
660.460	0.0159157
660.538	0.0159855
660.616	0.0157459
660.694	0.0157963
660.773	0.0159603
660.851	0.0158260
660.929	0.0158695
661.007	0.0161636
661.085	0.0157463
661.163	0.0157948
661.241	0.0158394
661.319	0.0158733
661.398	0.0159859
661.476	0.0158939
661.554	0.0156345
661.632	0.0159389
661.710	0.0158398
661.788	0.0158001
661.866	0.0158283
661.944	0.0157780
662.023	0.0161114
662.101	0.0158600
662.179	0.0157803
662.257	0.0158371
662.335	0.0154873
662.413	0.0154640
662.491	0.0161579
662.569	0.0157681
662.648	0.0158924
662.726	0.0157417
662.804	0.0155445
662.882	0.0158840
662.960	0.0159767
663.038	0.0161060
663.116	0.0158779
663.194	0.0157505
663.273	0.0158405
663.351	0.0159775
663.429	0.0159077
663.507	0.0160248
663.585	0.0156895
663.663	0.0158470
663.741	0.0157253
663.819	0.0159397
663.898	0.0158962
663.976	0.0157211
664.054	0.0158947
664.132	0.0158562
664.210	0.0156422
664.288	0.0157093
664.366	0.0161610
664.444	0.0158184
664.523	0.0158897
664.601	0.0157028
664.679	0.0157841
664.757	0.0158417
664.835	0.0159019
664.913	0.0159931
664.991	0.0158619
665.069	0.0159363
665.148	0.0161934
665.226	0.0159916
665.304	0.0159199
665.382	0.0159206
665.460	0.0159706
665.538	0.0158783
665.616	0.0156490
665.694	0.0158291
665.773	0.0158886
665.851	0.0161594
665.929	0.0160213
666.007	0.0157894
666.085	0.0157631
666.163	0.0157017
666.241	0.0157757
666.319	0.0155201
666.398	0.0157078
666.476	0.0158543
666.554	0.0159065
666.632	0.0159489
666.710	0.0157326
666.788	0.0160030
666.866	0.0159222
666.944	0.0157848
667.023	0.0157944
667.101	0.0159557
667.179	0.0159920
667.257	0.0156212
667.335	0.0154385
667.413	0.0160194
667.491	0.0159828
667.569	0.0158581
667.648	0.0158630
667.726	0.0156479
667.804	0.0158443
667.882	0.0159489
667.960	0.0160030
668.038	0.0158592
668.116	0.0158520
668.194	0.0158695
668.273	0.0158787
668.351	0.0160259
668.429	0.0160229
668.507	0.0160961
668.585	0.0156879
668.663	0.0157795
668.741	0.0160992
668.819	0.0159142
668.898	0.0160484
668.976	0.0157288
669.054	0.0156418
669.132	0.0161465
669.210	0.0158569
669.288	0.0157776
669.366	0.0159439
669.444	0.0157299
669.523	0.0161880
669.601	0.0160919
669.679	0.0159340
669.757	0.0158463
669.835	0.0157368
669.913	0.0157475
669.991	0.0157040
670.069	0.0159241
670.148	0.0158352
670.226	0.0157532
670.304	0.0160461
670.382	0.0157345
670.460	0.0159355
670.538	0.0158081
670.616	0.0158924
670.694	0.0159370
670.773	0.0158607
670.851	0.0160191
670.929	0.0159588
671.007	0.0155762
671.085	0.0158310
671.163	0.0157288
671.241	0.0158695
671.319	0.0158581
671.398	0.0158955
671.476	0.0159321
671.554	0.0158497
671.632	0.0160450
671.710	0.0158192
671.788	0.0158356
671.866	0.0157730
671.944	0.0157272
672.023	0.0159126
672.101	0.0158443
672.179	0.0160686
672.257	0.0158485
672.335	0.0158268
672.413	0.0159122
672.491	0.0158333
672.569	0.0158077
672.648	0.0160950
672.726	0.0157887
672.804	0.0158859
672.882	0.0161934
672.960	0.0158310
673.038	0.0155876
673.116	0.0158821
673.194	0.0155922
673.273	0.0156219
673.351	0.0157486
673.429	0.0158005
673.507	0.0157143
673.585	0.0159172
673.663	0.0156910
673.741	0.0156822
673.819	0.0160736
673.898	0.0159412
673.976	0.0156212
674.054	0.0155678
674.132	0.0160431
674.210	0.0159309
674.288	0.0160233
674.366	0.0160622
674.444	0.0158154
674.523	0.0155087
674.601	0.0156845
674.679	0.0154804
674.757	0.0157864
674.835	0.0158360
674.913	0.0155525
674.991	0.0156197
675.069	0.0159176
675.148	0.0155594
675.226	0.0158039
675.304	0.0157341
675.382	0.0158615
675.460	0.0156113
675.538	0.0157803
675.616	0.0159195
675.694	0.0160130
675.773	0.0156738
675.851	0.0155071
675.929	0.0154251
676.007	0.0155827
676.085	0.0155682
676.163	0.0157246
676.241	0.0156570
676.319	0.0155716
676.398	0.0157452
676.476	0.0158356
676.554	0.0155880
676.632	0.0158291
676.710	0.0158722
676.788	0.0156204
676.866	0.0159008
676.944	0.0158203
677.023	0.0158180
677.101	0.0156361
677.179	0.0155743
677.257	0.0153721
677.335	0.0159500
677.413	0.0159172
677.491	0.0159370
677.569	0.0162621
677.648	0.0161835
677.726	0.0158283
677.804	0.0159615
677.882	0.0157665
677.960	0.0157280
678.038	0.0161880
678.116	0.0158024
678.194	0.0158016
678.273	0.0157585
678.351	0.0158089
678.429	0.0160892
678.507	0.0160419
678.585	0.0160339
678.663	0.0159191
678.741	0.0155819
678.819	0.0156567
678.898	0.0157154
678.976	0.0154518
679.054	0.0159012
679.132	0.0158531
679.210	0.0157505
679.288	0.0159073
679.366	0.0156662
679.444	0.0156033
679.523	0.0160454
679.601	0.0156601
679.679	0.0156353
679.757	0.0157391
679.835	0.0157135
679.913	0.0158382
679.991	0.0157818
680.069	0.0154949
680.148	0.0155209
680.226	0.0156609
680.304	0.0156837
680.382	0.0158947
680.460	0.0156952
680.538	0.0157051
680.616	0.0157375
680.694	0.0158859
680.773	0.0157013
680.851	0.0157684
680.929	0.0158569
681.007	0.0156574
681.085	0.0157562
681.163	0.0154385
681.241	0.0158470
681.319	0.0157669
681.398	0.0155781
681.476	0.0156063
681.554	0.0154659
681.632	0.0158169
681.710	0.0152824
681.788	0.0154800
681.866	0.0154163
681.944	0.0154942
682.023	0.0153221
682.101	0.0154209
682.179	0.0153385
682.257	0.0152721
682.335	0.0155418
682.413	0.0153072
682.491	0.0149963
682.569	0.0153564
682.648	0.0153355
682.726	0.0150669
682.804	0.0151699
682.882	0.0154369
682.960	0.0153564
683.038	0.0150696
683.116	0.0149818
683.194	0.0152767
683.273	0.0152508
683.351	0.0154186
683.429	0.0152740
683.507	0.0152035
683.585	0.0155956
683.663	0.0153831
683.741	0.0156261
683.819	0.0154800
683.898	0.0153019
683.976	0.0150845
684.054	0.0155182
684.132	0.0153313
684.210	0.0152798
684.288	0.0152763
684.366	0.0154285
684.444	0.0153923
684.523	0.0152370
684.601	0.0150425
684.679	0.0149445
684.757	0.0153439
684.835	0.0153442
684.913	0.0151600
684.991	0.0151337
685.069	0.0150681
685.148	0.0147644
685.226	0.0153515
685.304	0.0145981
685.382	0.0144279
685.460	0.0145042
685.538	0.0144215
685.616	0.0142498
685.694	0.0143215
685.773	0.0143143
685.851	0.0141689
685.929	0.0137905
686.007	0.0138973
686.085	0.0138363
686.163	0.0137722
686.241	0.0134254
686.319	0.0136292
686.398	0.0132198
686.476	0.0130341
686.554	0.0127922
686.632	0.0124187
686.710	0.0124535
686.788	0.0124203
686.866	0.0120377
686.944	0.0118172
687.023	0.0119122
687.101	0.0116524
687.179	0.0114643
687.257	0.0110725
687.335	0.0108097
687.413	0.0108837
687.491	0.0105087
687.569	0.0104424
687.648	0.0103260
687.726	0.00988770
687.804	0.00952454
687.882	0.00974884
687.960	0.00958900
688.038	0.00962753
688.116	0.0102875
688.194	0.0120998
688.273	0.0138153
688.351	0.0161621
688.429	0.0197983
688.507	0.0236038
688.585	0.0286133
688.663	0.0341740
688.741	0.0397671
688.819	0.0458675
688.898	0.0513195
688.976	0.0567818
689.054	0.0614727
689.132	0.0654041
689.210	0.0682037
689.288	0.0701313
689.366	0.0705795
689.444	0.0704483
689.523	0.0691940
689.601	0.0665115
689.679	0.0630951
689.757	0.0591583
689.835	0.0539150
689.913	0.0482765
689.991	0.0420620
690.069	0.0349945
690.148	0.0276405
690.226	0.0201904
690.304	0.0125137
690.382	0.00455399
690.460	-0.00292702
690.538	-0.0101185
690.616	-0.0169308
690.694	-0.0231606
690.773	-0.0286301
690.851	-0.0328247
690.929	-0.0360981
691.007	-0.0378502
691.085	-0.0386776
691.163	-0.0386288
691.241	-0.0371792
691.319	-0.0346680
691.398	-0.0317955
691.476	-0.0279549
691.554	-0.0240902
691.632	-0.0197708
691.710	-0.0148113
691.788	-0.0106285
691.866	-0.00565720
691.944	-0.00170250
692.023	0.00197182
692.101	0.00578880
692.179	0.00909004
692.257	0.0119003
692.335	0.0143833
692.413	0.0161278
692.491	0.0176369
692.569	0.0185642
692.648	0.0193821
692.726	0.0196991
692.804	0.0198891
692.882	0.0193604
692.960	0.0191799
693.038	0.0189781
693.116	0.0183231
693.194	0.0178303
693.273	0.0174671
693.351	0.0168488
693.429	0.0163067
693.507	0.0163151
693.585	0.0155762
693.663	0.0152386
693.741	0.0152237
693.819	0.0152473
693.898	0.0150963
693.976	0.0157673
694.054	0.0159248
694.132	0.0165081
694.210	0.0167290
694.288	0.0172768
694.366	0.0173286
694.444	0.0178627
694.523	0.0181694
694.601	0.0184101
694.679	0.0183830
694.757	0.0186714
694.835	0.0186222
694.913	0.0188118
694.991	0.0187881
695.069	0.0186234
695.148	0.0185741
695.226	0.0184910
695.304	0.0183849
695.382	0.0185238
695.460	0.0185719
695.538	0.0187035
695.616	0.0185509
695.694	0.0188225
695.773	0.0192318
695.851	0.0190929
695.929	0.0188538
696.007	0.0189617
696.085	0.0195152
696.163	0.0195786
696.241	0.0199467
696.319	0.0199364
696.398	0.0201191
696.476	0.0202137
696.554	0.0204060
696.632	0.0206844
696.710	0.0211376
696.788	0.0206417
696.866	0.0208153
696.944	0.0211021
697.023	0.0213699
697.101	0.0213963
697.179	0.0214916
697.257	0.0213745
697.335	0.0212986
697.413	0.0213993
697.491	0.0213192
697.569	0.0209572
697.648	0.0207546
697.726	0.0207073
697.804	0.0204231
697.882	0.0199646
697.960	0.0189499
698.038	0.0188122
698.116	0.0183743
698.194	0.0175797
698.273	0.0169018
698.351	0.0163952
698.429	0.0156708
698.507	0.0154335
698.585	0.0151093
698.663	0.0148243
698.741	0.0146679
698.819	0.0140408
698.898	0.0141449
698.976	0.0144661
699.054	0.0144779
699.132	0.0146034
699.210	0.0150997
699.288	0.0154545
699.366	0.0159897
699.444	0.0167908
699.523	0.0168949
699.601	0.0175213
699.679	0.0179459
699.757	0.0187035
699.835	0.0190693
699.913	0.0194984
699.991	0.0200436
700.069	0.0201099
700.148	0.0199093
700.226	0.0202457
700.304	0.0198921
700.382	0.0195221
700.460	0.0198582
700.538	0.0191727
700.616	0.0186275
700.694	0.0185360
700.773	0.0179070
700.851	0.0170959
700.929	0.0163113
701.007	0.0161213
701.085	0.0155441
701.163	0.0149292
701.241	0.0145786
701.319	0.0140800
701.398	0.0136536
701.476	0.0132675
701.554	0.0125019
701.632	0.0123104
701.710	0.0125370
701.788	0.0124157
701.866	0.0127022
701.944	0.0127468
702.023	0.0126751
702.101	0.0131630
702.179	0.0129692
702.257	0.0129642
702.335	0.0136082
702.413	0.0139233
702.491	0.0140911
702.569	0.0142738
702.648	0.0145012
702.726	0.0148293
702.804	0.0147346
702.882	0.0149128
702.960	0.0151672
703.038	0.0153065
703.116	0.0153137
703.194	0.0153660
703.273	0.0152306
703.351	0.0149094
703.429	0.0150570
703.507	0.0152088
703.585	0.0147209
703.663	0.0145443
703.741	0.0148598
703.819	0.0147564
703.898	0.0148647
703.976	0.0149548
704.054	0.0146427
704.132	0.0145596
704.210	0.0149437
704.288	0.0149529
704.366	0.0149384
704.444	0.0148911
704.523	0.0146870
704.601	0.0149754
704.679	0.0149639
704.757	0.0148991
704.835	0.0149948
704.913	0.0145130
704.991	0.0145321
705.069	0.0145569
705.148	0.0149895
705.226	0.0149345
705.304	0.0149326
705.382	0.0151657
705.460	0.0151150
705.538	0.0149529
705.616	0.0153591
705.694	0.0153839
705.773	0.0155537
705.851	0.0155300
705.929	0.0160748
706.007	0.0156353
706.085	0.0158054
706.163	0.0159481
706.241	0.0162052
706.319	0.0161953
706.398	0.0161816
706.476	0.0161297
706.554	0.0163887
706.632	0.0165081
706.710	0.0168255
706.788	0.0166561
706.866	0.0167091
706.944	0.0163822
707.023	0.0164654
707.101	0.0166206
707.179	0.0165840
707.257	0.0165749
707.335	0.0161278
707.413	0.0163689
707.491	0.0162231
707.569	0.0160275
707.648	0.0159996
707.726	0.0161942
707.804	0.0159904
707.882	0.0160156
707.960	0.0160095
708.038	0.0161255
708.116	0.0160652
708.194	0.0160599
708.273	0.0159683
708.351	0.0161083
708.429	0.0159531
708.507	0.0158489
708.585	0.0155281
708.663	0.0153454
708.741	0.0153549
708.819	0.0153652
708.898	0.0149715
708.976	0.0151848
709.054	0.0153042
709.132	0.0148705
709.210	0.0149334
709.288	0.0154831
709.366	0.0153816
709.444	0.0154545
709.523	0.0153378
709.601	0.0156620
709.679	0.0159309
709.757	0.0160984
709.835	0.0160721
709.913	0.0165382
709.991	0.0165146
710.069	0.0166992
710.148	0.0167747
710.226	0.0169495
710.304	0.0171158
710.382	0.0171356
710.460	0.0173038
710.538	0.0174625
710.616	0.0170952
710.694	0.0177551
710.773	0.0179230
710.851	0.0178776
710.929	0.0181816
711.007	0.0178665
711.085	0.0175621
711.163	0.0179237
711.241	0.0181412
711.319	0.0178734
711.398	0.0173557
711.476	0.0178780
711.554	0.0173553
711.632	0.0177177
711.710	0.0177849
711.788	0.0175819
711.866	0.0171017
711.944	0.0170811
712.023	0.0172398
712.101	0.0170837
712.179	0.0171326
712.257	0.0171078
712.335	0.0169144
712.413	0.0170330
712.491	0.0168240
712.569	0.0165985
712.648	0.0163597
712.726	0.0163174
712.804	0.0166779
712.882	0.0163605
712.960	0.0163052
713.038	0.0162556
713.116	0.0164886
713.194	0.0164967
713.273	0.0163364
713.351	0.0166691
713.429	0.0159229
713.507	0.0161198
713.585	0.0160374
713.663	0.0157169
713.741	0.0155148
713.819	0.0156239
713.898	0.0152374
713.976	0.0147404
714.054	0.0145542
714.132	0.0148838
714.210	0.0140247
714.288	0.0142120
714.366	0.0140408
714.444	0.0139751
714.523	0.0139763
714.601	0.0137810
714.679	0.0138870
714.757	0.0138729
714.835	0.0137409
714.913	0.0139404
714.991	0.0140213
715.069	0.0138542
715.148	0.0142826
715.226	0.0138081
715.304	0.0142941
715.382	0.0139183
715.460	0.0140568
715.538	0.0140869
715.616	0.0143478
715.694	0.0144497
715.773	0.0142014
715.851	0.0143959
715.929	0.0147652
716.007	0.0146088
716.085	0.0148392
716.163	0.0149494
716.241	0.0150082
716.319	0.0155216
716.398	0.0152740
716.476	0.0154984
716.554	0.0154785
716.632	0.0155918
716.710	0.0157818
716.788	0.0157322
716.866	0.0155518
716.944	0.0160484
717.023	0.0160652
717.101	0.0161053
717.179	0.0156647
717.257	0.0163418
717.335	0.0162777
717.413	0.0161129
717.491	0.0159557
717.569	0.0157940
717.648	0.0157696
717.726	0.0157818
717.804	0.0156727
717.882	0.0156200
717.960	0.0154392
718.038	0.0155476
718.116	0.0155277
718.194	0.0155354
718.273	0.0154785
718.351	0.0156784
718.429	0.0156975
718.507	0.0156155
718.585	0.0157154
718.663	0.0160614
718.741	0.0158997
718.819	0.0157299
718.898	0.0161022
718.976	0.0164520
719.054	0.0159969
719.132	0.0162182
719.210	0.0161640
719.288	0.0162540
719.366	0.0164501
719.444	0.0162670
719.523	0.0160183
719.601	0.0162693
719.679	0.0161621
719.757	0.0159901
719.835	0.0161430
719.913	0.0163467
719.991	0.0163559
720.069	0.0163948
720.148	0.0162636
720.226	0.0163670
720.304	0.0161720
720.382	0.0163212
720.460	0.0159878
720.538	0.0162525
720.616	0.0159119
720.694	0.0157753
720.773	0.0160542
720.851	0.0157913
720.929	0.0155815
721.007	0.0155773
721.085	0.0157661
721.163	0.0156673
721.241	0.0154591
721.319	0.0156532
721.398	0.0153938
721.476	0.0154655
721.554	0.0155018
721.632	0.0152973
721.710	0.0151951
721.788	0.0153400
721.866	0.0152519
721.944	0.0153339
722.023	0.0153065
722.101	0.0151653
722.179	0.0154827
722.257	0.0154217
722.335	0.0150478
722.413	0.0152073
722.491	0.0152283
722.569	0.0152824
722.648	0.0152565
722.726	0.0152962
722.804	0.0148609
722.882	0.0150467
722.960	0.0153423
723.038	0.0149803
723.116	0.0146450
723.194	0.0146084
723.273	0.0146183
723.351	0.0147453
723.429	0.0145691
723.507	0.0148273
723.585	0.0145638
723.663	0.0147987
723.741	0.0148563
723.819	0.0152668
723.898	0.0153164
723.976	0.0157646
724.054	0.0159405
724.132	0.0163372
724.210	0.0164661
724.288	0.0166393
724.366	0.0169418
724.444	0.0170498
724.523	0.0168240
724.601	0.0173130
724.679	0.0169437
724.757	0.0166245
724.835	0.0172211
724.913	0.0171104
724.991	0.0166229
725.069	0.0167416
725.148	0.0168980
725.226	0.0170170
725.304	0.0170074
725.382	0.0171211
725.460	0.0167004
725.538	0.0167171
725.616	0.0168064
725.694	0.0168495
725.773	0.0166912
725.851	0.0166298
725.929	0.0165676
726.007	0.0165031
726.085	0.0162807
726.163	0.0159622
726.241	0.0162598
726.319	0.0161011
726.398	0.0160175
726.476	0.0161526
726.554	0.0162563
726.632	0.0159954
726.710	0.0160797
726.788	0.0161156
726.866	0.0165203
726.944	0.0158989
727.023	0.0161503
727.101	0.0160591
727.179	0.0161602
727.257	0.0159027
727.335	0.0162552
727.413	0.0163239
727.491	0.0161430
727.569	0.0162090
727.648	0.0162689
727.726	0.0164982
727.804	0.0162930
727.882	0.0162781
727.960	0.0163902
728.038	0.0162819
728.116	0.0162064
728.194	0.0163513
728.273	0.0164261
728.351	0.0162949
728.429	0.0164772
728.507	0.0165222
728.585	0.0166050
728.663	0.0162785
728.741	0.0164116
728.819	0.0161385
728.898	0.0161320
728.976	0.0162468
729.054	0.0162075
729.132	0.0159527
729.210	0.0162678
729.288	0.0159866
729.366	0.0160656
729.444	0.0161896
729.523	0.0163792
729.601	0.0159561
729.679	0.0161072
729.757	0.0161327
729.835	0.0157768
729.913	0.0156162
729.991	0.0159367
730.069	0.0156029
730.148	0.0156487
730.226	0.0157459
730.304	0.0159412
730.382	0.0160957
730.460	0.0156052
730.538	0.0155685
730.616	0.0153603
730.694	0.0152340
730.773	0.0157249
730.851	0.0155388
730.929	0.0156746
731.007	0.0158482
731.085	0.0153366
731.163	0.0156036
731.241	0.0154629
731.319	0.0152946
731.398	0.0153568
731.476	0.0155750
731.554	0.0156265
731.632	0.0154446
731.710	0.0153030
731.788	0.0154392
731.866	0.0155003
731.944	0.0154388
732.023	0.0155670
732.101	0.0153370
732.179	0.0152008
732.257	0.0152870
732.335	0.0153793
732.413	0.0153919
732.491	0.0151306
732.569	0.0153576
732.648	0.0154564
732.726	0.0154678
732.804	0.0154861
732.882	0.0156311
732.960	0.0152267
733.038	0.0156097
733.116	0.0157635
733.194	0.0160954
733.273	0.0160080
733.351	0.0156242
733.429	0.0161484
733.507	0.0160511
733.585	0.0162754
733.663	0.0159405
733.741	0.0160641
733.819	0.0156303
733.898	0.0158875
733.976	0.0161438
734.054	0.0157574
734.132	0.0157654
734.210	0.0160728
734.288	0.0157028
734.366	0.0154549
734.444	0.0156807
734.523	0.0156693
734.601	0.0159519
734.679	0.0156403
734.757	0.0157482
734.835	0.0156075
734.913	0.0157909
734.991	0.0155987
735.069	0.0157574
735.148	0.0157700
735.226	0.0154312
735.304	0.0155037
735.382	0.0154110
735.460	0.0155602
735.538	0.0155510
735.616	0.0155754
735.694	0.0156948
735.773	0.0157368
735.851	0.0155201
735.929	0.0151962
736.007	0.0156155
736.085	0.0157036
736.163	0.0160225
736.241	0.0155540
736.319	0.0155998
736.398	0.0157581
736.476	0.0157280
736.554	0.0158596
736.632	0.0158730
736.710	0.0157040
736.788	0.0160034
736.866	0.0160397
736.944	0.0161621
737.023	0.0160652
737.101	0.0161880
737.179	0.0162479
737.257	0.0163174
737.335	0.0165302
737.413	0.0162445
737.491	0.0165028
737.569	0.0164173
737.648	0.0166206
737.726	0.0169811
737.804	0.0164787
737.882	0.0168697
737.960	0.0167866
738.038	0.0167747
738.116	0.0169025
738.194	0.0171444
738.273	0.0172058
738.351	0.0170723
738.429	0.0171268
738.507	0.0172913
738.585	0.0174995
738.663	0.0176006
738.741	0.0174603
738.819	0.0174030
738.898	0.0176708
738.976	0.0174950
739.054	0.0177658
739.132	0.0174747
739.210	0.0173317
739.288	0.0173290
739.366	0.0173054
739.444	0.0169327
739.523	0.0165947
739.601	0.0161911
739.679	0.0158344
739.757	0.0155174
739.835	0.0150402
739.913	0.0146603
739.991	0.0147236
740.069	0.0138660
740.148	0.0137661
740.226	0.0137081
740.304	0.0133324
740.382	0.0135654
740.460	0.0131310
740.538	0.0131088
740.616	0.0130257
740.694	0.0131039
740.773	0.0136242
740.851	0.0137226
740.929	0.0134476
741.007	0.0135784
741.085	0.0139313
741.163	0.0141689
741.241	0.0145889
741.319	0.0145378
741.398	0.0148926
741.476	0.0152241
741.554	0.0152275
741.632	0.0157082
741.710	0.0159145
741.788	0.0158463
741.866	0.0163097
741.944	0.0163612
742.023	0.0160442
742.101	0.0163483
742.179	0.0167355
742.257	0.0163734
742.335	0.0167080
742.413	0.0164799
742.491	0.0165508
742.569	0.0166946
742.648	0.0161945
742.726	0.0159256
742.804	0.0160233
742.882	0.0161083
742.960	0.0154919
743.038	0.0155510
743.116	0.0155411
743.194	0.0152733
743.273	0.0152836
743.351	0.0155846
743.429	0.0152153
743.507	0.0152515
743.585	0.0152447
743.663	0.0152977
743.741	0.0152454
743.819	0.0153595
743.898	0.0150307
743.976	0.0150600
744.054	0.0153095
744.132	0.0155415
744.210	0.0153721
744.288	0.0151699
744.366	0.0155041
744.444	0.0152679
744.523	0.0152328
744.601	0.0152439
744.679	0.0153557
744.757	0.0156208
744.835	0.0152962
744.913	0.0157104
744.991	0.0160385
745.069	0.0162209
745.148	0.0159412
745.226	0.0158264
745.304	0.0161057
745.382	0.0161289
745.460	0.0164570
745.538	0.0169018
745.616	0.0168751
745.694	0.0166149
745.773	0.0166897
745.851	0.0165379
745.929	0.0167366
746.007	0.0166534
746.085	0.0165104
746.163	0.0167175
746.241	0.0163685
746.319	0.0164185
746.398	0.0162754
746.476	0.0163078
746.554	0.0162750
746.632	0.0160007
746.710	0.0160320
746.788	0.0160915
746.866	0.0160530
746.944	0.0158871
747.023	0.0157116
747.101	0.0155689
747.179	0.0158257
747.257	0.0158131
747.335	0.0157192
747.413	0.0159267
747.491	0.0159798
747.569	0.0157936
747.648	0.0157524
747.726	0.0157619
747.804	0.0159100
747.882	0.0162910
747.960	0.0159592
748.038	0.0158974
748.116	0.0161724
748.194	0.0160622
748.273	0.0160294
748.351	0.0162643
748.429	0.0161457
748.507	0.0160263
748.585	0.0158890
748.663	0.0160355
748.741	0.0161221
748.819	0.0159889
748.898	0.0161098
748.976	0.0161503
749.054	0.0161739
749.132	0.0158901
749.210	0.0160561
749.288	0.0161674
749.366	0.0162586
749.444	0.0163746
749.523	0.0161697
749.601	0.0163971
749.679	0.0159908
749.757	0.0157246
749.835	0.0159805
749.913	0.0159649
749.991	0.0160355
750.069	0.0158375
750.148	0.0155972
750.226	0.0156071
750.304	0.0157257
750.382	0.0157013
750.460	0.0156292
750.538	0.0155785
750.616	0.0155918
750.694	0.0153469
750.773	0.0157104
750.851	0.0155510
750.929	0.0157940
751.007	0.0156815
751.085	0.0155060
751.163	0.0157578
751.241	0.0156921
751.319	0.0156292
751.398	0.0155521
751.476	0.0156540
751.554	0.0155426
751.632	0.0156330
751.710	0.0157024
751.788	0.0156982
751.866	0.0159428
751.944	0.0158939
752.023	0.0160278
752.101	0.0157383
752.179	0.0160660
752.257	0.0159657
752.335	0.0160595
752.413	0.0159779
752.491	0.0157990
752.569	0.0160519
752.648	0.0163818
752.726	0.0160919
752.804	0.0161694
752.882	0.0159348
752.960	0.0158283
753.038	0.0162224
753.116	0.0160435
753.194	0.0157600
753.273	0.0158730
753.351	0.0157711
753.429	0.0158546
753.507	0.0156818
753.585	0.0157341
753.663	0.0157093
753.741	0.0156582
753.819	0.0155052
753.898	0.0154797
753.976	0.0153336
754.054	0.0152397
754.132	0.0153976
754.210	0.0153744
754.288	0.0155216
754.366	0.0157742
754.444	0.0153423
754.523	0.0152157
754.601	0.0158020
754.679	0.0156227
754.757	0.0155746
754.835	0.0152924
754.913	0.0154926
754.991	0.0157345
755.069	0.0155766
755.148	0.0155861
755.226	0.0154610
755.304	0.0155182
755.382	0.0153015
755.460	0.0154831
755.538	0.0153481
755.616	0.0153316
755.694	0.0154247
755.773	0.0156921
755.851	0.0155167
755.929	0.0153881
756.007	0.0157555
756.085	0.0157280
756.163	0.0157932
756.241	0.0158737
756.319	0.0156956
756.398	0.0156040
756.476	0.0156773
756.554	0.0155708
756.632	0.0154667
756.710	0.0156265
756.788	0.0157646
756.866	0.0159439
756.944	0.0160736
757.023	0.0156040
757.101	0.0156780
757.179	0.0157581
757.257	0.0153175
757.335	0.0157722
757.413	0.0162422
757.491	0.0161514
757.569	0.0158962
757.648	0.0157623
757.726	0.0158123
757.804	0.0159420
757.882	0.0159435
757.960	0.0160522
758.038	0.0157288
758.116	0.0159863
758.194	0.0158482
758.273	0.0159313
758.351	0.0157078
758.429	0.0158497
758.507	0.0156525
758.585	0.0158115
758.663	0.0158360
758.741	0.0153633
758.819	0.0154003
758.898	0.0159313
758.976	0.0158611
759.054	0.0157207
759.132	0.0158569
759.210	0.0155060
759.288	0.0155312
759.366	0.0156307
759.444	0.0153046
759.523	0.0151623
759.601	0.0156956
759.679	0.0154812
759.757	0.0156151
759.835	0.0154510
759.913	0.0158131
759.991	0.0156132
760.069	0.0156757
760.148	0.0157326
760.226	0.0153706
760.304	0.0156170
760.382	0.0157791
760.460	0.0157925
760.538	0.0157822
760.616	0.0154518
760.694	0.0158096
760.773	0.0155144
760.851	0.0159393
760.929	0.0161293
761.007	0.0156677
761.085	0.0160759
761.163	0.0160465
761.241	0.0156864
761.319	0.0156246
761.398	0.0159393
761.476	0.0160519
761.554	0.0159714
761.632	0.0164364
761.710	0.0159237
761.788	0.0158764
761.866	0.0161316
761.944	0.0161446
762.023	0.0155796
762.101	0.0159248
762.179	0.0162140
762.257	0.0162121
762.335	0.0157051
762.413	0.0161228
762.491	0.0160515
762.569	0.0164604
762.648	0.0158039
762.726	0.0159309
762.804	0.0159302
762.882	0.0160145
762.960	0.0158081
763.038	0.0160904
763.116	0.0162449
763.194	0.0159451
763.273	0.0157490
763.351	0.0158089
763.429	0.0158909
763.507	0.0160061
763.585	0.0164215
763.663	0.0159298
763.741	0.0160072
763.819	0.0159531
763.898	0.0156258
763.976	0.0158825
764.054	0.0163025
764.132	0.0159321
764.210	0.0159573
764.288	0.0160881
764.366	0.0160191
764.444	0.0159000
764.523	0.0158211
764.601	0.0161549
764.679	0.0160858
764.757	0.0157177
764.835	0.0158169
764.913	0.0157032
764.991	0.0159698
765.069	0.0159222
765.148	0.0160717
765.226	0.0163265
765.304	0.0158871
765.382	0.0161381
765.460	0.0160896
765.538	0.0157700
765.616	0.0160686
765.694	0.0159851
765.773	0.0162903
765.851	0.0160954
765.929	0.0161232
766.007	0.0158672
766.085	0.0157841
766.163	0.0156570
766.241	0.0157558
766.319	0.0158016
766.398	0.0153622
766.476	0.0155731
766.554	0.0152805
766.632	0.0156845
766.710	0.0154366
766.788	0.0155025
766.866	0.0153599
766.944	0.0154678
767.023	0.0155869
767.101	0.0152729
767.179	0.0154945
767.257	0.0154091
767.335	0.0157207
767.413	0.0154049
767.491	0.0155586
767.569	0.0160721
767.648	0.0158577
767.726	0.0158920
767.804	0.0159534
767.882	0.0161438
767.960	0.0163826
768.038	0.0159542
768.116	0.0163094
768.194	0.0166348
768.273	0.0165981
768.351	0.0165802
768.429	0.0165665
768.507	0.0164299
768.585	0.0165817
768.663	0.0168949
768.741	0.0167732
768.819	0.0165592
768.898	0.0166271
768.976	0.0164742
769.054	0.0161140
769.132	0.0164284
769.210	0.0162994
769.288	0.0161556
769.366	0.0162514
769.444	0.0158241
769.523	0.0156574
769.601	0.0156063
769.679	0.0157280
769.757	0.0156769
769.835	0.0153988
769.913	0.0151348
