05/06/2022	18:41:08	Ver.	4.1	UNKNOWN
Optical Delay	600.021766	Delta X		0.078125	Sweeps	1	Scan Rate	0/0
Coordinates	Axis 1	NaN	Axis 2	NaN	Axis 3	NaN	Axis 4	NaN	Axis 5	NaN	Axis 6	0.000000
TX Power	0.000000	RX Power	0.000000

600.022	0.0132247
600.100	0.0132095
600.178	0.0132766
600.256	0.0131840
600.334	0.0132044
600.412	0.0132585
600.491	0.0131407
600.569	0.0132439
600.647	0.0132448
600.725	0.0132257
600.803	0.0131413
600.881	0.0133239
600.959	0.0132161
601.037	0.0131628
601.116	0.0131705
601.194	0.0132608
601.272	0.0132439
601.350	0.0132110
601.428	0.0132199
601.506	0.0131206
601.584	0.0132719
601.662	0.0132162
601.741	0.0131739
601.819	0.0132416
601.897	0.0131390
601.975	0.0131294
602.053	0.0131539
602.131	0.0132194
602.209	0.0131679
602.287	0.0130610
602.366	0.0132552
602.444	0.0133764
602.522	0.0132544
602.600	0.0133834
602.678	0.0132007
602.756	0.0132009
602.834	0.0130842
602.912	0.0131751
602.991	0.0133151
603.069	0.0132108
603.147	0.0132356
603.225	0.0132869
603.303	0.0133118
603.381	0.0133041
603.459	0.0131686
603.537	0.0132939
603.616	0.0133326
603.694	0.0132627
603.772	0.0134344
603.850	0.0131477
603.928	0.0132908
604.006	0.0132980
604.084	0.0133392
604.162	0.0133390
604.241	0.0131696
604.319	0.0132013
604.397	0.0132344
604.475	0.0132783
604.553	0.0132125
604.631	0.0132434
604.709	0.0133141
604.787	0.0133663
604.866	0.0131226
604.944	0.0130374
605.022	0.0132090
605.100	0.0132064
605.178	0.0131882
605.256	0.0132143
605.334	0.0131858
605.412	0.0132379
605.491	0.0132658
605.569	0.0131308
605.647	0.0132470
605.725	0.0131633
605.803	0.0132737
605.881	0.0132918
605.959	0.0131731
606.037	0.0131448
606.116	0.0131648
606.194	0.0132002
606.272	0.0132241
606.350	0.0132109
606.428	0.0132872
606.506	0.0131799
606.584	0.0131472
606.662	0.0133028
606.741	0.0131153
606.819	0.0132405
606.897	0.0132400
606.975	0.0131464
607.053	0.0131946
607.131	0.0134099
607.209	0.0133411
607.287	0.0132391
607.366	0.0131749
607.444	0.0133617
607.522	0.0132515
607.600	0.0133521
607.678	0.0133672
607.756	0.0131778
607.834	0.0133036
607.912	0.0132476
607.991	0.0132455
608.069	0.0131123
608.147	0.0132048
608.225	0.0133797
608.303	0.0132604
608.381	0.0130807
608.459	0.0132273
608.537	0.0132922
608.616	0.0130975
608.694	0.0132438
608.772	0.0133685
608.850	0.0131409
608.928	0.0132637
609.006	0.0132722
609.084	0.0132856
609.162	0.0132348
609.241	0.0131464
609.319	0.0132271
609.397	0.0131586
609.475	0.0132004
609.553	0.0132289
609.631	0.0132014
609.709	0.0132288
609.787	0.0132475
609.866	0.0132427
609.944	0.0132088
610.022	0.0133501
610.100	0.0130381
610.178	0.0131059
610.256	0.0131583
610.334	0.0132327
610.412	0.0132124
610.491	0.0133225
610.569	0.0132968
610.647	0.0132050
610.725	0.0132142
610.803	0.0133241
610.881	0.0133239
610.959	0.0132453
611.037	0.0132262
611.116	0.0132254
611.194	0.0132030
611.272	0.0132433
611.350	0.0131039
611.428	0.0132782
611.506	0.0132382
611.584	0.0133207
611.662	0.0132899
611.741	0.0132175
611.819	0.0132353
611.897	0.0132941
611.975	0.0132909
612.053	0.0133215
612.131	0.0132800
612.209	0.0132418
612.287	0.0133028
612.366	0.0133486
612.444	0.0132424
612.522	0.0132208
612.600	0.0132272
612.678	0.0132174
612.756	0.0131362
612.834	0.0133525
612.912	0.0132720
612.991	0.0132981
613.069	0.0130334
613.147	0.0133310
613.225	0.0132534
613.303	0.0130846
613.381	0.0132310
613.459	0.0132745
613.537	0.0133144
613.616	0.0132281
613.694	0.0132576
613.772	0.0131469
613.850	0.0132341
613.928	0.0132694
614.006	0.0132702
614.084	0.0132182
614.162	0.0132554
614.241	0.0130649
614.319	0.0132944
614.397	0.0131924
614.475	0.0131777
614.553	0.0133595
614.631	0.0132007
614.709	0.0133134
614.787	0.0132461
614.866	0.0133145
614.944	0.0132362
615.022	0.0133170
615.100	0.0132240
615.178	0.0133598
615.256	0.0132391
615.334	0.0133824
615.412	0.0132730
615.491	0.0132766
615.569	0.0133023
615.647	0.0131622
615.725	0.0133813
615.803	0.0133437
615.881	0.0132052
615.959	0.0132334
616.037	0.0133586
616.116	0.0132829
616.194	0.0133551
616.272	0.0133428
616.350	0.0131747
616.428	0.0133121
616.506	0.0132362
616.584	0.0133179
616.662	0.0132564
616.741	0.0132238
616.819	0.0131917
616.897	0.0133572
616.975	0.0131438
617.053	0.0132896
617.131	0.0132784
617.209	0.0133595
617.287	0.0132557
617.366	0.0132051
617.444	0.0132951
617.522	0.0132803
617.600	0.0134125
617.678	0.0133521
617.756	0.0132661
617.834	0.0131706
617.912	0.0131431
617.991	0.0132670
618.069	0.0131631
618.147	0.0133384
618.225	0.0132516
618.303	0.0132561
618.381	0.0132470
618.459	0.0133379
618.537	0.0131815
618.616	0.0134101
618.694	0.0132746
618.772	0.0132355
618.850	0.0132616
618.928	0.0132762
619.006	0.0131876
619.084	0.0132088
619.162	0.0132773
619.241	0.0131799
619.319	0.0132512
619.397	0.0132114
619.475	0.0131973
619.553	0.0131902
619.631	0.0132327
619.709	0.0132313
619.787	0.0132175
619.866	0.0133304
619.944	0.0132950
620.022	0.0134736
620.100	0.0133270
620.178	0.0131418
620.256	0.0132841
620.334	0.0132689
620.412	0.0132471
620.491	0.0132188
620.569	0.0132622
620.647	0.0132823
620.725	0.0132632
620.803	0.0132864
620.881	0.0132757
620.959	0.0133318
621.037	0.0133626
621.116	0.0131796
621.194	0.0131940
621.272	0.0131714
621.350	0.0132248
621.428	0.0132401
621.506	0.0133519
621.584	0.0133121
621.662	0.0132672
621.741	0.0132460
621.819	0.0132944
621.897	0.0132622
621.975	0.0130849
622.053	0.0132101
622.131	0.0132616
622.209	0.0131423
622.287	0.0132677
622.366	0.0131708
622.444	0.0133891
622.522	0.0132725
622.600	0.0134324
622.678	0.0132662
622.756	0.0132975
622.834	0.0131445
622.912	0.0133750
622.991	0.0132922
623.069	0.0133270
623.147	0.0131881
623.225	0.0133195
623.303	0.0133328
623.381	0.0132609
623.459	0.0132381
623.537	0.0133495
623.616	0.0133487
623.694	0.0132037
623.772	0.0132928
623.850	0.0132970
623.928	0.0132549
624.006	0.0132183
624.084	0.0132453
624.162	0.0132848
624.241	0.0132652
624.319	0.0133217
624.397	0.0132473
624.475	0.0132513
624.553	0.0132849
624.631	0.0131831
624.709	0.0132211
624.787	0.0132121
624.866	0.0133223
624.944	0.0132767
625.022	0.0132473
625.100	0.0132904
625.178	0.0132698
625.256	0.0132646
625.334	0.0132892
625.412	0.0131603
625.491	0.0133362
625.569	0.0133100
625.647	0.0132069
625.725	0.0132955
625.803	0.0132610
625.881	0.0133127
625.959	0.0133052
626.037	0.0132977
626.116	0.0133917
626.194	0.0132898
626.272	0.0133791
626.350	0.0131928
626.428	0.0133210
626.506	0.0133658
626.584	0.0132585
626.662	0.0132063
626.741	0.0132569
626.819	0.0132609
626.897	0.0132661
626.975	0.0131866
627.053	0.0134553
627.131	0.0132298
627.209	0.0132285
627.287	0.0132368
627.366	0.0133198
627.444	0.0133618
627.522	0.0132724
627.600	0.0132280
627.678	0.0133987
627.756	0.0132790
627.834	0.0131467
627.912	0.0132478
627.991	0.0131707
628.069	0.0133838
628.147	0.0133688
628.225	0.0131752
628.303	0.0131855
628.381	0.0131977
628.459	0.0132126
628.537	0.0132903
628.616	0.0133370
628.694	0.0131587
628.772	0.0132922
628.850	0.0132597
628.928	0.0132513
629.006	0.0133326
629.084	0.0131971
629.162	0.0132074
629.241	0.0132575
629.319	0.0132592
629.397	0.0131027
629.475	0.0131019
629.553	0.0133440
629.631	0.0133540
629.709	0.0132373
629.787	0.0131176
629.866	0.0130978
629.944	0.0132422
630.022	0.0132292
630.100	0.0131586
630.178	0.0130873
630.256	0.0131827
630.334	0.0132680
630.412	0.0134128
630.491	0.0131207
630.569	0.0133947
630.647	0.0132890
630.725	0.0132985
630.803	0.0132795
630.881	0.0132322
630.959	0.0131359
631.037	0.0133949
631.116	0.0133256
631.194	0.0132159
631.272	0.0131115
631.350	0.0131236
631.428	0.0132175
631.506	0.0133311
631.584	0.0133443
631.662	0.0131509
631.741	0.0133813
631.819	0.0133619
631.897	0.0131436
631.975	0.0131480
632.053	0.0133587
632.131	0.0133985
632.209	0.0133113
632.287	0.0133237
632.366	0.0131832
632.444	0.0130534
632.522	0.0132858
632.600	0.0132618
632.678	0.0132341
632.756	0.0133833
632.834	0.0132861
632.912	0.0132307
632.991	0.0132835
633.069	0.0132183
633.147	0.0132219
633.225	0.0132470
633.303	0.0132009
633.381	0.0132778
633.459	0.0132468
633.537	0.0132954
633.616	0.0132819
633.694	0.0131898
633.772	0.0133214
633.850	0.0132320
633.928	0.0132452
634.006	0.0133911
634.084	0.0132534
634.162	0.0131006
634.241	0.0133282
634.319	0.0132719
634.397	0.0131718
634.475	0.0132212
634.553	0.0132105
634.631	0.0131937
634.709	0.0132040
634.787	0.0132623
634.866	0.0134025
634.944	0.0132331
635.022	0.0132541
635.100	0.0133018
635.178	0.0132375
635.256	0.0132754
635.334	0.0133600
635.412	0.0132392
635.491	0.0132613
635.569	0.0132544
635.647	0.0131783
635.725	0.0131935
635.803	0.0131975
635.881	0.0131925
635.959	0.0132472
636.037	0.0133707
636.116	0.0132637
636.194	0.0133170
636.272	0.0132481
636.350	0.0130922
636.428	0.0131858
636.506	0.0133165
636.584	0.0132842
636.662	0.0133477
636.741	0.0132865
636.819	0.0133302
636.897	0.0131527
636.975	0.0133400
637.053	0.0133117
637.131	0.0133241
637.209	0.0134009
637.287	0.0132841
637.366	0.0133109
637.444	0.0131777
637.522	0.0132065
637.600	0.0133818
637.678	0.0133157
637.756	0.0133018
637.834	0.0133623
637.912	0.0131908
637.991	0.0130891
638.069	0.0133041
638.147	0.0133579
638.225	0.0133266
638.303	0.0132484
638.381	0.0131940
638.459	0.0132817
638.537	0.0134264
638.616	0.0132749
638.694	0.0132440
638.772	0.0132273
638.850	0.0133887
638.928	0.0134583
639.006	0.0134157
639.084	0.0132063
639.162	0.0132504
639.241	0.0132713
639.319	0.0133707
639.397	0.0133165
639.475	0.0133361
639.553	0.0132845
639.631	0.0132887
639.709	0.0132159
639.787	0.0131566
639.866	0.0132684
639.944	0.0132126
640.022	0.0132742
640.100	0.0132718
640.178	0.0132291
640.256	0.0133648
640.334	0.0132377
640.412	0.0131689
640.491	0.0132324
640.569	0.0132937
640.647	0.0132523
640.725	0.0132140
640.803	0.0132917
640.881	0.0132496
640.959	0.0131582
641.037	0.0132084
641.116	0.0132487
641.194	0.0132608
641.272	0.0131177
641.350	0.0132041
641.428	0.0133653
641.506	0.0132863
641.584	0.0131796
641.662	0.0132837
641.741	0.0132471
641.819	0.0132649
641.897	0.0131902
641.975	0.0131395
642.053	0.0132806
642.131	0.0132101
642.209	0.0132735
642.287	0.0132744
642.366	0.0132045
642.444	0.0131933
642.522	0.0131332
642.600	0.0132700
642.678	0.0133465
642.756	0.0132217
642.834	0.0131731
642.912	0.0131576
642.991	0.0132827
643.069	0.0133542
643.147	0.0131689
643.225	0.0133317
643.303	0.0133199
643.381	0.0132452
643.459	0.0132888
643.537	0.0133724
643.616	0.0133261
643.694	0.0133585
643.772	0.0132484
643.850	0.0131919
643.928	0.0131654
644.006	0.0131857
644.084	0.0132222
644.162	0.0133324
644.241	0.0132403
644.319	0.0132638
644.397	0.0131670
644.475	0.0132391
644.553	0.0132421
644.631	0.0131293
644.709	0.0133175
644.787	0.0131870
644.866	0.0132589
644.944	0.0133007
645.022	0.0132719
645.100	0.0131945
645.178	0.0132567
645.256	0.0131641
645.334	0.0131345
645.412	0.0131815
645.491	0.0132938
645.569	0.0133868
645.647	0.0132921
645.725	0.0132626
645.803	0.0133125
645.881	0.0131981
645.959	0.0132877
646.037	0.0132222
646.116	0.0132623
646.194	0.0133845
646.272	0.0133086
646.350	0.0132796
646.428	0.0132917
646.506	0.0133006
646.584	0.0132462
646.662	0.0131795
646.741	0.0132638
646.819	0.0133189
646.897	0.0131378
646.975	0.0133929
647.053	0.0133340
647.131	0.0131598
647.209	0.0132681
647.287	0.0133497
647.366	0.0132655
647.444	0.0132642
647.522	0.0132379
647.600	0.0133001
647.678	0.0131767
647.756	0.0135224
647.834	0.0133701
647.912	0.0133268
647.991	0.0131962
648.069	0.0132411
648.147	0.0134065
648.225	0.0132543
648.303	0.0131506
648.381	0.0132615
648.459	0.0133186
648.537	0.0131942
648.616	0.0131442
648.694	0.0131966
648.772	0.0132204
648.850	0.0133272
648.928	0.0131947
649.006	0.0131247
649.084	0.0132166
649.162	0.0134089
649.241	0.0132478
649.319	0.0131308
649.397	0.0131287
649.475	0.0131736
649.553	0.0133484
649.631	0.0130672
649.709	0.0132450
649.787	0.0131418
649.866	0.0132248
649.944	0.0132307
650.022	0.0131559
650.100	0.0132185
650.178	0.0131239
650.256	0.0132444
650.334	0.0131172
650.412	0.0132833
650.491	0.0132047
650.569	0.0132070
650.647	0.0133510
650.725	0.0134360
650.803	0.0132534
650.881	0.0132398
650.959	0.0132293
651.037	0.0132350
651.116	0.0131658
651.194	0.0132008
651.272	0.0131221
651.350	0.0131389
651.428	0.0132317
651.506	0.0133400
651.584	0.0133130
651.662	0.0132998
651.741	0.0132972
651.819	0.0131982
651.897	0.0132607
651.975	0.0132761
652.053	0.0132661
652.131	0.0133315
652.209	0.0132594
652.287	0.0133643
652.366	0.0133476
652.444	0.0130892
652.522	0.0132137
652.600	0.0133209
652.678	0.0131866
652.756	0.0133234
652.834	0.0133566
652.912	0.0130138
652.991	0.0132124
653.069	0.0133947
653.147	0.0131218
653.225	0.0132204
653.303	0.0132623
653.381	0.0132820
653.459	0.0133904
653.537	0.0131500
653.616	0.0132934
653.694	0.0133151
653.772	0.0134462
653.850	0.0132973
653.928	0.0132578
654.006	0.0133195
654.084	0.0133004
654.162	0.0133295
654.241	0.0133701
654.319	0.0132597
654.397	0.0132703
654.475	0.0133267
654.553	0.0131955
654.631	0.0132320
654.709	0.0133221
654.787	0.0133902
654.866	0.0132253
654.944	0.0133384
655.022	0.0133531
655.100	0.0132317
655.178	0.0133313
655.256	0.0132528
655.334	0.0132497
655.412	0.0133657
655.491	0.0133039
655.569	0.0132140
655.647	0.0132143
655.725	0.0131908
655.803	0.0132772
655.881	0.0132160
655.959	0.0132597
656.037	0.0130919
656.116	0.0131744
656.194	0.0131651
656.272	0.0131815
656.350	0.0132333
656.428	0.0131586
656.506	0.0132912
656.584	0.0131833
656.662	0.0131388
656.741	0.0132027
656.819	0.0131641
656.897	0.0132361
656.975	0.0131630
657.053	0.0131393
657.131	0.0132571
657.209	0.0131940
657.287	0.0132523
657.366	0.0132601
657.444	0.0131485
657.522	0.0132450
657.600	0.0131268
657.678	0.0131447
657.756	0.0131952
657.834	0.0132043
657.912	0.0132027
657.991	0.0132275
658.069	0.0132454
658.147	0.0132632
658.225	0.0132915
658.303	0.0132048
658.381	0.0130801
658.459	0.0132331
658.537	0.0132003
658.616	0.0132972
658.694	0.0131707
658.772	0.0131486
658.850	0.0132612
658.928	0.0132182
659.006	0.0132016
659.084	0.0131804
659.162	0.0132368
659.241	0.0132616
659.319	0.0132916
659.397	0.0132272
659.475	0.0132031
659.553	0.0132069
659.631	0.0132758
659.709	0.0132939
659.787	0.0132648
659.866	0.0131513
659.944	0.0130695
660.022	0.0131694
660.100	0.0133253
660.178	0.0130762
660.256	0.0131542
660.334	0.0132103
660.412	0.0132845
660.491	0.0130513
660.569	0.0131789
660.647	0.0133456
660.725	0.0131591
660.803	0.0133576
660.881	0.0131805
660.959	0.0131931
661.037	0.0131319
661.116	0.0132491
661.194	0.0132240
661.272	0.0132392
661.350	0.0130683
661.428	0.0132520
661.506	0.0132325
661.584	0.0132368
661.662	0.0132523
661.741	0.0131892
661.819	0.0131861
661.897	0.0132581
661.975	0.0132814
662.053	0.0132037
662.131	0.0132812
662.209	0.0133046
662.287	0.0133366
662.366	0.0132774
662.444	0.0130572
662.522	0.0131524
662.600	0.0132580
662.678	0.0132240
662.756	0.0133136
662.834	0.0133147
662.912	0.0132181
662.991	0.0133139
663.069	0.0132333
663.147	0.0131398
663.225	0.0132682
663.303	0.0132269
663.381	0.0132179
663.459	0.0132985
663.537	0.0132816
663.616	0.0131747
663.694	0.0133277
663.772	0.0133009
663.850	0.0132575
663.928	0.0130811
664.006	0.0132117
664.084	0.0132868
664.162	0.0132887
664.241	0.0132303
664.319	0.0133641
664.397	0.0131965
664.475	0.0132053
664.553	0.0132967
664.631	0.0131404
664.709	0.0132773
664.787	0.0133116
664.866	0.0133334
664.944	0.0131635
665.022	0.0132244
665.100	0.0132790
665.178	0.0132659
665.256	0.0132371
665.334	0.0132290
665.412	0.0133079
665.491	0.0132691
665.569	0.0133819
665.647	0.0133117
665.725	0.0132363
665.803	0.0131311
665.881	0.0132420
665.959	0.0132047
666.037	0.0132238
666.116	0.0132459
666.194	0.0132026
666.272	0.0132405
666.350	0.0132840
666.428	0.0132025
666.506	0.0132480
666.584	0.0131857
666.662	0.0132441
666.741	0.0132691
666.819	0.0131754
666.897	0.0131288
666.975	0.0131651
667.053	0.0132688
667.131	0.0131768
667.209	0.0132745
667.287	0.0131084
667.366	0.0131303
667.444	0.0131012
667.522	0.0132143
667.600	0.0131877
667.678	0.0131906
667.756	0.0132681
667.834	0.0131158
667.912	0.0130568
667.991	0.0131389
668.069	0.0131156
668.147	0.0131107
668.225	0.0131679
668.303	0.0131385
668.381	0.0131765
668.459	0.0131869
668.537	0.0129327
668.616	0.0131361
668.694	0.0131008
668.772	0.0130949
668.850	0.0131310
668.928	0.0131541
669.006	0.0131223
669.084	0.0132195
669.162	0.0131126
669.241	0.0131731
669.319	0.0130664
669.397	0.0131499
669.475	0.0130885
669.553	0.0131464
669.631	0.0132030
669.709	0.0131653
669.787	0.0132052
669.866	0.0132523
669.944	0.0131520
670.022	0.0131091
670.100	0.0130817
670.178	0.0131171
670.256	0.0131675
670.334	0.0131940
670.412	0.0131617
670.491	0.0130367
670.569	0.0130139
670.647	0.0131532
670.725	0.0131682
670.803	0.0131117
670.881	0.0131199
670.959	0.0131081
671.037	0.0132800
671.116	0.0131647
671.194	0.0131909
671.272	0.0131973
671.350	0.0131331
671.428	0.0131544
671.506	0.0131919
671.584	0.0130241
671.662	0.0131435
671.741	0.0131181
671.819	0.0131108
671.897	0.0132822
671.975	0.0131738
672.053	0.0130941
672.131	0.0130912
672.209	0.0129762
672.287	0.0133086
672.366	0.0133196
672.444	0.0132912
672.522	0.0131641
672.600	0.0131884
672.678	0.0132510
672.756	0.0132246
672.834	0.0132169
672.912	0.0133966
672.991	0.0131721
673.069	0.0131431
673.147	0.0133403
673.225	0.0131644
673.303	0.0131586
673.381	0.0133436
673.459	0.0133305
673.537	0.0132002
673.616	0.0132779
673.694	0.0131930
673.772	0.0133484
673.850	0.0132758
673.928	0.0133282
674.006	0.0133158
674.084	0.0133128
674.162	0.0131914
674.241	0.0133200
674.319	0.0133462
674.397	0.0133534
674.475	0.0132280
674.553	0.0133025
674.631	0.0133887
674.709	0.0132944
674.787	0.0132710
674.866	0.0133826
674.944	0.0133871
675.022	0.0133993
675.100	0.0132775
675.178	0.0131942
675.256	0.0133810
675.334	0.0134204
675.412	0.0132406
675.491	0.0132605
675.569	0.0132480
675.647	0.0131946
675.725	0.0133211
675.803	0.0132729
675.881	0.0133530
675.959	0.0133407
676.037	0.0132487
676.116	0.0133477
676.194	0.0132990
676.272	0.0132846
676.350	0.0133569
676.428	0.0132316
676.506	0.0132423
676.584	0.0133978
676.662	0.0134209
676.741	0.0133408
676.819	0.0132327
676.897	0.0133669
676.975	0.0133861
677.053	0.0134181
677.131	0.0133301
677.209	0.0134594
677.287	0.0133452
677.366	0.0132638
677.444	0.0134239
677.522	0.0132779
677.600	0.0132964
677.678	0.0132565
677.756	0.0132971
677.834	0.0134668
677.912	0.0133128
677.991	0.0131675
678.069	0.0133406
678.147	0.0133139
678.225	0.0133689
678.303	0.0132394
678.381	0.0133112
678.459	0.0132658
678.537	0.0132959
678.616	0.0130614
678.694	0.0133777
678.772	0.0133759
678.850	0.0132483
678.928	0.0132472
679.006	0.0133002
679.084	0.0133193
679.162	0.0132559
679.241	0.0132763
679.319	0.0133189
679.397	0.0134333
679.475	0.0133583
679.553	0.0133198
679.631	0.0132146
679.709	0.0131767
679.787	0.0132724
679.866	0.0134647
679.944	0.0132315
680.022	0.0131910
680.100	0.0131826
680.178	0.0134642
680.256	0.0132132
680.334	0.0132530
680.412	0.0132171
680.491	0.0132891
680.569	0.0132644
680.647	0.0132103
680.725	0.0131784
680.803	0.0132329
680.881	0.0133563
680.959	0.0133476
681.037	0.0132493
681.116	0.0133389
681.194	0.0132766
681.272	0.0133486
681.350	0.0132657
681.428	0.0133058
681.506	0.0132468
681.584	0.0131809
681.662	0.0133479
681.741	0.0133394
681.819	0.0132883
681.897	0.0132985
681.975	0.0132931
682.053	0.0133502
682.131	0.0131258
682.209	0.0132492
682.287	0.0133304
682.366	0.0131905
682.444	0.0133511
682.522	0.0132995
682.600	0.0133125
682.678	0.0132652
682.756	0.0132517
682.834	0.0133179
682.912	0.0133325
682.991	0.0133941
683.069	0.0132095
683.147	0.0132123
683.225	0.0132575
683.303	0.0132690
683.381	0.0132745
683.459	0.0132848
683.537	0.0131347
683.616	0.0132310
683.694	0.0133676
683.772	0.0131894
683.850	0.0132035
683.928	0.0132102
684.006	0.0132801
684.084	0.0132398
684.162	0.0131447
684.241	0.0132796
684.319	0.0133236
684.397	0.0133253
684.475	0.0133444
684.553	0.0133400
684.631	0.0133547
684.709	0.0132777
684.787	0.0132446
684.866	0.0132718
684.944	0.0131886
685.022	0.0133089
685.100	0.0132794
685.178	0.0131872
685.256	0.0131969
685.334	0.0134722
685.412	0.0133559
685.491	0.0133530
685.569	0.0132294
685.647	0.0132192
685.725	0.0132391
685.803	0.0133240
685.881	0.0132429
685.959	0.0132384
686.037	0.0132831
686.116	0.0130866
686.194	0.0131357
686.272	0.0131847
686.350	0.0130689
686.428	0.0130231
686.506	0.0131267
686.584	0.0132452
686.662	0.0132548
686.741	0.0131503
686.819	0.0133865
686.897	0.0134115
686.975	0.0134320
687.053	0.0134545
687.131	0.0133285
687.209	0.0133065
687.287	0.0132376
687.366	0.0130611
687.444	0.0128468
687.522	0.0128975
687.600	0.0127922
687.678	0.0127866
687.756	0.0128092
687.834	0.0127181
687.912	0.0129182
687.991	0.0131281
688.069	0.0130992
688.147	0.0132782
688.225	0.0134669
688.303	0.0135549
688.381	0.0136051
688.459	0.0137328
688.537	0.0135622
688.616	0.0136742
688.694	0.0134459
688.772	0.0133680
688.850	0.0132954
688.928	0.0132279
689.006	0.0130868
689.084	0.0131345
689.162	0.0131226
689.241	0.0130430
689.319	0.0130157
689.397	0.0131471
689.475	0.0130812
689.553	0.0130759
689.631	0.0131125
689.709	0.0132857
689.787	0.0133473
689.866	0.0134917
689.944	0.0133595
690.022	0.0131728
690.100	0.0131741
690.178	0.0132752
690.256	0.0131213
690.334	0.0130737
690.412	0.0129227
690.491	0.0131661
690.569	0.0131419
690.647	0.0131451
690.725	0.0131567
690.803	0.0131889
690.881	0.0134687
690.959	0.0135915
691.037	0.0135541
691.116	0.0134941
691.194	0.0136345
691.272	0.0137070
691.350	0.0134801
691.428	0.0135794
691.506	0.0134308
691.584	0.0133537
691.662	0.0133058
691.741	0.0133168
691.819	0.0130696
691.897	0.0129138
691.975	0.0129214
692.053	0.0127094
692.131	0.0127160
692.209	0.0126079
692.287	0.0127562
692.366	0.0127076
692.444	0.0127455
692.522	0.0127449
692.600	0.0129730
692.678	0.0131155
692.756	0.0130240
692.834	0.0131017
692.912	0.0131953
692.991	0.0133229
693.069	0.0135175
693.147	0.0134128
693.225	0.0134178
693.303	0.0134321
693.381	0.0133273
693.459	0.0133506
693.537	0.0130977
693.616	0.0130972
693.694	0.0131344
693.772	0.0129910
693.850	0.0130460
693.928	0.0130165
694.006	0.0130002
694.084	0.0131146
694.162	0.0131123
694.241	0.0129571
694.319	0.0130813
694.397	0.0129758
694.475	0.0131309
694.553	0.0131647
694.631	0.0133241
694.709	0.0132468
694.787	0.0131457
694.866	0.0131960
694.944	0.0133002
695.022	0.0130895
695.100	0.0133208
695.178	0.0132750
695.256	0.0133076
695.334	0.0132809
695.412	0.0135070
695.491	0.0134761
695.569	0.0134558
695.647	0.0134251
695.725	0.0134619
695.803	0.0133711
695.881	0.0133335
695.959	0.0133334
696.037	0.0131859
696.116	0.0131672
696.194	0.0130220
696.272	0.0129049
696.350	0.0128766
696.428	0.0129616
696.506	0.0128806
696.584	0.0127908
696.662	0.0128194
696.741	0.0129552
696.819	0.0128748
696.897	0.0130037
696.975	0.0131873
697.053	0.0132179
697.131	0.0131926
697.209	0.0133924
697.287	0.0133890
697.366	0.0134126
697.444	0.0135040
697.522	0.0133271
697.600	0.0133369
697.678	0.0132904
697.756	0.0132304
697.834	0.0131553
697.912	0.0131063
697.991	0.0131261
698.069	0.0130334
698.147	0.0129652
698.225	0.0129885
698.303	0.0130844
698.381	0.0130257
698.459	0.0130605
698.537	0.0131409
698.616	0.0132583
698.694	0.0133604
698.772	0.0135772
698.850	0.0135342
698.928	0.0136139
699.006	0.0137219
699.084	0.0138116
699.162	0.0137462
699.241	0.0137153
699.319	0.0137665
699.397	0.0136555
699.475	0.0136755
699.553	0.0135163
699.631	0.0132887
699.709	0.0133703
699.787	0.0131628
699.866	0.0130001
699.944	0.0129823
700.022	0.0128906
700.100	0.0127564
700.178	0.0126492
700.256	0.0126670
700.334	0.0125593
700.412	0.0125191
700.491	0.0127135
700.569	0.0127518
700.647	0.0127572
700.725	0.0130126
700.803	0.0131228
700.881	0.0131183
700.959	0.0132705
701.037	0.0132088
701.116	0.0134467
701.194	0.0134077
701.272	0.0134993
701.350	0.0134796
701.428	0.0135075
701.506	0.0135574
701.584	0.0136126
701.662	0.0134601
701.741	0.0134792
701.819	0.0134131
701.897	0.0133997
701.975	0.0133260
702.053	0.0132763
702.131	0.0130482
702.209	0.0130721
702.287	0.0130324
702.366	0.0129626
702.444	0.0130541
702.522	0.0128197
702.600	0.0130036
702.678	0.0130297
702.756	0.0129253
702.834	0.0129712
702.912	0.0131161
702.991	0.0133191
703.069	0.0134321
703.147	0.0132852
703.225	0.0134247
703.303	0.0135470
703.381	0.0137590
703.459	0.0135884
703.537	0.0136095
703.616	0.0135915
703.694	0.0136597
703.772	0.0137222
703.850	0.0135653
703.928	0.0136326
704.006	0.0135226
704.084	0.0133942
704.162	0.0132920
704.241	0.0133920
704.319	0.0132375
704.397	0.0131838
704.475	0.0131658
704.553	0.0130340
704.631	0.0132275
704.709	0.0131160
704.787	0.0131751
704.866	0.0130173
704.944	0.0130179
705.022	0.0133852
705.100	0.0132260
705.178	0.0130770
705.256	0.0133241
705.334	0.0133921
705.412	0.0132163
705.491	0.0131972
705.569	0.0133835
705.647	0.0133250
705.725	0.0133701
705.803	0.0134286
705.881	0.0132589
705.959	0.0132996
706.037	0.0133837
706.116	0.0133241
706.194	0.0132816
706.272	0.0132210
706.350	0.0131245
706.428	0.0132117
706.506	0.0131934
706.584	0.0131056
706.662	0.0132150
706.741	0.0131239
706.819	0.0130978
706.897	0.0132101
706.975	0.0132869
707.053	0.0132504
707.131	0.0135508
707.209	0.0134333
707.287	0.0134274
707.366	0.0135689
707.444	0.0137553
707.522	0.0138334
707.600	0.0137411
707.678	0.0136385
707.756	0.0136841
707.834	0.0136855
707.912	0.0137675
707.991	0.0136390
708.069	0.0136173
708.147	0.0133092
708.225	0.0132749
708.303	0.0133924
708.381	0.0131079
708.459	0.0131633
708.537	0.0131200
708.616	0.0130106
708.694	0.0129822
708.772	0.0129306
708.850	0.0127060
708.928	0.0128135
709.006	0.0127914
709.084	0.0127737
709.162	0.0127525
709.241	0.0129374
709.319	0.0128968
709.397	0.0128970
709.475	0.0128798
709.553	0.0130057
709.631	0.0129815
709.709	0.0130947
709.787	0.0132470
709.866	0.0130537
709.944	0.0131343
710.022	0.0131187
710.100	0.0132578
710.178	0.0132287
710.256	0.0131950
710.334	0.0131970
710.412	0.0131882
710.491	0.0131865
710.569	0.0133126
710.647	0.0133406
710.725	0.0131303
710.803	0.0132030
710.881	0.0131893
710.959	0.0131293
711.037	0.0130844
711.116	0.0131924
711.194	0.0133027
711.272	0.0130466
711.350	0.0132266
711.428	0.0131104
711.506	0.0130599
711.584	0.0132087
711.662	0.0132957
711.741	0.0133561
711.819	0.0133215
711.897	0.0134396
711.975	0.0133974
712.053	0.0133797
712.131	0.0134242
712.209	0.0136098
712.287	0.0136034
712.366	0.0136396
712.444	0.0138517
712.522	0.0138051
712.600	0.0136439
712.678	0.0137689
712.756	0.0137830
712.834	0.0137475
712.912	0.0135118
712.991	0.0134970
713.069	0.0134435
713.147	0.0134521
713.225	0.0134483
713.303	0.0132402
713.381	0.0133230
713.459	0.0132184
713.537	0.0133014
713.616	0.0132647
713.694	0.0131020
713.772	0.0131465
713.850	0.0132020
713.928	0.0130736
714.006	0.0130917
714.084	0.0132394
714.162	0.0131429
714.241	0.0131342
714.319	0.0130801
714.397	0.0130466
714.475	0.0132012
714.553	0.0131637
714.631	0.0131205
714.709	0.0131973
714.787	0.0132899
714.866	0.0131696
714.944	0.0131652
715.022	0.0130312
715.100	0.0129221
715.178	0.0132589
715.256	0.0131091
715.334	0.0131414
715.412	0.0131853
715.491	0.0131602
715.569	0.0131373
715.647	0.0131113
715.725	0.0131489
715.803	0.0133119
715.881	0.0130894
715.959	0.0130963
716.037	0.0133726
716.116	0.0132817
716.194	0.0132640
716.272	0.0133079
716.350	0.0131881
716.428	0.0133309
716.506	0.0133083
716.584	0.0132339
716.662	0.0133366
716.741	0.0134464
716.819	0.0134263
716.897	0.0133923
716.975	0.0133565
717.053	0.0133587
717.131	0.0134357
717.209	0.0133475
717.287	0.0134781
717.366	0.0134919
717.444	0.0134588
717.522	0.0133095
717.600	0.0133762
717.678	0.0133593
717.756	0.0133392
717.834	0.0133450
717.912	0.0133419
717.991	0.0133015
718.069	0.0132804
718.147	0.0133002
718.225	0.0132723
718.303	0.0132002
718.381	0.0132664
718.459	0.0131129
718.537	0.0130875
718.616	0.0131416
718.694	0.0130969
718.772	0.0130748
718.850	0.0130171
718.928	0.0131737
719.006	0.0131442
719.084	0.0129947
719.162	0.0131532
719.241	0.0131400
719.319	0.0130187
719.397	0.0131384
719.475	0.0132591
719.553	0.0130172
719.631	0.0131429
719.709	0.0132822
719.787	0.0132121
719.866	0.0131660
719.944	0.0130977
720.022	0.0132312
720.100	0.0132533
720.178	0.0132040
720.256	0.0131666
720.334	0.0131614
720.412	0.0130064
720.491	0.0133387
720.569	0.0131335
720.647	0.0132815
720.725	0.0131665
720.803	0.0132136
720.881	0.0132499
720.959	0.0132252
721.037	0.0131361
721.116	0.0131865
721.194	0.0131754
721.272	0.0131240
721.350	0.0131345
721.428	0.0131721
721.506	0.0133050
721.584	0.0132806
721.662	0.0132254
721.741	0.0131570
721.819	0.0132806
721.897	0.0132494
721.975	0.0132668
722.053	0.0133327
722.131	0.0132352
722.209	0.0133107
722.287	0.0132594
722.366	0.0132628
722.444	0.0132423
722.522	0.0131261
722.600	0.0132558
722.678	0.0131842
722.756	0.0131136
722.834	0.0131786
722.912	0.0132397
722.991	0.0131638
723.069	0.0132015
723.147	0.0131958
723.225	0.0131604
723.303	0.0132214
723.381	0.0133019
723.459	0.0131742
723.537	0.0130656
723.616	0.0131630
723.694	0.0133089
723.772	0.0132623
723.850	0.0131496
723.928	0.0131557
724.006	0.0131908
724.084	0.0130352
724.162	0.0130747
724.241	0.0131561
724.319	0.0129732
724.397	0.0129819
724.475	0.0130094
724.553	0.0130511
724.631	0.0130228
724.709	0.0132372
724.787	0.0131813
724.866	0.0131144
724.944	0.0131236
725.022	0.0131081
725.100	0.0131842
725.178	0.0130550
725.256	0.0131865
725.334	0.0130756
725.412	0.0131343
725.491	0.0131825
725.569	0.0132000
725.647	0.0132687
725.725	0.0130804
725.803	0.0130812
725.881	0.0131086
725.959	0.0131476
726.037	0.0131834
726.116	0.0132394
726.194	0.0133421
726.272	0.0132645
726.350	0.0133496
726.428	0.0131985
726.506	0.0133401
726.584	0.0132655
726.662	0.0133183
726.741	0.0132536
726.819	0.0133395
726.897	0.0133894
726.975	0.0134464
727.053	0.0134431
727.131	0.0133440
727.209	0.0132512
727.287	0.0131835
727.366	0.0131165
727.444	0.0132059
727.522	0.0132394
727.600	0.0131438
727.678	0.0131012
727.756	0.0130048
727.834	0.0131268
727.912	0.0132963
727.991	0.0131788
728.069	0.0132416
728.147	0.0131814
728.225	0.0132947
728.303	0.0133209
728.381	0.0133183
728.459	0.0132459
728.537	0.0133745
728.616	0.0134400
728.694	0.0133239
728.772	0.0132610
728.850	0.0133350
728.928	0.0133912
729.006	0.0134306
729.084	0.0133551
729.162	0.0133207
729.241	0.0132737
729.319	0.0131712
729.397	0.0133005
729.475	0.0132326
729.553	0.0130298
729.631	0.0131100
729.709	0.0131455
729.787	0.0130464
729.866	0.0130330
729.944	0.0130510
730.022	0.0131223
730.100	0.0130352
730.178	0.0130104
730.256	0.0130879
730.334	0.0130289
730.412	0.0132318
730.491	0.0130361
730.569	0.0131839
730.647	0.0132446
730.725	0.0131876
730.803	0.0132259
730.881	0.0131645
730.959	0.0131329
731.037	0.0132089
731.116	0.0131113
731.194	0.0132019
731.272	0.0132317
731.350	0.0132008
731.428	0.0130827
731.506	0.0129449
731.584	0.0130590
731.662	0.0131360
731.741	0.0130531
731.819	0.0131703
731.897	0.0130952
731.975	0.0131253
732.053	0.0133244
732.131	0.0131610
732.209	0.0131223
732.287	0.0132302
732.366	0.0133174
732.444	0.0132698
732.522	0.0132534
732.600	0.0132899
732.678	0.0132870
732.756	0.0133559
732.834	0.0131122
732.912	0.0131310
732.991	0.0131088
733.069	0.0130998
733.147	0.0132797
733.225	0.0131383
733.303	0.0130138
733.381	0.0131434
733.459	0.0131198
733.537	0.0131898
733.616	0.0132249
733.694	0.0131905
733.772	0.0131945
733.850	0.0132757
733.928	0.0132179
734.006	0.0132998
734.084	0.0132165
734.162	0.0134736
734.241	0.0131941
734.319	0.0132179
734.397	0.0133498
734.475	0.0132528
734.553	0.0131790
734.631	0.0132823
734.709	0.0131570
734.787	0.0133210
734.866	0.0133795
734.944	0.0131573
735.022	0.0131642
735.100	0.0130553
735.178	0.0131187
735.256	0.0131388
735.334	0.0131017
735.412	0.0132868
735.491	0.0131927
735.569	0.0132121
735.647	0.0132016
735.725	0.0132076
735.803	0.0133390
735.881	0.0133251
735.959	0.0133086
736.037	0.0134473
736.116	0.0134283
736.194	0.0134117
736.272	0.0134454
736.350	0.0132611
736.428	0.0134461
736.506	0.0133777
736.584	0.0133109
736.662	0.0133100
736.741	0.0132903
736.819	0.0131884
736.897	0.0132636
736.975	0.0131392
737.053	0.0131025
737.131	0.0131364
737.209	0.0130676
737.287	0.0132157
737.366	0.0130367
737.444	0.0131126
737.522	0.0132448
737.600	0.0132031
737.678	0.0131052
737.756	0.0131248
737.834	0.0131372
737.912	0.0132546
737.991	0.0132514
738.069	0.0133405
738.147	0.0134152
738.225	0.0133373
738.303	0.0134083
738.381	0.0132603
738.459	0.0133504
738.537	0.0133655
738.616	0.0134280
738.694	0.0133520
738.772	0.0134768
738.850	0.0132764
738.928	0.0131451
739.006	0.0131828
739.084	0.0132606
739.162	0.0132124
739.241	0.0133167
739.319	0.0131900
739.397	0.0130516
739.475	0.0132101
739.553	0.0131330
739.631	0.0132005
739.709	0.0131139
739.787	0.0132136
739.866	0.0131849
739.944	0.0132395
740.022	0.0133235
740.100	0.0132460
740.178	0.0133294
740.256	0.0131640
740.334	0.0132867
740.412	0.0132844
740.491	0.0133766
740.569	0.0134106
740.647	0.0134707
740.725	0.0135180
740.803	0.0133717
740.881	0.0133969
740.959	0.0133366
741.037	0.0133530
741.116	0.0135603
741.194	0.0133866
741.272	0.0133119
741.350	0.0133852
741.428	0.0132939
741.506	0.0132987
741.584	0.0132716
741.662	0.0132759
741.741	0.0133026
741.819	0.0132661
741.897	0.0133047
741.975	0.0133517
742.053	0.0132395
742.131	0.0132429
742.209	0.0134010
742.287	0.0133152
742.366	0.0131313
742.444	0.0133318
742.522	0.0132687
742.600	0.0133507
742.678	0.0132048
742.756	0.0132613
742.834	0.0131468
742.912	0.0132281
742.991	0.0131822
743.069	0.0132189
743.147	0.0132056
743.225	0.0131951
743.303	0.0132653
743.381	0.0131915
743.459	0.0131747
743.537	0.0131997
743.616	0.0132989
743.694	0.0133459
743.772	0.0134201
743.850	0.0132789
743.928	0.0134951
744.006	0.0134599
744.084	0.0134370
744.162	0.0132357
744.241	0.0131995
744.319	0.0134081
744.397	0.0133207
744.475	0.0132214
744.553	0.0132661
744.631	0.0135012
744.709	0.0133522
744.787	0.0131813
744.866	0.0132893
744.944	0.0134127
745.022	0.0132657
745.100	0.0132420
745.178	0.0132559
745.256	0.0132790
745.334	0.0131708
745.412	0.0132928
745.491	0.0132533
745.569	0.0132602
745.647	0.0132735
745.725	0.0130310
745.803	0.0130919
745.881	0.0131485
745.959	0.0132058
746.037	0.0132951
746.116	0.0132062
746.194	0.0131984
746.272	0.0132410
746.350	0.0131487
746.428	0.0131546
746.506	0.0131665
746.584	0.0132330
746.662	0.0131142
746.741	0.0131530
746.819	0.0130928
746.897	0.0130032
746.975	0.0130444
747.053	0.0131300
747.131	0.0132486
747.209	0.0130991
747.287	0.0131227
747.366	0.0131790
747.444	0.0133261
747.522	0.0133092
747.600	0.0134246
747.678	0.0132661
747.756	0.0132677
747.834	0.0131637
747.912	0.0132633
747.991	0.0133003
748.069	0.0133764
748.147	0.0133508
748.225	0.0133636
748.303	0.0132880
748.381	0.0133313
748.459	0.0133566
748.537	0.0134306
748.616	0.0131649
748.694	0.0131878
748.772	0.0134103
748.850	0.0133952
748.928	0.0131260
749.006	0.0131384
749.084	0.0133156
749.162	0.0132107
749.241	0.0132094
749.319	0.0133088
749.397	0.0132831
749.475	0.0134605
749.553	0.0133171
749.631	0.0132678
749.709	0.0131429
749.787	0.0132509
749.866	0.0132260
749.944	0.0132330
750.022	0.0131096
750.100	0.0132825
750.178	0.0133629
750.256	0.0131387
750.334	0.0131921
750.412	0.0132016
750.491	0.0131364
750.569	0.0129987
750.647	0.0131361
750.725	0.0131057
750.803	0.0130776
750.881	0.0130730
750.959	0.0131699
751.037	0.0130286
751.116	0.0132475
751.194	0.0130889
751.272	0.0132404
751.350	0.0134175
751.428	0.0132372
751.506	0.0132870
751.584	0.0132445
751.662	0.0133430
751.741	0.0132588
751.819	0.0132793
751.897	0.0132256
751.975	0.0131927
752.053	0.0132670
752.131	0.0133112
752.209	0.0131689
752.287	0.0133167
752.366	0.0132974
752.444	0.0131945
752.522	0.0133071
752.600	0.0131778
752.678	0.0130762
752.756	0.0131642
752.834	0.0132526
752.912	0.0132535
752.991	0.0131331
753.069	0.0132506
753.147	0.0132997
753.225	0.0133517
753.303	0.0132546
753.381	0.0134042
753.459	0.0133299
753.537	0.0132665
753.616	0.0133472
753.694	0.0133352
753.772	0.0132856
753.850	0.0134058
753.928	0.0132914
754.006	0.0131879
754.084	0.0133708
754.162	0.0131570
754.241	0.0133971
754.319	0.0131593
754.397	0.0132462
754.475	0.0130805
754.553	0.0131656
754.631	0.0132087
754.709	0.0131275
754.787	0.0131539
754.866	0.0131482
754.944	0.0131590
755.022	0.0129951
755.100	0.0129962
755.178	0.0131057
755.256	0.0131065
755.334	0.0130630
755.412	0.0130423
755.491	0.0130846
755.569	0.0132932
755.647	0.0132095
755.725	0.0132082
755.803	0.0132093
755.881	0.0132213
755.959	0.0131701
756.037	0.0132850
756.116	0.0133020
756.194	0.0132220
756.272	0.0132566
756.350	0.0132467
756.428	0.0133388
756.506	0.0132510
756.584	0.0131000
756.662	0.0132275
756.741	0.0132310
756.819	0.0132037
756.897	0.0131712
756.975	0.0131993
757.053	0.0132595
757.131	0.0131451
757.209	0.0132370
757.287	0.0132420
757.366	0.0132426
757.444	0.0132068
757.522	0.0132826
757.600	0.0132504
757.678	0.0131433
757.756	0.0132263
757.834	0.0132119
757.912	0.0132586
757.991	0.0133891
758.069	0.0131955
758.147	0.0132864
758.225	0.0132204
758.303	0.0131777
758.381	0.0132030
758.459	0.0131808
758.537	0.0131329
758.616	0.0132595
758.694	0.0131886
758.772	0.0130621
758.850	0.0131319
758.928	0.0130368
759.006	0.0131003
759.084	0.0131977
759.162	0.0131003
759.241	0.0131292
759.319	0.0130686
759.397	0.0132280
759.475	0.0131317
759.553	0.0132004
759.631	0.0132589
759.709	0.0131437
759.787	0.0131945
759.866	0.0132339
759.944	0.0131513
760.022	0.0131813
760.100	0.0132538
760.178	0.0132323
760.256	0.0132522
760.334	0.0132995
760.412	0.0132485
760.491	0.0132923
760.569	0.0132490
760.647	0.0133786
760.725	0.0132047
760.803	0.0131752
760.881	0.0131390
760.959	0.0132574
761.037	0.0132594
761.116	0.0132748
761.194	0.0133474
761.272	0.0132877
761.350	0.0133514
761.428	0.0132053
761.506	0.0132171
761.584	0.0130470
761.662	0.0131117
761.741	0.0132369
761.819	0.0132740
761.897	0.0130518
761.975	0.0130511
762.053	0.0130858
762.131	0.0132539
762.209	0.0130069
762.287	0.0132005
762.366	0.0132958
762.444	0.0132079
762.522	0.0133531
762.600	0.0132942
762.678	0.0131946
762.756	0.0133071
762.834	0.0131418
762.912	0.0131450
762.991	0.0133914
763.069	0.0132448
763.147	0.0133225
763.225	0.0133337
763.303	0.0132367
763.381	0.0133189
763.459	0.0132796
763.537	0.0133769
763.616	0.0133201
763.694	0.0133645
763.772	0.0134121
763.850	0.0133895
763.928	0.0133017
764.006	0.0133163
764.084	0.0133249
764.162	0.0133720
764.241	0.0133939
764.319	0.0132032
764.397	0.0132767
764.475	0.0132842
764.553	0.0132082
764.631	0.0132633
764.709	0.0131581
764.787	0.0133017
764.866	0.0132682
764.944	0.0133525
765.022	0.0133691
765.100	0.0132742
765.178	0.0133183
765.256	0.0132471
765.334	0.0131515
765.412	0.0131841
765.491	0.0133646
765.569	0.0133097
765.647	0.0132809
765.725	0.0133006
765.803	0.0131918
765.881	0.0131410
765.959	0.0133168
766.037	0.0132899
766.116	0.0134264
766.194	0.0133871
766.272	0.0132204
766.350	0.0132341
766.428	0.0133324
766.506	0.0132809
766.584	0.0132769
766.662	0.0132138
766.741	0.0131470
766.819	0.0131417
766.897	0.0132170
766.975	0.0131734
767.053	0.0132738
767.131	0.0132368
767.209	0.0132350
767.287	0.0132278
767.366	0.0134100
767.444	0.0133533
767.522	0.0132452
767.600	0.0133154
767.678	0.0132094
767.756	0.0132874
767.834	0.0132585
767.912	0.0132731
767.991	0.0132610
768.069	0.0132278
768.147	0.0130750
768.225	0.0130788
768.303	0.0131614
768.381	0.0132726
768.459	0.0130815
768.537	0.0131011
768.616	0.0132841
768.694	0.0131541
768.772	0.0131326
768.850	0.0131902
768.928	0.0131958
769.006	0.0130946
769.084	0.0132916
769.162	0.0133590
769.241	0.0132745
769.319	0.0132654
769.397	0.0133108
769.475	0.0130602
769.553	0.0131734
769.631	0.0131608
769.709	0.0131666
769.787	0.0132935
769.866	0.0132468
769.944	0.0133189
770.022	0.0131889
770.100	0.0132725
770.178	0.0133033
770.256	0.0132908
770.334	0.0131532
770.412	0.0133271
770.491	0.0132822
770.569	0.0131663
770.647	0.0132893
770.725	0.0131673
770.803	0.0132085
770.881	0.0131228
770.959	0.0132763
771.037	0.0131487
771.116	0.0131014
771.194	0.0130697
771.272	0.0132509
771.350	0.0131357
771.428	0.0132507
771.506	0.0132429
771.584	0.0132379
771.662	0.0131266
771.741	0.0133119
771.819	0.0131215
771.897	0.0132178
771.975	0.0130196
772.053	0.0132132
772.131	0.0132867
772.209	0.0131895
772.287	0.0133283
772.366	0.0132563
772.444	0.0132452
772.522	0.0133517
772.600	0.0132868
772.678	0.0132854
772.756	0.0132499
772.834	0.0132929
772.912	0.0131497
772.991	0.0131532
773.069	0.0131890
773.147	0.0132735
773.225	0.0131478
773.303	0.0131351
773.381	0.0131660
773.459	0.0131564
773.537	0.0132525
773.616	0.0131675
773.694	0.0131763
773.772	0.0132817
773.850	0.0133044
773.928	0.0132327
774.006	0.0133186
774.084	0.0133779
774.162	0.0133954
774.241	0.0133775
774.319	0.0133231
774.397	0.0132910
774.475	0.0132484
774.553	0.0132542
774.631	0.0133772
774.709	0.0133903
774.787	0.0132507
774.866	0.0133757
774.944	0.0133803
775.022	0.0133165
775.100	0.0132128
775.178	0.0131664
775.256	0.0132900
775.334	0.0132504
775.412	0.0132593
775.491	0.0132661
775.569	0.0131594
775.647	0.0131837
775.725	0.0132351
775.803	0.0131647
775.881	0.0132344
775.959	0.0133366
776.037	0.0131739
776.116	0.0131837
776.194	0.0132249
776.272	0.0131718
776.350	0.0132944
776.428	0.0131755
776.506	0.0132299
776.584	0.0132529
776.662	0.0133232
776.741	0.0132314
776.819	0.0134446
776.897	0.0133662
776.975	0.0132067
777.053	0.0132814
777.131	0.0133794
777.209	0.0132540
777.287	0.0132856
777.366	0.0132356
777.444	0.0132659
777.522	0.0132251
777.600	0.0132189
777.678	0.0133854
777.756	0.0133958
777.834	0.0132422
777.912	0.0132071
777.991	0.0133001
778.069	0.0133595
778.147	0.0133351
778.225	0.0133095
778.303	0.0131525
778.381	0.0132446
778.459	0.0132133
778.537	0.0132061
778.616	0.0131562
778.694	0.0133517
778.772	0.0130972
778.850	0.0132413
778.928	0.0131538
779.006	0.0131680
779.084	0.0133326
779.162	0.0134098
779.241	0.0132499
779.319	0.0131934
779.397	0.0132271
779.475	0.0132610
779.553	0.0133530
779.631	0.0132639
779.709	0.0132804
779.787	0.0133094
779.866	0.0133141
779.944	0.0133049
780.022	0.0134641
780.100	0.0132525
780.178	0.0131770
780.256	0.0131812
780.334	0.0132265
780.412	0.0133018
780.491	0.0132538
780.569	0.0132330
780.647	0.0130925
780.725	0.0131780
780.803	0.0132724
780.881	0.0131832
780.959	0.0130157
781.037	0.0130425
781.116	0.0130054
781.194	0.0131126
781.272	0.0130666
781.350	0.0130096
781.428	0.0131148
781.506	0.0131239
781.584	0.0130819
781.662	0.0129185
781.741	0.0129808
781.819	0.0130286
781.897	0.0132299
781.975	0.0131843
782.053	0.0132798
782.131	0.0131387
782.209	0.0132269
782.287	0.0133437
782.366	0.0130944
782.444	0.0133663
782.522	0.0132381
782.600	0.0133652
782.678	0.0133041
782.756	0.0132095
782.834	0.0133143
782.912	0.0132146
782.991	0.0131765
783.069	0.0133111
783.147	0.0133116
783.225	0.0133852
783.303	0.0133099
783.381	0.0132693
783.459	0.0132996
783.537	0.0131497
783.616	0.0131715
783.694	0.0132049
783.772	0.0132228
783.850	0.0131107
783.928	0.0131684
784.006	0.0131728
784.084	0.0132399
784.162	0.0131413
784.241	0.0130527
784.319	0.0132544
784.397	0.0131167
784.475	0.0131105
784.553	0.0132556
784.631	0.0132148
784.709	0.0131951
784.787	0.0131751
784.866	0.0131942
784.944	0.0132108
785.022	0.0132284
785.100	0.0133156
785.178	0.0132288
785.256	0.0132967
785.334	0.0134157
785.412	0.0134074
785.491	0.0132796
785.569	0.0132753
785.647	0.0132867
785.725	0.0132649
785.803	0.0133315
785.881	0.0133878
785.959	0.0132246
786.037	0.0132193
786.116	0.0130992
786.194	0.0132933
786.272	0.0133115
786.350	0.0134454
786.428	0.0132795
786.506	0.0133388
786.584	0.0132777
786.662	0.0131542
786.741	0.0131680
786.819	0.0132904
786.897	0.0132857
786.975	0.0131353
787.053	0.0132172
787.131	0.0132128
787.209	0.0131550
787.287	0.0132644
787.366	0.0132669
787.444	0.0132231
787.522	0.0132440
787.600	0.0131892
787.678	0.0131697
787.756	0.0131695
787.834	0.0132895
787.912	0.0131459
787.991	0.0130923
788.069	0.0131462
788.147	0.0131880
788.225	0.0131861
788.303	0.0131161
788.381	0.0133398
788.459	0.0133545
788.537	0.0133157
788.616	0.0132228
788.694	0.0132133
788.772	0.0132999
788.850	0.0132724
788.928	0.0131442
789.006	0.0132523
789.084	0.0133446
789.162	0.0132674
789.241	0.0131998
789.319	0.0132927
789.397	0.0132760
789.475	0.0131742
789.553	0.0131152
789.631	0.0130524
789.709	0.0133579
789.787	0.0133435
789.866	0.0131868
789.944	0.0132641
790.022	0.0133167
790.100	0.0131844
790.178	0.0132681
790.256	0.0132077
790.334	0.0132361
790.412	0.0131371
790.491	0.0130493
790.569	0.0132610
790.647	0.0132446
790.725	0.0130373
790.803	0.0132185
790.881	0.0133546
790.959	0.0131353
791.037	0.0132769
791.116	0.0130589
791.194	0.0131684
791.272	0.0131178
791.350	0.0132169
791.428	0.0130988
791.506	0.0131770
791.584	0.0131196
791.662	0.0132837
791.741	0.0132046
791.819	0.0132971
791.897	0.0132779
791.975	0.0133614
792.053	0.0134049
792.131	0.0131614
792.209	0.0132413
792.287	0.0131642
792.366	0.0131745
792.444	0.0131809
792.522	0.0132088
792.600	0.0132037
792.678	0.0132345
792.756	0.0132984
792.834	0.0131285
792.912	0.0132816
792.991	0.0131996
793.069	0.0133036
793.147	0.0133837
793.225	0.0133630
793.303	0.0132845
793.381	0.0133308
793.459	0.0133459
793.537	0.0134478
793.616	0.0132713
793.694	0.0133338
793.772	0.0131754
793.850	0.0132554
793.928	0.0133360
794.006	0.0134295
794.084	0.0133847
794.162	0.0133300
794.241	0.0131754
794.319	0.0133885
794.397	0.0133364
794.475	0.0132218
794.553	0.0131442
794.631	0.0131505
794.709	0.0133826
794.787	0.0132636
794.866	0.0133580
794.944	0.0132397
795.022	0.0131829
795.100	0.0132661
795.178	0.0133495
795.256	0.0132773
795.334	0.0133134
795.412	0.0131757
795.491	0.0133559
795.569	0.0133809
795.647	0.0132027
795.725	0.0131800
795.803	0.0132173
795.881	0.0131989
795.959	0.0131884
796.037	0.0131632
796.116	0.0132587
796.194	0.0132165
796.272	0.0131435
796.350	0.0132240
796.428	0.0131348
796.506	0.0132375
796.584	0.0132893
796.662	0.0132673
796.741	0.0130389
796.819	0.0130440
796.897	0.0131622
796.975	0.0131046
797.053	0.0131011
797.131	0.0131416
797.209	0.0131927
797.287	0.0131802
797.366	0.0131439
797.444	0.0132492
797.522	0.0131844
797.600	0.0130904
797.678	0.0131326
797.756	0.0133201
797.834	0.0131179
797.912	0.0131728
797.991	0.0133282
798.069	0.0133785
798.147	0.0133251
798.225	0.0131734
798.303	0.0132146
798.381	0.0132877
798.459	0.0133876
798.537	0.0132053
798.616	0.0133060
798.694	0.0130856
798.772	0.0131047
798.850	0.0131492
798.928	0.0130536
799.006	0.0129957
799.084	0.0130840
799.162	0.0129500
799.241	0.0129231
799.319	0.0130448
799.397	0.0130088
799.475	0.0130219
799.553	0.0129833
799.631	0.0130287
799.709	0.0128912
799.787	0.0128350
799.866	0.0130727
799.944	0.0129927
800.022	0.0129469
800.100	0.0129782
800.178	0.0130946
800.256	0.0130392
800.334	0.0129878
800.412	0.0131161
800.491	0.0129927
800.569	0.0131770
800.647	0.0131913
800.725	0.0131445
800.803	0.0131235
800.881	0.0131826
800.959	0.0131893
801.037	0.0133775
801.116	0.0133382
801.194	0.0133406
801.272	0.0131778
801.350	0.0133606
801.428	0.0134079
801.506	0.0132763
801.584	0.0133476
801.662	0.0133632
801.741	0.0134020
801.819	0.0133821
801.897	0.0134579
801.975	0.0134231
802.053	0.0133472
802.131	0.0133772
802.209	0.0134314
802.287	0.0133832
802.366	0.0134023
802.444	0.0134869
802.522	0.0134309
802.600	0.0133726
802.678	0.0134808
802.756	0.0134374
802.834	0.0133929
802.912	0.0134451
802.991	0.0134063
803.069	0.0134602
803.147	0.0134069
803.225	0.0133527
803.303	0.0133196
803.381	0.0133097
803.459	0.0131554
803.537	0.0132500
803.616	0.0132412
803.694	0.0131741
803.772	0.0131243
803.850	0.0132437
803.928	0.0133019
804.006	0.0132753
804.084	0.0133062
804.162	0.0132706
804.241	0.0132837
804.319	0.0132330
804.397	0.0131766
804.475	0.0132188
804.553	0.0133284
804.631	0.0131589
804.709	0.0133291
804.787	0.0132310
804.866	0.0131805
804.944	0.0133243
805.022	0.0133489
805.100	0.0131696
805.178	0.0132276
805.256	0.0132455
805.334	0.0131352
805.412	0.0132022
805.491	0.0133067
805.569	0.0131305
805.647	0.0131546
805.725	0.0130448
805.803	0.0130763
805.881	0.0130384
805.959	0.0130232
806.037	0.0131460
806.116	0.0132707
806.194	0.0130731
806.272	0.0130875
806.350	0.0131076
806.428	0.0131491
806.506	0.0131556
806.584	0.0131584
806.662	0.0130919
806.741	0.0132636
806.819	0.0131857
806.897	0.0131137
806.975	0.0129937
807.053	0.0132024
807.131	0.0133025
807.209	0.0132967
807.287	0.0132605
807.366	0.0134155
807.444	0.0133517
807.522	0.0133750
807.600	0.0134299
807.678	0.0133691
807.756	0.0133535
807.834	0.0133578
807.912	0.0133839
807.991	0.0133486
808.069	0.0133625
808.147	0.0133192
808.225	0.0132062
808.303	0.0133204
808.381	0.0133307
808.459	0.0133655
808.537	0.0133763
808.616	0.0133049
808.694	0.0133093
808.772	0.0131848
808.850	0.0131751
808.928	0.0133794
809.006	0.0133334
809.084	0.0131622
809.162	0.0132332
809.241	0.0133006
809.319	0.0133173
809.397	0.0133025
809.475	0.0132796
809.553	0.0131674
809.631	0.0132039
809.709	0.0132875
809.787	0.0132987
809.866	0.0133340
809.944	0.0131537
810.022	0.0131544
810.100	0.0133184
810.178	0.0132340
810.256	0.0131587
810.334	0.0132291
810.412	0.0132070
810.491	0.0131292
810.569	0.0133437
810.647	0.0132046
810.725	0.0131579
810.803	0.0132972
810.881	0.0131680
810.959	0.0131520
811.037	0.0131799
811.116	0.0131536
811.194	0.0130805
811.272	0.0131632
811.350	0.0132349
811.428	0.0132178
811.506	0.0131267
811.584	0.0131572
811.662	0.0131512
811.741	0.0130068
811.819	0.0132281
811.897	0.0132314
811.975	0.0132266
812.053	0.0132066
812.131	0.0131524
812.209	0.0132428
812.287	0.0130918
812.366	0.0131730
812.444	0.0131879
812.522	0.0132922
812.600	0.0133599
812.678	0.0131703
812.756	0.0131863
812.834	0.0131708
812.912	0.0132761
812.991	0.0133070
813.069	0.0132791
813.147	0.0131106
813.225	0.0131537
813.303	0.0132335
813.381	0.0132115
813.459	0.0133223
813.537	0.0134235
813.616	0.0131888
813.694	0.0132779
813.772	0.0131562
813.850	0.0132152
813.928	0.0133453
814.006	0.0133176
814.084	0.0133022
814.162	0.0133865
814.241	0.0132930
814.319	0.0131639
814.397	0.0130568
814.475	0.0131823
814.553	0.0133221
814.631	0.0132761
814.709	0.0133139
814.787	0.0131130
814.866	0.0132327
814.944	0.0132036
815.022	0.0131783
815.100	0.0132260
815.178	0.0130204
815.256	0.0131170
815.334	0.0132269
815.412	0.0131667
815.491	0.0130517
815.569	0.0130882
815.647	0.0131374
815.725	0.0131958
815.803	0.0131028
815.881	0.0131198
815.959	0.0131284
816.037	0.0130308
816.116	0.0131272
816.194	0.0131062
816.272	0.0131229
816.350	0.0132844
816.428	0.0131902
816.506	0.0132834
816.584	0.0131842
816.662	0.0130925
816.741	0.0132183
816.819	0.0132565
816.897	0.0131953
816.975	0.0131624
817.053	0.0132764
817.131	0.0133855
817.209	0.0131016
817.287	0.0131655
817.366	0.0132052
817.444	0.0131845
817.522	0.0133691
817.600	0.0133937
817.678	0.0132142
817.756	0.0132407
817.834	0.0133900
817.912	0.0133781
817.991	0.0132478
818.069	0.0132552
818.147	0.0132986
818.225	0.0131754
818.303	0.0132226
818.381	0.0131317
818.459	0.0132047
818.537	0.0132782
818.616	0.0132677
818.694	0.0132610
818.772	0.0133083
818.850	0.0132628
818.928	0.0132617
819.006	0.0132066
819.084	0.0132398
819.162	0.0131747
819.241	0.0132973
819.319	0.0133903
819.397	0.0132593
819.475	0.0131544
819.553	0.0132415
819.631	0.0134335
819.709	0.0133138
819.787	0.0133469
819.866	0.0133470
819.944	0.0131694
820.022	0.0132308
820.100	0.0132727
820.178	0.0131160
820.256	0.0132241
820.334	0.0131913
820.412	0.0131335
820.491	0.0130644
820.569	0.0131129
820.647	0.0130413
820.725	0.0132562
820.803	0.0130350
820.881	0.0129487
820.959	0.0131320
821.037	0.0131630
821.116	0.0131209
821.194	0.0131278
821.272	0.0131297
821.350	0.0130172
821.428	0.0130293
821.506	0.0128781
821.584	0.0131532
821.662	0.0131615
821.741	0.0131914
821.819	0.0130240
821.897	0.0130618
821.975	0.0131006
822.053	0.0130836
822.131	0.0129708
822.209	0.0131566
822.287	0.0131606
822.366	0.0131193
822.444	0.0131258
822.522	0.0130698
822.600	0.0132683
822.678	0.0130690
822.756	0.0130717
822.834	0.0132017
822.912	0.0133075
822.991	0.0131433
823.069	0.0131526
823.147	0.0131792
823.225	0.0131368
823.303	0.0131984
823.381	0.0130759
823.459	0.0132963
823.537	0.0132703
823.616	0.0131237
823.694	0.0132412
823.772	0.0131728
823.850	0.0132539
823.928	0.0133450
824.006	0.0133221
824.084	0.0132977
824.162	0.0131638
824.241	0.0132244
824.319	0.0133990
824.397	0.0132957
824.475	0.0133499
824.553	0.0131614
824.631	0.0131676
824.709	0.0131925
824.787	0.0132748
824.866	0.0132519
824.944	0.0133020
825.022	0.0133006
825.100	0.0132150
825.178	0.0132265
825.256	0.0131889
825.334	0.0130714
825.412	0.0131606
825.491	0.0132350
825.569	0.0132971
825.647	0.0132050
825.725	0.0133374
825.803	0.0133553
825.881	0.0131560
825.959	0.0132565
826.037	0.0132827
826.116	0.0131631
826.194	0.0131567
826.272	0.0131500
826.350	0.0131123
826.428	0.0132023
826.506	0.0132337
826.584	0.0131329
826.662	0.0132238
826.741	0.0131353
826.819	0.0131613
826.897	0.0131016
826.975	0.0130296
827.053	0.0131258
827.131	0.0130705
827.209	0.0131031
827.287	0.0130824
827.366	0.0131313
827.444	0.0133208
827.522	0.0131378
827.600	0.0131212
827.678	0.0132751
827.756	0.0131600
827.834	0.0132358
827.912	0.0133128
827.991	0.0131464
828.069	0.0131576
828.147	0.0131866
828.225	0.0132459
828.303	0.0132503
828.381	0.0132175
828.459	0.0130482
828.537	0.0131528
828.616	0.0131091
828.694	0.0131577
828.772	0.0131908
828.850	0.0129704
828.928	0.0132394
829.006	0.0133703
829.084	0.0132368
829.162	0.0130656
829.241	0.0131913
829.319	0.0132326
829.397	0.0131082
829.475	0.0130106
829.553	0.0130772
829.631	0.0131872
829.709	0.0131027
829.787	0.0132281
829.866	0.0131190
829.944	0.0130662
830.022	0.0130172
830.100	0.0131815
830.178	0.0132365
830.256	0.0133480
830.334	0.0132198
830.412	0.0131003
830.491	0.0132426
830.569	0.0132246
830.647	0.0132053
830.725	0.0131150
830.803	0.0131814
830.881	0.0132797
830.959	0.0132578
831.037	0.0130859
831.116	0.0131432
831.194	0.0131268
831.272	0.0131029
831.350	0.0131244
831.428	0.0131806
831.506	0.0132249
831.584	0.0131686
831.662	0.0131384
831.741	0.0131603
831.819	0.0132626
831.897	0.0134290
831.975	0.0133028
832.053	0.0131445
832.131	0.0132891
832.209	0.0133238
832.287	0.0132999
832.366	0.0132800
832.444	0.0132317
832.522	0.0132871
832.600	0.0134282
832.678	0.0132739
832.756	0.0133515
832.834	0.0134351
832.912	0.0132027
832.991	0.0133643
833.069	0.0132545
833.147	0.0131593
833.225	0.0133669
833.303	0.0133949
833.381	0.0133797
833.459	0.0132593
833.537	0.0132221
833.616	0.0132889
833.694	0.0133315
833.772	0.0132507
833.850	0.0133592
833.928	0.0133131
834.006	0.0133101
834.084	0.0133179
834.162	0.0131389
834.241	0.0132903
834.319	0.0132199
834.397	0.0133573
834.475	0.0132050
834.553	0.0134043
834.631	0.0133549
834.709	0.0133285
834.787	0.0132728
834.866	0.0132593
834.944	0.0133501
835.022	0.0132816
835.100	0.0132923
835.178	0.0133710
835.256	0.0134654
835.334	0.0133238
835.412	0.0133166
835.491	0.0132197
835.569	0.0132952
835.647	0.0133492
835.725	0.0132091
835.803	0.0131954
835.881	0.0133070
835.959	0.0133418
836.037	0.0132343
836.116	0.0132284
836.194	0.0132864
836.272	0.0132046
836.350	0.0131904
836.428	0.0134087
836.506	0.0133802
836.584	0.0132753
836.662	0.0131643
836.741	0.0132600
836.819	0.0132838
836.897	0.0131448
836.975	0.0130797
837.053	0.0131512
837.131	0.0132993
837.209	0.0132112
837.287	0.0133071
837.366	0.0132499
837.444	0.0133417
837.522	0.0135188
837.600	0.0131978
837.678	0.0132143
837.756	0.0132214
837.834	0.0130821
837.912	0.0132956
837.991	0.0133053
838.069	0.0132539
838.147	0.0133139
838.225	0.0132586
838.303	0.0132793
838.381	0.0131895
838.459	0.0131909
838.537	0.0131091
838.616	0.0132064
838.694	0.0133221
838.772	0.0131808
838.850	0.0132246
838.928	0.0131760
839.006	0.0132090
839.084	0.0132307
839.162	0.0133748
839.241	0.0132479
839.319	0.0133067
839.397	0.0132552
839.475	0.0131968
839.553	0.0132900
839.631	0.0132490
839.709	0.0133974
839.787	0.0133124
839.866	0.0132310
839.944	0.0133446
840.022	0.0131455
840.100	0.0132448
840.178	0.0132251
840.256	0.0133137
840.334	0.0132656
840.412	0.0133530
840.491	0.0134190
840.569	0.0134545
840.647	0.0134343
840.725	0.0132604
840.803	0.0134088
840.881	0.0132942
840.959	0.0133152
841.037	0.0132864
841.116	0.0133910
841.194	0.0134608
841.272	0.0133131
841.350	0.0133427
841.428	0.0133724
841.506	0.0132295
841.584	0.0132164
841.662	0.0132568
841.741	0.0133457
841.819	0.0132402
841.897	0.0133712
841.975	0.0133186
842.053	0.0133608
842.131	0.0134150
842.209	0.0132935
842.287	0.0132957
842.366	0.0133866
842.444	0.0134990
842.522	0.0134370
842.600	0.0134236
842.678	0.0132190
842.756	0.0132764
842.834	0.0132897
842.912	0.0132291
842.991	0.0132455
843.069	0.0133047
843.147	0.0133444
843.225	0.0133633
843.303	0.0133006
843.381	0.0133559
843.459	0.0133707
843.537	0.0133832
843.616	0.0132992
843.694	0.0132069
843.772	0.0134228
843.850	0.0132918
843.928	0.0131998
844.006	0.0133491
844.084	0.0132456
844.162	0.0131606
844.241	0.0133183
844.319	0.0131699
844.397	0.0130737
844.475	0.0132815
844.553	0.0132461
844.631	0.0132398
844.709	0.0132603
844.787	0.0132698
844.866	0.0133651
844.944	0.0131887
845.022	0.0135113
845.100	0.0133215
845.178	0.0133400
845.256	0.0133704
845.334	0.0134209
845.412	0.0133630
845.491	0.0133189
845.569	0.0134019
845.647	0.0132317
845.725	0.0133209
845.803	0.0133323
845.881	0.0132910
845.959	0.0133527
846.037	0.0133656
846.116	0.0133219
846.194	0.0132094
846.272	0.0132748
846.350	0.0131741
846.428	0.0132637
846.506	0.0133636
846.584	0.0132128
846.662	0.0133254
846.741	0.0133144
846.819	0.0132536
846.897	0.0131180
846.975	0.0132260
847.053	0.0131509
847.131	0.0132462
847.209	0.0130233
847.287	0.0132334
847.366	0.0132178
847.444	0.0133169
847.522	0.0133018
847.600	0.0131387
847.678	0.0131860
847.756	0.0131716
847.834	0.0131850
847.912	0.0132751
847.991	0.0132726
848.069	0.0132114
848.147	0.0129977
848.225	0.0132695
848.303	0.0133259
848.381	0.0130805
848.459	0.0130698
848.537	0.0131998
848.616	0.0133034
848.694	0.0132455
848.772	0.0132039
848.850	0.0132925
848.928	0.0133295
849.006	0.0133516
849.084	0.0133059
849.162	0.0131396
849.241	0.0131849
849.319	0.0131638
849.397	0.0133323
849.475	0.0134249
849.553	0.0132754
849.631	0.0132927
849.709	0.0133354
849.787	0.0132982
849.866	0.0132307
849.944	0.0134423
850.022	0.0133819
850.100	0.0133103
850.178	0.0133298
850.256	0.0132600
850.334	0.0134218
850.412	0.0132722
850.491	0.0132377
850.569	0.0132376
850.647	0.0132441
850.725	0.0133115
850.803	0.0132966
850.881	0.0134703
850.959	0.0134296
851.037	0.0134344
851.116	0.0133149
851.194	0.0133201
851.272	0.0133988
851.350	0.0132401
851.428	0.0132710
851.506	0.0134120
851.584	0.0131356
851.662	0.0132512
851.741	0.0132343
851.819	0.0132668
851.897	0.0131732
851.975	0.0132501
852.053	0.0132922
852.131	0.0133101
852.209	0.0133386
852.287	0.0131967
852.366	0.0130666
852.444	0.0133370
852.522	0.0132305
852.600	0.0134075
852.678	0.0133550
852.756	0.0131577
852.834	0.0132816
852.912	0.0132343
852.991	0.0132809
853.069	0.0131522
853.147	0.0134077
853.225	0.0132945
853.303	0.0131879
853.381	0.0132452
853.459	0.0131391
853.537	0.0132823
853.616	0.0133887
853.694	0.0132731
853.772	0.0133368
853.850	0.0134430
853.928	0.0133499
854.006	0.0133659
854.084	0.0135328
854.162	0.0133218
854.241	0.0133157
854.319	0.0133705
854.397	0.0133711
854.475	0.0132224
854.553	0.0132289
854.631	0.0133197
854.709	0.0132482
854.787	0.0132903
854.866	0.0132416
854.944	0.0133536
855.022	0.0131910
855.100	0.0133011
855.178	0.0132784
855.256	0.0132681
855.334	0.0133368
855.412	0.0131745
855.491	0.0132755
855.569	0.0134176
855.647	0.0132985
855.725	0.0133179
855.803	0.0132159
855.881	0.0133079
855.959	0.0133047
856.037	0.0133298
856.116	0.0132413
856.194	0.0132885
856.272	0.0133237
856.350	0.0132773
856.428	0.0132628
856.506	0.0133194
856.584	0.0131850
856.662	0.0131861
856.741	0.0133263
856.819	0.0133788
856.897	0.0132605
856.975	0.0132687
857.053	0.0133939
857.131	0.0132225
857.209	0.0131529
857.287	0.0132076
857.366	0.0133067
857.444	0.0132040
857.522	0.0132092
857.600	0.0133492
857.678	0.0132584
857.756	0.0133136
857.834	0.0132684
857.912	0.0132611
857.991	0.0132864
858.069	0.0132832
858.147	0.0132574
858.225	0.0132179
858.303	0.0131172
858.381	0.0131889
858.459	0.0133022
858.537	0.0134059
858.616	0.0133215
858.694	0.0133017
858.772	0.0132781
858.850	0.0132240
858.928	0.0132283
859.006	0.0131853
859.084	0.0131903
859.162	0.0133038
859.241	0.0133323
859.319	0.0132401
859.397	0.0132390
859.475	0.0133359
859.553	0.0133144
859.631	0.0131945
859.709	0.0132065
859.787	0.0132938
859.866	0.0131673
859.944	0.0131017
860.022	0.0132281
860.100	0.0132042
860.178	0.0130850
860.256	0.0131708
860.334	0.0132441
860.412	0.0133640
860.491	0.0132404
860.569	0.0132162
860.647	0.0132346
860.725	0.0132241
860.803	0.0132306
860.881	0.0132894
860.959	0.0134508
861.037	0.0133978
861.116	0.0132060
861.194	0.0133201
861.272	0.0134772
861.350	0.0133499
861.428	0.0131966
861.506	0.0133580
861.584	0.0133559
861.662	0.0131253
861.741	0.0132854
861.819	0.0134670
861.897	0.0131866
861.975	0.0130940
862.053	0.0133973
862.131	0.0132876
862.209	0.0131969
862.287	0.0134628
862.366	0.0134341
862.444	0.0133915
862.522	0.0133224
862.600	0.0133745
862.678	0.0133596
862.756	0.0133298
862.834	0.0134193
862.912	0.0133109
862.991	0.0134147
863.069	0.0135107
863.147	0.0134576
863.225	0.0132015
863.303	0.0132092
863.381	0.0133032
863.459	0.0132906
863.537	0.0133945
863.616	0.0133241
863.694	0.0133371
863.772	0.0131410
863.850	0.0133566
863.928	0.0132173
864.006	0.0132053
864.084	0.0133728
864.162	0.0133012
864.241	0.0132307
864.319	0.0132767
864.397	0.0132967
864.475	0.0132570
864.553	0.0133038
864.631	0.0132330
864.709	0.0132204
864.787	0.0133501
864.866	0.0133512
864.944	0.0131894
865.022	0.0131624
865.100	0.0134090
865.178	0.0133601
865.256	0.0133230
865.334	0.0132831
865.412	0.0132861
865.491	0.0132707
865.569	0.0132788
865.647	0.0132632
865.725	0.0134076
865.803	0.0133330
865.881	0.0131768
865.959	0.0132176
866.037	0.0132843
866.116	0.0133430
866.194	0.0131361
866.272	0.0131776
866.350	0.0132296
866.428	0.0131917
866.506	0.0132449
866.584	0.0132973
866.662	0.0132079
866.741	0.0131814
866.819	0.0133272
866.897	0.0132364
866.975	0.0132582
867.053	0.0132452
867.131	0.0132845
867.209	0.0132164
867.287	0.0132545
867.366	0.0133050
867.444	0.0132319
867.522	0.0132504
867.600	0.0133804
867.678	0.0131870
867.756	0.0130269
867.834	0.0132405
867.912	0.0132347
867.991	0.0131438
868.069	0.0132463
868.147	0.0132317
868.225	0.0131398
868.303	0.0132232
868.381	0.0133713
868.459	0.0132246
868.537	0.0133188
868.616	0.0133528
868.694	0.0133220
868.772	0.0132765
868.850	0.0132223
868.928	0.0132404
869.006	0.0133566
869.084	0.0132742
869.162	0.0132510
869.241	0.0131448
869.319	0.0133407
869.397	0.0134061
869.475	0.0132240
869.553	0.0132788
869.631	0.0133276
869.709	0.0131461
869.787	0.0132071
869.866	0.0131831
869.944	0.0132365
870.022	0.0133281
870.100	0.0133315
870.178	0.0133033
870.256	0.0131905
870.334	0.0132576
870.412	0.0133846
870.491	0.0134848
870.569	0.0132829
870.647	0.0133527
870.725	0.0134353
870.803	0.0133051
870.881	0.0132224
870.959	0.0134093
871.037	0.0133051
871.116	0.0133042
871.194	0.0131734
871.272	0.0132831
871.350	0.0132937
871.428	0.0132907
871.506	0.0133414
871.584	0.0132630
871.662	0.0131679
871.741	0.0131026
871.819	0.0133092
871.897	0.0134054
871.975	0.0133327
872.053	0.0132762
872.131	0.0132990
872.209	0.0132906
872.287	0.0132996
872.366	0.0131816
872.444	0.0132508
872.522	0.0133685
872.600	0.0132486
872.678	0.0132090
872.756	0.0133515
872.834	0.0133437
872.912	0.0132577
872.991	0.0132434
873.069	0.0133346
873.147	0.0133630
873.225	0.0133060
873.303	0.0134102
873.381	0.0133408
873.459	0.0132104
873.537	0.0132674
873.616	0.0132605
873.694	0.0134489
873.772	0.0134485
873.850	0.0132055
873.928	0.0133250
874.006	0.0132777
874.084	0.0131144
874.162	0.0131945
874.241	0.0132081
874.319	0.0132455
874.397	0.0132566
874.475	0.0131238
874.553	0.0132880
874.631	0.0132516
874.709	0.0131299
874.787	0.0131853
874.866	0.0132396
874.944	0.0132182
875.022	0.0131807
875.100	0.0133815
875.178	0.0132131
875.256	0.0131472
875.334	0.0131984
875.412	0.0132963
875.491	0.0133345
875.569	0.0132359
875.647	0.0133479
875.725	0.0132515
875.803	0.0132282
875.881	0.0132867
875.959	0.0131688
876.037	0.0131775
876.116	0.0132676
876.194	0.0131339
876.272	0.0131447
876.350	0.0132113
876.428	0.0132513
876.506	0.0131606
876.584	0.0131989
876.662	0.0131528
876.741	0.0133122
876.819	0.0131096
876.897	0.0132475
876.975	0.0131905
877.053	0.0132138
877.131	0.0131339
877.209	0.0132491
877.287	0.0131252
877.366	0.0131526
877.444	0.0132397
877.522	0.0131358
877.600	0.0130695
877.678	0.0131753
877.756	0.0130670
877.834	0.0130864
877.912	0.0131355
877.991	0.0129847
878.069	0.0131171
878.147	0.0131693
878.225	0.0132212
878.303	0.0130521
878.381	0.0130950
878.459	0.0131730
878.537	0.0130135
878.616	0.0131577
878.694	0.0132377
878.772	0.0131903
878.850	0.0132793
878.928	0.0132211
879.006	0.0132259
879.084	0.0130608
879.162	0.0132307
879.241	0.0133247
879.319	0.0133045
879.397	0.0132259
879.475	0.0133244
879.553	0.0131921
879.631	0.0131949
879.709	0.0132597
879.787	0.0133635
879.866	0.0132310
879.944	0.0131595
880.022	0.0134195
880.100	0.0133273
880.178	0.0132173
880.256	0.0132781
880.334	0.0132993
880.412	0.0132391
880.491	0.0131449
880.569	0.0131788
880.647	0.0133582
880.725	0.0132512
880.803	0.0130978
880.881	0.0132406
880.959	0.0131918
881.037	0.0132302
881.116	0.0133360
881.194	0.0131816
881.272	0.0133109
881.350	0.0133741
881.428	0.0134501
881.506	0.0133617
881.584	0.0132573
881.662	0.0133614
881.741	0.0134050
881.819	0.0133222
881.897	0.0130989
881.975	0.0131091
882.053	0.0132698
882.131	0.0131272
882.209	0.0131657
882.287	0.0130267
882.366	0.0131243
882.444	0.0131277
882.522	0.0131088
882.600	0.0131409
882.678	0.0131300
882.756	0.0132559
882.834	0.0132322
882.912	0.0132778
882.991	0.0132968
883.069	0.0131120
883.147	0.0131419
883.225	0.0132415
883.303	0.0132152
883.381	0.0131699
883.459	0.0130413
883.537	0.0130412
883.616	0.0130203
883.694	0.0131571
883.772	0.0131972
883.850	0.0133273
883.928	0.0131105
884.006	0.0130901
884.084	0.0132201
884.162	0.0132433
884.241	0.0131857
884.319	0.0131600
884.397	0.0131180
884.475	0.0132783
884.553	0.0132300
884.631	0.0132369
884.709	0.0132935
884.787	0.0131683
884.866	0.0131610
884.944	0.0131927
885.022	0.0131950
885.100	0.0132381
885.178	0.0131458
885.256	0.0131948
885.334	0.0131239
885.412	0.0131078
885.491	0.0131754
885.569	0.0131400
885.647	0.0131187
885.725	0.0131306
885.803	0.0132886
885.881	0.0132206
885.959	0.0131722
886.037	0.0131374
886.116	0.0132587
886.194	0.0132182
886.272	0.0131989
886.350	0.0132344
886.428	0.0131232
886.506	0.0132870
886.584	0.0132271
886.662	0.0132830
886.741	0.0132947
886.819	0.0131015
886.897	0.0130859
886.975	0.0131423
887.053	0.0132866
887.131	0.0133169
887.209	0.0132004
887.287	0.0132622
887.366	0.0131906
887.444	0.0133504
887.522	0.0133411
887.600	0.0133504
887.678	0.0132514
887.756	0.0131337
887.834	0.0132298
887.912	0.0132657
887.991	0.0131441
888.069	0.0130853
888.147	0.0131670
888.225	0.0131425
888.303	0.0131300
888.381	0.0130174
888.459	0.0131256
888.537	0.0130961
888.616	0.0130592
888.694	0.0130476
888.772	0.0129173
888.850	0.0130621
888.928	0.0130600
889.006	0.0130341
889.084	0.0130398
889.162	0.0131620
889.241	0.0129944
889.319	0.0132169
889.397	0.0130442
889.475	0.0130360
889.553	0.0131219
889.631	0.0131303
889.709	0.0131297
889.787	0.0131725
889.866	0.0131522
889.944	0.0131365
890.022	0.0132254
890.100	0.0131804
890.178	0.0131249
890.256	0.0131338
890.334	0.0131570
890.412	0.0130846
890.491	0.0132872
890.569	0.0132219
890.647	0.0130672
890.725	0.0131542
890.803	0.0131805
890.881	0.0130126
890.959	0.0131145
891.037	0.0132086
891.116	0.0131627
891.194	0.0132178
891.272	0.0130862
891.350	0.0129877
891.428	0.0131067
891.506	0.0132588
891.584	0.0130885
891.662	0.0130991
891.741	0.0132612
891.819	0.0133115
891.897	0.0131104
891.975	0.0132108
892.053	0.0132469
892.131	0.0133306
892.209	0.0132555
892.287	0.0133752
892.366	0.0132517
892.444	0.0132981
892.522	0.0133286
892.600	0.0134589
892.678	0.0132999
892.756	0.0133881
892.834	0.0133248
892.912	0.0132286
892.991	0.0133057
893.069	0.0133611
893.147	0.0133285
893.225	0.0134205
893.303	0.0132874
893.381	0.0132137
893.459	0.0132779
893.537	0.0132526
893.616	0.0133451
893.694	0.0132048
893.772	0.0131820
893.850	0.0132786
893.928	0.0130900
894.006	0.0131165
894.084	0.0132340
894.162	0.0130491
894.241	0.0131841
894.319	0.0131940
894.397	0.0132738
894.475	0.0131136
894.553	0.0131080
894.631	0.0130282
894.709	0.0130781
894.787	0.0130415
894.866	0.0129744
894.944	0.0129836
895.022	0.0131168
895.100	0.0131242
895.178	0.0132141
895.256	0.0130798
895.334	0.0132360
895.412	0.0131602
895.491	0.0130820
895.569	0.0131498
895.647	0.0132327
895.725	0.0131642
895.803	0.0130686
895.881	0.0131203
895.959	0.0131014
896.037	0.0131558
896.116	0.0131716
896.194	0.0130631
896.272	0.0131533
896.350	0.0129664
896.428	0.0131839
896.506	0.0131177
896.584	0.0132177
896.662	0.0133147
896.741	0.0133761
896.819	0.0133363
896.897	0.0133968
896.975	0.0133668
897.053	0.0132986
897.131	0.0133817
897.209	0.0132748
897.287	0.0132941
897.366	0.0133572
897.444	0.0132072
897.522	0.0132060
897.600	0.0131883
897.678	0.0131538
897.756	0.0131406
897.834	0.0133330
897.912	0.0134103
897.991	0.0133245
898.069	0.0133027
898.147	0.0132560
898.225	0.0134084
898.303	0.0132692
898.381	0.0133450
898.459	0.0132726
898.537	0.0131589
898.616	0.0132369
898.694	0.0133389
898.772	0.0133012
898.850	0.0131621
898.928	0.0131635
899.006	0.0131287
899.084	0.0130842
899.162	0.0132412
899.241	0.0130799
899.319	0.0131654
899.397	0.0130698
899.475	0.0130526
899.553	0.0131036
899.631	0.0131872
899.709	0.0132897
899.787	0.0131306
899.866	0.0131593
899.944	0.0131173
900.022	0.0131209
900.100	0.0131115
900.178	0.0130317
900.256	0.0130639
900.334	0.0132169
900.412	0.0131555
900.491	0.0130838
900.569	0.0130091
900.647	0.0131659
900.725	0.0131625
900.803	0.0131370
900.881	0.0130232
900.959	0.0129906
901.037	0.0129998
901.116	0.0130135
901.194	0.0130756
901.272	0.0130394
901.350	0.0131242
901.428	0.0131377
901.506	0.0130905
901.584	0.0130386
901.662	0.0130823
901.741	0.0131770
901.819	0.0132178
901.897	0.0132298
901.975	0.0131693
902.053	0.0131691
902.131	0.0131590
902.209	0.0132005
902.287	0.0132709
902.366	0.0133513
902.444	0.0132658
902.522	0.0132465
902.600	0.0132042
902.678	0.0133014
902.756	0.0133227
902.834	0.0133101
902.912	0.0133031
902.991	0.0132304
903.069	0.0132880
903.147	0.0131875
903.225	0.0132074
903.303	0.0132411
903.381	0.0131715
903.459	0.0132213
903.537	0.0131615
903.616	0.0131408
903.694	0.0131825
903.772	0.0131290
903.850	0.0132606
903.928	0.0131165
904.006	0.0133327
904.084	0.0133082
904.162	0.0132132
904.241	0.0131385
904.319	0.0132198
904.397	0.0130865
904.475	0.0131103
904.553	0.0131217
904.631	0.0132398
904.709	0.0131877
904.787	0.0133583
904.866	0.0132156
904.944	0.0131677
905.022	0.0131520
905.100	0.0130691
905.178	0.0131853
905.256	0.0130769
905.334	0.0130836
905.412	0.0132259
905.491	0.0130059
905.569	0.0131342
905.647	0.0130441
905.725	0.0131468
905.803	0.0131989
905.881	0.0131136
905.959	0.0132204
906.037	0.0132353
906.116	0.0130770
906.194	0.0130449
906.272	0.0131882
906.350	0.0131752
906.428	0.0132483
906.506	0.0132611
906.584	0.0133971
906.662	0.0132139
906.741	0.0132049
906.819	0.0133004
906.897	0.0132368
906.975	0.0131307
907.053	0.0132999
907.131	0.0131966
907.209	0.0132291
907.287	0.0131370
907.366	0.0132687
907.444	0.0132215
907.522	0.0131561
907.600	0.0130293
907.678	0.0129166
907.756	0.0131181
907.834	0.0131316
907.912	0.0129579
907.991	0.0130574
908.069	0.0131261
908.147	0.0131754
908.225	0.0131501
908.303	0.0130788
908.381	0.0130019
908.459	0.0132095
908.537	0.0132401
908.616	0.0131615
908.694	0.0131948
908.772	0.0134387
908.850	0.0133113
908.928	0.0130928
909.006	0.0133737
909.084	0.0134366
909.162	0.0132417
909.241	0.0132478
909.319	0.0132848
909.397	0.0132689
909.475	0.0133556
909.553	0.0130965
909.631	0.0132119
909.709	0.0133140
909.787	0.0131552
909.866	0.0131500
909.944	0.0132368
910.022	0.0131544
910.100	0.0130760
910.178	0.0131299
910.256	0.0131113
910.334	0.0131615
910.412	0.0132059
910.491	0.0130492
910.569	0.0132088
910.647	0.0131840
910.725	0.0131236
910.803	0.0129871
910.881	0.0132427
910.959	0.0132611
911.037	0.0131867
911.116	0.0132875
911.194	0.0132208
911.272	0.0133303
911.350	0.0133788
911.428	0.0134747
911.506	0.0133090
911.584	0.0133035
911.662	0.0133234
911.741	0.0132307
911.819	0.0131946
911.897	0.0132215
911.975	0.0133440
912.053	0.0133569
912.131	0.0132629
912.209	0.0132403
912.287	0.0132053
912.366	0.0133305
912.444	0.0131786
912.522	0.0131872
912.600	0.0132148
912.678	0.0130265
912.756	0.0132571
912.834	0.0132645
912.912	0.0131471
912.991	0.0131590
913.069	0.0132234
913.147	0.0131177
913.225	0.0133016
913.303	0.0132654
913.381	0.0132092
913.459	0.0132011
913.537	0.0132946
913.616	0.0133087
913.694	0.0132729
913.772	0.0132041
913.850	0.0132088
913.928	0.0132658
914.006	0.0132742
914.084	0.0131714
914.162	0.0132365
914.241	0.0132574
914.319	0.0133097
914.397	0.0133163
914.475	0.0132330
914.553	0.0131341
914.631	0.0133157
914.709	0.0133118
914.787	0.0132031
914.866	0.0133623
914.944	0.0133994
915.022	0.0132288
915.100	0.0134468
915.178	0.0133614
915.256	0.0134631
915.334	0.0133418
915.412	0.0132612
915.491	0.0133009
915.569	0.0132758
915.647	0.0133280
915.725	0.0133636
915.803	0.0132255
915.881	0.0132635
915.959	0.0133900
916.037	0.0132485
916.116	0.0133902
916.194	0.0131874
916.272	0.0131995
916.350	0.0133758
916.428	0.0132855
916.506	0.0133015
916.584	0.0133643
916.662	0.0132040
916.741	0.0132544
916.819	0.0132438
916.897	0.0133501
916.975	0.0132044
917.053	0.0131636
917.131	0.0132483
917.209	0.0131429
917.287	0.0132121
917.366	0.0132159
917.444	0.0133156
917.522	0.0132941
917.600	0.0132887
917.678	0.0132607
917.756	0.0132819
917.834	0.0131653
917.912	0.0133160
917.991	0.0131448
918.069	0.0132798
918.147	0.0132930
918.225	0.0131576
918.303	0.0130013
918.381	0.0131223
918.459	0.0131711
918.537	0.0131538
918.616	0.0132030
918.694	0.0131268
918.772	0.0132388
918.850	0.0132320
918.928	0.0132875
919.006	0.0131763
919.084	0.0131517
919.162	0.0131097
919.241	0.0132942
919.319	0.0132090
919.397	0.0133290
919.475	0.0132688
919.553	0.0131803
919.631	0.0131407
919.709	0.0134260
919.787	0.0133103
919.866	0.0132179
919.944	0.0134064
