05/06/2022	19:20:15	Ver.	4.1	UNKNOWN
Optical Delay	600.015094	Delta X		0.078125	Sweeps	1	Scan Rate	0/0
Coordinates	Axis 1	NaN	Axis 2	NaN	Axis 3	NaN	Axis 4	NaN	Axis 5	NaN	Axis 6	0.000000
TX Power	0.000000	RX Power	0.000000

600.015	0.0152986
600.093	0.0154662
600.171	0.0152358
600.249	0.0152242
600.328	0.0153158
600.406	0.0153830
600.484	0.0152476
600.562	0.0152826
600.640	0.0152413
600.718	0.0152087
600.796	0.0153038
600.874	0.0152357
600.953	0.0154270
601.031	0.0154292
601.109	0.0153310
601.187	0.0153380
601.265	0.0152751
601.343	0.0153876
601.421	0.0152886
601.499	0.0152705
601.578	0.0152774
601.656	0.0153191
601.734	0.0150796
601.812	0.0152146
601.890	0.0153094
601.968	0.0152943
602.046	0.0155220
602.124	0.0154682
602.203	0.0152389
602.281	0.0153337
602.359	0.0153822
602.437	0.0152631
602.515	0.0152369
602.593	0.0152454
602.671	0.0154348
602.749	0.0153187
602.828	0.0152985
602.906	0.0152829
602.984	0.0153445
603.062	0.0153488
603.140	0.0154161
603.218	0.0151778
603.296	0.0153091
603.374	0.0154163
603.453	0.0152975
603.531	0.0151414
603.609	0.0152267
603.687	0.0153094
603.765	0.0153607
603.843	0.0152959
603.921	0.0152344
603.999	0.0153008
604.078	0.0153468
604.156	0.0153570
604.234	0.0153121
604.312	0.0153230
604.390	0.0152957
604.468	0.0153926
604.546	0.0153348
604.624	0.0152589
604.703	0.0153066
604.781	0.0153904
604.859	0.0152956
604.937	0.0152294
605.015	0.0151713
605.093	0.0151979
605.171	0.0153860
605.249	0.0152684
605.328	0.0153202
605.406	0.0152744
605.484	0.0153286
605.562	0.0152579
605.640	0.0154770
605.718	0.0153006
605.796	0.0153920
605.874	0.0153709
605.953	0.0153396
606.031	0.0152866
606.109	0.0152438
606.187	0.0153225
606.265	0.0153374
606.343	0.0153826
606.421	0.0153637
606.499	0.0153545
606.578	0.0153330
606.656	0.0154484
606.734	0.0153000
606.812	0.0152606
606.890	0.0153889
606.968	0.0154414
607.046	0.0152168
607.124	0.0153538
607.203	0.0154317
607.281	0.0155032
607.359	0.0153069
607.437	0.0154206
607.515	0.0154349
607.593	0.0154119
607.671	0.0153217
607.749	0.0152998
607.828	0.0151438
607.906	0.0153763
607.984	0.0153318
608.062	0.0153030
608.140	0.0153442
608.218	0.0153966
608.296	0.0152488
608.374	0.0152090
608.453	0.0152396
608.531	0.0153175
608.609	0.0153964
608.687	0.0151614
608.765	0.0151263
608.843	0.0153439
608.921	0.0153545
608.999	0.0152984
609.078	0.0152210
609.156	0.0151987
609.234	0.0151926
609.312	0.0153294
609.390	0.0152700
609.468	0.0152316
609.546	0.0151994
609.624	0.0154221
609.703	0.0153231
609.781	0.0152149
609.859	0.0152063
609.937	0.0152076
610.015	0.0151324
610.093	0.0153304
610.171	0.0152094
610.249	0.0153216
610.328	0.0152942
610.406	0.0152820
610.484	0.0153494
610.562	0.0152345
610.640	0.0151556
610.718	0.0151684
610.796	0.0153036
610.874	0.0152141
610.953	0.0153453
611.031	0.0153621
611.109	0.0152058
611.187	0.0153265
611.265	0.0151852
611.343	0.0152646
611.421	0.0153031
611.499	0.0153242
611.578	0.0153407
611.656	0.0152747
611.734	0.0150825
611.812	0.0151568
611.890	0.0153928
611.968	0.0151949
612.046	0.0153518
612.124	0.0153430
612.203	0.0151878
612.281	0.0152874
612.359	0.0152825
612.437	0.0154170
612.515	0.0151682
612.593	0.0153381
612.671	0.0153648
612.749	0.0152866
612.828	0.0153506
612.906	0.0152724
612.984	0.0152251
613.062	0.0151810
613.140	0.0152384
613.218	0.0152523
613.296	0.0151767
613.374	0.0151639
613.453	0.0152795
613.531	0.0152464
613.609	0.0152249
613.687	0.0152456
613.765	0.0152954
613.843	0.0152824
613.921	0.0153636
613.999	0.0153002
614.078	0.0152756
614.156	0.0152440
614.234	0.0153095
614.312	0.0152824
614.390	0.0153469
614.468	0.0152634
614.546	0.0152222
614.624	0.0154160
614.703	0.0153178
614.781	0.0151957
614.859	0.0153340
614.937	0.0153331
615.015	0.0153203
615.093	0.0152892
615.171	0.0152523
615.249	0.0153574
615.328	0.0153778
615.406	0.0154417
615.484	0.0154662
615.562	0.0152814
615.640	0.0154364
615.718	0.0153381
615.796	0.0153329
615.874	0.0153781
615.953	0.0153204
616.031	0.0152038
616.109	0.0153773
616.187	0.0152245
616.265	0.0154543
616.343	0.0153906
616.421	0.0152973
616.499	0.0152812
616.578	0.0152507
616.656	0.0153702
616.734	0.0153190
616.812	0.0151849
616.890	0.0152362
616.968	0.0152601
617.046	0.0153155
617.124	0.0154226
617.203	0.0153438
617.281	0.0152128
617.359	0.0152276
617.437	0.0154469
617.515	0.0152928
617.593	0.0151122
617.671	0.0153960
617.749	0.0153171
617.828	0.0151898
617.906	0.0152282
617.984	0.0153104
618.062	0.0153118
618.140	0.0153723
618.218	0.0153379
618.296	0.0153811
618.374	0.0153448
618.453	0.0154090
618.531	0.0153522
618.609	0.0152673
618.687	0.0152107
618.765	0.0152753
618.843	0.0153542
618.921	0.0152832
618.999	0.0154301
619.078	0.0155250
619.156	0.0153262
619.234	0.0152541
619.312	0.0153071
619.390	0.0153433
619.468	0.0153483
619.546	0.0154037
619.624	0.0152430
619.703	0.0152872
619.781	0.0153747
619.859	0.0153124
619.937	0.0152661
620.015	0.0151862
620.093	0.0151904
620.171	0.0153201
620.249	0.0153132
620.328	0.0151195
620.406	0.0152311
620.484	0.0151054
620.562	0.0153450
620.640	0.0154554
620.718	0.0152600
620.796	0.0152320
620.874	0.0153593
620.953	0.0152708
621.031	0.0153157
621.109	0.0153961
621.187	0.0153876
621.265	0.0152810
621.343	0.0153056
621.421	0.0154159
621.499	0.0153461
621.578	0.0153995
621.656	0.0154813
621.734	0.0153635
621.812	0.0153638
621.890	0.0153860
621.968	0.0152214
622.046	0.0154746
622.124	0.0152425
622.203	0.0153036
622.281	0.0152401
622.359	0.0153242
622.437	0.0151417
622.515	0.0151369
622.593	0.0152437
622.671	0.0151667
622.749	0.0151037
622.828	0.0151549
622.906	0.0152617
622.984	0.0153102
623.062	0.0151766
623.140	0.0151328
623.218	0.0151881
623.296	0.0151967
623.374	0.0151955
623.453	0.0151944
623.531	0.0152203
623.609	0.0154378
623.687	0.0153094
623.765	0.0152592
623.843	0.0152634
623.921	0.0153514
623.999	0.0154351
624.078	0.0152804
624.156	0.0152686
624.234	0.0152646
624.312	0.0151965
624.390	0.0153194
624.468	0.0152759
624.546	0.0154202
624.624	0.0153061
624.703	0.0151617
624.781	0.0153869
624.859	0.0153216
624.937	0.0152834
625.015	0.0154158
625.093	0.0153706
625.171	0.0154108
625.249	0.0154529
625.328	0.0154001
625.406	0.0154010
625.484	0.0153568
625.562	0.0153467
625.640	0.0153006
625.718	0.0154494
625.796	0.0155820
625.874	0.0152975
625.953	0.0152789
626.031	0.0153964
626.109	0.0153380
626.187	0.0152066
626.265	0.0152149
626.343	0.0152396
626.421	0.0151049
626.499	0.0152150
626.578	0.0152009
626.656	0.0152105
626.734	0.0151714
626.812	0.0152153
626.890	0.0152709
626.968	0.0152513
627.046	0.0152659
627.124	0.0151060
627.203	0.0151964
627.281	0.0151781
627.359	0.0152184
627.437	0.0151962
627.515	0.0152446
627.593	0.0152188
627.671	0.0151069
627.749	0.0153649
627.828	0.0152030
627.906	0.0152480
627.984	0.0152554
628.062	0.0152742
628.140	0.0153275
628.218	0.0152199
628.296	0.0153305
628.374	0.0153091
628.453	0.0152643
628.531	0.0152098
628.609	0.0153751
628.687	0.0151640
628.765	0.0152808
628.843	0.0153384
628.921	0.0153459
628.999	0.0152578
629.078	0.0152733
629.156	0.0153458
629.234	0.0152226
629.312	0.0152772
629.390	0.0154922
629.468	0.0152393
629.546	0.0153139
629.624	0.0153166
629.703	0.0152499
629.781	0.0150858
629.859	0.0152520
629.937	0.0151617
630.015	0.0152515
630.093	0.0151453
630.171	0.0152118
630.249	0.0152869
630.328	0.0153156
630.406	0.0152168
630.484	0.0153155
630.562	0.0154431
630.640	0.0152845
630.718	0.0151933
630.796	0.0153130
630.874	0.0152519
630.953	0.0152948
631.031	0.0153359
631.109	0.0152715
631.187	0.0153128
631.265	0.0152822
631.343	0.0153152
631.421	0.0153410
631.499	0.0152562
631.578	0.0151409
631.656	0.0152669
631.734	0.0154832
631.812	0.0155344
631.890	0.0154682
631.968	0.0153947
632.046	0.0154142
632.124	0.0153046
632.203	0.0153625
632.281	0.0152944
632.359	0.0154315
632.437	0.0153088
632.515	0.0153603
632.593	0.0153555
632.671	0.0154501
632.749	0.0152833
632.828	0.0153116
632.906	0.0154327
632.984	0.0153174
633.062	0.0153593
633.140	0.0152794
633.218	0.0151974
633.296	0.0152843
633.374	0.0153032
633.453	0.0153335
633.531	0.0151672
633.609	0.0153147
633.687	0.0153086
633.765	0.0152473
633.843	0.0150872
633.921	0.0151732
633.999	0.0151046
634.078	0.0151910
634.156	0.0152695
634.234	0.0152549
634.312	0.0150980
634.390	0.0153840
634.468	0.0153839
634.546	0.0154552
634.624	0.0155505
634.703	0.0152973
634.781	0.0154583
634.859	0.0154683
634.937	0.0155830
635.015	0.0155178
635.093	0.0154312
635.171	0.0155645
635.249	0.0155177
635.328	0.0153964
635.406	0.0153932
635.484	0.0154328
635.562	0.0154719
635.640	0.0154847
635.718	0.0154877
635.796	0.0154567
635.874	0.0154019
635.953	0.0152877
636.031	0.0151670
636.109	0.0152252
636.187	0.0153588
636.265	0.0152048
636.343	0.0152927
636.421	0.0150941
636.499	0.0151189
636.578	0.0150204
636.656	0.0151579
636.734	0.0151154
636.812	0.0152277
636.890	0.0151553
636.968	0.0151566
637.046	0.0150626
637.124	0.0153271
637.203	0.0151651
637.281	0.0152917
637.359	0.0152669
637.437	0.0153401
637.515	0.0154395
637.593	0.0156099
637.671	0.0154526
637.749	0.0155394
637.828	0.0155374
637.906	0.0155896
637.984	0.0156844
638.062	0.0155769
638.140	0.0156767
638.218	0.0157190
638.296	0.0156100
638.374	0.0157826
638.453	0.0157077
638.531	0.0155916
638.609	0.0156171
638.687	0.0155899
638.765	0.0154671
638.843	0.0154839
638.921	0.0154469
638.999	0.0154204
639.078	0.0153101
639.156	0.0152734
639.234	0.0152393
639.312	0.0151922
639.390	0.0150014
639.468	0.0151476
639.546	0.0150584
639.624	0.0149134
639.703	0.0148483
639.781	0.0149921
639.859	0.0149885
639.937	0.0148770
640.015	0.0149760
640.093	0.0148391
640.171	0.0148950
640.249	0.0149097
640.328	0.0150733
640.406	0.0150768
640.484	0.0150642
640.562	0.0151878
640.640	0.0151536
640.718	0.0153239
640.796	0.0153934
640.874	0.0154520
640.953	0.0156176
641.031	0.0156975
641.109	0.0159159
641.187	0.0157203
641.265	0.0158158
641.343	0.0158401
641.421	0.0158775
641.499	0.0158208
641.578	0.0158501
641.656	0.0159429
641.734	0.0158135
641.812	0.0157882
641.890	0.0157830
641.968	0.0157534
642.046	0.0157282
642.124	0.0157340
642.203	0.0156212
642.281	0.0155215
642.359	0.0154911
642.437	0.0155674
642.515	0.0153635
642.593	0.0153284
642.671	0.0151645
642.749	0.0151418
642.828	0.0150603
642.906	0.0149472
642.984	0.0149368
643.062	0.0148308
643.140	0.0147502
643.218	0.0148215
643.296	0.0148096
643.374	0.0147453
643.453	0.0144992
643.531	0.0146083
643.609	0.0146924
643.687	0.0147763
643.765	0.0145853
643.843	0.0146130
643.921	0.0147737
643.999	0.0147980
644.078	0.0147417
644.156	0.0149616
644.234	0.0149719
644.312	0.0151233
644.390	0.0152540
644.468	0.0152978
644.546	0.0152530
644.624	0.0155109
644.703	0.0157231
644.781	0.0157643
644.859	0.0157387
644.937	0.0158225
645.015	0.0159509
645.093	0.0159986
645.171	0.0158642
645.249	0.0160727
645.328	0.0161088
645.406	0.0161141
645.484	0.0160134
645.562	0.0158166
645.640	0.0159507
645.718	0.0157951
645.796	0.0158648
645.874	0.0157242
645.953	0.0154763
646.031	0.0155212
646.109	0.0155808
646.187	0.0155896
646.265	0.0153016
646.343	0.0152972
646.421	0.0152083
646.499	0.0149772
646.578	0.0150430
646.656	0.0149355
646.734	0.0147533
646.812	0.0148355
646.890	0.0146989
646.968	0.0146182
647.046	0.0145695
647.124	0.0143576
647.203	0.0144223
647.281	0.0143272
647.359	0.0143654
647.437	0.0143050
647.515	0.0143342
647.593	0.0143994
647.671	0.0144412
647.749	0.0144971
647.828	0.0144930
647.906	0.0147899
647.984	0.0148436
648.062	0.0149828
648.140	0.0151441
648.218	0.0151884
648.296	0.0153835
648.374	0.0154575
648.453	0.0156485
648.531	0.0156029
648.609	0.0157840
648.687	0.0159971
648.765	0.0159630
648.843	0.0159427
648.921	0.0159897
648.999	0.0159995
649.078	0.0160565
649.156	0.0160216
649.234	0.0161735
649.312	0.0161525
649.390	0.0161003
649.468	0.0159842
649.546	0.0159754
649.624	0.0159492
649.703	0.0158712
649.781	0.0158794
649.859	0.0157819
649.937	0.0157337
650.015	0.0155826
650.093	0.0152600
650.171	0.0151212
650.249	0.0153542
650.328	0.0152147
650.406	0.0150196
650.484	0.0149760
650.562	0.0149042
650.640	0.0147418
650.718	0.0148199
650.796	0.0147013
650.874	0.0145647
650.953	0.0145058
651.031	0.0143166
651.109	0.0144428
651.187	0.0144114
651.265	0.0143320
651.343	0.0143285
651.421	0.0144215
651.499	0.0145215
651.578	0.0145732
651.656	0.0146745
651.734	0.0146524
651.812	0.0146395
651.890	0.0148912
651.968	0.0150825
652.046	0.0152292
652.124	0.0152298
652.203	0.0154472
652.281	0.0156019
652.359	0.0157515
652.437	0.0157204
652.515	0.0158000
652.593	0.0160628
652.671	0.0159753
652.749	0.0159805
652.828	0.0158385
652.906	0.0159309
652.984	0.0160848
653.062	0.0159532
653.140	0.0159206
653.218	0.0159105
653.296	0.0157645
653.374	0.0157483
653.453	0.0156502
653.531	0.0155473
653.609	0.0154407
653.687	0.0154092
653.765	0.0153340
653.843	0.0153200
653.921	0.0153136
653.999	0.0153277
654.078	0.0152618
654.156	0.0150404
654.234	0.0151620
654.312	0.0151713
654.390	0.0150949
654.468	0.0150272
654.546	0.0149496
654.624	0.0150661
654.703	0.0150152
654.781	0.0150429
654.859	0.0149646
654.937	0.0149744
655.015	0.0151131
655.093	0.0150947
655.171	0.0151891
655.249	0.0150713
655.328	0.0151220
655.406	0.0152870
655.484	0.0151279
655.562	0.0152661
655.640	0.0152859
655.718	0.0152791
655.796	0.0152989
655.874	0.0152683
655.953	0.0153283
656.031	0.0152636
656.109	0.0153174
656.187	0.0153513
656.265	0.0154443
656.343	0.0153381
656.421	0.0153003
656.499	0.0152320
656.578	0.0152484
656.656	0.0152336
656.734	0.0153314
656.812	0.0152401
656.890	0.0152381
656.968	0.0152200
657.046	0.0153878
657.124	0.0154485
657.203	0.0154522
657.281	0.0155383
657.359	0.0155746
657.437	0.0155872
657.515	0.0156133
657.593	0.0156763
657.671	0.0156548
657.749	0.0156844
657.828	0.0157207
657.906	0.0156079
657.984	0.0155238
658.062	0.0155863
658.140	0.0156710
658.218	0.0155784
658.296	0.0155534
658.374	0.0155556
658.453	0.0154976
658.531	0.0154850
658.609	0.0155119
658.687	0.0155613
658.765	0.0155009
658.843	0.0154395
658.921	0.0153693
658.999	0.0153982
659.078	0.0154187
659.156	0.0155014
659.234	0.0153255
659.312	0.0154079
659.390	0.0154229
659.468	0.0152886
659.546	0.0151869
659.624	0.0151189
659.703	0.0151935
659.781	0.0152632
659.859	0.0153275
659.937	0.0151368
660.015	0.0152183
660.093	0.0151714
660.171	0.0150505
660.249	0.0152348
660.328	0.0151956
660.406	0.0153107
660.484	0.0151774
660.562	0.0150204
660.640	0.0150159
660.718	0.0149603
660.796	0.0150652
660.874	0.0151418
660.953	0.0152472
661.031	0.0152866
661.109	0.0151365
661.187	0.0151608
661.265	0.0152573
661.343	0.0152721
661.421	0.0152854
661.499	0.0153768
661.578	0.0154253
661.656	0.0155629
661.734	0.0155834
661.812	0.0153745
661.890	0.0153935
661.968	0.0155113
662.046	0.0154456
662.124	0.0154707
662.203	0.0155527
662.281	0.0154324
662.359	0.0153918
662.437	0.0153008
662.515	0.0152603
662.593	0.0154668
662.671	0.0154823
662.749	0.0154438
662.828	0.0153805
662.906	0.0153950
662.984	0.0154120
663.062	0.0153725
663.140	0.0154529
663.218	0.0155004
663.296	0.0154331
663.374	0.0153688
663.453	0.0154183
663.531	0.0153458
663.609	0.0154848
663.687	0.0154094
663.765	0.0153899
663.843	0.0153170
663.921	0.0153466
663.999	0.0152424
664.078	0.0153024
664.156	0.0153238
664.234	0.0152905
664.312	0.0151823
664.390	0.0151600
664.468	0.0152148
664.546	0.0152074
664.624	0.0152327
664.703	0.0150967
664.781	0.0152648
664.859	0.0151874
664.937	0.0152483
665.015	0.0152405
665.093	0.0152599
665.171	0.0152241
665.249	0.0152413
665.328	0.0152549
665.406	0.0151857
665.484	0.0153246
665.562	0.0151971
665.640	0.0150111
665.718	0.0150430
665.796	0.0150075
665.874	0.0149053
665.953	0.0150774
666.031	0.0149274
666.109	0.0151446
666.187	0.0151077
666.265	0.0149540
666.343	0.0150148
666.421	0.0150719
666.499	0.0152842
666.578	0.0152887
666.656	0.0152001
666.734	0.0151608
666.812	0.0153459
666.890	0.0153941
666.968	0.0153819
667.046	0.0153848
667.124	0.0155447
667.203	0.0155978
667.281	0.0154270
667.359	0.0154945
667.437	0.0155770
667.515	0.0156323
667.593	0.0156132
667.671	0.0157801
667.749	0.0157574
667.828	0.0156722
667.906	0.0157416
667.984	0.0156435
668.062	0.0157024
668.140	0.0157517
668.218	0.0155614
668.296	0.0156709
668.374	0.0154451
668.453	0.0154089
668.531	0.0153950
668.609	0.0152998
668.687	0.0154626
668.765	0.0154170
668.843	0.0151919
668.921	0.0152034
668.999	0.0151859
669.078	0.0152542
669.156	0.0151752
669.234	0.0152637
669.312	0.0150673
669.390	0.0151115
669.468	0.0150883
669.546	0.0148526
669.624	0.0148330
669.703	0.0148940
669.781	0.0147787
669.859	0.0147568
669.937	0.0149274
670.015	0.0149227
670.093	0.0148605
670.171	0.0149952
670.249	0.0150445
670.328	0.0150518
670.406	0.0150070
670.484	0.0152134
670.562	0.0151472
670.640	0.0151678
670.718	0.0152265
670.796	0.0152172
670.874	0.0153033
670.953	0.0154931
671.031	0.0155144
671.109	0.0154832
671.187	0.0155347
671.265	0.0156661
671.343	0.0156828
671.421	0.0157466
671.499	0.0156187
671.578	0.0156245
671.656	0.0156127
671.734	0.0157413
671.812	0.0157584
671.890	0.0156293
671.968	0.0156938
672.046	0.0155931
672.124	0.0156062
672.203	0.0154781
672.281	0.0153681
672.359	0.0154227
672.437	0.0153575
672.515	0.0154714
672.593	0.0152515
672.671	0.0152909
672.749	0.0151518
672.828	0.0150782
672.906	0.0152153
672.984	0.0152113
673.062	0.0150464
673.140	0.0149133
673.218	0.0151089
673.296	0.0151888
673.374	0.0149903
673.453	0.0149496
673.531	0.0151128
673.609	0.0151353
673.687	0.0149319
673.765	0.0150893
673.843	0.0151794
673.921	0.0150541
673.999	0.0151640
674.078	0.0150920
674.156	0.0153143
674.234	0.0152282
674.312	0.0151750
674.390	0.0153242
674.468	0.0153075
674.546	0.0151953
674.624	0.0152413
674.703	0.0153060
674.781	0.0153006
674.859	0.0152990
674.937	0.0153539
675.015	0.0152200
675.093	0.0153757
675.171	0.0154164
675.249	0.0155486
675.328	0.0154875
675.406	0.0154717
675.484	0.0154652
675.562	0.0156549
675.640	0.0157207
675.718	0.0155476
675.796	0.0155721
675.874	0.0157724
675.953	0.0156306
676.031	0.0156389
676.109	0.0156189
676.187	0.0155068
676.265	0.0153978
676.343	0.0154314
676.421	0.0153845
676.499	0.0153288
676.578	0.0152824
676.656	0.0153228
676.734	0.0152386
676.812	0.0151028
676.890	0.0151123
676.968	0.0152261
677.046	0.0151143
677.124	0.0152673
677.203	0.0150692
677.281	0.0151605
677.359	0.0151183
677.437	0.0152367
677.515	0.0152326
677.593	0.0151897
677.671	0.0153355
677.749	0.0152838
677.828	0.0153300
677.906	0.0152934
677.984	0.0150787
678.062	0.0152136
678.140	0.0152949
678.218	0.0153138
678.296	0.0153983
678.374	0.0153278
678.453	0.0153688
678.531	0.0154719
678.609	0.0155264
678.687	0.0154376
678.765	0.0154861
678.843	0.0155380
678.921	0.0154838
678.999	0.0155116
679.078	0.0155029
679.156	0.0154366
679.234	0.0154379
679.312	0.0156649
679.390	0.0157242
679.468	0.0155441
679.546	0.0153810
679.624	0.0154179
679.703	0.0154625
679.781	0.0153790
679.859	0.0154000
679.937	0.0150330
680.015	0.0152636
680.093	0.0151907
680.171	0.0150916
680.249	0.0151410
680.328	0.0151714
680.406	0.0151860
680.484	0.0153587
680.562	0.0153029
680.640	0.0152149
680.718	0.0153325
680.796	0.0153629
680.874	0.0154273
680.953	0.0152840
681.031	0.0154404
681.109	0.0155553
681.187	0.0154447
681.265	0.0154176
681.343	0.0154230
681.421	0.0154836
681.499	0.0154375
681.578	0.0153952
681.656	0.0154346
681.734	0.0153861
681.812	0.0154390
681.890	0.0154899
681.968	0.0154105
682.046	0.0154034
682.124	0.0155492
682.203	0.0153605
682.281	0.0154498
682.359	0.0155003
682.437	0.0154532
682.515	0.0155202
682.593	0.0154829
682.671	0.0154899
682.749	0.0153982
682.828	0.0153902
682.906	0.0153762
682.984	0.0154614
683.062	0.0155603
683.140	0.0155448
683.218	0.0152468
683.296	0.0153835
683.374	0.0152480
683.453	0.0152689
683.531	0.0152197
683.609	0.0151089
683.687	0.0151570
683.765	0.0150970
683.843	0.0150916
683.921	0.0149073
683.999	0.0150731
684.078	0.0150903
684.156	0.0150561
684.234	0.0151782
684.312	0.0152038
684.390	0.0151437
684.468	0.0153059
684.546	0.0152365
684.624	0.0152322
684.703	0.0151952
684.781	0.0152200
684.859	0.0153316
684.937	0.0153104
685.015	0.0152957
685.093	0.0153790
685.171	0.0154212
685.249	0.0153719
685.328	0.0154225
685.406	0.0154192
685.484	0.0155283
685.562	0.0154293
685.640	0.0152561
685.718	0.0153178
685.796	0.0153592
685.874	0.0153201
685.953	0.0153615
686.031	0.0154476
686.109	0.0154125
686.187	0.0153191
686.265	0.0152743
686.343	0.0152558
686.421	0.0152634
686.499	0.0152386
686.578	0.0152386
686.656	0.0152578
686.734	0.0151815
686.812	0.0151672
686.890	0.0151566
686.968	0.0152245
687.046	0.0151686
687.124	0.0153271
687.203	0.0153427
687.281	0.0152509
687.359	0.0153354
687.437	0.0152734
687.515	0.0152670
687.593	0.0154066
687.671	0.0154900
687.749	0.0153889
687.828	0.0153781
687.906	0.0153715
687.984	0.0152850
688.062	0.0154758
688.140	0.0155321
688.218	0.0153683
688.296	0.0153396
688.374	0.0152425
688.453	0.0151176
688.531	0.0151852
688.609	0.0151562
688.687	0.0151038
688.765	0.0151273
688.843	0.0152021
688.921	0.0149831
688.999	0.0149224
689.078	0.0150487
689.156	0.0148965
689.234	0.0150654
689.312	0.0150411
689.390	0.0150108
689.468	0.0151138
689.546	0.0151598
689.624	0.0150723
689.703	0.0152105
689.781	0.0152772
689.859	0.0153045
689.937	0.0153836
690.015	0.0153522
690.093	0.0154277
690.171	0.0155532
690.249	0.0155891
690.328	0.0155725
690.406	0.0156222
690.484	0.0154950
690.562	0.0156531
690.640	0.0157508
690.718	0.0156812
690.796	0.0157332
690.874	0.0156229
690.953	0.0156633
691.031	0.0156752
691.109	0.0157031
691.187	0.0156128
691.265	0.0156913
691.343	0.0156634
691.421	0.0155058
691.499	0.0154333
691.578	0.0153786
691.656	0.0153030
691.734	0.0151410
691.812	0.0151234
691.890	0.0151926
691.968	0.0150639
692.046	0.0149801
692.124	0.0150686
692.203	0.0149478
692.281	0.0147968
692.359	0.0148828
692.437	0.0149374
692.515	0.0150915
692.593	0.0150374
692.671	0.0148935
692.749	0.0150199
692.828	0.0150383
692.906	0.0150915
692.984	0.0153934
693.062	0.0153115
693.140	0.0152683
693.218	0.0154092
693.296	0.0154366
693.374	0.0153841
693.453	0.0153698
693.531	0.0155918
693.609	0.0156856
693.687	0.0156303
693.765	0.0155919
693.843	0.0155435
693.921	0.0155291
693.999	0.0156765
694.078	0.0155965
694.156	0.0154144
694.234	0.0154453
694.312	0.0154747
694.390	0.0155209
694.468	0.0152762
694.546	0.0153988
694.624	0.0153036
694.703	0.0153139
694.781	0.0152071
694.859	0.0150461
694.937	0.0151413
695.015	0.0151876
695.093	0.0151727
695.171	0.0152514
695.249	0.0150779
695.328	0.0151492
695.406	0.0151256
695.484	0.0151723
695.562	0.0151674
695.640	0.0150135
695.718	0.0152083
695.796	0.0152381
695.874	0.0151019
695.953	0.0151234
696.031	0.0153499
696.109	0.0151375
696.187	0.0151845
696.265	0.0153393
696.343	0.0152753
696.421	0.0152166
696.499	0.0153014
696.578	0.0153221
696.656	0.0152994
696.734	0.0153353
696.812	0.0154353
696.890	0.0154889
696.968	0.0153280
697.046	0.0153907
697.124	0.0154074
697.203	0.0153282
697.281	0.0153894
697.359	0.0153628
697.437	0.0155368
697.515	0.0155122
697.593	0.0154572
697.671	0.0154262
697.749	0.0154298
697.828	0.0154736
697.906	0.0154588
697.984	0.0151962
698.062	0.0153536
698.140	0.0153911
698.218	0.0154239
698.296	0.0153255
698.374	0.0154405
698.453	0.0153586
698.531	0.0153791
698.609	0.0153164
698.687	0.0153619
698.765	0.0153322
698.843	0.0153144
698.921	0.0151958
698.999	0.0154211
699.078	0.0153172
699.156	0.0153093
699.234	0.0152951
699.312	0.0153567
699.390	0.0153338
699.468	0.0154183
699.546	0.0154193
699.624	0.0152686
699.703	0.0151757
699.781	0.0152807
699.859	0.0151743
699.937	0.0150320
700.015	0.0151788
700.093	0.0151152
700.171	0.0151073
700.249	0.0150401
700.328	0.0151572
700.406	0.0151786
700.484	0.0150087
700.562	0.0152182
700.640	0.0153316
700.718	0.0151941
700.796	0.0153667
700.874	0.0154251
700.953	0.0154333
701.031	0.0154440
701.109	0.0154131
701.187	0.0156527
701.265	0.0156513
701.343	0.0155854
701.421	0.0156204
701.499	0.0156049
701.578	0.0157433
701.656	0.0155663
701.734	0.0155798
701.812	0.0155985
701.890	0.0156184
701.968	0.0155807
702.046	0.0155205
702.124	0.0154426
702.203	0.0154639
702.281	0.0154699
702.359	0.0153204
702.437	0.0151928
702.515	0.0151442
702.593	0.0151774
702.671	0.0150488
702.749	0.0151379
702.828	0.0151898
702.906	0.0151326
702.984	0.0149954
703.062	0.0151212
703.140	0.0150766
703.218	0.0150026
703.296	0.0150483
703.374	0.0151566
703.453	0.0151673
703.531	0.0152211
703.609	0.0152540
703.687	0.0152963
703.765	0.0151908
703.843	0.0151208
703.921	0.0153336
703.999	0.0153899
704.078	0.0154721
704.156	0.0153913
704.234	0.0153937
704.312	0.0155663
704.390	0.0155149
704.468	0.0154460
704.546	0.0154991
704.624	0.0155386
704.703	0.0156593
704.781	0.0156189
704.859	0.0155647
704.937	0.0157316
705.015	0.0154845
705.093	0.0155254
705.171	0.0154698
705.249	0.0154710
705.328	0.0154447
705.406	0.0153786
705.484	0.0153268
705.562	0.0153638
705.640	0.0153249
705.718	0.0152777
705.796	0.0153600
705.874	0.0152299
705.953	0.0152572
706.031	0.0151521
706.109	0.0151981
706.187	0.0151486
706.265	0.0152255
706.343	0.0151215
706.421	0.0152091
706.499	0.0151400
706.578	0.0151440
706.656	0.0150237
706.734	0.0151110
706.812	0.0152165
706.890	0.0150167
706.968	0.0150420
707.046	0.0152941
707.124	0.0153656
707.203	0.0151879
707.281	0.0152557
707.359	0.0151729
707.437	0.0152413
707.515	0.0153187
707.593	0.0154283
707.671	0.0153267
707.749	0.0152489
707.828	0.0153461
707.906	0.0152649
707.984	0.0153423
708.062	0.0153580
708.140	0.0154162
708.218	0.0151642
708.296	0.0154383
708.374	0.0153792
708.453	0.0154556
708.531	0.0156538
708.609	0.0154101
708.687	0.0153520
708.765	0.0154058
708.843	0.0155129
708.921	0.0154021
708.999	0.0154933
709.078	0.0153989
709.156	0.0152406
709.234	0.0153973
709.312	0.0154249
709.390	0.0153757
709.468	0.0153036
709.546	0.0152981
709.624	0.0153238
709.703	0.0152213
709.781	0.0153079
709.859	0.0152242
709.937	0.0151562
710.015	0.0153522
710.093	0.0152457
710.171	0.0152407
710.249	0.0150156
710.328	0.0151089
710.406	0.0150993
710.484	0.0152223
710.562	0.0152444
710.640	0.0150825
710.718	0.0151382
710.796	0.0151819
710.874	0.0151733
710.953	0.0153119
711.031	0.0152304
711.109	0.0152368
711.187	0.0153183
711.265	0.0153416
711.343	0.0152309
711.421	0.0153614
711.499	0.0153602
711.578	0.0154446
711.656	0.0154881
711.734	0.0152785
711.812	0.0155490
711.890	0.0153980
711.968	0.0154338
712.046	0.0154817
712.124	0.0155204
712.203	0.0156319
712.281	0.0155933
712.359	0.0156661
712.437	0.0155079
712.515	0.0155734
712.593	0.0155196
712.671	0.0155505
712.749	0.0156598
712.828	0.0156136
712.906	0.0154317
712.984	0.0154707
713.062	0.0155439
713.140	0.0154103
713.218	0.0154364
713.296	0.0154683
713.374	0.0153951
713.453	0.0152567
713.531	0.0152544
713.609	0.0152138
713.687	0.0151940
713.765	0.0149883
713.843	0.0151974
713.921	0.0148832
713.999	0.0150582
714.078	0.0150141
714.156	0.0149119
714.234	0.0150348
714.312	0.0150140
714.390	0.0151887
714.468	0.0150526
714.546	0.0150557
714.624	0.0151653
714.703	0.0152349
714.781	0.0154133
714.859	0.0152449
714.937	0.0153690
715.015	0.0154086
715.093	0.0153691
715.171	0.0153465
715.249	0.0155173
715.328	0.0155223
715.406	0.0155028
715.484	0.0155062
715.562	0.0155360
715.640	0.0155759
715.718	0.0155188
715.796	0.0156059
715.874	0.0156274
715.953	0.0154897
716.031	0.0156055
716.109	0.0156564
716.187	0.0157427
716.265	0.0156106
716.343	0.0156048
716.421	0.0154919
716.499	0.0155473
716.578	0.0154868
716.656	0.0155278
716.734	0.0155350
716.812	0.0154533
716.890	0.0154420
716.968	0.0152327
717.046	0.0152869
717.124	0.0151982
717.203	0.0152921
717.281	0.0152833
717.359	0.0150656
717.437	0.0150541
717.515	0.0150755
717.593	0.0150468
717.671	0.0150451
717.749	0.0149406
717.828	0.0148736
717.906	0.0149409
717.984	0.0151239
718.062	0.0151591
718.140	0.0149802
718.218	0.0150780
718.296	0.0151945
718.374	0.0152691
718.453	0.0153036
718.531	0.0152704
718.609	0.0154461
718.687	0.0153893
718.765	0.0153138
718.843	0.0154440
718.921	0.0153833
718.999	0.0154844
719.078	0.0154613
719.156	0.0154581
719.234	0.0153107
719.312	0.0154607
719.390	0.0153162
719.468	0.0154812
719.546	0.0154646
719.624	0.0154846
719.703	0.0155100
719.781	0.0155407
719.859	0.0153578
719.937	0.0154158
720.015	0.0154795
720.093	0.0153711
720.171	0.0153642
720.249	0.0153516
720.328	0.0153535
720.406	0.0154199
720.484	0.0152296
720.562	0.0151752
720.640	0.0153014
720.718	0.0152593
720.796	0.0152153
720.874	0.0151637
720.953	0.0153127
721.031	0.0152910
721.109	0.0151955
721.187	0.0151174
721.265	0.0150996
721.343	0.0150408
721.421	0.0151884
721.499	0.0150658
721.578	0.0151923
721.656	0.0150064
721.734	0.0151694
721.812	0.0151143
721.890	0.0151484
721.968	0.0151569
722.046	0.0151724
722.124	0.0152235
722.203	0.0152634
722.281	0.0152810
722.359	0.0152631
722.437	0.0152402
722.515	0.0152159
722.593	0.0151900
722.671	0.0151654
722.749	0.0150584
722.828	0.0153716
722.906	0.0153146
722.984	0.0153053
723.062	0.0153294
723.140	0.0152769
723.218	0.0153341
723.296	0.0154139
723.374	0.0154420
723.453	0.0152641
723.531	0.0154476
723.609	0.0155889
723.687	0.0153650
723.765	0.0154150
723.843	0.0154060
723.921	0.0154558
723.999	0.0153173
724.078	0.0151836
724.156	0.0154128
724.234	0.0153165
724.312	0.0151716
724.390	0.0150796
724.468	0.0152810
724.546	0.0151953
724.624	0.0152806
724.703	0.0150468
724.781	0.0151102
724.859	0.0150601
724.937	0.0152145
725.015	0.0151077
725.093	0.0150563
725.171	0.0150414
725.249	0.0150162
725.328	0.0149702
725.406	0.0151608
725.484	0.0151675
725.562	0.0150714
725.640	0.0151608
725.718	0.0152312
725.796	0.0152207
725.874	0.0151360
725.953	0.0152876
726.031	0.0152317
726.109	0.0152626
726.187	0.0153277
726.265	0.0153330
726.343	0.0152657
726.421	0.0154108
726.499	0.0152930
726.578	0.0153600
726.656	0.0154523
726.734	0.0154203
726.812	0.0155505
726.890	0.0154543
726.968	0.0154299
727.046	0.0155131
727.124	0.0154072
727.203	0.0153477
727.281	0.0154456
727.359	0.0155666
727.437	0.0154868
727.515	0.0155619
727.593	0.0153221
727.671	0.0154428
727.749	0.0153298
727.828	0.0152805
727.906	0.0154015
727.984	0.0153589
728.062	0.0152781
728.140	0.0152833
728.218	0.0152804
728.296	0.0151611
728.374	0.0153339
728.453	0.0151739
728.531	0.0151883
728.609	0.0152588
728.687	0.0151242
728.765	0.0151241
728.843	0.0152360
728.921	0.0152512
728.999	0.0151581
729.078	0.0149086
729.156	0.0150527
729.234	0.0150951
729.312	0.0149818
729.390	0.0150380
729.468	0.0152912
729.546	0.0153240
729.624	0.0153290
729.703	0.0151866
729.781	0.0151505
729.859	0.0152565
729.937	0.0152531
730.015	0.0152433
730.093	0.0152953
730.171	0.0153771
730.249	0.0153165
730.328	0.0154598
730.406	0.0155832
730.484	0.0153588
730.562	0.0154209
730.640	0.0154647
730.718	0.0153889
730.796	0.0154324
730.874	0.0155941
730.953	0.0155325
731.031	0.0155198
731.109	0.0154204
731.187	0.0154482
731.265	0.0155038
731.343	0.0154760
731.421	0.0151916
731.499	0.0153656
731.578	0.0153428
731.656	0.0153683
731.734	0.0151351
731.812	0.0153816
731.890	0.0152424
731.968	0.0152317
732.046	0.0153204
732.124	0.0151565
732.203	0.0151894
732.281	0.0153134
732.359	0.0152569
732.437	0.0153429
732.515	0.0153181
732.593	0.0152396
732.671	0.0153988
732.749	0.0151170
732.828	0.0153825
732.906	0.0154579
732.984	0.0151737
733.062	0.0152428
733.140	0.0152492
733.218	0.0151163
733.296	0.0152872
733.374	0.0151173
733.453	0.0152391
733.531	0.0153021
733.609	0.0152010
733.687	0.0154064
733.765	0.0153722
733.843	0.0153779
733.921	0.0152890
733.999	0.0153431
734.078	0.0155130
734.156	0.0152785
734.234	0.0153423
734.312	0.0154624
734.390	0.0155204
734.468	0.0153899
734.546	0.0154356
734.624	0.0153963
734.703	0.0154586
734.781	0.0155370
734.859	0.0155661
734.937	0.0154356
735.015	0.0152952
735.093	0.0153310
735.171	0.0153103
735.249	0.0152992
735.328	0.0153455
735.406	0.0152599
735.484	0.0152235
735.562	0.0152799
735.640	0.0154118
735.718	0.0152606
735.796	0.0151440
735.874	0.0151982
735.953	0.0153085
736.031	0.0152318
736.109	0.0152113
736.187	0.0151894
736.265	0.0150970
736.343	0.0151540
736.421	0.0152333
736.499	0.0152394
736.578	0.0152139
736.656	0.0152139
736.734	0.0151711
736.812	0.0151154
736.890	0.0152422
736.968	0.0152511
737.046	0.0152267
737.124	0.0153248
737.203	0.0153894
737.281	0.0152608
737.359	0.0153294
737.437	0.0153692
737.515	0.0153347
737.593	0.0154299
737.671	0.0154386
737.749	0.0154967
737.828	0.0156663
737.906	0.0155426
737.984	0.0155119
738.062	0.0154452
738.140	0.0155344
738.218	0.0153356
738.296	0.0154359
738.374	0.0154292
738.453	0.0154532
738.531	0.0153661
738.609	0.0154201
738.687	0.0153968
738.765	0.0154504
738.843	0.0154206
738.921	0.0153091
738.999	0.0153383
739.078	0.0154584
739.156	0.0153704
739.234	0.0153579
739.312	0.0154163
739.390	0.0151852
739.468	0.0152885
739.546	0.0152811
739.624	0.0152966
739.703	0.0154154
739.781	0.0152813
739.859	0.0150930
739.937	0.0152490
740.015	0.0151752
740.093	0.0151747
740.171	0.0151959
740.249	0.0151946
740.328	0.0152332
740.406	0.0152051
740.484	0.0151134
740.562	0.0151678
740.640	0.0151919
740.718	0.0151965
740.796	0.0152709
740.874	0.0153051
740.953	0.0152124
741.031	0.0151614
741.109	0.0152247
741.187	0.0153480
741.265	0.0152963
741.343	0.0153237
741.421	0.0154613
741.499	0.0153218
741.578	0.0155400
741.656	0.0153996
741.734	0.0155141
741.812	0.0154449
741.890	0.0154458
741.968	0.0154225
742.046	0.0154594
742.124	0.0154980
742.203	0.0153943
742.281	0.0155030
742.359	0.0154408
742.437	0.0156397
742.515	0.0155785
742.593	0.0154976
742.671	0.0154484
742.749	0.0154534
742.828	0.0155850
742.906	0.0153667
742.984	0.0152732
743.062	0.0154126
743.140	0.0154337
743.218	0.0151672
743.296	0.0153585
743.374	0.0153125
743.453	0.0153149
743.531	0.0152089
743.609	0.0151229
743.687	0.0151593
743.765	0.0151928
743.843	0.0152044
743.921	0.0151053
743.999	0.0150904
744.078	0.0151131
744.156	0.0150985
744.234	0.0150832
744.312	0.0151242
744.390	0.0151986
744.468	0.0151606
744.546	0.0151313
744.624	0.0151899
744.703	0.0151051
744.781	0.0152965
744.859	0.0151140
744.937	0.0151791
745.015	0.0153091
745.093	0.0151922
745.171	0.0152674
745.249	0.0153740
745.328	0.0153087
745.406	0.0151511
745.484	0.0152413
745.562	0.0154708
745.640	0.0153711
745.718	0.0151406
745.796	0.0152316
745.874	0.0153333
745.953	0.0153458
746.031	0.0154436
746.109	0.0154753
746.187	0.0151244
746.265	0.0154203
746.343	0.0153187
746.421	0.0151949
746.499	0.0154157
746.578	0.0152990
746.656	0.0152825
746.734	0.0153954
746.812	0.0153436
746.890	0.0151562
746.968	0.0152519
747.046	0.0151570
747.124	0.0151837
747.203	0.0151865
747.281	0.0151805
747.359	0.0150933
747.437	0.0150323
747.515	0.0151495
747.593	0.0150952
747.671	0.0150457
747.749	0.0151057
747.828	0.0151849
747.906	0.0150587
747.984	0.0151327
748.062	0.0152327
748.140	0.0152121
748.218	0.0151149
748.296	0.0151605
748.374	0.0151683
748.453	0.0151289
748.531	0.0152237
748.609	0.0152574
748.687	0.0153253
748.765	0.0153280
748.843	0.0152934
748.921	0.0151844
748.999	0.0152399
749.078	0.0153713
749.156	0.0152562
749.234	0.0153030
749.312	0.0153383
749.390	0.0152967
749.468	0.0153168
749.546	0.0153403
749.624	0.0153717
749.703	0.0152890
749.781	0.0153316
749.859	0.0154361
749.937	0.0155585
750.015	0.0153571
750.093	0.0153233
750.171	0.0153214
750.249	0.0153325
750.328	0.0153415
750.406	0.0153296
750.484	0.0152567
750.562	0.0153666
750.640	0.0152868
750.718	0.0151936
750.796	0.0152635
750.874	0.0151360
750.953	0.0151871
751.031	0.0152666
751.109	0.0153354
751.187	0.0152249
751.265	0.0150722
751.343	0.0153123
751.421	0.0153096
751.499	0.0150926
751.578	0.0152753
751.656	0.0152466
751.734	0.0152328
751.812	0.0151890
751.890	0.0152601
751.968	0.0152862
752.046	0.0153683
752.124	0.0154535
752.203	0.0153438
752.281	0.0152686
752.359	0.0152918
752.437	0.0153486
752.515	0.0153352
752.593	0.0153163
752.671	0.0153439
752.749	0.0153909
752.828	0.0153477
752.906	0.0153529
752.984	0.0153680
753.062	0.0153291
753.140	0.0153777
753.218	0.0154772
753.296	0.0155145
753.374	0.0153987
753.453	0.0154733
753.531	0.0154068
753.609	0.0154070
753.687	0.0153639
753.765	0.0155244
753.843	0.0154430
753.921	0.0154218
753.999	0.0154779
754.078	0.0154446
754.156	0.0155966
754.234	0.0155202
754.312	0.0153294
754.390	0.0153397
754.468	0.0153025
754.546	0.0153955
754.624	0.0154070
754.703	0.0153002
754.781	0.0152258
754.859	0.0153097
754.937	0.0153624
755.015	0.0152849
755.093	0.0152545
755.171	0.0153292
755.249	0.0153036
755.328	0.0153967
755.406	0.0153514
755.484	0.0153706
755.562	0.0153947
755.640	0.0151974
755.718	0.0153654
755.796	0.0153091
755.874	0.0152789
755.953	0.0154337
756.031	0.0154683
756.109	0.0153848
756.187	0.0154031
756.265	0.0154602
756.343	0.0153983
756.421	0.0154008
756.499	0.0153996
756.578	0.0154095
756.656	0.0154224
756.734	0.0154832
756.812	0.0153081
756.890	0.0154380
756.968	0.0154504
757.046	0.0153564
757.124	0.0152366
757.203	0.0153806
757.281	0.0153883
757.359	0.0153428
757.437	0.0153349
757.515	0.0153891
757.593	0.0153093
757.671	0.0151839
757.749	0.0151816
757.828	0.0151895
757.906	0.0152596
757.984	0.0151503
758.062	0.0152701
758.140	0.0151783
758.218	0.0152834
758.296	0.0153287
758.374	0.0154486
758.453	0.0152481
758.531	0.0152930
758.609	0.0154779
758.687	0.0155149
758.765	0.0151899
758.843	0.0153629
758.921	0.0155705
758.999	0.0154299
759.078	0.0153811
759.156	0.0154385
759.234	0.0155010
759.312	0.0153808
759.390	0.0155909
759.468	0.0154343
759.546	0.0154539
759.624	0.0155376
759.703	0.0154892
759.781	0.0155325
759.859	0.0152451
759.937	0.0153977
760.015	0.0155238
760.093	0.0153509
760.171	0.0154591
760.249	0.0155048
760.328	0.0154313
760.406	0.0153751
760.484	0.0152667
760.562	0.0154387
760.640	0.0153215
760.718	0.0153334
760.796	0.0153278
760.874	0.0153855
760.953	0.0152671
761.031	0.0153789
761.109	0.0152964
761.187	0.0152136
761.265	0.0152998
761.343	0.0152171
761.421	0.0152977
761.499	0.0153679
761.578	0.0151657
761.656	0.0151395
761.734	0.0152326
761.812	0.0152996
761.890	0.0152320
761.968	0.0152576
762.046	0.0153853
762.124	0.0151849
762.203	0.0153793
762.281	0.0153876
762.359	0.0152296
762.437	0.0152993
762.515	0.0154094
762.593	0.0152461
762.671	0.0154010
762.749	0.0154523
762.828	0.0154062
762.906	0.0153936
762.984	0.0154687
763.062	0.0153846
763.140	0.0154308
763.218	0.0153358
763.296	0.0152469
763.374	0.0152946
763.453	0.0153549
763.531	0.0154285
763.609	0.0153629
763.687	0.0154256
763.765	0.0153472
763.843	0.0154320
763.921	0.0153903
763.999	0.0153295
764.078	0.0154121
764.156	0.0154855
764.234	0.0154369
764.312	0.0154235
764.390	0.0155135
764.468	0.0152648
764.546	0.0154034
764.624	0.0153935
764.703	0.0152760
764.781	0.0153073
764.859	0.0154137
764.937	0.0153484
765.015	0.0153411
765.093	0.0152834
765.171	0.0152927
765.249	0.0153300
765.328	0.0151035
765.406	0.0153203
765.484	0.0152061
765.562	0.0153437
765.640	0.0152698
765.718	0.0152747
765.796	0.0151935
765.874	0.0152165
765.953	0.0152611
766.031	0.0150877
766.109	0.0153112
766.187	0.0152983
766.265	0.0151762
766.343	0.0153111
766.421	0.0152135
766.499	0.0152706
766.578	0.0153127
766.656	0.0153613
766.734	0.0152030
766.812	0.0153403
766.890	0.0153274
766.968	0.0153537
767.046	0.0152695
767.124	0.0153455
767.203	0.0153377
767.281	0.0154363
767.359	0.0154261
767.437	0.0155013
767.515	0.0153036
767.593	0.0154400
767.671	0.0153286
767.749	0.0152904
767.828	0.0153532
767.906	0.0153393
767.984	0.0153179
768.062	0.0152650
768.140	0.0152728
768.218	0.0154018
768.296	0.0152656
768.374	0.0152543
768.453	0.0152734
768.531	0.0152451
768.609	0.0151714
768.687	0.0152072
768.765	0.0151732
768.843	0.0152066
768.921	0.0151894
768.999	0.0153175
769.078	0.0153081
769.156	0.0153316
769.234	0.0152451
769.312	0.0154433
769.390	0.0153013
769.468	0.0153194
769.546	0.0154487
769.624	0.0154826
769.703	0.0153688
769.781	0.0156182
769.859	0.0155326
769.937	0.0153890
770.015	0.0154041
770.093	0.0153989
770.171	0.0154427
770.249	0.0153004
770.328	0.0153767
770.406	0.0153207
770.484	0.0153036
770.562	0.0153806
770.640	0.0152420
770.718	0.0153315
770.796	0.0154288
770.874	0.0152322
770.953	0.0153490
771.031	0.0153179
771.109	0.0152382
771.187	0.0153786
771.265	0.0153230
771.343	0.0152779
771.421	0.0153127
771.499	0.0153122
771.578	0.0153113
771.656	0.0153621
771.734	0.0153685
771.812	0.0151732
771.890	0.0152795
771.968	0.0153754
772.046	0.0154013
772.124	0.0153903
772.203	0.0154455
772.281	0.0153213
772.359	0.0153108
772.437	0.0155219
772.515	0.0154915
772.593	0.0154206
772.671	0.0154459
772.749	0.0152599
772.828	0.0153571
772.906	0.0155020
772.984	0.0154208
773.062	0.0153400
773.140	0.0152629
773.218	0.0153119
773.296	0.0152615
773.374	0.0152995
773.453	0.0151183
773.531	0.0150640
773.609	0.0151679
773.687	0.0152667
773.765	0.0149369
773.843	0.0152357
773.921	0.0154290
773.999	0.0151820
774.078	0.0151511
774.156	0.0151281
774.234	0.0153877
774.312	0.0153388
774.390	0.0153741
774.468	0.0154224
774.546	0.0155473
774.624	0.0154891
774.703	0.0155232
774.781	0.0155972
774.859	0.0154541
774.937	0.0156519
775.015	0.0156079
775.093	0.0154301
775.171	0.0154507
775.249	0.0154405
775.328	0.0153326
775.406	0.0154633
775.484	0.0153130
775.562	0.0153168
775.640	0.0151749
775.718	0.0154420
775.796	0.0153677
775.874	0.0152964
775.953	0.0152695
776.031	0.0152254
776.109	0.0152265
776.187	0.0152849
776.265	0.0153261
776.343	0.0153162
776.421	0.0153670
776.499	0.0154727
776.578	0.0153062
776.656	0.0154944
776.734	0.0154237
776.812	0.0154022
776.890	0.0156754
776.968	0.0154906
777.046	0.0153927
777.124	0.0152443
777.203	0.0153817
777.281	0.0154649
777.359	0.0153021
777.437	0.0153449
777.515	0.0154243
777.593	0.0153214
777.671	0.0152912
777.749	0.0153499
777.828	0.0154218
777.906	0.0153401
777.984	0.0152415
778.062	0.0151608
778.140	0.0152232
778.218	0.0152879
778.296	0.0153235
778.374	0.0153036
778.453	0.0152296
778.531	0.0152827
778.609	0.0152333
778.687	0.0153241
778.765	0.0153644
778.843	0.0153134
778.921	0.0152468
778.999	0.0153923
779.078	0.0153232
779.156	0.0153139
779.234	0.0152683
779.312	0.0152850
779.390	0.0153455
779.468	0.0154541
779.546	0.0154318
779.624	0.0152885
779.703	0.0153032
779.781	0.0153536
779.859	0.0154612
779.937	0.0153136
780.015	0.0152779
780.093	0.0153265
780.171	0.0153790
780.249	0.0152349
780.328	0.0152204
780.406	0.0151157
780.484	0.0151717
780.562	0.0153165
780.640	0.0153051
780.718	0.0153168
780.796	0.0153143
780.874	0.0153725
780.953	0.0153087
781.031	0.0152078
781.109	0.0154713
781.187	0.0152461
781.265	0.0153501
781.343	0.0153657
781.421	0.0154233
781.499	0.0151987
781.578	0.0153811
781.656	0.0153676
781.734	0.0152728
781.812	0.0152683
781.890	0.0152403
781.968	0.0152665
782.046	0.0151527
782.124	0.0153938
782.203	0.0152423
782.281	0.0151340
782.359	0.0152916
782.437	0.0153690
782.515	0.0152985
782.593	0.0153391
782.671	0.0152803
782.749	0.0153410
782.828	0.0152352
782.906	0.0153097
782.984	0.0153061
783.062	0.0152531
783.140	0.0152885
783.218	0.0152258
783.296	0.0152318
783.374	0.0153522
783.453	0.0152003
783.531	0.0152937
783.609	0.0152969
783.687	0.0151518
783.765	0.0152582
783.843	0.0151623
783.921	0.0152657
783.999	0.0152993
784.078	0.0151599
784.156	0.0152571
784.234	0.0152586
784.312	0.0153263
784.390	0.0154063
784.468	0.0153374
784.546	0.0153919
784.624	0.0153702
784.703	0.0154220
784.781	0.0154804
784.859	0.0154518
784.937	0.0153832
785.015	0.0154524
785.093	0.0154107
785.171	0.0154221
785.249	0.0152800
785.328	0.0153188
785.406	0.0153377
785.484	0.0153159
785.562	0.0152782
785.640	0.0151126
785.718	0.0152061
785.796	0.0150652
785.874	0.0152361
785.953	0.0152221
786.031	0.0152095
786.109	0.0151922
786.187	0.0152030
786.265	0.0152599
786.343	0.0151875
786.421	0.0152293
786.499	0.0151836
786.578	0.0151174
786.656	0.0153011
786.734	0.0153796
786.812	0.0153546
786.890	0.0156225
786.968	0.0153583
787.046	0.0153885
787.124	0.0153795
787.203	0.0155457
787.281	0.0153826
787.359	0.0154819
787.437	0.0155655
787.515	0.0154428
787.593	0.0153883
787.671	0.0154620
787.749	0.0153871
787.828	0.0154141
787.906	0.0153669
787.984	0.0153547
788.062	0.0152031
788.140	0.0153275
788.218	0.0153104
788.296	0.0152493
788.374	0.0153579
788.453	0.0153275
788.531	0.0153250
788.609	0.0152476
788.687	0.0153722
788.765	0.0151965
788.843	0.0152990
788.921	0.0154631
788.999	0.0153886
789.078	0.0154298
789.156	0.0154197
789.234	0.0153624
789.312	0.0152531
789.390	0.0153590
789.468	0.0155141
789.546	0.0155233
789.624	0.0155215
789.703	0.0153999
789.781	0.0154734
789.859	0.0153845
789.937	0.0152776
790.015	0.0154404
790.093	0.0154654
790.171	0.0153649
790.249	0.0152287
790.328	0.0153258
790.406	0.0153416
790.484	0.0152338
790.562	0.0151839
790.640	0.0153233
790.718	0.0154321
790.796	0.0154097
790.874	0.0151986
790.953	0.0153065
791.031	0.0153163
791.109	0.0152319
791.187	0.0152686
791.265	0.0152752
791.343	0.0154286
791.421	0.0153646
791.499	0.0154097
791.578	0.0154012
791.656	0.0154434
791.734	0.0153214
791.812	0.0154679
791.890	0.0154031
791.968	0.0154430
792.046	0.0152852
792.124	0.0153728
792.203	0.0154824
792.281	0.0154469
792.359	0.0153267
792.437	0.0153928
792.515	0.0155489
792.593	0.0153532
792.671	0.0152451
792.749	0.0154587
792.828	0.0155192
792.906	0.0153592
792.984	0.0155270
793.062	0.0154494
793.140	0.0153342
793.218	0.0151514
793.296	0.0153110
793.374	0.0154066
793.453	0.0154188
793.531	0.0152378
793.609	0.0154813
793.687	0.0155139
793.765	0.0153004
793.843	0.0153319
793.921	0.0154357
793.999	0.0154991
794.078	0.0154656
794.156	0.0155537
794.234	0.0154540
794.312	0.0155122
794.390	0.0154350
794.468	0.0155118
794.546	0.0154556
794.624	0.0153678
794.703	0.0154512
794.781	0.0155608
794.859	0.0152625
794.937	0.0153529
795.015	0.0154446
795.093	0.0153401
795.171	0.0152330
795.249	0.0153178
795.328	0.0153844
795.406	0.0153396
795.484	0.0154020
795.562	0.0153481
795.640	0.0154134
795.718	0.0153738
795.796	0.0153992
795.874	0.0153162
795.953	0.0152817
796.031	0.0153820
796.109	0.0151199
796.187	0.0151320
796.265	0.0153369
796.343	0.0153550
796.421	0.0152612
796.499	0.0153080
796.578	0.0151240
796.656	0.0151894
796.734	0.0151729
796.812	0.0152156
796.890	0.0152221
796.968	0.0153344
797.046	0.0152596
797.124	0.0152997
797.203	0.0154826
797.281	0.0154860
797.359	0.0153953
797.437	0.0154472
797.515	0.0154273
797.593	0.0153943
797.671	0.0152455
797.749	0.0153516
797.828	0.0155543
797.906	0.0154650
797.984	0.0154353
798.062	0.0153514
798.140	0.0154163
798.218	0.0154846
798.296	0.0152351
798.374	0.0153058
798.453	0.0153131
798.531	0.0151823
798.609	0.0153232
798.687	0.0154150
798.765	0.0152795
798.843	0.0152967
798.921	0.0152763
798.999	0.0153240
799.078	0.0152834
799.156	0.0154884
799.234	0.0153721
799.312	0.0153263
799.390	0.0153113
799.468	0.0153548
799.546	0.0152724
799.624	0.0153651
799.703	0.0154130
799.781	0.0154091
799.859	0.0154363
799.937	0.0154289
800.015	0.0153042
800.093	0.0153690
800.171	0.0152872
800.249	0.0151986
800.328	0.0153144
800.406	0.0154121
800.484	0.0152911
800.562	0.0152850
800.640	0.0153146
800.718	0.0153228
800.796	0.0154604
800.874	0.0153347
800.953	0.0151681
801.031	0.0152969
801.109	0.0153233
801.187	0.0153160
801.265	0.0151950
801.343	0.0152672
801.421	0.0152908
801.499	0.0152678
801.578	0.0152385
801.656	0.0153159
801.734	0.0153247
801.812	0.0151658
801.890	0.0153280
801.968	0.0153828
802.046	0.0152477
802.124	0.0151870
802.203	0.0153474
802.281	0.0153754
802.359	0.0153832
802.437	0.0152856
802.515	0.0152370
802.593	0.0153780
802.671	0.0152316
802.749	0.0152012
802.828	0.0151232
802.906	0.0152297
802.984	0.0151973
803.062	0.0151487
803.140	0.0151133
803.218	0.0151794
803.296	0.0151717
803.374	0.0151865
803.453	0.0151694
803.531	0.0153182
803.609	0.0153145
803.687	0.0153575
803.765	0.0152743
803.843	0.0151975
803.921	0.0153799
803.999	0.0154530
804.078	0.0152948
804.156	0.0152740
804.234	0.0154372
804.312	0.0154541
804.390	0.0154327
804.468	0.0153908
804.546	0.0154486
804.624	0.0153875
804.703	0.0152269
804.781	0.0152270
804.859	0.0153295
804.937	0.0153029
805.015	0.0153206
805.093	0.0152848
805.171	0.0152747
805.249	0.0151473
805.328	0.0150625
805.406	0.0152523
805.484	0.0152166
805.562	0.0152647
805.640	0.0152133
805.718	0.0151301
805.796	0.0152434
805.874	0.0152621
805.953	0.0151476
806.031	0.0152316
806.109	0.0152248
806.187	0.0152737
806.265	0.0152808
806.343	0.0152659
806.421	0.0152531
806.499	0.0153503
806.578	0.0152527
806.656	0.0151437
806.734	0.0152563
806.812	0.0152692
806.890	0.0152978
806.968	0.0150939
807.046	0.0152158
807.124	0.0152430
807.203	0.0151882
807.281	0.0152191
807.359	0.0152499
807.437	0.0151949
807.515	0.0151527
807.593	0.0153499
807.671	0.0152165
807.749	0.0151963
807.828	0.0151732
807.906	0.0152894
807.984	0.0152735
808.062	0.0153407
808.140	0.0151991
808.218	0.0152328
808.296	0.0152980
808.374	0.0153571
808.453	0.0154217
808.531	0.0154474
808.609	0.0154088
808.687	0.0154089
808.765	0.0154356
808.843	0.0154137
808.921	0.0155360
808.999	0.0154021
809.078	0.0153300
809.156	0.0155603
809.234	0.0154655
809.312	0.0154948
809.390	0.0155013
809.468	0.0155292
809.546	0.0153630
809.624	0.0151624
809.703	0.0152583
809.781	0.0153194
809.859	0.0152141
809.937	0.0153854
810.015	0.0152998
810.093	0.0152490
810.171	0.0152884
810.249	0.0151501
810.328	0.0153099
810.406	0.0152511
810.484	0.0151786
810.562	0.0152504
810.640	0.0151572
810.718	0.0152477
810.796	0.0150944
810.874	0.0150893
810.953	0.0152409
811.031	0.0152850
811.109	0.0151937
811.187	0.0152574
811.265	0.0152618
811.343	0.0152321
811.421	0.0153595
811.499	0.0152911
811.578	0.0152921
811.656	0.0152885
811.734	0.0152840
811.812	0.0154105
811.890	0.0154626
811.968	0.0153392
812.046	0.0154453
812.124	0.0154744
812.203	0.0153630
812.281	0.0154939
812.359	0.0152951
812.437	0.0154057
812.515	0.0153642
812.593	0.0153633
812.671	0.0152129
812.749	0.0151755
812.828	0.0153863
812.906	0.0153159
812.984	0.0154105
813.062	0.0152795
813.140	0.0152052
813.218	0.0152663
813.296	0.0151250
813.374	0.0150923
813.453	0.0152152
813.531	0.0152239
813.609	0.0153032
813.687	0.0152177
813.765	0.0153265
813.843	0.0153238
813.921	0.0152825
813.999	0.0153286
814.078	0.0152437
814.156	0.0153268
814.234	0.0153791
814.312	0.0153989
814.390	0.0152884
814.468	0.0153365
814.546	0.0153660
814.624	0.0153014
814.703	0.0154484
814.781	0.0154895
814.859	0.0154108
814.937	0.0154370
815.015	0.0152502
815.093	0.0153202
815.171	0.0153237
815.249	0.0152152
815.328	0.0152132
815.406	0.0153098
815.484	0.0152967
815.562	0.0153584
815.640	0.0152251
815.718	0.0152970
815.796	0.0152762
815.874	0.0153986
815.953	0.0153477
816.031	0.0152535
816.109	0.0154367
816.187	0.0156191
816.265	0.0155132
816.343	0.0153299
816.421	0.0154209
816.499	0.0155004
816.578	0.0155666
816.656	0.0156213
816.734	0.0155849
816.812	0.0154803
816.890	0.0153963
816.968	0.0153827
817.046	0.0153944
817.124	0.0153937
817.203	0.0154011
817.281	0.0155475
817.359	0.0152901
817.437	0.0153211
817.515	0.0153628
817.593	0.0152640
817.671	0.0153373
817.749	0.0152219
817.828	0.0152432
817.906	0.0152711
817.984	0.0153922
818.062	0.0153032
818.140	0.0153316
818.218	0.0152908
818.296	0.0152663
818.374	0.0153770
818.453	0.0151965
818.531	0.0152863
818.609	0.0153073
818.687	0.0154120
818.765	0.0152591
818.843	0.0152222
818.921	0.0151660
818.999	0.0153907
819.078	0.0153088
819.156	0.0151964
819.234	0.0152640
819.312	0.0153361
819.390	0.0152721
819.468	0.0153142
819.546	0.0152824
819.624	0.0153019
819.703	0.0152016
819.781	0.0152958
819.859	0.0154402
819.937	0.0152870
820.015	0.0152316
820.093	0.0154303
820.171	0.0154023
820.249	0.0151929
820.328	0.0153271
820.406	0.0153281
820.484	0.0153110
820.562	0.0154018
820.640	0.0153931
820.718	0.0153355
820.796	0.0153459
820.874	0.0153477
820.953	0.0153132
821.031	0.0153868
821.109	0.0154046
821.187	0.0153754
821.265	0.0153250
821.343	0.0153421
821.421	0.0154530
821.499	0.0154049
821.578	0.0153030
821.656	0.0154734
821.734	0.0153686
821.812	0.0153044
821.890	0.0151820
821.968	0.0152052
822.046	0.0152277
822.124	0.0151814
822.203	0.0152908
822.281	0.0152299
822.359	0.0151744
822.437	0.0151553
822.515	0.0152459
822.593	0.0152323
822.671	0.0152695
822.749	0.0151772
822.828	0.0152797
822.906	0.0150739
822.984	0.0151870
823.062	0.0152098
823.140	0.0151719
823.218	0.0151659
823.296	0.0151230
823.374	0.0151374
823.453	0.0150772
823.531	0.0152113
823.609	0.0151092
823.687	0.0152409
823.765	0.0152272
823.843	0.0151649
823.921	0.0153234
823.999	0.0151650
824.078	0.0151279
824.156	0.0151442
824.234	0.0151449
824.312	0.0152390
824.390	0.0152641
824.468	0.0153923
824.546	0.0150948
824.624	0.0151711
824.703	0.0152178
824.781	0.0153550
824.859	0.0151356
824.937	0.0152337
825.015	0.0152664
825.093	0.0151855
825.171	0.0149768
825.249	0.0151349
825.328	0.0150520
825.406	0.0151341
825.484	0.0152151
825.562	0.0151237
825.640	0.0150495
825.718	0.0153371
825.796	0.0152336
825.874	0.0151471
825.953	0.0151807
826.031	0.0152562
826.109	0.0152480
826.187	0.0151661
826.265	0.0151942
826.343	0.0152260
826.421	0.0153514
826.499	0.0152612
826.578	0.0151865
826.656	0.0152364
826.734	0.0153628
826.812	0.0153085
826.890	0.0152392
826.968	0.0152216
827.046	0.0152705
827.124	0.0152007
827.203	0.0150717
827.281	0.0151576
827.359	0.0151161
827.437	0.0152279
827.515	0.0152086
827.593	0.0152125
827.671	0.0152173
827.749	0.0151929
827.828	0.0152064
827.906	0.0151443
827.984	0.0151672
828.062	0.0151578
828.140	0.0152769
828.218	0.0153550
828.296	0.0153397
828.374	0.0153779
828.453	0.0153881
828.531	0.0154192
828.609	0.0152396
828.687	0.0153796
828.765	0.0153857
828.843	0.0153704
828.921	0.0154786
828.999	0.0153354
829.078	0.0154752
829.156	0.0154308
829.234	0.0153728
829.312	0.0153491
829.390	0.0153363
829.468	0.0152180
829.546	0.0152950
829.624	0.0153475
829.703	0.0153014
829.781	0.0154003
829.859	0.0153715
829.937	0.0153024
830.015	0.0151631
830.093	0.0152324
830.171	0.0151855
830.249	0.0151675
830.328	0.0151260
830.406	0.0152283
830.484	0.0153258
830.562	0.0153435
830.640	0.0151145
830.718	0.0152180
830.796	0.0152094
830.874	0.0154329
830.953	0.0152728
831.031	0.0153687
831.109	0.0153693
831.187	0.0153002
831.265	0.0154822
831.343	0.0153645
831.421	0.0152110
831.499	0.0152673
831.578	0.0153720
831.656	0.0152557
831.734	0.0153295
831.812	0.0153105
831.890	0.0153354
831.968	0.0152061
832.046	0.0152105
832.124	0.0152786
832.203	0.0152248
832.281	0.0150727
832.359	0.0153506
832.437	0.0152936
832.515	0.0151917
832.593	0.0153985
832.671	0.0153162
832.749	0.0152121
832.828	0.0153004
832.906	0.0152531
832.984	0.0153577
833.062	0.0153420
833.140	0.0152813
833.218	0.0154138
833.296	0.0153036
833.374	0.0153422
833.453	0.0153913
833.531	0.0153389
833.609	0.0152943
833.687	0.0154499
833.765	0.0153231
833.843	0.0154049
833.921	0.0153626
833.999	0.0152953
834.078	0.0153388
834.156	0.0153734
834.234	0.0153197
834.312	0.0154613
834.390	0.0154780
834.468	0.0153295
834.546	0.0153852
834.624	0.0152370
834.703	0.0153210
834.781	0.0154778
834.859	0.0154822
834.937	0.0151894
835.015	0.0152518
835.093	0.0152247
835.171	0.0153734
835.249	0.0153705
835.328	0.0154712
835.406	0.0152234
835.484	0.0153404
835.562	0.0153898
835.640	0.0153490
835.718	0.0153098
835.796	0.0154266
835.874	0.0152555
835.953	0.0154263
836.031	0.0154156
836.109	0.0154818
836.187	0.0155193
836.265	0.0154898
836.343	0.0153963
836.421	0.0154303
836.499	0.0154897
836.578	0.0153976
836.656	0.0153414
836.734	0.0155437
836.812	0.0155647
836.890	0.0153313
836.968	0.0153192
837.046	0.0154568
837.124	0.0153935
837.203	0.0152569
837.281	0.0152576
837.359	0.0151613
837.437	0.0152990
837.515	0.0153168
837.593	0.0152768
837.671	0.0152944
837.749	0.0153065
837.828	0.0151944
837.906	0.0153163
837.984	0.0152547
838.062	0.0151846
838.140	0.0152883
838.218	0.0152631
838.296	0.0152763
838.374	0.0152222
838.453	0.0153351
838.531	0.0152201
838.609	0.0153835
838.687	0.0153535
838.765	0.0154933
838.843	0.0153378
838.921	0.0152697
838.999	0.0153216
839.078	0.0154243
839.156	0.0154049
839.234	0.0153649
839.312	0.0153840
839.390	0.0153767
839.468	0.0153304
839.546	0.0152802
839.624	0.0154374
839.703	0.0153692
839.781	0.0154295
839.859	0.0152939
839.937	0.0153848
840.015	0.0152849
840.093	0.0152708
840.171	0.0151801
840.249	0.0153721
840.328	0.0153837
840.406	0.0153448
840.484	0.0153162
840.562	0.0153505
840.640	0.0152470
840.718	0.0152962
840.796	0.0153168
840.874	0.0151724
840.953	0.0152975
841.031	0.0151949
841.109	0.0153265
841.187	0.0153779
841.265	0.0153190
841.343	0.0152737
841.421	0.0152895
841.499	0.0152557
841.578	0.0152588
841.656	0.0152213
841.734	0.0152327
841.812	0.0151508
841.890	0.0153884
841.968	0.0152061
842.046	0.0152405
842.124	0.0153288
842.203	0.0152149
842.281	0.0152436
842.359	0.0151518
842.437	0.0151488
842.515	0.0152782
842.593	0.0152969
842.671	0.0153903
842.749	0.0153118
842.828	0.0152412
842.906	0.0152303
842.984	0.0154128
843.062	0.0153186
843.140	0.0152695
843.218	0.0154815
843.296	0.0153202
843.374	0.0153414
843.453	0.0152546
843.531	0.0153510
843.609	0.0154510
843.687	0.0154292
843.765	0.0153400
843.843	0.0154562
843.921	0.0154095
843.999	0.0154261
844.078	0.0152890
844.156	0.0153349
844.234	0.0151833
844.312	0.0150648
844.390	0.0153281
844.468	0.0151994
844.546	0.0152512
844.624	0.0152053
844.703	0.0152172
844.781	0.0151643
844.859	0.0151597
844.937	0.0150259
845.015	0.0152319
845.093	0.0150848
845.171	0.0151941
845.249	0.0151904
845.328	0.0150709
845.406	0.0150167
845.484	0.0150922
845.562	0.0152428
845.640	0.0151828
845.718	0.0153135
845.796	0.0152026
845.874	0.0152103
845.953	0.0151947
846.031	0.0151656
846.109	0.0151974
846.187	0.0151845
846.265	0.0152617
846.343	0.0151970
846.421	0.0152496
846.499	0.0152981
846.578	0.0152811
846.656	0.0153657
846.734	0.0152525
846.812	0.0152866
846.890	0.0151657
846.968	0.0153319
847.046	0.0152444
847.124	0.0152415
847.203	0.0153550
847.281	0.0152503
847.359	0.0151871
847.437	0.0152377
847.515	0.0152504
847.593	0.0153452
847.671	0.0153023
847.749	0.0152428
847.828	0.0151929
847.906	0.0151954
847.984	0.0152359
848.062	0.0152491
848.140	0.0151416
848.218	0.0152660
848.296	0.0152905
848.374	0.0152380
848.453	0.0152417
848.531	0.0151692
848.609	0.0151771
848.687	0.0152276
848.765	0.0153326
848.843	0.0152342
848.921	0.0152081
848.999	0.0151241
849.078	0.0152897
849.156	0.0153326
849.234	0.0152601
849.312	0.0153239
849.390	0.0153243
849.468	0.0153521
849.546	0.0152399
849.624	0.0152438
849.703	0.0153580
849.781	0.0153420
849.859	0.0153313
849.937	0.0152638
850.015	0.0152873
850.093	0.0153742
850.171	0.0154490
850.249	0.0154047
850.328	0.0152902
850.406	0.0152266
850.484	0.0154378
850.562	0.0155540
850.640	0.0154880
850.718	0.0154310
850.796	0.0154396
850.874	0.0153897
850.953	0.0154676
851.031	0.0154683
851.109	0.0153531
851.187	0.0153947
851.265	0.0155563
851.343	0.0155203
851.421	0.0153633
851.499	0.0154591
851.578	0.0154007
851.656	0.0153562
851.734	0.0154354
851.812	0.0153784
851.890	0.0153312
851.968	0.0153645
852.046	0.0153951
852.124	0.0153835
852.203	0.0153023
852.281	0.0152692
852.359	0.0153404
852.437	0.0151658
852.515	0.0152286
852.593	0.0151548
852.671	0.0152926
852.749	0.0151993
852.828	0.0152550
852.906	0.0152956
852.984	0.0152158
853.062	0.0152528
853.140	0.0153727
853.218	0.0151945
853.296	0.0151972
853.374	0.0154812
853.453	0.0153997
853.531	0.0152987
853.609	0.0153355
853.687	0.0153347
853.765	0.0152651
853.843	0.0152532
853.921	0.0153084
853.999	0.0152914
854.078	0.0154108
854.156	0.0153643
854.234	0.0154314
854.312	0.0155071
854.390	0.0154717
854.468	0.0152171
854.546	0.0152882
854.624	0.0154543
854.703	0.0155766
854.781	0.0155594
854.859	0.0155334
854.937	0.0153210
855.015	0.0154095
855.093	0.0153908
855.171	0.0154266
855.249	0.0155382
855.328	0.0154017
855.406	0.0154185
855.484	0.0155570
855.562	0.0153651
855.640	0.0153232
855.718	0.0153651
855.796	0.0152660
855.874	0.0153952
855.953	0.0151721
856.031	0.0152703
856.109	0.0152167
856.187	0.0152637
856.265	0.0152723
856.343	0.0152596
856.421	0.0150901
856.499	0.0151269
856.578	0.0153548
856.656	0.0152290
856.734	0.0154012
856.812	0.0152802
856.890	0.0152927
856.968	0.0153001
857.046	0.0153297
857.124	0.0152583
857.203	0.0152448
857.281	0.0152355
857.359	0.0152399
857.437	0.0153747
857.515	0.0153931
857.593	0.0155145
857.671	0.0154621
857.749	0.0153964
857.828	0.0152841
857.906	0.0152846
857.984	0.0153207
858.062	0.0154685
858.140	0.0153459
858.218	0.0153964
858.296	0.0153912
858.374	0.0153282
858.453	0.0154119
858.531	0.0153298
858.609	0.0153878
858.687	0.0153379
858.765	0.0153210
858.843	0.0155328
858.921	0.0153375
858.999	0.0153365
859.078	0.0152214
859.156	0.0154002
859.234	0.0153242
859.312	0.0152771
859.390	0.0151884
859.468	0.0153609
859.546	0.0152023
859.624	0.0152551
859.703	0.0154300
859.781	0.0154225
859.859	0.0153819
859.937	0.0154302
860.015	0.0153593
860.093	0.0153263
860.171	0.0151775
860.249	0.0152010
860.328	0.0153262
860.406	0.0153278
860.484	0.0153743
860.562	0.0153726
860.640	0.0153635
860.718	0.0152359
860.796	0.0151708
860.874	0.0153970
860.953	0.0153898
861.031	0.0153220
861.109	0.0154282
861.187	0.0155368
861.265	0.0152699
861.343	0.0153373
861.421	0.0153244
861.499	0.0154356
861.578	0.0152921
861.656	0.0153932
861.734	0.0153020
861.812	0.0153401
861.890	0.0153886
861.968	0.0154451
862.046	0.0153972
862.124	0.0153666
862.203	0.0153737
862.281	0.0154691
862.359	0.0154037
862.437	0.0153696
862.515	0.0154659
862.593	0.0153477
862.671	0.0153372
862.749	0.0155562
862.828	0.0154301
862.906	0.0152956
862.984	0.0153855
863.062	0.0153828
863.140	0.0151913
863.218	0.0153024
863.296	0.0152494
863.374	0.0152101
863.453	0.0152366
863.531	0.0152956
863.609	0.0152302
863.687	0.0152937
863.765	0.0151778
863.843	0.0153189
863.921	0.0152248
863.999	0.0152097
864.078	0.0152577
864.156	0.0151807
864.234	0.0151868
864.312	0.0152380
864.390	0.0152513
864.468	0.0152011
864.546	0.0151670
864.624	0.0153052
864.703	0.0153154
864.781	0.0151883
864.859	0.0152866
864.937	0.0153219
865.015	0.0152856
865.093	0.0152588
865.171	0.0152171
865.249	0.0152628
865.328	0.0152398
865.406	0.0152013
865.484	0.0152719
865.562	0.0153170
865.640	0.0152554
865.718	0.0153557
865.796	0.0153712
865.874	0.0152319
865.953	0.0152636
866.031	0.0151833
866.109	0.0154075
866.187	0.0153419
866.265	0.0153560
866.343	0.0152402
866.421	0.0152968
866.499	0.0152364
866.578	0.0153720
866.656	0.0153338
866.734	0.0152665
866.812	0.0154228
866.890	0.0153119
866.968	0.0152317
867.046	0.0152574
867.124	0.0153191
867.203	0.0153107
867.281	0.0153784
867.359	0.0154147
867.437	0.0152895
867.515	0.0153465
867.593	0.0153556
867.671	0.0154469
867.749	0.0154672
867.828	0.0154001
867.906	0.0152769
867.984	0.0153811
868.062	0.0152546
868.140	0.0153379
868.218	0.0153345
868.296	0.0154309
868.374	0.0154634
868.453	0.0153146
868.531	0.0153107
868.609	0.0152538
868.687	0.0153339
868.765	0.0154605
868.843	0.0154450
868.921	0.0152431
868.999	0.0155343
869.078	0.0154465
869.156	0.0153767
869.234	0.0153957
869.312	0.0154044
869.390	0.0153879
869.468	0.0153858
869.546	0.0153745
869.624	0.0155138
869.703	0.0153764
869.781	0.0153362
869.859	0.0154353
869.937	0.0153834
870.015	0.0153516
870.093	0.0153122
870.171	0.0154523
870.249	0.0153606
870.328	0.0153891
870.406	0.0154174
870.484	0.0152816
870.562	0.0154512
870.640	0.0153114
870.718	0.0152185
870.796	0.0154279
870.874	0.0153097
870.953	0.0154011
871.031	0.0154034
871.109	0.0153920
871.187	0.0153425
871.265	0.0153392
871.343	0.0153058
871.421	0.0153209
871.499	0.0153370
871.578	0.0155246
871.656	0.0154533
871.734	0.0152921
871.812	0.0153244
871.890	0.0153799
871.968	0.0152328
872.046	0.0153625
872.124	0.0154011
872.203	0.0154301
872.281	0.0153001
872.359	0.0152302
872.437	0.0154237
872.515	0.0153280
872.593	0.0152826
872.671	0.0153072
872.749	0.0152806
872.828	0.0153650
872.906	0.0152499
872.984	0.0153344
873.062	0.0153490
873.140	0.0152936
873.218	0.0153697
873.296	0.0153279
873.374	0.0154939
873.453	0.0152654
873.531	0.0153401
873.609	0.0153895
873.687	0.0153610
873.765	0.0154500
873.843	0.0153663
873.921	0.0153987
873.999	0.0153310
874.078	0.0153807
874.156	0.0153532
874.234	0.0152902
874.312	0.0152634
874.390	0.0151974
874.468	0.0153835
874.546	0.0154223
874.624	0.0153178
874.703	0.0153089
874.781	0.0153556
874.859	0.0153950
874.937	0.0153256
875.015	0.0152590
875.093	0.0154349
875.171	0.0153532
875.249	0.0153175
875.328	0.0152831
875.406	0.0152384
875.484	0.0152103
875.562	0.0153891
875.640	0.0153781
875.718	0.0153612
875.796	0.0152084
875.874	0.0153188
875.953	0.0152865
876.031	0.0153415
876.109	0.0154940
876.187	0.0152980
876.265	0.0155836
876.343	0.0154931
876.421	0.0153059
876.499	0.0153403
876.578	0.0153572
876.656	0.0154411
876.734	0.0155025
876.812	0.0153443
876.890	0.0153267
876.968	0.0153664
877.046	0.0152951
877.124	0.0154310
877.203	0.0154179
877.281	0.0153604
877.359	0.0153024
877.437	0.0153101
877.515	0.0153661
877.593	0.0154469
877.671	0.0154272
877.749	0.0153355
877.828	0.0153398
877.906	0.0153623
877.984	0.0153400
878.062	0.0153999
878.140	0.0153638
878.218	0.0154588
878.296	0.0153426
878.374	0.0153465
878.453	0.0153367
878.531	0.0153580
878.609	0.0153937
878.687	0.0153982
878.765	0.0154339
878.843	0.0153164
878.921	0.0153635
878.999	0.0152348
879.078	0.0152368
879.156	0.0153781
879.234	0.0152310
879.312	0.0151620
879.390	0.0154089
879.468	0.0153273
879.546	0.0152379
879.624	0.0152538
879.703	0.0153349
879.781	0.0152390
879.859	0.0153159
879.937	0.0152966
880.015	0.0152472
880.093	0.0153539
880.171	0.0151331
880.249	0.0153123
880.328	0.0153426
880.406	0.0154065
880.484	0.0153280
880.562	0.0153087
880.640	0.0152039
880.718	0.0152943
880.796	0.0154066
880.874	0.0153477
880.953	0.0153085
881.031	0.0154054
881.109	0.0152704
881.187	0.0152647
881.265	0.0152537
881.343	0.0152841
881.421	0.0153913
881.499	0.0152644
881.578	0.0152973
881.656	0.0154359
881.734	0.0153008
881.812	0.0152694
881.890	0.0152627
881.968	0.0153358
882.046	0.0154775
882.124	0.0153889
882.203	0.0154032
882.281	0.0154917
882.359	0.0153578
882.437	0.0151799
882.515	0.0154672
882.593	0.0154230
882.671	0.0154250
882.749	0.0153555
882.828	0.0153085
882.906	0.0152570
882.984	0.0152542
883.062	0.0154045
883.140	0.0153052
883.218	0.0152028
883.296	0.0153050
883.374	0.0153503
883.453	0.0153056
883.531	0.0153410
883.609	0.0152497
883.687	0.0153748
883.765	0.0153114
883.843	0.0153075
883.921	0.0153635
883.999	0.0153690
884.078	0.0152773
884.156	0.0153560
884.234	0.0152819
884.312	0.0153732
884.390	0.0152972
884.468	0.0152072
884.546	0.0153044
884.624	0.0153068
884.703	0.0153857
884.781	0.0153639
884.859	0.0152145
884.937	0.0154185
885.015	0.0152177
885.093	0.0153411
885.171	0.0153580
885.249	0.0154191
885.328	0.0153315
885.406	0.0153686
885.484	0.0153362
885.562	0.0152745
885.640	0.0152488
885.718	0.0152621
885.796	0.0153455
885.874	0.0153175
885.953	0.0152142
886.031	0.0152013
886.109	0.0152645
886.187	0.0153684
886.265	0.0152824
886.343	0.0152517
886.421	0.0153220
886.499	0.0153572
886.578	0.0151940
886.656	0.0152280
886.734	0.0153348
886.812	0.0152074
886.890	0.0152058
886.968	0.0153948
887.046	0.0153205
887.124	0.0154695
887.203	0.0153484
887.281	0.0153609
887.359	0.0154630
887.437	0.0153620
887.515	0.0152941
887.593	0.0154414
887.671	0.0154224
887.749	0.0155165
887.828	0.0154050
887.906	0.0154034
887.984	0.0153678
888.062	0.0153929
888.140	0.0153518
888.218	0.0155645
888.296	0.0153745
888.374	0.0153514
888.453	0.0153414
888.531	0.0153032
888.609	0.0153468
888.687	0.0152696
888.765	0.0153500
888.843	0.0153248
888.921	0.0154176
888.999	0.0153400
889.078	0.0152081
889.156	0.0153040
889.234	0.0152651
889.312	0.0152139
889.390	0.0152200
889.468	0.0152666
889.546	0.0152959
889.624	0.0152134
889.703	0.0151249
889.781	0.0153684
889.859	0.0153217
889.937	0.0152486
890.015	0.0153252
890.093	0.0153211
890.171	0.0150738
890.249	0.0151923
890.328	0.0151559
890.406	0.0154300
890.484	0.0154152
890.562	0.0153302
890.640	0.0153265
890.718	0.0152238
890.796	0.0152464
890.874	0.0152006
890.953	0.0153796
891.031	0.0154202
891.109	0.0155086
891.187	0.0153927
891.265	0.0153501
891.343	0.0154698
891.421	0.0154807
891.499	0.0153071
891.578	0.0154630
891.656	0.0154044
891.734	0.0152689
891.812	0.0154605
891.890	0.0153147
891.968	0.0153179
892.046	0.0153635
892.124	0.0155141
892.203	0.0154346
892.281	0.0153416
892.359	0.0153665
892.437	0.0153989
892.515	0.0154160
892.593	0.0153748
892.671	0.0153506
892.749	0.0153184
892.828	0.0154239
892.906	0.0154202
892.984	0.0154789
893.062	0.0153993
893.140	0.0154272
893.218	0.0154491
893.296	0.0153883
893.374	0.0153462
893.453	0.0152100
893.531	0.0155173
893.609	0.0155173
893.687	0.0153752
893.765	0.0152398
893.843	0.0152811
893.921	0.0152879
893.999	0.0153596
894.078	0.0153931
894.156	0.0154782
894.234	0.0154707
894.312	0.0152396
894.390	0.0152105
894.468	0.0152467
894.546	0.0152662
894.624	0.0151324
894.703	0.0152606
894.781	0.0154432
894.859	0.0152343
894.937	0.0152590
895.015	0.0152800
895.093	0.0153778
895.171	0.0152345
895.249	0.0153278
895.328	0.0153388
895.406	0.0152651
895.484	0.0152792
895.562	0.0154069
895.640	0.0153465
895.718	0.0153701
895.796	0.0154143
895.874	0.0153531
895.953	0.0153129
896.031	0.0152196
896.109	0.0151942
896.187	0.0151448
896.265	0.0153436
896.343	0.0153216
896.421	0.0153644
896.499	0.0152701
896.578	0.0151804
896.656	0.0151931
896.734	0.0152652
896.812	0.0153651
896.890	0.0151985
896.968	0.0152570
897.046	0.0152245
897.124	0.0152798
897.203	0.0153801
897.281	0.0153463
897.359	0.0151920
897.437	0.0151048
897.515	0.0152142
897.593	0.0153126
897.671	0.0151963
897.749	0.0153246
897.828	0.0152352
897.906	0.0152671
897.984	0.0153246
898.062	0.0152372
898.140	0.0152957
898.218	0.0153077
898.296	0.0152725
898.374	0.0153068
898.453	0.0153442
898.531	0.0153210
898.609	0.0152459
898.687	0.0150848
898.765	0.0152592
898.843	0.0154304
898.921	0.0151835
898.999	0.0152025
899.078	0.0152921
899.156	0.0151390
899.234	0.0153062
899.312	0.0152980
899.390	0.0153684
899.468	0.0152990
899.546	0.0152746
899.624	0.0152612
899.703	0.0152493
899.781	0.0153395
899.859	0.0152749
899.937	0.0154325
900.015	0.0152882
900.093	0.0154519
900.171	0.0152896
900.249	0.0151423
900.328	0.0154603
900.406	0.0153368
900.484	0.0153464
900.562	0.0153854
900.640	0.0152934
900.718	0.0153941
900.796	0.0153962
900.874	0.0152035
900.953	0.0153383
901.031	0.0153294
901.109	0.0153252
901.187	0.0152476
901.265	0.0151868
901.343	0.0151782
901.421	0.0153127
901.499	0.0154383
901.578	0.0154160
901.656	0.0152728
901.734	0.0152480
901.812	0.0153351
901.890	0.0153311
901.968	0.0151072
902.046	0.0152902
902.124	0.0152880
902.203	0.0153438
902.281	0.0153262
902.359	0.0153117
902.437	0.0153600
902.515	0.0152180
902.593	0.0153281
902.671	0.0153311
902.749	0.0152820
902.828	0.0152542
902.906	0.0154072
902.984	0.0153781
903.062	0.0154663
903.140	0.0154057
903.218	0.0152538
903.296	0.0153086
903.374	0.0154134
903.453	0.0154105
903.531	0.0154204
903.609	0.0153952
903.687	0.0152679
903.765	0.0154488
903.843	0.0154573
903.921	0.0155125
903.999	0.0153711
904.078	0.0154236
904.156	0.0153701
904.234	0.0153538
904.312	0.0153977
904.390	0.0153353
904.468	0.0152990
904.546	0.0153374
904.624	0.0152394
904.703	0.0152668
904.781	0.0152993
904.859	0.0152837
904.937	0.0152164
905.015	0.0153201
905.093	0.0152823
905.171	0.0152840
905.249	0.0153735
905.328	0.0150740
905.406	0.0152461
905.484	0.0151594
905.562	0.0153436
905.640	0.0153167
905.718	0.0153030
905.796	0.0152857
905.874	0.0152766
905.953	0.0153761
906.031	0.0153883
906.109	0.0154059
906.187	0.0154408
906.265	0.0151942
906.343	0.0152226
906.421	0.0152624
906.499	0.0154219
906.578	0.0152177
906.656	0.0154415
906.734	0.0154174
906.812	0.0154597
906.890	0.0154405
906.968	0.0153096
907.046	0.0154213
907.124	0.0154452
907.203	0.0154559
907.281	0.0153857
907.359	0.0153867
907.437	0.0153426
907.515	0.0152856
907.593	0.0154510
907.671	0.0152996
907.749	0.0153654
907.828	0.0153831
907.906	0.0153561
907.984	0.0153242
908.062	0.0154594
908.140	0.0153269
908.218	0.0152854
908.296	0.0154428
908.374	0.0153373
908.453	0.0153742
908.531	0.0152023
908.609	0.0152494
908.687	0.0152126
908.765	0.0152661
908.843	0.0153723
908.921	0.0151058
908.999	0.0151422
909.078	0.0153355
909.156	0.0153017
909.234	0.0152029
909.312	0.0153332
909.390	0.0153545
909.468	0.0153362
909.546	0.0153960
909.624	0.0154169
909.703	0.0154102
909.781	0.0152623
909.859	0.0152838
909.937	0.0153809
910.015	0.0154277
910.093	0.0154031
910.171	0.0153163
910.249	0.0154364
910.328	0.0153559
910.406	0.0152993
910.484	0.0154436
910.562	0.0153699
910.640	0.0155261
910.718	0.0154600
910.796	0.0153390
910.874	0.0154627
910.953	0.0153699
911.031	0.0154053
911.109	0.0154066
911.187	0.0154604
911.265	0.0154968
911.343	0.0153748
911.421	0.0153452
911.499	0.0154406
911.578	0.0154304
911.656	0.0153859
911.734	0.0152893
911.812	0.0153448
911.890	0.0153535
911.968	0.0153401
912.046	0.0154365
912.124	0.0153164
912.203	0.0153088
912.281	0.0153362
912.359	0.0153281
912.437	0.0153517
912.515	0.0152883
912.593	0.0152343
912.671	0.0152622
912.749	0.0153337
912.828	0.0152525
912.906	0.0153811
912.984	0.0154658
913.062	0.0153256
913.140	0.0155038
913.218	0.0154474
913.296	0.0153211
913.374	0.0152744
913.453	0.0153973
913.531	0.0154658
913.609	0.0154733
913.687	0.0152824
913.765	0.0155127
913.843	0.0155019
913.921	0.0154431
913.999	0.0154291
914.078	0.0154483
914.156	0.0154675
914.234	0.0155344
914.312	0.0153714
914.390	0.0153642
914.468	0.0153974
914.546	0.0154209
914.624	0.0155193
914.703	0.0154165
914.781	0.0153233
914.859	0.0154015
914.937	0.0154890
915.015	0.0153838
915.093	0.0153043
915.171	0.0154288
915.249	0.0154060
915.328	0.0152775
915.406	0.0153154
915.484	0.0154012
915.562	0.0153703
915.640	0.0153352
915.718	0.0153880
915.796	0.0154149
915.874	0.0154018
915.953	0.0153384
916.031	0.0153439
916.109	0.0154509
916.187	0.0153235
916.265	0.0153732
916.343	0.0152757
916.421	0.0153304
916.499	0.0154781
916.578	0.0153409
916.656	0.0152639
916.734	0.0154787
916.812	0.0154861
916.890	0.0154160
916.968	0.0153668
917.046	0.0152711
917.124	0.0154503
917.203	0.0154140
917.281	0.0153678
917.359	0.0154364
917.437	0.0153748
917.515	0.0153180
917.593	0.0153773
917.671	0.0154251
917.749	0.0154916
917.828	0.0154301
917.906	0.0154005
917.984	0.0154015
918.062	0.0153824
918.140	0.0152959
918.218	0.0153120
918.296	0.0156014
918.374	0.0154334
918.453	0.0151772
918.531	0.0154057
918.609	0.0153828
918.687	0.0152477
918.765	0.0153650
918.843	0.0154118
918.921	0.0155848
918.999	0.0154573
919.078	0.0154171
919.156	0.0154321
919.234	0.0153878
919.312	0.0152841
919.390	0.0153281
919.468	0.0153790
919.546	0.0153521
919.624	0.0153851
919.703	0.0153500
919.781	0.0154372
919.859	0.0153877
919.937	0.0152619
