05/06/2022	19:20:55	Ver.	4.1	UNKNOWN
Optical Delay	600.015094	Delta X		0.078125	Sweeps	1	Scan Rate	0/0
Coordinates	Axis 1	NaN	Axis 2	NaN	Axis 3	NaN	Axis 4	NaN	Axis 5	NaN	Axis 6	0.000000
TX Power	0.000000	RX Power	0.000000

600.015	0.0150600
600.093	0.0150298
600.171	0.0150465
600.249	0.0149847
600.328	0.0151270
600.406	0.0148537
600.484	0.0150692
600.562	0.0151257
600.640	0.0150729
600.718	0.0150268
600.796	0.0149329
600.874	0.0150058
600.953	0.0150594
601.031	0.0151343
601.109	0.0150814
601.187	0.0149535
601.265	0.0150682
601.343	0.0150108
601.421	0.0150347
601.499	0.0150904
601.578	0.0149863
601.656	0.0148961
601.734	0.0149902
601.812	0.0150903
601.890	0.0149673
601.968	0.0149674
602.046	0.0150164
602.124	0.0149915
602.203	0.0148987
602.281	0.0150286
602.359	0.0150381
602.437	0.0149905
602.515	0.0149851
602.593	0.0150316
602.671	0.0149711
602.749	0.0149582
602.828	0.0151248
602.906	0.0148976
602.984	0.0149065
603.062	0.0150072
603.140	0.0150931
603.218	0.0151731
603.296	0.0149815
603.374	0.0150132
603.453	0.0150249
603.531	0.0151450
603.609	0.0151562
603.687	0.0150291
603.765	0.0150385
603.843	0.0150832
603.921	0.0150060
603.999	0.0148325
604.078	0.0149342
604.156	0.0150570
604.234	0.0150179
604.312	0.0149223
604.390	0.0149605
604.468	0.0149887
604.546	0.0149879
604.624	0.0151572
604.703	0.0149410
604.781	0.0151642
604.859	0.0149911
604.937	0.0150179
605.015	0.0151088
605.093	0.0152518
605.171	0.0150366
605.249	0.0149773
605.328	0.0149908
605.406	0.0149510
605.484	0.0151056
605.562	0.0148733
605.640	0.0149147
605.718	0.0148492
605.796	0.0151374
605.874	0.0149854
605.953	0.0149964
606.031	0.0150388
606.109	0.0149748
606.187	0.0149641
606.265	0.0150513
606.343	0.0149371
606.421	0.0150803
606.499	0.0150828
606.578	0.0149570
606.656	0.0150326
606.734	0.0149549
606.812	0.0150234
606.890	0.0150484
606.968	0.0150199
607.046	0.0151170
607.124	0.0150551
607.203	0.0151098
607.281	0.0151874
607.359	0.0150750
607.437	0.0150816
607.515	0.0150401
607.593	0.0150957
607.671	0.0149755
607.749	0.0150910
607.828	0.0150729
607.906	0.0150883
607.984	0.0150246
608.062	0.0150810
608.140	0.0150850
608.218	0.0149499
608.296	0.0151025
608.374	0.0150420
608.453	0.0150718
608.531	0.0150738
608.609	0.0152149
608.687	0.0151598
608.765	0.0151876
608.843	0.0151506
608.921	0.0150724
608.999	0.0150043
609.078	0.0148798
609.156	0.0150808
609.234	0.0151088
609.312	0.0150943
609.390	0.0149918
609.468	0.0150330
609.546	0.0150038
609.624	0.0150571
609.703	0.0149906
609.781	0.0149105
609.859	0.0150689
609.937	0.0151578
610.015	0.0150430
610.093	0.0149995
610.171	0.0150140
610.249	0.0150012
610.328	0.0150493
610.406	0.0150079
610.484	0.0151019
610.562	0.0149591
610.640	0.0150124
610.718	0.0149759
610.796	0.0149571
610.874	0.0150108
610.953	0.0150442
611.031	0.0150643
611.109	0.0150584
611.187	0.0148871
611.265	0.0148534
611.343	0.0149085
611.421	0.0149134
611.499	0.0149282
611.578	0.0149945
611.656	0.0150371
611.734	0.0148763
611.812	0.0147795
611.890	0.0149690
611.968	0.0149702
612.046	0.0150405
612.124	0.0150001
612.203	0.0150488
612.281	0.0148802
612.359	0.0150182
612.437	0.0150140
612.515	0.0149664
612.593	0.0149358
612.671	0.0149994
612.749	0.0148992
612.828	0.0149499
612.906	0.0149416
612.984	0.0147471
613.062	0.0149790
613.140	0.0150213
613.218	0.0150318
613.296	0.0150682
613.374	0.0150523
613.453	0.0149866
613.531	0.0149258
613.609	0.0150240
613.687	0.0151726
613.765	0.0149815
613.843	0.0149422
613.921	0.0150507
613.999	0.0150048
614.078	0.0150803
614.156	0.0148838
614.234	0.0149075
614.312	0.0149154
614.390	0.0149251
614.468	0.0148898
614.546	0.0149732
614.624	0.0149777
614.703	0.0148904
614.781	0.0148439
614.859	0.0148383
614.937	0.0149371
615.015	0.0149364
615.093	0.0149013
615.171	0.0148782
615.249	0.0149364
615.328	0.0149886
615.406	0.0148561
615.484	0.0148827
615.562	0.0148573
615.640	0.0149902
615.718	0.0149885
615.796	0.0149728
615.874	0.0149384
615.953	0.0149654
616.031	0.0148891
616.109	0.0149934
616.187	0.0149256
616.265	0.0149912
616.343	0.0149772
616.421	0.0149043
616.499	0.0149090
616.578	0.0149510
616.656	0.0148690
616.734	0.0148913
616.812	0.0150188
616.890	0.0149346
616.968	0.0149612
617.046	0.0149760
617.124	0.0149907
617.203	0.0150404
617.281	0.0150217
617.359	0.0149534
617.437	0.0149580
617.515	0.0148939
617.593	0.0150099
617.671	0.0149622
617.749	0.0148578
617.828	0.0149816
617.906	0.0149577
617.984	0.0148592
618.062	0.0149955
618.140	0.0149275
618.218	0.0148766
618.296	0.0148114
618.374	0.0148730
618.453	0.0148248
618.531	0.0148118
618.609	0.0148756
618.687	0.0148824
618.765	0.0149427
618.843	0.0148416
618.921	0.0149677
618.999	0.0150264
619.078	0.0150182
619.156	0.0148219
619.234	0.0149436
619.312	0.0150307
619.390	0.0149551
619.468	0.0149585
619.546	0.0150299
619.624	0.0150450
619.703	0.0150224
619.781	0.0148900
619.859	0.0149391
619.937	0.0148141
620.015	0.0148651
620.093	0.0149834
620.171	0.0148974
620.249	0.0148383
620.328	0.0150678
620.406	0.0149014
620.484	0.0148019
620.562	0.0148436
620.640	0.0149255
620.718	0.0147650
620.796	0.0147390
620.874	0.0148713
620.953	0.0148439
621.031	0.0147868
621.109	0.0148441
621.187	0.0148409
621.265	0.0149955
621.343	0.0147418
621.421	0.0151090
621.499	0.0151044
621.578	0.0149220
621.656	0.0148426
621.734	0.0151139
621.812	0.0150647
621.890	0.0150423
621.968	0.0150356
622.046	0.0150105
622.124	0.0149796
622.203	0.0150008
622.281	0.0150368
622.359	0.0149281
622.437	0.0150273
622.515	0.0149625
622.593	0.0148663
622.671	0.0150500
622.749	0.0149820
622.828	0.0150214
622.906	0.0149835
622.984	0.0149303
623.062	0.0150391
623.140	0.0150246
623.218	0.0149036
623.296	0.0150503
623.374	0.0151593
623.453	0.0149731
623.531	0.0149639
623.609	0.0151297
623.687	0.0151180
623.765	0.0149867
623.843	0.0148971
623.921	0.0150939
623.999	0.0149517
624.078	0.0150300
624.156	0.0150150
624.234	0.0148817
624.312	0.0149670
624.390	0.0149202
624.468	0.0149490
624.546	0.0149207
624.624	0.0150973
624.703	0.0149221
624.781	0.0149500
624.859	0.0149702
624.937	0.0150644
625.015	0.0149693
625.093	0.0149258
625.171	0.0151056
625.249	0.0150818
625.328	0.0150700
625.406	0.0151295
625.484	0.0151283
625.562	0.0150240
625.640	0.0149998
625.718	0.0149562
625.796	0.0150374
625.874	0.0148476
625.953	0.0149908
626.031	0.0150890
626.109	0.0148512
626.187	0.0148230
626.265	0.0150327
626.343	0.0149495
626.421	0.0150468
626.499	0.0150327
626.578	0.0150152
626.656	0.0149801
626.734	0.0150330
626.812	0.0150082
626.890	0.0150299
626.968	0.0150713
627.046	0.0149125
627.124	0.0149209
627.203	0.0151014
627.281	0.0150088
627.359	0.0149874
627.437	0.0151167
627.515	0.0149521
627.593	0.0149318
627.671	0.0150365
627.749	0.0149709
627.828	0.0150520
627.906	0.0148592
627.984	0.0149843
628.062	0.0149840
628.140	0.0149863
628.218	0.0151187
628.296	0.0150974
628.374	0.0149696
628.453	0.0150591
628.531	0.0150404
628.609	0.0152551
628.687	0.0150855
628.765	0.0150386
628.843	0.0149937
628.921	0.0150705
628.999	0.0151960
629.078	0.0151001
629.156	0.0151234
629.234	0.0151939
629.312	0.0151079
629.390	0.0151234
629.468	0.0150005
629.546	0.0151140
629.624	0.0152019
629.703	0.0151036
629.781	0.0150587
629.859	0.0151097
629.937	0.0151539
630.015	0.0152288
630.093	0.0151865
630.171	0.0151549
630.249	0.0150331
630.328	0.0150114
630.406	0.0150851
630.484	0.0151073
630.562	0.0149422
630.640	0.0151160
630.718	0.0150931
630.796	0.0150440
630.874	0.0150366
630.953	0.0151635
631.031	0.0150522
631.109	0.0150983
631.187	0.0152031
631.265	0.0149770
631.343	0.0151270
631.421	0.0150602
631.499	0.0151624
631.578	0.0150335
631.656	0.0150245
631.734	0.0152444
631.812	0.0149734
631.890	0.0148229
631.968	0.0148683
632.046	0.0148470
632.124	0.0148507
632.203	0.0148032
632.281	0.0149660
632.359	0.0149464
632.437	0.0148536
632.515	0.0149207
632.593	0.0150645
632.671	0.0150855
632.749	0.0149569
632.828	0.0151251
632.906	0.0152817
632.984	0.0152233
633.062	0.0152089
633.140	0.0152051
633.218	0.0151701
633.296	0.0151328
633.374	0.0151441
633.453	0.0152381
633.531	0.0150684
633.609	0.0151356
633.687	0.0150673
633.765	0.0150028
633.843	0.0149145
633.921	0.0150877
633.999	0.0149500
634.078	0.0149660
634.156	0.0149461
634.234	0.0150293
634.312	0.0148862
634.390	0.0148557
634.468	0.0148177
634.546	0.0148450
634.624	0.0149148
634.703	0.0147197
634.781	0.0148174
634.859	0.0147104
634.937	0.0147615
635.015	0.0147135
635.093	0.0147570
635.171	0.0146668
635.249	0.0146720
635.328	0.0148018
635.406	0.0147910
635.484	0.0147158
635.562	0.0149783
635.640	0.0148080
635.718	0.0149625
635.796	0.0150204
635.874	0.0148672
635.953	0.0150013
636.031	0.0150491
636.109	0.0151586
636.187	0.0152161
636.265	0.0151902
636.343	0.0152911
636.421	0.0151587
636.499	0.0153077
636.578	0.0153952
636.656	0.0153767
636.734	0.0152966
636.812	0.0154386
636.890	0.0152207
636.968	0.0151971
637.046	0.0151750
637.124	0.0150673
637.203	0.0152861
637.281	0.0150458
637.359	0.0150167
637.437	0.0148819
637.515	0.0150102
637.593	0.0147231
637.671	0.0147964
637.749	0.0147946
637.828	0.0145957
637.906	0.0146516
637.984	0.0146555
638.062	0.0148097
638.140	0.0145547
638.218	0.0145881
638.296	0.0146548
638.374	0.0147042
638.453	0.0145602
638.531	0.0145947
638.609	0.0146881
638.687	0.0147548
638.765	0.0145524
638.843	0.0148843
638.921	0.0147572
638.999	0.0148592
639.078	0.0149268
639.156	0.0149552
639.234	0.0151253
639.312	0.0151458
639.390	0.0152666
639.468	0.0152837
639.546	0.0152267
639.624	0.0152496
639.703	0.0153732
639.781	0.0155141
639.859	0.0154902
639.937	0.0154487
640.015	0.0152569
640.093	0.0152880
640.171	0.0153796
640.249	0.0153928
640.328	0.0153164
640.406	0.0151911
640.484	0.0151250
640.562	0.0151142
640.640	0.0152647
640.718	0.0150583
640.796	0.0149706
640.874	0.0150294
640.953	0.0149908
641.031	0.0148421
641.109	0.0148463
641.187	0.0149210
641.265	0.0146661
641.343	0.0145998
641.421	0.0145422
641.499	0.0144565
641.578	0.0143599
641.656	0.0143062
641.734	0.0145154
641.812	0.0144165
641.890	0.0142954
641.968	0.0143901
642.046	0.0143648
642.124	0.0144824
642.203	0.0144794
642.281	0.0144687
642.359	0.0143275
642.437	0.0144980
642.515	0.0148069
642.593	0.0147311
642.671	0.0147981
642.749	0.0148516
642.828	0.0149601
642.906	0.0149950
642.984	0.0151353
643.062	0.0152199
643.140	0.0152816
643.218	0.0154907
643.296	0.0154990
643.374	0.0156052
643.453	0.0157185
643.531	0.0157129
643.609	0.0158096
643.687	0.0157578
643.765	0.0157420
643.843	0.0156693
643.921	0.0156934
643.999	0.0156236
644.078	0.0157272
644.156	0.0154547
644.234	0.0153524
644.312	0.0153446
644.390	0.0153526
644.468	0.0152106
644.546	0.0151156
644.624	0.0150531
644.703	0.0150649
644.781	0.0148772
644.859	0.0146836
644.937	0.0147853
645.015	0.0146492
645.093	0.0146160
645.171	0.0146145
645.249	0.0144906
645.328	0.0144013
645.406	0.0142858
645.484	0.0142762
645.562	0.0142278
645.640	0.0142197
645.718	0.0142664
645.796	0.0141876
645.874	0.0141708
645.953	0.0143189
646.031	0.0142077
646.109	0.0143644
646.187	0.0142341
646.265	0.0143195
646.343	0.0145160
646.421	0.0144434
646.499	0.0145438
646.578	0.0148601
646.656	0.0149919
646.734	0.0149948
646.812	0.0151082
646.890	0.0153563
646.968	0.0155042
647.046	0.0156417
647.124	0.0157137
647.203	0.0158808
647.281	0.0158184
647.359	0.0158467
647.437	0.0160748
647.515	0.0159527
647.593	0.0159216
647.671	0.0159084
647.749	0.0158826
647.828	0.0159242
647.906	0.0158803
647.984	0.0158297
648.062	0.0158261
648.140	0.0156848
648.218	0.0157285
648.296	0.0156165
648.374	0.0155871
648.453	0.0156178
648.531	0.0152987
648.609	0.0153059
648.687	0.0150983
648.765	0.0150934
648.843	0.0148803
648.921	0.0146526
648.999	0.0146625
649.078	0.0146428
649.156	0.0144347
649.234	0.0144226
649.312	0.0142907
649.390	0.0140565
649.468	0.0142281
649.546	0.0140897
649.624	0.0139898
649.703	0.0140587
649.781	0.0140010
649.859	0.0141612
649.937	0.0141740
650.015	0.0141960
650.093	0.0141154
650.171	0.0142869
650.249	0.0144675
650.328	0.0144492
650.406	0.0146657
650.484	0.0147485
650.562	0.0151068
650.640	0.0150755
650.718	0.0150892
650.796	0.0153392
650.874	0.0154150
650.953	0.0156544
651.031	0.0155927
651.109	0.0157748
651.187	0.0158297
651.265	0.0159081
651.343	0.0159412
651.421	0.0158737
651.499	0.0159560
651.578	0.0157568
651.656	0.0157723
651.734	0.0158021
651.812	0.0157050
651.890	0.0156062
651.968	0.0156882
652.046	0.0156076
652.124	0.0153769
652.203	0.0152973
652.281	0.0152813
652.359	0.0151913
652.437	0.0150636
652.515	0.0150198
652.593	0.0149079
652.671	0.0146915
652.749	0.0148968
652.828	0.0147892
652.906	0.0146744
652.984	0.0147595
653.062	0.0147446
653.140	0.0145929
653.218	0.0145618
653.296	0.0146279
653.374	0.0146028
653.453	0.0146106
653.531	0.0146120
653.609	0.0145251
653.687	0.0145074
653.765	0.0146070
653.843	0.0146513
653.921	0.0144883
653.999	0.0145822
654.078	0.0144640
654.156	0.0145397
654.234	0.0147349
654.312	0.0147923
654.390	0.0146770
654.468	0.0148664
654.546	0.0149186
654.624	0.0148765
654.703	0.0150169
654.781	0.0150387
654.859	0.0150352
654.937	0.0152711
655.015	0.0151824
655.093	0.0151822
655.171	0.0153934
655.249	0.0153093
655.328	0.0152853
655.406	0.0152496
655.484	0.0152795
655.562	0.0154379
655.640	0.0155230
655.718	0.0152856
655.796	0.0153852
655.874	0.0153786
655.953	0.0154846
656.031	0.0154671
656.109	0.0154351
656.187	0.0154556
656.265	0.0153681
656.343	0.0153262
656.421	0.0154333
656.499	0.0151752
656.578	0.0152467
656.656	0.0152236
656.734	0.0150115
656.812	0.0150478
656.890	0.0150384
656.968	0.0148753
657.046	0.0149344
657.124	0.0148012
657.203	0.0146558
657.281	0.0145183
657.359	0.0146478
657.437	0.0146507
657.515	0.0146976
657.593	0.0145943
657.671	0.0147510
657.749	0.0146675
657.828	0.0145726
657.906	0.0145464
657.984	0.0145676
658.062	0.0145940
658.140	0.0148041
658.218	0.0146417
658.296	0.0145391
658.374	0.0147832
658.453	0.0147669
658.531	0.0147361
658.609	0.0148212
658.687	0.0149570
658.765	0.0150599
658.843	0.0150471
658.921	0.0149990
658.999	0.0150799
659.078	0.0151937
659.156	0.0151014
659.234	0.0152031
659.312	0.0152280
659.390	0.0151064
659.468	0.0151888
659.546	0.0151095
659.624	0.0150240
659.703	0.0150449
659.781	0.0149834
659.859	0.0148872
659.937	0.0150824
660.015	0.0150700
660.093	0.0150077
660.171	0.0149522
660.249	0.0150945
660.328	0.0152023
660.406	0.0150742
660.484	0.0151199
660.562	0.0151180
660.640	0.0150450
660.718	0.0152448
660.796	0.0150703
660.874	0.0149353
660.953	0.0149834
661.031	0.0149136
661.109	0.0148201
661.187	0.0149133
661.265	0.0148091
661.343	0.0148016
661.421	0.0147417
661.499	0.0147894
661.578	0.0149572
661.656	0.0147859
661.734	0.0148088
661.812	0.0149194
661.890	0.0149761
661.968	0.0149613
662.046	0.0149155
662.124	0.0151086
662.203	0.0150880
662.281	0.0150517
662.359	0.0149879
662.437	0.0151574
662.515	0.0151402
662.593	0.0151990
662.671	0.0151786
662.749	0.0152736
662.828	0.0154111
662.906	0.0153207
662.984	0.0152097
663.062	0.0151974
663.140	0.0152728
663.218	0.0151929
663.296	0.0152228
663.374	0.0151479
663.453	0.0153495
663.531	0.0151800
663.609	0.0150862
663.687	0.0150658
663.765	0.0149744
663.843	0.0149026
663.921	0.0150305
663.999	0.0147774
664.078	0.0146358
664.156	0.0148190
664.234	0.0147359
664.312	0.0146755
664.390	0.0146251
664.468	0.0146333
664.546	0.0145100
664.624	0.0145148
664.703	0.0145886
664.781	0.0146339
664.859	0.0144423
664.937	0.0144202
665.015	0.0146048
665.093	0.0145453
665.171	0.0145480
665.249	0.0147262
665.328	0.0147807
665.406	0.0148628
665.484	0.0148635
665.562	0.0150909
665.640	0.0152733
665.718	0.0153666
665.796	0.0153101
665.874	0.0155065
665.953	0.0156393
666.031	0.0156135
666.109	0.0155161
666.187	0.0156090
666.265	0.0156448
666.343	0.0156963
666.421	0.0157887
666.499	0.0157055
666.578	0.0157105
666.656	0.0159712
666.734	0.0155878
666.812	0.0155373
666.890	0.0155586
666.968	0.0154252
667.046	0.0154035
667.124	0.0152703
667.203	0.0153181
667.281	0.0150484
667.359	0.0149787
667.437	0.0148662
667.515	0.0149081
667.593	0.0148705
667.671	0.0146217
667.749	0.0144754
667.828	0.0144450
667.906	0.0145837
667.984	0.0144242
668.062	0.0143069
668.140	0.0142802
668.218	0.0142390
668.296	0.0141246
668.374	0.0143198
668.453	0.0143465
668.531	0.0142648
668.609	0.0143160
668.687	0.0144431
668.765	0.0145050
668.843	0.0146234
668.921	0.0146034
668.999	0.0145825
669.078	0.0146838
669.156	0.0148657
669.234	0.0150085
669.312	0.0148858
669.390	0.0150013
669.468	0.0152353
669.546	0.0153147
669.624	0.0151892
669.703	0.0152454
669.781	0.0153798
669.859	0.0153744
669.937	0.0155449
670.015	0.0155988
670.093	0.0155772
670.171	0.0155483
670.249	0.0154150
670.328	0.0155578
670.406	0.0155721
670.484	0.0156012
670.562	0.0156121
670.640	0.0156573
670.718	0.0155843
670.796	0.0154498
670.874	0.0155512
670.953	0.0153641
671.031	0.0153693
671.109	0.0153906
671.187	0.0152742
671.265	0.0151429
671.343	0.0152132
671.421	0.0150095
671.499	0.0149848
671.578	0.0148147
671.656	0.0146391
671.734	0.0146308
671.812	0.0144545
671.890	0.0144902
671.968	0.0145518
672.046	0.0144019
672.124	0.0144485
672.203	0.0145647
672.281	0.0144369
672.359	0.0142557
672.437	0.0146713
672.515	0.0145007
672.593	0.0144899
672.671	0.0145622
672.749	0.0146699
672.828	0.0147964
672.906	0.0148869
672.984	0.0148271
673.062	0.0147518
673.140	0.0150570
673.218	0.0151466
673.296	0.0152265
673.374	0.0152782
673.453	0.0153706
673.531	0.0155219
673.609	0.0155637
673.687	0.0156064
673.765	0.0155675
673.843	0.0156237
673.921	0.0156274
673.999	0.0155441
674.078	0.0153954
674.156	0.0155075
674.234	0.0156018
674.312	0.0156001
674.390	0.0156341
674.468	0.0157108
674.546	0.0155405
674.624	0.0155419
674.703	0.0154471
674.781	0.0154610
674.859	0.0154481
674.937	0.0152959
675.015	0.0152891
675.093	0.0151516
675.171	0.0150772
675.249	0.0149216
675.328	0.0147999
675.406	0.0146804
675.484	0.0146031
675.562	0.0145955
675.640	0.0145730
675.718	0.0144229
675.796	0.0143575
675.874	0.0144576
675.953	0.0144906
676.031	0.0143950
676.109	0.0143902
676.187	0.0144821
676.265	0.0144989
676.343	0.0146281
676.421	0.0145112
676.499	0.0146692
676.578	0.0148759
676.656	0.0149650
676.734	0.0149368
676.812	0.0150261
676.890	0.0149835
676.968	0.0151276
677.046	0.0152084
677.124	0.0153855
677.203	0.0153092
677.281	0.0153799
677.359	0.0153186
677.437	0.0155852
677.515	0.0155263
677.593	0.0155524
677.671	0.0154357
677.749	0.0155290
677.828	0.0155271
677.906	0.0156141
677.984	0.0153758
678.062	0.0152972
678.140	0.0152354
678.218	0.0153600
678.296	0.0153996
678.374	0.0152126
678.453	0.0152466
678.531	0.0149190
678.609	0.0150295
678.687	0.0149310
678.765	0.0148912
678.843	0.0148558
678.921	0.0147939
678.999	0.0146276
679.078	0.0147211
679.156	0.0146011
679.234	0.0147221
679.312	0.0145666
679.390	0.0144630
679.468	0.0145210
679.546	0.0146058
679.624	0.0144573
679.703	0.0145443
679.781	0.0145262
679.859	0.0144889
679.937	0.0144206
680.015	0.0146970
680.093	0.0147400
680.171	0.0147923
680.249	0.0149601
680.328	0.0147064
680.406	0.0149660
680.484	0.0152267
680.562	0.0151980
680.640	0.0152761
680.718	0.0153414
680.796	0.0153817
680.874	0.0154530
680.953	0.0152774
681.031	0.0154283
681.109	0.0154013
681.187	0.0154295
681.265	0.0155285
681.343	0.0153696
681.421	0.0154057
681.499	0.0152586
681.578	0.0152068
681.656	0.0154395
681.734	0.0152283
681.812	0.0150529
681.890	0.0151293
681.968	0.0149879
682.046	0.0149191
682.124	0.0149117
682.203	0.0149172
682.281	0.0149798
682.359	0.0149140
682.437	0.0148331
682.515	0.0146736
682.593	0.0147641
682.671	0.0147626
682.749	0.0147303
682.828	0.0146815
682.906	0.0146508
682.984	0.0146847
683.062	0.0146797
683.140	0.0146132
683.218	0.0146002
683.296	0.0146735
683.374	0.0147462
683.453	0.0146287
683.531	0.0147304
683.609	0.0149001
683.687	0.0147295
683.765	0.0148849
683.843	0.0150673
683.921	0.0149203
683.999	0.0151720
684.078	0.0151781
684.156	0.0152898
684.234	0.0152003
684.312	0.0152425
684.390	0.0153522
684.468	0.0152457
684.546	0.0153817
684.624	0.0153495
684.703	0.0153078
684.781	0.0152551
684.859	0.0151849
684.937	0.0152321
685.015	0.0153036
685.093	0.0151823
685.171	0.0153278
685.249	0.0151936
685.328	0.0151540
685.406	0.0150344
685.484	0.0149123
685.562	0.0149333
685.640	0.0151533
685.718	0.0150665
685.796	0.0150324
685.874	0.0150616
685.953	0.0149619
686.031	0.0150404
686.109	0.0150428
686.187	0.0149065
686.265	0.0148956
686.343	0.0150089
686.421	0.0147804
686.499	0.0149717
686.578	0.0148811
686.656	0.0148533
686.734	0.0148254
686.812	0.0147732
686.890	0.0147418
686.968	0.0147403
687.046	0.0146758
687.124	0.0146926
687.203	0.0147373
687.281	0.0147120
687.359	0.0146108
687.437	0.0146129
687.515	0.0148175
687.593	0.0147157
687.671	0.0147308
687.749	0.0147957
687.828	0.0148502
687.906	0.0149731
687.984	0.0149213
688.062	0.0149747
688.140	0.0149674
688.218	0.0149730
688.296	0.0150834
688.374	0.0150761
688.453	0.0150512
688.531	0.0150567
688.609	0.0151279
688.687	0.0152278
688.765	0.0152840
688.843	0.0152404
688.921	0.0153954
688.999	0.0154730
689.078	0.0153572
689.156	0.0154498
689.234	0.0152976
689.312	0.0154237
689.390	0.0154306
689.468	0.0152502
689.546	0.0152243
689.624	0.0152283
689.703	0.0151275
689.781	0.0150583
689.859	0.0149132
689.937	0.0148869
690.015	0.0149134
690.093	0.0147659
690.171	0.0147411
690.249	0.0147978
690.328	0.0146873
690.406	0.0146258
690.484	0.0147431
690.562	0.0146844
690.640	0.0147009
690.718	0.0147279
690.796	0.0147452
690.874	0.0146570
690.953	0.0146303
691.031	0.0146318
691.109	0.0146799
691.187	0.0146360
691.265	0.0145387
691.343	0.0146523
691.421	0.0147382
691.499	0.0146998
691.578	0.0147204
691.656	0.0148499
691.734	0.0149549
691.812	0.0149854
691.890	0.0149913
691.968	0.0150728
692.046	0.0150979
692.124	0.0151552
692.203	0.0153138
692.281	0.0152737
692.359	0.0152168
692.437	0.0153024
692.515	0.0153499
692.593	0.0153687
692.671	0.0154630
692.749	0.0155511
692.828	0.0155666
692.906	0.0154943
692.984	0.0154760
693.062	0.0154074
693.140	0.0152487
693.218	0.0153145
693.296	0.0151788
693.374	0.0151514
693.453	0.0151077
693.531	0.0149525
693.609	0.0149058
693.687	0.0148703
693.765	0.0149604
693.843	0.0148164
693.921	0.0147588
693.999	0.0147313
694.078	0.0147229
694.156	0.0146456
694.234	0.0146704
694.312	0.0146263
694.390	0.0146796
694.468	0.0145802
694.546	0.0145913
694.624	0.0145683
694.703	0.0145045
694.781	0.0145583
694.859	0.0147871
694.937	0.0145992
695.015	0.0147020
695.093	0.0147180
695.171	0.0149017
695.249	0.0149974
695.328	0.0150292
695.406	0.0151784
695.484	0.0150265
695.562	0.0153142
695.640	0.0153798
695.718	0.0154321
695.796	0.0153806
695.874	0.0154213
695.953	0.0153810
696.031	0.0154285
696.109	0.0154855
696.187	0.0152936
696.265	0.0153983
696.343	0.0154190
696.421	0.0153735
696.499	0.0153006
696.578	0.0151900
696.656	0.0152800
696.734	0.0152895
696.812	0.0151321
696.890	0.0151466
696.968	0.0149734
697.046	0.0149853
697.124	0.0148395
697.203	0.0148740
697.281	0.0147623
697.359	0.0147224
697.437	0.0148659
697.515	0.0148392
697.593	0.0147701
697.671	0.0146357
697.749	0.0146231
697.828	0.0147260
697.906	0.0145786
697.984	0.0145158
698.062	0.0147590
698.140	0.0146761
698.218	0.0145444
698.296	0.0145603
698.374	0.0145556
698.453	0.0145521
698.531	0.0146837
698.609	0.0147808
698.687	0.0145549
698.765	0.0147937
698.843	0.0147732
698.921	0.0148725
698.999	0.0150526
699.078	0.0150088
699.156	0.0150114
699.234	0.0151825
699.312	0.0150343
699.390	0.0151697
699.468	0.0151694
699.546	0.0151907
699.624	0.0152816
699.703	0.0151849
699.781	0.0153050
699.859	0.0154181
699.937	0.0153153
700.015	0.0155019
700.093	0.0153262
700.171	0.0153346
700.249	0.0155022
700.328	0.0154388
700.406	0.0154267
700.484	0.0154320
700.562	0.0154052
700.640	0.0153114
700.718	0.0153847
700.796	0.0153235
700.874	0.0152457
700.953	0.0151438
701.031	0.0149886
701.109	0.0149570
701.187	0.0149010
701.265	0.0148495
701.343	0.0148769
701.421	0.0147355
701.499	0.0147213
701.578	0.0145809
701.656	0.0144008
701.734	0.0144887
701.812	0.0145642
701.890	0.0146475
701.968	0.0146054
702.046	0.0146027
702.124	0.0146109
702.203	0.0145404
702.281	0.0147414
702.359	0.0147134
702.437	0.0146796
702.515	0.0147224
702.593	0.0149071
702.671	0.0148806
702.749	0.0148947
702.828	0.0150115
702.906	0.0151872
702.984	0.0151701
703.062	0.0152480
703.140	0.0152855
703.218	0.0152319
703.296	0.0153428
703.374	0.0152005
703.453	0.0154368
703.531	0.0154594
703.609	0.0155447
703.687	0.0155044
703.765	0.0156056
703.843	0.0154622
703.921	0.0154243
703.999	0.0155835
704.078	0.0153360
704.156	0.0153349
704.234	0.0153481
704.312	0.0153944
704.390	0.0153711
704.468	0.0151129
704.546	0.0151587
704.624	0.0151447
704.703	0.0150842
704.781	0.0148995
704.859	0.0148395
704.937	0.0148235
705.015	0.0147417
705.093	0.0149403
705.171	0.0147961
705.249	0.0146004
705.328	0.0145973
705.406	0.0146724
705.484	0.0146636
705.562	0.0145775
705.640	0.0145068
705.718	0.0145540
705.796	0.0147491
705.874	0.0147504
705.953	0.0147890
706.031	0.0148802
706.109	0.0148535
706.187	0.0148021
706.265	0.0150328
706.343	0.0149882
706.421	0.0149730
706.499	0.0149641
706.578	0.0150427
706.656	0.0149806
706.734	0.0149654
706.812	0.0151797
706.890	0.0151615
706.968	0.0153301
707.046	0.0152027
707.124	0.0152528
707.203	0.0153741
707.281	0.0151727
707.359	0.0153883
707.437	0.0154343
707.515	0.0153645
707.593	0.0153505
707.671	0.0153902
707.749	0.0153923
707.828	0.0152572
707.906	0.0152065
707.984	0.0152186
708.062	0.0151791
708.140	0.0151218
708.218	0.0152169
708.296	0.0151820
708.374	0.0149953
708.453	0.0150351
708.531	0.0150200
708.609	0.0149492
708.687	0.0148361
708.765	0.0147816
708.843	0.0147040
708.921	0.0147362
708.999	0.0147969
709.078	0.0146970
709.156	0.0146218
709.234	0.0148000
709.312	0.0146986
709.390	0.0146983
709.468	0.0146558
709.546	0.0146482
709.624	0.0147342
709.703	0.0147160
709.781	0.0146809
709.859	0.0147158
709.937	0.0147118
710.015	0.0146922
710.093	0.0148792
710.171	0.0147314
710.249	0.0147989
710.328	0.0148289
710.406	0.0149947
710.484	0.0148270
710.562	0.0151160
710.640	0.0150900
710.718	0.0150603
710.796	0.0151496
710.874	0.0152827
710.953	0.0154210
711.031	0.0152480
711.109	0.0152869
711.187	0.0153998
711.265	0.0154568
711.343	0.0154314
711.421	0.0154752
711.499	0.0152421
711.578	0.0153054
711.656	0.0154630
711.734	0.0153246
711.812	0.0152686
711.890	0.0152313
711.968	0.0151981
712.046	0.0150773
712.124	0.0152988
712.203	0.0151476
712.281	0.0149242
712.359	0.0148811
712.437	0.0148806
712.515	0.0149312
712.593	0.0148772
712.671	0.0148736
712.749	0.0146288
712.828	0.0145139
712.906	0.0144865
712.984	0.0145643
713.062	0.0145749
713.140	0.0145750
713.218	0.0145901
713.296	0.0145476
713.374	0.0145451
713.453	0.0146074
713.531	0.0147372
713.609	0.0145899
713.687	0.0146707
713.765	0.0146114
713.843	0.0147774
713.921	0.0148196
713.999	0.0149951
714.078	0.0150332
714.156	0.0149593
714.234	0.0149782
714.312	0.0150896
714.390	0.0150330
714.468	0.0151301
714.546	0.0151257
714.624	0.0151338
714.703	0.0153000
714.781	0.0152929
714.859	0.0153118
714.937	0.0152057
715.015	0.0152705
715.093	0.0153773
715.171	0.0153239
715.249	0.0151377
715.328	0.0154089
715.406	0.0152979
715.484	0.0151833
715.562	0.0152299
715.640	0.0152556
715.718	0.0151513
715.796	0.0150406
715.874	0.0150895
715.953	0.0149506
716.031	0.0148698
716.109	0.0148856
716.187	0.0148555
716.265	0.0146759
716.343	0.0146207
716.421	0.0146527
716.499	0.0146265
716.578	0.0145334
716.656	0.0146607
716.734	0.0146542
716.812	0.0144904
716.890	0.0146347
716.968	0.0145847
717.046	0.0147103
717.124	0.0146604
717.203	0.0145811
717.281	0.0147342
717.359	0.0147688
717.437	0.0147166
717.515	0.0147524
717.593	0.0148194
717.671	0.0148107
717.749	0.0148672
717.828	0.0148965
717.906	0.0149393
717.984	0.0149754
718.062	0.0150190
718.140	0.0150981
718.218	0.0151962
718.296	0.0151776
718.374	0.0152423
718.453	0.0150952
718.531	0.0150969
718.609	0.0153162
718.687	0.0151616
718.765	0.0152077
718.843	0.0153023
718.921	0.0152747
718.999	0.0151519
719.078	0.0152119
719.156	0.0151707
719.234	0.0152044
719.312	0.0151232
719.390	0.0152512
719.468	0.0151585
719.546	0.0149435
719.624	0.0150248
719.703	0.0149780
719.781	0.0148656
719.859	0.0149923
719.937	0.0148882
720.015	0.0147950
720.093	0.0146874
720.171	0.0148263
720.249	0.0147227
720.328	0.0146612
720.406	0.0146027
720.484	0.0147119
720.562	0.0147886
720.640	0.0147083
720.718	0.0147536
720.796	0.0147564
720.874	0.0147894
720.953	0.0148478
721.031	0.0147944
721.109	0.0147885
721.187	0.0148109
721.265	0.0149561
721.343	0.0148965
721.421	0.0150231
721.499	0.0150583
721.578	0.0148967
721.656	0.0149644
721.734	0.0150017
721.812	0.0150488
721.890	0.0151221
721.968	0.0152800
722.046	0.0153300
722.124	0.0152238
722.203	0.0152538
722.281	0.0152953
722.359	0.0152959
722.437	0.0153186
722.515	0.0153385
722.593	0.0153455
722.671	0.0152642
722.749	0.0152460
722.828	0.0153629
722.906	0.0153066
722.984	0.0152996
723.062	0.0153049
723.140	0.0152103
723.218	0.0152349
723.296	0.0151733
723.374	0.0151247
723.453	0.0150301
723.531	0.0151190
723.609	0.0149269
723.687	0.0149333
723.765	0.0147523
723.843	0.0147150
723.921	0.0148402
723.999	0.0147060
724.078	0.0146658
724.156	0.0148418
724.234	0.0146940
724.312	0.0147793
724.390	0.0146530
724.468	0.0148620
724.546	0.0147015
724.624	0.0147164
724.703	0.0147752
724.781	0.0148457
724.859	0.0148155
724.937	0.0149850
725.015	0.0149572
725.093	0.0150007
725.171	0.0150921
725.249	0.0151258
725.328	0.0151490
725.406	0.0151735
725.484	0.0151671
725.562	0.0151840
725.640	0.0152417
725.718	0.0152699
725.796	0.0152059
725.874	0.0152313
725.953	0.0153131
726.031	0.0152232
726.109	0.0152468
726.187	0.0152361
726.265	0.0152762
726.343	0.0152488
726.421	0.0151128
726.499	0.0151814
726.578	0.0151989
726.656	0.0150832
726.734	0.0150179
726.812	0.0149947
726.890	0.0151338
726.968	0.0148796
727.046	0.0150375
727.124	0.0150703
727.203	0.0149104
727.281	0.0149118
727.359	0.0147693
727.437	0.0148906
727.515	0.0148833
727.593	0.0147848
727.671	0.0145222
727.749	0.0146440
727.828	0.0147146
727.906	0.0146856
727.984	0.0147101
728.062	0.0146951
728.140	0.0145601
728.218	0.0145631
728.296	0.0146394
728.374	0.0147147
728.453	0.0148605
728.531	0.0146438
728.609	0.0146566
728.687	0.0149301
728.765	0.0148910
728.843	0.0149306
728.921	0.0148963
728.999	0.0148782
729.078	0.0149641
729.156	0.0151125
729.234	0.0151984
729.312	0.0151261
729.390	0.0150826
729.468	0.0151237
729.546	0.0150095
729.624	0.0151648
729.703	0.0152522
729.781	0.0153342
729.859	0.0150763
729.937	0.0152132
730.015	0.0152775
730.093	0.0150106
730.171	0.0151225
730.249	0.0151813
730.328	0.0150764
730.406	0.0151257
730.484	0.0151302
730.562	0.0150083
730.640	0.0150207
730.718	0.0150281
730.796	0.0150513
730.874	0.0148920
730.953	0.0149712
731.031	0.0148560
731.109	0.0147439
731.187	0.0147520
731.265	0.0147656
731.343	0.0148635
731.421	0.0148785
731.499	0.0146712
731.578	0.0148079
731.656	0.0146146
731.734	0.0146996
731.812	0.0148554
731.890	0.0148085
731.968	0.0146650
732.046	0.0147933
732.124	0.0147263
732.203	0.0147253
732.281	0.0149107
732.359	0.0149015
732.437	0.0148419
732.515	0.0150408
732.593	0.0151169
732.671	0.0151424
732.749	0.0150195
732.828	0.0150864
732.906	0.0150705
732.984	0.0150980
733.062	0.0151980
733.140	0.0150608
733.218	0.0151823
733.296	0.0151094
733.374	0.0151834
733.453	0.0150940
733.531	0.0149515
733.609	0.0150917
733.687	0.0151669
733.765	0.0151470
733.843	0.0150303
733.921	0.0151641
733.999	0.0151611
734.078	0.0151323
734.156	0.0151206
734.234	0.0151329
734.312	0.0151212
734.390	0.0149676
734.468	0.0150067
734.546	0.0149718
734.624	0.0148383
734.703	0.0147729
734.781	0.0148457
734.859	0.0148508
734.937	0.0148109
735.015	0.0146925
735.093	0.0148003
735.171	0.0148552
735.249	0.0147777
735.328	0.0148843
735.406	0.0147736
735.484	0.0147806
735.562	0.0147453
735.640	0.0147746
735.718	0.0147829
735.796	0.0147751
735.874	0.0149028
735.953	0.0147578
736.031	0.0147441
736.109	0.0150201
736.187	0.0151125
736.265	0.0148889
736.343	0.0148819
736.421	0.0149246
736.499	0.0150440
736.578	0.0150266
736.656	0.0149823
736.734	0.0149853
736.812	0.0149220
736.890	0.0150993
736.968	0.0150120
737.046	0.0150114
737.124	0.0151122
737.203	0.0151049
737.281	0.0150645
737.359	0.0152966
737.437	0.0151061
737.515	0.0151323
737.593	0.0152945
737.671	0.0152176
737.749	0.0151915
737.828	0.0152121
737.906	0.0150881
737.984	0.0149927
738.062	0.0151196
738.140	0.0151381
738.218	0.0149454
738.296	0.0149526
738.374	0.0148424
738.453	0.0146730
738.531	0.0148107
738.609	0.0147008
738.687	0.0147543
738.765	0.0145774
738.843	0.0146334
738.921	0.0146467
738.999	0.0147268
739.078	0.0145592
739.156	0.0147169
739.234	0.0146170
739.312	0.0146879
739.390	0.0148705
739.468	0.0147387
739.546	0.0149844
739.624	0.0148050
739.703	0.0148441
739.781	0.0149403
739.859	0.0150264
739.937	0.0148502
740.015	0.0149590
740.093	0.0150260
740.171	0.0150070
740.249	0.0150407
740.328	0.0151992
740.406	0.0150140
740.484	0.0150940
740.562	0.0150447
740.640	0.0150695
740.718	0.0150219
740.796	0.0151074
740.874	0.0151602
740.953	0.0152491
741.031	0.0151820
741.109	0.0151366
741.187	0.0151646
741.265	0.0152558
741.343	0.0151173
741.421	0.0150359
741.499	0.0150243
741.578	0.0149783
741.656	0.0149400
741.734	0.0150492
741.812	0.0151064
741.890	0.0149818
741.968	0.0148986
742.046	0.0148604
742.124	0.0148808
742.203	0.0148543
742.281	0.0147874
742.359	0.0147230
742.437	0.0149026
742.515	0.0146299
742.593	0.0147668
742.671	0.0148351
742.749	0.0148356
742.828	0.0147268
742.906	0.0148304
742.984	0.0148287
743.062	0.0146821
743.140	0.0148566
743.218	0.0148905
743.296	0.0149103
743.374	0.0149123
743.453	0.0149454
743.531	0.0150556
743.609	0.0149926
743.687	0.0149633
743.765	0.0150832
743.843	0.0151716
743.921	0.0150037
743.999	0.0150465
744.078	0.0151997
744.156	0.0152091
744.234	0.0151613
744.312	0.0152790
744.390	0.0152343
744.468	0.0151859
744.546	0.0152128
744.624	0.0154205
744.703	0.0153296
744.781	0.0151608
744.859	0.0151486
744.937	0.0153727
745.015	0.0151273
745.093	0.0152428
745.171	0.0152370
745.249	0.0153482
745.328	0.0150964
745.406	0.0152530
745.484	0.0151410
745.562	0.0150677
745.640	0.0152201
745.718	0.0149979
745.796	0.0149659
745.874	0.0148462
745.953	0.0149006
746.031	0.0149615
746.109	0.0149159
746.187	0.0148524
746.265	0.0148631
746.343	0.0149767
746.421	0.0147952
746.499	0.0147061
746.578	0.0148672
746.656	0.0148551
746.734	0.0148598
746.812	0.0147810
746.890	0.0148785
746.968	0.0149884
747.046	0.0149609
747.124	0.0149798
747.203	0.0149795
747.281	0.0149168
747.359	0.0150959
747.437	0.0151257
747.515	0.0151066
747.593	0.0150891
747.671	0.0152089
747.749	0.0150967
747.828	0.0151541
747.906	0.0151620
747.984	0.0151473
748.062	0.0152831
748.140	0.0152999
748.218	0.0152753
748.296	0.0151011
748.374	0.0152858
748.453	0.0152441
748.531	0.0151369
748.609	0.0153907
748.687	0.0152848
748.765	0.0152534
748.843	0.0152689
748.921	0.0152973
748.999	0.0151131
749.078	0.0151580
749.156	0.0152746
749.234	0.0151672
749.312	0.0151083
749.390	0.0151162
749.468	0.0151129
749.546	0.0150701
749.624	0.0150006
749.703	0.0148093
749.781	0.0149744
749.859	0.0148832
749.937	0.0149241
750.015	0.0149243
750.093	0.0148950
750.171	0.0148557
750.249	0.0148142
750.328	0.0149287
750.406	0.0147514
750.484	0.0148212
750.562	0.0148257
750.640	0.0148849
750.718	0.0148245
750.796	0.0148188
750.874	0.0150005
750.953	0.0148816
751.031	0.0148523
751.109	0.0148812
751.187	0.0149194
751.265	0.0148963
751.343	0.0149067
751.421	0.0150197
751.499	0.0150712
751.578	0.0151163
751.656	0.0150538
751.734	0.0151604
751.812	0.0150742
751.890	0.0150608
751.968	0.0152078
752.046	0.0151188
752.124	0.0150046
752.203	0.0150980
752.281	0.0150067
752.359	0.0151707
752.437	0.0152856
752.515	0.0150752
752.593	0.0151992
752.671	0.0151846
752.749	0.0151627
752.828	0.0150780
752.906	0.0151283
752.984	0.0151092
753.062	0.0149993
753.140	0.0150936
753.218	0.0150017
753.296	0.0149005
753.374	0.0149887
753.453	0.0150043
753.531	0.0148786
753.609	0.0147257
753.687	0.0148621
753.765	0.0148161
753.843	0.0148337
753.921	0.0148817
753.999	0.0147892
754.078	0.0148322
754.156	0.0147982
754.234	0.0148746
754.312	0.0148650
754.390	0.0149068
754.468	0.0147877
754.546	0.0149291
754.624	0.0148595
754.703	0.0148994
754.781	0.0147810
754.859	0.0148771
754.937	0.0148672
755.015	0.0148923
755.093	0.0148782
755.171	0.0149477
755.249	0.0150013
755.328	0.0150065
755.406	0.0149976
755.484	0.0148915
755.562	0.0149310
755.640	0.0151559
755.718	0.0149665
755.796	0.0149919
755.874	0.0150473
755.953	0.0150504
756.031	0.0151073
756.109	0.0150991
756.187	0.0151332
756.265	0.0151939
756.343	0.0152356
756.421	0.0150297
756.499	0.0151658
756.578	0.0152291
756.656	0.0150369
756.734	0.0151825
756.812	0.0151967
756.890	0.0151331
756.968	0.0151385
757.046	0.0151139
757.124	0.0150432
757.203	0.0150370
757.281	0.0150766
757.359	0.0150784
757.437	0.0151581
757.515	0.0149177
757.593	0.0148039
757.671	0.0150116
757.749	0.0149592
757.828	0.0148164
757.906	0.0148822
757.984	0.0148508
758.062	0.0149818
758.140	0.0149770
758.218	0.0149853
758.296	0.0148933
758.374	0.0150508
758.453	0.0150220
758.531	0.0151124
758.609	0.0150016
758.687	0.0152242
758.765	0.0150246
758.843	0.0148991
758.921	0.0151904
758.999	0.0151537
759.078	0.0150854
759.156	0.0151466
759.234	0.0152083
759.312	0.0151009
759.390	0.0149611
759.468	0.0151466
759.546	0.0151276
759.624	0.0151010
759.703	0.0150948
759.781	0.0150739
759.859	0.0151237
759.937	0.0150291
760.015	0.0149715
760.093	0.0150851
760.171	0.0150243
760.249	0.0150248
760.328	0.0149990
760.406	0.0149452
760.484	0.0150317
760.562	0.0150730
760.640	0.0150364
760.718	0.0150272
760.796	0.0149982
760.874	0.0149545
760.953	0.0149082
761.031	0.0149516
761.109	0.0151134
761.187	0.0149975
761.265	0.0149834
761.343	0.0149677
761.421	0.0149043
761.499	0.0150066
761.578	0.0148489
761.656	0.0148750
761.734	0.0149510
761.812	0.0150049
761.890	0.0149470
761.968	0.0149652
762.046	0.0149704
762.124	0.0150906
762.203	0.0149934
762.281	0.0149506
762.359	0.0150497
762.437	0.0149427
762.515	0.0149680
762.593	0.0151333
762.671	0.0151109
762.749	0.0149523
762.828	0.0150179
762.906	0.0151902
762.984	0.0152055
763.062	0.0150841
763.140	0.0151888
763.218	0.0151424
763.296	0.0150242
763.374	0.0151090
763.453	0.0151442
763.531	0.0151041
763.609	0.0150812
763.687	0.0151852
763.765	0.0151125
763.843	0.0151577
763.921	0.0151039
763.999	0.0150894
764.078	0.0152106
764.156	0.0152451
764.234	0.0151450
764.312	0.0152190
764.390	0.0151038
764.468	0.0148606
764.546	0.0149206
764.624	0.0150369
764.703	0.0149564
764.781	0.0149358
764.859	0.0150042
764.937	0.0148901
765.015	0.0148304
765.093	0.0147765
765.171	0.0148079
765.249	0.0150083
765.328	0.0149898
765.406	0.0147748
765.484	0.0148105
765.562	0.0148343
765.640	0.0149263
765.718	0.0148905
765.796	0.0149348
765.874	0.0151017
765.953	0.0149423
766.031	0.0149070
766.109	0.0149940
766.187	0.0150758
766.265	0.0150885
766.343	0.0150502
766.421	0.0151448
766.499	0.0150889
766.578	0.0150771
766.656	0.0150877
766.734	0.0150227
766.812	0.0150675
766.890	0.0150895
766.968	0.0151676
767.046	0.0151162
767.124	0.0152033
767.203	0.0151421
767.281	0.0151439
767.359	0.0151974
767.437	0.0151134
767.515	0.0150054
767.593	0.0151067
767.671	0.0150121
767.749	0.0150132
767.828	0.0149912
767.906	0.0148923
767.984	0.0150406
768.062	0.0149769
768.140	0.0150285
768.218	0.0149673
768.296	0.0150397
768.374	0.0150146
768.453	0.0148875
768.531	0.0149635
768.609	0.0150094
768.687	0.0150583
768.765	0.0150369
768.843	0.0151170
768.921	0.0151839
768.999	0.0149982
769.078	0.0151053
769.156	0.0151383
769.234	0.0150230
769.312	0.0150745
769.390	0.0151569
769.468	0.0150187
769.546	0.0150452
769.624	0.0149078
769.703	0.0149862
769.781	0.0150445
769.859	0.0149540
769.937	0.0149266
770.015	0.0149276
770.093	0.0149438
770.171	0.0150194
770.249	0.0149705
770.328	0.0149290
770.406	0.0149725
770.484	0.0150725
770.562	0.0148724
770.640	0.0149265
770.718	0.0149687
770.796	0.0150027
770.874	0.0151553
770.953	0.0150053
771.031	0.0151628
771.109	0.0151257
771.187	0.0151430
771.265	0.0151208
771.343	0.0153180
771.421	0.0152081
771.499	0.0150208
771.578	0.0149805
771.656	0.0150887
771.734	0.0151162
771.812	0.0150845
771.890	0.0151986
771.968	0.0151232
772.046	0.0149930
772.124	0.0150108
772.203	0.0150539
772.281	0.0150286
772.359	0.0149593
772.437	0.0149682
772.515	0.0149470
772.593	0.0149587
772.671	0.0149004
772.749	0.0148834
772.828	0.0148785
772.906	0.0148695
772.984	0.0147491
773.062	0.0148299
773.140	0.0147004
773.218	0.0148177
773.296	0.0149783
773.374	0.0151086
773.453	0.0148643
773.531	0.0148930
773.609	0.0150104
773.687	0.0149892
773.765	0.0150163
773.843	0.0149954
773.921	0.0149982
773.999	0.0149957
774.078	0.0150612
774.156	0.0151444
774.234	0.0151112
774.312	0.0150285
774.390	0.0152519
774.468	0.0150459
774.546	0.0150315
774.624	0.0151632
774.703	0.0150555
774.781	0.0150291
774.859	0.0151196
774.937	0.0151849
775.015	0.0148521
775.093	0.0149097
775.171	0.0150720
775.249	0.0148940
775.328	0.0149627
775.406	0.0149089
775.484	0.0148209
775.562	0.0149091
775.640	0.0149348
775.718	0.0150070
775.796	0.0150729
775.874	0.0148862
775.953	0.0149622
776.031	0.0150391
776.109	0.0148300
776.187	0.0148347
776.265	0.0150758
776.343	0.0149929
776.421	0.0149908
776.499	0.0150900
776.578	0.0149660
776.656	0.0150061
776.734	0.0150189
776.812	0.0148909
776.890	0.0148824
776.968	0.0150279
777.046	0.0149377
777.124	0.0148064
777.203	0.0149316
777.281	0.0150475
777.359	0.0148634
777.437	0.0149170
777.515	0.0149169
777.593	0.0148914
777.671	0.0148396
777.749	0.0150188
777.828	0.0150976
777.906	0.0150603
777.984	0.0149854
778.062	0.0149864
778.140	0.0151160
778.218	0.0151842
778.296	0.0150919
778.374	0.0151395
778.453	0.0151137
778.531	0.0150276
778.609	0.0152126
778.687	0.0152594
778.765	0.0151987
778.843	0.0150870
778.921	0.0151445
778.999	0.0150261
779.078	0.0150951
779.156	0.0150856
779.234	0.0150442
779.312	0.0150858
779.390	0.0150593
779.468	0.0150356
779.546	0.0149647
779.624	0.0150746
779.703	0.0148499
779.781	0.0148393
779.859	0.0151131
779.937	0.0149332
780.015	0.0149435
780.093	0.0149722
780.171	0.0151160
780.249	0.0151220
780.328	0.0151417
780.406	0.0152267
780.484	0.0149930
780.562	0.0151098
780.640	0.0151202
780.718	0.0152179
780.796	0.0151512
780.874	0.0152717
780.953	0.0151380
781.031	0.0151268
781.109	0.0152293
781.187	0.0151549
781.265	0.0150532
781.343	0.0151673
781.421	0.0151810
781.499	0.0151658
781.578	0.0150420
781.656	0.0150036
781.734	0.0149430
781.812	0.0149777
781.890	0.0149735
781.968	0.0149781
782.046	0.0149897
782.124	0.0151934
782.203	0.0150916
782.281	0.0150806
782.359	0.0149749
782.437	0.0151299
782.515	0.0151172
782.593	0.0150129
782.671	0.0152185
782.749	0.0152434
782.828	0.0150424
782.906	0.0151380
782.984	0.0151848
783.062	0.0151162
783.140	0.0150288
783.218	0.0151537
783.296	0.0149825
783.374	0.0150537
783.453	0.0150719
783.531	0.0148505
783.609	0.0150735
783.687	0.0149648
783.765	0.0148550
783.843	0.0150138
783.921	0.0149708
783.999	0.0149374
784.078	0.0149983
784.156	0.0150768
784.234	0.0148904
784.312	0.0148827
784.390	0.0151420
784.468	0.0149535
784.546	0.0150735
784.624	0.0149966
784.703	0.0150794
784.781	0.0149380
784.859	0.0151721
784.937	0.0151505
785.015	0.0150282
785.093	0.0149945
785.171	0.0151296
785.249	0.0151774
785.328	0.0150239
785.406	0.0150391
785.484	0.0149836
785.562	0.0150130
785.640	0.0150156
785.718	0.0150934
785.796	0.0150660
785.874	0.0150775
785.953	0.0150609
786.031	0.0149633
786.109	0.0150407
786.187	0.0151962
786.265	0.0151937
786.343	0.0151633
786.421	0.0152928
786.499	0.0151772
786.578	0.0151086
786.656	0.0151282
786.734	0.0150474
786.812	0.0150717
786.890	0.0148769
786.968	0.0151458
787.046	0.0151841
787.124	0.0149174
787.203	0.0149827
787.281	0.0148817
787.359	0.0148452
787.437	0.0148734
787.515	0.0148988
787.593	0.0151286
787.671	0.0151059
787.749	0.0149722
787.828	0.0149135
787.906	0.0149110
787.984	0.0149197
788.062	0.0150420
788.140	0.0150695
788.218	0.0149824
788.296	0.0150139
788.374	0.0149579
788.453	0.0149636
788.531	0.0150593
788.609	0.0150022
788.687	0.0151648
788.765	0.0149456
788.843	0.0151519
788.921	0.0151892
788.999	0.0150800
789.078	0.0151298
789.156	0.0151449
789.234	0.0151630
789.312	0.0150488
789.390	0.0152681
789.468	0.0149807
789.546	0.0151541
789.624	0.0151217
789.703	0.0151107
789.781	0.0149987
789.859	0.0150076
789.937	0.0149658
790.015	0.0150999
790.093	0.0150362
790.171	0.0151514
790.249	0.0151107
790.328	0.0151501
790.406	0.0150968
790.484	0.0149516
790.562	0.0150494
790.640	0.0150320
790.718	0.0150105
790.796	0.0151892
790.874	0.0150236
790.953	0.0150471
791.031	0.0151359
791.109	0.0150768
791.187	0.0149077
791.265	0.0149820
791.343	0.0149475
791.421	0.0150803
791.499	0.0149635
791.578	0.0149825
791.656	0.0148012
791.734	0.0150364
791.812	0.0149746
791.890	0.0149422
791.968	0.0149523
792.046	0.0150226
792.124	0.0148126
792.203	0.0148209
792.281	0.0149252
792.359	0.0149182
792.437	0.0149959
792.515	0.0149386
792.593	0.0149450
792.671	0.0149634
792.749	0.0149495
792.828	0.0150365
792.906	0.0150888
792.984	0.0149843
793.062	0.0149348
793.140	0.0149583
793.218	0.0150349
793.296	0.0149920
793.374	0.0150534
793.453	0.0151576
793.531	0.0150173
793.609	0.0149108
793.687	0.0149993
793.765	0.0151088
793.843	0.0151640
793.921	0.0151210
793.999	0.0151342
794.078	0.0149989
794.156	0.0150470
794.234	0.0149962
794.312	0.0149389
794.390	0.0149308
794.468	0.0148691
794.546	0.0149656
794.624	0.0148872
794.703	0.0149786
794.781	0.0149971
794.859	0.0149068
794.937	0.0148906
795.015	0.0148665
795.093	0.0149650
795.171	0.0150257
795.249	0.0149467
795.328	0.0149204
795.406	0.0149322
795.484	0.0148218
795.562	0.0149254
795.640	0.0149287
795.718	0.0148542
795.796	0.0148444
795.874	0.0148382
795.953	0.0148608
796.031	0.0149137
796.109	0.0150031
796.187	0.0148235
796.265	0.0148913
796.343	0.0149040
796.421	0.0149426
796.499	0.0149026
796.578	0.0150111
796.656	0.0151159
796.734	0.0150715
796.812	0.0149533
796.890	0.0151629
796.968	0.0149749
797.046	0.0150703
797.124	0.0150245
797.203	0.0150000
797.281	0.0150493
797.359	0.0150320
797.437	0.0149012
797.515	0.0149155
797.593	0.0150385
797.671	0.0149509
797.749	0.0150404
797.828	0.0150607
797.906	0.0148863
797.984	0.0149119
798.062	0.0148356
798.140	0.0150474
798.218	0.0149463
798.296	0.0149034
798.374	0.0149738
798.453	0.0150087
798.531	0.0150947
798.609	0.0151034
798.687	0.0150946
798.765	0.0151896
798.843	0.0151055
798.921	0.0150799
798.999	0.0151430
799.078	0.0151866
799.156	0.0151389
799.234	0.0150226
799.312	0.0150737
799.390	0.0149362
799.468	0.0149274
799.546	0.0149085
799.624	0.0149313
799.703	0.0148415
799.781	0.0149294
799.859	0.0147961
799.937	0.0148376
800.015	0.0149693
800.093	0.0148875
800.171	0.0148522
800.249	0.0148304
800.328	0.0149908
800.406	0.0149373
800.484	0.0150013
800.562	0.0149850
800.640	0.0151823
800.718	0.0150495
800.796	0.0151913
800.874	0.0151442
800.953	0.0150085
801.031	0.0151453
801.109	0.0151916
801.187	0.0149667
801.265	0.0151701
801.343	0.0150884
801.421	0.0149695
801.499	0.0150892
801.578	0.0150526
801.656	0.0150820
801.734	0.0148559
801.812	0.0149389
801.890	0.0150710
801.968	0.0150237
802.046	0.0149596
802.124	0.0149125
802.203	0.0148501
802.281	0.0149525
802.359	0.0148791
802.437	0.0148743
802.515	0.0148978
802.593	0.0150426
802.671	0.0150628
802.749	0.0150108
802.828	0.0149579
802.906	0.0150101
802.984	0.0150869
803.062	0.0150800
803.140	0.0151060
803.218	0.0151305
803.296	0.0150988
803.374	0.0151772
803.453	0.0151134
803.531	0.0151050
803.609	0.0150646
803.687	0.0150655
803.765	0.0149448
803.843	0.0149678
803.921	0.0150071
803.999	0.0150099
804.078	0.0149959
804.156	0.0149722
804.234	0.0149158
804.312	0.0149615
804.390	0.0148939
804.468	0.0147857
804.546	0.0149543
804.624	0.0150903
804.703	0.0149834
804.781	0.0150356
804.859	0.0149200
804.937	0.0151149
805.015	0.0149671
805.093	0.0149996
805.171	0.0152192
805.249	0.0151869
805.328	0.0151724
805.406	0.0151807
805.484	0.0151514
805.562	0.0151987
805.640	0.0152692
805.718	0.0151534
805.796	0.0149613
805.874	0.0151000
805.953	0.0149812
806.031	0.0149581
806.109	0.0151351
806.187	0.0149889
806.265	0.0148645
806.343	0.0147463
806.421	0.0150263
806.499	0.0148718
806.578	0.0149085
806.656	0.0150284
806.734	0.0149995
806.812	0.0150665
806.890	0.0151481
806.968	0.0150532
807.046	0.0151708
807.124	0.0150301
807.203	0.0150132
807.281	0.0150348
807.359	0.0150607
807.437	0.0150703
807.515	0.0150639
807.593	0.0153011
807.671	0.0151855
807.749	0.0150411
807.828	0.0150044
807.906	0.0150339
807.984	0.0151338
808.062	0.0150214
808.140	0.0151451
808.218	0.0150180
808.296	0.0150674
808.374	0.0150446
808.453	0.0148962
808.531	0.0149221
808.609	0.0150816
808.687	0.0149878
808.765	0.0149729
808.843	0.0150075
808.921	0.0150073
808.999	0.0148133
809.078	0.0149134
809.156	0.0149574
809.234	0.0150384
809.312	0.0149554
809.390	0.0149622
809.468	0.0150303
809.546	0.0149310
809.624	0.0148954
809.703	0.0148906
809.781	0.0149464
809.859	0.0149161
809.937	0.0149751
810.015	0.0149645
810.093	0.0150434
810.171	0.0149463
810.249	0.0149467
810.328	0.0150853
810.406	0.0148743
810.484	0.0149722
810.562	0.0150856
810.640	0.0150300
810.718	0.0151237
810.796	0.0150426
810.874	0.0150699
810.953	0.0149803
811.031	0.0150209
811.109	0.0150176
811.187	0.0150847
811.265	0.0151672
811.343	0.0150226
811.421	0.0150332
811.499	0.0151000
811.578	0.0150474
811.656	0.0149184
811.734	0.0149708
811.812	0.0150707
811.890	0.0149519
811.968	0.0149847
812.046	0.0149704
812.124	0.0148588
812.203	0.0149384
812.281	0.0149604
812.359	0.0147668
812.437	0.0149489
812.515	0.0151093
812.593	0.0149491
812.671	0.0149472
812.749	0.0150385
812.828	0.0149931
812.906	0.0149637
812.984	0.0149046
813.062	0.0150266
813.140	0.0148823
813.218	0.0148889
813.296	0.0148663
813.374	0.0149192
813.453	0.0149129
813.531	0.0148421
813.609	0.0148631
813.687	0.0148370
813.765	0.0147919
813.843	0.0147588
813.921	0.0148110
813.999	0.0146695
814.078	0.0145953
814.156	0.0148947
814.234	0.0148091
814.312	0.0148233
814.390	0.0148089
814.468	0.0147549
814.546	0.0148285
814.624	0.0148567
814.703	0.0148584
814.781	0.0149551
814.859	0.0148400
814.937	0.0149269
815.015	0.0149130
815.093	0.0150028
815.171	0.0148170
815.249	0.0149071
815.328	0.0149658
815.406	0.0150265
815.484	0.0150232
815.562	0.0149052
815.640	0.0149830
815.718	0.0150220
815.796	0.0148540
815.874	0.0149737
815.953	0.0149245
816.031	0.0150082
816.109	0.0147980
816.187	0.0147126
816.265	0.0148636
816.343	0.0149712
816.421	0.0148479
816.499	0.0148059
816.578	0.0149066
816.656	0.0149267
816.734	0.0148478
816.812	0.0149274
816.890	0.0149063
816.968	0.0148893
817.046	0.0149326
817.124	0.0150438
817.203	0.0148952
817.281	0.0148881
817.359	0.0149591
817.437	0.0148943
817.515	0.0148957
817.593	0.0150443
817.671	0.0148679
817.749	0.0149834
817.828	0.0148314
817.906	0.0148574
817.984	0.0149006
818.062	0.0148978
818.140	0.0148645
818.218	0.0149074
818.296	0.0148091
818.374	0.0148531
818.453	0.0148444
818.531	0.0148323
818.609	0.0147462
818.687	0.0149369
818.765	0.0148818
818.843	0.0149403
818.921	0.0149122
818.999	0.0148925
819.078	0.0149905
819.156	0.0150132
819.234	0.0150188
819.312	0.0150061
819.390	0.0148794
819.468	0.0150401
819.546	0.0150246
819.624	0.0150176
819.703	0.0150220
819.781	0.0149590
819.859	0.0148141
819.937	0.0148656
820.015	0.0148143
820.093	0.0149548
820.171	0.0148872
820.249	0.0148610
820.328	0.0148267
820.406	0.0148948
820.484	0.0148300
820.562	0.0149234
820.640	0.0149863
820.718	0.0149507
820.796	0.0148412
820.874	0.0149037
820.953	0.0149001
821.031	0.0148222
821.109	0.0151225
821.187	0.0149693
821.265	0.0149550
821.343	0.0149705
821.421	0.0150987
821.499	0.0149779
821.578	0.0150217
821.656	0.0148764
821.734	0.0149050
821.812	0.0150368
821.890	0.0149339
821.968	0.0148901
822.046	0.0149101
822.124	0.0148875
822.203	0.0149313
822.281	0.0149124
822.359	0.0150167
822.437	0.0148360
822.515	0.0149249
822.593	0.0149739
822.671	0.0149680
822.749	0.0149431
822.828	0.0148746
822.906	0.0149936
822.984	0.0150447
823.062	0.0150682
823.140	0.0150605
823.218	0.0151344
823.296	0.0151540
823.374	0.0151469
823.453	0.0150175
823.531	0.0149574
823.609	0.0150513
823.687	0.0150467
823.765	0.0149174
823.843	0.0150172
823.921	0.0150870
823.999	0.0150843
824.078	0.0149924
824.156	0.0150025
824.234	0.0150803
824.312	0.0149057
824.390	0.0149896
824.468	0.0151054
824.546	0.0149570
824.624	0.0150521
824.703	0.0151111
824.781	0.0151201
824.859	0.0150578
824.937	0.0150599
825.015	0.0149338
825.093	0.0150258
825.171	0.0149003
825.249	0.0150322
825.328	0.0150060
825.406	0.0151115
825.484	0.0150686
825.562	0.0149799
825.640	0.0149447
825.718	0.0149735
825.796	0.0149818
825.874	0.0150088
825.953	0.0149774
826.031	0.0149268
826.109	0.0149872
826.187	0.0149123
826.265	0.0149286
826.343	0.0150877
826.421	0.0151961
826.499	0.0150370
826.578	0.0150764
826.656	0.0150104
826.734	0.0150727
826.812	0.0150996
826.890	0.0151384
826.968	0.0151285
827.046	0.0150959
827.124	0.0151897
827.203	0.0150159
827.281	0.0151912
827.359	0.0152089
827.437	0.0151576
827.515	0.0152182
827.593	0.0151333
827.671	0.0151632
827.749	0.0151308
827.828	0.0150613
827.906	0.0149178
827.984	0.0151308
828.062	0.0150969
828.140	0.0149352
828.218	0.0150845
828.296	0.0149446
828.374	0.0150820
828.453	0.0150208
828.531	0.0150677
828.609	0.0149496
828.687	0.0150079
828.765	0.0150307
828.843	0.0150238
828.921	0.0149336
828.999	0.0150484
829.078	0.0149332
829.156	0.0149781
829.234	0.0148734
829.312	0.0149397
829.390	0.0149689
829.468	0.0148396
829.546	0.0149052
829.624	0.0149921
829.703	0.0150107
829.781	0.0149557
829.859	0.0149099
829.937	0.0148969
830.015	0.0149221
830.093	0.0149043
830.171	0.0149005
830.249	0.0148856
830.328	0.0149189
830.406	0.0149519
830.484	0.0149245
830.562	0.0149487
830.640	0.0149348
830.718	0.0149822
830.796	0.0149705
830.874	0.0149474
830.953	0.0149156
831.031	0.0149717
831.109	0.0149845
831.187	0.0150924
831.265	0.0150811
831.343	0.0151275
831.421	0.0149828
831.499	0.0149458
831.578	0.0149065
831.656	0.0149304
831.734	0.0149279
831.812	0.0150578
831.890	0.0149620
831.968	0.0149026
832.046	0.0149234
832.124	0.0149940
832.203	0.0150366
832.281	0.0148795
832.359	0.0150832
832.437	0.0150701
832.515	0.0150979
832.593	0.0150069
832.671	0.0149885
832.749	0.0149566
832.828	0.0149873
832.906	0.0149986
832.984	0.0150160
833.062	0.0149062
833.140	0.0150311
833.218	0.0149143
833.296	0.0150404
833.374	0.0148890
833.453	0.0149931
833.531	0.0149466
833.609	0.0150372
833.687	0.0148975
833.765	0.0149091
833.843	0.0148901
833.921	0.0149236
833.999	0.0150079
834.078	0.0149662
834.156	0.0148808
834.234	0.0149256
834.312	0.0149096
834.390	0.0147967
834.468	0.0150053
834.546	0.0149694
834.624	0.0148483
834.703	0.0151385
834.781	0.0148954
834.859	0.0148981
834.937	0.0150490
835.015	0.0149145
835.093	0.0150238
835.171	0.0149873
835.249	0.0150791
835.328	0.0150548
835.406	0.0150079
835.484	0.0149059
835.562	0.0149008
835.640	0.0149608
835.718	0.0149384
835.796	0.0149004
835.874	0.0149255
835.953	0.0149692
836.031	0.0148837
836.109	0.0149216
836.187	0.0149815
836.265	0.0149129
836.343	0.0149747
836.421	0.0149377
836.499	0.0147294
836.578	0.0149694
836.656	0.0148257
836.734	0.0147589
836.812	0.0147926
836.890	0.0148267
836.968	0.0149686
837.046	0.0148538
837.124	0.0149076
837.203	0.0149624
837.281	0.0150479
837.359	0.0150034
837.437	0.0148680
837.515	0.0149866
837.593	0.0150066
837.671	0.0149694
837.749	0.0149680
837.828	0.0149124
837.906	0.0150146
837.984	0.0150597
838.062	0.0150733
838.140	0.0149722
838.218	0.0149737
838.296	0.0149656
838.374	0.0148844
838.453	0.0151852
838.531	0.0150978
838.609	0.0149838
838.687	0.0150233
838.765	0.0150352
838.843	0.0149070
838.921	0.0150707
838.999	0.0150401
839.078	0.0150237
839.156	0.0150946
839.234	0.0148141
839.312	0.0149263
839.390	0.0149284
839.468	0.0148959
839.546	0.0150293
839.624	0.0149004
839.703	0.0148534
839.781	0.0148993
839.859	0.0148792
839.937	0.0149573
840.015	0.0149052
840.093	0.0148642
840.171	0.0149113
840.249	0.0149294
840.328	0.0150066
840.406	0.0150241
840.484	0.0149485
840.562	0.0149315
840.640	0.0149225
840.718	0.0149042
840.796	0.0149884
840.874	0.0149490
840.953	0.0150134
841.031	0.0150517
841.109	0.0150597
841.187	0.0149446
841.265	0.0149989
841.343	0.0150352
841.421	0.0150301
841.499	0.0150333
841.578	0.0149364
841.656	0.0150271
841.734	0.0149411
841.812	0.0150351
841.890	0.0150311
841.968	0.0150232
842.046	0.0151956
842.124	0.0150996
842.203	0.0150642
842.281	0.0149718
842.359	0.0148430
842.437	0.0150610
842.515	0.0151753
842.593	0.0149467
842.671	0.0148454
842.749	0.0151666
842.828	0.0150846
842.906	0.0150414
842.984	0.0148990
843.062	0.0147296
843.140	0.0148848
843.218	0.0149870
843.296	0.0147800
843.374	0.0149139
843.453	0.0147897
843.531	0.0149594
843.609	0.0149771
843.687	0.0150008
843.765	0.0147037
843.843	0.0149156
843.921	0.0149753
843.999	0.0148878
844.078	0.0149998
844.156	0.0149762
844.234	0.0148625
844.312	0.0149351
844.390	0.0150475
844.468	0.0149356
844.546	0.0149020
844.624	0.0148556
844.703	0.0149571
844.781	0.0150399
844.859	0.0150915
844.937	0.0150536
845.015	0.0151143
845.093	0.0149963
845.171	0.0149428
845.249	0.0150917
845.328	0.0151218
845.406	0.0149462
845.484	0.0151240
845.562	0.0151257
845.640	0.0149496
845.718	0.0150448
845.796	0.0151145
845.874	0.0150232
845.953	0.0149456
846.031	0.0151067
846.109	0.0152157
846.187	0.0150710
846.265	0.0150222
846.343	0.0149947
846.421	0.0151020
846.499	0.0150509
846.578	0.0150191
846.656	0.0150153
846.734	0.0148268
846.812	0.0150560
846.890	0.0150116
846.968	0.0150601
847.046	0.0148863
847.124	0.0148884
847.203	0.0150874
847.281	0.0149198
847.359	0.0148151
847.437	0.0149895
847.515	0.0150024
847.593	0.0150710
847.671	0.0150694
847.749	0.0149740
847.828	0.0149784
847.906	0.0150003
847.984	0.0150279
848.062	0.0151456
848.140	0.0150100
848.218	0.0149223
848.296	0.0148601
848.374	0.0150738
848.453	0.0151057
848.531	0.0150243
848.609	0.0149768
848.687	0.0150171
848.765	0.0150496
848.843	0.0149684
848.921	0.0150377
848.999	0.0150980
849.078	0.0150261
849.156	0.0150195
849.234	0.0150592
849.312	0.0150685
849.390	0.0151051
849.468	0.0150264
849.546	0.0152087
849.624	0.0150941
849.703	0.0150690
849.781	0.0152114
849.859	0.0152097
849.937	0.0150375
850.015	0.0151798
850.093	0.0149844
850.171	0.0151105
850.249	0.0150132
850.328	0.0150635
850.406	0.0150676
850.484	0.0149348
850.562	0.0150108
850.640	0.0150907
850.718	0.0149715
850.796	0.0150867
850.874	0.0149024
850.953	0.0149889
851.031	0.0148441
851.109	0.0148466
851.187	0.0149017
851.265	0.0147990
851.343	0.0149259
851.421	0.0148955
851.499	0.0149071
851.578	0.0149706
851.656	0.0149497
851.734	0.0149674
851.812	0.0149862
851.890	0.0149984
851.968	0.0149114
852.046	0.0149056
852.124	0.0149882
852.203	0.0150188
852.281	0.0149785
852.359	0.0149756
852.437	0.0150827
852.515	0.0150740
852.593	0.0150593
852.671	0.0151193
852.749	0.0150555
852.828	0.0150351
852.906	0.0149576
852.984	0.0150980
853.062	0.0152042
853.140	0.0151186
853.218	0.0150056
853.296	0.0151402
853.374	0.0151892
853.453	0.0150668
853.531	0.0152434
853.609	0.0151228
853.687	0.0151511
853.765	0.0150565
853.843	0.0150857
853.921	0.0150768
853.999	0.0151847
854.078	0.0151277
854.156	0.0150732
854.234	0.0150539
854.312	0.0150790
854.390	0.0149602
854.468	0.0150066
854.546	0.0150175
854.624	0.0148855
854.703	0.0148503
854.781	0.0148140
854.859	0.0146978
854.937	0.0147533
855.015	0.0149932
855.093	0.0148615
855.171	0.0148123
855.249	0.0148254
855.328	0.0148438
855.406	0.0148154
855.484	0.0147682
855.562	0.0148457
855.640	0.0148131
855.718	0.0149162
855.796	0.0149101
855.874	0.0148614
855.953	0.0147775
856.031	0.0148428
856.109	0.0150758
856.187	0.0149956
856.265	0.0149465
856.343	0.0149761
856.421	0.0150111
856.499	0.0151203
856.578	0.0152447
856.656	0.0149623
856.734	0.0150494
856.812	0.0151572
856.890	0.0151291
856.968	0.0151987
857.046	0.0151384
857.124	0.0152795
857.203	0.0151555
857.281	0.0150042
857.359	0.0152207
857.437	0.0151765
857.515	0.0150963
857.593	0.0150535
857.671	0.0150221
857.749	0.0150482
857.828	0.0150008
857.906	0.0149142
857.984	0.0149577
858.062	0.0150746
858.140	0.0149601
858.218	0.0149336
858.296	0.0150761
858.374	0.0147589
858.453	0.0148944
858.531	0.0149762
858.609	0.0148751
858.687	0.0148468
858.765	0.0149305
858.843	0.0147622
858.921	0.0150327
858.999	0.0149889
859.078	0.0149822
859.156	0.0148314
859.234	0.0149200
859.312	0.0148306
859.390	0.0149403
859.468	0.0148349
859.546	0.0147680
859.624	0.0149271
859.703	0.0149628
859.781	0.0149014
859.859	0.0149516
859.937	0.0149113
860.015	0.0150163
860.093	0.0150342
860.171	0.0151065
860.249	0.0150220
860.328	0.0149822
860.406	0.0152263
860.484	0.0151552
860.562	0.0150552
860.640	0.0151921
860.718	0.0149557
860.796	0.0151304
860.874	0.0150225
860.953	0.0149979
861.031	0.0153204
861.109	0.0152146
861.187	0.0150506
861.265	0.0150820
861.343	0.0150651
861.421	0.0151424
861.499	0.0150754
861.578	0.0149847
861.656	0.0151933
861.734	0.0151432
861.812	0.0150582
861.890	0.0149730
861.968	0.0148953
862.046	0.0150050
862.124	0.0150870
862.203	0.0150009
862.281	0.0150592
862.359	0.0149934
862.437	0.0149168
862.515	0.0148996
862.593	0.0149632
862.671	0.0148806
862.749	0.0149507
862.828	0.0149171
862.906	0.0149316
862.984	0.0149724
863.062	0.0149388
863.140	0.0150002
863.218	0.0150104
863.296	0.0148642
863.374	0.0149462
863.453	0.0150347
863.531	0.0151205
863.609	0.0149666
863.687	0.0149601
863.765	0.0148746
863.843	0.0150246
863.921	0.0149789
863.999	0.0150343
864.078	0.0149726
864.156	0.0149571
864.234	0.0152279
864.312	0.0150439
864.390	0.0149068
864.468	0.0150950
864.546	0.0151458
864.624	0.0151205
864.703	0.0150031
864.781	0.0151111
864.859	0.0150723
864.937	0.0151608
865.015	0.0152107
865.093	0.0151495
865.171	0.0150942
865.249	0.0150445
865.328	0.0151651
865.406	0.0150786
865.484	0.0151077
865.562	0.0150028
865.640	0.0151118
865.718	0.0150484
865.796	0.0149960
865.874	0.0150937
865.953	0.0150072
866.031	0.0150406
866.109	0.0151195
866.187	0.0149924
866.265	0.0151646
866.343	0.0152267
866.421	0.0149433
866.499	0.0150189
866.578	0.0149302
866.656	0.0149365
866.734	0.0150835
866.812	0.0150032
866.890	0.0149818
866.968	0.0150551
867.046	0.0149410
867.124	0.0149641
867.203	0.0149335
867.281	0.0149384
867.359	0.0149647
867.437	0.0150533
867.515	0.0150397
867.593	0.0150082
867.671	0.0150370
867.749	0.0150363
867.828	0.0149102
867.906	0.0150208
867.984	0.0150505
868.062	0.0149799
868.140	0.0149548
868.218	0.0149780
868.296	0.0149492
868.374	0.0150945
868.453	0.0150294
868.531	0.0149420
868.609	0.0149438
868.687	0.0149976
868.765	0.0151484
868.843	0.0150182
868.921	0.0150565
868.999	0.0150353
869.078	0.0150929
869.156	0.0149835
869.234	0.0150488
869.312	0.0150979
869.390	0.0150243
869.468	0.0150930
869.546	0.0149713
869.624	0.0150165
869.703	0.0149606
869.781	0.0150220
869.859	0.0149438
869.937	0.0149268
870.015	0.0148757
870.093	0.0149724
870.171	0.0149635
870.249	0.0150087
870.328	0.0149476
870.406	0.0149581
870.484	0.0149633
870.562	0.0149233
870.640	0.0148551
870.718	0.0150594
870.796	0.0148700
870.874	0.0149502
870.953	0.0150176
871.031	0.0148919
871.109	0.0148786
871.187	0.0150265
871.265	0.0148909
871.343	0.0150288
871.421	0.0151665
871.499	0.0150433
871.578	0.0149940
871.656	0.0148650
871.734	0.0148661
871.812	0.0151151
871.890	0.0148898
871.968	0.0150812
872.046	0.0150292
872.124	0.0151036
872.203	0.0149871
872.281	0.0151373
872.359	0.0150219
872.437	0.0150425
872.515	0.0151770
872.593	0.0151374
872.671	0.0150875
872.749	0.0151293
872.828	0.0150269
872.906	0.0150793
872.984	0.0149353
873.062	0.0148534
873.140	0.0151588
873.218	0.0150933
873.296	0.0149551
873.374	0.0149661
873.453	0.0149387
873.531	0.0151324
873.609	0.0149435
873.687	0.0147997
873.765	0.0149413
873.843	0.0149624
873.921	0.0149749
873.999	0.0149909
874.078	0.0149488
874.156	0.0148891
874.234	0.0149580
874.312	0.0149762
874.390	0.0150126
874.468	0.0149978
874.546	0.0148145
874.624	0.0148752
874.703	0.0149033
874.781	0.0149625
874.859	0.0149285
874.937	0.0147907
875.015	0.0149928
875.093	0.0150417
875.171	0.0150747
875.249	0.0150353
875.328	0.0150510
875.406	0.0150337
875.484	0.0149700
875.562	0.0150035
875.640	0.0150800
875.718	0.0150383
875.796	0.0150366
875.874	0.0150586
875.953	0.0151610
876.031	0.0150836
876.109	0.0150861
876.187	0.0150312
876.265	0.0150165
876.343	0.0150706
876.421	0.0150553
876.499	0.0150742
876.578	0.0151116
876.656	0.0149191
876.734	0.0150173
876.812	0.0149622
876.890	0.0151146
876.968	0.0151233
877.046	0.0149490
877.124	0.0150392
877.203	0.0149886
877.281	0.0150990
877.359	0.0150378
877.437	0.0150875
877.515	0.0149706
877.593	0.0148814
877.671	0.0149081
877.749	0.0151147
877.828	0.0151279
877.906	0.0149863
877.984	0.0149183
878.062	0.0149284
878.140	0.0149961
878.218	0.0150375
878.296	0.0149805
878.374	0.0148623
878.453	0.0150690
878.531	0.0151557
878.609	0.0149760
878.687	0.0150809
878.765	0.0151124
878.843	0.0150251
878.921	0.0149579
878.999	0.0150182
879.078	0.0150854
879.156	0.0149925
879.234	0.0149568
879.312	0.0150763
879.390	0.0150510
879.468	0.0149775
879.546	0.0152013
879.624	0.0149433
879.703	0.0148743
879.781	0.0150893
879.859	0.0151057
879.937	0.0150945
880.015	0.0150974
880.093	0.0149566
880.171	0.0149740
880.249	0.0150576
880.328	0.0150920
880.406	0.0150069
880.484	0.0150713
880.562	0.0151551
880.640	0.0149634
880.718	0.0149986
880.796	0.0150493
880.874	0.0149821
880.953	0.0149957
881.031	0.0150508
881.109	0.0150570
881.187	0.0150048
881.265	0.0150418
881.343	0.0151414
881.421	0.0150056
881.499	0.0150566
881.578	0.0150327
881.656	0.0150787
881.734	0.0149649
881.812	0.0151180
881.890	0.0151494
881.968	0.0150567
882.046	0.0150993
882.124	0.0150949
882.203	0.0151025
882.281	0.0150230
882.359	0.0151008
882.437	0.0151363
882.515	0.0151021
882.593	0.0150275
882.671	0.0149557
882.749	0.0151147
882.828	0.0150321
882.906	0.0150615
882.984	0.0150288
883.062	0.0150040
883.140	0.0149269
883.218	0.0150428
883.296	0.0151096
883.374	0.0151230
883.453	0.0150463
883.531	0.0149498
883.609	0.0150887
883.687	0.0150872
883.765	0.0150940
883.843	0.0150673
883.921	0.0150388
883.999	0.0149001
884.078	0.0149996
884.156	0.0150117
884.234	0.0149939
884.312	0.0149493
884.390	0.0150437
884.468	0.0148850
884.546	0.0148444
884.624	0.0147216
884.703	0.0149072
884.781	0.0148270
884.859	0.0149101
884.937	0.0149984
885.015	0.0148216
885.093	0.0148946
885.171	0.0148115
885.249	0.0148703
885.328	0.0149842
885.406	0.0148277
885.484	0.0148542
885.562	0.0150344
885.640	0.0148994
885.718	0.0147721
885.796	0.0149505
885.874	0.0148735
885.953	0.0149841
886.031	0.0150291
886.109	0.0149257
886.187	0.0149985
886.265	0.0151022
886.343	0.0149939
886.421	0.0149127
886.499	0.0148449
886.578	0.0149568
886.656	0.0148116
886.734	0.0149791
886.812	0.0149795
886.890	0.0148302
886.968	0.0148950
887.046	0.0150626
887.124	0.0149184
887.203	0.0149293
887.281	0.0149760
887.359	0.0149319
887.437	0.0149810
887.515	0.0149650
887.593	0.0148870
887.671	0.0149834
887.749	0.0150446
887.828	0.0149219
887.906	0.0149007
887.984	0.0149783
888.062	0.0147536
888.140	0.0148804
888.218	0.0149507
888.296	0.0148871
888.374	0.0149740
888.453	0.0150117
888.531	0.0148966
888.609	0.0149301
888.687	0.0148396
888.765	0.0147459
888.843	0.0148521
888.921	0.0149305
888.999	0.0147635
889.078	0.0148498
889.156	0.0148935
889.234	0.0148219
889.312	0.0148055
889.390	0.0148921
889.468	0.0151407
889.546	0.0150470
889.624	0.0149586
889.703	0.0149451
889.781	0.0150279
889.859	0.0148888
889.937	0.0149762
890.015	0.0150056
890.093	0.0150375
890.171	0.0150661
890.249	0.0150791
890.328	0.0150005
890.406	0.0150141
890.484	0.0149568
890.562	0.0149529
890.640	0.0149686
890.718	0.0149939
890.796	0.0148828
890.874	0.0148911
890.953	0.0150108
891.031	0.0149180
891.109	0.0150648
891.187	0.0150900
891.265	0.0148927
891.343	0.0148832
891.421	0.0150248
891.499	0.0149680
891.578	0.0149745
891.656	0.0149393
891.734	0.0150159
891.812	0.0149496
891.890	0.0148324
891.968	0.0148370
892.046	0.0148272
892.124	0.0149851
892.203	0.0148669
892.281	0.0149480
892.359	0.0148733
892.437	0.0148173
892.515	0.0148615
892.593	0.0150007
892.671	0.0149638
892.749	0.0149644
892.828	0.0150648
892.906	0.0149134
892.984	0.0149822
893.062	0.0149226
893.140	0.0148991
893.218	0.0148959
893.296	0.0149026
893.374	0.0149300
893.453	0.0149664
893.531	0.0151111
893.609	0.0152282
893.687	0.0149799
893.765	0.0149471
893.843	0.0149364
893.921	0.0150002
893.999	0.0149670
894.078	0.0149137
894.156	0.0150145
894.234	0.0149460
894.312	0.0148819
894.390	0.0149767
894.468	0.0150565
894.546	0.0150932
894.624	0.0149805
894.703	0.0150351
894.781	0.0150636
894.859	0.0150696
894.937	0.0150618
895.015	0.0150865
895.093	0.0149955
895.171	0.0150268
895.249	0.0148786
895.328	0.0148826
895.406	0.0150774
895.484	0.0151528
895.562	0.0149453
895.640	0.0149966
895.718	0.0149043
895.796	0.0148410
895.874	0.0149557
895.953	0.0150655
896.031	0.0149512
896.109	0.0149253
896.187	0.0150386
896.265	0.0148535
896.343	0.0147952
896.421	0.0149650
896.499	0.0148840
896.578	0.0149005
896.656	0.0149544
896.734	0.0150009
896.812	0.0149312
896.890	0.0150690
896.968	0.0149382
897.046	0.0149078
897.124	0.0150257
897.203	0.0149345
897.281	0.0149952
897.359	0.0150330
897.437	0.0151062
897.515	0.0151616
897.593	0.0150174
897.671	0.0150365
897.749	0.0148740
897.828	0.0150304
897.906	0.0151024
897.984	0.0150695
898.062	0.0150577
898.140	0.0151045
898.218	0.0150776
898.296	0.0150819
898.374	0.0151478
898.453	0.0150452
898.531	0.0150362
898.609	0.0150616
898.687	0.0151328
898.765	0.0151371
898.843	0.0152175
898.921	0.0151154
898.999	0.0151459
899.078	0.0150172
899.156	0.0150223
899.234	0.0150614
899.312	0.0150520
899.390	0.0151679
899.468	0.0150416
899.546	0.0150520
899.624	0.0150371
899.703	0.0150179
899.781	0.0150442
899.859	0.0150242
899.937	0.0149191
900.015	0.0148965
900.093	0.0149473
900.171	0.0150208
900.249	0.0150652
900.328	0.0149773
900.406	0.0150249
900.484	0.0149245
900.562	0.0150252
900.640	0.0149203
900.718	0.0149758
900.796	0.0148911
900.874	0.0149104
900.953	0.0149843
901.031	0.0150315
901.109	0.0151455
901.187	0.0150834
901.265	0.0150760
901.343	0.0150967
901.421	0.0151385
901.499	0.0150665
901.578	0.0151115
901.656	0.0152713
901.734	0.0151625
901.812	0.0150385
901.890	0.0151056
901.968	0.0151049
902.046	0.0150869
902.124	0.0151040
902.203	0.0151408
902.281	0.0151427
902.359	0.0151231
902.437	0.0150220
902.515	0.0150851
902.593	0.0152129
902.671	0.0149554
902.749	0.0150713
902.828	0.0150740
902.906	0.0149081
902.984	0.0150977
903.062	0.0150215
903.140	0.0150159
903.218	0.0148714
903.296	0.0149689
903.374	0.0149772
903.453	0.0148399
903.531	0.0149401
903.609	0.0148868
903.687	0.0150356
903.765	0.0149899
903.843	0.0148894
903.921	0.0147970
903.999	0.0148273
904.078	0.0147539
904.156	0.0149547
904.234	0.0148774
904.312	0.0148033
904.390	0.0150922
904.468	0.0151089
904.546	0.0149144
904.624	0.0149387
904.703	0.0150612
904.781	0.0150250
904.859	0.0149567
904.937	0.0150267
905.015	0.0150113
905.093	0.0151045
905.171	0.0151391
905.249	0.0152164
905.328	0.0150471
905.406	0.0150648
905.484	0.0149492
905.562	0.0150322
905.640	0.0151519
905.718	0.0151041
905.796	0.0149770
905.874	0.0150108
905.953	0.0151205
906.031	0.0151965
906.109	0.0150240
906.187	0.0150378
906.265	0.0150020
906.343	0.0151379
906.421	0.0150431
906.499	0.0150937
906.578	0.0148835
906.656	0.0151020
906.734	0.0149542
906.812	0.0148840
906.890	0.0149483
906.968	0.0149189
907.046	0.0149604
907.124	0.0149607
907.203	0.0149091
907.281	0.0149138
907.359	0.0148558
907.437	0.0149983
907.515	0.0149618
907.593	0.0148579
907.671	0.0148979
907.749	0.0150005
907.828	0.0148462
907.906	0.0149225
907.984	0.0150032
908.062	0.0148625
908.140	0.0148824
908.218	0.0149438
908.296	0.0149295
908.374	0.0149931
908.453	0.0149407
908.531	0.0150179
908.609	0.0150797
908.687	0.0149738
908.765	0.0151723
908.843	0.0150726
908.921	0.0150376
908.999	0.0150741
909.078	0.0149009
909.156	0.0151752
909.234	0.0151167
909.312	0.0150497
909.390	0.0150701
909.468	0.0150565
909.546	0.0150039
909.624	0.0150944
909.703	0.0150232
909.781	0.0150860
909.859	0.0151408
909.937	0.0151100
910.015	0.0149442
910.093	0.0150017
910.171	0.0149915
910.249	0.0150371
910.328	0.0149625
910.406	0.0150252
910.484	0.0148658
910.562	0.0148021
910.640	0.0150436
910.718	0.0150157
910.796	0.0149406
910.874	0.0149414
910.953	0.0148714
911.031	0.0149527
911.109	0.0149435
911.187	0.0148328
911.265	0.0148254
911.343	0.0149995
911.421	0.0149345
911.499	0.0148426
911.578	0.0148969
911.656	0.0149370
911.734	0.0149663
911.812	0.0149685
911.890	0.0148960
911.968	0.0148891
912.046	0.0149522
912.124	0.0150124
912.203	0.0148241
912.281	0.0150350
912.359	0.0150850
912.437	0.0150562
912.515	0.0149094
912.593	0.0150665
912.671	0.0151159
912.749	0.0148929
912.828	0.0149199
912.906	0.0151792
912.984	0.0150257
913.062	0.0150425
913.140	0.0150164
913.218	0.0150787
913.296	0.0149830
913.374	0.0149260
913.453	0.0149078
913.531	0.0149101
913.609	0.0148830
913.687	0.0149045
913.765	0.0149806
913.843	0.0150036
913.921	0.0148653
913.999	0.0149427
914.078	0.0149316
914.156	0.0148140
914.234	0.0148904
914.312	0.0149275
914.390	0.0148148
914.468	0.0147514
914.546	0.0147105
914.624	0.0148149
914.703	0.0148727
914.781	0.0148917
914.859	0.0147922
914.937	0.0147052
915.015	0.0147110
915.093	0.0148932
915.171	0.0149069
915.249	0.0148333
915.328	0.0148007
915.406	0.0146837
915.484	0.0148954
915.562	0.0149831
915.640	0.0148898
915.718	0.0148547
915.796	0.0148536
915.874	0.0149683
915.953	0.0148049
916.031	0.0147078
916.109	0.0149473
916.187	0.0151085
916.265	0.0149254
916.343	0.0149075
916.421	0.0149075
916.499	0.0149708
916.578	0.0148415
916.656	0.0147910
916.734	0.0150289
916.812	0.0150211
916.890	0.0149196
916.968	0.0149454
917.046	0.0149970
917.124	0.0149519
917.203	0.0149617
917.281	0.0150062
917.359	0.0149815
917.437	0.0149856
917.515	0.0150060
917.593	0.0149411
917.671	0.0150599
917.749	0.0151157
917.828	0.0148900
917.906	0.0150479
917.984	0.0150199
918.062	0.0150491
918.140	0.0149611
918.218	0.0149743
918.296	0.0149768
918.374	0.0150202
918.453	0.0150320
918.531	0.0149543
918.609	0.0151094
918.687	0.0149467
918.765	0.0150368
918.843	0.0150419
918.921	0.0149879
918.999	0.0149501
919.078	0.0149253
919.156	0.0150541
919.234	0.0150630
919.312	0.0149134
919.390	0.0149846
919.468	0.0150286
919.546	0.0149854
919.624	0.0149544
919.703	0.0148825
919.781	0.0149424
919.859	0.0150240
919.937	0.0149500
