05/06/2022	19:21:15	Ver.	4.1	UNKNOWN
Optical Delay	600.015094	Delta X		0.078125	Sweeps	1	Scan Rate	0/0
Coordinates	Axis 1	NaN	Axis 2	NaN	Axis 3	NaN	Axis 4	NaN	Axis 5	NaN	Axis 6	0.000000
TX Power	0.000000	RX Power	0.000000

600.015	0.0152638
600.093	0.0154199
600.171	0.0152528
600.249	0.0153225
600.328	0.0152765
600.406	0.0150061
600.484	0.0152568
600.562	0.0154144
600.640	0.0151508
600.718	0.0151683
600.796	0.0152526
600.874	0.0152087
600.953	0.0151270
601.031	0.0152249
601.109	0.0152905
601.187	0.0151104
601.265	0.0151718
601.343	0.0151313
601.421	0.0153335
601.499	0.0150941
601.578	0.0151402
601.656	0.0152683
601.734	0.0152578
601.812	0.0152060
601.890	0.0152750
601.968	0.0153864
602.046	0.0152743
602.124	0.0152224
602.203	0.0151763
602.281	0.0151533
602.359	0.0152563
602.437	0.0152995
602.515	0.0152390
602.593	0.0151974
602.671	0.0151646
602.749	0.0151726
602.828	0.0152436
602.906	0.0152789
602.984	0.0152705
603.062	0.0152017
603.140	0.0152097
603.218	0.0152019
603.296	0.0152004
603.374	0.0151812
603.453	0.0151897
603.531	0.0151830
603.609	0.0151431
603.687	0.0151019
603.765	0.0152978
603.843	0.0151582
603.921	0.0151054
603.999	0.0152177
604.078	0.0152524
604.156	0.0151334
604.234	0.0152062
604.312	0.0151811
604.390	0.0152192
604.468	0.0151554
604.546	0.0151152
604.624	0.0151763
604.703	0.0151325
604.781	0.0151814
604.859	0.0151733
604.937	0.0151828
605.015	0.0151826
605.093	0.0151234
605.171	0.0151890
605.249	0.0152952
605.328	0.0151353
605.406	0.0151093
605.484	0.0150648
605.562	0.0151306
605.640	0.0151691
605.718	0.0152175
605.796	0.0151158
605.874	0.0149747
605.953	0.0152116
606.031	0.0152804
606.109	0.0152231
606.187	0.0152062
606.265	0.0152370
606.343	0.0151704
606.421	0.0150984
606.499	0.0153680
606.578	0.0151795
606.656	0.0151002
606.734	0.0151955
606.812	0.0152355
606.890	0.0150782
606.968	0.0152219
607.046	0.0151013
607.124	0.0152219
607.203	0.0151994
607.281	0.0151041
607.359	0.0150554
607.437	0.0151394
607.515	0.0150924
607.593	0.0151292
607.671	0.0152393
607.749	0.0150739
607.828	0.0152036
607.906	0.0150553
607.984	0.0151376
608.062	0.0151868
608.140	0.0151152
608.218	0.0152413
608.296	0.0151725
608.374	0.0151533
608.453	0.0150726
608.531	0.0152496
608.609	0.0151677
608.687	0.0152155
608.765	0.0152132
608.843	0.0151376
608.921	0.0150832
608.999	0.0151162
609.078	0.0150794
609.156	0.0150428
609.234	0.0152256
609.312	0.0152641
609.390	0.0151070
609.468	0.0151991
609.546	0.0152102
609.624	0.0152756
609.703	0.0152039
609.781	0.0150690
609.859	0.0151424
609.937	0.0152085
610.015	0.0152126
610.093	0.0152750
610.171	0.0151701
610.249	0.0151092
610.328	0.0150915
610.406	0.0150376
610.484	0.0152687
610.562	0.0152064
610.640	0.0151324
610.718	0.0150652
610.796	0.0150339
610.874	0.0152233
610.953	0.0151205
611.031	0.0150349
611.109	0.0151663
611.187	0.0151431
611.265	0.0150441
611.343	0.0149657
611.421	0.0150351
611.499	0.0151846
611.578	0.0150979
611.656	0.0151168
611.734	0.0151437
611.812	0.0151356
611.890	0.0151713
611.968	0.0150078
612.046	0.0151476
612.124	0.0151460
612.203	0.0150722
612.281	0.0152223
612.359	0.0151895
612.437	0.0150750
612.515	0.0151186
612.593	0.0152069
612.671	0.0150367
612.749	0.0151514
612.828	0.0151253
612.906	0.0151794
612.984	0.0152841
613.062	0.0152685
613.140	0.0151805
613.218	0.0152654
613.296	0.0151531
613.374	0.0153034
613.453	0.0153606
613.531	0.0153083
613.609	0.0153048
613.687	0.0152383
613.765	0.0152364
613.843	0.0152939
613.921	0.0153262
613.999	0.0151501
614.078	0.0151684
614.156	0.0151480
614.234	0.0152046
614.312	0.0151308
614.390	0.0151818
614.468	0.0151593
614.546	0.0151262
614.624	0.0152308
614.703	0.0151411
614.781	0.0152116
614.859	0.0152987
614.937	0.0152095
615.015	0.0152757
615.093	0.0153024
615.171	0.0152045
615.249	0.0152052
615.328	0.0151067
615.406	0.0150907
615.484	0.0151810
615.562	0.0150845
615.640	0.0150659
615.718	0.0151614
615.796	0.0152226
615.874	0.0151983
615.953	0.0150967
616.031	0.0150834
616.109	0.0151897
616.187	0.0152772
616.265	0.0150175
616.343	0.0152023
616.421	0.0151680
616.499	0.0152143
616.578	0.0150919
616.656	0.0151998
616.734	0.0152654
616.812	0.0151679
616.890	0.0152814
616.968	0.0152179
617.046	0.0152199
617.124	0.0153050
617.203	0.0153677
617.281	0.0153504
617.359	0.0151939
617.437	0.0151686
617.515	0.0153463
617.593	0.0151611
617.671	0.0150932
617.749	0.0150935
617.828	0.0152862
617.906	0.0151084
617.984	0.0151187
618.062	0.0150757
618.140	0.0150648
618.218	0.0151337
618.296	0.0150986
618.374	0.0149893
618.453	0.0151741
618.531	0.0151566
618.609	0.0151556
618.687	0.0151360
618.765	0.0151244
618.843	0.0151289
618.921	0.0151985
618.999	0.0152899
619.078	0.0152235
619.156	0.0152383
619.234	0.0152420
619.312	0.0151221
619.390	0.0152874
619.468	0.0152223
619.546	0.0151424
619.624	0.0152596
619.703	0.0151020
619.781	0.0153249
619.859	0.0151202
619.937	0.0151730
620.015	0.0152686
620.093	0.0151471
620.171	0.0151918
620.249	0.0152145
620.328	0.0150461
620.406	0.0150401
620.484	0.0151037
620.562	0.0150063
620.640	0.0150799
620.718	0.0151642
620.796	0.0150609
620.874	0.0150984
620.953	0.0150774
621.031	0.0149482
621.109	0.0151006
621.187	0.0151686
621.265	0.0151752
621.343	0.0152393
621.421	0.0151511
621.499	0.0150919
621.578	0.0152467
621.656	0.0153910
621.734	0.0153162
621.812	0.0151605
621.890	0.0151915
621.968	0.0153207
622.046	0.0152393
622.124	0.0153093
622.203	0.0153659
622.281	0.0153027
622.359	0.0152643
622.437	0.0152348
622.515	0.0152692
622.593	0.0152914
622.671	0.0152135
622.749	0.0152600
622.828	0.0152637
622.906	0.0152054
622.984	0.0152273
623.062	0.0152509
623.140	0.0152677
623.218	0.0152589
623.296	0.0151653
623.374	0.0152219
623.453	0.0151278
623.531	0.0152702
623.609	0.0152408
623.687	0.0152171
623.765	0.0151207
623.843	0.0152683
623.921	0.0152377
623.999	0.0151533
624.078	0.0150319
624.156	0.0151852
624.234	0.0151891
624.312	0.0151673
624.390	0.0150243
624.468	0.0150404
624.546	0.0151545
624.624	0.0153326
624.703	0.0152022
624.781	0.0151717
624.859	0.0151666
624.937	0.0151948
625.015	0.0152068
625.093	0.0152275
625.171	0.0152247
625.249	0.0150948
625.328	0.0152040
625.406	0.0153091
625.484	0.0152464
625.562	0.0153073
625.640	0.0152472
625.718	0.0152762
625.796	0.0150996
625.874	0.0152292
625.953	0.0152868
626.031	0.0150760
626.109	0.0152316
626.187	0.0152023
626.265	0.0151232
626.343	0.0151849
626.421	0.0151067
626.499	0.0150247
626.578	0.0150389
626.656	0.0152459
626.734	0.0152009
626.812	0.0151527
626.890	0.0151323
626.968	0.0151859
627.046	0.0151995
627.124	0.0150776
627.203	0.0151586
627.281	0.0151957
627.359	0.0152697
627.437	0.0151624
627.515	0.0151358
627.593	0.0152139
627.671	0.0151719
627.749	0.0152892
627.828	0.0151053
627.906	0.0152001
627.984	0.0152754
628.062	0.0151355
628.140	0.0150423
628.218	0.0151762
628.296	0.0150354
628.374	0.0151277
628.453	0.0150774
628.531	0.0150320
628.609	0.0151263
628.687	0.0153510
628.765	0.0151352
628.843	0.0150651
628.921	0.0151448
628.999	0.0151364
629.078	0.0149501
629.156	0.0152180
629.234	0.0151519
629.312	0.0152572
629.390	0.0153841
629.468	0.0151255
629.546	0.0151389
629.624	0.0152188
629.703	0.0151597
629.781	0.0152302
629.859	0.0151151
629.937	0.0150481
630.015	0.0151752
630.093	0.0150774
630.171	0.0152029
630.249	0.0151619
630.328	0.0150669
630.406	0.0152475
630.484	0.0151212
630.562	0.0151242
630.640	0.0150119
630.718	0.0151888
630.796	0.0152263
630.874	0.0152209
630.953	0.0151774
631.031	0.0150903
631.109	0.0152374
631.187	0.0152094
631.265	0.0152503
631.343	0.0153654
631.421	0.0152971
631.499	0.0153106
631.578	0.0151134
631.656	0.0150907
631.734	0.0152225
631.812	0.0151289
631.890	0.0150266
631.968	0.0150146
632.046	0.0150870
632.124	0.0150838
632.203	0.0150584
632.281	0.0148904
632.359	0.0149146
632.437	0.0150703
632.515	0.0149819
632.593	0.0149331
632.671	0.0148839
632.749	0.0150193
632.828	0.0151421
632.906	0.0150107
632.984	0.0149619
633.062	0.0152293
633.140	0.0152268
633.218	0.0152417
633.296	0.0153133
633.374	0.0153559
633.453	0.0153004
633.531	0.0152525
633.609	0.0152065
633.687	0.0152352
633.765	0.0153809
633.843	0.0153078
633.921	0.0152314
633.999	0.0152634
634.078	0.0151518
634.156	0.0152261
634.234	0.0151820
634.312	0.0150176
634.390	0.0151244
634.468	0.0150556
634.546	0.0148514
634.624	0.0149086
634.703	0.0149532
634.781	0.0148214
634.859	0.0147814
634.937	0.0149691
635.015	0.0148703
635.093	0.0147752
635.171	0.0148775
635.249	0.0147734
635.328	0.0147263
635.406	0.0148859
635.484	0.0150394
635.562	0.0148783
635.640	0.0148145
635.718	0.0149007
635.796	0.0149100
635.874	0.0149557
635.953	0.0151811
636.031	0.0150525
636.109	0.0151955
636.187	0.0151714
636.265	0.0151847
636.343	0.0153421
636.421	0.0153487
636.499	0.0154577
636.578	0.0154861
636.656	0.0154380
636.734	0.0153951
636.812	0.0154063
636.890	0.0155202
636.968	0.0155198
637.046	0.0154613
637.124	0.0153199
637.203	0.0153930
637.281	0.0152897
637.359	0.0153408
637.437	0.0151303
637.515	0.0149544
637.593	0.0150362
637.671	0.0150735
637.749	0.0149957
637.828	0.0150170
637.906	0.0148840
637.984	0.0148241
638.062	0.0148602
638.140	0.0148189
638.218	0.0149241
638.296	0.0148085
638.374	0.0148280
638.453	0.0147561
638.531	0.0148058
638.609	0.0148093
638.687	0.0146076
638.765	0.0146690
638.843	0.0147488
638.921	0.0147588
638.999	0.0148195
639.078	0.0148472
639.156	0.0150070
639.234	0.0151743
639.312	0.0151608
639.390	0.0150806
639.468	0.0151852
639.546	0.0152940
639.624	0.0154935
639.703	0.0155153
639.781	0.0156171
639.859	0.0155618
639.937	0.0154414
640.015	0.0154505
640.093	0.0156864
640.171	0.0155674
640.249	0.0155638
640.328	0.0156544
640.406	0.0155534
640.484	0.0155993
640.562	0.0154785
640.640	0.0155397
640.718	0.0155978
640.796	0.0155045
640.874	0.0153266
640.953	0.0152453
641.031	0.0152950
641.109	0.0153044
641.187	0.0152010
641.265	0.0150929
641.343	0.0150537
641.421	0.0151150
641.499	0.0148682
641.578	0.0148608
641.656	0.0148496
641.734	0.0147961
641.812	0.0146404
641.890	0.0146008
641.968	0.0146339
642.046	0.0147157
642.124	0.0146216
642.203	0.0146133
642.281	0.0145986
642.359	0.0146442
642.437	0.0146827
642.515	0.0148071
642.593	0.0147014
642.671	0.0148273
642.749	0.0147897
642.828	0.0148519
642.906	0.0149746
642.984	0.0150455
643.062	0.0151414
643.140	0.0152042
643.218	0.0152961
643.296	0.0153996
643.374	0.0155634
643.453	0.0157267
643.531	0.0156945
643.609	0.0158706
643.687	0.0157901
643.765	0.0157952
643.843	0.0160748
643.921	0.0159915
643.999	0.0159903
644.078	0.0159445
644.156	0.0159241
644.234	0.0158224
644.312	0.0157682
644.390	0.0157706
644.468	0.0155989
644.546	0.0155918
644.624	0.0154790
644.703	0.0154943
644.781	0.0155425
644.859	0.0151670
644.937	0.0151888
645.015	0.0151720
645.093	0.0150751
645.171	0.0148575
645.249	0.0148278
645.328	0.0147698
645.406	0.0148091
645.484	0.0147322
645.562	0.0147315
645.640	0.0147157
645.718	0.0146898
645.796	0.0146669
645.874	0.0146344
645.953	0.0144948
646.031	0.0145032
646.109	0.0145349
646.187	0.0143610
646.265	0.0143517
646.343	0.0143255
646.421	0.0145250
646.499	0.0144969
646.578	0.0145555
646.656	0.0146819
646.734	0.0147268
646.812	0.0147831
646.890	0.0151175
646.968	0.0151581
647.046	0.0151710
647.124	0.0154173
647.203	0.0156119
647.281	0.0156607
647.359	0.0157948
647.437	0.0158543
647.515	0.0158952
647.593	0.0162319
647.671	0.0161382
647.749	0.0160401
647.828	0.0163388
647.906	0.0160915
647.984	0.0160786
648.062	0.0162106
648.140	0.0162141
648.218	0.0160857
648.296	0.0161588
648.374	0.0161246
648.453	0.0159892
648.531	0.0158363
648.609	0.0157617
648.687	0.0157091
648.765	0.0157094
648.843	0.0155106
648.921	0.0154044
648.999	0.0153593
649.078	0.0151943
649.156	0.0150916
649.234	0.0150155
649.312	0.0149763
649.390	0.0146279
649.468	0.0145900
649.546	0.0143791
649.624	0.0141827
649.703	0.0141789
649.781	0.0141109
649.859	0.0140975
649.937	0.0139554
650.015	0.0139282
650.093	0.0139906
650.171	0.0140875
650.249	0.0141203
650.328	0.0141645
650.406	0.0143011
650.484	0.0144513
650.562	0.0144781
650.640	0.0146058
650.718	0.0147565
650.796	0.0148494
650.874	0.0150782
650.953	0.0152907
651.031	0.0154802
651.109	0.0156101
651.187	0.0156456
651.265	0.0156469
651.343	0.0157800
651.421	0.0160238
651.499	0.0160924
651.578	0.0159909
651.656	0.0161500
651.734	0.0161340
651.812	0.0161622
651.890	0.0158955
651.968	0.0161896
652.046	0.0160272
652.124	0.0159615
652.203	0.0159753
652.281	0.0159249
652.359	0.0158921
652.437	0.0155425
652.515	0.0154910
652.593	0.0154093
652.671	0.0154661
652.749	0.0152621
652.828	0.0151427
652.906	0.0151981
652.984	0.0150790
653.062	0.0149010
653.140	0.0148967
653.218	0.0148521
653.296	0.0145767
653.374	0.0147364
653.453	0.0147630
653.531	0.0146592
653.609	0.0146258
653.687	0.0145105
653.765	0.0145141
653.843	0.0145494
653.921	0.0145768
653.999	0.0143727
654.078	0.0144401
654.156	0.0143657
654.234	0.0144989
654.312	0.0144587
654.390	0.0144942
654.468	0.0146585
654.546	0.0146796
654.624	0.0146464
654.703	0.0147145
654.781	0.0147730
654.859	0.0147279
654.937	0.0149084
655.015	0.0150003
655.093	0.0151816
655.171	0.0153326
655.249	0.0154039
655.328	0.0154185
655.406	0.0154906
655.484	0.0156240
655.562	0.0157000
655.640	0.0156254
655.718	0.0156256
655.796	0.0158729
655.874	0.0156528
655.953	0.0157771
656.031	0.0158160
656.109	0.0158006
656.187	0.0156203
656.265	0.0157694
656.343	0.0157289
656.421	0.0156222
656.499	0.0155634
656.578	0.0155609
656.656	0.0153101
656.734	0.0153687
656.812	0.0156123
656.890	0.0153755
656.968	0.0152428
657.046	0.0152795
657.124	0.0151311
657.203	0.0150201
657.281	0.0149563
657.359	0.0148113
657.437	0.0147140
657.515	0.0147462
657.593	0.0146085
657.671	0.0146812
657.749	0.0145915
657.828	0.0145937
657.906	0.0145757
657.984	0.0146098
658.062	0.0145560
658.140	0.0147064
658.218	0.0145969
658.296	0.0146160
658.374	0.0147171
658.453	0.0147536
658.531	0.0150004
658.609	0.0148708
658.687	0.0150716
658.765	0.0149844
658.843	0.0150365
658.921	0.0150555
658.999	0.0152760
659.078	0.0152515
659.156	0.0152267
659.234	0.0154912
659.312	0.0153996
659.390	0.0153661
659.468	0.0154895
659.546	0.0153358
659.624	0.0153985
659.703	0.0155475
659.781	0.0154977
659.859	0.0153948
659.937	0.0156290
660.015	0.0155267
660.093	0.0154765
660.171	0.0154124
660.249	0.0152221
660.328	0.0152283
660.406	0.0151691
660.484	0.0152576
660.562	0.0152654
660.640	0.0153385
660.718	0.0152993
660.796	0.0152439
660.874	0.0152727
660.953	0.0152018
661.031	0.0151643
661.109	0.0150621
661.187	0.0151595
661.265	0.0151237
661.343	0.0149999
661.421	0.0149137
661.499	0.0150021
661.578	0.0149264
661.656	0.0147820
661.734	0.0147303
661.812	0.0147351
661.890	0.0147781
661.968	0.0148792
662.046	0.0147025
662.124	0.0147778
662.203	0.0149615
662.281	0.0151796
662.359	0.0149902
662.437	0.0150258
662.515	0.0151696
662.593	0.0152823
662.671	0.0154364
662.749	0.0155170
662.828	0.0154846
662.906	0.0155190
662.984	0.0154906
663.062	0.0155652
663.140	0.0156616
663.218	0.0156216
663.296	0.0156728
663.374	0.0155837
663.453	0.0155930
663.531	0.0156729
663.609	0.0155807
663.687	0.0157581
663.765	0.0155701
663.843	0.0155872
663.921	0.0153533
663.999	0.0155474
664.078	0.0153443
664.156	0.0152281
664.234	0.0151671
664.312	0.0150700
664.390	0.0150114
664.468	0.0150799
664.546	0.0148666
664.624	0.0147311
664.703	0.0146655
664.781	0.0146581
664.859	0.0145760
664.937	0.0145794
665.015	0.0144930
665.093	0.0145803
665.171	0.0144722
665.249	0.0145341
665.328	0.0145837
665.406	0.0144643
665.484	0.0144150
665.562	0.0146097
665.640	0.0147096
665.718	0.0148353
665.796	0.0148377
665.874	0.0150356
665.953	0.0151608
666.031	0.0152617
666.109	0.0154040
666.187	0.0154746
666.265	0.0157106
666.343	0.0156809
666.421	0.0159475
666.499	0.0158369
666.578	0.0159698
666.656	0.0161088
666.734	0.0160071
666.812	0.0160772
666.890	0.0160298
666.968	0.0160178
667.046	0.0160274
667.124	0.0156924
667.203	0.0159169
667.281	0.0157208
667.359	0.0158240
667.437	0.0157001
667.515	0.0155219
667.593	0.0156168
667.671	0.0152848
667.749	0.0151334
667.828	0.0153178
667.906	0.0150672
667.984	0.0150744
668.062	0.0149542
668.140	0.0147398
668.218	0.0145200
668.296	0.0145663
668.374	0.0144479
668.453	0.0143623
668.531	0.0144125
668.609	0.0143706
668.687	0.0143089
668.765	0.0142928
668.843	0.0141711
668.921	0.0142380
668.999	0.0143814
669.078	0.0144690
669.156	0.0144799
669.234	0.0145550
669.312	0.0146175
669.390	0.0145847
669.468	0.0147747
669.546	0.0147702
669.624	0.0150267
669.703	0.0150972
669.781	0.0152606
669.859	0.0152995
669.937	0.0153356
670.015	0.0154768
670.093	0.0155769
670.171	0.0154852
670.249	0.0157318
670.328	0.0157613
670.406	0.0157404
670.484	0.0158382
670.562	0.0159043
670.640	0.0158151
670.718	0.0159549
670.796	0.0159836
670.874	0.0158246
670.953	0.0159286
671.031	0.0159325
671.109	0.0157027
671.187	0.0159539
671.265	0.0158835
671.343	0.0157922
671.421	0.0158175
671.499	0.0156573
671.578	0.0156985
671.656	0.0155732
671.734	0.0154833
671.812	0.0152469
671.890	0.0152701
671.968	0.0151020
672.046	0.0149341
672.124	0.0149055
672.203	0.0148502
672.281	0.0145814
672.359	0.0144473
672.437	0.0145819
672.515	0.0144230
672.593	0.0143761
672.671	0.0143077
672.749	0.0144825
672.828	0.0145935
672.906	0.0144652
672.984	0.0145789
673.062	0.0145111
673.140	0.0145957
673.218	0.0147435
673.296	0.0147698
673.374	0.0147935
673.453	0.0148553
673.531	0.0150870
673.609	0.0150889
673.687	0.0152245
673.765	0.0152782
673.843	0.0155759
673.921	0.0155502
673.999	0.0155830
674.078	0.0156376
674.156	0.0157281
674.234	0.0160149
674.312	0.0157948
674.390	0.0158276
674.468	0.0158778
674.546	0.0160302
674.624	0.0160562
674.703	0.0159792
674.781	0.0158662
674.859	0.0158737
674.937	0.0158037
675.015	0.0157978
675.093	0.0157382
675.171	0.0155390
675.249	0.0154971
675.328	0.0154588
675.406	0.0154337
675.484	0.0153474
675.562	0.0151672
675.640	0.0149972
675.718	0.0150328
675.796	0.0150433
675.874	0.0150037
675.953	0.0147996
676.031	0.0147543
676.109	0.0146180
676.187	0.0146581
676.265	0.0145988
676.343	0.0146083
676.421	0.0144991
676.499	0.0145632
676.578	0.0144727
676.656	0.0145616
676.734	0.0144381
676.812	0.0145219
676.890	0.0144987
676.968	0.0146376
677.046	0.0146050
677.124	0.0146761
677.203	0.0147946
677.281	0.0150328
677.359	0.0150646
677.437	0.0152399
677.515	0.0153339
677.593	0.0153923
677.671	0.0154528
677.749	0.0155029
677.828	0.0157378
677.906	0.0156242
677.984	0.0157870
678.062	0.0158819
678.140	0.0159066
678.218	0.0159268
678.296	0.0157999
678.374	0.0159021
678.453	0.0159584
678.531	0.0158671
678.609	0.0157526
678.687	0.0156776
678.765	0.0155387
678.843	0.0155819
678.921	0.0154865
678.999	0.0152478
679.078	0.0152667
679.156	0.0152747
679.234	0.0151506
679.312	0.0149767
679.390	0.0148119
679.468	0.0148830
679.546	0.0150195
679.624	0.0148661
679.703	0.0147138
679.781	0.0146879
679.859	0.0146608
679.937	0.0146358
680.015	0.0145683
680.093	0.0146284
680.171	0.0143793
680.249	0.0145076
680.328	0.0144369
680.406	0.0145866
680.484	0.0145905
680.562	0.0145659
680.640	0.0148433
680.718	0.0146986
680.796	0.0148549
680.874	0.0148819
680.953	0.0149609
681.031	0.0151482
681.109	0.0152522
681.187	0.0153639
681.265	0.0153608
681.343	0.0156301
681.421	0.0156802
681.499	0.0157098
681.578	0.0156701
681.656	0.0156883
681.734	0.0157392
681.812	0.0157484
681.890	0.0157050
681.968	0.0157652
682.046	0.0157430
682.124	0.0157143
682.203	0.0155645
682.281	0.0154656
682.359	0.0155827
682.437	0.0154297
682.515	0.0154389
682.593	0.0152438
682.671	0.0151979
682.749	0.0151538
682.828	0.0149574
682.906	0.0149768
682.984	0.0150580
683.062	0.0148457
683.140	0.0148961
683.218	0.0148867
683.296	0.0149568
683.374	0.0149085
683.453	0.0148485
683.531	0.0148375
683.609	0.0147551
683.687	0.0147799
683.765	0.0148351
683.843	0.0147660
683.921	0.0147710
683.999	0.0148499
684.078	0.0147260
684.156	0.0148027
684.234	0.0148667
684.312	0.0148271
684.390	0.0148576
684.468	0.0148497
684.546	0.0150301
684.624	0.0151920
684.703	0.0152802
684.781	0.0151866
684.859	0.0153022
684.937	0.0153893
685.015	0.0154319
685.093	0.0154905
685.171	0.0155637
685.249	0.0155786
685.328	0.0155810
685.406	0.0155937
685.484	0.0155450
685.562	0.0155676
685.640	0.0155002
685.718	0.0156083
685.796	0.0154548
685.874	0.0155033
685.953	0.0156059
686.031	0.0154956
686.109	0.0152808
686.187	0.0153465
686.265	0.0152740
686.343	0.0151820
686.421	0.0154218
686.499	0.0152560
686.578	0.0151512
686.656	0.0152301
686.734	0.0151646
686.812	0.0148759
686.890	0.0150350
686.968	0.0150596
687.046	0.0149924
687.124	0.0147932
687.203	0.0148795
687.281	0.0149687
687.359	0.0148788
687.437	0.0147869
687.515	0.0147683
687.593	0.0146962
687.671	0.0147504
687.749	0.0145814
687.828	0.0145897
687.906	0.0147497
687.984	0.0147930
688.062	0.0148069
688.140	0.0147370
688.218	0.0148459
688.296	0.0149089
688.374	0.0150443
688.453	0.0151008
688.531	0.0151227
688.609	0.0151876
688.687	0.0153339
688.765	0.0154490
688.843	0.0153545
688.921	0.0155013
688.999	0.0155251
689.078	0.0154117
689.156	0.0156351
689.234	0.0156351
689.312	0.0156985
689.390	0.0157925
689.468	0.0158035
689.546	0.0157868
689.624	0.0158340
689.703	0.0157079
689.781	0.0157233
689.859	0.0155459
689.937	0.0155718
690.015	0.0154676
690.093	0.0154131
690.171	0.0152908
690.249	0.0152210
690.328	0.0150642
690.406	0.0151996
690.484	0.0149120
690.562	0.0148640
690.640	0.0149999
690.718	0.0148505
690.796	0.0148144
690.874	0.0148229
690.953	0.0148537
691.031	0.0147098
691.109	0.0148516
691.187	0.0147733
691.265	0.0147581
691.343	0.0147926
691.421	0.0147492
691.499	0.0147762
691.578	0.0146811
691.656	0.0147583
691.734	0.0146720
691.812	0.0148232
691.890	0.0147756
691.968	0.0150593
692.046	0.0148659
692.124	0.0150629
692.203	0.0151477
692.281	0.0151196
692.359	0.0151656
692.437	0.0154617
692.515	0.0154104
692.593	0.0154717
692.671	0.0154534
692.749	0.0153880
692.828	0.0156109
692.906	0.0156918
692.984	0.0156728
693.062	0.0156288
693.140	0.0156879
693.218	0.0157421
693.296	0.0157111
693.374	0.0155981
693.453	0.0156084
693.531	0.0157847
693.609	0.0156245
693.687	0.0155492
693.765	0.0155400
693.843	0.0153388
693.921	0.0155741
693.999	0.0154046
694.078	0.0152598
694.156	0.0153874
694.234	0.0152102
694.312	0.0151137
694.390	0.0151022
694.468	0.0150987
694.546	0.0151248
694.624	0.0150790
694.703	0.0148411
694.781	0.0148214
694.859	0.0148546
694.937	0.0147417
695.015	0.0146594
695.093	0.0146581
695.171	0.0145340
695.249	0.0145164
695.328	0.0146405
695.406	0.0143741
695.484	0.0145422
695.562	0.0147015
695.640	0.0148560
695.718	0.0148487
695.796	0.0148644
695.874	0.0150713
695.953	0.0150814
696.031	0.0151727
696.109	0.0152740
696.187	0.0153480
696.265	0.0155908
696.343	0.0156426
696.421	0.0157000
696.499	0.0157602
696.578	0.0156512
696.656	0.0157178
696.734	0.0158678
696.812	0.0158312
696.890	0.0157320
696.968	0.0158765
697.046	0.0157769
697.124	0.0157584
697.203	0.0156097
697.281	0.0154055
697.359	0.0155907
697.437	0.0154743
697.515	0.0153902
697.593	0.0153192
697.671	0.0152316
697.749	0.0149648
697.828	0.0150828
697.906	0.0151329
697.984	0.0150868
698.062	0.0150471
698.140	0.0149088
698.218	0.0149689
698.296	0.0150207
698.374	0.0150542
698.453	0.0150020
698.531	0.0148520
698.609	0.0149144
698.687	0.0148502
698.765	0.0146519
698.843	0.0146616
698.921	0.0146172
698.999	0.0147081
699.078	0.0146828
699.156	0.0146358
699.234	0.0147604
699.312	0.0147668
699.390	0.0147559
699.468	0.0148810
699.546	0.0149959
699.624	0.0150990
699.703	0.0152470
699.781	0.0152178
699.859	0.0152987
699.937	0.0155716
700.015	0.0155524
700.093	0.0156783
700.171	0.0158699
700.249	0.0157275
700.328	0.0157546
700.406	0.0158551
700.484	0.0158506
700.562	0.0158743
700.640	0.0158214
700.718	0.0157990
700.796	0.0158054
700.874	0.0157375
700.953	0.0158243
701.031	0.0158838
701.109	0.0154614
701.187	0.0155999
701.265	0.0155133
701.343	0.0155350
701.421	0.0151797
701.499	0.0152621
701.578	0.0152289
701.656	0.0152109
701.734	0.0151085
701.812	0.0149455
701.890	0.0149825
701.968	0.0150384
702.046	0.0149520
702.124	0.0148808
702.203	0.0147881
702.281	0.0147733
702.359	0.0147742
702.437	0.0147414
702.515	0.0146616
702.593	0.0145651
702.671	0.0145195
702.749	0.0146123
702.828	0.0147036
702.906	0.0148078
702.984	0.0147617
703.062	0.0149018
703.140	0.0149362
703.218	0.0149017
703.296	0.0149815
703.374	0.0151115
703.453	0.0151365
703.531	0.0151119
703.609	0.0152665
703.687	0.0153630
703.765	0.0154228
703.843	0.0153430
703.921	0.0155170
703.999	0.0155464
704.078	0.0155288
704.156	0.0155600
704.234	0.0157000
704.312	0.0155711
704.390	0.0156832
704.468	0.0156643
704.546	0.0157067
704.624	0.0156842
704.703	0.0156068
704.781	0.0155579
704.859	0.0155379
704.937	0.0154344
705.015	0.0154052
705.093	0.0153089
705.171	0.0153666
705.249	0.0151338
705.328	0.0151189
705.406	0.0151994
705.484	0.0150128
705.562	0.0147692
705.640	0.0150792
705.718	0.0148848
705.796	0.0149451
705.874	0.0147588
705.953	0.0147030
706.031	0.0148121
706.109	0.0146750
706.187	0.0147227
706.265	0.0145977
706.343	0.0146811
706.421	0.0146183
706.499	0.0146738
706.578	0.0147392
706.656	0.0148136
706.734	0.0146775
706.812	0.0147087
706.890	0.0148492
706.968	0.0149291
707.046	0.0149012
707.124	0.0148943
707.203	0.0150089
707.281	0.0150851
707.359	0.0151102
707.437	0.0151440
707.515	0.0153739
707.593	0.0152847
707.671	0.0152541
707.749	0.0154746
707.828	0.0155094
707.906	0.0154306
707.984	0.0155565
708.062	0.0155093
708.140	0.0155611
708.218	0.0155968
708.296	0.0155718
708.374	0.0155233
708.453	0.0154477
708.531	0.0154998
708.609	0.0155032
708.687	0.0153452
708.765	0.0154528
708.843	0.0154271
708.921	0.0153032
708.999	0.0151675
709.078	0.0150723
709.156	0.0150253
709.234	0.0151174
709.312	0.0150643
709.390	0.0148639
709.468	0.0150022
709.546	0.0149357
709.624	0.0148271
709.703	0.0149885
709.781	0.0148986
709.859	0.0147553
709.937	0.0147977
710.015	0.0146739
710.093	0.0147466
710.171	0.0146777
710.249	0.0147938
710.328	0.0147569
710.406	0.0147374
710.484	0.0146883
710.562	0.0147416
710.640	0.0148290
710.718	0.0148315
710.796	0.0150068
710.874	0.0149018
710.953	0.0149180
711.031	0.0150211
711.109	0.0152927
711.187	0.0153310
711.265	0.0154114
711.343	0.0153720
711.421	0.0154245
711.499	0.0155331
711.578	0.0155576
711.656	0.0155686
711.734	0.0154598
711.812	0.0156327
711.890	0.0157373
711.968	0.0158051
712.046	0.0156278
712.124	0.0155170
712.203	0.0156448
712.281	0.0155265
712.359	0.0153671
712.437	0.0153767
712.515	0.0153262
712.593	0.0153985
712.671	0.0152979
712.749	0.0152734
712.828	0.0152472
712.906	0.0151350
712.984	0.0149767
713.062	0.0150164
713.140	0.0150195
713.218	0.0148318
713.296	0.0148713
713.374	0.0149638
713.453	0.0148785
713.531	0.0147336
713.609	0.0147709
713.687	0.0148470
713.765	0.0148698
713.843	0.0148679
713.921	0.0148006
713.999	0.0146972
714.078	0.0147493
714.156	0.0146890
714.234	0.0148099
714.312	0.0148289
714.390	0.0148264
714.468	0.0148063
714.546	0.0149789
714.624	0.0150508
714.703	0.0150603
714.781	0.0151355
714.859	0.0152654
714.937	0.0153935
715.015	0.0152778
715.093	0.0152494
715.171	0.0154941
715.249	0.0154862
715.328	0.0154853
715.406	0.0155750
715.484	0.0155587
715.562	0.0154426
715.640	0.0156112
715.718	0.0155475
715.796	0.0155003
715.874	0.0154420
715.953	0.0154208
716.031	0.0154020
716.109	0.0154855
716.187	0.0153558
716.265	0.0154468
716.343	0.0153918
716.421	0.0153815
716.499	0.0154192
716.578	0.0153142
716.656	0.0151480
716.734	0.0153127
716.812	0.0151746
716.890	0.0152715
716.968	0.0152536
717.046	0.0150537
717.124	0.0151398
717.203	0.0149825
717.281	0.0150172
717.359	0.0149295
717.437	0.0148385
717.515	0.0149445
717.593	0.0149226
717.671	0.0147887
717.749	0.0148267
717.828	0.0147757
717.906	0.0149414
717.984	0.0148363
718.062	0.0149186
718.140	0.0149776
718.218	0.0149936
718.296	0.0150597
718.374	0.0148888
718.453	0.0150466
718.531	0.0151382
718.609	0.0153090
718.687	0.0152809
718.765	0.0152555
718.843	0.0152844
718.921	0.0154713
718.999	0.0154170
719.078	0.0153213
719.156	0.0153031
719.234	0.0153733
719.312	0.0154075
719.390	0.0154486
719.468	0.0154988
719.546	0.0155838
719.624	0.0153483
719.703	0.0154494
719.781	0.0154315
719.859	0.0153587
719.937	0.0152738
720.015	0.0151764
720.093	0.0153004
720.171	0.0152580
720.249	0.0151437
720.328	0.0151875
720.406	0.0150888
720.484	0.0149419
720.562	0.0150289
720.640	0.0149892
720.718	0.0148698
720.796	0.0149264
720.874	0.0150161
720.953	0.0149331
721.031	0.0147808
721.109	0.0150034
721.187	0.0148032
721.265	0.0147489
721.343	0.0148566
721.421	0.0147870
721.499	0.0147857
721.578	0.0148123
721.656	0.0149560
721.734	0.0149293
721.812	0.0148302
721.890	0.0149697
721.968	0.0150040
722.046	0.0150297
722.124	0.0150599
722.203	0.0151329
722.281	0.0153114
722.359	0.0153018
722.437	0.0152917
722.515	0.0152863
722.593	0.0152356
722.671	0.0152124
722.749	0.0154319
722.828	0.0153372
722.906	0.0154123
722.984	0.0155261
723.062	0.0155193
723.140	0.0152888
723.218	0.0154430
723.296	0.0154099
723.374	0.0154690
723.453	0.0154459
723.531	0.0153188
723.609	0.0153333
723.687	0.0153510
723.765	0.0154003
723.843	0.0152298
723.921	0.0151746
723.999	0.0151905
724.078	0.0150131
724.156	0.0149973
724.234	0.0149739
724.312	0.0149951
724.390	0.0148907
724.468	0.0149133
724.546	0.0148293
724.624	0.0149510
724.703	0.0148673
724.781	0.0148185
724.859	0.0149793
724.937	0.0149480
725.015	0.0148391
725.093	0.0148809
725.171	0.0149437
725.249	0.0147762
725.328	0.0148076
725.406	0.0149626
725.484	0.0149899
725.562	0.0150326
725.640	0.0150658
725.718	0.0150083
725.796	0.0150601
725.874	0.0150708
725.953	0.0151793
726.031	0.0152988
726.109	0.0151598
726.187	0.0152150
726.265	0.0152309
726.343	0.0152779
726.421	0.0153179
726.499	0.0154482
726.578	0.0153616
726.656	0.0153304
726.734	0.0153072
726.812	0.0154910
726.890	0.0154482
726.968	0.0154089
727.046	0.0153721
727.124	0.0153542
727.203	0.0152794
727.281	0.0153207
727.359	0.0152071
727.437	0.0152930
727.515	0.0152056
727.593	0.0152243
727.671	0.0149306
727.749	0.0150050
727.828	0.0150248
727.906	0.0150470
727.984	0.0150164
728.062	0.0149130
728.140	0.0149335
728.218	0.0148866
728.296	0.0147972
728.374	0.0147914
728.453	0.0148399
728.531	0.0148629
728.609	0.0147592
728.687	0.0146873
728.765	0.0147015
728.843	0.0147441
728.921	0.0147812
728.999	0.0148569
729.078	0.0150268
729.156	0.0148720
729.234	0.0148581
729.312	0.0147477
729.390	0.0150352
729.468	0.0150110
729.546	0.0150141
729.624	0.0151711
729.703	0.0151286
729.781	0.0150891
729.859	0.0152885
729.937	0.0152574
730.015	0.0150286
730.093	0.0151552
730.171	0.0154749
730.249	0.0153584
730.328	0.0153715
730.406	0.0153163
730.484	0.0155252
730.562	0.0154467
730.640	0.0153908
730.718	0.0154162
730.796	0.0152855
730.874	0.0153281
730.953	0.0154008
731.031	0.0151935
731.109	0.0151096
731.187	0.0151937
731.265	0.0151075
731.343	0.0150956
731.421	0.0151665
731.499	0.0151028
731.578	0.0150784
731.656	0.0148379
731.734	0.0147948
731.812	0.0148617
731.890	0.0149358
731.968	0.0150380
732.046	0.0147478
732.124	0.0149155
732.203	0.0148256
732.281	0.0147439
732.359	0.0148115
732.437	0.0149506
732.515	0.0148528
732.593	0.0148424
732.671	0.0148983
732.749	0.0149808
732.828	0.0150654
732.906	0.0149808
732.984	0.0150735
733.062	0.0150616
733.140	0.0152131
733.218	0.0151247
733.296	0.0151188
733.374	0.0152135
733.453	0.0152356
733.531	0.0153194
733.609	0.0153792
733.687	0.0153506
733.765	0.0153829
733.843	0.0152596
733.921	0.0152807
733.999	0.0152650
734.078	0.0153198
734.156	0.0153637
734.234	0.0153448
734.312	0.0152892
734.390	0.0153712
734.468	0.0152634
734.546	0.0152272
734.624	0.0153047
734.703	0.0152979
734.781	0.0153725
734.859	0.0151103
734.937	0.0151050
735.015	0.0152499
735.093	0.0152132
735.171	0.0153391
735.249	0.0151997
735.328	0.0151915
735.406	0.0150523
735.484	0.0150089
735.562	0.0150547
735.640	0.0150131
735.718	0.0150531
735.796	0.0149908
735.874	0.0150371
735.953	0.0150298
736.031	0.0150539
736.109	0.0150848
736.187	0.0150552
736.265	0.0150967
736.343	0.0151492
736.421	0.0150666
736.499	0.0151218
736.578	0.0151329
736.656	0.0151543
736.734	0.0151051
736.812	0.0152045
736.890	0.0152368
736.968	0.0152115
737.046	0.0152116
737.124	0.0151447
737.203	0.0152963
737.281	0.0153352
737.359	0.0153085
737.437	0.0152551
737.515	0.0153323
737.593	0.0152736
737.671	0.0153154
737.749	0.0154433
737.828	0.0156099
737.906	0.0155310
737.984	0.0154419
738.062	0.0155373
738.140	0.0153995
738.218	0.0153801
738.296	0.0154932
738.374	0.0154514
738.453	0.0153335
738.531	0.0153020
738.609	0.0152531
738.687	0.0153040
738.765	0.0152890
738.843	0.0152644
738.921	0.0152297
738.999	0.0150352
739.078	0.0150517
739.156	0.0151231
739.234	0.0150376
739.312	0.0150319
739.390	0.0149441
739.468	0.0150118
739.546	0.0149571
739.624	0.0149789
739.703	0.0149787
739.781	0.0149844
739.859	0.0149207
739.937	0.0149057
740.015	0.0150401
740.093	0.0150462
740.171	0.0149971
740.249	0.0149626
740.328	0.0152673
740.406	0.0152481
740.484	0.0150831
740.562	0.0151764
740.640	0.0152497
740.718	0.0152855
740.796	0.0153004
740.874	0.0152330
740.953	0.0153603
741.031	0.0154059
741.109	0.0154124
741.187	0.0155853
741.265	0.0155059
741.343	0.0154212
741.421	0.0154477
741.499	0.0154346
741.578	0.0154425
741.656	0.0154678
741.734	0.0153841
741.812	0.0153780
741.890	0.0154139
741.968	0.0154488
742.046	0.0154655
742.124	0.0152359
742.203	0.0152548
742.281	0.0152826
742.359	0.0152286
742.437	0.0151218
742.515	0.0151636
742.593	0.0150642
742.671	0.0151018
742.749	0.0151125
742.828	0.0149966
742.906	0.0150135
742.984	0.0149405
743.062	0.0149087
743.140	0.0150025
743.218	0.0150778
743.296	0.0149290
743.374	0.0149715
743.453	0.0149832
743.531	0.0150863
743.609	0.0151051
743.687	0.0149647
743.765	0.0150013
743.843	0.0150057
743.921	0.0150368
743.999	0.0151194
744.078	0.0152626
744.156	0.0151458
744.234	0.0151028
744.312	0.0152403
744.390	0.0152850
744.468	0.0154423
744.546	0.0153754
744.624	0.0153764
744.703	0.0153816
744.781	0.0152943
744.859	0.0153419
744.937	0.0153815
745.015	0.0152919
745.093	0.0153447
745.171	0.0154108
745.249	0.0154366
745.328	0.0153834
745.406	0.0154797
745.484	0.0153937
745.562	0.0153236
745.640	0.0155812
745.718	0.0153313
745.796	0.0152883
745.874	0.0152429
745.953	0.0151159
746.031	0.0152770
746.109	0.0151138
746.187	0.0151530
746.265	0.0151123
746.343	0.0150591
746.421	0.0149931
746.499	0.0147928
746.578	0.0149552
746.656	0.0151009
746.734	0.0149521
746.812	0.0146918
746.890	0.0150048
746.968	0.0149151
747.046	0.0149030
747.124	0.0147089
747.203	0.0150362
747.281	0.0150127
747.359	0.0149148
747.437	0.0148692
747.515	0.0149628
747.593	0.0151106
747.671	0.0150648
747.749	0.0150292
747.828	0.0150738
747.906	0.0151591
747.984	0.0151128
748.062	0.0151320
748.140	0.0152319
748.218	0.0152115
748.296	0.0152734
748.374	0.0153426
748.453	0.0153232
748.531	0.0152326
748.609	0.0152892
748.687	0.0155605
748.765	0.0153173
748.843	0.0153246
748.921	0.0153824
748.999	0.0153397
749.078	0.0154270
749.156	0.0154051
749.234	0.0154529
749.312	0.0152531
749.390	0.0153470
749.468	0.0154411
749.546	0.0154741
749.624	0.0153520
749.703	0.0151855
749.781	0.0153145
749.859	0.0152296
749.937	0.0151731
750.015	0.0153960
750.093	0.0151533
750.171	0.0150214
750.249	0.0150027
750.328	0.0149648
750.406	0.0147688
750.484	0.0149644
750.562	0.0148901
750.640	0.0148602
750.718	0.0150136
750.796	0.0150093
750.874	0.0149067
750.953	0.0148721
751.031	0.0148791
751.109	0.0149916
751.187	0.0149367
751.265	0.0149107
751.343	0.0150956
751.421	0.0150156
751.499	0.0150879
751.578	0.0150866
751.656	0.0151717
751.734	0.0152737
751.812	0.0151598
751.890	0.0151235
751.968	0.0151277
752.046	0.0151366
752.124	0.0151020
752.203	0.0153480
752.281	0.0152686
752.359	0.0152312
752.437	0.0152795
752.515	0.0152317
752.593	0.0153515
752.671	0.0154482
752.749	0.0153920
752.828	0.0154664
752.906	0.0153846
752.984	0.0153584
753.062	0.0154028
753.140	0.0154887
753.218	0.0153408
753.296	0.0154054
753.374	0.0153459
753.453	0.0153343
753.531	0.0154761
753.609	0.0153600
753.687	0.0152522
753.765	0.0153777
753.843	0.0153236
753.921	0.0152374
753.999	0.0151399
754.078	0.0150674
754.156	0.0152390
754.234	0.0149542
754.312	0.0150650
754.390	0.0149853
754.468	0.0148652
754.546	0.0149760
754.624	0.0150516
754.703	0.0149129
754.781	0.0148969
754.859	0.0148819
754.937	0.0147823
755.015	0.0148654
755.093	0.0148911
755.171	0.0147977
755.249	0.0149460
755.328	0.0150434
755.406	0.0151362
755.484	0.0150185
755.562	0.0152184
755.640	0.0152376
755.718	0.0152720
755.796	0.0153380
755.874	0.0151556
755.953	0.0151758
756.031	0.0151807
756.109	0.0152389
756.187	0.0153436
756.265	0.0152214
756.343	0.0152557
756.421	0.0153771
756.499	0.0152991
756.578	0.0153401
756.656	0.0153271
756.734	0.0153000
756.812	0.0154024
756.890	0.0152345
756.968	0.0153303
757.046	0.0153136
757.124	0.0154446
757.203	0.0153278
757.281	0.0154591
757.359	0.0153599
757.437	0.0155492
757.515	0.0153133
757.593	0.0153550
757.671	0.0152735
757.749	0.0152796
757.828	0.0152116
757.906	0.0152944
757.984	0.0152261
758.062	0.0152113
758.140	0.0151917
758.218	0.0151741
758.296	0.0151108
758.374	0.0150318
758.453	0.0150235
758.531	0.0150991
758.609	0.0149956
758.687	0.0149995
758.765	0.0150437
758.843	0.0150352
758.921	0.0150558
758.999	0.0151730
759.078	0.0151241
759.156	0.0150908
759.234	0.0150824
759.312	0.0151682
759.390	0.0151594
759.468	0.0151068
759.546	0.0152773
759.624	0.0151964
759.703	0.0150848
759.781	0.0151337
759.859	0.0150513
759.937	0.0152197
760.015	0.0153641
760.093	0.0154029
760.171	0.0152699
760.249	0.0152692
760.328	0.0154521
760.406	0.0154177
760.484	0.0153500
760.562	0.0152750
760.640	0.0152210
760.718	0.0154355
760.796	0.0153638
760.874	0.0152555
760.953	0.0152128
761.031	0.0152690
761.109	0.0152270
761.187	0.0152128
761.265	0.0152771
761.343	0.0151032
761.421	0.0151720
761.499	0.0151641
761.578	0.0151020
761.656	0.0150759
761.734	0.0151586
761.812	0.0150561
761.890	0.0150752
761.968	0.0151517
762.046	0.0149654
762.124	0.0150977
762.203	0.0150385
762.281	0.0150488
762.359	0.0151014
762.437	0.0150470
762.515	0.0151914
762.593	0.0151327
762.671	0.0151501
762.749	0.0150027
762.828	0.0150712
762.906	0.0152369
762.984	0.0152309
763.062	0.0152129
763.140	0.0151742
763.218	0.0151285
763.296	0.0152151
763.374	0.0151665
763.453	0.0152364
763.531	0.0152479
763.609	0.0151617
763.687	0.0152878
763.765	0.0152529
763.843	0.0152629
763.921	0.0153999
763.999	0.0152486
764.078	0.0152621
764.156	0.0152822
764.234	0.0153339
764.312	0.0154137
764.390	0.0153451
764.468	0.0153410
764.546	0.0152505
764.624	0.0152847
764.703	0.0152513
764.781	0.0151850
764.859	0.0150737
764.937	0.0150590
765.015	0.0150923
765.093	0.0150746
765.171	0.0152148
765.249	0.0151640
765.328	0.0150076
765.406	0.0149899
765.484	0.0150919
765.562	0.0150916
765.640	0.0149513
765.718	0.0149583
765.796	0.0149985
765.874	0.0149915
765.953	0.0150148
766.031	0.0150241
766.109	0.0150536
766.187	0.0150844
766.265	0.0150191
766.343	0.0150624
766.421	0.0151538
766.499	0.0151075
766.578	0.0151222
766.656	0.0151199
766.734	0.0151550
766.812	0.0151205
766.890	0.0151738
766.968	0.0151949
767.046	0.0150405
767.124	0.0152619
767.203	0.0153311
767.281	0.0152306
767.359	0.0151530
767.437	0.0152372
767.515	0.0153189
767.593	0.0153641
767.671	0.0154710
767.749	0.0153327
767.828	0.0153050
767.906	0.0152818
767.984	0.0153622
768.062	0.0154633
768.140	0.0152547
768.218	0.0153030
768.296	0.0154832
768.374	0.0153529
768.453	0.0152975
768.531	0.0152553
768.609	0.0151102
768.687	0.0149895
768.765	0.0152552
768.843	0.0151912
768.921	0.0151630
768.999	0.0151704
769.078	0.0151848
769.156	0.0151801
769.234	0.0149498
769.312	0.0149776
769.390	0.0150669
769.468	0.0151362
769.546	0.0149799
769.624	0.0150253
769.703	0.0150848
769.781	0.0150443
769.859	0.0151093
769.937	0.0152357
770.015	0.0151204
770.093	0.0150946
770.171	0.0151968
770.249	0.0151914
770.328	0.0152020
770.406	0.0154348
770.484	0.0151786
770.562	0.0151591
770.640	0.0153254
770.718	0.0152136
770.796	0.0152339
770.874	0.0151333
770.953	0.0150635
771.031	0.0151555
771.109	0.0152418
771.187	0.0152088
771.265	0.0151817
771.343	0.0151311
771.421	0.0152135
771.499	0.0149665
771.578	0.0152798
771.656	0.0153176
771.734	0.0153239
771.812	0.0152964
771.890	0.0152480
771.968	0.0152276
772.046	0.0152159
772.124	0.0152240
772.203	0.0152128
772.281	0.0153210
772.359	0.0152991
772.437	0.0151592
772.515	0.0152036
772.593	0.0152689
772.671	0.0153558
772.749	0.0151755
772.828	0.0150867
772.906	0.0150016
772.984	0.0150600
773.062	0.0151898
773.140	0.0152561
773.218	0.0150954
773.296	0.0151060
773.374	0.0150343
773.453	0.0150266
773.531	0.0150420
773.609	0.0150514
773.687	0.0151654
773.765	0.0150085
773.843	0.0151846
773.921	0.0151087
773.999	0.0151200
774.078	0.0150299
774.156	0.0152386
774.234	0.0152371
774.312	0.0151535
774.390	0.0151443
774.468	0.0151826
774.546	0.0151099
774.624	0.0152731
774.703	0.0154048
774.781	0.0152360
774.859	0.0152315
774.937	0.0154240
775.015	0.0153609
775.093	0.0153186
775.171	0.0154365
775.249	0.0154040
775.328	0.0154402
775.406	0.0154657
775.484	0.0154060
775.562	0.0153033
775.640	0.0154874
775.718	0.0153392
775.796	0.0153594
775.874	0.0153622
775.953	0.0153531
776.031	0.0152699
776.109	0.0152349
776.187	0.0153612
776.265	0.0153143
776.343	0.0152361
776.421	0.0150852
776.499	0.0152777
776.578	0.0152826
776.656	0.0150737
776.734	0.0149344
776.812	0.0150243
776.890	0.0151446
776.968	0.0152040
777.046	0.0151818
777.124	0.0152789
777.203	0.0150935
777.281	0.0150843
777.359	0.0151383
777.437	0.0151055
777.515	0.0151531
777.593	0.0151042
777.671	0.0150805
777.749	0.0152463
777.828	0.0152160
777.906	0.0151051
777.984	0.0151698
778.062	0.0151667
778.140	0.0150060
778.218	0.0152266
778.296	0.0151638
778.374	0.0150887
778.453	0.0150606
778.531	0.0152586
778.609	0.0152702
778.687	0.0152422
778.765	0.0151801
778.843	0.0153623
778.921	0.0153605
778.999	0.0152994
779.078	0.0153965
779.156	0.0151946
779.234	0.0153262
779.312	0.0152051
779.390	0.0153435
779.468	0.0154079
779.546	0.0152953
779.624	0.0153005
779.703	0.0151348
779.781	0.0152088
779.859	0.0151794
779.937	0.0152201
780.015	0.0151466
780.093	0.0152804
780.171	0.0152452
780.249	0.0151794
780.328	0.0152539
780.406	0.0150459
780.484	0.0151200
780.562	0.0151063
780.640	0.0151950
780.718	0.0149898
780.796	0.0150494
780.874	0.0151599
780.953	0.0150854
781.031	0.0151393
781.109	0.0151588
781.187	0.0150883
781.265	0.0152261
781.343	0.0151957
781.421	0.0151458
781.499	0.0151843
781.578	0.0151837
781.656	0.0151048
781.734	0.0151334
781.812	0.0151810
781.890	0.0151511
781.968	0.0151482
782.046	0.0152303
782.124	0.0153204
782.203	0.0151803
782.281	0.0152428
782.359	0.0151884
782.437	0.0151640
782.515	0.0151854
782.593	0.0151103
782.671	0.0151499
782.749	0.0148705
782.828	0.0150560
782.906	0.0152092
782.984	0.0150903
783.062	0.0151556
783.140	0.0151471
783.218	0.0152203
783.296	0.0152369
783.374	0.0151926
783.453	0.0151605
783.531	0.0154065
783.609	0.0152765
783.687	0.0151729
783.765	0.0153598
783.843	0.0152413
783.921	0.0152061
783.999	0.0152796
784.078	0.0152703
784.156	0.0152840
784.234	0.0151955
784.312	0.0151450
784.390	0.0151044
784.468	0.0150485
784.546	0.0149500
784.624	0.0149780
784.703	0.0149216
784.781	0.0149247
784.859	0.0149856
784.937	0.0149895
785.015	0.0149853
785.093	0.0149570
785.171	0.0149159
785.249	0.0149494
785.328	0.0151546
785.406	0.0150990
785.484	0.0150719
785.562	0.0152696
785.640	0.0152031
785.718	0.0151950
785.796	0.0151492
785.874	0.0152998
785.953	0.0153033
786.031	0.0151718
786.109	0.0151461
786.187	0.0152306
786.265	0.0153006
786.343	0.0152663
786.421	0.0152013
786.499	0.0151953
786.578	0.0150774
786.656	0.0151150
786.734	0.0150536
786.812	0.0152281
786.890	0.0151149
786.968	0.0150557
787.046	0.0151447
787.124	0.0152524
787.203	0.0151563
787.281	0.0150551
787.359	0.0151321
787.437	0.0150851
787.515	0.0150614
787.593	0.0152128
787.671	0.0151682
787.749	0.0151749
787.828	0.0151830
787.906	0.0150520
787.984	0.0151707
788.062	0.0149447
788.140	0.0149515
788.218	0.0150734
788.296	0.0150996
788.374	0.0150023
788.453	0.0150327
788.531	0.0148681
788.609	0.0149095
788.687	0.0151234
788.765	0.0150306
788.843	0.0149000
788.921	0.0149342
788.999	0.0150449
789.078	0.0152037
789.156	0.0150185
789.234	0.0150042
789.312	0.0150636
789.390	0.0149865
789.468	0.0149890
789.546	0.0151037
789.624	0.0151770
789.703	0.0151413
789.781	0.0152750
789.859	0.0153112
789.937	0.0152376
790.015	0.0153225
790.093	0.0152620
790.171	0.0152344
790.249	0.0152424
790.328	0.0152436
790.406	0.0152496
790.484	0.0152396
790.562	0.0151532
790.640	0.0151988
790.718	0.0152008
790.796	0.0151909
790.874	0.0150423
790.953	0.0150617
791.031	0.0150627
791.109	0.0152492
791.187	0.0149873
791.265	0.0149963
791.343	0.0149751
791.421	0.0148592
791.499	0.0149603
791.578	0.0149679
791.656	0.0150887
791.734	0.0150581
791.812	0.0151485
791.890	0.0151299
791.968	0.0151779
792.046	0.0151871
792.124	0.0150574
792.203	0.0151505
792.281	0.0151668
792.359	0.0152879
792.437	0.0152856
792.515	0.0151401
792.593	0.0150442
792.671	0.0149468
792.749	0.0151524
792.828	0.0150702
792.906	0.0150555
792.984	0.0152035
793.062	0.0151305
793.140	0.0151062
793.218	0.0150089
793.296	0.0150333
793.374	0.0150151
793.453	0.0150417
793.531	0.0151243
793.609	0.0151384
793.687	0.0149970
793.765	0.0150348
793.843	0.0151445
793.921	0.0153313
793.999	0.0151296
794.078	0.0151118
794.156	0.0150909
794.234	0.0151281
794.312	0.0152412
794.390	0.0152421
794.468	0.0154012
794.546	0.0151640
794.624	0.0151393
794.703	0.0152769
794.781	0.0151914
794.859	0.0151108
794.937	0.0152380
795.015	0.0151727
795.093	0.0151220
795.171	0.0150050
795.249	0.0149022
795.328	0.0150311
795.406	0.0150802
795.484	0.0149475
795.562	0.0150690
795.640	0.0150763
795.718	0.0151142
795.796	0.0149609
795.874	0.0151906
795.953	0.0150143
796.031	0.0151283
796.109	0.0151685
796.187	0.0151349
796.265	0.0150500
796.343	0.0150307
796.421	0.0151387
796.499	0.0150910
796.578	0.0151041
796.656	0.0151842
796.734	0.0152271
796.812	0.0151585
796.890	0.0151927
796.968	0.0151867
797.046	0.0149387
797.124	0.0150021
797.203	0.0151830
797.281	0.0152370
797.359	0.0152811
797.437	0.0151530
797.515	0.0153002
797.593	0.0151582
797.671	0.0151548
797.749	0.0151427
797.828	0.0152345
797.906	0.0152507
797.984	0.0152344
798.062	0.0151886
798.140	0.0151423
798.218	0.0151273
798.296	0.0151032
798.374	0.0151584
798.453	0.0151960
798.531	0.0151753
798.609	0.0152292
798.687	0.0152662
798.765	0.0151611
798.843	0.0152597
798.921	0.0152463
798.999	0.0150100
799.078	0.0153765
799.156	0.0152636
799.234	0.0152670
799.312	0.0152032
799.390	0.0153101
799.468	0.0151974
799.546	0.0152245
799.624	0.0152908
799.703	0.0152296
799.781	0.0152256
799.859	0.0153403
799.937	0.0154126
800.015	0.0153032
800.093	0.0151502
800.171	0.0152507
800.249	0.0151673
800.328	0.0150444
800.406	0.0151823
800.484	0.0152674
800.562	0.0150652
800.640	0.0151017
800.718	0.0153137
800.796	0.0151011
800.874	0.0151894
800.953	0.0150456
801.031	0.0150587
801.109	0.0152126
801.187	0.0151747
801.265	0.0151620
801.343	0.0152261
801.421	0.0151884
801.499	0.0152290
801.578	0.0152432
801.656	0.0152534
801.734	0.0151511
801.812	0.0152214
801.890	0.0153687
801.968	0.0152425
802.046	0.0150730
802.124	0.0153301
802.203	0.0152828
802.281	0.0151929
802.359	0.0152265
802.437	0.0150791
802.515	0.0150233
802.593	0.0149255
802.671	0.0150792
802.749	0.0150361
802.828	0.0150828
802.906	0.0150148
802.984	0.0150436
803.062	0.0150653
803.140	0.0150801
803.218	0.0150775
803.296	0.0151257
803.374	0.0151263
803.453	0.0150953
803.531	0.0150569
803.609	0.0152220
803.687	0.0150860
803.765	0.0152105
803.843	0.0152337
803.921	0.0151336
803.999	0.0152191
804.078	0.0151878
804.156	0.0152802
804.234	0.0151887
804.312	0.0151437
804.390	0.0152319
804.468	0.0152727
804.546	0.0151187
804.624	0.0150835
804.703	0.0151354
804.781	0.0150349
804.859	0.0150376
804.937	0.0150340
805.015	0.0150355
805.093	0.0151057
805.171	0.0150974
805.249	0.0150817
805.328	0.0150594
805.406	0.0152308
805.484	0.0152418
805.562	0.0152567
805.640	0.0152255
805.718	0.0151242
805.796	0.0152790
805.874	0.0152261
805.953	0.0152270
806.031	0.0152145
806.109	0.0151097
806.187	0.0151674
806.265	0.0149796
806.343	0.0150079
806.421	0.0150330
806.499	0.0150303
806.578	0.0150863
806.656	0.0150751
806.734	0.0149088
806.812	0.0149601
806.890	0.0149922
806.968	0.0148687
807.046	0.0149252
807.124	0.0150572
807.203	0.0150176
807.281	0.0150005
807.359	0.0150546
807.437	0.0150780
807.515	0.0149951
807.593	0.0150976
807.671	0.0149095
807.749	0.0153317
807.828	0.0152151
807.906	0.0151199
807.984	0.0151456
808.062	0.0151721
808.140	0.0152351
808.218	0.0152050
808.296	0.0152122
808.374	0.0151459
808.453	0.0152621
808.531	0.0150890
808.609	0.0151572
808.687	0.0151132
808.765	0.0149814
808.843	0.0151955
808.921	0.0148850
808.999	0.0149164
809.078	0.0150793
809.156	0.0150040
809.234	0.0149847
809.312	0.0150437
809.390	0.0150150
809.468	0.0151336
809.546	0.0151572
809.624	0.0150109
809.703	0.0150820
809.781	0.0150310
809.859	0.0151127
809.937	0.0151505
810.015	0.0152035
810.093	0.0152219
810.171	0.0151170
810.249	0.0151617
810.328	0.0150694
810.406	0.0150842
810.484	0.0151302
810.562	0.0151497
810.640	0.0149928
810.718	0.0150390
810.796	0.0149151
810.874	0.0150201
810.953	0.0149930
811.031	0.0150826
811.109	0.0150514
811.187	0.0149817
811.265	0.0150652
811.343	0.0151250
811.421	0.0150446
811.499	0.0150748
811.578	0.0150076
811.656	0.0150986
811.734	0.0151234
811.812	0.0152036
811.890	0.0151994
811.968	0.0150199
812.046	0.0151664
812.124	0.0153194
812.203	0.0151460
812.281	0.0151093
812.359	0.0150861
812.437	0.0150830
812.515	0.0150811
812.593	0.0150614
812.671	0.0151742
812.749	0.0151484
812.828	0.0150304
812.906	0.0149911
812.984	0.0150410
813.062	0.0150037
813.140	0.0149385
813.218	0.0150758
813.296	0.0150480
813.374	0.0149120
813.453	0.0150614
813.531	0.0149972
813.609	0.0150902
813.687	0.0151326
813.765	0.0149667
813.843	0.0150423
813.921	0.0149573
813.999	0.0150425
814.078	0.0151153
814.156	0.0150691
814.234	0.0150139
814.312	0.0149577
814.390	0.0152190
814.468	0.0151283
814.546	0.0150426
814.624	0.0150156
814.703	0.0150156
814.781	0.0150259
814.859	0.0151187
814.937	0.0150344
815.015	0.0150393
815.093	0.0150006
815.171	0.0150928
815.249	0.0151520
815.328	0.0150587
815.406	0.0150764
815.484	0.0151414
815.562	0.0151850
815.640	0.0151689
815.718	0.0152844
815.796	0.0151793
815.874	0.0152364
815.953	0.0152598
816.031	0.0153056
816.109	0.0152945
816.187	0.0152084
816.265	0.0151936
816.343	0.0152153
816.421	0.0152885
816.499	0.0151194
816.578	0.0151032
816.656	0.0151480
816.734	0.0151215
816.812	0.0150691
816.890	0.0151147
816.968	0.0151152
817.046	0.0152301
817.124	0.0150971
817.203	0.0151556
817.281	0.0152450
817.359	0.0150851
817.437	0.0151006
817.515	0.0152516
817.593	0.0150705
817.671	0.0152340
817.749	0.0152322
817.828	0.0151190
817.906	0.0149934
817.984	0.0150817
818.062	0.0151752
818.140	0.0151581
818.218	0.0150887
818.296	0.0151651
818.374	0.0150716
818.453	0.0151736
818.531	0.0152949
818.609	0.0151092
818.687	0.0150247
818.765	0.0150025
818.843	0.0150572
818.921	0.0150262
818.999	0.0153576
819.078	0.0150559
819.156	0.0150598
819.234	0.0152386
819.312	0.0152084
819.390	0.0151813
819.468	0.0153625
819.546	0.0153136
819.624	0.0153970
819.703	0.0154180
819.781	0.0153027
819.859	0.0152345
819.937	0.0151457
820.015	0.0152444
820.093	0.0153172
820.171	0.0152716
820.249	0.0152570
820.328	0.0151582
820.406	0.0150751
820.484	0.0151537
820.562	0.0150752
820.640	0.0150743
820.718	0.0150719
820.796	0.0151692
820.874	0.0150335
820.953	0.0150352
821.031	0.0149834
821.109	0.0149789
821.187	0.0150660
821.265	0.0150147
821.343	0.0150480
821.421	0.0150175
821.499	0.0150475
821.578	0.0150630
821.656	0.0152262
821.734	0.0151900
821.812	0.0151930
821.890	0.0152135
821.968	0.0152899
822.046	0.0152744
822.124	0.0151821
822.203	0.0151959
822.281	0.0152676
822.359	0.0152156
822.437	0.0151332
822.515	0.0150669
822.593	0.0150484
822.671	0.0150085
822.749	0.0152249
822.828	0.0151054
822.906	0.0150382
822.984	0.0150027
823.062	0.0150325
823.140	0.0149320
823.218	0.0151646
823.296	0.0151567
823.374	0.0150470
823.453	0.0151833
823.531	0.0151465
823.609	0.0151207
823.687	0.0151284
823.765	0.0152170
823.843	0.0151672
823.921	0.0152106
823.999	0.0153672
824.078	0.0150918
824.156	0.0153175
824.234	0.0152984
824.312	0.0151131
824.390	0.0151389
824.468	0.0151774
824.546	0.0153349
824.624	0.0151857
824.703	0.0151885
824.781	0.0151921
824.859	0.0152579
824.937	0.0152532
825.015	0.0150903
825.093	0.0151931
825.171	0.0152550
825.249	0.0150871
825.328	0.0152832
825.406	0.0152237
825.484	0.0151370
825.562	0.0151840
825.640	0.0152670
825.718	0.0151577
825.796	0.0151839
825.874	0.0151157
825.953	0.0151266
826.031	0.0150858
826.109	0.0151685
826.187	0.0151427
826.265	0.0151175
826.343	0.0150832
826.421	0.0151347
826.499	0.0150506
826.578	0.0150086
826.656	0.0151720
826.734	0.0150844
826.812	0.0151357
826.890	0.0150984
826.968	0.0150783
827.046	0.0152444
827.124	0.0152743
827.203	0.0154145
827.281	0.0150789
827.359	0.0152232
827.437	0.0151562
827.515	0.0152232
827.593	0.0152754
827.671	0.0152092
827.749	0.0152007
827.828	0.0152332
827.906	0.0152664
827.984	0.0151837
828.062	0.0152390
828.140	0.0151964
828.218	0.0152255
828.296	0.0152055
828.374	0.0153044
828.453	0.0150983
828.531	0.0151633
828.609	0.0151228
828.687	0.0150935
828.765	0.0150980
828.843	0.0151062
828.921	0.0150977
828.999	0.0150725
829.078	0.0150097
829.156	0.0150791
829.234	0.0151143
829.312	0.0152053
829.390	0.0150727
829.468	0.0149183
829.546	0.0149911
829.624	0.0150578
829.703	0.0150256
829.781	0.0150149
829.859	0.0150864
829.937	0.0151103
830.015	0.0150607
830.093	0.0150044
830.171	0.0149636
830.249	0.0151199
830.328	0.0151325
830.406	0.0151369
830.484	0.0149326
830.562	0.0151947
830.640	0.0151208
830.718	0.0150748
830.796	0.0150557
830.874	0.0150241
830.953	0.0151515
831.031	0.0152612
831.109	0.0152081
831.187	0.0151032
831.265	0.0151417
831.343	0.0152547
831.421	0.0150779
831.499	0.0152291
831.578	0.0152139
831.656	0.0151390
831.734	0.0152245
831.812	0.0151346
831.890	0.0151839
831.968	0.0151037
832.046	0.0151093
832.124	0.0150906
832.203	0.0152291
832.281	0.0151900
832.359	0.0151781
832.437	0.0151800
832.515	0.0152618
832.593	0.0152392
832.671	0.0151009
832.749	0.0151847
832.828	0.0152635
832.906	0.0150681
832.984	0.0151350
833.062	0.0151939
833.140	0.0152679
833.218	0.0151819
833.296	0.0151736
833.374	0.0151292
833.453	0.0152586
833.531	0.0152309
833.609	0.0151524
833.687	0.0151511
833.765	0.0152916
833.843	0.0153278
833.921	0.0150822
833.999	0.0151708
834.078	0.0152132
834.156	0.0152574
834.234	0.0153359
834.312	0.0152419
834.390	0.0151913
834.468	0.0152763
834.546	0.0151836
834.624	0.0151511
834.703	0.0152775
834.781	0.0151105
834.859	0.0152496
834.937	0.0152634
835.015	0.0153016
835.093	0.0153128
835.171	0.0151818
835.249	0.0153834
835.328	0.0150913
835.406	0.0153398
835.484	0.0151975
835.562	0.0152699
835.640	0.0151953
835.718	0.0152329
835.796	0.0152351
835.874	0.0153033
835.953	0.0152374
836.031	0.0152879
836.109	0.0153279
836.187	0.0151384
836.265	0.0152161
836.343	0.0150368
836.421	0.0151725
836.499	0.0151875
836.578	0.0151093
836.656	0.0150909
836.734	0.0151155
836.812	0.0151140
836.890	0.0151858
836.968	0.0150734
837.046	0.0149513
837.124	0.0150551
837.203	0.0152233
837.281	0.0152277
837.359	0.0151444
837.437	0.0150906
837.515	0.0152171
837.593	0.0152549
837.671	0.0152549
837.749	0.0151408
837.828	0.0152603
837.906	0.0151839
837.984	0.0151904
838.062	0.0154298
838.140	0.0152618
838.218	0.0151181
838.296	0.0152795
838.374	0.0151228
838.453	0.0150964
838.531	0.0152694
838.609	0.0152361
838.687	0.0152486
838.765	0.0152259
838.843	0.0151308
838.921	0.0152873
838.999	0.0151781
839.078	0.0152052
839.156	0.0152460
839.234	0.0152371
839.312	0.0152456
839.390	0.0151231
839.468	0.0152898
839.546	0.0152302
839.624	0.0151498
839.703	0.0152325
839.781	0.0151297
839.859	0.0152428
839.937	0.0150749
840.015	0.0152179
840.093	0.0151460
840.171	0.0152363
840.249	0.0150315
840.328	0.0151285
840.406	0.0151701
840.484	0.0150845
840.562	0.0150826
840.640	0.0150883
840.718	0.0150845
840.796	0.0151671
840.874	0.0151332
840.953	0.0150031
841.031	0.0150889
841.109	0.0150540
841.187	0.0150579
841.265	0.0151427
841.343	0.0151935
841.421	0.0151080
841.499	0.0150855
841.578	0.0151384
841.656	0.0152742
841.734	0.0152307
841.812	0.0150939
841.890	0.0151952
841.968	0.0154147
842.046	0.0152373
842.124	0.0151825
842.203	0.0151677
842.281	0.0152509
842.359	0.0153988
842.437	0.0153120
842.515	0.0152174
842.593	0.0153234
842.671	0.0152898
842.749	0.0153354
842.828	0.0153564
842.906	0.0153624
842.984	0.0152359
843.062	0.0151056
843.140	0.0152036
843.218	0.0151785
843.296	0.0152270
843.374	0.0152766
843.453	0.0152776
843.531	0.0151672
843.609	0.0151022
843.687	0.0151651
843.765	0.0150475
843.843	0.0151936
843.921	0.0151134
843.999	0.0150545
844.078	0.0150326
844.156	0.0151045
844.234	0.0150475
844.312	0.0151334
844.390	0.0150435
844.468	0.0152367
844.546	0.0152196
844.624	0.0150983
844.703	0.0151559
844.781	0.0151595
844.859	0.0152464
844.937	0.0151524
845.015	0.0152262
845.093	0.0152086
845.171	0.0151158
845.249	0.0152657
845.328	0.0152843
845.406	0.0151469
845.484	0.0151359
845.562	0.0151521
845.640	0.0153515
845.718	0.0152345
845.796	0.0150508
845.874	0.0152316
845.953	0.0151538
846.031	0.0152357
846.109	0.0153001
846.187	0.0151476
846.265	0.0152368
846.343	0.0152287
846.421	0.0151160
846.499	0.0152722
846.578	0.0152459
846.656	0.0152817
846.734	0.0152864
846.812	0.0152431
846.890	0.0152943
846.968	0.0151443
847.046	0.0151060
847.124	0.0152247
847.203	0.0152435
847.281	0.0151419
847.359	0.0151148
847.437	0.0150486
847.515	0.0150448
847.593	0.0151825
847.671	0.0151322
847.749	0.0151363
847.828	0.0150312
847.906	0.0151494
847.984	0.0151085
848.062	0.0150683
848.140	0.0150863
848.218	0.0149512
848.296	0.0150494
848.374	0.0151029
848.453	0.0150857
848.531	0.0151937
848.609	0.0150878
848.687	0.0151135
848.765	0.0151231
848.843	0.0151318
848.921	0.0150980
848.999	0.0151825
849.078	0.0152818
849.156	0.0151559
849.234	0.0151167
849.312	0.0152872
849.390	0.0152851
849.468	0.0151948
849.546	0.0149708
849.624	0.0153564
849.703	0.0153645
849.781	0.0152454
849.859	0.0152708
849.937	0.0152560
850.015	0.0152834
850.093	0.0153690
850.171	0.0151552
850.249	0.0153214
850.328	0.0152452
850.406	0.0153341
850.484	0.0152106
850.562	0.0153017
850.640	0.0150690
850.718	0.0150600
850.796	0.0151840
850.874	0.0152215
850.953	0.0151434
851.031	0.0150741
851.109	0.0151998
851.187	0.0152220
851.265	0.0151106
851.343	0.0150400
851.421	0.0152393
851.499	0.0150922
851.578	0.0149978
851.656	0.0150666
851.734	0.0150157
851.812	0.0150607
851.890	0.0150323
851.968	0.0150461
852.046	0.0150406
852.124	0.0149213
852.203	0.0148339
852.281	0.0150302
852.359	0.0151260
852.437	0.0151436
852.515	0.0150443
852.593	0.0151102
852.671	0.0151631
852.749	0.0151552
852.828	0.0152692
852.906	0.0150889
852.984	0.0151476
853.062	0.0152345
853.140	0.0152433
853.218	0.0152799
853.296	0.0153072
853.374	0.0151278
853.453	0.0151880
853.531	0.0151713
853.609	0.0153021
853.687	0.0152333
853.765	0.0153458
853.843	0.0154123
853.921	0.0152543
853.999	0.0152379
854.078	0.0152283
854.156	0.0153728
854.234	0.0152859
854.312	0.0153638
854.390	0.0152428
854.468	0.0152289
854.546	0.0151695
854.624	0.0151545
854.703	0.0151040
854.781	0.0151548
854.859	0.0152039
854.937	0.0152102
855.015	0.0151142
855.093	0.0151051
855.171	0.0152060
855.249	0.0151778
855.328	0.0152348
855.406	0.0151514
855.484	0.0151807
855.562	0.0151238
855.640	0.0149887
855.718	0.0151573
855.796	0.0151573
855.874	0.0150903
855.953	0.0150389
856.031	0.0150469
856.109	0.0151116
856.187	0.0151325
856.265	0.0150841
856.343	0.0151183
856.421	0.0151865
856.499	0.0151855
856.578	0.0151481
856.656	0.0152351
856.734	0.0152092
856.812	0.0151017
856.890	0.0152069
856.968	0.0152312
857.046	0.0152785
857.124	0.0153905
857.203	0.0152204
857.281	0.0151793
857.359	0.0152942
857.437	0.0154218
857.515	0.0153330
857.593	0.0153892
857.671	0.0153947
857.749	0.0153311
857.828	0.0153204
857.906	0.0153548
857.984	0.0153268
858.062	0.0151904
858.140	0.0154696
858.218	0.0153867
858.296	0.0150927
858.374	0.0151851
858.453	0.0152654
858.531	0.0152040
858.609	0.0152277
858.687	0.0151183
858.765	0.0151418
858.843	0.0150047
858.921	0.0150877
858.999	0.0150755
859.078	0.0150761
859.156	0.0150906
859.234	0.0150279
859.312	0.0151579
859.390	0.0150839
859.468	0.0152211
859.546	0.0152048
859.624	0.0151300
859.703	0.0150825
859.781	0.0151253
859.859	0.0150961
859.937	0.0151597
860.015	0.0151880
860.093	0.0151637
860.171	0.0151649
860.249	0.0150719
860.328	0.0151085
860.406	0.0150887
860.484	0.0152301
860.562	0.0152666
860.640	0.0152351
860.718	0.0151184
860.796	0.0151686
860.874	0.0152233
860.953	0.0152863
861.031	0.0152399
861.109	0.0152357
861.187	0.0152406
861.265	0.0152856
861.343	0.0152671
861.421	0.0152077
861.499	0.0152086
861.578	0.0152257
861.656	0.0152325
861.734	0.0153128
861.812	0.0151691
861.890	0.0152908
861.968	0.0152892
862.046	0.0152155
862.124	0.0150938
862.203	0.0152648
862.281	0.0151578
862.359	0.0152283
862.437	0.0151703
862.515	0.0151202
862.593	0.0151204
862.671	0.0150504
862.749	0.0151300
862.828	0.0151042
862.906	0.0151570
862.984	0.0151927
863.062	0.0152368
863.140	0.0151342
863.218	0.0150917
863.296	0.0151882
863.374	0.0151917
863.453	0.0151731
863.531	0.0150720
863.609	0.0151964
863.687	0.0150873
863.765	0.0149533
863.843	0.0150933
863.921	0.0151145
863.999	0.0151390
864.078	0.0150120
864.156	0.0151470
864.234	0.0151637
864.312	0.0151154
864.390	0.0150402
864.468	0.0150999
864.546	0.0152087
864.624	0.0151998
864.703	0.0153570
864.781	0.0152336
864.859	0.0151481
864.937	0.0152869
865.015	0.0152568
865.093	0.0152367
865.171	0.0153487
865.249	0.0153033
865.328	0.0152100
865.406	0.0151821
865.484	0.0152478
865.562	0.0153300
865.640	0.0152904
865.718	0.0151734
865.796	0.0151411
865.874	0.0152350
865.953	0.0152177
866.031	0.0152023
866.109	0.0152351
866.187	0.0152293
866.265	0.0151422
866.343	0.0151624
866.421	0.0150541
866.499	0.0151611
866.578	0.0151055
866.656	0.0148722
866.734	0.0150130
866.812	0.0150207
866.890	0.0151030
866.968	0.0151009
867.046	0.0150477
867.124	0.0150525
867.203	0.0150803
867.281	0.0148839
867.359	0.0149859
867.437	0.0151286
867.515	0.0150936
867.593	0.0150674
867.671	0.0151301
867.749	0.0151498
867.828	0.0151129
867.906	0.0152204
867.984	0.0152313
868.062	0.0151732
868.140	0.0151657
868.218	0.0151105
868.296	0.0152559
868.374	0.0152271
868.453	0.0151302
868.531	0.0153520
868.609	0.0151797
868.687	0.0151770
868.765	0.0151331
868.843	0.0152072
868.921	0.0152544
868.999	0.0152605
869.078	0.0153616
869.156	0.0152771
869.234	0.0153506
869.312	0.0153092
869.390	0.0154349
869.468	0.0153639
869.546	0.0153649
869.624	0.0152660
869.703	0.0153056
869.781	0.0152208
869.859	0.0151181
869.937	0.0151754
870.015	0.0153130
870.093	0.0152484
870.171	0.0150288
870.249	0.0151259
870.328	0.0150318
870.406	0.0150725
870.484	0.0152119
870.562	0.0151965
870.640	0.0151381
870.718	0.0152135
870.796	0.0149827
870.874	0.0149644
870.953	0.0151433
871.031	0.0152670
871.109	0.0151366
871.187	0.0150552
871.265	0.0151212
871.343	0.0151079
871.421	0.0151492
871.499	0.0150864
871.578	0.0150767
871.656	0.0152016
871.734	0.0150352
871.812	0.0152557
871.890	0.0151779
871.968	0.0151899
872.046	0.0151119
872.124	0.0152572
872.203	0.0151595
872.281	0.0151619
872.359	0.0152251
872.437	0.0152547
872.515	0.0151978
872.593	0.0151556
872.671	0.0153378
872.749	0.0154053
872.828	0.0153049
872.906	0.0151513
872.984	0.0152273
873.062	0.0151556
873.140	0.0151413
873.218	0.0153180
873.296	0.0154243
873.374	0.0153024
873.453	0.0154062
873.531	0.0153467
873.609	0.0152571
873.687	0.0151714
873.765	0.0151713
873.843	0.0151530
873.921	0.0151972
873.999	0.0150688
874.078	0.0152395
874.156	0.0151183
874.234	0.0152233
874.312	0.0152129
874.390	0.0150726
874.468	0.0151105
874.546	0.0150140
874.624	0.0151033
874.703	0.0150940
874.781	0.0151582
874.859	0.0151086
874.937	0.0152279
875.015	0.0152460
875.093	0.0151681
875.171	0.0151202
875.249	0.0150225
875.328	0.0151898
875.406	0.0151048
875.484	0.0151839
875.562	0.0152998
875.640	0.0152120
875.718	0.0150867
875.796	0.0152278
875.874	0.0152880
875.953	0.0151154
876.031	0.0152570
876.109	0.0152509
876.187	0.0152078
876.265	0.0154353
876.343	0.0151852
876.421	0.0152861
876.499	0.0152422
876.578	0.0151868
876.656	0.0152139
876.734	0.0153187
876.812	0.0150449
876.890	0.0152664
876.968	0.0151557
877.046	0.0152610
877.124	0.0152276
877.203	0.0151068
877.281	0.0152533
877.359	0.0151401
877.437	0.0152318
877.515	0.0152480
877.593	0.0152228
877.671	0.0151989
877.749	0.0150296
877.828	0.0150780
877.906	0.0150900
877.984	0.0152046
878.062	0.0150475
878.140	0.0150301
878.218	0.0150505
878.296	0.0151845
878.374	0.0151332
878.453	0.0150810
878.531	0.0151247
878.609	0.0150534
878.687	0.0150973
878.765	0.0151583
878.843	0.0150475
878.921	0.0149721
878.999	0.0151566
879.078	0.0150342
879.156	0.0151209
879.234	0.0151315
879.312	0.0151175
879.390	0.0149403
879.468	0.0149747
879.546	0.0151342
879.624	0.0150876
879.703	0.0149961
879.781	0.0150083
879.859	0.0152271
879.937	0.0151176
880.015	0.0151199
880.093	0.0150669
880.171	0.0151273
880.249	0.0152488
880.328	0.0149843
880.406	0.0151510
880.484	0.0151015
880.562	0.0150687
880.640	0.0151077
880.718	0.0152443
880.796	0.0153127
880.874	0.0150688
880.953	0.0149586
881.031	0.0150480
881.109	0.0151823
881.187	0.0151917
881.265	0.0150226
881.343	0.0150134
881.421	0.0151643
881.499	0.0150668
881.578	0.0151108
881.656	0.0151170
881.734	0.0149571
881.812	0.0150068
881.890	0.0151400
881.968	0.0149522
882.046	0.0150132
882.124	0.0151099
882.203	0.0150409
882.281	0.0150766
882.359	0.0151730
882.437	0.0150159
882.515	0.0150510
882.593	0.0151891
882.671	0.0150122
882.749	0.0151133
882.828	0.0151825
882.906	0.0151481
882.984	0.0152010
883.062	0.0151133
883.140	0.0152595
883.218	0.0152394
883.296	0.0150816
883.374	0.0151170
883.453	0.0151205
883.531	0.0151643
883.609	0.0151366
883.687	0.0152087
883.765	0.0151061
883.843	0.0149213
883.921	0.0152734
883.999	0.0151783
884.078	0.0152156
884.156	0.0150587
884.234	0.0151375
884.312	0.0151941
884.390	0.0151479
884.468	0.0151513
884.546	0.0153232
884.624	0.0150613
884.703	0.0151176
884.781	0.0151498
884.859	0.0150603
884.937	0.0151840
885.015	0.0150302
885.093	0.0151601
885.171	0.0150729
885.249	0.0150053
885.328	0.0150215
885.406	0.0151468
885.484	0.0149991
885.562	0.0150528
885.640	0.0151112
885.718	0.0151447
885.796	0.0151285
885.874	0.0150412
885.953	0.0150623
886.031	0.0150673
886.109	0.0151332
886.187	0.0152101
886.265	0.0151064
886.343	0.0151589
886.421	0.0151888
886.499	0.0149914
886.578	0.0150780
886.656	0.0153264
886.734	0.0150286
886.812	0.0151707
886.890	0.0151749
886.968	0.0152517
887.046	0.0151612
887.124	0.0151183
887.203	0.0152667
887.281	0.0151640
887.359	0.0152692
887.437	0.0151920
887.515	0.0152347
887.593	0.0152792
887.671	0.0151854
887.749	0.0153082
887.828	0.0151447
887.906	0.0151870
887.984	0.0150879
888.062	0.0152374
888.140	0.0152654
888.218	0.0152780
888.296	0.0151280
888.374	0.0152953
888.453	0.0151306
888.531	0.0150558
888.609	0.0152007
888.687	0.0151134
888.765	0.0150880
888.843	0.0150912
888.921	0.0150424
888.999	0.0151173
889.078	0.0151122
889.156	0.0151060
889.234	0.0152005
889.312	0.0149406
889.390	0.0150064
889.468	0.0150989
889.546	0.0151262
889.624	0.0151638
889.703	0.0151044
889.781	0.0152035
889.859	0.0151898
889.937	0.0151575
890.015	0.0151730
890.093	0.0152183
890.171	0.0151031
890.249	0.0150668
890.328	0.0151776
890.406	0.0152059
890.484	0.0151982
890.562	0.0151161
890.640	0.0152659
890.718	0.0152302
890.796	0.0150553
890.874	0.0151846
890.953	0.0152319
891.031	0.0152299
891.109	0.0152855
891.187	0.0152799
891.265	0.0151407
891.343	0.0152849
891.421	0.0153263
891.499	0.0152637
891.578	0.0152377
891.656	0.0151886
891.734	0.0152116
891.812	0.0152697
891.890	0.0152209
891.968	0.0152457
892.046	0.0151295
892.124	0.0151556
892.203	0.0151655
892.281	0.0150324
892.359	0.0151431
892.437	0.0153262
892.515	0.0150788
892.593	0.0151659
892.671	0.0150914
892.749	0.0151325
892.828	0.0150980
892.906	0.0151099
892.984	0.0152056
893.062	0.0152116
893.140	0.0150914
893.218	0.0151751
893.296	0.0150936
893.374	0.0152519
893.453	0.0152064
893.531	0.0150481
893.609	0.0151269
893.687	0.0151435
893.765	0.0151932
893.843	0.0151634
893.921	0.0151825
893.999	0.0151469
894.078	0.0151227
894.156	0.0151850
894.234	0.0152113
894.312	0.0151814
894.390	0.0152871
894.468	0.0151131
894.546	0.0152780
894.624	0.0151277
894.703	0.0152332
894.781	0.0153279
894.859	0.0152962
894.937	0.0152677
895.015	0.0152264
895.093	0.0150587
895.171	0.0152900
895.249	0.0153812
895.328	0.0152675
895.406	0.0152782
895.484	0.0152425
895.562	0.0152924
895.640	0.0151455
895.718	0.0150309
895.796	0.0151382
895.874	0.0151971
895.953	0.0151479
896.031	0.0152271
896.109	0.0150510
896.187	0.0151324
896.265	0.0152691
896.343	0.0151736
896.421	0.0151441
896.499	0.0150928
896.578	0.0149674
896.656	0.0151418
896.734	0.0150990
896.812	0.0148278
896.890	0.0151231
896.968	0.0152217
897.046	0.0150952
897.124	0.0150265
897.203	0.0152249
897.281	0.0151074
897.359	0.0150951
897.437	0.0150777
897.515	0.0151659
897.593	0.0152234
897.671	0.0151180
897.749	0.0152143
897.828	0.0152599
897.906	0.0151789
897.984	0.0151336
898.062	0.0154041
898.140	0.0153228
898.218	0.0153374
898.296	0.0153385
898.374	0.0152238
898.453	0.0152036
898.531	0.0151891
898.609	0.0151141
898.687	0.0152903
898.765	0.0152895
898.843	0.0151500
898.921	0.0152334
898.999	0.0151347
899.078	0.0150800
899.156	0.0151881
899.234	0.0151983
899.312	0.0151524
899.390	0.0152228
899.468	0.0152740
899.546	0.0152030
899.624	0.0151697
899.703	0.0152882
899.781	0.0151099
899.859	0.0151199
899.937	0.0151934
900.015	0.0152411
900.093	0.0152074
900.171	0.0151505
900.249	0.0151873
900.328	0.0150898
900.406	0.0149960
900.484	0.0151083
900.562	0.0150862
900.640	0.0149570
900.718	0.0151513
900.796	0.0151591
900.874	0.0150787
900.953	0.0150684
901.031	0.0151205
901.109	0.0149469
901.187	0.0150513
901.265	0.0150800
901.343	0.0150505
901.421	0.0150352
901.499	0.0149992
901.578	0.0150096
901.656	0.0151296
901.734	0.0150662
901.812	0.0151373
901.890	0.0151606
901.968	0.0151897
902.046	0.0150401
902.124	0.0150450
902.203	0.0151340
902.281	0.0150482
902.359	0.0151582
902.437	0.0151380
902.515	0.0151319
902.593	0.0150872
902.671	0.0151519
902.749	0.0152271
902.828	0.0151577
902.906	0.0151949
902.984	0.0151729
903.062	0.0150546
903.140	0.0150669
903.218	0.0151051
903.296	0.0150909
903.374	0.0151739
903.453	0.0151807
903.531	0.0151234
903.609	0.0150549
903.687	0.0150887
903.765	0.0151462
903.843	0.0149599
903.921	0.0150117
903.999	0.0149882
904.078	0.0151126
904.156	0.0150371
904.234	0.0150614
904.312	0.0150481
904.390	0.0150550
904.468	0.0151205
904.546	0.0150234
904.624	0.0149952
904.703	0.0150607
904.781	0.0149954
904.859	0.0149906
904.937	0.0150728
905.015	0.0149817
905.093	0.0151196
905.171	0.0150465
905.249	0.0152090
905.328	0.0151189
905.406	0.0150432
905.484	0.0150664
905.562	0.0151211
905.640	0.0151802
905.718	0.0151396
905.796	0.0150977
905.874	0.0150220
905.953	0.0152186
906.031	0.0151932
906.109	0.0150842
906.187	0.0150378
906.265	0.0151987
906.343	0.0151571
906.421	0.0151815
906.499	0.0152663
906.578	0.0151520
906.656	0.0152753
906.734	0.0152235
906.812	0.0152106
906.890	0.0150832
906.968	0.0151724
907.046	0.0150850
907.124	0.0152451
907.203	0.0151100
907.281	0.0151374
907.359	0.0150778
907.437	0.0151049
907.515	0.0151134
907.593	0.0149161
907.671	0.0151528
907.749	0.0149445
907.828	0.0149574
907.906	0.0149814
907.984	0.0150317
908.062	0.0148780
908.140	0.0150253
908.218	0.0151507
908.296	0.0149257
908.374	0.0150146
908.453	0.0150662
908.531	0.0151077
908.609	0.0150672
908.687	0.0150327
908.765	0.0150344
908.843	0.0148956
908.921	0.0150459
908.999	0.0151830
909.078	0.0151040
909.156	0.0151292
909.234	0.0150369
909.312	0.0150937
909.390	0.0150001
909.468	0.0150233
909.546	0.0149467
909.624	0.0150657
909.703	0.0150865
909.781	0.0151225
909.859	0.0149651
909.937	0.0151215
910.015	0.0151641
910.093	0.0150863
910.171	0.0150595
910.249	0.0150768
910.328	0.0152379
910.406	0.0152109
910.484	0.0150951
910.562	0.0150648
910.640	0.0151295
910.718	0.0150148
910.796	0.0151617
910.874	0.0151927
910.953	0.0151234
911.031	0.0151136
911.109	0.0152676
911.187	0.0152437
911.265	0.0153867
911.343	0.0151599
911.421	0.0152861
911.499	0.0150760
911.578	0.0151914
911.656	0.0152627
911.734	0.0152302
911.812	0.0151582
911.890	0.0151763
911.968	0.0150916
912.046	0.0151259
912.124	0.0151971
912.203	0.0151140
912.281	0.0151850
912.359	0.0153047
912.437	0.0151913
912.515	0.0150758
912.593	0.0150972
912.671	0.0151965
912.749	0.0152184
912.828	0.0153002
912.906	0.0153016
912.984	0.0152164
913.062	0.0150522
913.140	0.0152839
913.218	0.0153306
913.296	0.0152380
913.374	0.0152694
913.453	0.0151587
913.531	0.0151144
913.609	0.0150808
913.687	0.0151781
913.765	0.0152419
913.843	0.0152019
913.921	0.0151277
913.999	0.0151754
914.078	0.0152419
914.156	0.0151155
914.234	0.0151001
914.312	0.0152817
914.390	0.0151949
914.468	0.0150875
914.546	0.0152032
914.624	0.0150281
914.703	0.0150282
914.781	0.0152747
914.859	0.0151437
914.937	0.0150213
915.015	0.0151671
915.093	0.0151910
915.171	0.0152881
915.249	0.0151171
915.328	0.0151248
915.406	0.0151353
915.484	0.0150403
915.562	0.0151677
915.640	0.0151537
915.718	0.0150526
915.796	0.0151442
915.874	0.0151456
915.953	0.0151676
916.031	0.0151874
916.109	0.0150691
916.187	0.0152789
916.265	0.0151315
916.343	0.0151605
916.421	0.0151114
916.499	0.0152408
916.578	0.0152728
916.656	0.0151831
916.734	0.0152223
916.812	0.0153458
916.890	0.0153201
916.968	0.0150871
917.046	0.0152860
917.124	0.0152889
917.203	0.0153436
917.281	0.0152198
917.359	0.0152100
917.437	0.0152902
917.515	0.0152407
917.593	0.0152946
917.671	0.0153491
917.749	0.0152485
917.828	0.0152814
917.906	0.0151649
917.984	0.0151646
918.062	0.0152951
918.140	0.0153832
918.218	0.0152918
918.296	0.0152489
918.374	0.0152195
918.453	0.0152576
918.531	0.0152503
918.609	0.0152399
918.687	0.0151984
918.765	0.0151503
918.843	0.0152292
918.921	0.0151457
918.999	0.0151348
919.078	0.0152399
919.156	0.0152248
919.234	0.0150039
919.312	0.0153365
919.390	0.0150838
919.468	0.0151525
919.546	0.0152608
919.624	0.0152422
919.703	0.0152486
919.781	0.0151941
919.859	0.0151456
919.937	0.0151918
