05/06/2022	18:41:23	Ver.	4.1	UNKNOWN
Optical Delay	600.015094	Delta X		0.078125	Sweeps	1	Scan Rate	0/0
Coordinates	Axis 1	NaN	Axis 2	NaN	Axis 3	NaN	Axis 4	NaN	Axis 5	NaN	Axis 6	0.000000
TX Power	0.000000	RX Power	0.000000

600.015	0.0132639
600.093	0.0133186
600.171	0.0134311
600.249	0.0133266
600.328	0.0132188
600.406	0.0132447
600.484	0.0131816
600.562	0.0132599
600.640	0.0133578
600.718	0.0132658
600.796	0.0133433
600.874	0.0133426
600.953	0.0133191
601.031	0.0133490
601.109	0.0133776
601.187	0.0132348
601.265	0.0132816
601.343	0.0133048
601.421	0.0133689
601.499	0.0133906
601.578	0.0132346
601.656	0.0131931
601.734	0.0132374
601.812	0.0132587
601.890	0.0132278
601.968	0.0132838
602.046	0.0133015
602.124	0.0132506
602.203	0.0133748
602.281	0.0132907
602.359	0.0133839
602.437	0.0133359
602.515	0.0134000
602.593	0.0132320
602.671	0.0133179
602.749	0.0132850
602.828	0.0132756
602.906	0.0133181
602.984	0.0132919
603.062	0.0132084
603.140	0.0132906
603.218	0.0132585
603.296	0.0131837
603.374	0.0133315
603.453	0.0133212
603.531	0.0133202
603.609	0.0133895
603.687	0.0133555
603.765	0.0134071
603.843	0.0132142
603.921	0.0131345
603.999	0.0132732
604.078	0.0133143
604.156	0.0133511
604.234	0.0132195
604.312	0.0132869
604.390	0.0133500
604.468	0.0133054
604.546	0.0131969
604.624	0.0132630
604.703	0.0132984
604.781	0.0132469
604.859	0.0133636
604.937	0.0133151
605.015	0.0132582
605.093	0.0133070
605.171	0.0132108
605.249	0.0133238
605.328	0.0133316
605.406	0.0132687
605.484	0.0133195
605.562	0.0132236
605.640	0.0132300
605.718	0.0132695
605.796	0.0131892
605.874	0.0133199
605.953	0.0133632
606.031	0.0133302
606.109	0.0131693
606.187	0.0133596
606.265	0.0132584
606.343	0.0132977
606.421	0.0131626
606.499	0.0132380
606.578	0.0131944
606.656	0.0134703
606.734	0.0133549
606.812	0.0131843
606.890	0.0133887
606.968	0.0133056
607.046	0.0133448
607.124	0.0132228
607.203	0.0132275
607.281	0.0132964
607.359	0.0133896
607.437	0.0134042
607.515	0.0133134
607.593	0.0133226
607.671	0.0133298
607.749	0.0133002
607.828	0.0132507
607.906	0.0132451
607.984	0.0133115
608.062	0.0133278
608.140	0.0132835
608.218	0.0132097
608.296	0.0131822
608.374	0.0133155
608.453	0.0132780
608.531	0.0131889
608.609	0.0133076
608.687	0.0132888
608.765	0.0134065
608.843	0.0132610
608.921	0.0133664
608.999	0.0132520
609.078	0.0132252
609.156	0.0132719
609.234	0.0132491
609.312	0.0131860
609.390	0.0133660
609.468	0.0133438
609.546	0.0132968
609.624	0.0133156
609.703	0.0133115
609.781	0.0132137
609.859	0.0132725
609.937	0.0134070
610.015	0.0133196
610.093	0.0133213
610.171	0.0132656
610.249	0.0135015
610.328	0.0133308
610.406	0.0132891
610.484	0.0133593
610.562	0.0132812
610.640	0.0132613
610.718	0.0133264
610.796	0.0133797
610.874	0.0132748
610.953	0.0134142
611.031	0.0132491
611.109	0.0132825
611.187	0.0132683
611.265	0.0132493
611.343	0.0133145
611.421	0.0134292
611.499	0.0133125
611.578	0.0133694
611.656	0.0133248
611.734	0.0133044
611.812	0.0133865
611.890	0.0132099
611.968	0.0133277
612.046	0.0133144
612.124	0.0133498
612.203	0.0133253
612.281	0.0133542
612.359	0.0132359
612.437	0.0133779
612.515	0.0134138
612.593	0.0132754
612.671	0.0132065
612.749	0.0132088
612.828	0.0133174
612.906	0.0133037
612.984	0.0133444
613.062	0.0133540
613.140	0.0133821
613.218	0.0133935
613.296	0.0133017
613.374	0.0132063
613.453	0.0132714
613.531	0.0133196
613.609	0.0131212
613.687	0.0133061
613.765	0.0133466
613.843	0.0132292
613.921	0.0132113
613.999	0.0132570
614.078	0.0132276
614.156	0.0132794
614.234	0.0132829
614.312	0.0132620
614.390	0.0132314
614.468	0.0132980
614.546	0.0132812
614.624	0.0133511
614.703	0.0132900
614.781	0.0132529
614.859	0.0133302
614.937	0.0133199
615.015	0.0133787
615.093	0.0132786
615.171	0.0133279
615.249	0.0133285
615.328	0.0133879
615.406	0.0132394
615.484	0.0133102
615.562	0.0133449
615.640	0.0132355
615.718	0.0132258
615.796	0.0132384
615.874	0.0132436
615.953	0.0134316
616.031	0.0132349
616.109	0.0134182
616.187	0.0133605
616.265	0.0132981
616.343	0.0133086
616.421	0.0133132
616.499	0.0131155
616.578	0.0131508
616.656	0.0132459
616.734	0.0132828
616.812	0.0132890
616.890	0.0133305
616.968	0.0132845
617.046	0.0133170
617.124	0.0133055
617.203	0.0133156
617.281	0.0132132
617.359	0.0133487
617.437	0.0132309
617.515	0.0133033
617.593	0.0133382
617.671	0.0132401
617.749	0.0133890
617.828	0.0132864
617.906	0.0134094
617.984	0.0132726
618.062	0.0132162
618.140	0.0132311
618.218	0.0133539
618.296	0.0133649
618.374	0.0132413
618.453	0.0133078
618.531	0.0133547
618.609	0.0133426
618.687	0.0133170
618.765	0.0132816
618.843	0.0132652
618.921	0.0132573
618.999	0.0133832
619.078	0.0132943
619.156	0.0132517
619.234	0.0133643
619.312	0.0132461
619.390	0.0134308
619.468	0.0132962
619.546	0.0132284
619.624	0.0133247
619.703	0.0132293
619.781	0.0132445
619.859	0.0132685
619.937	0.0132625
620.015	0.0133036
620.093	0.0132249
620.171	0.0132590
620.249	0.0132834
620.328	0.0133396
620.406	0.0134122
620.484	0.0132854
620.562	0.0132264
620.640	0.0133392
620.718	0.0131660
620.796	0.0132127
620.874	0.0132539
620.953	0.0133584
621.031	0.0134270
621.109	0.0133658
621.187	0.0132824
621.265	0.0131863
621.343	0.0132256
621.421	0.0132912
621.499	0.0133475
621.578	0.0133112
621.656	0.0133001
621.734	0.0132076
621.812	0.0134152
621.890	0.0133121
621.968	0.0133171
622.046	0.0132874
622.124	0.0133225
622.203	0.0133378
622.281	0.0132754
622.359	0.0133447
622.437	0.0132786
622.515	0.0132901
622.593	0.0133157
622.671	0.0132874
622.749	0.0134097
622.828	0.0132279
622.906	0.0133035
622.984	0.0133420
623.062	0.0132765
623.140	0.0134195
623.218	0.0132598
623.296	0.0131032
623.374	0.0132127
623.453	0.0133242
623.531	0.0132672
623.609	0.0133345
623.687	0.0133441
623.765	0.0132741
623.843	0.0132645
623.921	0.0132809
623.999	0.0133250
624.078	0.0132623
624.156	0.0132049
624.234	0.0133535
624.312	0.0133604
624.390	0.0134322
624.468	0.0132571
624.546	0.0133494
624.624	0.0132298
624.703	0.0133492
624.781	0.0132335
624.859	0.0132300
624.937	0.0133583
625.015	0.0132996
625.093	0.0133051
625.171	0.0132361
625.249	0.0131985
625.328	0.0132483
625.406	0.0132574
625.484	0.0132693
625.562	0.0134288
625.640	0.0134052
625.718	0.0132461
625.796	0.0133904
625.874	0.0134559
625.953	0.0132924
626.031	0.0132234
626.109	0.0132327
626.187	0.0133502
626.265	0.0133617
626.343	0.0131295
626.421	0.0132272
626.499	0.0133036
626.578	0.0134740
626.656	0.0133080
626.734	0.0131915
626.812	0.0132874
626.890	0.0133543
626.968	0.0131820
627.046	0.0132441
627.124	0.0132346
627.203	0.0133467
627.281	0.0133054
627.359	0.0133431
627.437	0.0133314
627.515	0.0132648
627.593	0.0133640
627.671	0.0132763
627.749	0.0131874
627.828	0.0132733
627.906	0.0133262
627.984	0.0131938
628.062	0.0132669
628.140	0.0134011
628.218	0.0133623
628.296	0.0131342
628.374	0.0131762
628.453	0.0133050
628.531	0.0133806
628.609	0.0133083
628.687	0.0133595
628.765	0.0132236
628.843	0.0133358
628.921	0.0132880
628.999	0.0132432
629.078	0.0132092
629.156	0.0131887
629.234	0.0133314
629.312	0.0133604
629.390	0.0133359
629.468	0.0132555
629.546	0.0133637
629.624	0.0134081
629.703	0.0133765
629.781	0.0133190
629.859	0.0132958
629.937	0.0132986
630.015	0.0132520
630.093	0.0132401
630.171	0.0132600
630.249	0.0131627
630.328	0.0132211
630.406	0.0134396
630.484	0.0132074
630.562	0.0133679
630.640	0.0132622
630.718	0.0132594
630.796	0.0133481
630.874	0.0133216
630.953	0.0131689
631.031	0.0132172
631.109	0.0132581
631.187	0.0131735
631.265	0.0133179
631.343	0.0133336
631.421	0.0132999
631.499	0.0132890
631.578	0.0132524
631.656	0.0133967
631.734	0.0131603
631.812	0.0132564
631.890	0.0133582
631.968	0.0134240
632.046	0.0131740
632.124	0.0131767
632.203	0.0132873
632.281	0.0131927
632.359	0.0133119
632.437	0.0131390
632.515	0.0132869
632.593	0.0132897
632.671	0.0133207
632.749	0.0133112
632.828	0.0131897
632.906	0.0132458
632.984	0.0132291
633.062	0.0133057
633.140	0.0133325
633.218	0.0133509
633.296	0.0131023
633.374	0.0131145
633.453	0.0133354
633.531	0.0133895
633.609	0.0133269
633.687	0.0131927
633.765	0.0132793
633.843	0.0132905
633.921	0.0132397
633.999	0.0133409
634.078	0.0132339
634.156	0.0132374
634.234	0.0133930
634.312	0.0132663
634.390	0.0133469
634.468	0.0133298
634.546	0.0132398
634.624	0.0131950
634.703	0.0132790
634.781	0.0133644
634.859	0.0134035
634.937	0.0132059
635.015	0.0132792
635.093	0.0132236
635.171	0.0132696
635.249	0.0133605
635.328	0.0132137
635.406	0.0132434
635.484	0.0132319
635.562	0.0131319
635.640	0.0133044
635.718	0.0132890
635.796	0.0133312
635.874	0.0132027
635.953	0.0131998
636.031	0.0131793
636.109	0.0132486
636.187	0.0133067
636.265	0.0131806
636.343	0.0132254
636.421	0.0133255
636.499	0.0132042
636.578	0.0133601
636.656	0.0133293
636.734	0.0132458
636.812	0.0132283
636.890	0.0132670
636.968	0.0132689
637.046	0.0132906
637.124	0.0131497
637.203	0.0132677
637.281	0.0132693
637.359	0.0131927
637.437	0.0134111
637.515	0.0132572
637.593	0.0133582
637.671	0.0130804
637.749	0.0132145
637.828	0.0131789
637.906	0.0132565
637.984	0.0132097
638.062	0.0131738
638.140	0.0131913
638.218	0.0132115
638.296	0.0132008
638.374	0.0133670
638.453	0.0131376
638.531	0.0131248
638.609	0.0132256
638.687	0.0132866
638.765	0.0132793
638.843	0.0133853
638.921	0.0131918
638.999	0.0132951
639.078	0.0133273
639.156	0.0132848
639.234	0.0132372
639.312	0.0133179
639.390	0.0133036
639.468	0.0132884
639.546	0.0132404
639.624	0.0131821
639.703	0.0131794
639.781	0.0133179
639.859	0.0132835
639.937	0.0132979
640.015	0.0132898
640.093	0.0133623
640.171	0.0132647
640.249	0.0131950
640.328	0.0132448
640.406	0.0133583
640.484	0.0134063
640.562	0.0132388
640.640	0.0134323
640.718	0.0133326
640.796	0.0132738
640.874	0.0132270
640.953	0.0131579
641.031	0.0132739
641.109	0.0132364
641.187	0.0131497
641.265	0.0132497
641.343	0.0133275
641.421	0.0133087
641.499	0.0132581
641.578	0.0133212
641.656	0.0132519
641.734	0.0132168
641.812	0.0133849
641.890	0.0133006
641.968	0.0133123
642.046	0.0132465
642.124	0.0133437
642.203	0.0132979
642.281	0.0131415
642.359	0.0130974
642.437	0.0133149
642.515	0.0132101
642.593	0.0132487
642.671	0.0132206
642.749	0.0132479
642.828	0.0133306
642.906	0.0132495
642.984	0.0132551
643.062	0.0130984
643.140	0.0132706
643.218	0.0133786
643.296	0.0132078
643.374	0.0131536
643.453	0.0133131
643.531	0.0132909
643.609	0.0133495
643.687	0.0132831
643.765	0.0133263
643.843	0.0131851
643.921	0.0132780
643.999	0.0133847
644.078	0.0132188
644.156	0.0132034
644.234	0.0132518
644.312	0.0131719
644.390	0.0132602
644.468	0.0132060
644.546	0.0132350
644.624	0.0133960
644.703	0.0133348
644.781	0.0133797
644.859	0.0132653
644.937	0.0131811
645.015	0.0133417
645.093	0.0131771
645.171	0.0131596
645.249	0.0132308
645.328	0.0131080
645.406	0.0132619
645.484	0.0132237
645.562	0.0133784
645.640	0.0132375
645.718	0.0133681
645.796	0.0132447
645.874	0.0132247
645.953	0.0132226
646.031	0.0132927
646.109	0.0133198
646.187	0.0132867
646.265	0.0132107
646.343	0.0133292
646.421	0.0132944
646.499	0.0133161
646.578	0.0133187
646.656	0.0132536
646.734	0.0133182
646.812	0.0132570
646.890	0.0132596
646.968	0.0133840
647.046	0.0133349
647.124	0.0133870
647.203	0.0131658
647.281	0.0131607
647.359	0.0132117
647.437	0.0134039
647.515	0.0134186
647.593	0.0131910
647.671	0.0133192
647.749	0.0134581
647.828	0.0133387
647.906	0.0133276
647.984	0.0131416
648.062	0.0132529
648.140	0.0133147
648.218	0.0133627
648.296	0.0131203
648.374	0.0131371
648.453	0.0132134
648.531	0.0132393
648.609	0.0133352
648.687	0.0133709
648.765	0.0131624
648.843	0.0133524
648.921	0.0133202
648.999	0.0132726
649.078	0.0132640
649.156	0.0132461
649.234	0.0132536
649.312	0.0131973
649.390	0.0133139
649.468	0.0132980
649.546	0.0132067
649.624	0.0131866
649.703	0.0131377
649.781	0.0131938
649.859	0.0133382
649.937	0.0132137
650.015	0.0133713
650.093	0.0133389
650.171	0.0132284
650.249	0.0132129
650.328	0.0133031
650.406	0.0133691
650.484	0.0131923
650.562	0.0131767
650.640	0.0133109
650.718	0.0133195
650.796	0.0133798
650.874	0.0134030
650.953	0.0133733
651.031	0.0131696
651.109	0.0132145
651.187	0.0132906
651.265	0.0134431
651.343	0.0133040
651.421	0.0131985
651.499	0.0132871
651.578	0.0132694
651.656	0.0133187
651.734	0.0132717
651.812	0.0133444
651.890	0.0133758
651.968	0.0133382
652.046	0.0132075
652.124	0.0132423
652.203	0.0132357
652.281	0.0133155
652.359	0.0133090
652.437	0.0132046
652.515	0.0132630
652.593	0.0133348
652.671	0.0132531
652.749	0.0133240
652.828	0.0133684
652.906	0.0133621
652.984	0.0133470
653.062	0.0132120
653.140	0.0131668
653.218	0.0132827
653.296	0.0131889
653.374	0.0132248
653.453	0.0132845
653.531	0.0133260
653.609	0.0132753
653.687	0.0132288
653.765	0.0131821
653.843	0.0132835
653.921	0.0132978
653.999	0.0133275
654.078	0.0131390
654.156	0.0132652
654.234	0.0133123
654.312	0.0132441
654.390	0.0134167
654.468	0.0132127
654.546	0.0132375
654.624	0.0133187
654.703	0.0132360
654.781	0.0131659
654.859	0.0133138
654.937	0.0133376
655.015	0.0133382
655.093	0.0133720
655.171	0.0131789
655.249	0.0131884
655.328	0.0133276
655.406	0.0132822
655.484	0.0132639
655.562	0.0132852
655.640	0.0132944
655.718	0.0131958
655.796	0.0133020
655.874	0.0133276
655.953	0.0132524
656.031	0.0132401
656.109	0.0132539
656.187	0.0133106
656.265	0.0133893
656.343	0.0132275
656.421	0.0132713
656.499	0.0132343
656.578	0.0133177
656.656	0.0133305
656.734	0.0132487
656.812	0.0132924
656.890	0.0132024
656.968	0.0132927
657.046	0.0132912
657.124	0.0133149
657.203	0.0133404
657.281	0.0132283
657.359	0.0133059
657.437	0.0131952
657.515	0.0131395
657.593	0.0132789
657.671	0.0133858
657.749	0.0132769
657.828	0.0132181
657.906	0.0134034
657.984	0.0132616
658.062	0.0132198
658.140	0.0133338
658.218	0.0133507
658.296	0.0133282
658.374	0.0132391
658.453	0.0133736
658.531	0.0133459
658.609	0.0131932
658.687	0.0131051
658.765	0.0132524
658.843	0.0132218
658.921	0.0133103
658.999	0.0133519
659.078	0.0133411
659.156	0.0133764
659.234	0.0132867
659.312	0.0132725
659.390	0.0133612
659.468	0.0133197
659.546	0.0134393
659.624	0.0132924
659.703	0.0132690
659.781	0.0131894
659.859	0.0133392
659.937	0.0132896
660.015	0.0133138
660.093	0.0132758
660.171	0.0132877
660.249	0.0132764
660.328	0.0133058
660.406	0.0133041
660.484	0.0132105
660.562	0.0131714
660.640	0.0131042
660.718	0.0131606
660.796	0.0132050
660.874	0.0132536
660.953	0.0132606
661.031	0.0132192
661.109	0.0134007
661.187	0.0133042
661.265	0.0132172
661.343	0.0132652
661.421	0.0132032
661.499	0.0132413
661.578	0.0133498
661.656	0.0133419
661.734	0.0131579
661.812	0.0132152
661.890	0.0132053
661.968	0.0132162
662.046	0.0133855
662.124	0.0133632
662.203	0.0132574
662.281	0.0131890
662.359	0.0132403
662.437	0.0131982
662.515	0.0133442
662.593	0.0133465
662.671	0.0131975
662.749	0.0131882
662.828	0.0132462
662.906	0.0132725
662.984	0.0131867
663.062	0.0132818
663.140	0.0133344
663.218	0.0130367
663.296	0.0131123
663.374	0.0133723
663.453	0.0132584
663.531	0.0133213
663.609	0.0132449
663.687	0.0132209
663.765	0.0133671
663.843	0.0132239
663.921	0.0131551
663.999	0.0131957
664.078	0.0131966
664.156	0.0132306
664.234	0.0133502
664.312	0.0132243
664.390	0.0131729
664.468	0.0134679
664.546	0.0133244
664.624	0.0133726
664.703	0.0132062
664.781	0.0132108
664.859	0.0132164
664.937	0.0133060
665.015	0.0131750
665.093	0.0132691
665.171	0.0133590
665.249	0.0133053
665.328	0.0132168
665.406	0.0132239
665.484	0.0132487
665.562	0.0133497
665.640	0.0132276
665.718	0.0133117
665.796	0.0133044
665.874	0.0133632
665.953	0.0132224
666.031	0.0132265
666.109	0.0132389
666.187	0.0131438
666.265	0.0131755
666.343	0.0133030
666.421	0.0132989
666.499	0.0133175
666.578	0.0132674
666.656	0.0132885
666.734	0.0132592
666.812	0.0132536
666.890	0.0132314
666.968	0.0132412
667.046	0.0131920
667.124	0.0133004
667.203	0.0133119
667.281	0.0131488
667.359	0.0132164
667.437	0.0130886
667.515	0.0130711
667.593	0.0132160
667.671	0.0132611
667.749	0.0131923
667.828	0.0132169
667.906	0.0131837
667.984	0.0132314
668.062	0.0131294
668.140	0.0132578
668.218	0.0131413
668.296	0.0132823
668.374	0.0132660
668.453	0.0132415
668.531	0.0131488
668.609	0.0132726
668.687	0.0131881
668.765	0.0131952
668.843	0.0130953
668.921	0.0130582
668.999	0.0132436
669.078	0.0132326
669.156	0.0132673
669.234	0.0131650
669.312	0.0131023
669.390	0.0132808
669.468	0.0132768
669.546	0.0131898
669.624	0.0131487
669.703	0.0131546
669.781	0.0132322
669.859	0.0132936
669.937	0.0133125
670.015	0.0132545
670.093	0.0132815
670.171	0.0132726
670.249	0.0132930
670.328	0.0132436
670.406	0.0131823
670.484	0.0132023
670.562	0.0132352
670.640	0.0131475
670.718	0.0132461
670.796	0.0132812
670.874	0.0132095
670.953	0.0132151
671.031	0.0132843
671.109	0.0132800
671.187	0.0131826
671.265	0.0132161
671.343	0.0133064
671.421	0.0133391
671.499	0.0133446
671.578	0.0132354
671.656	0.0132166
671.734	0.0132897
671.812	0.0133382
671.890	0.0134356
671.968	0.0132603
672.046	0.0132671
672.124	0.0132273
672.203	0.0132948
672.281	0.0132133
672.359	0.0132279
672.437	0.0134493
672.515	0.0133572
672.593	0.0133284
672.671	0.0132031
672.749	0.0132950
672.828	0.0132651
672.906	0.0133071
672.984	0.0133675
673.062	0.0134488
673.140	0.0134191
673.218	0.0133511
673.296	0.0132781
673.374	0.0133265
673.453	0.0132914
673.531	0.0134489
673.609	0.0132758
673.687	0.0132249
673.765	0.0135018
673.843	0.0134388
673.921	0.0133797
673.999	0.0132700
674.078	0.0133661
674.156	0.0134206
674.234	0.0132756
674.312	0.0132692
674.390	0.0133630
674.468	0.0132569
674.546	0.0133453
674.624	0.0133472
674.703	0.0135056
674.781	0.0133389
674.859	0.0133727
674.937	0.0133821
675.015	0.0133416
675.093	0.0134016
675.171	0.0134312
675.249	0.0133315
675.328	0.0133183
675.406	0.0134014
675.484	0.0134106
675.562	0.0133868
675.640	0.0133233
675.718	0.0133791
675.796	0.0134095
675.874	0.0133596
675.953	0.0134351
676.031	0.0135001
676.109	0.0135283
676.187	0.0134307
676.265	0.0133958
676.343	0.0132963
676.421	0.0134532
676.499	0.0133588
676.578	0.0133006
676.656	0.0133465
676.734	0.0134409
676.812	0.0133913
676.890	0.0132529
676.968	0.0132037
677.046	0.0134201
677.124	0.0133350
677.203	0.0132930
677.281	0.0133737
677.359	0.0134325
677.437	0.0131961
677.515	0.0133414
677.593	0.0132304
677.671	0.0133726
677.749	0.0133723
677.828	0.0133104
677.906	0.0134126
677.984	0.0133417
678.062	0.0133598
678.140	0.0134270
678.218	0.0133067
678.296	0.0132919
678.374	0.0133313
678.453	0.0133400
678.531	0.0133770
678.609	0.0133512
678.687	0.0132934
678.765	0.0132817
678.843	0.0131840
678.921	0.0132461
678.999	0.0132497
679.078	0.0132664
679.156	0.0132720
679.234	0.0133665
679.312	0.0134077
679.390	0.0132375
679.468	0.0132504
679.546	0.0131783
679.624	0.0132294
679.703	0.0132427
679.781	0.0132528
679.859	0.0131767
679.937	0.0133753
680.015	0.0133858
680.093	0.0132494
680.171	0.0133134
680.249	0.0131696
680.328	0.0132964
680.406	0.0132416
680.484	0.0132655
680.562	0.0132578
680.640	0.0133921
680.718	0.0133384
680.796	0.0132873
680.874	0.0132777
680.953	0.0133447
681.031	0.0135220
681.109	0.0133332
681.187	0.0133663
681.265	0.0133158
681.343	0.0133077
681.421	0.0133921
681.499	0.0133799
681.578	0.0133855
681.656	0.0133202
681.734	0.0132674
681.812	0.0134174
681.890	0.0133611
681.968	0.0133900
682.046	0.0133746
682.124	0.0133855
682.203	0.0132600
682.281	0.0132475
682.359	0.0132663
682.437	0.0132436
682.515	0.0134216
682.593	0.0133530
682.671	0.0133655
682.749	0.0133739
682.828	0.0133688
682.906	0.0134209
682.984	0.0132336
683.062	0.0133694
683.140	0.0133938
683.218	0.0133102
683.296	0.0134141
683.374	0.0134304
683.453	0.0132854
683.531	0.0132072
683.609	0.0134159
683.687	0.0133873
683.765	0.0132931
683.843	0.0134409
683.921	0.0135615
683.999	0.0133115
684.078	0.0134176
684.156	0.0133796
684.234	0.0135540
684.312	0.0133369
684.390	0.0133047
684.468	0.0132887
684.546	0.0134754
684.624	0.0134865
684.703	0.0133709
684.781	0.0132021
684.859	0.0134209
684.937	0.0134254
685.015	0.0133153
685.093	0.0133192
685.171	0.0132662
685.249	0.0132362
685.328	0.0134389
685.406	0.0133767
685.484	0.0134222
685.562	0.0133712
685.640	0.0133765
685.718	0.0132986
685.796	0.0133179
685.874	0.0132365
685.953	0.0132163
686.031	0.0132349
686.109	0.0131278
686.187	0.0131564
686.265	0.0133463
686.343	0.0134589
686.421	0.0134617
686.499	0.0135800
686.578	0.0135997
686.656	0.0136649
686.734	0.0135201
686.812	0.0134111
686.890	0.0133102
686.968	0.0132102
687.046	0.0130180
687.124	0.0130181
687.203	0.0127462
687.281	0.0126174
687.359	0.0126379
687.437	0.0126739
687.515	0.0129357
687.593	0.0130607
687.671	0.0131402
687.749	0.0133397
687.828	0.0135642
687.906	0.0137652
687.984	0.0137260
688.062	0.0137665
688.140	0.0139467
688.218	0.0138565
688.296	0.0138028
688.374	0.0137090
688.453	0.0135191
688.531	0.0132134
688.609	0.0132011
688.687	0.0130392
688.765	0.0128282
688.843	0.0127463
688.921	0.0127693
688.999	0.0128649
689.078	0.0127535
689.156	0.0129217
689.234	0.0130608
689.312	0.0132442
689.390	0.0134599
689.468	0.0134155
689.546	0.0134915
689.624	0.0135599
689.703	0.0136447
689.781	0.0135719
689.859	0.0136051
689.937	0.0135109
690.015	0.0134344
690.093	0.0134364
690.171	0.0133510
690.249	0.0130521
690.328	0.0131799
690.406	0.0132790
690.484	0.0132850
690.562	0.0132928
690.640	0.0133830
690.718	0.0134801
690.796	0.0135722
690.874	0.0135889
690.953	0.0136028
691.031	0.0136735
691.109	0.0136890
691.187	0.0135551
691.265	0.0134866
691.343	0.0133578
691.421	0.0132246
691.499	0.0130033
691.578	0.0129439
691.656	0.0128790
691.734	0.0128267
691.812	0.0126713
691.890	0.0125612
691.968	0.0126455
692.046	0.0125835
692.124	0.0126785
692.203	0.0127592
692.281	0.0129364
692.359	0.0131512
692.437	0.0131458
692.515	0.0132621
692.593	0.0134897
692.671	0.0135366
692.749	0.0136062
692.828	0.0134557
692.906	0.0134563
692.984	0.0135163
693.062	0.0134231
693.140	0.0133881
693.218	0.0132500
693.296	0.0133247
693.374	0.0130972
693.453	0.0130354
693.531	0.0129463
693.609	0.0130761
693.687	0.0131546
693.765	0.0131179
693.843	0.0131182
693.921	0.0132606
693.999	0.0132840
694.078	0.0132123
694.156	0.0133565
694.234	0.0132339
694.312	0.0132993
694.390	0.0132944
694.468	0.0133077
694.546	0.0132225
694.624	0.0133293
694.703	0.0130307
694.781	0.0132632
694.859	0.0132059
694.937	0.0131869
695.015	0.0132829
695.093	0.0133016
695.171	0.0134985
695.249	0.0133633
695.328	0.0133835
695.406	0.0134254
695.484	0.0135334
695.562	0.0134470
695.640	0.0133228
695.718	0.0134190
695.796	0.0133454
695.874	0.0131245
695.953	0.0131941
696.031	0.0133334
696.109	0.0130628
696.187	0.0129781
696.265	0.0129552
696.343	0.0131104
696.421	0.0129896
696.499	0.0129308
696.578	0.0129952
696.656	0.0132811
696.734	0.0132472
696.812	0.0133195
696.890	0.0132662
696.968	0.0134171
697.046	0.0133545
697.124	0.0134842
697.203	0.0132906
697.281	0.0131973
697.359	0.0131775
697.437	0.0130721
697.515	0.0130586
697.593	0.0130997
697.671	0.0130299
697.749	0.0130164
697.828	0.0130334
697.906	0.0131676
697.984	0.0131818
698.062	0.0132701
698.140	0.0133706
698.218	0.0135892
698.296	0.0137877
698.374	0.0137417
698.453	0.0137598
698.531	0.0138667
698.609	0.0138560
698.687	0.0138569
698.765	0.0138397
698.843	0.0137823
698.921	0.0137393
698.999	0.0135720
699.078	0.0134378
699.156	0.0135907
699.234	0.0134187
699.312	0.0131548
699.390	0.0131420
699.468	0.0129459
699.546	0.0128922
699.624	0.0128905
699.703	0.0128073
699.781	0.0127097
699.859	0.0127666
699.937	0.0126717
700.015	0.0127765
700.093	0.0129514
700.171	0.0130514
700.249	0.0130619
700.328	0.0131935
700.406	0.0133089
700.484	0.0133542
700.562	0.0134187
700.640	0.0134842
700.718	0.0135245
700.796	0.0133876
700.874	0.0134336
700.953	0.0134021
701.031	0.0134108
701.109	0.0135081
701.187	0.0134908
701.265	0.0133328
701.343	0.0134937
701.421	0.0133803
701.499	0.0132728
701.578	0.0133340
701.656	0.0131927
701.734	0.0131203
701.812	0.0133461
701.890	0.0133318
701.968	0.0132911
702.046	0.0134376
702.124	0.0132539
702.203	0.0132454
702.281	0.0132648
702.359	0.0132626
702.437	0.0131467
702.515	0.0132248
702.593	0.0132237
702.671	0.0131524
702.749	0.0133441
702.828	0.0133131
702.906	0.0133194
702.984	0.0135370
703.062	0.0135038
703.140	0.0135446
703.218	0.0135224
703.296	0.0137524
703.374	0.0135156
703.453	0.0135806
703.531	0.0134818
703.609	0.0135890
703.687	0.0135178
703.765	0.0134492
703.843	0.0134765
703.921	0.0134229
703.999	0.0134218
704.078	0.0134328
704.156	0.0133064
704.234	0.0132861
704.312	0.0132047
704.390	0.0132067
704.468	0.0132224
704.546	0.0132192
704.624	0.0133117
704.703	0.0131368
704.781	0.0131630
704.859	0.0131052
704.937	0.0131612
705.015	0.0132846
705.093	0.0134167
705.171	0.0132452
705.249	0.0132375
705.328	0.0132594
705.406	0.0133270
705.484	0.0132524
705.562	0.0131335
705.640	0.0133465
705.718	0.0131964
705.796	0.0133605
705.874	0.0131380
705.953	0.0134043
706.031	0.0133441
706.109	0.0133154
706.187	0.0132875
706.265	0.0132394
706.343	0.0133121
706.421	0.0132396
706.499	0.0132894
706.578	0.0133955
706.656	0.0133212
706.734	0.0134454
706.812	0.0134828
706.890	0.0136093
706.968	0.0134875
707.046	0.0137715
707.124	0.0136723
707.203	0.0137514
707.281	0.0138567
707.359	0.0138570
707.437	0.0138259
707.515	0.0136856
707.593	0.0137758
707.671	0.0138129
707.749	0.0138136
707.828	0.0134852
707.906	0.0133674
707.984	0.0134603
708.062	0.0132928
708.140	0.0130966
708.218	0.0131356
708.296	0.0131478
708.374	0.0129613
708.453	0.0130354
708.531	0.0129639
708.609	0.0127074
708.687	0.0127391
708.765	0.0128329
708.843	0.0126069
708.921	0.0127796
708.999	0.0127993
709.078	0.0128532
709.156	0.0129674
709.234	0.0129671
709.312	0.0129590
709.390	0.0130785
709.468	0.0131219
709.546	0.0132191
709.624	0.0134516
709.703	0.0134638
709.781	0.0134676
709.859	0.0133605
709.937	0.0134117
710.015	0.0134426
710.093	0.0135072
710.171	0.0134797
710.249	0.0135251
710.328	0.0132948
710.406	0.0132653
710.484	0.0132572
710.562	0.0133461
710.640	0.0132675
710.718	0.0132040
710.796	0.0131894
710.874	0.0131122
710.953	0.0131963
711.031	0.0131796
711.109	0.0131589
711.187	0.0131318
711.265	0.0133170
711.343	0.0133556
711.421	0.0132822
711.499	0.0134764
711.578	0.0133780
711.656	0.0136171
711.734	0.0135977
711.812	0.0136591
711.890	0.0136392
711.968	0.0136443
712.046	0.0138699
712.124	0.0137913
712.203	0.0137991
712.281	0.0137335
712.359	0.0137481
712.437	0.0137280
712.515	0.0137111
712.593	0.0136163
712.671	0.0137090
712.749	0.0136053
712.828	0.0135767
712.906	0.0136469
712.984	0.0133821
713.062	0.0134930
713.140	0.0133807
713.218	0.0133275
713.296	0.0132890
713.374	0.0133027
713.453	0.0131821
713.531	0.0132220
713.609	0.0132762
713.687	0.0132569
713.765	0.0131123
713.843	0.0130553
713.921	0.0132065
713.999	0.0131673
714.078	0.0131298
714.156	0.0131961
714.234	0.0131538
714.312	0.0131266
714.390	0.0133420
714.468	0.0132140
714.546	0.0132587
714.624	0.0132288
714.703	0.0133835
714.781	0.0133377
714.859	0.0133577
714.937	0.0132305
715.015	0.0132293
715.093	0.0132261
715.171	0.0129977
715.249	0.0132332
715.328	0.0133496
715.406	0.0133614
715.484	0.0133827
715.562	0.0133424
715.640	0.0132948
715.718	0.0132928
715.796	0.0132169
715.874	0.0133311
715.953	0.0132880
716.031	0.0133667
716.109	0.0133756
716.187	0.0132533
716.265	0.0133127
716.343	0.0132909
716.421	0.0134058
716.499	0.0133791
716.578	0.0133778
716.656	0.0134329
716.734	0.0134618
716.812	0.0134832
716.890	0.0135808
716.968	0.0136015
717.046	0.0135853
717.124	0.0135020
717.203	0.0135092
717.281	0.0135312
717.359	0.0134623
717.437	0.0136126
717.515	0.0135390
717.593	0.0134110
717.671	0.0133574
717.749	0.0133115
717.828	0.0133820
717.906	0.0132202
717.984	0.0133047
718.062	0.0130632
718.140	0.0130399
718.218	0.0131188
718.296	0.0131200
718.374	0.0131797
718.453	0.0130449
718.531	0.0129935
718.609	0.0131647
718.687	0.0132029
718.765	0.0131033
718.843	0.0132688
718.921	0.0131931
718.999	0.0131651
719.078	0.0132617
719.156	0.0133282
719.234	0.0132931
719.312	0.0132029
719.390	0.0132237
719.468	0.0131724
719.546	0.0130593
719.624	0.0130389
719.703	0.0130366
719.781	0.0131106
719.859	0.0132426
719.937	0.0130977
720.015	0.0131025
720.093	0.0132998
720.171	0.0131809
720.249	0.0132767
720.328	0.0131617
720.406	0.0133064
720.484	0.0132859
720.562	0.0131076
720.640	0.0132628
720.718	0.0132073
720.796	0.0133022
720.874	0.0134000
720.953	0.0133570
721.031	0.0133750
721.109	0.0133612
721.187	0.0134295
721.265	0.0132600
721.343	0.0133756
721.421	0.0134227
721.499	0.0133456
721.578	0.0134781
721.656	0.0133471
721.734	0.0134582
721.812	0.0134179
721.890	0.0134692
721.968	0.0131756
722.046	0.0131978
722.124	0.0133926
722.203	0.0131474
722.281	0.0131606
722.359	0.0131277
722.437	0.0132316
722.515	0.0132440
722.593	0.0131026
722.671	0.0131293
722.749	0.0131929
722.828	0.0134158
722.906	0.0134054
722.984	0.0132637
723.062	0.0132052
723.140	0.0130745
723.218	0.0131086
723.296	0.0131063
723.374	0.0131976
723.453	0.0131473
723.531	0.0130724
723.609	0.0131446
723.687	0.0131225
723.765	0.0131374
723.843	0.0130126
723.921	0.0130729
723.999	0.0131197
724.078	0.0131152
724.156	0.0131850
724.234	0.0131811
724.312	0.0130754
724.390	0.0131970
724.468	0.0131693
724.546	0.0131952
724.624	0.0132273
724.703	0.0132172
724.781	0.0130926
724.859	0.0131549
724.937	0.0132040
725.015	0.0132627
725.093	0.0132268
725.171	0.0133123
725.249	0.0134443
725.328	0.0132967
725.406	0.0131532
725.484	0.0132851
725.562	0.0132599
725.640	0.0132553
725.718	0.0131493
725.796	0.0132317
725.874	0.0133397
725.953	0.0134483
726.031	0.0132815
726.109	0.0132870
726.187	0.0135401
726.265	0.0134378
726.343	0.0135265
726.421	0.0134982
726.499	0.0133902
726.578	0.0134779
726.656	0.0134476
726.734	0.0134486
726.812	0.0134430
726.890	0.0134899
726.968	0.0133603
727.046	0.0131849
727.124	0.0131305
727.203	0.0132090
727.281	0.0132149
727.359	0.0131549
727.437	0.0130980
727.515	0.0130722
727.593	0.0132657
727.671	0.0132733
727.749	0.0133983
727.828	0.0132874
727.906	0.0133674
727.984	0.0133768
728.062	0.0134467
728.140	0.0135097
728.218	0.0135616
728.296	0.0135179
728.374	0.0134417
728.453	0.0134346
728.531	0.0134225
728.609	0.0135020
728.687	0.0134272
728.765	0.0132987
728.843	0.0133140
728.921	0.0132384
728.999	0.0132487
729.078	0.0131138
729.156	0.0133165
729.234	0.0131135
729.312	0.0132094
729.390	0.0132418
729.468	0.0132388
729.546	0.0131993
729.624	0.0133071
729.703	0.0132577
729.781	0.0131701
729.859	0.0132214
729.937	0.0132371
730.015	0.0131790
730.093	0.0132691
730.171	0.0132867
730.249	0.0132009
730.328	0.0132597
730.406	0.0134970
730.484	0.0132764
730.562	0.0132863
730.640	0.0133041
730.718	0.0131660
730.796	0.0132526
730.874	0.0131686
730.953	0.0131608
731.031	0.0132281
731.109	0.0130800
731.187	0.0132873
731.265	0.0133404
731.343	0.0132338
731.421	0.0131873
731.499	0.0131573
731.578	0.0132144
731.656	0.0132216
731.734	0.0132855
731.812	0.0132863
731.890	0.0133289
731.968	0.0133598
732.046	0.0135144
732.124	0.0134129
732.203	0.0133272
732.281	0.0132747
732.359	0.0133321
732.437	0.0134931
732.515	0.0134006
732.593	0.0132451
732.671	0.0131945
732.749	0.0132336
732.828	0.0133273
732.906	0.0131286
732.984	0.0132084
733.062	0.0133036
733.140	0.0133534
733.218	0.0132068
733.296	0.0134424
733.374	0.0133176
733.453	0.0133684
733.531	0.0133961
733.609	0.0133775
733.687	0.0133253
733.765	0.0134611
733.843	0.0132740
733.921	0.0133111
733.999	0.0134350
734.078	0.0133311
734.156	0.0132952
734.234	0.0133316
734.312	0.0133418
734.390	0.0132825
734.468	0.0132317
734.546	0.0133487
734.624	0.0130952
734.703	0.0132140
734.781	0.0131979
734.859	0.0133430
734.937	0.0132844
735.015	0.0132315
735.093	0.0133621
735.171	0.0132728
735.249	0.0133518
735.328	0.0132805
735.406	0.0134315
735.484	0.0133569
735.562	0.0135175
735.640	0.0134586
735.718	0.0134318
735.796	0.0133583
735.874	0.0133840
735.953	0.0134470
736.031	0.0132734
736.109	0.0131899
736.187	0.0133818
736.265	0.0132539
736.343	0.0131654
736.421	0.0132477
736.499	0.0132025
736.578	0.0130679
736.656	0.0131345
736.734	0.0131924
736.812	0.0131686
736.890	0.0132307
736.968	0.0132764
737.046	0.0132519
737.124	0.0132951
737.203	0.0134344
737.281	0.0133069
737.359	0.0132483
737.437	0.0133509
737.515	0.0134135
737.593	0.0134174
737.671	0.0133093
737.749	0.0133607
737.828	0.0135652
737.906	0.0135723
737.984	0.0134705
738.062	0.0134448
738.140	0.0133653
738.218	0.0133331
738.296	0.0132834
738.374	0.0134718
738.453	0.0132133
738.531	0.0132719
738.609	0.0133914
738.687	0.0133820
738.765	0.0132885
738.843	0.0131225
738.921	0.0132413
738.999	0.0132908
739.078	0.0132991
739.156	0.0132179
739.234	0.0132141
739.312	0.0131670
739.390	0.0131807
739.468	0.0133060
739.546	0.0132004
739.624	0.0133469
739.703	0.0133279
739.781	0.0133871
739.859	0.0133882
739.937	0.0133572
740.015	0.0134759
740.093	0.0134925
740.171	0.0133257
740.249	0.0135413
740.328	0.0133752
740.406	0.0134685
740.484	0.0133825
740.562	0.0134200
740.640	0.0133948
740.718	0.0134473
740.796	0.0134186
740.874	0.0133421
740.953	0.0132784
741.031	0.0132727
741.109	0.0133206
741.187	0.0133718
741.265	0.0133530
741.343	0.0132706
741.421	0.0132708
741.499	0.0133060
741.578	0.0132906
741.656	0.0133281
741.734	0.0132335
741.812	0.0131234
741.890	0.0133321
741.968	0.0132793
742.046	0.0131532
742.124	0.0131956
742.203	0.0132780
742.281	0.0133035
742.359	0.0131551
742.437	0.0131055
742.515	0.0131865
742.593	0.0132763
742.671	0.0132518
742.749	0.0133707
742.828	0.0133208
742.906	0.0131799
742.984	0.0132316
743.062	0.0132164
743.140	0.0133656
743.218	0.0133675
743.296	0.0133839
743.374	0.0132718
743.453	0.0132616
743.531	0.0132467
743.609	0.0132953
743.687	0.0135249
743.765	0.0134615
743.843	0.0133249
743.921	0.0133284
743.999	0.0134338
744.078	0.0133058
744.156	0.0134409
744.234	0.0133950
744.312	0.0133498
744.390	0.0132313
744.468	0.0134419
744.546	0.0134794
744.624	0.0132425
744.703	0.0132321
744.781	0.0133491
744.859	0.0132902
744.937	0.0132690
745.015	0.0132024
745.093	0.0133526
745.171	0.0133739
745.249	0.0132280
745.328	0.0133089
745.406	0.0131660
745.484	0.0131622
745.562	0.0132508
745.640	0.0132294
745.718	0.0132005
745.796	0.0131982
745.874	0.0131698
745.953	0.0132243
746.031	0.0130655
746.109	0.0130391
746.187	0.0131834
746.265	0.0131658
746.343	0.0131680
746.421	0.0131905
746.499	0.0131372
746.578	0.0131915
746.656	0.0132683
746.734	0.0131548
746.812	0.0132831
746.890	0.0133241
746.968	0.0132690
747.046	0.0130924
747.124	0.0133870
747.203	0.0133559
747.281	0.0133027
747.359	0.0134333
747.437	0.0133703
747.515	0.0133722
747.593	0.0133305
747.671	0.0134268
747.749	0.0133735
747.828	0.0133974
747.906	0.0134624
747.984	0.0133399
748.062	0.0133929
748.140	0.0134341
748.218	0.0133765
748.296	0.0132394
748.374	0.0131865
748.453	0.0134511
748.531	0.0134438
748.609	0.0132672
748.687	0.0131613
748.765	0.0132577
748.843	0.0132588
748.921	0.0134260
748.999	0.0132184
749.078	0.0133239
749.156	0.0131265
749.234	0.0133247
749.312	0.0132307
749.390	0.0133670
749.468	0.0133125
749.546	0.0132608
749.624	0.0132739
749.703	0.0132802
749.781	0.0132227
749.859	0.0130914
749.937	0.0131476
750.015	0.0132678
750.093	0.0132849
750.171	0.0132484
750.249	0.0131707
750.328	0.0131651
750.406	0.0132427
750.484	0.0131496
750.562	0.0133051
750.640	0.0133350
750.718	0.0132064
750.796	0.0133523
750.874	0.0132908
750.953	0.0132501
751.031	0.0132995
751.109	0.0133039
751.187	0.0133464
751.265	0.0133002
751.343	0.0133387
751.421	0.0132797
751.499	0.0134077
751.578	0.0133030
751.656	0.0132830
751.734	0.0131241
751.812	0.0132490
751.890	0.0133444
751.968	0.0132346
752.046	0.0132266
752.124	0.0130892
752.203	0.0131901
752.281	0.0132846
752.359	0.0132237
752.437	0.0132428
752.515	0.0132607
752.593	0.0132549
752.671	0.0133199
752.749	0.0132528
752.828	0.0132276
752.906	0.0133567
752.984	0.0134698
753.062	0.0133269
753.140	0.0133559
753.218	0.0134061
753.296	0.0132856
753.374	0.0131884
753.453	0.0134674
753.531	0.0135075
753.609	0.0133598
753.687	0.0134003
753.765	0.0133115
753.843	0.0131452
753.921	0.0133877
753.999	0.0131934
754.078	0.0132675
754.156	0.0131934
754.234	0.0132594
754.312	0.0133312
754.390	0.0131632
754.468	0.0132622
754.546	0.0130838
754.624	0.0131878
754.703	0.0132333
754.781	0.0132151
754.859	0.0132282
754.937	0.0131775
755.015	0.0132331
755.093	0.0132454
755.171	0.0131229
755.249	0.0132845
755.328	0.0133303
755.406	0.0132159
755.484	0.0132264
755.562	0.0131683
755.640	0.0132745
755.718	0.0132224
755.796	0.0132793
755.874	0.0132031
755.953	0.0133661
756.031	0.0132797
756.109	0.0132047
756.187	0.0133476
756.265	0.0132265
756.343	0.0133601
756.421	0.0133349
756.499	0.0133763
756.578	0.0133415
756.656	0.0134727
756.734	0.0133575
756.812	0.0133044
756.890	0.0134333
756.968	0.0131998
757.046	0.0132343
757.124	0.0133092
757.203	0.0134085
757.281	0.0133552
757.359	0.0134264
757.437	0.0133171
757.515	0.0132783
757.593	0.0133270
757.671	0.0132849
757.749	0.0132939
757.828	0.0132629
757.906	0.0133134
757.984	0.0131494
758.062	0.0131457
758.140	0.0132315
758.218	0.0130775
758.296	0.0130210
758.374	0.0131137
758.453	0.0132401
758.531	0.0131261
758.609	0.0130525
758.687	0.0130894
758.765	0.0131636
758.843	0.0130888
758.921	0.0131706
758.999	0.0130904
759.078	0.0132127
759.156	0.0131373
759.234	0.0132146
759.312	0.0130840
759.390	0.0132442
759.468	0.0131963
759.546	0.0134951
759.624	0.0133543
759.703	0.0133133
759.781	0.0133395
759.859	0.0131983
759.937	0.0131671
760.015	0.0131680
760.093	0.0134266
760.171	0.0132832
760.249	0.0134191
760.328	0.0132219
760.406	0.0133287
760.484	0.0132472
760.562	0.0133602
760.640	0.0133263
760.718	0.0133078
760.796	0.0132408
760.874	0.0133201
760.953	0.0132098
761.031	0.0132014
761.109	0.0133572
761.187	0.0131740
761.265	0.0132979
761.343	0.0134406
761.421	0.0132065
761.499	0.0132272
761.578	0.0131181
761.656	0.0133109
761.734	0.0133089
761.812	0.0132603
761.890	0.0131661
761.968	0.0132841
762.046	0.0132761
762.124	0.0132958
762.203	0.0133650
762.281	0.0133229
762.359	0.0133289
762.437	0.0134470
762.515	0.0134563
762.593	0.0134505
762.671	0.0133520
762.749	0.0134125
762.828	0.0134132
762.906	0.0133157
762.984	0.0132638
763.062	0.0133291
763.140	0.0134679
763.218	0.0133907
763.296	0.0134035
763.374	0.0133187
763.453	0.0132093
763.531	0.0133039
763.609	0.0131767
763.687	0.0133388
763.765	0.0134122
763.843	0.0133921
763.921	0.0132777
763.999	0.0133728
764.078	0.0132595
764.156	0.0132449
764.234	0.0133611
764.312	0.0133929
764.390	0.0133161
764.468	0.0133196
764.546	0.0132845
764.624	0.0132966
764.703	0.0133782
764.781	0.0134062
764.859	0.0133157
764.937	0.0132720
765.015	0.0133334
765.093	0.0133864
765.171	0.0133955
765.249	0.0133420
765.328	0.0134617
765.406	0.0133309
765.484	0.0133759
765.562	0.0134364
765.640	0.0133285
765.718	0.0133810
765.796	0.0133471
765.874	0.0135118
765.953	0.0133660
766.031	0.0132833
766.109	0.0133762
766.187	0.0132034
766.265	0.0132984
766.343	0.0134065
766.421	0.0133780
766.499	0.0133979
766.578	0.0132269
766.656	0.0132472
766.734	0.0133526
766.812	0.0133695
766.890	0.0133623
766.968	0.0134968
767.046	0.0134435
767.124	0.0134380
767.203	0.0133430
767.281	0.0133132
767.359	0.0132787
767.437	0.0133424
767.515	0.0133992
767.593	0.0132744
767.671	0.0133160
767.749	0.0133883
767.828	0.0133533
767.906	0.0133378
767.984	0.0131300
768.062	0.0132555
768.140	0.0133880
768.218	0.0130844
768.296	0.0131532
768.374	0.0132555
768.453	0.0131845
768.531	0.0131891
768.609	0.0132167
768.687	0.0131919
768.765	0.0132472
768.843	0.0131864
768.921	0.0133609
768.999	0.0132550
769.078	0.0132739
769.156	0.0131248
769.234	0.0132024
769.312	0.0133778
769.390	0.0132804
769.468	0.0133383
769.546	0.0132750
769.624	0.0133896
769.703	0.0132773
769.781	0.0132840
769.859	0.0134175
769.937	0.0133778
770.015	0.0133588
770.093	0.0132837
770.171	0.0133166
770.249	0.0133308
770.328	0.0134126
770.406	0.0132632
770.484	0.0133184
770.562	0.0133849
770.640	0.0134000
770.718	0.0133411
770.796	0.0132381
770.874	0.0131897
770.953	0.0131345
771.031	0.0133337
771.109	0.0132709
771.187	0.0132378
771.265	0.0131876
771.343	0.0134358
771.421	0.0133315
771.499	0.0133307
771.578	0.0132060
771.656	0.0132855
771.734	0.0133451
771.812	0.0134035
771.890	0.0133110
771.968	0.0133839
772.046	0.0133653
772.124	0.0134392
772.203	0.0134344
772.281	0.0132710
772.359	0.0133333
772.437	0.0132579
772.515	0.0133733
772.593	0.0133024
772.671	0.0133950
772.749	0.0132898
772.828	0.0133561
772.906	0.0132112
772.984	0.0133167
773.062	0.0133775
773.140	0.0132847
773.218	0.0133031
773.296	0.0132352
773.374	0.0134347
773.453	0.0134401
773.531	0.0133554
773.609	0.0134723
773.687	0.0134216
773.765	0.0134319
773.843	0.0133867
773.921	0.0134129
773.999	0.0134003
774.078	0.0133712
774.156	0.0134318
774.234	0.0133675
774.312	0.0134292
774.390	0.0134315
774.468	0.0133651
774.546	0.0133820
774.624	0.0134310
774.703	0.0133470
774.781	0.0133226
774.859	0.0132835
774.937	0.0132188
775.015	0.0132102
775.093	0.0131801
775.171	0.0131580
775.249	0.0131840
775.328	0.0133398
775.406	0.0134335
775.484	0.0132476
775.562	0.0132226
775.640	0.0133911
775.718	0.0134023
775.796	0.0135032
775.874	0.0134103
775.953	0.0133303
776.031	0.0133818
776.109	0.0133630
776.187	0.0134101
776.265	0.0135480
776.343	0.0134454
776.421	0.0133349
776.499	0.0134373
776.578	0.0136175
776.656	0.0133685
776.734	0.0132888
776.812	0.0133958
776.890	0.0135137
776.968	0.0133171
777.046	0.0134057
777.124	0.0133904
777.203	0.0134274
777.281	0.0133588
777.359	0.0133582
777.437	0.0134166
777.515	0.0132837
777.593	0.0134367
777.671	0.0134605
777.749	0.0132972
777.828	0.0133408
777.906	0.0134436
777.984	0.0133755
778.062	0.0132880
778.140	0.0133183
778.218	0.0134108
778.296	0.0133402
778.374	0.0132411
778.453	0.0135636
778.531	0.0133725
778.609	0.0132053
778.687	0.0132140
778.765	0.0133834
778.843	0.0133836
778.921	0.0132962
778.999	0.0133450
779.078	0.0133546
779.156	0.0133725
779.234	0.0134087
779.312	0.0135574
779.390	0.0133633
779.468	0.0134431
779.546	0.0134197
779.624	0.0134569
779.703	0.0134099
779.781	0.0133262
779.859	0.0135867
779.937	0.0133806
780.015	0.0131807
780.093	0.0132668
780.171	0.0132479
780.249	0.0132861
780.328	0.0132862
780.406	0.0132166
780.484	0.0131813
780.562	0.0131750
780.640	0.0131757
780.718	0.0131915
780.796	0.0133565
780.874	0.0132935
780.953	0.0132182
781.031	0.0131083
781.109	0.0130383
781.187	0.0131130
781.265	0.0131893
781.343	0.0132239
781.421	0.0130795
781.499	0.0132148
781.578	0.0132434
781.656	0.0132271
781.734	0.0131223
781.812	0.0132343
781.890	0.0131799
781.968	0.0133704
782.046	0.0132621
782.124	0.0133833
782.203	0.0133210
782.281	0.0133144
782.359	0.0133477
782.437	0.0134599
782.515	0.0135381
782.593	0.0134027
782.671	0.0133841
782.749	0.0134338
782.828	0.0132936
782.906	0.0133585
782.984	0.0133353
783.062	0.0131901
783.140	0.0133337
783.218	0.0132992
783.296	0.0131859
783.374	0.0133286
783.453	0.0131851
783.531	0.0132429
783.609	0.0132307
783.687	0.0132600
783.765	0.0132279
783.843	0.0131471
783.921	0.0131287
783.999	0.0131665
784.078	0.0131738
784.156	0.0132793
784.234	0.0132711
784.312	0.0133944
784.390	0.0133364
784.468	0.0133950
784.546	0.0133887
784.624	0.0134293
784.703	0.0133469
784.781	0.0132609
784.859	0.0134180
784.937	0.0134445
785.015	0.0132819
785.093	0.0132992
785.171	0.0133911
785.249	0.0133653
785.328	0.0131618
785.406	0.0132901
785.484	0.0132418
785.562	0.0133603
785.640	0.0133050
785.718	0.0133079
785.796	0.0133176
785.874	0.0131762
785.953	0.0132684
786.031	0.0131988
786.109	0.0131572
786.187	0.0133361
786.265	0.0133685
786.343	0.0132832
786.421	0.0133430
786.499	0.0133289
786.578	0.0133419
786.656	0.0132181
786.734	0.0133108
786.812	0.0132535
786.890	0.0133624
786.968	0.0133666
787.046	0.0132858
787.124	0.0133265
787.203	0.0132229
787.281	0.0132484
787.359	0.0132019
787.437	0.0131889
787.515	0.0131797
787.593	0.0131926
787.671	0.0133771
787.749	0.0132922
787.828	0.0130870
787.906	0.0132925
787.984	0.0131163
788.062	0.0132741
788.140	0.0132199
788.218	0.0131757
788.296	0.0132817
788.374	0.0131938
788.453	0.0132504
788.531	0.0133500
788.609	0.0133350
788.687	0.0133761
788.765	0.0133340
788.843	0.0133529
788.921	0.0132942
788.999	0.0133385
789.078	0.0133233
789.156	0.0133105
789.234	0.0132851
789.312	0.0134874
789.390	0.0133168
789.468	0.0132890
789.546	0.0133650
789.624	0.0133047
789.703	0.0132980
789.781	0.0131643
789.859	0.0131811
789.937	0.0133440
790.015	0.0133186
790.093	0.0132858
790.171	0.0133072
790.249	0.0133092
790.328	0.0132658
790.406	0.0132332
790.484	0.0132238
790.562	0.0132098
790.640	0.0132585
790.718	0.0131615
790.796	0.0131728
790.874	0.0133174
790.953	0.0132713
791.031	0.0133649
791.109	0.0133289
791.187	0.0132004
791.265	0.0132728
791.343	0.0132912
791.421	0.0132996
791.499	0.0133827
791.578	0.0132220
791.656	0.0133152
791.734	0.0133672
791.812	0.0132269
791.890	0.0132548
791.968	0.0132317
792.046	0.0133060
792.124	0.0133791
792.203	0.0131746
792.281	0.0132076
792.359	0.0131927
792.437	0.0133726
792.515	0.0133724
792.593	0.0133963
792.671	0.0133789
792.749	0.0132999
792.828	0.0134116
792.906	0.0133851
792.984	0.0133547
793.062	0.0132954
793.140	0.0133665
793.218	0.0133385
793.296	0.0134410
793.374	0.0134606
793.453	0.0133354
793.531	0.0135045
793.609	0.0133934
793.687	0.0132271
793.765	0.0131639
793.843	0.0132670
793.921	0.0133486
793.999	0.0132366
794.078	0.0133780
794.156	0.0133459
794.234	0.0132315
794.312	0.0133040
794.390	0.0132784
794.468	0.0132742
794.546	0.0133407
794.624	0.0133701
794.703	0.0134163
794.781	0.0132541
794.859	0.0133438
794.937	0.0134081
795.015	0.0134130
795.093	0.0134159
795.171	0.0133426
795.249	0.0134308
795.328	0.0134449
795.406	0.0132832
795.484	0.0133716
795.562	0.0132192
795.640	0.0133040
795.718	0.0132719
795.796	0.0133140
795.874	0.0131010
795.953	0.0132837
796.031	0.0131905
796.109	0.0132365
796.187	0.0132390
796.265	0.0132680
796.343	0.0130966
796.421	0.0131881
796.499	0.0130928
796.578	0.0132135
796.656	0.0132183
796.734	0.0131944
796.812	0.0130823
796.890	0.0133018
796.968	0.0132735
797.046	0.0131771
797.124	0.0131462
797.203	0.0133698
797.281	0.0133167
797.359	0.0133250
797.437	0.0132450
797.515	0.0132783
797.593	0.0133814
797.671	0.0132700
797.749	0.0133527
797.828	0.0132688
797.906	0.0131036
797.984	0.0132906
798.062	0.0133302
798.140	0.0131889
798.218	0.0132867
798.296	0.0132376
798.374	0.0131322
798.453	0.0130749
798.531	0.0130486
798.609	0.0131870
798.687	0.0129739
798.765	0.0130430
798.843	0.0131634
798.921	0.0128246
798.999	0.0129752
799.078	0.0130901
799.156	0.0131015
799.234	0.0130070
799.312	0.0129594
799.390	0.0130369
799.468	0.0129868
799.546	0.0132108
799.624	0.0130994
799.703	0.0132501
799.781	0.0132263
799.859	0.0133112
799.937	0.0133205
800.015	0.0133044
800.093	0.0132524
800.171	0.0133163
800.249	0.0132460
800.328	0.0132477
800.406	0.0132494
800.484	0.0133480
800.562	0.0134877
800.640	0.0133491
800.718	0.0133329
800.796	0.0132946
800.874	0.0134512
800.953	0.0134978
801.031	0.0135954
801.109	0.0133735
801.187	0.0134582
801.265	0.0135195
801.343	0.0135310
801.421	0.0135073
801.499	0.0134691
801.578	0.0135405
801.656	0.0135793
801.734	0.0136415
801.812	0.0135751
801.890	0.0134810
801.968	0.0135136
802.046	0.0134422
802.124	0.0134546
802.203	0.0133929
802.281	0.0133252
802.359	0.0135580
802.437	0.0133682
802.515	0.0133639
802.593	0.0134247
802.671	0.0132971
802.749	0.0131767
802.828	0.0131658
802.906	0.0131443
802.984	0.0133715
803.062	0.0132025
803.140	0.0132809
803.218	0.0133368
803.296	0.0132699
803.374	0.0132915
803.453	0.0131585
803.531	0.0132925
803.609	0.0132314
803.687	0.0131514
803.765	0.0131770
803.843	0.0132124
803.921	0.0132668
803.999	0.0132885
804.078	0.0132618
804.156	0.0130267
804.234	0.0131852
804.312	0.0132111
804.390	0.0133248
804.468	0.0131216
804.546	0.0131530
804.624	0.0132056
804.703	0.0132124
804.781	0.0132153
804.859	0.0130596
804.937	0.0130782
805.015	0.0131401
805.093	0.0132375
805.171	0.0130842
805.249	0.0131616
805.328	0.0133482
805.406	0.0132122
805.484	0.0130770
805.562	0.0132201
805.640	0.0132443
805.718	0.0132495
805.796	0.0131003
805.874	0.0132893
805.953	0.0132970
806.031	0.0132969
806.109	0.0133026
806.187	0.0133249
806.265	0.0132768
806.343	0.0132706
806.421	0.0132851
806.499	0.0133083
806.578	0.0133485
806.656	0.0133282
806.734	0.0133127
806.812	0.0132990
806.890	0.0133102
806.968	0.0133838
807.046	0.0134393
807.124	0.0134288
807.203	0.0135078
807.281	0.0132140
807.359	0.0133823
807.437	0.0134700
807.515	0.0134193
807.593	0.0133798
807.671	0.0133563
807.749	0.0133247
807.828	0.0133512
807.906	0.0134139
807.984	0.0133855
808.062	0.0132922
808.140	0.0133385
808.218	0.0133179
808.296	0.0132774
808.374	0.0133171
808.453	0.0132695
808.531	0.0132735
808.609	0.0132829
808.687	0.0131982
808.765	0.0133762
808.843	0.0134453
808.921	0.0132890
808.999	0.0132083
809.078	0.0133082
809.156	0.0133456
809.234	0.0131727
809.312	0.0132927
809.390	0.0134142
809.468	0.0134077
809.546	0.0133331
809.624	0.0132526
809.703	0.0131766
809.781	0.0132127
809.859	0.0133075
809.937	0.0132310
810.015	0.0132158
810.093	0.0133184
810.171	0.0131617
810.249	0.0131513
810.328	0.0131457
810.406	0.0131983
810.484	0.0132246
810.562	0.0131013
810.640	0.0133025
810.718	0.0132721
810.796	0.0132485
810.874	0.0132880
810.953	0.0134147
811.031	0.0133587
811.109	0.0133641
811.187	0.0133089
811.265	0.0131390
811.343	0.0133039
811.421	0.0134296
811.499	0.0132755
811.578	0.0134263
811.656	0.0133355
811.734	0.0132536
811.812	0.0132259
811.890	0.0133530
811.968	0.0133153
812.046	0.0132484
812.124	0.0132702
812.203	0.0132467
812.281	0.0132155
812.359	0.0132056
812.437	0.0132491
812.515	0.0132186
812.593	0.0132838
812.671	0.0132832
812.749	0.0133517
812.828	0.0131406
812.906	0.0132436
812.984	0.0134655
813.062	0.0132034
813.140	0.0133326
813.218	0.0132647
813.296	0.0131473
813.374	0.0133241
813.453	0.0133745
813.531	0.0133023
813.609	0.0132786
813.687	0.0133181
813.765	0.0132787
813.843	0.0132863
813.921	0.0132453
813.999	0.0133104
814.078	0.0133010
814.156	0.0132766
814.234	0.0132639
814.312	0.0133672
814.390	0.0132025
814.468	0.0131154
814.546	0.0133035
814.624	0.0132433
814.703	0.0131139
814.781	0.0131512
814.859	0.0132132
814.937	0.0130457
815.015	0.0129939
815.093	0.0131479
815.171	0.0131161
815.249	0.0130901
815.328	0.0132291
815.406	0.0131433
815.484	0.0131225
815.562	0.0132860
815.640	0.0132397
815.718	0.0132257
815.796	0.0131898
815.874	0.0132473
815.953	0.0131449
816.031	0.0132484
816.109	0.0133441
816.187	0.0133195
816.265	0.0132409
816.343	0.0132557
816.421	0.0133741
816.499	0.0132964
816.578	0.0133054
816.656	0.0133517
816.734	0.0133886
816.812	0.0133525
816.890	0.0133106
816.968	0.0132480
817.046	0.0134155
817.124	0.0132001
817.203	0.0132740
817.281	0.0131480
817.359	0.0132940
817.437	0.0133344
817.515	0.0132940
817.593	0.0134205
817.671	0.0133656
817.749	0.0133127
817.828	0.0132540
817.906	0.0131496
817.984	0.0133022
818.062	0.0133236
818.140	0.0132093
818.218	0.0133346
818.296	0.0132370
818.374	0.0132190
818.453	0.0132702
818.531	0.0132822
818.609	0.0133012
818.687	0.0132899
818.765	0.0133531
818.843	0.0132658
818.921	0.0133386
818.999	0.0133174
819.078	0.0131983
819.156	0.0133797
819.234	0.0132907
819.312	0.0132182
819.390	0.0132413
819.468	0.0133076
819.546	0.0132016
819.624	0.0132496
819.703	0.0132150
819.781	0.0131544
819.859	0.0131490
819.937	0.0132565
820.015	0.0131538
820.093	0.0131873
820.171	0.0131544
820.249	0.0133012
820.328	0.0131376
820.406	0.0131142
820.484	0.0130779
820.562	0.0130531
820.640	0.0130417
820.718	0.0128829
820.796	0.0130350
820.874	0.0131541
820.953	0.0131314
821.031	0.0131420
821.109	0.0130120
821.187	0.0130231
821.265	0.0131693
821.343	0.0130824
821.421	0.0131694
821.499	0.0131623
821.578	0.0132176
821.656	0.0130260
821.734	0.0130869
821.812	0.0131954
821.890	0.0130608
821.968	0.0131436
822.046	0.0132336
822.124	0.0131960
822.203	0.0132767
822.281	0.0132297
822.359	0.0131555
822.437	0.0134210
822.515	0.0132416
822.593	0.0132397
822.671	0.0132053
822.749	0.0132340
822.828	0.0131640
822.906	0.0132729
822.984	0.0130935
823.062	0.0132029
823.140	0.0132214
823.218	0.0133174
823.296	0.0131693
823.374	0.0133680
823.453	0.0132684
823.531	0.0132838
823.609	0.0134909
823.687	0.0134215
823.765	0.0132928
823.843	0.0132294
823.921	0.0131844
823.999	0.0133833
824.078	0.0133421
824.156	0.0131757
824.234	0.0132036
824.312	0.0133659
824.390	0.0132884
824.468	0.0133266
824.546	0.0131440
824.624	0.0131646
824.703	0.0132212
824.781	0.0132639
824.859	0.0131840
824.937	0.0131588
825.015	0.0133253
825.093	0.0132515
825.171	0.0131329
825.249	0.0133109
825.328	0.0131805
825.406	0.0132011
825.484	0.0131944
825.562	0.0132406
825.640	0.0132939
825.718	0.0132087
825.796	0.0131993
825.874	0.0131331
825.953	0.0132533
826.031	0.0131188
826.109	0.0131680
826.187	0.0131202
826.265	0.0131998
826.343	0.0132739
826.421	0.0132826
826.499	0.0132343
826.578	0.0130689
826.656	0.0129586
826.734	0.0130533
826.812	0.0131855
826.890	0.0132972
826.968	0.0131205
827.046	0.0130857
827.124	0.0131685
827.203	0.0131236
827.281	0.0132417
827.359	0.0131748
827.437	0.0132761
827.515	0.0131707
827.593	0.0131338
827.671	0.0131600
827.749	0.0131283
827.828	0.0132112
827.906	0.0131042
827.984	0.0132085
828.062	0.0131780
828.140	0.0131406
828.218	0.0131615
828.296	0.0131137
828.374	0.0132236
828.453	0.0130645
828.531	0.0132651
828.609	0.0130798
828.687	0.0131401
828.765	0.0131982
828.843	0.0133163
828.921	0.0132124
828.999	0.0131773
829.078	0.0132762
829.156	0.0131605
829.234	0.0132753
829.312	0.0130667
829.390	0.0131883
829.468	0.0132801
829.546	0.0131754
829.624	0.0131551
829.703	0.0131918
829.781	0.0131487
829.859	0.0131199
829.937	0.0131725
830.015	0.0132797
830.093	0.0132889
830.171	0.0130894
830.249	0.0130917
830.328	0.0132024
830.406	0.0132168
830.484	0.0131876
830.562	0.0132265
830.640	0.0133681
830.718	0.0132909
830.796	0.0131907
830.874	0.0132339
830.953	0.0132090
831.031	0.0132666
831.109	0.0132722
831.187	0.0132648
831.265	0.0132690
831.343	0.0132910
831.421	0.0133697
831.499	0.0132500
831.578	0.0131717
831.656	0.0131273
831.734	0.0132787
831.812	0.0132733
831.890	0.0133317
831.968	0.0133405
832.046	0.0134157
832.124	0.0132655
832.203	0.0133150
832.281	0.0135041
832.359	0.0134593
832.437	0.0135460
832.515	0.0133729
832.593	0.0134335
832.671	0.0134898
832.749	0.0134531
832.828	0.0133051
832.906	0.0133642
832.984	0.0134022
833.062	0.0132514
833.140	0.0133775
833.218	0.0134556
833.296	0.0133992
833.374	0.0134064
833.453	0.0132170
833.531	0.0132485
833.609	0.0133445
833.687	0.0133035
833.765	0.0134548
833.843	0.0132880
833.921	0.0133218
833.999	0.0133282
834.078	0.0132607
834.156	0.0135118
834.234	0.0134589
834.312	0.0133070
834.390	0.0132809
834.468	0.0133421
834.546	0.0133963
834.624	0.0133957
834.703	0.0133984
834.781	0.0133498
834.859	0.0133994
834.937	0.0134604
835.015	0.0134828
835.093	0.0133630
835.171	0.0132514
835.249	0.0132520
835.328	0.0133171
835.406	0.0134563
835.484	0.0131635
835.562	0.0131956
835.640	0.0132842
835.718	0.0132367
835.796	0.0132956
835.874	0.0132925
835.953	0.0133529
836.031	0.0133154
836.109	0.0133412
836.187	0.0132690
836.265	0.0133209
836.343	0.0133261
836.421	0.0130927
836.499	0.0132188
836.578	0.0133063
836.656	0.0133752
836.734	0.0133392
836.812	0.0131608
836.890	0.0133733
836.968	0.0133724
837.046	0.0134090
837.124	0.0134843
837.203	0.0133252
837.281	0.0133346
837.359	0.0134140
837.437	0.0133912
837.515	0.0132803
837.593	0.0133372
837.671	0.0131935
837.749	0.0131980
837.828	0.0132201
837.906	0.0132315
837.984	0.0132455
838.062	0.0131725
838.140	0.0131873
838.218	0.0132378
838.296	0.0132194
838.374	0.0132644
838.453	0.0132118
838.531	0.0132497
838.609	0.0132568
838.687	0.0133722
838.765	0.0133195
838.843	0.0133202
838.921	0.0133421
838.999	0.0131771
839.078	0.0131596
839.156	0.0134339
839.234	0.0132227
839.312	0.0133798
839.390	0.0133284
839.468	0.0132218
839.546	0.0132507
839.624	0.0131508
839.703	0.0131976
839.781	0.0133469
839.859	0.0133695
839.937	0.0133888
840.015	0.0132767
840.093	0.0133641
840.171	0.0134318
840.249	0.0133369
840.328	0.0133025
840.406	0.0133295
840.484	0.0134026
840.562	0.0134785
840.640	0.0133739
840.718	0.0132886
840.796	0.0133921
840.874	0.0132275
840.953	0.0132716
841.031	0.0133646
841.109	0.0132537
841.187	0.0133588
841.265	0.0133234
841.343	0.0134110
841.421	0.0133311
841.499	0.0133047
841.578	0.0134300
841.656	0.0134795
841.734	0.0133719
841.812	0.0133554
841.890	0.0133666
841.968	0.0133499
842.046	0.0133332
842.124	0.0133029
842.203	0.0133664
842.281	0.0133878
842.359	0.0133482
842.437	0.0135459
842.515	0.0133453
842.593	0.0133257
842.671	0.0132334
842.749	0.0132889
842.828	0.0133381
842.906	0.0132706
842.984	0.0132034
843.062	0.0132944
843.140	0.0134447
843.218	0.0133118
843.296	0.0133006
843.374	0.0134190
843.453	0.0133513
843.531	0.0131676
843.609	0.0133155
843.687	0.0132468
843.765	0.0134568
843.843	0.0133733
843.921	0.0133855
843.999	0.0132543
844.078	0.0132716
844.156	0.0132090
844.234	0.0132710
844.312	0.0134283
844.390	0.0133004
844.468	0.0133025
844.546	0.0132563
844.624	0.0133085
844.703	0.0133198
844.781	0.0133409
844.859	0.0135031
844.937	0.0134332
845.015	0.0133337
845.093	0.0133694
845.171	0.0134434
845.249	0.0134894
845.328	0.0133315
845.406	0.0133605
845.484	0.0134618
845.562	0.0133957
845.640	0.0133136
845.718	0.0133009
845.796	0.0132937
845.874	0.0132649
845.953	0.0132977
846.031	0.0132980
846.109	0.0131804
846.187	0.0132571
846.265	0.0133009
846.343	0.0132494
846.421	0.0133678
846.499	0.0132505
846.578	0.0131207
846.656	0.0131735
846.734	0.0132014
846.812	0.0133084
846.890	0.0132816
846.968	0.0133690
847.046	0.0131948
847.124	0.0133128
847.203	0.0134642
847.281	0.0131705
847.359	0.0131580
847.437	0.0133524
847.515	0.0133340
847.593	0.0133018
847.671	0.0133222
847.749	0.0133270
847.828	0.0132899
847.906	0.0133965
847.984	0.0133321
848.062	0.0131966
848.140	0.0133905
848.218	0.0133597
848.296	0.0132537
848.374	0.0133794
848.453	0.0133885
848.531	0.0132592
848.609	0.0133422
848.687	0.0134319
848.765	0.0134074
848.843	0.0133513
848.921	0.0132948
848.999	0.0134368
849.078	0.0134596
849.156	0.0133278
849.234	0.0133425
849.312	0.0132774
849.390	0.0132259
849.468	0.0134272
849.546	0.0134296
849.624	0.0133128
849.703	0.0132729
849.781	0.0134393
849.859	0.0134421
849.937	0.0132609
850.015	0.0132448
850.093	0.0133328
850.171	0.0132940
850.249	0.0132166
850.328	0.0133205
850.406	0.0133996
850.484	0.0133655
850.562	0.0133642
850.640	0.0132655
850.718	0.0133018
850.796	0.0132000
850.874	0.0133859
850.953	0.0133667
851.031	0.0133283
851.109	0.0133584
851.187	0.0133543
851.265	0.0132768
851.343	0.0134122
851.421	0.0134165
851.499	0.0132914
851.578	0.0132844
851.656	0.0133820
851.734	0.0133334
851.812	0.0131822
851.890	0.0132137
851.968	0.0132274
852.046	0.0133376
852.124	0.0132602
852.203	0.0132600
852.281	0.0132829
852.359	0.0132466
852.437	0.0132658
852.515	0.0132862
852.593	0.0133566
852.671	0.0133185
852.749	0.0132592
852.828	0.0132036
852.906	0.0133865
852.984	0.0133272
853.062	0.0133001
853.140	0.0132023
853.218	0.0133102
853.296	0.0133897
853.374	0.0133387
853.453	0.0132574
853.531	0.0131685
853.609	0.0134419
853.687	0.0134183
853.765	0.0134136
853.843	0.0132917
853.921	0.0132777
853.999	0.0132953
854.078	0.0133450
854.156	0.0134545
854.234	0.0134464
854.312	0.0132217
854.390	0.0135041
854.468	0.0135220
854.546	0.0133316
854.624	0.0133850
854.703	0.0133891
854.781	0.0132838
854.859	0.0132847
854.937	0.0132848
855.015	0.0132424
855.093	0.0132889
855.171	0.0133186
855.249	0.0134014
855.328	0.0133724
855.406	0.0133656
855.484	0.0133828
855.562	0.0132737
855.640	0.0133321
855.718	0.0132742
855.796	0.0132362
855.874	0.0133869
855.953	0.0132504
856.031	0.0133231
856.109	0.0132902
856.187	0.0133338
856.265	0.0132386
856.343	0.0132951
856.421	0.0133697
856.499	0.0132569
856.578	0.0133293
856.656	0.0132863
856.734	0.0132942
856.812	0.0133241
856.890	0.0134078
856.968	0.0131986
857.046	0.0133748
857.124	0.0132373
857.203	0.0133156
857.281	0.0132701
857.359	0.0132111
857.437	0.0131435
857.515	0.0132026
857.593	0.0132542
857.671	0.0132892
857.749	0.0130983
857.828	0.0132316
857.906	0.0133309
857.984	0.0133369
858.062	0.0133336
858.140	0.0133525
858.218	0.0132639
858.296	0.0131613
858.374	0.0132893
858.453	0.0131689
858.531	0.0133129
858.609	0.0133927
858.687	0.0133606
858.765	0.0132205
858.843	0.0132227
858.921	0.0132197
858.999	0.0132350
859.078	0.0134182
859.156	0.0133392
859.234	0.0132188
859.312	0.0132436
859.390	0.0133990
859.468	0.0133746
859.546	0.0133199
859.624	0.0133096
859.703	0.0132792
859.781	0.0134282
859.859	0.0131583
859.937	0.0132376
860.015	0.0131661
860.093	0.0131773
860.171	0.0133487
860.249	0.0133269
860.328	0.0132408
860.406	0.0132105
860.484	0.0133838
860.562	0.0134021
860.640	0.0133659
860.718	0.0132982
860.796	0.0133915
860.874	0.0132722
860.953	0.0133054
861.031	0.0134540
861.109	0.0133119
861.187	0.0134021
861.265	0.0133224
861.343	0.0134251
861.421	0.0132708
861.499	0.0133894
861.578	0.0134470
861.656	0.0133157
861.734	0.0133716
861.812	0.0133964
861.890	0.0133443
861.968	0.0134669
862.046	0.0132848
862.124	0.0134138
862.203	0.0134029
862.281	0.0133784
862.359	0.0134557
862.437	0.0133173
862.515	0.0134002
862.593	0.0134531
862.671	0.0134907
862.749	0.0132582
862.828	0.0132919
862.906	0.0133611
862.984	0.0133537
863.062	0.0133574
863.140	0.0133208
863.218	0.0134470
863.296	0.0132273
863.374	0.0132951
863.453	0.0134275
863.531	0.0133792
863.609	0.0134348
863.687	0.0132679
863.765	0.0133470
863.843	0.0133317
863.921	0.0133081
863.999	0.0132301
864.078	0.0132538
864.156	0.0132440
864.234	0.0132784
864.312	0.0132905
864.390	0.0132368
864.468	0.0132953
864.546	0.0131396
864.624	0.0131789
864.703	0.0133544
864.781	0.0132736
864.859	0.0132279
864.937	0.0132546
865.015	0.0132562
865.093	0.0132533
865.171	0.0133741
865.249	0.0133060
865.328	0.0133466
865.406	0.0131330
865.484	0.0132105
865.562	0.0132013
865.640	0.0133677
865.718	0.0133064
865.796	0.0132845
865.874	0.0132581
865.953	0.0133529
866.031	0.0133311
866.109	0.0133182
866.187	0.0132681
866.265	0.0133147
866.343	0.0132500
866.421	0.0132764
866.499	0.0132603
866.578	0.0133118
866.656	0.0133119
866.734	0.0132686
866.812	0.0132278
866.890	0.0133727
866.968	0.0132453
867.046	0.0132133
867.124	0.0134290
867.203	0.0133292
867.281	0.0133390
867.359	0.0133634
867.437	0.0133379
867.515	0.0133074
867.593	0.0133906
867.671	0.0134303
867.749	0.0134856
867.828	0.0133775
867.906	0.0132538
867.984	0.0132996
868.062	0.0133191
868.140	0.0132738
868.218	0.0132930
868.296	0.0132439
868.374	0.0132815
868.453	0.0132184
868.531	0.0132278
868.609	0.0132523
868.687	0.0132668
868.765	0.0132117
868.843	0.0133321
868.921	0.0133302
868.999	0.0133738
869.078	0.0132900
869.156	0.0133448
869.234	0.0133329
869.312	0.0133001
869.390	0.0133206
869.468	0.0135320
869.546	0.0132619
869.624	0.0133358
869.703	0.0133609
869.781	0.0134042
869.859	0.0133533
869.937	0.0133832
870.015	0.0135339
870.093	0.0134795
870.171	0.0134621
870.249	0.0133485
870.328	0.0133047
870.406	0.0134157
870.484	0.0134064
870.562	0.0133264
870.640	0.0133703
870.718	0.0134160
870.796	0.0133880
870.874	0.0133093
870.953	0.0132132
871.031	0.0133290
871.109	0.0133787
871.187	0.0134859
871.265	0.0134033
871.343	0.0132967
871.421	0.0133390
871.499	0.0135492
871.578	0.0134348
871.656	0.0133923
871.734	0.0134914
871.812	0.0134238
871.890	0.0132914
871.968	0.0133627
872.046	0.0133813
872.124	0.0131913
872.203	0.0132351
872.281	0.0133379
872.359	0.0132734
872.437	0.0132386
872.515	0.0132460
872.593	0.0132970
872.671	0.0134482
872.749	0.0133253
872.828	0.0132199
872.906	0.0134474
872.984	0.0133775
873.062	0.0132895
873.140	0.0132092
873.218	0.0132622
873.296	0.0134118
873.374	0.0132970
873.453	0.0132591
873.531	0.0132579
873.609	0.0133769
873.687	0.0133364
873.765	0.0132361
873.843	0.0133571
873.921	0.0133211
873.999	0.0132836
874.078	0.0132281
874.156	0.0132965
874.234	0.0132834
874.312	0.0131611
874.390	0.0133470
874.468	0.0134377
874.546	0.0133560
874.624	0.0132664
874.703	0.0132829
874.781	0.0133502
874.859	0.0133289
874.937	0.0132269
875.015	0.0132794
875.093	0.0132968
875.171	0.0131776
875.249	0.0132452
875.328	0.0135138
875.406	0.0131435
875.484	0.0132382
875.562	0.0133508
875.640	0.0131870
875.718	0.0132297
875.796	0.0132572
875.874	0.0131995
875.953	0.0132261
876.031	0.0131456
876.109	0.0132990
876.187	0.0132957
876.265	0.0132965
876.343	0.0132588
876.421	0.0132320
876.499	0.0132723
876.578	0.0132568
876.656	0.0131836
876.734	0.0133040
876.812	0.0134190
876.890	0.0133358
876.968	0.0131537
877.046	0.0131480
877.124	0.0133066
877.203	0.0132942
877.281	0.0131290
877.359	0.0131580
877.437	0.0130720
877.515	0.0131532
877.593	0.0132619
877.671	0.0130692
877.749	0.0132380
877.828	0.0131264
877.906	0.0132232
877.984	0.0132692
878.062	0.0133275
878.140	0.0131744
878.218	0.0130919
878.296	0.0133083
878.374	0.0131895
878.453	0.0132355
878.531	0.0132550
878.609	0.0133769
878.687	0.0133826
878.765	0.0132867
878.843	0.0133013
878.921	0.0130956
878.999	0.0133720
879.078	0.0133991
879.156	0.0133097
879.234	0.0131853
879.312	0.0133690
879.390	0.0132839
879.468	0.0135052
879.546	0.0133556
879.624	0.0134067
879.703	0.0133250
879.781	0.0133325
879.859	0.0133101
879.937	0.0133089
880.015	0.0133057
880.093	0.0134753
880.171	0.0133446
880.249	0.0131438
880.328	0.0131466
880.406	0.0132825
880.484	0.0130701
880.562	0.0131863
880.640	0.0132743
880.718	0.0131765
880.796	0.0132157
880.874	0.0132077
880.953	0.0133506
881.031	0.0132887
881.109	0.0132730
881.187	0.0132868
881.265	0.0133257
881.343	0.0133063
881.421	0.0134296
881.499	0.0132610
881.578	0.0133041
881.656	0.0131847
881.734	0.0130984
881.812	0.0131705
881.890	0.0132435
881.968	0.0131263
882.046	0.0130231
882.124	0.0131618
882.203	0.0131092
882.281	0.0131234
882.359	0.0131716
882.437	0.0132106
882.515	0.0132464
882.593	0.0133195
882.671	0.0134065
882.749	0.0132664
882.828	0.0132307
882.906	0.0132385
882.984	0.0133030
883.062	0.0132393
883.140	0.0133222
883.218	0.0133292
883.296	0.0131878
883.374	0.0131464
883.453	0.0133305
883.531	0.0133545
883.609	0.0132883
883.687	0.0133515
883.765	0.0134205
883.843	0.0132628
883.921	0.0132603
883.999	0.0135011
884.078	0.0133725
884.156	0.0132523
884.234	0.0133482
884.312	0.0134595
884.390	0.0135155
884.468	0.0134995
884.546	0.0132374
884.624	0.0134081
884.703	0.0134559
884.781	0.0135528
884.859	0.0133808
884.937	0.0133685
885.015	0.0133994
885.093	0.0133194
885.171	0.0132552
885.249	0.0134055
885.328	0.0134160
885.406	0.0132793
885.484	0.0131691
885.562	0.0131808
885.640	0.0133327
885.718	0.0133962
885.796	0.0132149
885.874	0.0133347
885.953	0.0134222
886.031	0.0132978
886.109	0.0132657
886.187	0.0133071
886.265	0.0133514
886.343	0.0132311
886.421	0.0132563
886.499	0.0133211
886.578	0.0134415
886.656	0.0133472
886.734	0.0132574
886.812	0.0132714
886.890	0.0133312
886.968	0.0132988
887.046	0.0133124
887.124	0.0133001
887.203	0.0133345
887.281	0.0131549
887.359	0.0131447
887.437	0.0132921
887.515	0.0134119
887.593	0.0131777
887.671	0.0130952
887.749	0.0131493
887.828	0.0131570
887.906	0.0131114
887.984	0.0131192
888.062	0.0130930
888.140	0.0132110
888.218	0.0129535
888.296	0.0130741
888.374	0.0130518
888.453	0.0131407
888.531	0.0131601
888.609	0.0132889
888.687	0.0131466
888.765	0.0131639
888.843	0.0131438
888.921	0.0130730
888.999	0.0131515
889.078	0.0132973
889.156	0.0132563
889.234	0.0132326
889.312	0.0132623
889.390	0.0133502
889.468	0.0134155
889.546	0.0132014
889.624	0.0131891
889.703	0.0134130
889.781	0.0135400
889.859	0.0132792
889.937	0.0133167
890.015	0.0133446
890.093	0.0133416
890.171	0.0133974
890.249	0.0132412
890.328	0.0132841
890.406	0.0132024
890.484	0.0131833
890.562	0.0132482
890.640	0.0132635
890.718	0.0131759
890.796	0.0132673
890.874	0.0131778
890.953	0.0132137
891.031	0.0132395
891.109	0.0131447
891.187	0.0131312
891.265	0.0132325
891.343	0.0133374
891.421	0.0132713
891.499	0.0132636
891.578	0.0133232
891.656	0.0132030
891.734	0.0131608
891.812	0.0132803
891.890	0.0132791
891.968	0.0132376
892.046	0.0132814
892.124	0.0131802
892.203	0.0132612
892.281	0.0133372
892.359	0.0133473
892.437	0.0132234
892.515	0.0133765
892.593	0.0131132
892.671	0.0132835
892.749	0.0133154
892.828	0.0132449
892.906	0.0131491
892.984	0.0131760
893.062	0.0131213
893.140	0.0132425
893.218	0.0131964
893.296	0.0132427
893.374	0.0131812
893.453	0.0132286
893.531	0.0131107
893.609	0.0131812
893.687	0.0130615
893.765	0.0131301
893.843	0.0131264
893.921	0.0131114
893.999	0.0132195
894.078	0.0131416
894.156	0.0131429
894.234	0.0131517
894.312	0.0131590
894.390	0.0131190
894.468	0.0131399
894.546	0.0132579
894.624	0.0133086
894.703	0.0131457
894.781	0.0132458
894.859	0.0132495
894.937	0.0131932
895.015	0.0133157
895.093	0.0133406
895.171	0.0133183
895.249	0.0132701
895.328	0.0132199
895.406	0.0133030
895.484	0.0133264
895.562	0.0131926
895.640	0.0131983
895.718	0.0132196
895.796	0.0132426
895.874	0.0133083
895.953	0.0132660
896.031	0.0134315
896.109	0.0131705
896.187	0.0133291
896.265	0.0133908
896.343	0.0134019
896.421	0.0132841
896.499	0.0133094
896.578	0.0132703
896.656	0.0134184
896.734	0.0134676
896.812	0.0132468
896.890	0.0132169
896.968	0.0134248
897.046	0.0132715
897.124	0.0133154
897.203	0.0132530
897.281	0.0133382
897.359	0.0133173
897.437	0.0133252
897.515	0.0132945
897.593	0.0133115
897.671	0.0133224
897.749	0.0133669
897.828	0.0133506
897.906	0.0131963
897.984	0.0133444
898.062	0.0132217
898.140	0.0132883
898.218	0.0132993
898.296	0.0133260
898.374	0.0130157
898.453	0.0129976
898.531	0.0130688
898.609	0.0131451
898.687	0.0130348
898.765	0.0129529
898.843	0.0130231
898.921	0.0131918
898.999	0.0131976
899.078	0.0130444
899.156	0.0130182
899.234	0.0130836
899.312	0.0131956
899.390	0.0131970
899.468	0.0132619
899.546	0.0131399
899.624	0.0132334
899.703	0.0132375
899.781	0.0132681
899.859	0.0131712
899.937	0.0132106
900.015	0.0131640
900.093	0.0131954
900.171	0.0132848
900.249	0.0131195
900.328	0.0130397
900.406	0.0131792
900.484	0.0131037
900.562	0.0132810
900.640	0.0130633
900.718	0.0130839
900.796	0.0131475
900.874	0.0132009
900.953	0.0131122
901.031	0.0131518
901.109	0.0132291
901.187	0.0130791
901.265	0.0132195
901.343	0.0132912
901.421	0.0133592
901.499	0.0133263
901.578	0.0132737
901.656	0.0132368
901.734	0.0133760
901.812	0.0132198
901.890	0.0132655
901.968	0.0133734
902.046	0.0134952
902.124	0.0134035
902.203	0.0133805
902.281	0.0133508
902.359	0.0134184
902.437	0.0132420
902.515	0.0133054
902.593	0.0132574
902.671	0.0132871
902.749	0.0134017
902.828	0.0133708
902.906	0.0132584
902.984	0.0132244
903.062	0.0132648
903.140	0.0133078
903.218	0.0133374
903.296	0.0132777
903.374	0.0132089
903.453	0.0133882
903.531	0.0133192
903.609	0.0133336
903.687	0.0134201
903.765	0.0133246
903.843	0.0132134
903.921	0.0132716
903.999	0.0133624
904.078	0.0131354
904.156	0.0132636
904.234	0.0133025
904.312	0.0132355
904.390	0.0132938
904.468	0.0132587
904.546	0.0133183
904.624	0.0132127
904.703	0.0130909
904.781	0.0131898
904.859	0.0131838
904.937	0.0133125
905.015	0.0131609
905.093	0.0132024
905.171	0.0132352
905.249	0.0131585
905.328	0.0133471
905.406	0.0132079
905.484	0.0133038
905.562	0.0132367
905.640	0.0131712
905.718	0.0132861
905.796	0.0132632
905.874	0.0132542
905.953	0.0133086
906.031	0.0132389
906.109	0.0134183
906.187	0.0133665
906.265	0.0134328
906.343	0.0131651
906.421	0.0133432
906.499	0.0134518
906.578	0.0133501
906.656	0.0132069
906.734	0.0132828
906.812	0.0131770
906.890	0.0133337
906.968	0.0132884
907.046	0.0133037
907.124	0.0131137
907.203	0.0132193
907.281	0.0131402
907.359	0.0132515
907.437	0.0131371
907.515	0.0130968
907.593	0.0132834
907.671	0.0132685
907.749	0.0132751
907.828	0.0132034
907.906	0.0132633
907.984	0.0131990
908.062	0.0132159
908.140	0.0132833
908.218	0.0132800
908.296	0.0132746
908.374	0.0133092
908.453	0.0134139
908.531	0.0133836
908.609	0.0133013
908.687	0.0132832
908.765	0.0135357
908.843	0.0134415
908.921	0.0133485
908.999	0.0132533
909.078	0.0132900
909.156	0.0133086
909.234	0.0133395
909.312	0.0132867
909.390	0.0133147
909.468	0.0133463
909.546	0.0131503
909.624	0.0131497
909.703	0.0130160
909.781	0.0131928
909.859	0.0131602
909.937	0.0131881
910.015	0.0131950
910.093	0.0132149
910.171	0.0132027
910.249	0.0132000
910.328	0.0133197
910.406	0.0132955
910.484	0.0133575
910.562	0.0133688
910.640	0.0134286
910.718	0.0132479
910.796	0.0134119
910.874	0.0134242
910.953	0.0133516
911.031	0.0133308
911.109	0.0132812
911.187	0.0131584
911.265	0.0133185
911.343	0.0133355
911.421	0.0132056
911.499	0.0131467
911.578	0.0131229
911.656	0.0133138
911.734	0.0132335
911.812	0.0131394
911.890	0.0130809
911.968	0.0131950
912.046	0.0131956
912.124	0.0132204
912.203	0.0131383
912.281	0.0130296
912.359	0.0131291
912.437	0.0131870
912.515	0.0131531
912.593	0.0132353
912.671	0.0132008
912.749	0.0132259
912.828	0.0133805
912.906	0.0132214
912.984	0.0132092
913.062	0.0131791
913.140	0.0132793
913.218	0.0134253
913.296	0.0133955
913.374	0.0132421
913.453	0.0132141
913.531	0.0133867
913.609	0.0134077
913.687	0.0132402
913.765	0.0132433
913.843	0.0132481
913.921	0.0132516
913.999	0.0132671
914.078	0.0132658
914.156	0.0133476
914.234	0.0133936
914.312	0.0133143
914.390	0.0132880
914.468	0.0132803
914.546	0.0133692
914.624	0.0133797
914.703	0.0133833
914.781	0.0133697
914.859	0.0132420
914.937	0.0131731
915.015	0.0133801
915.093	0.0133649
915.171	0.0133100
915.249	0.0133482
915.328	0.0134725
915.406	0.0131862
915.484	0.0133457
915.562	0.0132131
915.640	0.0133244
915.718	0.0132098
915.796	0.0132048
915.874	0.0132921
915.953	0.0134388
916.031	0.0133545
916.109	0.0132211
916.187	0.0132435
916.265	0.0132890
916.343	0.0132796
916.421	0.0134120
916.499	0.0135112
916.578	0.0132952
916.656	0.0133620
916.734	0.0133596
916.812	0.0132810
916.890	0.0133291
916.968	0.0133601
917.046	0.0131971
917.124	0.0132984
917.203	0.0132410
917.281	0.0133812
917.359	0.0132423
917.437	0.0132773
917.515	0.0132323
917.593	0.0132095
917.671	0.0133015
917.749	0.0132310
917.828	0.0131504
917.906	0.0131427
917.984	0.0131330
918.062	0.0131564
918.140	0.0132422
918.218	0.0133151
918.296	0.0132722
918.374	0.0131815
918.453	0.0131747
918.531	0.0131418
918.609	0.0131377
918.687	0.0132137
918.765	0.0131773
918.843	0.0132148
918.921	0.0133677
918.999	0.0131982
919.078	0.0133106
919.156	0.0133247
919.234	0.0132611
919.312	0.0132538
919.390	0.0132778
919.468	0.0132610
919.546	0.0133607
919.624	0.0133475
919.703	0.0133078
919.781	0.0132738
919.859	0.0133516
919.937	0.0132325
