05/06/2022	19:21:35	Ver.	4.1	UNKNOWN
Optical Delay	600.015094	Delta X		0.078125	Sweeps	1	Scan Rate	0/0
Coordinates	Axis 1	NaN	Axis 2	NaN	Axis 3	NaN	Axis 4	NaN	Axis 5	NaN	Axis 6	0.000000
TX Power	0.000000	RX Power	0.000000

600.015	0.0154105
600.093	0.0154086
600.171	0.0153777
600.249	0.0155047
600.328	0.0154520
600.406	0.0154096
600.484	0.0153911
600.562	0.0154675
600.640	0.0154814
600.718	0.0154950
600.796	0.0153983
600.874	0.0153503
600.953	0.0154301
601.031	0.0154776
601.109	0.0153815
601.187	0.0154141
601.265	0.0154327
601.343	0.0153561
601.421	0.0153259
601.499	0.0154344
601.578	0.0154572
601.656	0.0154278
601.734	0.0153904
601.812	0.0154696
601.890	0.0153917
601.968	0.0153503
602.046	0.0153834
602.124	0.0154308
602.203	0.0154150
602.281	0.0153944
602.359	0.0155484
602.437	0.0154404
602.515	0.0154832
602.593	0.0153176
602.671	0.0153749
602.749	0.0155670
602.828	0.0153401
602.906	0.0154316
602.984	0.0154263
603.062	0.0154672
603.140	0.0154351
603.218	0.0154472
603.296	0.0154800
603.374	0.0153938
603.453	0.0153134
603.531	0.0153721
603.609	0.0154317
603.687	0.0154858
603.765	0.0153754
603.843	0.0153468
603.921	0.0154173
603.999	0.0153634
604.078	0.0154150
604.156	0.0154549
604.234	0.0154263
604.312	0.0153788
604.390	0.0154734
604.468	0.0153753
604.546	0.0154368
604.624	0.0153844
604.703	0.0152606
604.781	0.0153888
604.859	0.0154871
604.937	0.0154370
605.015	0.0152954
605.093	0.0153083
605.171	0.0154842
605.249	0.0154191
605.328	0.0152921
605.406	0.0153650
605.484	0.0152766
605.562	0.0155259
605.640	0.0153069
605.718	0.0152824
605.796	0.0152986
605.874	0.0152789
605.953	0.0151974
606.031	0.0153344
606.109	0.0154008
606.187	0.0153064
606.265	0.0153436
606.343	0.0152855
606.421	0.0153134
606.499	0.0152844
606.578	0.0153164
606.656	0.0153123
606.734	0.0153062
606.812	0.0153469
606.890	0.0154773
606.968	0.0154281
607.046	0.0152341
607.124	0.0153513
607.203	0.0152823
607.281	0.0154329
607.359	0.0153974
607.437	0.0153564
607.515	0.0153600
607.593	0.0154737
607.671	0.0154211
607.749	0.0154252
607.828	0.0152743
607.906	0.0153433
607.984	0.0153230
608.062	0.0153775
608.140	0.0153590
608.218	0.0153995
608.296	0.0154922
608.374	0.0154027
608.453	0.0153315
608.531	0.0153565
608.609	0.0153244
608.687	0.0152995
608.765	0.0152899
608.843	0.0153408
608.921	0.0154285
608.999	0.0154250
609.078	0.0154765
609.156	0.0154256
609.234	0.0153111
609.312	0.0153712
609.390	0.0154163
609.468	0.0154739
609.546	0.0152660
609.624	0.0153947
609.703	0.0154630
609.781	0.0154340
609.859	0.0153785
609.937	0.0153261
610.015	0.0154769
610.093	0.0154261
610.171	0.0154892
610.249	0.0154192
610.328	0.0154142
610.406	0.0154324
610.484	0.0154015
610.562	0.0153467
610.640	0.0154011
610.718	0.0155784
610.796	0.0153395
610.874	0.0153425
610.953	0.0154707
611.031	0.0154195
611.109	0.0154436
611.187	0.0154737
611.265	0.0154717
611.343	0.0154120
611.421	0.0153845
611.499	0.0154154
611.578	0.0154729
611.656	0.0154770
611.734	0.0155135
611.812	0.0154250
611.890	0.0155172
611.968	0.0155377
612.046	0.0155177
612.124	0.0153967
612.203	0.0154786
612.281	0.0154955
612.359	0.0154529
612.437	0.0155125
612.515	0.0153558
612.593	0.0154904
612.671	0.0155185
612.749	0.0154523
612.828	0.0153556
612.906	0.0153418
612.984	0.0153766
613.062	0.0152821
613.140	0.0152298
613.218	0.0154370
613.296	0.0155316
613.374	0.0153309
613.453	0.0154587
613.531	0.0154283
613.609	0.0154251
613.687	0.0154256
613.765	0.0154655
613.843	0.0153824
613.921	0.0154280
613.999	0.0153486
614.078	0.0154811
614.156	0.0154179
614.234	0.0153683
614.312	0.0153384
614.390	0.0155179
614.468	0.0153822
614.546	0.0155002
614.624	0.0154665
614.703	0.0153869
614.781	0.0153049
614.859	0.0153591
614.937	0.0154222
615.015	0.0154620
615.093	0.0153854
615.171	0.0154807
615.249	0.0154213
615.328	0.0154679
615.406	0.0154298
615.484	0.0156318
615.562	0.0155323
615.640	0.0154591
615.718	0.0155622
615.796	0.0155208
615.874	0.0154419
615.953	0.0154972
616.031	0.0155270
616.109	0.0155662
616.187	0.0154047
616.265	0.0154710
616.343	0.0154871
616.421	0.0154066
616.499	0.0153782
616.578	0.0153378
616.656	0.0154667
616.734	0.0153467
616.812	0.0152455
616.890	0.0152268
616.968	0.0153275
617.046	0.0153604
617.124	0.0154301
617.203	0.0152892
617.281	0.0154349
617.359	0.0153743
617.437	0.0154260
617.515	0.0155137
617.593	0.0154095
617.671	0.0154993
617.749	0.0154871
617.828	0.0155602
617.906	0.0154932
617.984	0.0154910
618.062	0.0155378
618.140	0.0154778
618.218	0.0155429
618.296	0.0154726
618.374	0.0155518
618.453	0.0154977
618.531	0.0155075
618.609	0.0154282
618.687	0.0155148
618.765	0.0154475
618.843	0.0155268
618.921	0.0154408
618.999	0.0154522
619.078	0.0152934
619.156	0.0152383
619.234	0.0154004
619.312	0.0152724
619.390	0.0153445
619.468	0.0154603
619.546	0.0154278
619.624	0.0153132
619.703	0.0154306
619.781	0.0153947
619.859	0.0154287
619.937	0.0154614
620.015	0.0155165
620.093	0.0154281
620.171	0.0154405
620.249	0.0155039
620.328	0.0153982
620.406	0.0155296
620.484	0.0153790
620.562	0.0153483
620.640	0.0154269
620.718	0.0153095
620.796	0.0154429
620.874	0.0154663
620.953	0.0152905
621.031	0.0155109
621.109	0.0153239
621.187	0.0154171
621.265	0.0154200
621.343	0.0154570
621.421	0.0154334
621.499	0.0153772
621.578	0.0154182
621.656	0.0153905
621.734	0.0154166
621.812	0.0155428
621.890	0.0155170
621.968	0.0155527
622.046	0.0156524
622.124	0.0154652
622.203	0.0154555
622.281	0.0153651
622.359	0.0154022
622.437	0.0153786
622.515	0.0153870
622.593	0.0154191
622.671	0.0152638
622.749	0.0152489
622.828	0.0153143
622.906	0.0152124
622.984	0.0152876
623.062	0.0154550
623.140	0.0152705
623.218	0.0153481
623.296	0.0154310
623.374	0.0153905
623.453	0.0152021
623.531	0.0154688
623.609	0.0153776
623.687	0.0154980
623.765	0.0154107
623.843	0.0154837
623.921	0.0154642
623.999	0.0154639
624.078	0.0154895
624.156	0.0155485
624.234	0.0155985
624.312	0.0153886
624.390	0.0153883
624.468	0.0154428
624.546	0.0155771
624.624	0.0153838
624.703	0.0153214
624.781	0.0154661
624.859	0.0155124
624.937	0.0154948
625.015	0.0154798
625.093	0.0153762
625.171	0.0155748
625.249	0.0154983
625.328	0.0154288
625.406	0.0154002
625.484	0.0154973
625.562	0.0154232
625.640	0.0154577
625.718	0.0154945
625.796	0.0154843
625.874	0.0154298
625.953	0.0155056
626.031	0.0155364
626.109	0.0154275
626.187	0.0154839
626.265	0.0154308
626.343	0.0154823
626.421	0.0154858
626.499	0.0154874
626.578	0.0155627
626.656	0.0154840
626.734	0.0155359
626.812	0.0153864
626.890	0.0154614
626.968	0.0152569
627.046	0.0153027
627.124	0.0154432
627.203	0.0152848
627.281	0.0154171
627.359	0.0154636
627.437	0.0153870
627.515	0.0154459
627.593	0.0155182
627.671	0.0153390
627.749	0.0154504
627.828	0.0154465
627.906	0.0154720
627.984	0.0154932
628.062	0.0153517
628.140	0.0153152
628.218	0.0153793
628.296	0.0153176
628.374	0.0152903
628.453	0.0153249
628.531	0.0153001
628.609	0.0153446
628.687	0.0153330
628.765	0.0153999
628.843	0.0153522
628.921	0.0154311
628.999	0.0154353
629.078	0.0154259
629.156	0.0154703
629.234	0.0153912
629.312	0.0153927
629.390	0.0153439
629.468	0.0152956
629.546	0.0151551
629.624	0.0153877
629.703	0.0153530
629.781	0.0154720
629.859	0.0154704
629.937	0.0153527
630.015	0.0153813
630.093	0.0153749
630.171	0.0155003
630.249	0.0154771
630.328	0.0152769
630.406	0.0154195
630.484	0.0153364
630.562	0.0153235
630.640	0.0152681
630.718	0.0152875
630.796	0.0152635
630.874	0.0152726
630.953	0.0152574
631.031	0.0152310
631.109	0.0151916
631.187	0.0152181
631.265	0.0153194
631.343	0.0152928
631.421	0.0151847
631.499	0.0151519
631.578	0.0153946
631.656	0.0154916
631.734	0.0154491
631.812	0.0154664
631.890	0.0154972
631.968	0.0157241
632.046	0.0155889
632.124	0.0156575
632.203	0.0156259
632.281	0.0156575
632.359	0.0156262
632.437	0.0155565
632.515	0.0157751
632.593	0.0156306
632.671	0.0154288
632.749	0.0155300
632.828	0.0154790
632.906	0.0154065
632.984	0.0152675
633.062	0.0154469
633.140	0.0153893
633.218	0.0153152
633.296	0.0151330
633.374	0.0151753
633.453	0.0153101
633.531	0.0151393
633.609	0.0150639
633.687	0.0152522
633.765	0.0152126
633.843	0.0152492
633.921	0.0152148
633.999	0.0151365
634.078	0.0152613
634.156	0.0152993
634.234	0.0152114
634.312	0.0152995
634.390	0.0152795
634.468	0.0153356
634.546	0.0153722
634.624	0.0152741
634.703	0.0153777
634.781	0.0154554
634.859	0.0155213
634.937	0.0155065
635.015	0.0155478
635.093	0.0155930
635.171	0.0156680
635.249	0.0156604
635.328	0.0157644
635.406	0.0157120
635.484	0.0157715
635.562	0.0158652
635.640	0.0157969
635.718	0.0156691
635.796	0.0156892
635.874	0.0156387
635.953	0.0156142
636.031	0.0154280
636.109	0.0153259
636.187	0.0153979
636.265	0.0152693
636.343	0.0152522
636.421	0.0152561
636.499	0.0153135
636.578	0.0152039
636.656	0.0151263
636.734	0.0152910
636.812	0.0151413
636.890	0.0150597
636.968	0.0149126
637.046	0.0150702
637.124	0.0152122
637.203	0.0151305
637.281	0.0151949
637.359	0.0151147
637.437	0.0149534
637.515	0.0150697
637.593	0.0150275
637.671	0.0150240
637.749	0.0151094
637.828	0.0152242
637.906	0.0151639
637.984	0.0153961
638.062	0.0155917
638.140	0.0155731
638.218	0.0155171
638.296	0.0156203
638.374	0.0157465
638.453	0.0156240
638.531	0.0157953
638.609	0.0157853
638.687	0.0159030
638.765	0.0158387
638.843	0.0158070
638.921	0.0159193
638.999	0.0158366
639.078	0.0158810
639.156	0.0157484
639.234	0.0158601
639.312	0.0159043
639.390	0.0158788
639.468	0.0157133
639.546	0.0157344
639.624	0.0156335
639.703	0.0157146
639.781	0.0155989
639.859	0.0154990
639.937	0.0154640
640.015	0.0154863
640.093	0.0153662
640.171	0.0152950
640.249	0.0153429
640.328	0.0151612
640.406	0.0150375
640.484	0.0150748
640.562	0.0150117
640.640	0.0148639
640.718	0.0150307
640.796	0.0150537
640.874	0.0149450
640.953	0.0149408
641.031	0.0150792
641.109	0.0149506
641.187	0.0149351
641.265	0.0149726
641.343	0.0151254
641.421	0.0150162
641.499	0.0150690
641.578	0.0151944
641.656	0.0153307
641.734	0.0152906
641.812	0.0155160
641.890	0.0155540
641.968	0.0156654
642.046	0.0156481
642.124	0.0158537
642.203	0.0161152
642.281	0.0160464
642.359	0.0161744
642.437	0.0161502
642.515	0.0161160
642.593	0.0161765
642.671	0.0162964
642.749	0.0161479
642.828	0.0160660
642.906	0.0160570
642.984	0.0161488
643.062	0.0160649
643.140	0.0159722
643.218	0.0160031
643.296	0.0159245
643.374	0.0157312
643.453	0.0158089
643.531	0.0156694
643.609	0.0155273
643.687	0.0153898
643.765	0.0154176
643.843	0.0153692
643.921	0.0151791
643.999	0.0152920
644.078	0.0152361
644.156	0.0150373
644.234	0.0150558
644.312	0.0150583
644.390	0.0149693
644.468	0.0147546
644.546	0.0147883
644.624	0.0148129
644.703	0.0147656
644.781	0.0148672
644.859	0.0147837
644.937	0.0147546
645.015	0.0146702
645.093	0.0147061
645.171	0.0147495
645.249	0.0147531
645.328	0.0146828
645.406	0.0148751
645.484	0.0150088
645.562	0.0150746
645.640	0.0152382
645.718	0.0152209
645.796	0.0153982
645.874	0.0156582
645.953	0.0157596
646.031	0.0158220
646.109	0.0159632
646.187	0.0161032
646.265	0.0161349
646.343	0.0162160
646.421	0.0162448
646.499	0.0163077
646.578	0.0163778
646.656	0.0163931
646.734	0.0164513
646.812	0.0163496
646.890	0.0163079
646.968	0.0163939
647.046	0.0164279
647.124	0.0161765
647.203	0.0160535
647.281	0.0160831
647.359	0.0160363
647.437	0.0158298
647.515	0.0157165
647.593	0.0158447
647.671	0.0155970
647.749	0.0155533
647.828	0.0153052
647.906	0.0153329
647.984	0.0151479
648.062	0.0150159
648.140	0.0149806
648.218	0.0148374
648.296	0.0147340
648.374	0.0145321
648.453	0.0144205
648.531	0.0142779
648.609	0.0141618
648.687	0.0142080
648.765	0.0142384
648.843	0.0142213
648.921	0.0142599
648.999	0.0142037
649.078	0.0144792
649.156	0.0144725
649.234	0.0145457
649.312	0.0147805
649.390	0.0147800
649.468	0.0149409
649.546	0.0151646
649.624	0.0153117
649.703	0.0154324
649.781	0.0155981
649.859	0.0158163
649.937	0.0157492
650.015	0.0160117
650.093	0.0160653
650.171	0.0162880
650.249	0.0162761
650.328	0.0163130
650.406	0.0163796
650.484	0.0164095
650.562	0.0163811
650.640	0.0163047
650.718	0.0165263
650.796	0.0165088
650.874	0.0164910
650.953	0.0163324
651.031	0.0162625
651.109	0.0162241
651.187	0.0160036
651.265	0.0159097
651.343	0.0159076
651.421	0.0158881
651.499	0.0155376
651.578	0.0154292
651.656	0.0154125
651.734	0.0153166
651.812	0.0152277
651.890	0.0150887
651.968	0.0151302
652.046	0.0150322
652.124	0.0149830
652.203	0.0149541
652.281	0.0148344
652.359	0.0147150
652.437	0.0146658
652.515	0.0146437
652.593	0.0146889
652.671	0.0146580
652.749	0.0145685
652.828	0.0145011
652.906	0.0145139
652.984	0.0146307
653.062	0.0146629
653.140	0.0146581
653.218	0.0147214
653.296	0.0146694
653.374	0.0147469
653.453	0.0149117
653.531	0.0149626
653.609	0.0150636
653.687	0.0152991
653.765	0.0152068
653.843	0.0153522
653.921	0.0153831
653.999	0.0155560
654.078	0.0157002
654.156	0.0158102
654.234	0.0159069
654.312	0.0159012
654.390	0.0161362
654.468	0.0161130
654.546	0.0161240
654.624	0.0160885
654.703	0.0161810
654.781	0.0160769
654.859	0.0162225
654.937	0.0162301
655.015	0.0160178
655.093	0.0160404
655.171	0.0159245
655.249	0.0159676
655.328	0.0157246
655.406	0.0158170
655.484	0.0157148
655.562	0.0156528
655.640	0.0157260
655.718	0.0155788
655.796	0.0154472
655.874	0.0153063
655.953	0.0153763
656.031	0.0152977
656.109	0.0152723
656.187	0.0150907
656.265	0.0149102
656.343	0.0149478
656.421	0.0149873
656.499	0.0148317
656.578	0.0148860
656.656	0.0146880
656.734	0.0147546
656.812	0.0145884
656.890	0.0147855
656.968	0.0147935
657.046	0.0147855
657.124	0.0147886
657.203	0.0150906
657.281	0.0150623
657.359	0.0151765
657.437	0.0152247
657.515	0.0150855
657.593	0.0154291
657.671	0.0155038
657.749	0.0155230
657.828	0.0155100
657.906	0.0156286
657.984	0.0157478
658.062	0.0157376
658.140	0.0158304
658.218	0.0157032
658.296	0.0158508
658.374	0.0158215
658.453	0.0158128
658.531	0.0159451
658.609	0.0159547
658.687	0.0160754
658.765	0.0159676
658.843	0.0159304
658.921	0.0159364
658.999	0.0158105
659.078	0.0159276
659.156	0.0158092
659.234	0.0157166
659.312	0.0157649
659.390	0.0157795
659.468	0.0155878
659.546	0.0155609
659.624	0.0155014
659.703	0.0154082
659.781	0.0153452
659.859	0.0153157
659.937	0.0154128
660.015	0.0153214
660.093	0.0151737
660.171	0.0151524
660.249	0.0151900
660.328	0.0150872
660.406	0.0151944
660.484	0.0149702
660.562	0.0150508
660.640	0.0150404
660.718	0.0147829
660.796	0.0149174
660.874	0.0149123
660.953	0.0150136
661.031	0.0150266
661.109	0.0150168
661.187	0.0150852
661.265	0.0154131
661.343	0.0153449
661.421	0.0155006
661.499	0.0154911
661.578	0.0155518
661.656	0.0157543
661.734	0.0158865
661.812	0.0158118
661.890	0.0160370
661.968	0.0160528
662.046	0.0160829
662.124	0.0158005
662.203	0.0160476
662.281	0.0159428
662.359	0.0159631
662.437	0.0160329
662.515	0.0160059
662.593	0.0159445
662.671	0.0158419
662.749	0.0159253
662.828	0.0157618
662.906	0.0157626
662.984	0.0157048
663.062	0.0156734
663.140	0.0154164
663.218	0.0153178
663.296	0.0152995
663.374	0.0151894
663.453	0.0149524
663.531	0.0148948
663.609	0.0149337
663.687	0.0147796
663.765	0.0147494
663.843	0.0146509
663.921	0.0145941
663.999	0.0146793
664.078	0.0147133
664.156	0.0146369
664.234	0.0146858
664.312	0.0147283
664.390	0.0147460
664.468	0.0148879
664.546	0.0149444
664.624	0.0151083
664.703	0.0152899
664.781	0.0152805
664.859	0.0156112
664.937	0.0157264
665.015	0.0155692
665.093	0.0157696
665.171	0.0158511
665.249	0.0159715
665.328	0.0160534
665.406	0.0160659
665.484	0.0162440
665.562	0.0161881
665.640	0.0162309
665.718	0.0162839
665.796	0.0161187
665.874	0.0161945
665.953	0.0160439
666.031	0.0160397
666.109	0.0160338
666.187	0.0159161
666.265	0.0159345
666.343	0.0158478
666.421	0.0158619
666.499	0.0157612
666.578	0.0155871
666.656	0.0155665
666.734	0.0156546
666.812	0.0153682
666.890	0.0153958
666.968	0.0153525
667.046	0.0151168
667.124	0.0149333
667.203	0.0149123
667.281	0.0147352
667.359	0.0147524
667.437	0.0147797
667.515	0.0146329
667.593	0.0147393
667.671	0.0146706
667.749	0.0145601
667.828	0.0146754
667.906	0.0147682
667.984	0.0147216
668.062	0.0147146
668.140	0.0148680
668.218	0.0149769
668.296	0.0149918
668.374	0.0151344
668.453	0.0151196
668.531	0.0151762
668.609	0.0153395
668.687	0.0153984
668.765	0.0156326
668.843	0.0157388
668.921	0.0158141
668.999	0.0159527
669.078	0.0161174
669.156	0.0161374
669.234	0.0163415
669.312	0.0164157
669.390	0.0163484
669.468	0.0162918
669.546	0.0163697
669.624	0.0163985
669.703	0.0163475
669.781	0.0162703
669.859	0.0161498
669.937	0.0162636
670.015	0.0160597
670.093	0.0161143
670.171	0.0161387
670.249	0.0159337
670.328	0.0160322
670.406	0.0159159
670.484	0.0157298
670.562	0.0156335
670.640	0.0155987
670.718	0.0156110
670.796	0.0153594
670.874	0.0154195
670.953	0.0153392
671.031	0.0151588
671.109	0.0149270
671.187	0.0148289
671.265	0.0148852
671.343	0.0148156
671.421	0.0145537
671.499	0.0144891
671.578	0.0145953
671.656	0.0144643
671.734	0.0145464
671.812	0.0145142
671.890	0.0145554
671.968	0.0146585
672.046	0.0145602
672.124	0.0147111
672.203	0.0148876
672.281	0.0150958
672.359	0.0150295
672.437	0.0150224
672.515	0.0152522
672.593	0.0155495
672.671	0.0154829
672.749	0.0155907
672.828	0.0158477
672.906	0.0157835
672.984	0.0159674
673.062	0.0159215
673.140	0.0159192
673.218	0.0160349
673.296	0.0161496
673.374	0.0162280
673.453	0.0161725
673.531	0.0162304
673.609	0.0160571
673.687	0.0161276
673.765	0.0162699
673.843	0.0160280
673.921	0.0160389
673.999	0.0160197
674.078	0.0159167
674.156	0.0157811
674.234	0.0157790
674.312	0.0155785
674.390	0.0155503
674.468	0.0154795
674.546	0.0153585
674.624	0.0154089
674.703	0.0152781
674.781	0.0152089
674.859	0.0151427
674.937	0.0150330
675.015	0.0150806
675.093	0.0148475
675.171	0.0148242
675.249	0.0147346
675.328	0.0146236
675.406	0.0147063
675.484	0.0147445
675.562	0.0146943
675.640	0.0145182
675.718	0.0144255
675.796	0.0146279
675.874	0.0147020
675.953	0.0145481
676.031	0.0147952
676.109	0.0148915
676.187	0.0149187
676.265	0.0149767
676.343	0.0152962
676.421	0.0153780
676.499	0.0152608
676.578	0.0155279
676.656	0.0157822
676.734	0.0158968
676.812	0.0161785
676.890	0.0160680
676.968	0.0161739
677.046	0.0163578
677.124	0.0162947
677.203	0.0162072
677.281	0.0162036
677.359	0.0162806
677.437	0.0161939
677.515	0.0161099
677.593	0.0160799
677.671	0.0160431
677.749	0.0159486
677.828	0.0159310
677.906	0.0158479
677.984	0.0156704
678.062	0.0156350
678.140	0.0154532
678.218	0.0154542
678.296	0.0154977
678.374	0.0152206
678.453	0.0151767
678.531	0.0151765
678.609	0.0151357
678.687	0.0151532
678.765	0.0149117
678.843	0.0147852
678.921	0.0147662
678.999	0.0149206
679.078	0.0145404
679.156	0.0145332
679.234	0.0147414
679.312	0.0146204
679.390	0.0147012
679.468	0.0147212
679.546	0.0146616
679.624	0.0148576
679.703	0.0150681
679.781	0.0149181
679.859	0.0150308
679.937	0.0150381
680.015	0.0153068
680.093	0.0154343
680.171	0.0156435
680.249	0.0156152
680.328	0.0157172
680.406	0.0158244
680.484	0.0160000
680.562	0.0161221
680.640	0.0161631
680.718	0.0161284
680.796	0.0160905
680.874	0.0160867
680.953	0.0160326
681.031	0.0160903
681.109	0.0160300
681.187	0.0157771
681.265	0.0157682
681.343	0.0157613
681.421	0.0158347
681.499	0.0156274
681.578	0.0155605
681.656	0.0157108
681.734	0.0155206
681.812	0.0154079
681.890	0.0154552
681.968	0.0152936
682.046	0.0152454
682.124	0.0151744
682.203	0.0153377
682.281	0.0152122
682.359	0.0151471
682.437	0.0151073
682.515	0.0149545
682.593	0.0151154
682.671	0.0151019
682.749	0.0150787
682.828	0.0151630
682.906	0.0150538
682.984	0.0151148
683.062	0.0151230
683.140	0.0151839
683.218	0.0152325
683.296	0.0150988
683.374	0.0150793
683.453	0.0151544
683.531	0.0150557
683.609	0.0152663
683.687	0.0153234
683.765	0.0153975
683.843	0.0154461
683.921	0.0155071
683.999	0.0155457
684.078	0.0156445
684.156	0.0157489
684.234	0.0156430
684.312	0.0156708
684.390	0.0158356
684.468	0.0158898
684.546	0.0158010
684.624	0.0158439
684.703	0.0157330
684.781	0.0158355
684.859	0.0159814
684.937	0.0159347
685.015	0.0156872
685.093	0.0158434
685.171	0.0158632
685.249	0.0157572
685.328	0.0157138
685.406	0.0158043
685.484	0.0155930
685.562	0.0156509
685.640	0.0154975
685.718	0.0154880
685.796	0.0156174
685.874	0.0154564
685.953	0.0153320
686.031	0.0153737
686.109	0.0152316
686.187	0.0151794
686.265	0.0151718
686.343	0.0150346
686.421	0.0150429
686.499	0.0149882
686.578	0.0149221
686.656	0.0149788
686.734	0.0149039
686.812	0.0148380
686.890	0.0148709
686.968	0.0149613
687.046	0.0150584
687.124	0.0150990
687.203	0.0150001
687.281	0.0150047
687.359	0.0152962
687.437	0.0152635
687.515	0.0153421
687.593	0.0154819
687.671	0.0156481
687.749	0.0155576
687.828	0.0158171
687.906	0.0158299
687.984	0.0159270
688.062	0.0160857
688.140	0.0161883
688.218	0.0161836
688.296	0.0162000
688.374	0.0161075
688.453	0.0161900
688.531	0.0161346
688.609	0.0161304
688.687	0.0159190
688.765	0.0160244
688.843	0.0158864
688.921	0.0157524
688.999	0.0156844
689.078	0.0154765
689.156	0.0156317
689.234	0.0154958
689.312	0.0155054
689.390	0.0153766
689.468	0.0153953
689.546	0.0151991
689.624	0.0152444
689.703	0.0151683
689.781	0.0151208
689.859	0.0151145
689.937	0.0150803
690.015	0.0151784
690.093	0.0150829
690.171	0.0150727
690.249	0.0150737
690.328	0.0150458
690.406	0.0150541
690.484	0.0150532
690.562	0.0148266
690.640	0.0148450
690.718	0.0149139
690.796	0.0148920
690.874	0.0150802
690.953	0.0149419
691.031	0.0151087
691.109	0.0150840
691.187	0.0152711
691.265	0.0152387
691.343	0.0154311
691.421	0.0154514
691.499	0.0156536
691.578	0.0156812
691.656	0.0157665
691.734	0.0158142
691.812	0.0159375
691.890	0.0159888
691.968	0.0158679
692.046	0.0159626
692.124	0.0160980
692.203	0.0158488
692.281	0.0159315
692.359	0.0160083
692.437	0.0159005
692.515	0.0158494
692.593	0.0158621
692.671	0.0158505
692.749	0.0157086
692.828	0.0156502
692.906	0.0157093
692.984	0.0156627
693.062	0.0154795
693.140	0.0155895
693.218	0.0155618
693.296	0.0155934
693.374	0.0155221
693.453	0.0153934
693.531	0.0154203
693.609	0.0152658
693.687	0.0152988
693.765	0.0152158
693.843	0.0151783
693.921	0.0149615
693.999	0.0150405
694.078	0.0149545
694.156	0.0149507
694.234	0.0147393
694.312	0.0148270
694.390	0.0148773
694.468	0.0148366
694.546	0.0149475
694.624	0.0147546
694.703	0.0150050
694.781	0.0150433
694.859	0.0151678
694.937	0.0151859
695.015	0.0153084
695.093	0.0154560
695.171	0.0154041
695.249	0.0155262
695.328	0.0157174
695.406	0.0159313
695.484	0.0159125
695.562	0.0158215
695.640	0.0160854
695.718	0.0160229
695.796	0.0159677
695.874	0.0159777
695.953	0.0160239
696.031	0.0160182
696.109	0.0161497
696.187	0.0161011
696.265	0.0159035
696.343	0.0158538
696.421	0.0158251
696.499	0.0157593
696.578	0.0157757
696.656	0.0155995
696.734	0.0155861
696.812	0.0155361
696.890	0.0153661
696.968	0.0153411
697.046	0.0154190
697.124	0.0153229
697.203	0.0154114
697.281	0.0152997
697.359	0.0151220
697.437	0.0153639
697.515	0.0152186
697.593	0.0150222
697.671	0.0149630
697.749	0.0149463
697.828	0.0149889
697.906	0.0149423
697.984	0.0147923
698.062	0.0148964
698.140	0.0147617
698.218	0.0147369
698.296	0.0147670
698.374	0.0149192
698.453	0.0149931
698.531	0.0148556
698.609	0.0151443
698.687	0.0152558
698.765	0.0153239
698.843	0.0152772
698.921	0.0154744
698.999	0.0155415
699.078	0.0156264
699.156	0.0157911
699.234	0.0159576
699.312	0.0159441
699.390	0.0158984
699.468	0.0159962
699.546	0.0161443
699.624	0.0160935
699.703	0.0160777
699.781	0.0160184
699.859	0.0159317
699.937	0.0159479
700.015	0.0160409
700.093	0.0159759
700.171	0.0158636
700.249	0.0158511
700.328	0.0158004
700.406	0.0157730
700.484	0.0156241
700.562	0.0154442
700.640	0.0153965
700.718	0.0152995
700.796	0.0152817
700.874	0.0152064
700.953	0.0150697
701.031	0.0151584
701.109	0.0150878
701.187	0.0148716
701.265	0.0148170
701.343	0.0149303
701.421	0.0148106
701.499	0.0147625
701.578	0.0147884
701.656	0.0148869
701.734	0.0148380
701.812	0.0148581
701.890	0.0148357
701.968	0.0148168
702.046	0.0148164
702.124	0.0150043
702.203	0.0150000
702.281	0.0150758
702.359	0.0152016
702.437	0.0150550
702.515	0.0151640
702.593	0.0153218
702.671	0.0154574
702.749	0.0155965
702.828	0.0156265
702.906	0.0157267
702.984	0.0156866
703.062	0.0157182
703.140	0.0157460
703.218	0.0157287
703.296	0.0157085
703.374	0.0158782
703.453	0.0158849
703.531	0.0157994
703.609	0.0157681
703.687	0.0155782
703.765	0.0157639
703.843	0.0157951
703.921	0.0155692
703.999	0.0155293
704.078	0.0153578
704.156	0.0156008
704.234	0.0156403
704.312	0.0155986
704.390	0.0154797
704.468	0.0153564
704.546	0.0154958
704.624	0.0153796
704.703	0.0153471
704.781	0.0151597
704.859	0.0152888
704.937	0.0152028
705.015	0.0151567
705.093	0.0151524
705.171	0.0150196
705.249	0.0150281
705.328	0.0149590
705.406	0.0149152
705.484	0.0149445
705.562	0.0149445
705.640	0.0149609
705.718	0.0148544
705.796	0.0148795
705.874	0.0148333
705.953	0.0148592
706.031	0.0149450
706.109	0.0149490
706.187	0.0151306
706.265	0.0151096
706.343	0.0153017
706.421	0.0153590
706.499	0.0153195
706.578	0.0153199
706.656	0.0154128
706.734	0.0156610
706.812	0.0155977
706.890	0.0156946
706.968	0.0156702
707.046	0.0157777
707.124	0.0159752
707.203	0.0159582
707.281	0.0157018
707.359	0.0157880
707.437	0.0157864
707.515	0.0158942
707.593	0.0158595
707.671	0.0159271
707.749	0.0157944
707.828	0.0158120
707.906	0.0155472
707.984	0.0155514
708.062	0.0155436
708.140	0.0154950
708.218	0.0154714
708.296	0.0154781
708.374	0.0153900
708.453	0.0152882
708.531	0.0152335
708.609	0.0152925
708.687	0.0153857
708.765	0.0152765
708.843	0.0151601
708.921	0.0150797
708.999	0.0151551
709.078	0.0149552
709.156	0.0150884
709.234	0.0149794
709.312	0.0148352
709.390	0.0148970
709.468	0.0149756
709.546	0.0149589
709.624	0.0148171
709.703	0.0150358
709.781	0.0149004
709.859	0.0150139
709.937	0.0152720
710.015	0.0151225
710.093	0.0153333
710.171	0.0152884
710.249	0.0152973
710.328	0.0155956
710.406	0.0156701
710.484	0.0159230
710.562	0.0158887
710.640	0.0158393
710.718	0.0158935
710.796	0.0159026
710.874	0.0159837
710.953	0.0159490
711.031	0.0159456
711.109	0.0159946
711.187	0.0158393
711.265	0.0158089
711.343	0.0157087
711.421	0.0156315
711.499	0.0155905
711.578	0.0155583
711.656	0.0155998
711.734	0.0155214
711.812	0.0155209
711.890	0.0155161
711.968	0.0154443
712.046	0.0153495
712.124	0.0153245
712.203	0.0153857
712.281	0.0152457
712.359	0.0151415
712.437	0.0151838
712.515	0.0151123
712.593	0.0151187
712.671	0.0151842
712.749	0.0151016
712.828	0.0151170
712.906	0.0148920
712.984	0.0150468
713.062	0.0150765
713.140	0.0151040
713.218	0.0150163
713.296	0.0150099
713.374	0.0150608
713.453	0.0150646
713.531	0.0151088
713.609	0.0151124
713.687	0.0152946
713.765	0.0152879
713.843	0.0152383
713.921	0.0155392
713.999	0.0154659
714.078	0.0155412
714.156	0.0155031
714.234	0.0157333
714.312	0.0156332
714.390	0.0156500
714.468	0.0157026
714.546	0.0158092
714.624	0.0158987
714.703	0.0158880
714.781	0.0158815
714.859	0.0156336
714.937	0.0157147
715.015	0.0156387
715.093	0.0157248
715.171	0.0158459
715.249	0.0155362
715.328	0.0154987
715.406	0.0156196
715.484	0.0154743
715.562	0.0153890
715.640	0.0154639
715.718	0.0154447
715.796	0.0154588
715.874	0.0153541
715.953	0.0154472
716.031	0.0153764
716.109	0.0152536
716.187	0.0152334
716.265	0.0155140
716.343	0.0154092
716.421	0.0152439
716.499	0.0151578
716.578	0.0152605
716.656	0.0153195
716.734	0.0151871
716.812	0.0151097
716.890	0.0152018
716.968	0.0151470
717.046	0.0150645
717.124	0.0150338
717.203	0.0150161
717.281	0.0152524
717.359	0.0152244
717.437	0.0150304
717.515	0.0152068
717.593	0.0153496
717.671	0.0153344
717.749	0.0153671
717.828	0.0155222
717.906	0.0155162
717.984	0.0156005
718.062	0.0156737
718.140	0.0157095
718.218	0.0158458
718.296	0.0158350
718.374	0.0158101
718.453	0.0158796
718.531	0.0157371
718.609	0.0157829
718.687	0.0158111
718.765	0.0157567
718.843	0.0155453
718.921	0.0157082
718.999	0.0155145
719.078	0.0156122
719.156	0.0156159
719.234	0.0154219
719.312	0.0156023
719.390	0.0153667
719.468	0.0153664
719.546	0.0154537
719.624	0.0154781
719.703	0.0155384
719.781	0.0154027
719.859	0.0155458
719.937	0.0153436
720.015	0.0153851
720.093	0.0153318
720.171	0.0152953
720.249	0.0153128
720.328	0.0153330
720.406	0.0151461
720.484	0.0152670
720.562	0.0152284
720.640	0.0152104
720.718	0.0152455
720.796	0.0152972
720.874	0.0153236
720.953	0.0151692
721.031	0.0152931
721.109	0.0153942
721.187	0.0153401
721.265	0.0153117
721.343	0.0153512
721.421	0.0153352
721.499	0.0152123
721.578	0.0153885
721.656	0.0154950
721.734	0.0154710
721.812	0.0155140
721.890	0.0156153
721.968	0.0155804
722.046	0.0156522
722.124	0.0156445
722.203	0.0157314
722.281	0.0156867
722.359	0.0156520
722.437	0.0155847
722.515	0.0155145
722.593	0.0155698
722.671	0.0154596
722.749	0.0153833
722.828	0.0153175
722.906	0.0153316
722.984	0.0153129
723.062	0.0155093
723.140	0.0153874
723.218	0.0152024
723.296	0.0151633
723.374	0.0152004
723.453	0.0151588
723.531	0.0152093
723.609	0.0152769
723.687	0.0152629
723.765	0.0151170
723.843	0.0151476
723.921	0.0152694
723.999	0.0151564
724.078	0.0152558
724.156	0.0151945
724.234	0.0151548
724.312	0.0151579
724.390	0.0151166
724.468	0.0151699
724.546	0.0153560
724.624	0.0151163
724.703	0.0152350
724.781	0.0152862
724.859	0.0153985
724.937	0.0154773
725.015	0.0152964
725.093	0.0153551
725.171	0.0154780
725.249	0.0154248
725.328	0.0154408
725.406	0.0155215
725.484	0.0156055
725.562	0.0156332
725.640	0.0155821
725.718	0.0156165
725.796	0.0155833
725.874	0.0156850
725.953	0.0156791
726.031	0.0156673
726.109	0.0155508
726.187	0.0155718
726.265	0.0157280
726.343	0.0155256
726.421	0.0155057
726.499	0.0154691
726.578	0.0153772
726.656	0.0154021
726.734	0.0152719
726.812	0.0152283
726.890	0.0152457
726.968	0.0152821
727.046	0.0151750
727.124	0.0152525
727.203	0.0151084
727.281	0.0151208
727.359	0.0153887
727.437	0.0153257
727.515	0.0152874
727.593	0.0151994
727.671	0.0154076
727.749	0.0152467
727.828	0.0151820
727.906	0.0153246
727.984	0.0151663
728.062	0.0152673
728.140	0.0153992
728.218	0.0154311
728.296	0.0153375
728.374	0.0153405
728.453	0.0153759
728.531	0.0153627
728.609	0.0153434
728.687	0.0154954
728.765	0.0153109
728.843	0.0155791
728.921	0.0155087
728.999	0.0154765
729.078	0.0155933
729.156	0.0155062
729.234	0.0155371
729.312	0.0155853
729.390	0.0156416
729.468	0.0157605
729.546	0.0155979
729.624	0.0156016
729.703	0.0157574
729.781	0.0156071
729.859	0.0157573
729.937	0.0156471
730.015	0.0156975
730.093	0.0155565
730.171	0.0155487
730.249	0.0155918
730.328	0.0153065
730.406	0.0154394
730.484	0.0153749
730.562	0.0154039
730.640	0.0153124
730.718	0.0152605
730.796	0.0151806
730.874	0.0152787
730.953	0.0151645
731.031	0.0151988
731.109	0.0152468
731.187	0.0153162
731.265	0.0152921
731.343	0.0152917
731.421	0.0152944
731.499	0.0153957
731.578	0.0154125
731.656	0.0153982
731.734	0.0153152
731.812	0.0153812
731.890	0.0154169
731.968	0.0155460
732.046	0.0155272
732.124	0.0155129
732.203	0.0154107
732.281	0.0153172
732.359	0.0154398
732.437	0.0155699
732.515	0.0155470
732.593	0.0156071
732.671	0.0155496
732.749	0.0155504
732.828	0.0155357
732.906	0.0156585
732.984	0.0155449
733.062	0.0156139
733.140	0.0158926
733.218	0.0157381
733.296	0.0155825
733.374	0.0155851
733.453	0.0155682
733.531	0.0155267
733.609	0.0156424
733.687	0.0156448
733.765	0.0155796
733.843	0.0155826
733.921	0.0155897
733.999	0.0155047
734.078	0.0154997
734.156	0.0154592
734.234	0.0154170
734.312	0.0154153
734.390	0.0154369
734.468	0.0153254
734.546	0.0152901
734.624	0.0152567
734.703	0.0153728
734.781	0.0153307
734.859	0.0151715
734.937	0.0153849
735.015	0.0153011
735.093	0.0153227
735.171	0.0152871
735.249	0.0154169
735.328	0.0153218
735.406	0.0155022
735.484	0.0155627
735.562	0.0154937
735.640	0.0154768
735.718	0.0153715
735.796	0.0155904
735.874	0.0154780
735.953	0.0154640
736.031	0.0154939
736.109	0.0154189
736.187	0.0155563
736.265	0.0154854
736.343	0.0155001
736.421	0.0154672
736.499	0.0155912
736.578	0.0156664
736.656	0.0156604
736.734	0.0156936
736.812	0.0157017
736.890	0.0157082
736.968	0.0156158
737.046	0.0157270
737.124	0.0156170
737.203	0.0155914
737.281	0.0157569
737.359	0.0156255
737.437	0.0155947
737.515	0.0156197
737.593	0.0155180
737.671	0.0155093
737.749	0.0154324
737.828	0.0153752
737.906	0.0153351
737.984	0.0153162
738.062	0.0154096
738.140	0.0153149
738.218	0.0153185
738.296	0.0153159
738.374	0.0153066
738.453	0.0152648
738.531	0.0153972
738.609	0.0153161
738.687	0.0153223
738.765	0.0152444
738.843	0.0153934
738.921	0.0152801
738.999	0.0152895
739.078	0.0152898
739.156	0.0152549
739.234	0.0153581
739.312	0.0153466
739.390	0.0153793
739.468	0.0154102
739.546	0.0153537
739.624	0.0153137
739.703	0.0154916
739.781	0.0155622
739.859	0.0154408
739.937	0.0155048
740.015	0.0155161
740.093	0.0156351
740.171	0.0155032
740.249	0.0155647
740.328	0.0155457
740.406	0.0155791
740.484	0.0156192
740.562	0.0154181
740.640	0.0155848
740.718	0.0155324
740.796	0.0155735
740.874	0.0155717
740.953	0.0155598
741.031	0.0155563
741.109	0.0155157
741.187	0.0155284
741.265	0.0154391
741.343	0.0154374
741.421	0.0155002
741.499	0.0152897
741.578	0.0154195
741.656	0.0153201
741.734	0.0153879
741.812	0.0152724
741.890	0.0151376
741.968	0.0151754
742.046	0.0152926
742.124	0.0152952
742.203	0.0152121
742.281	0.0150386
742.359	0.0151985
742.437	0.0152796
742.515	0.0151090
742.593	0.0152779
742.671	0.0153129
742.749	0.0152720
742.828	0.0153294
742.906	0.0153683
742.984	0.0155218
743.062	0.0153316
743.140	0.0154755
743.218	0.0154601
743.296	0.0155080
743.374	0.0155871
743.453	0.0154100
743.531	0.0155070
743.609	0.0155978
743.687	0.0155611
743.765	0.0156769
743.843	0.0156483
743.921	0.0155070
743.999	0.0156437
744.078	0.0155980
744.156	0.0155777
744.234	0.0156435
744.312	0.0154850
744.390	0.0155661
744.468	0.0157101
744.546	0.0154440
744.624	0.0154617
744.703	0.0154795
744.781	0.0153568
744.859	0.0155125
744.937	0.0154379
745.015	0.0154709
745.093	0.0153624
745.171	0.0153492
745.249	0.0153256
745.328	0.0153918
745.406	0.0152547
745.484	0.0153058
745.562	0.0152623
745.640	0.0152434
745.718	0.0152006
745.796	0.0152559
745.874	0.0151766
745.953	0.0152008
746.031	0.0150921
746.109	0.0150848
746.187	0.0152621
746.265	0.0151952
746.343	0.0151630
746.421	0.0153235
746.499	0.0153326
746.578	0.0151689
746.656	0.0154420
746.734	0.0153637
746.812	0.0153815
746.890	0.0154437
746.968	0.0154156
747.046	0.0155550
747.124	0.0155052
747.203	0.0154666
747.281	0.0154761
747.359	0.0155896
747.437	0.0154943
747.515	0.0155888
747.593	0.0156564
747.671	0.0155717
747.749	0.0156698
747.828	0.0157225
747.906	0.0156002
747.984	0.0156484
748.062	0.0156837
748.140	0.0157093
748.218	0.0157487
748.296	0.0156349
748.374	0.0155616
748.453	0.0157104
748.531	0.0157556
748.609	0.0155891
748.687	0.0154903
748.765	0.0154689
748.843	0.0155457
748.921	0.0155180
748.999	0.0153605
749.078	0.0153659
749.156	0.0153383
749.234	0.0153886
749.312	0.0153004
749.390	0.0151813
749.468	0.0151961
749.546	0.0151436
749.624	0.0151715
749.703	0.0152549
749.781	0.0151778
749.859	0.0151706
749.937	0.0151491
750.015	0.0152111
750.093	0.0152228
750.171	0.0152358
750.249	0.0152831
750.328	0.0152784
750.406	0.0153959
750.484	0.0153606
750.562	0.0154323
750.640	0.0152998
750.718	0.0154789
750.796	0.0153442
750.874	0.0154941
750.953	0.0155328
751.031	0.0154036
751.109	0.0154134
751.187	0.0154546
751.265	0.0154710
751.343	0.0156765
751.421	0.0155951
751.499	0.0154346
751.578	0.0157621
751.656	0.0156394
751.734	0.0156053
751.812	0.0157314
751.890	0.0157093
751.968	0.0157520
752.046	0.0157754
752.124	0.0157630
752.203	0.0156544
752.281	0.0157472
752.359	0.0156040
752.437	0.0157683
752.515	0.0156118
752.593	0.0156480
752.671	0.0155853
752.749	0.0157023
752.828	0.0156750
752.906	0.0156248
752.984	0.0154990
753.062	0.0153784
753.140	0.0154954
753.218	0.0155053
753.296	0.0153630
753.374	0.0153403
753.453	0.0152454
753.531	0.0153495
753.609	0.0153584
753.687	0.0151840
753.765	0.0151756
753.843	0.0153078
753.921	0.0152850
753.999	0.0151290
754.078	0.0153367
754.156	0.0151839
754.234	0.0150903
754.312	0.0152113
754.390	0.0150742
754.468	0.0151885
754.546	0.0153280
754.624	0.0154922
754.703	0.0154449
754.781	0.0153764
754.859	0.0156007
754.937	0.0155382
755.015	0.0156127
755.093	0.0156212
755.171	0.0155996
755.249	0.0156858
755.328	0.0156723
755.406	0.0156745
755.484	0.0156617
755.562	0.0155806
755.640	0.0157352
755.718	0.0157956
755.796	0.0155598
755.874	0.0156462
755.953	0.0156561
756.031	0.0155743
756.109	0.0155817
756.187	0.0157121
756.265	0.0156659
756.343	0.0156171
756.421	0.0156074
756.499	0.0154894
756.578	0.0155343
756.656	0.0154633
756.734	0.0154735
756.812	0.0154766
756.890	0.0155220
756.968	0.0154298
757.046	0.0153610
757.124	0.0154433
757.203	0.0153748
757.281	0.0152719
757.359	0.0153542
757.437	0.0153568
757.515	0.0153622
757.593	0.0153982
757.671	0.0154705
757.749	0.0153515
757.828	0.0152599
757.906	0.0152343
757.984	0.0153186
758.062	0.0153259
758.140	0.0151984
758.218	0.0153302
758.296	0.0152694
758.374	0.0153842
758.453	0.0154767
758.531	0.0153728
758.609	0.0153902
758.687	0.0152773
758.765	0.0155022
758.843	0.0155181
758.921	0.0154846
758.999	0.0155258
759.078	0.0156039
759.156	0.0155155
759.234	0.0156071
759.312	0.0156895
759.390	0.0156525
759.468	0.0155775
759.546	0.0155507
759.624	0.0155561
759.703	0.0156429
759.781	0.0156460
759.859	0.0154929
759.937	0.0157019
760.015	0.0156598
760.093	0.0153685
760.171	0.0155420
760.249	0.0156516
760.328	0.0153961
760.406	0.0153381
760.484	0.0153479
760.562	0.0154159
760.640	0.0153897
760.718	0.0152451
760.796	0.0152921
760.874	0.0150905
760.953	0.0151484
761.031	0.0152467
761.109	0.0150597
761.187	0.0152337
761.265	0.0154332
761.343	0.0151846
761.421	0.0152550
761.499	0.0153602
761.578	0.0153320
761.656	0.0153690
761.734	0.0152537
761.812	0.0153387
761.890	0.0153860
761.968	0.0155086
762.046	0.0154335
762.124	0.0155301
762.203	0.0153897
762.281	0.0153326
762.359	0.0155538
762.437	0.0155756
762.515	0.0154447
762.593	0.0155167
762.671	0.0156806
762.749	0.0155828
762.828	0.0155305
762.906	0.0154696
762.984	0.0155186
763.062	0.0153018
763.140	0.0154967
763.218	0.0154687
763.296	0.0155729
763.374	0.0155502
763.453	0.0154617
763.531	0.0154227
763.609	0.0157106
763.687	0.0154848
763.765	0.0153774
763.843	0.0154948
763.921	0.0155541
763.999	0.0154267
764.078	0.0153481
764.156	0.0152465
764.234	0.0153580
764.312	0.0153182
764.390	0.0154662
764.468	0.0151562
764.546	0.0152204
764.624	0.0153104
764.703	0.0153456
764.781	0.0152077
764.859	0.0152657
764.937	0.0152321
765.015	0.0152504
765.093	0.0152450
765.171	0.0152917
765.249	0.0153554
765.328	0.0151638
765.406	0.0151672
765.484	0.0153539
765.562	0.0154015
765.640	0.0153564
765.718	0.0153447
765.796	0.0153662
765.874	0.0155206
765.953	0.0154505
766.031	0.0153462
766.109	0.0155515
766.187	0.0155136
766.265	0.0155417
766.343	0.0155836
766.421	0.0155982
766.499	0.0156920
766.578	0.0157592
766.656	0.0157831
766.734	0.0156541
766.812	0.0158260
766.890	0.0157324
766.968	0.0158051
767.046	0.0156516
767.124	0.0156568
767.203	0.0156841
767.281	0.0156815
767.359	0.0157203
767.437	0.0156532
767.515	0.0154845
767.593	0.0155605
767.671	0.0156165
767.749	0.0155995
767.828	0.0154871
767.906	0.0155428
767.984	0.0155331
768.062	0.0154499
768.140	0.0153400
768.218	0.0152721
768.296	0.0153632
768.374	0.0153153
768.453	0.0153770
768.531	0.0154496
768.609	0.0151889
768.687	0.0152814
768.765	0.0153929
768.843	0.0153304
768.921	0.0153567
768.999	0.0153719
769.078	0.0154545
769.156	0.0154108
769.234	0.0154878
769.312	0.0154775
769.390	0.0153485
769.468	0.0155328
769.546	0.0153371
769.624	0.0153841
769.703	0.0154835
769.781	0.0154650
769.859	0.0153761
769.937	0.0155192
770.015	0.0156183
770.093	0.0154989
770.171	0.0153726
770.249	0.0155930
770.328	0.0154849
770.406	0.0155466
770.484	0.0156122
770.562	0.0155384
770.640	0.0155166
770.718	0.0154962
770.796	0.0155489
770.874	0.0157207
770.953	0.0155889
771.031	0.0156200
771.109	0.0155978
771.187	0.0156431
771.265	0.0154704
771.343	0.0155154
771.421	0.0155102
771.499	0.0155103
771.578	0.0155080
771.656	0.0154700
771.734	0.0155271
771.812	0.0154715
771.890	0.0154092
771.968	0.0154152
772.046	0.0154196
772.124	0.0154402
772.203	0.0153638
772.281	0.0151427
772.359	0.0152447
772.437	0.0153404
772.515	0.0153014
772.593	0.0151881
772.671	0.0153200
772.749	0.0154117
772.828	0.0153731
772.906	0.0152817
772.984	0.0153270
773.062	0.0153809
773.140	0.0154276
773.218	0.0154015
773.296	0.0153116
773.374	0.0153783
773.453	0.0153674
773.531	0.0153931
773.609	0.0153918
773.687	0.0155160
773.765	0.0155547
773.843	0.0154507
773.921	0.0154977
773.999	0.0155281
774.078	0.0156116
774.156	0.0156844
774.234	0.0154696
774.312	0.0154990
774.390	0.0156982
774.468	0.0154486
774.546	0.0155024
774.624	0.0154516
774.703	0.0156345
774.781	0.0156051
774.859	0.0155483
774.937	0.0155397
775.015	0.0154997
775.093	0.0155367
775.171	0.0154657
775.249	0.0156567
775.328	0.0154688
775.406	0.0154797
775.484	0.0155077
775.562	0.0154948
775.640	0.0154810
775.718	0.0154885
775.796	0.0155972
775.874	0.0153953
775.953	0.0153683
776.031	0.0153702
776.109	0.0154502
776.187	0.0154027
776.265	0.0153531
776.343	0.0153403
776.421	0.0153444
776.499	0.0153858
776.578	0.0152195
776.656	0.0152946
776.734	0.0153663
776.812	0.0152656
776.890	0.0153877
776.968	0.0152712
777.046	0.0152805
777.124	0.0153179
777.203	0.0153049
777.281	0.0153324
777.359	0.0153722
777.437	0.0154828
777.515	0.0154411
777.593	0.0152985
777.671	0.0154203
777.749	0.0153204
777.828	0.0153198
777.906	0.0154604
777.984	0.0156383
778.062	0.0155833
778.140	0.0154578
778.218	0.0155404
778.296	0.0156073
778.374	0.0154970
778.453	0.0154022
778.531	0.0153855
778.609	0.0155172
778.687	0.0154575
778.765	0.0153156
778.843	0.0154588
778.921	0.0152768
778.999	0.0152608
779.078	0.0152969
779.156	0.0153358
779.234	0.0154398
779.312	0.0153124
779.390	0.0152849
779.468	0.0152691
779.546	0.0153486
779.624	0.0153630
779.703	0.0153617
779.781	0.0154140
779.859	0.0153644
779.937	0.0154248
780.015	0.0153298
780.093	0.0152996
780.171	0.0153706
780.249	0.0152613
780.328	0.0152483
780.406	0.0153304
780.484	0.0153288
780.562	0.0152362
780.640	0.0154061
780.718	0.0154189
780.796	0.0152501
780.874	0.0151747
780.953	0.0152798
781.031	0.0153226
781.109	0.0154618
781.187	0.0152898
781.265	0.0152891
781.343	0.0153945
781.421	0.0153615
781.499	0.0153179
781.578	0.0153194
781.656	0.0153457
781.734	0.0153625
781.812	0.0153670
781.890	0.0153104
781.968	0.0153360
782.046	0.0154094
782.124	0.0153683
782.203	0.0154130
782.281	0.0155031
782.359	0.0154536
782.437	0.0154823
782.515	0.0154296
782.593	0.0154150
782.671	0.0155036
782.749	0.0154935
782.828	0.0158030
782.906	0.0155824
782.984	0.0154433
783.062	0.0154079
783.140	0.0154736
783.218	0.0155660
783.296	0.0155106
783.374	0.0152997
783.453	0.0153199
783.531	0.0155337
783.609	0.0151972
783.687	0.0154137
783.765	0.0152802
783.843	0.0152694
783.921	0.0152207
783.999	0.0152916
784.078	0.0152987
784.156	0.0154413
784.234	0.0154699
784.312	0.0153255
784.390	0.0152216
784.468	0.0153628
784.546	0.0156014
784.624	0.0154181
784.703	0.0154504
784.781	0.0154507
784.859	0.0154742
784.937	0.0155645
785.015	0.0154737
785.093	0.0155272
785.171	0.0156353
785.249	0.0155871
785.328	0.0156320
785.406	0.0154969
785.484	0.0155975
785.562	0.0154924
785.640	0.0154468
785.718	0.0155697
785.796	0.0154697
785.874	0.0156367
785.953	0.0154691
786.031	0.0154241
786.109	0.0153148
786.187	0.0154497
786.265	0.0153698
786.343	0.0152302
786.421	0.0152544
786.499	0.0153902
786.578	0.0152280
786.656	0.0152946
786.734	0.0153669
786.812	0.0155043
786.890	0.0152653
786.968	0.0153540
787.046	0.0153908
787.124	0.0153535
787.203	0.0153598
787.281	0.0154604
787.359	0.0153427
787.437	0.0154459
787.515	0.0153748
787.593	0.0155099
787.671	0.0153972
787.749	0.0153480
787.828	0.0153518
787.906	0.0153652
787.984	0.0153092
788.062	0.0152213
788.140	0.0151906
788.218	0.0151703
788.296	0.0152141
788.374	0.0152145
788.453	0.0153088
788.531	0.0152760
788.609	0.0153700
788.687	0.0154124
788.765	0.0153368
788.843	0.0153792
788.921	0.0155054
788.999	0.0155709
789.078	0.0154463
789.156	0.0156009
789.234	0.0156635
789.312	0.0155435
789.390	0.0156420
789.468	0.0157414
789.546	0.0156007
789.624	0.0156847
789.703	0.0157246
789.781	0.0155618
789.859	0.0155894
789.937	0.0156046
790.015	0.0155199
790.093	0.0153716
790.171	0.0155238
790.249	0.0152989
790.328	0.0152787
790.406	0.0152693
790.484	0.0151805
790.562	0.0152496
790.640	0.0152007
790.718	0.0152189
790.796	0.0150626
790.874	0.0151128
790.953	0.0153593
791.031	0.0153934
791.109	0.0153993
791.187	0.0153228
791.265	0.0155223
791.343	0.0154248
791.421	0.0154433
791.499	0.0155277
791.578	0.0155692
791.656	0.0156127
791.734	0.0155499
791.812	0.0154061
791.890	0.0154953
791.968	0.0154573
792.046	0.0154995
792.124	0.0154330
792.203	0.0153917
792.281	0.0152625
792.359	0.0152457
792.437	0.0151562
792.515	0.0152504
792.593	0.0152625
792.671	0.0152216
792.749	0.0151609
792.828	0.0153580
792.906	0.0154700
792.984	0.0153515
793.062	0.0153760
793.140	0.0153154
793.218	0.0155115
793.296	0.0156097
793.374	0.0156796
793.453	0.0155573
793.531	0.0156394
793.609	0.0157857
793.687	0.0157289
793.765	0.0156672
793.843	0.0157336
793.921	0.0156389
793.999	0.0155968
794.078	0.0155033
794.156	0.0156023
794.234	0.0155910
794.312	0.0154715
794.390	0.0154277
794.468	0.0153233
794.546	0.0153016
794.624	0.0152573
794.703	0.0153231
794.781	0.0152099
794.859	0.0153313
794.937	0.0154281
795.015	0.0152782
795.093	0.0153616
795.171	0.0153164
795.249	0.0153229
795.328	0.0154810
795.406	0.0155021
795.484	0.0153109
795.562	0.0153307
795.640	0.0154835
795.718	0.0154675
795.796	0.0155237
795.874	0.0154041
795.953	0.0153741
796.031	0.0154741
796.109	0.0155262
796.187	0.0153217
796.265	0.0154271
796.343	0.0154922
796.421	0.0155374
796.499	0.0152753
796.578	0.0153212
796.656	0.0154964
796.734	0.0153969
796.812	0.0152805
796.890	0.0153475
796.968	0.0154747
797.046	0.0153680
797.124	0.0154945
797.203	0.0154785
797.281	0.0154414
797.359	0.0154658
797.437	0.0155297
797.515	0.0155895
797.593	0.0155302
797.671	0.0155483
797.749	0.0153799
797.828	0.0155996
797.906	0.0155991
797.984	0.0154389
798.062	0.0154446
798.140	0.0154597
798.218	0.0154985
798.296	0.0155254
798.374	0.0155694
798.453	0.0154579
798.531	0.0154993
798.609	0.0154449
798.687	0.0155295
798.765	0.0154438
798.843	0.0153168
798.921	0.0152065
798.999	0.0154025
799.078	0.0153271
799.156	0.0152094
799.234	0.0154817
799.312	0.0154086
799.390	0.0154508
799.468	0.0153731
799.546	0.0153280
799.624	0.0154472
799.703	0.0152665
799.781	0.0152335
799.859	0.0153365
799.937	0.0152975
800.015	0.0152222
800.093	0.0153040
800.171	0.0153160
800.249	0.0152319
800.328	0.0154012
800.406	0.0154286
800.484	0.0154945
800.562	0.0151975
800.640	0.0152756
800.718	0.0154955
800.796	0.0154250
800.874	0.0155013
800.953	0.0154536
801.031	0.0154047
801.109	0.0154015
801.187	0.0154049
801.265	0.0155215
801.343	0.0154801
801.421	0.0154758
801.499	0.0155131
801.578	0.0154042
801.656	0.0154747
801.734	0.0154326
801.812	0.0153805
801.890	0.0154078
801.968	0.0152757
802.046	0.0152398
802.124	0.0152048
802.203	0.0152824
802.281	0.0153150
802.359	0.0151189
802.437	0.0152885
802.515	0.0152594
802.593	0.0151557
802.671	0.0152808
802.749	0.0154633
802.828	0.0155611
802.906	0.0155031
802.984	0.0154052
803.062	0.0153613
803.140	0.0154658
803.218	0.0154201
803.296	0.0153416
803.374	0.0154184
803.453	0.0153986
803.531	0.0154469
803.609	0.0152045
803.687	0.0153757
803.765	0.0154561
803.843	0.0153583
803.921	0.0153364
803.999	0.0153374
804.078	0.0153264
804.156	0.0153915
804.234	0.0153286
804.312	0.0153629
804.390	0.0154166
804.468	0.0152542
804.546	0.0154712
804.624	0.0154163
804.703	0.0154182
804.781	0.0154405
804.859	0.0154127
804.937	0.0154541
805.015	0.0155167
805.093	0.0154021
805.171	0.0154091
805.249	0.0154479
805.328	0.0153661
805.406	0.0153531
805.484	0.0154803
805.562	0.0152250
805.640	0.0154034
805.718	0.0153149
805.796	0.0153829
805.874	0.0152934
805.953	0.0152479
806.031	0.0152472
806.109	0.0152123
806.187	0.0151892
806.265	0.0152515
806.343	0.0153275
806.421	0.0152547
806.499	0.0152309
806.578	0.0153094
806.656	0.0154214
806.734	0.0154292
806.812	0.0155132
806.890	0.0154162
806.968	0.0154668
807.046	0.0156615
807.124	0.0156083
807.203	0.0155333
807.281	0.0156376
807.359	0.0154874
807.437	0.0154633
807.515	0.0154933
807.593	0.0155553
807.671	0.0154205
807.749	0.0153738
807.828	0.0153999
807.906	0.0152801
807.984	0.0152804
808.062	0.0153464
808.140	0.0152158
808.218	0.0152125
808.296	0.0153369
808.374	0.0152203
808.453	0.0152684
808.531	0.0153049
808.609	0.0152708
808.687	0.0152254
808.765	0.0152924
808.843	0.0154433
808.921	0.0153992
808.999	0.0156149
809.078	0.0155096
809.156	0.0154270
809.234	0.0154786
809.312	0.0153606
809.390	0.0155516
809.468	0.0155016
809.546	0.0154243
809.624	0.0154858
809.703	0.0155972
809.781	0.0154876
809.859	0.0153428
809.937	0.0152386
810.015	0.0153198
810.093	0.0153425
810.171	0.0152317
810.249	0.0153268
810.328	0.0152692
810.406	0.0152872
810.484	0.0153419
810.562	0.0153466
810.640	0.0152116
810.718	0.0153349
810.796	0.0155351
810.874	0.0153818
810.953	0.0153838
811.031	0.0154298
811.109	0.0154746
811.187	0.0155502
811.265	0.0156026
811.343	0.0155546
811.421	0.0154675
811.499	0.0155431
811.578	0.0157201
811.656	0.0155554
811.734	0.0155517
811.812	0.0153509
811.890	0.0154601
811.968	0.0154750
812.046	0.0153725
812.124	0.0154035
812.203	0.0154456
812.281	0.0155457
812.359	0.0154247
812.437	0.0156093
812.515	0.0154647
812.593	0.0156063
812.671	0.0155185
812.749	0.0154784
812.828	0.0155714
812.906	0.0155077
812.984	0.0155140
813.062	0.0156862
813.140	0.0154108
813.218	0.0154372
813.296	0.0153824
813.374	0.0153906
813.453	0.0155051
813.531	0.0154091
813.609	0.0154146
813.687	0.0153500
813.765	0.0154219
813.843	0.0154555
813.921	0.0154546
813.999	0.0154525
814.078	0.0155377
814.156	0.0155524
814.234	0.0155842
814.312	0.0156367
814.390	0.0155949
814.468	0.0155833
814.546	0.0155851
814.624	0.0156078
814.703	0.0155529
814.781	0.0155025
814.859	0.0154667
814.937	0.0156070
815.015	0.0155438
815.093	0.0153796
815.171	0.0154843
815.249	0.0154315
815.328	0.0154338
815.406	0.0152378
815.484	0.0153322
815.562	0.0153979
815.640	0.0152384
815.718	0.0154118
815.796	0.0153841
815.874	0.0153797
815.953	0.0153085
816.031	0.0154687
816.109	0.0154876
816.187	0.0154302
816.265	0.0153919
816.343	0.0154345
816.421	0.0154898
816.499	0.0155588
816.578	0.0154829
816.656	0.0153813
816.734	0.0154848
816.812	0.0155180
816.890	0.0156022
816.968	0.0154607
817.046	0.0154832
817.124	0.0155217
817.203	0.0153640
817.281	0.0153733
817.359	0.0155283
817.437	0.0153039
817.515	0.0153329
817.593	0.0154704
817.671	0.0153310
817.749	0.0153341
817.828	0.0153936
817.906	0.0153684
817.984	0.0153240
818.062	0.0153381
818.140	0.0154855
818.218	0.0155232
818.296	0.0155971
818.374	0.0154984
818.453	0.0155753
818.531	0.0155564
818.609	0.0154041
818.687	0.0155670
818.765	0.0155249
818.843	0.0154537
818.921	0.0154117
818.999	0.0155482
819.078	0.0155463
819.156	0.0154195
819.234	0.0154292
819.312	0.0154237
819.390	0.0154244
819.468	0.0155383
819.546	0.0154333
819.624	0.0153949
819.703	0.0154265
819.781	0.0154438
819.859	0.0153036
819.937	0.0153221
820.015	0.0152594
820.093	0.0153304
820.171	0.0154373
820.249	0.0154306
820.328	0.0153964
820.406	0.0153925
820.484	0.0153911
820.562	0.0155045
820.640	0.0154245
820.718	0.0154122
820.796	0.0154490
820.874	0.0154741
820.953	0.0153755
821.031	0.0155992
821.109	0.0153762
821.187	0.0154126
821.265	0.0154574
821.343	0.0155032
821.421	0.0154121
821.499	0.0154286
821.578	0.0154441
821.656	0.0154009
821.734	0.0153754
821.812	0.0153767
821.890	0.0154082
821.968	0.0155085
822.046	0.0153271
822.124	0.0153609
822.203	0.0154443
822.281	0.0154550
822.359	0.0154061
822.437	0.0153210
822.515	0.0153632
822.593	0.0154379
822.671	0.0153881
822.749	0.0153515
822.828	0.0153300
822.906	0.0154659
822.984	0.0154527
823.062	0.0153733
823.140	0.0152624
823.218	0.0151376
823.296	0.0153646
823.374	0.0154244
823.453	0.0154272
823.531	0.0154671
823.609	0.0154462
823.687	0.0153059
823.765	0.0153908
823.843	0.0153545
823.921	0.0154495
823.999	0.0154704
824.078	0.0153841
824.156	0.0155063
824.234	0.0154640
824.312	0.0152981
824.390	0.0154784
824.468	0.0154593
824.546	0.0154094
824.624	0.0154078
824.703	0.0153692
824.781	0.0154397
824.859	0.0155394
824.937	0.0154693
825.015	0.0153511
825.093	0.0153639
825.171	0.0153221
825.249	0.0153214
825.328	0.0153307
825.406	0.0154574
825.484	0.0155042
825.562	0.0154439
825.640	0.0153799
825.718	0.0154101
825.796	0.0155306
825.874	0.0154775
825.953	0.0155102
826.031	0.0155688
826.109	0.0156609
826.187	0.0155416
826.265	0.0156514
826.343	0.0155322
826.421	0.0155393
826.499	0.0155476
826.578	0.0155096
826.656	0.0155428
826.734	0.0154242
826.812	0.0155566
826.890	0.0155078
826.968	0.0155628
827.046	0.0155064
827.124	0.0155702
827.203	0.0155762
827.281	0.0153369
827.359	0.0153438
827.437	0.0154652
827.515	0.0155459
827.593	0.0155096
827.671	0.0155135
827.749	0.0153168
827.828	0.0154224
827.906	0.0154484
827.984	0.0153989
828.062	0.0154915
828.140	0.0154297
828.218	0.0155217
828.296	0.0153663
828.374	0.0152610
828.453	0.0154106
828.531	0.0153000
828.609	0.0154664
828.687	0.0154422
828.765	0.0153357
828.843	0.0153877
828.921	0.0153668
828.999	0.0153648
829.078	0.0155164
829.156	0.0153909
829.234	0.0154189
829.312	0.0155258
829.390	0.0155091
829.468	0.0154937
829.546	0.0154803
829.624	0.0153994
829.703	0.0155445
829.781	0.0155795
829.859	0.0155505
829.937	0.0156395
830.015	0.0154508
830.093	0.0155763
830.171	0.0155482
830.249	0.0155350
830.328	0.0155602
830.406	0.0155595
830.484	0.0156577
830.562	0.0155441
830.640	0.0155923
830.718	0.0153657
830.796	0.0153670
830.874	0.0153147
830.953	0.0153939
831.031	0.0153796
831.109	0.0154732
831.187	0.0154740
831.265	0.0152880
831.343	0.0152966
831.421	0.0153992
831.499	0.0154222
831.578	0.0154475
831.656	0.0155663
831.734	0.0153932
831.812	0.0154465
831.890	0.0154591
831.968	0.0154873
832.046	0.0155027
832.124	0.0154530
832.203	0.0154822
832.281	0.0154977
832.359	0.0155619
832.437	0.0152959
832.515	0.0153954
832.593	0.0154282
832.671	0.0154192
832.749	0.0153853
832.828	0.0154227
832.906	0.0154956
832.984	0.0153561
833.062	0.0155347
833.140	0.0154539
833.218	0.0154926
833.296	0.0153728
833.374	0.0153925
833.453	0.0155039
833.531	0.0155331
833.609	0.0153594
833.687	0.0154736
833.765	0.0155173
833.843	0.0154610
833.921	0.0154033
833.999	0.0155454
834.078	0.0154797
834.156	0.0154071
834.234	0.0153909
834.312	0.0154993
834.390	0.0154983
834.468	0.0154897
834.546	0.0155417
834.624	0.0154031
834.703	0.0154227
834.781	0.0153570
834.859	0.0153821
834.937	0.0155257
835.015	0.0155098
835.093	0.0154879
835.171	0.0153372
835.249	0.0154443
835.328	0.0153297
835.406	0.0153636
835.484	0.0153493
835.562	0.0154721
835.640	0.0154082
835.718	0.0152720
835.796	0.0153457
835.874	0.0154151
835.953	0.0153201
836.031	0.0153366
836.109	0.0154720
836.187	0.0153458
836.265	0.0152799
836.343	0.0154274
836.421	0.0153694
836.499	0.0154485
836.578	0.0152716
836.656	0.0155030
836.734	0.0154209
836.812	0.0155504
836.890	0.0154984
836.968	0.0155467
837.046	0.0155062
837.124	0.0154333
837.203	0.0155962
837.281	0.0155329
837.359	0.0155627
837.437	0.0154330
837.515	0.0155388
837.593	0.0154981
837.671	0.0153888
837.749	0.0155750
837.828	0.0155914
837.906	0.0154646
837.984	0.0154400
838.062	0.0154056
838.140	0.0153273
838.218	0.0153532
838.296	0.0155082
838.374	0.0155029
838.453	0.0152833
838.531	0.0155065
838.609	0.0153323
838.687	0.0154620
838.765	0.0154731
838.843	0.0154301
838.921	0.0154253
838.999	0.0153737
839.078	0.0154425
839.156	0.0154454
839.234	0.0153327
839.312	0.0152892
839.390	0.0152715
839.468	0.0153297
839.546	0.0154228
839.624	0.0153432
839.703	0.0153088
839.781	0.0152792
839.859	0.0153736
839.937	0.0152627
840.015	0.0152882
840.093	0.0153135
840.171	0.0153975
840.249	0.0153341
840.328	0.0152844
840.406	0.0153329
840.484	0.0153764
840.562	0.0153287
840.640	0.0154355
840.718	0.0153831
840.796	0.0153641
840.874	0.0155820
840.953	0.0154191
841.031	0.0153933
841.109	0.0155515
841.187	0.0156512
841.265	0.0154503
841.343	0.0155891
841.421	0.0155319
841.499	0.0153705
841.578	0.0154787
841.656	0.0154851
841.734	0.0154374
841.812	0.0154788
841.890	0.0153745
841.968	0.0154816
842.046	0.0154116
842.124	0.0152048
842.203	0.0154589
842.281	0.0153695
842.359	0.0153066
842.437	0.0153857
842.515	0.0154273
842.593	0.0153947
842.671	0.0153505
842.749	0.0153119
842.828	0.0152501
842.906	0.0153925
842.984	0.0154318
843.062	0.0154306
843.140	0.0153768
843.218	0.0153896
843.296	0.0154882
843.374	0.0153493
843.453	0.0152534
843.531	0.0153535
843.609	0.0153218
843.687	0.0153496
843.765	0.0153659
843.843	0.0152647
843.921	0.0153306
843.999	0.0155061
844.078	0.0154588
844.156	0.0153756
844.234	0.0154019
844.312	0.0155796
844.390	0.0156166
844.468	0.0154231
844.546	0.0155338
844.624	0.0154987
844.703	0.0153880
844.781	0.0155349
844.859	0.0154066
844.937	0.0154764
845.015	0.0154333
845.093	0.0155495
845.171	0.0155165
845.249	0.0156101
845.328	0.0154647
845.406	0.0153809
845.484	0.0154352
845.562	0.0155063
845.640	0.0154845
845.718	0.0155163
845.796	0.0154360
845.874	0.0153060
845.953	0.0152966
846.031	0.0154061
846.109	0.0152139
846.187	0.0153880
846.265	0.0154453
846.343	0.0154784
846.421	0.0154610
846.499	0.0155199
846.578	0.0154348
846.656	0.0154601
846.734	0.0153564
846.812	0.0153831
846.890	0.0152798
846.968	0.0154056
847.046	0.0154034
847.124	0.0153817
847.203	0.0155119
847.281	0.0154768
847.359	0.0154111
847.437	0.0154903
847.515	0.0155975
847.593	0.0154729
847.671	0.0153851
847.749	0.0154400
847.828	0.0153217
847.906	0.0154667
847.984	0.0154818
848.062	0.0155977
848.140	0.0154684
848.218	0.0153981
848.296	0.0154430
848.374	0.0155015
848.453	0.0155440
848.531	0.0154561
848.609	0.0153487
848.687	0.0155553
848.765	0.0155791
848.843	0.0153774
848.921	0.0156329
848.999	0.0156187
849.078	0.0154615
849.156	0.0155917
849.234	0.0155462
849.312	0.0155038
849.390	0.0156319
849.468	0.0155542
849.546	0.0154559
849.624	0.0154592
849.703	0.0155043
849.781	0.0155373
849.859	0.0154568
849.937	0.0152848
850.015	0.0154302
850.093	0.0154652
850.171	0.0152887
850.249	0.0153146
850.328	0.0154187
850.406	0.0153026
850.484	0.0154327
850.562	0.0154088
850.640	0.0154310
850.718	0.0154924
850.796	0.0153824
850.874	0.0153534
850.953	0.0152420
851.031	0.0152286
851.109	0.0153470
851.187	0.0153300
851.265	0.0153361
851.343	0.0153082
851.421	0.0153380
851.499	0.0153677
851.578	0.0154376
851.656	0.0155032
851.734	0.0154241
851.812	0.0155240
851.890	0.0155482
851.968	0.0154212
852.046	0.0156298
852.124	0.0155429
852.203	0.0156484
852.281	0.0155620
852.359	0.0156682
852.437	0.0155750
852.515	0.0154926
852.593	0.0156576
852.671	0.0156629
852.749	0.0155383
852.828	0.0156443
852.906	0.0155315
852.984	0.0154713
853.062	0.0155444
853.140	0.0157346
853.218	0.0156680
853.296	0.0155014
853.374	0.0154381
853.453	0.0154610
853.531	0.0154883
853.609	0.0153825
853.687	0.0154418
853.765	0.0154556
853.843	0.0154318
853.921	0.0153095
853.999	0.0154426
854.078	0.0152335
854.156	0.0152866
854.234	0.0153227
854.312	0.0151951
854.390	0.0154192
854.468	0.0153230
854.546	0.0154577
854.624	0.0154021
854.703	0.0152914
854.781	0.0155180
854.859	0.0153935
854.937	0.0152454
855.015	0.0153604
855.093	0.0154451
855.171	0.0154348
855.249	0.0152985
855.328	0.0154497
855.406	0.0153654
855.484	0.0152782
855.562	0.0154013
855.640	0.0154644
855.718	0.0152746
855.796	0.0154768
855.874	0.0155677
855.953	0.0154886
856.031	0.0154066
856.109	0.0155500
856.187	0.0154709
856.265	0.0154461
856.343	0.0154880
856.421	0.0155140
856.499	0.0155037
856.578	0.0156040
856.656	0.0156027
856.734	0.0154578
856.812	0.0156180
856.890	0.0154129
856.968	0.0154235
857.046	0.0154826
857.124	0.0155555
857.203	0.0156163
857.281	0.0155270
857.359	0.0154459
857.437	0.0155022
857.515	0.0154199
857.593	0.0154597
857.671	0.0153774
857.749	0.0152822
857.828	0.0153761
857.906	0.0154423
857.984	0.0154236
858.062	0.0152592
858.140	0.0155178
858.218	0.0155132
858.296	0.0154369
858.374	0.0153423
858.453	0.0154489
858.531	0.0153644
858.609	0.0154545
858.687	0.0153452
858.765	0.0152770
858.843	0.0153255
858.921	0.0154370
858.999	0.0153611
859.078	0.0154353
859.156	0.0153340
859.234	0.0152943
859.312	0.0154552
859.390	0.0153449
859.468	0.0153208
859.546	0.0154273
859.624	0.0154676
859.703	0.0154091
859.781	0.0153732
859.859	0.0154825
859.937	0.0153686
860.015	0.0154014
860.093	0.0155502
860.171	0.0155479
860.249	0.0154027
860.328	0.0155171
860.406	0.0153470
860.484	0.0154514
860.562	0.0154247
860.640	0.0153378
860.718	0.0154988
860.796	0.0153870
860.874	0.0153094
860.953	0.0155008
861.031	0.0155229
861.109	0.0154247
861.187	0.0154060
861.265	0.0153790
861.343	0.0152097
861.421	0.0153651
861.499	0.0153152
861.578	0.0154026
861.656	0.0152637
861.734	0.0153158
861.812	0.0152467
861.890	0.0153519
861.968	0.0154140
862.046	0.0153726
862.124	0.0154202
862.203	0.0154173
862.281	0.0154035
862.359	0.0154679
862.437	0.0151762
862.515	0.0151704
862.593	0.0153896
862.671	0.0153306
862.749	0.0153263
862.828	0.0152858
862.906	0.0153859
862.984	0.0151873
863.062	0.0154555
863.140	0.0154586
863.218	0.0154525
863.296	0.0154191
863.374	0.0153771
863.453	0.0155537
863.531	0.0153570
863.609	0.0153925
863.687	0.0154588
863.765	0.0155172
863.843	0.0154829
863.921	0.0155265
863.999	0.0156151
864.078	0.0154709
864.156	0.0154336
864.234	0.0155128
864.312	0.0155251
864.390	0.0156024
864.468	0.0153942
864.546	0.0154075
864.624	0.0154774
864.703	0.0155338
864.781	0.0154917
864.859	0.0154366
864.937	0.0154608
865.015	0.0154494
865.093	0.0155262
865.171	0.0154568
865.249	0.0155456
865.328	0.0154481
865.406	0.0154035
865.484	0.0154885
865.562	0.0155939
865.640	0.0155762
865.718	0.0154446
865.796	0.0154859
865.874	0.0153927
865.953	0.0153034
866.031	0.0153727
866.109	0.0153893
866.187	0.0152927
866.265	0.0154037
866.343	0.0153957
866.421	0.0154794
866.499	0.0154597
866.578	0.0155321
866.656	0.0153970
866.734	0.0154583
866.812	0.0153318
866.890	0.0155591
866.968	0.0156543
867.046	0.0155200
867.124	0.0154080
867.203	0.0155960
867.281	0.0155450
867.359	0.0155938
867.437	0.0155569
867.515	0.0156233
867.593	0.0155992
867.671	0.0156695
867.749	0.0155822
867.828	0.0154176
867.906	0.0155121
867.984	0.0156389
868.062	0.0155974
868.140	0.0155319
868.218	0.0156265
868.296	0.0156561
868.374	0.0156883
868.453	0.0156400
868.531	0.0156890
868.609	0.0156435
868.687	0.0154088
868.765	0.0155656
868.843	0.0155651
868.921	0.0154829
868.999	0.0155554
869.078	0.0154721
869.156	0.0153888
869.234	0.0154443
869.312	0.0155593
869.390	0.0155105
869.468	0.0154424
869.546	0.0154914
869.624	0.0153733
869.703	0.0153632
869.781	0.0154115
869.859	0.0153986
869.937	0.0152380
870.015	0.0152054
870.093	0.0154378
870.171	0.0155673
870.249	0.0153944
870.328	0.0153385
870.406	0.0154225
870.484	0.0154160
870.562	0.0154479
870.640	0.0152929
870.718	0.0154227
870.796	0.0154637
870.874	0.0153696
870.953	0.0153423
871.031	0.0154544
871.109	0.0153954
871.187	0.0155769
871.265	0.0154842
871.343	0.0156976
871.421	0.0154854
871.499	0.0154381
871.578	0.0154205
871.656	0.0154968
871.734	0.0156724
871.812	0.0155537
871.890	0.0154049
871.968	0.0155701
872.046	0.0156009
872.124	0.0154563
872.203	0.0154943
872.281	0.0155623
872.359	0.0155001
872.437	0.0154958
872.515	0.0155139
872.593	0.0154520
872.671	0.0155190
872.749	0.0154259
872.828	0.0153854
872.906	0.0153999
872.984	0.0154650
873.062	0.0154913
873.140	0.0154874
873.218	0.0154560
873.296	0.0154189
873.374	0.0153794
873.453	0.0154961
873.531	0.0154192
873.609	0.0155429
873.687	0.0154123
873.765	0.0154573
873.843	0.0153726
873.921	0.0153643
873.999	0.0154250
874.078	0.0155256
874.156	0.0153284
874.234	0.0152930
874.312	0.0153460
874.390	0.0153658
874.468	0.0153826
874.546	0.0154205
874.624	0.0153381
874.703	0.0154922
874.781	0.0154292
874.859	0.0155080
874.937	0.0153724
875.015	0.0153886
875.093	0.0154369
875.171	0.0152897
875.249	0.0154026
875.328	0.0154868
875.406	0.0153844
875.484	0.0153485
875.562	0.0155505
875.640	0.0155285
875.718	0.0154771
875.796	0.0154990
875.874	0.0156463
875.953	0.0154035
876.031	0.0153679
876.109	0.0154613
876.187	0.0154530
876.265	0.0154853
876.343	0.0153534
876.421	0.0153268
876.499	0.0153576
876.578	0.0154648
876.656	0.0153611
876.734	0.0153763
876.812	0.0154221
876.890	0.0153154
876.968	0.0154769
877.046	0.0154668
877.124	0.0154262
877.203	0.0154876
877.281	0.0154005
877.359	0.0154951
877.437	0.0153216
877.515	0.0153461
877.593	0.0154163
877.671	0.0153329
877.749	0.0153059
877.828	0.0153529
877.906	0.0153819
877.984	0.0154978
878.062	0.0154132
878.140	0.0153906
878.218	0.0153187
878.296	0.0152984
878.374	0.0154177
878.453	0.0153651
878.531	0.0153360
878.609	0.0153314
878.687	0.0153807
878.765	0.0153852
878.843	0.0154768
878.921	0.0154530
878.999	0.0153140
879.078	0.0154549
879.156	0.0154987
879.234	0.0155449
879.312	0.0155046
879.390	0.0153240
879.468	0.0153747
879.546	0.0155523
879.624	0.0154399
879.703	0.0154742
879.781	0.0154179
879.859	0.0154066
879.937	0.0154052
880.015	0.0153137
880.093	0.0154710
880.171	0.0154370
880.249	0.0154575
880.328	0.0153443
880.406	0.0153366
880.484	0.0154282
880.562	0.0153840
880.640	0.0152818
880.718	0.0153120
880.796	0.0153703
880.874	0.0154660
880.953	0.0153091
881.031	0.0153114
881.109	0.0152921
881.187	0.0154042
881.265	0.0154541
881.343	0.0154314
881.421	0.0154276
881.499	0.0154343
881.578	0.0154269
881.656	0.0155330
881.734	0.0154973
881.812	0.0155162
881.890	0.0155959
881.968	0.0154609
882.046	0.0154346
882.124	0.0154641
882.203	0.0154340
882.281	0.0154806
882.359	0.0154520
882.437	0.0154581
882.515	0.0154686
882.593	0.0154288
882.671	0.0154630
882.749	0.0154245
882.828	0.0154807
882.906	0.0154200
882.984	0.0155499
883.062	0.0155260
883.140	0.0155389
883.218	0.0156209
883.296	0.0154935
883.374	0.0154056
883.453	0.0154532
883.531	0.0155225
883.609	0.0154031
883.687	0.0153872
883.765	0.0153532
883.843	0.0154828
883.921	0.0155159
883.999	0.0153968
884.078	0.0154919
884.156	0.0154630
884.234	0.0153107
884.312	0.0154382
884.390	0.0153176
884.468	0.0154064
884.546	0.0154310
884.624	0.0154892
884.703	0.0154504
884.781	0.0155094
884.859	0.0154395
884.937	0.0154398
885.015	0.0154623
885.093	0.0154857
885.171	0.0155386
885.249	0.0155365
885.328	0.0154481
885.406	0.0155747
885.484	0.0154791
885.562	0.0155585
885.640	0.0155015
885.718	0.0153376
885.796	0.0154626
885.874	0.0154699
885.953	0.0155125
886.031	0.0155135
886.109	0.0154263
886.187	0.0153848
886.265	0.0154562
886.343	0.0155832
886.421	0.0154237
886.499	0.0153984
886.578	0.0156264
886.656	0.0155685
886.734	0.0153918
886.812	0.0153638
886.890	0.0156419
886.968	0.0155231
887.046	0.0154369
887.124	0.0154525
887.203	0.0154102
887.281	0.0153991
887.359	0.0153026
887.437	0.0153163
887.515	0.0153622
887.593	0.0154562
887.671	0.0155031
887.749	0.0154646
887.828	0.0153760
887.906	0.0153448
887.984	0.0154774
888.062	0.0152961
888.140	0.0153336
888.218	0.0155608
888.296	0.0153693
888.374	0.0153564
888.453	0.0155275
888.531	0.0153706
888.609	0.0154778
888.687	0.0155642
888.765	0.0153480
888.843	0.0154885
888.921	0.0154423
888.999	0.0155260
889.078	0.0155471
889.156	0.0153845
889.234	0.0154574
889.312	0.0155802
889.390	0.0154430
889.468	0.0153272
889.546	0.0153948
889.624	0.0154706
889.703	0.0154604
889.781	0.0153847
889.859	0.0153182
889.937	0.0154439
890.015	0.0153391
890.093	0.0153165
890.171	0.0153499
890.249	0.0155638
890.328	0.0155483
890.406	0.0155110
890.484	0.0156133
890.562	0.0154457
890.640	0.0152147
890.718	0.0155064
890.796	0.0155735
890.874	0.0154691
890.953	0.0154479
891.031	0.0153805
891.109	0.0153831
891.187	0.0154889
891.265	0.0154157
891.343	0.0154439
891.421	0.0155544
891.499	0.0154753
891.578	0.0153817
891.656	0.0155092
891.734	0.0154630
891.812	0.0154597
891.890	0.0155856
891.968	0.0154714
892.046	0.0154389
892.124	0.0153819
892.203	0.0154593
892.281	0.0154469
892.359	0.0154691
892.437	0.0156219
892.515	0.0154089
892.593	0.0154946
892.671	0.0155103
892.749	0.0154075
892.828	0.0154844
892.906	0.0155769
892.984	0.0155035
893.062	0.0154877
893.140	0.0156071
893.218	0.0156773
893.296	0.0153480
893.374	0.0154668
893.453	0.0153980
893.531	0.0154369
893.609	0.0152878
893.687	0.0155013
893.765	0.0154601
893.843	0.0154739
893.921	0.0156077
893.999	0.0155128
894.078	0.0154644
894.156	0.0155475
894.234	0.0154140
894.312	0.0154680
894.390	0.0155196
894.468	0.0155268
894.546	0.0156062
894.624	0.0154988
894.703	0.0155988
894.781	0.0156029
894.859	0.0154861
894.937	0.0154067
895.015	0.0156056
895.093	0.0154227
895.171	0.0155575
895.249	0.0153075
895.328	0.0153291
895.406	0.0153942
895.484	0.0153964
895.562	0.0153561
895.640	0.0153275
895.718	0.0154156
895.796	0.0153754
895.874	0.0153733
895.953	0.0153477
896.031	0.0154366
896.109	0.0154594
896.187	0.0153210
896.265	0.0153121
896.343	0.0153850
896.421	0.0153908
896.499	0.0153812
896.578	0.0155348
896.656	0.0154424
896.734	0.0154073
896.812	0.0154927
896.890	0.0154590
896.968	0.0154211
897.046	0.0154070
897.124	0.0155950
897.203	0.0153526
897.281	0.0154280
897.359	0.0154311
897.437	0.0153832
897.515	0.0153619
897.593	0.0154415
897.671	0.0153617
897.749	0.0153552
897.828	0.0155405
897.906	0.0154515
897.984	0.0152798
898.062	0.0153931
898.140	0.0153179
898.218	0.0152811
898.296	0.0153325
898.374	0.0153098
898.453	0.0153815
898.531	0.0154480
898.609	0.0153929
898.687	0.0154076
898.765	0.0153940
898.843	0.0154166
898.921	0.0153365
898.999	0.0154278
899.078	0.0154610
899.156	0.0153552
899.234	0.0154324
899.312	0.0154540
899.390	0.0152762
899.468	0.0153964
899.546	0.0154507
899.624	0.0153907
899.703	0.0154276
899.781	0.0154177
899.859	0.0153629
899.937	0.0153917
900.015	0.0153158
900.093	0.0152632
900.171	0.0153286
900.249	0.0154351
900.328	0.0154895
900.406	0.0152802
900.484	0.0153434
900.562	0.0154240
900.640	0.0153222
900.718	0.0154059
900.796	0.0154259
900.874	0.0154320
900.953	0.0153575
901.031	0.0154463
901.109	0.0154926
901.187	0.0153532
901.265	0.0152575
901.343	0.0152856
901.421	0.0154691
901.499	0.0153751
901.578	0.0153300
901.656	0.0154809
901.734	0.0154188
901.812	0.0154056
901.890	0.0154639
901.968	0.0152618
902.046	0.0152988
902.124	0.0154465
902.203	0.0154146
902.281	0.0154031
902.359	0.0154195
902.437	0.0154879
902.515	0.0153956
902.593	0.0153056
902.671	0.0152380
902.749	0.0152536
902.828	0.0154379
902.906	0.0151785
902.984	0.0153712
903.062	0.0151692
903.140	0.0153201
903.218	0.0154482
903.296	0.0153738
903.374	0.0153795
903.453	0.0152013
903.531	0.0154031
903.609	0.0152972
903.687	0.0152281
903.765	0.0152772
903.843	0.0153309
903.921	0.0153680
903.999	0.0153733
904.078	0.0153791
904.156	0.0152810
904.234	0.0153608
904.312	0.0153049
904.390	0.0154013
904.468	0.0154860
904.546	0.0154475
904.624	0.0154266
904.703	0.0154110
904.781	0.0154804
904.859	0.0154956
904.937	0.0153959
905.015	0.0155319
905.093	0.0155216
905.171	0.0153972
905.249	0.0155055
905.328	0.0155770
905.406	0.0154143
905.484	0.0155173
905.562	0.0153643
905.640	0.0154753
905.718	0.0156885
905.796	0.0156081
905.874	0.0153904
905.953	0.0154350
906.031	0.0156228
906.109	0.0154903
906.187	0.0154175
906.265	0.0154892
906.343	0.0153872
906.421	0.0153876
906.499	0.0153610
906.578	0.0153842
906.656	0.0153568
906.734	0.0153934
906.812	0.0154531
906.890	0.0154714
906.968	0.0152784
907.046	0.0153384
907.124	0.0154698
907.203	0.0153676
907.281	0.0152706
907.359	0.0153631
907.437	0.0153740
907.515	0.0155448
907.593	0.0153579
907.671	0.0153076
907.749	0.0154027
907.828	0.0155726
907.906	0.0154259
907.984	0.0154183
908.062	0.0155058
908.140	0.0153487
908.218	0.0153794
908.296	0.0154438
908.374	0.0155585
908.453	0.0154478
908.531	0.0155600
908.609	0.0154498
908.687	0.0154977
908.765	0.0154841
908.843	0.0155492
908.921	0.0153783
908.999	0.0154354
909.078	0.0154730
909.156	0.0154549
909.234	0.0155907
909.312	0.0156047
909.390	0.0156023
909.468	0.0154398
909.546	0.0154597
909.624	0.0155470
909.703	0.0155493
909.781	0.0155697
909.859	0.0154926
909.937	0.0154841
910.015	0.0154333
910.093	0.0153937
910.171	0.0154271
910.249	0.0153683
910.328	0.0155326
910.406	0.0153881
910.484	0.0154594
910.562	0.0155225
910.640	0.0154191
910.718	0.0153706
910.796	0.0154826
910.874	0.0155065
910.953	0.0153831
911.031	0.0154109
911.109	0.0154887
911.187	0.0156178
911.265	0.0153783
911.343	0.0154121
911.421	0.0155331
911.499	0.0156293
911.578	0.0154626
911.656	0.0154950
911.734	0.0155236
911.812	0.0153851
911.890	0.0155746
911.968	0.0154841
912.046	0.0153885
912.124	0.0154261
912.203	0.0154837
912.281	0.0155396
912.359	0.0155031
912.437	0.0154804
912.515	0.0155114
912.593	0.0155164
912.671	0.0153981
912.749	0.0154486
912.828	0.0155476
912.906	0.0155549
912.984	0.0155907
913.062	0.0155084
913.140	0.0156176
913.218	0.0155421
913.296	0.0155821
913.374	0.0154262
913.453	0.0154105
913.531	0.0153854
913.609	0.0153744
913.687	0.0155061
913.765	0.0155075
913.843	0.0155545
913.921	0.0155608
913.999	0.0155528
914.078	0.0154141
914.156	0.0154451
914.234	0.0154932
914.312	0.0153871
914.390	0.0153720
914.468	0.0154867
914.546	0.0154627
914.624	0.0153645
914.703	0.0153329
914.781	0.0154507
914.859	0.0154122
914.937	0.0154356
915.015	0.0155640
915.093	0.0152776
915.171	0.0153526
915.249	0.0154768
915.328	0.0153339
915.406	0.0152946
915.484	0.0154873
915.562	0.0156792
915.640	0.0154807
915.718	0.0153918
915.796	0.0155449
915.874	0.0152058
915.953	0.0153912
916.031	0.0154302
916.109	0.0154552
916.187	0.0155670
916.265	0.0154685
916.343	0.0155089
916.421	0.0153236
916.499	0.0154410
916.578	0.0155765
916.656	0.0154350
916.734	0.0153494
916.812	0.0154917
916.890	0.0155244
916.968	0.0153926
917.046	0.0153848
917.124	0.0154220
917.203	0.0154371
917.281	0.0156141
917.359	0.0154308
917.437	0.0154362
917.515	0.0155881
917.593	0.0156026
917.671	0.0154457
917.749	0.0154311
917.828	0.0155231
917.906	0.0154604
917.984	0.0152923
918.062	0.0153334
918.140	0.0155836
918.218	0.0154583
918.296	0.0154680
918.374	0.0154182
918.453	0.0153014
918.531	0.0153398
918.609	0.0154653
918.687	0.0155581
918.765	0.0154674
918.843	0.0154476
918.921	0.0154508
918.999	0.0154971
919.078	0.0154767
919.156	0.0154819
919.234	0.0152979
919.312	0.0155799
919.390	0.0154220
919.468	0.0152939
919.546	0.0153928
919.624	0.0154638
919.703	0.0154730
919.781	0.0154240
919.859	0.0153918
919.937	0.0154613
