05/06/2022	19:22:05	Ver.	4.1	UNKNOWN
Optical Delay	600.015094	Delta X		0.078125	Sweeps	1	Scan Rate	0/0
Coordinates	Axis 1	NaN	Axis 2	NaN	Axis 3	NaN	Axis 4	NaN	Axis 5	NaN	Axis 6	0.000000
TX Power	0.000000	RX Power	0.000000

600.015	0.0154949
600.093	0.0155280
600.171	0.0155286
600.249	0.0155560
600.328	0.0155435
600.406	0.0154995
600.484	0.0155619
600.562	0.0154243
600.640	0.0154427
600.718	0.0154542
600.796	0.0156362
600.874	0.0155900
600.953	0.0154862
601.031	0.0154239
601.109	0.0155257
601.187	0.0155270
601.265	0.0154408
601.343	0.0155277
601.421	0.0154390
601.499	0.0155090
601.578	0.0154647
601.656	0.0154917
601.734	0.0155510
601.812	0.0154697
601.890	0.0154552
601.968	0.0154963
602.046	0.0153576
602.124	0.0155549
602.203	0.0154823
602.281	0.0153880
602.359	0.0153795
602.437	0.0156351
602.515	0.0155855
602.593	0.0155108
602.671	0.0154305
602.749	0.0155276
602.828	0.0154521
602.906	0.0155135
602.984	0.0154823
603.062	0.0154155
603.140	0.0154646
603.218	0.0154826
603.296	0.0155441
603.374	0.0155494
603.453	0.0154256
603.531	0.0154186
603.609	0.0154118
603.687	0.0155547
603.765	0.0154623
603.843	0.0154252
603.921	0.0153128
603.999	0.0154195
604.078	0.0154930
604.156	0.0154554
604.234	0.0154536
604.312	0.0153721
604.390	0.0154826
604.468	0.0154060
604.546	0.0153668
604.624	0.0153758
604.703	0.0154575
604.781	0.0155331
604.859	0.0154962
604.937	0.0154276
605.015	0.0154629
605.093	0.0154594
605.171	0.0155434
605.249	0.0154430
605.328	0.0153677
605.406	0.0154765
605.484	0.0154514
605.562	0.0154543
605.640	0.0154807
605.718	0.0156582
605.796	0.0154758
605.874	0.0155453
605.953	0.0154529
606.031	0.0154630
606.109	0.0154182
606.187	0.0154784
606.265	0.0153839
606.343	0.0155401
606.421	0.0154379
606.499	0.0154482
606.578	0.0155118
606.656	0.0155556
606.734	0.0154904
606.812	0.0154929
606.890	0.0153552
606.968	0.0154266
607.046	0.0154329
607.124	0.0155722
607.203	0.0156348
607.281	0.0154121
607.359	0.0154486
607.437	0.0155022
607.515	0.0153587
607.593	0.0153582
607.671	0.0155064
607.749	0.0155291
607.828	0.0153376
607.906	0.0152950
607.984	0.0154607
608.062	0.0154128
608.140	0.0153504
608.218	0.0154376
608.296	0.0153976
608.374	0.0153921
608.453	0.0154938
608.531	0.0155099
608.609	0.0154609
608.687	0.0154842
608.765	0.0155104
608.843	0.0154224
608.921	0.0153939
608.999	0.0154305
609.078	0.0155002
609.156	0.0154606
609.234	0.0153075
609.312	0.0155151
609.390	0.0153600
609.468	0.0155402
609.546	0.0154385
609.624	0.0154545
609.703	0.0155096
609.781	0.0154588
609.859	0.0154140
609.937	0.0155197
610.015	0.0155016
610.093	0.0155469
610.171	0.0154821
610.249	0.0155313
610.328	0.0154740
610.406	0.0154189
610.484	0.0154884
610.562	0.0155973
610.640	0.0153815
610.718	0.0153654
610.796	0.0154275
610.874	0.0153873
610.953	0.0154237
611.031	0.0153397
611.109	0.0152679
611.187	0.0153669
611.265	0.0153023
611.343	0.0154058
611.421	0.0154704
611.499	0.0154215
611.578	0.0154034
611.656	0.0155235
611.734	0.0153629
611.812	0.0154245
611.890	0.0154150
611.968	0.0154501
612.046	0.0153571
612.124	0.0155064
612.203	0.0153615
612.281	0.0155180
612.359	0.0154414
612.437	0.0153165
612.515	0.0154178
612.593	0.0155634
612.671	0.0155263
612.749	0.0153966
612.828	0.0153717
612.906	0.0154302
612.984	0.0155379
613.062	0.0153530
613.140	0.0153934
613.218	0.0153385
613.296	0.0154977
613.374	0.0155048
613.453	0.0154954
613.531	0.0154737
613.609	0.0153468
613.687	0.0156215
613.765	0.0153719
613.843	0.0155158
613.921	0.0154679
613.999	0.0153663
614.078	0.0154828
614.156	0.0154916
614.234	0.0155344
614.312	0.0155106
614.390	0.0153584
614.468	0.0154324
614.546	0.0153697
614.624	0.0152982
614.703	0.0154742
614.781	0.0154630
614.859	0.0154616
614.937	0.0153400
615.015	0.0154607
615.093	0.0154642
615.171	0.0154435
615.249	0.0154225
615.328	0.0153017
615.406	0.0153869
615.484	0.0154528
615.562	0.0154368
615.640	0.0153495
615.718	0.0155496
615.796	0.0155135
615.874	0.0155171
615.953	0.0154589
616.031	0.0155672
616.109	0.0156335
616.187	0.0155950
616.265	0.0156168
616.343	0.0155655
616.421	0.0155460
616.499	0.0154607
616.578	0.0154893
616.656	0.0155235
616.734	0.0154430
616.812	0.0155038
616.890	0.0154831
616.968	0.0154115
617.046	0.0155627
617.124	0.0153936
617.203	0.0154034
617.281	0.0154562
617.359	0.0153504
617.437	0.0154353
617.515	0.0154377
617.593	0.0155009
617.671	0.0154729
617.749	0.0154765
617.828	0.0155701
617.906	0.0152629
617.984	0.0153406
618.062	0.0154447
618.140	0.0154871
618.218	0.0155748
618.296	0.0154785
618.374	0.0154545
618.453	0.0155693
618.531	0.0155094
618.609	0.0155721
618.687	0.0155237
618.765	0.0155540
618.843	0.0156796
618.921	0.0155984
618.999	0.0155776
619.078	0.0155532
619.156	0.0156814
619.234	0.0156397
619.312	0.0155965
619.390	0.0156049
619.468	0.0156293
619.546	0.0155399
619.624	0.0156650
619.703	0.0157417
619.781	0.0155674
619.859	0.0155394
619.937	0.0155572
620.015	0.0154648
620.093	0.0154337
620.171	0.0155459
620.249	0.0155198
620.328	0.0155273
620.406	0.0155583
620.484	0.0153751
620.562	0.0154522
620.640	0.0154601
620.718	0.0154292
620.796	0.0154567
620.874	0.0154224
620.953	0.0153009
621.031	0.0153047
621.109	0.0154825
621.187	0.0153651
621.265	0.0152814
621.343	0.0154743
621.421	0.0153426
621.499	0.0153402
621.578	0.0154736
621.656	0.0155545
621.734	0.0154690
621.812	0.0154025
621.890	0.0154002
621.968	0.0153616
622.046	0.0154433
622.124	0.0154758
622.203	0.0155443
622.281	0.0155167
622.359	0.0156298
622.437	0.0155445
622.515	0.0154787
622.593	0.0154916
622.671	0.0152982
622.749	0.0154066
622.828	0.0153214
622.906	0.0153475
622.984	0.0153126
623.062	0.0154473
623.140	0.0153346
623.218	0.0153400
623.296	0.0154171
623.374	0.0153775
623.453	0.0154442
623.531	0.0154582
623.609	0.0155140
623.687	0.0154017
623.765	0.0154446
623.843	0.0154713
623.921	0.0155334
623.999	0.0155724
624.078	0.0155445
624.156	0.0154035
624.234	0.0156875
624.312	0.0155136
624.390	0.0154878
624.468	0.0155927
624.546	0.0155441
624.624	0.0155010
624.703	0.0154069
624.781	0.0154496
624.859	0.0154199
624.937	0.0154552
625.015	0.0154640
625.093	0.0154399
625.171	0.0153622
625.249	0.0152920
625.328	0.0154863
625.406	0.0153890
625.484	0.0154359
625.562	0.0153542
625.640	0.0153966
625.718	0.0154082
625.796	0.0155027
625.874	0.0154797
625.953	0.0153488
626.031	0.0152699
626.109	0.0154788
626.187	0.0154676
626.265	0.0153487
626.343	0.0153268
626.421	0.0153939
626.499	0.0153152
626.578	0.0154062
626.656	0.0155177
626.734	0.0154089
626.812	0.0154227
626.890	0.0154258
626.968	0.0152723
627.046	0.0154330
627.124	0.0155698
627.203	0.0155339
627.281	0.0154272
627.359	0.0154737
627.437	0.0154037
627.515	0.0154653
627.593	0.0154487
627.671	0.0156071
627.749	0.0155187
627.828	0.0154082
627.906	0.0156207
627.984	0.0156802
628.062	0.0154925
628.140	0.0155788
628.218	0.0156276
628.296	0.0155607
628.374	0.0155335
628.453	0.0156011
628.531	0.0155890
628.609	0.0155193
628.687	0.0155006
628.765	0.0155779
628.843	0.0155603
628.921	0.0154771
628.999	0.0155904
629.078	0.0154978
629.156	0.0153161
629.234	0.0153785
629.312	0.0153403
629.390	0.0153204
629.468	0.0153284
629.546	0.0154156
629.624	0.0151475
629.703	0.0153374
629.781	0.0153953
629.859	0.0152602
629.937	0.0153876
630.015	0.0153248
630.093	0.0151927
630.171	0.0152174
630.249	0.0153972
630.328	0.0155547
630.406	0.0155117
630.484	0.0155219
630.562	0.0155528
630.640	0.0156156
630.718	0.0156704
630.796	0.0157884
630.874	0.0156628
630.953	0.0156752
631.031	0.0159024
631.109	0.0158700
631.187	0.0155415
631.265	0.0156724
631.343	0.0156609
631.421	0.0156657
631.499	0.0156352
631.578	0.0155547
631.656	0.0155388
631.734	0.0153664
631.812	0.0154108
631.890	0.0153445
631.968	0.0152682
632.046	0.0153475
632.124	0.0153755
632.203	0.0152915
632.281	0.0152412
632.359	0.0153632
632.437	0.0153501
632.515	0.0155222
632.593	0.0152875
632.671	0.0154049
632.749	0.0154294
632.828	0.0153323
632.906	0.0154476
632.984	0.0155328
633.062	0.0155196
633.140	0.0155499
633.218	0.0154232
633.296	0.0155916
633.374	0.0156210
633.453	0.0156720
633.531	0.0157413
633.609	0.0157280
633.687	0.0157715
633.765	0.0157574
633.843	0.0157269
633.921	0.0159514
633.999	0.0159238
634.078	0.0157439
634.156	0.0159126
634.234	0.0159372
634.312	0.0158578
634.390	0.0158011
634.468	0.0158692
634.546	0.0157407
634.624	0.0156702
634.703	0.0156280
634.781	0.0155389
634.859	0.0155482
634.937	0.0153046
635.015	0.0154349
635.093	0.0155274
635.171	0.0154353
635.249	0.0153561
635.328	0.0153130
635.406	0.0153371
635.484	0.0154898
635.562	0.0153255
635.640	0.0152556
635.718	0.0152499
635.796	0.0152871
635.874	0.0152929
635.953	0.0153008
636.031	0.0153708
636.109	0.0152538
636.187	0.0152062
636.265	0.0152310
636.343	0.0152263
636.421	0.0153066
636.499	0.0152119
636.578	0.0153481
636.656	0.0154156
636.734	0.0155394
636.812	0.0154512
636.890	0.0155646
636.968	0.0158105
637.046	0.0159054
637.124	0.0157852
637.203	0.0158866
637.281	0.0160200
637.359	0.0159885
637.437	0.0158755
637.515	0.0160197
637.593	0.0159740
637.671	0.0159500
637.749	0.0159054
637.828	0.0158706
637.906	0.0158826
637.984	0.0157534
638.062	0.0156939
638.140	0.0158060
638.218	0.0156641
638.296	0.0156494
638.374	0.0156641
638.453	0.0155988
638.531	0.0155701
638.609	0.0155565
638.687	0.0153489
638.765	0.0153362
638.843	0.0154212
638.921	0.0152355
638.999	0.0151113
639.078	0.0152668
639.156	0.0151271
639.234	0.0151853
639.312	0.0148718
639.390	0.0150110
639.468	0.0148927
639.546	0.0149220
639.624	0.0148405
639.703	0.0149743
639.781	0.0151225
639.859	0.0149680
639.937	0.0149947
640.015	0.0149915
640.093	0.0151117
640.171	0.0152802
640.249	0.0152404
640.328	0.0152061
640.406	0.0153627
640.484	0.0154218
640.562	0.0154646
640.640	0.0154709
640.718	0.0155771
640.796	0.0159149
640.874	0.0157905
640.953	0.0159306
641.031	0.0159713
641.109	0.0160113
641.187	0.0160143
641.265	0.0161335
641.343	0.0161027
641.421	0.0160793
641.499	0.0160813
641.578	0.0161569
641.656	0.0160816
641.734	0.0159048
641.812	0.0159075
641.890	0.0158507
641.968	0.0159625
642.046	0.0158517
642.124	0.0158015
642.203	0.0157254
642.281	0.0155489
642.359	0.0155732
642.437	0.0155483
642.515	0.0155637
642.593	0.0153867
642.671	0.0151756
642.749	0.0151415
642.828	0.0151327
642.906	0.0150549
642.984	0.0149436
643.062	0.0148806
643.140	0.0148849
643.218	0.0147864
643.296	0.0148172
643.374	0.0146974
643.453	0.0146189
643.531	0.0146230
643.609	0.0146331
643.687	0.0148735
643.765	0.0146888
643.843	0.0146039
643.921	0.0147883
643.999	0.0148360
644.078	0.0149743
644.156	0.0148957
644.234	0.0149563
644.312	0.0152565
644.390	0.0151846
644.468	0.0153584
644.546	0.0153866
644.624	0.0155440
644.703	0.0157516
644.781	0.0159056
644.859	0.0160887
644.937	0.0160407
645.015	0.0160818
645.093	0.0162006
645.171	0.0162138
645.249	0.0162211
645.328	0.0163393
645.406	0.0163566
645.484	0.0163798
645.562	0.0164211
645.640	0.0165054
645.718	0.0164579
645.796	0.0163590
645.874	0.0163083
645.953	0.0164005
646.031	0.0163046
646.109	0.0162492
646.187	0.0159335
646.265	0.0157850
646.343	0.0158321
646.421	0.0157428
646.499	0.0154362
646.578	0.0152955
646.656	0.0151601
646.734	0.0152098
646.812	0.0151791
646.890	0.0149313
646.968	0.0148234
647.046	0.0147395
647.124	0.0144876
647.203	0.0145454
647.281	0.0145438
647.359	0.0145777
647.437	0.0143765
647.515	0.0141935
647.593	0.0141682
647.671	0.0141245
647.749	0.0142209
647.828	0.0142609
647.906	0.0142427
647.984	0.0143581
648.062	0.0145146
648.140	0.0147488
648.218	0.0148800
648.296	0.0150302
648.374	0.0151984
648.453	0.0154219
648.531	0.0156359
648.609	0.0156940
648.687	0.0159225
648.765	0.0160619
648.843	0.0161224
648.921	0.0162145
648.999	0.0163106
649.078	0.0162516
649.156	0.0164998
649.234	0.0165609
649.312	0.0164547
649.390	0.0165814
649.468	0.0165987
649.546	0.0164614
649.624	0.0164744
649.703	0.0164708
649.781	0.0164451
649.859	0.0164661
649.937	0.0164612
650.015	0.0162691
650.093	0.0162442
650.171	0.0161462
650.249	0.0158759
650.328	0.0159831
650.406	0.0157697
650.484	0.0155766
650.562	0.0153948
650.640	0.0153768
650.718	0.0151878
650.796	0.0149541
650.874	0.0148155
650.953	0.0148276
651.031	0.0147755
651.109	0.0146709
651.187	0.0146586
651.265	0.0145987
651.343	0.0145100
651.421	0.0145369
651.499	0.0144876
651.578	0.0144970
651.656	0.0144378
651.734	0.0146216
651.812	0.0144556
651.890	0.0144611
651.968	0.0145145
652.046	0.0145345
652.124	0.0146843
652.203	0.0147067
652.281	0.0149696
652.359	0.0149834
652.437	0.0151885
652.515	0.0152921
652.593	0.0154778
652.671	0.0157099
652.749	0.0158896
652.828	0.0159846
652.906	0.0160805
652.984	0.0161382
653.062	0.0163047
653.140	0.0162997
653.218	0.0164078
653.296	0.0164765
653.374	0.0165843
653.453	0.0165275
653.531	0.0165930
653.609	0.0165657
653.687	0.0165768
653.765	0.0164883
653.843	0.0164882
653.921	0.0163534
653.999	0.0164648
654.078	0.0164616
654.156	0.0161883
654.234	0.0160580
654.312	0.0159259
654.390	0.0160427
654.468	0.0158472
654.546	0.0155624
654.624	0.0156058
654.703	0.0153655
654.781	0.0153577
654.859	0.0152464
654.937	0.0151045
655.015	0.0150847
655.093	0.0149664
655.171	0.0149300
655.249	0.0150042
655.328	0.0148295
655.406	0.0147337
655.484	0.0149118
655.562	0.0148879
655.640	0.0148479
655.718	0.0146517
655.796	0.0146987
655.874	0.0145933
655.953	0.0148687
656.031	0.0148451
656.109	0.0149403
656.187	0.0150271
656.265	0.0151645
656.343	0.0152531
656.421	0.0153664
656.499	0.0154218
656.578	0.0154775
656.656	0.0156482
656.734	0.0155721
656.812	0.0158083
656.890	0.0159986
656.968	0.0159780
657.046	0.0158871
657.124	0.0159804
657.203	0.0161014
657.281	0.0159961
657.359	0.0160023
657.437	0.0160651
657.515	0.0160378
657.593	0.0161847
657.671	0.0160934
657.749	0.0161723
657.828	0.0162089
657.906	0.0162500
657.984	0.0161417
658.062	0.0160068
658.140	0.0159338
658.218	0.0159617
658.296	0.0159525
658.374	0.0157414
658.453	0.0156725
658.531	0.0156921
658.609	0.0155194
658.687	0.0153098
658.765	0.0153741
658.843	0.0151917
658.921	0.0150566
658.999	0.0150002
659.078	0.0150249
659.156	0.0150881
659.234	0.0150019
659.312	0.0149872
659.390	0.0147604
659.468	0.0148857
659.546	0.0148467
659.624	0.0148983
659.703	0.0148037
659.781	0.0146861
659.859	0.0148119
659.937	0.0149474
660.015	0.0148772
660.093	0.0151870
660.171	0.0151991
660.249	0.0151772
660.328	0.0152956
660.406	0.0154523
660.484	0.0155693
660.562	0.0158363
660.640	0.0155832
660.718	0.0157544
660.796	0.0159856
660.874	0.0160874
660.953	0.0160722
661.031	0.0161964
661.109	0.0161195
661.187	0.0162397
661.265	0.0162334
661.343	0.0163264
661.421	0.0162384
661.499	0.0164193
661.578	0.0161854
661.656	0.0161330
661.734	0.0160889
661.812	0.0159655
661.890	0.0158038
661.968	0.0157354
662.046	0.0155441
662.124	0.0154849
662.203	0.0153501
662.281	0.0153015
662.359	0.0151884
662.437	0.0150179
662.515	0.0150081
662.593	0.0148090
662.671	0.0148943
662.749	0.0148941
662.828	0.0147013
662.906	0.0146362
662.984	0.0146822
663.062	0.0146970
663.140	0.0145802
663.218	0.0146870
663.296	0.0147209
663.374	0.0148155
663.453	0.0148996
663.531	0.0147934
663.609	0.0150050
663.687	0.0152262
663.765	0.0154349
663.843	0.0153670
663.921	0.0154515
663.999	0.0157487
664.078	0.0157841
664.156	0.0158881
664.234	0.0162301
664.312	0.0162734
664.390	0.0162476
664.468	0.0163084
664.546	0.0164601
664.624	0.0164327
664.703	0.0163460
664.781	0.0163692
664.859	0.0164051
664.937	0.0162302
665.015	0.0162740
665.093	0.0162039
665.171	0.0161462
665.249	0.0160357
665.328	0.0161333
665.406	0.0159999
665.484	0.0158282
665.562	0.0158128
665.640	0.0156747
665.718	0.0155711
665.796	0.0155722
665.874	0.0154752
665.953	0.0154549
666.031	0.0151839
666.109	0.0150937
666.187	0.0150568
666.265	0.0149946
666.343	0.0149036
666.421	0.0147789
666.499	0.0147089
666.578	0.0147299
666.656	0.0146720
666.734	0.0147270
666.812	0.0145541
666.890	0.0145136
666.968	0.0145073
667.046	0.0145798
667.124	0.0146648
667.203	0.0146142
667.281	0.0148847
667.359	0.0148252
667.437	0.0147486
667.515	0.0149508
667.593	0.0149812
667.671	0.0150024
667.749	0.0151935
667.828	0.0152908
667.906	0.0155420
667.984	0.0156187
668.062	0.0156986
668.140	0.0158484
668.218	0.0160295
668.296	0.0161886
668.374	0.0162533
668.453	0.0162613
668.531	0.0163183
668.609	0.0163400
668.687	0.0164273
668.765	0.0163667
668.843	0.0163793
668.921	0.0162495
668.999	0.0162868
669.078	0.0163046
669.156	0.0161153
669.234	0.0159929
669.312	0.0159167
669.390	0.0156322
669.468	0.0156887
669.546	0.0155237
669.624	0.0154527
669.703	0.0153040
669.781	0.0152104
669.859	0.0151203
669.937	0.0150695
670.015	0.0151579
670.093	0.0150861
670.171	0.0149901
670.249	0.0149863
670.328	0.0149767
670.406	0.0147955
670.484	0.0147065
670.562	0.0148247
670.640	0.0146721
670.718	0.0146768
670.796	0.0145911
670.874	0.0145937
670.953	0.0146556
671.031	0.0144962
671.109	0.0145286
671.187	0.0145502
671.265	0.0144783
671.343	0.0145997
671.421	0.0147366
671.499	0.0147771
671.578	0.0148953
671.656	0.0151866
671.734	0.0152357
671.812	0.0153478
671.890	0.0154517
671.968	0.0155269
672.046	0.0156997
672.124	0.0159141
672.203	0.0159342
672.281	0.0159925
672.359	0.0161048
672.437	0.0162867
672.515	0.0160881
672.593	0.0162175
672.671	0.0161697
672.749	0.0160612
672.828	0.0162409
672.906	0.0160984
672.984	0.0160625
673.062	0.0162124
673.140	0.0162339
673.218	0.0161350
673.296	0.0160027
673.374	0.0160703
673.453	0.0158177
673.531	0.0157771
673.609	0.0158880
673.687	0.0157356
673.765	0.0155188
673.843	0.0155512
673.921	0.0153604
673.999	0.0151894
674.078	0.0152047
674.156	0.0150233
674.234	0.0150462
674.312	0.0148904
674.390	0.0147375
674.468	0.0148387
674.546	0.0148093
674.624	0.0145521
674.703	0.0145556
674.781	0.0145860
674.859	0.0146786
674.937	0.0146465
675.015	0.0145299
675.093	0.0145699
675.171	0.0146967
675.249	0.0147523
675.328	0.0149200
675.406	0.0150785
675.484	0.0151145
675.562	0.0151373
675.640	0.0154057
675.718	0.0154984
675.796	0.0155152
675.874	0.0156505
675.953	0.0157067
676.031	0.0160080
676.109	0.0160191
676.187	0.0160952
676.265	0.0160672
676.343	0.0162591
676.421	0.0163042
676.499	0.0162307
676.578	0.0162875
676.656	0.0162988
676.734	0.0162834
676.812	0.0162550
676.890	0.0160326
676.968	0.0161844
677.046	0.0160808
677.124	0.0161189
677.203	0.0160521
677.281	0.0159741
677.359	0.0159647
677.437	0.0158331
677.515	0.0157160
677.593	0.0155817
677.671	0.0156619
677.749	0.0154242
677.828	0.0152467
677.906	0.0151200
677.984	0.0150127
678.062	0.0149971
678.140	0.0148383
678.218	0.0147356
678.296	0.0147297
678.374	0.0146033
678.453	0.0147621
678.531	0.0147311
678.609	0.0148373
678.687	0.0147446
678.765	0.0148428
678.843	0.0148742
678.921	0.0148839
678.999	0.0149995
679.078	0.0150683
679.156	0.0151782
679.234	0.0152551
679.312	0.0153542
679.390	0.0152843
679.468	0.0153738
679.546	0.0154633
679.624	0.0156271
679.703	0.0156254
679.781	0.0157132
679.859	0.0156570
679.937	0.0158309
680.015	0.0158061
680.093	0.0158173
680.171	0.0157575
680.249	0.0160239
680.328	0.0160148
680.406	0.0160385
680.484	0.0160157
680.562	0.0160374
680.640	0.0160948
680.718	0.0160548
680.796	0.0159406
680.874	0.0160719
680.953	0.0159950
681.031	0.0159319
681.109	0.0158438
681.187	0.0157140
681.265	0.0156997
681.343	0.0157287
681.421	0.0156654
681.499	0.0155019
681.578	0.0154044
681.656	0.0152962
681.734	0.0152359
681.812	0.0152397
681.890	0.0151811
681.968	0.0149922
682.046	0.0150957
682.124	0.0149732
682.203	0.0150277
682.281	0.0148939
682.359	0.0150072
682.437	0.0148451
682.515	0.0148090
682.593	0.0149431
682.671	0.0150092
682.749	0.0150158
682.828	0.0150498
682.906	0.0152508
682.984	0.0152300
683.062	0.0153529
683.140	0.0154721
683.218	0.0152566
683.296	0.0153095
683.374	0.0156009
683.453	0.0155672
683.531	0.0156346
683.609	0.0157070
683.687	0.0158525
683.765	0.0157758
683.843	0.0158953
683.921	0.0158887
683.999	0.0160034
684.078	0.0159264
684.156	0.0158737
684.234	0.0159919
684.312	0.0159885
684.390	0.0158661
684.468	0.0158988
684.546	0.0159965
684.624	0.0158477
684.703	0.0158944
684.781	0.0158475
684.859	0.0156697
684.937	0.0156368
685.015	0.0155820
685.093	0.0154721
685.171	0.0153614
685.249	0.0153686
685.328	0.0153215
685.406	0.0151962
685.484	0.0152745
685.562	0.0152637
685.640	0.0152921
685.718	0.0152926
685.796	0.0151278
685.874	0.0151747
685.953	0.0151629
686.031	0.0151181
686.109	0.0150656
686.187	0.0150523
686.265	0.0150648
686.343	0.0149436
686.421	0.0151292
686.499	0.0150794
686.578	0.0150475
686.656	0.0151324
686.734	0.0149973
686.812	0.0152634
686.890	0.0152729
686.968	0.0151107
687.046	0.0153460
687.124	0.0155574
687.203	0.0155935
687.281	0.0156322
687.359	0.0157544
687.437	0.0156859
687.515	0.0157693
687.593	0.0160725
687.671	0.0159022
687.749	0.0159547
687.828	0.0158772
687.906	0.0159605
687.984	0.0157631
688.062	0.0158965
688.140	0.0159003
688.218	0.0158929
688.296	0.0158484
688.374	0.0156371
688.453	0.0157142
688.531	0.0157291
688.609	0.0156843
688.687	0.0154947
688.765	0.0155128
688.843	0.0157117
688.921	0.0156506
688.999	0.0154337
689.078	0.0153253
689.156	0.0152026
689.234	0.0152547
689.312	0.0152382
689.390	0.0152312
689.468	0.0151277
689.546	0.0151397
689.624	0.0150249
689.703	0.0150533
689.781	0.0149485
689.859	0.0149100
689.937	0.0148824
690.015	0.0147913
690.093	0.0148814
690.171	0.0148946
690.249	0.0149194
690.328	0.0151626
690.406	0.0151036
690.484	0.0150292
690.562	0.0151920
690.640	0.0151309
690.718	0.0153220
690.796	0.0153959
690.874	0.0156164
690.953	0.0155463
691.031	0.0155678
691.109	0.0155958
691.187	0.0157197
691.265	0.0156950
691.343	0.0158654
691.421	0.0160519
691.499	0.0158294
691.578	0.0159659
691.656	0.0158772
691.734	0.0158871
691.812	0.0159475
691.890	0.0160043
691.968	0.0158405
692.046	0.0158359
692.124	0.0156513
692.203	0.0156284
692.281	0.0157164
692.359	0.0155375
692.437	0.0155904
692.515	0.0154126
692.593	0.0154150
692.671	0.0155143
692.749	0.0154614
692.828	0.0154163
692.906	0.0152621
692.984	0.0153341
693.062	0.0152759
693.140	0.0154104
693.218	0.0153239
693.296	0.0152361
693.374	0.0153699
693.453	0.0152914
693.531	0.0151115
693.609	0.0152402
693.687	0.0152332
693.765	0.0152555
693.843	0.0152827
693.921	0.0151480
693.999	0.0151133
694.078	0.0152743
694.156	0.0152852
694.234	0.0152381
694.312	0.0152281
694.390	0.0152731
694.468	0.0152406
694.546	0.0152310
694.624	0.0154202
694.703	0.0152750
694.781	0.0153418
694.859	0.0154162
694.937	0.0154631
695.015	0.0155168
695.093	0.0155614
695.171	0.0155163
695.249	0.0156276
695.328	0.0157856
695.406	0.0156566
695.484	0.0157590
695.562	0.0157621
695.640	0.0159076
695.718	0.0158453
695.796	0.0159969
695.874	0.0158013
695.953	0.0158418
696.031	0.0158051
696.109	0.0159112
696.187	0.0157465
696.265	0.0158522
696.343	0.0158128
696.421	0.0156069
696.499	0.0155741
696.578	0.0154673
696.656	0.0155569
696.734	0.0155243
696.812	0.0154399
696.890	0.0154617
696.968	0.0153022
697.046	0.0152618
697.124	0.0152785
697.203	0.0152109
697.281	0.0152065
697.359	0.0151953
697.437	0.0150243
697.515	0.0148750
697.593	0.0149772
697.671	0.0150336
697.749	0.0149993
697.828	0.0150105
697.906	0.0150085
697.984	0.0151874
698.062	0.0150845
698.140	0.0152148
698.218	0.0152298
698.296	0.0151591
698.374	0.0151632
698.453	0.0153085
698.531	0.0153757
698.609	0.0152764
698.687	0.0154076
698.765	0.0155656
698.843	0.0156242
698.921	0.0157153
698.999	0.0156908
699.078	0.0156477
699.156	0.0158578
699.234	0.0159531
699.312	0.0159444
699.390	0.0159252
699.468	0.0159075
699.546	0.0160178
699.624	0.0160204
699.703	0.0158767
699.781	0.0159656
699.859	0.0158181
699.937	0.0157512
700.015	0.0156281
700.093	0.0158453
700.171	0.0157804
700.249	0.0154876
700.328	0.0156083
700.406	0.0155983
700.484	0.0155453
700.562	0.0155299
700.640	0.0154461
700.718	0.0153780
700.796	0.0153428
700.874	0.0152874
700.953	0.0151424
701.031	0.0151168
701.109	0.0150105
701.187	0.0151761
701.265	0.0151902
701.343	0.0150328
701.421	0.0150018
701.499	0.0150226
701.578	0.0150858
701.656	0.0151938
701.734	0.0150995
701.812	0.0151860
701.890	0.0152352
701.968	0.0152856
702.046	0.0152385
702.124	0.0153048
702.203	0.0154800
702.281	0.0155754
702.359	0.0156106
702.437	0.0155743
702.515	0.0155432
702.593	0.0155771
702.671	0.0156148
702.749	0.0156552
702.828	0.0156080
702.906	0.0157069
702.984	0.0155942
703.062	0.0158719
703.140	0.0156705
703.218	0.0157305
703.296	0.0156934
703.374	0.0156940
703.453	0.0157679
703.531	0.0157547
703.609	0.0156782
703.687	0.0157195
703.765	0.0156918
703.843	0.0156749
703.921	0.0155482
703.999	0.0156108
704.078	0.0156779
704.156	0.0155275
704.234	0.0154771
704.312	0.0155435
704.390	0.0155587
704.468	0.0155531
704.546	0.0154453
704.624	0.0154467
704.703	0.0154783
704.781	0.0153905
704.859	0.0153695
704.937	0.0153122
705.015	0.0153026
705.093	0.0153463
705.171	0.0153677
705.249	0.0151440
705.328	0.0151198
705.406	0.0152006
705.484	0.0151759
705.562	0.0152337
705.640	0.0150178
705.718	0.0150839
705.796	0.0151467
705.874	0.0153059
705.953	0.0151929
706.031	0.0153809
706.109	0.0153712
706.187	0.0155128
706.265	0.0155467
706.343	0.0154182
706.421	0.0156859
706.499	0.0155442
706.578	0.0156496
706.656	0.0156172
706.734	0.0156652
706.812	0.0157899
706.890	0.0157042
706.968	0.0158006
707.046	0.0156313
707.124	0.0157266
707.203	0.0158575
707.281	0.0157323
707.359	0.0157459
707.437	0.0158611
707.515	0.0157253
707.593	0.0157126
707.671	0.0157796
707.749	0.0155800
707.828	0.0156788
707.906	0.0156384
707.984	0.0155542
708.062	0.0154005
708.140	0.0154217
708.218	0.0154355
708.296	0.0152944
708.374	0.0153918
708.453	0.0152799
708.531	0.0152289
708.609	0.0154386
708.687	0.0153336
708.765	0.0151491
708.843	0.0152615
708.921	0.0154023
708.999	0.0153322
709.078	0.0152953
709.156	0.0151991
709.234	0.0152316
709.312	0.0154397
709.390	0.0152144
709.468	0.0151285
709.546	0.0152339
709.624	0.0154089
709.703	0.0153661
709.781	0.0152151
709.859	0.0153506
709.937	0.0153440
710.015	0.0154889
710.093	0.0155254
710.171	0.0156227
710.249	0.0154849
710.328	0.0155549
710.406	0.0155164
710.484	0.0156397
710.562	0.0156464
710.640	0.0157226
710.718	0.0156732
710.796	0.0157256
710.874	0.0156223
710.953	0.0156993
711.031	0.0156510
711.109	0.0157028
711.187	0.0157314
711.265	0.0156214
711.343	0.0156554
711.421	0.0155887
711.499	0.0156110
711.578	0.0155885
711.656	0.0154693
711.734	0.0154096
711.812	0.0154729
711.890	0.0153987
711.968	0.0154145
712.046	0.0154495
712.124	0.0153737
712.203	0.0153532
712.281	0.0153126
712.359	0.0153445
712.437	0.0153046
712.515	0.0153057
712.593	0.0153223
712.671	0.0153826
712.749	0.0153576
712.828	0.0153047
712.906	0.0152367
712.984	0.0153297
713.062	0.0152193
713.140	0.0151525
713.218	0.0152891
713.296	0.0153879
713.374	0.0152814
713.453	0.0152724
713.531	0.0155122
713.609	0.0154993
713.687	0.0154070
713.765	0.0154556
713.843	0.0155782
713.921	0.0154681
713.999	0.0156867
714.078	0.0154145
714.156	0.0155520
714.234	0.0155428
714.312	0.0156289
714.390	0.0155946
714.468	0.0155502
714.546	0.0156454
714.624	0.0155094
714.703	0.0154639
714.781	0.0155452
714.859	0.0156487
714.937	0.0155054
715.015	0.0156708
715.093	0.0155327
715.171	0.0155506
715.249	0.0154789
715.328	0.0155425
715.406	0.0156389
715.484	0.0155904
715.562	0.0156210
715.640	0.0155777
715.718	0.0154270
715.796	0.0156005
715.874	0.0155604
715.953	0.0154720
716.031	0.0154727
716.109	0.0155065
716.187	0.0155558
716.265	0.0155226
716.343	0.0154215
716.421	0.0154303
716.499	0.0152917
716.578	0.0154292
716.656	0.0153317
716.734	0.0154238
716.812	0.0153196
716.890	0.0152616
716.968	0.0153722
717.046	0.0154469
717.124	0.0153992
717.203	0.0155109
717.281	0.0154397
717.359	0.0155348
717.437	0.0155246
717.515	0.0153519
717.593	0.0155900
717.671	0.0155825
717.749	0.0154408
717.828	0.0154903
717.906	0.0154425
717.984	0.0154662
718.062	0.0154568
718.140	0.0155539
718.218	0.0155760
718.296	0.0156403
718.374	0.0153873
718.453	0.0156224
718.531	0.0156465
718.609	0.0156454
718.687	0.0155701
718.765	0.0157171
718.843	0.0156943
718.921	0.0154401
718.999	0.0155546
719.078	0.0154847
719.156	0.0156368
719.234	0.0155377
719.312	0.0154929
719.390	0.0155735
719.468	0.0154783
719.546	0.0154306
719.624	0.0155843
719.703	0.0154382
719.781	0.0156299
719.859	0.0154240
719.937	0.0153561
720.015	0.0154353
720.093	0.0153799
720.171	0.0154272
720.249	0.0154043
720.328	0.0154712
720.406	0.0154093
720.484	0.0153111
720.562	0.0154192
720.640	0.0155350
720.718	0.0154346
720.796	0.0153712
720.874	0.0154299
720.953	0.0155366
721.031	0.0155051
721.109	0.0155653
721.187	0.0155855
721.265	0.0155013
721.343	0.0154304
721.421	0.0155386
721.499	0.0155392
721.578	0.0155000
721.656	0.0155720
721.734	0.0155086
721.812	0.0154795
721.890	0.0155828
721.968	0.0154966
722.046	0.0155650
722.124	0.0155120
722.203	0.0155031
722.281	0.0156540
722.359	0.0155950
722.437	0.0155885
722.515	0.0154536
722.593	0.0154516
722.671	0.0157020
722.749	0.0156599
722.828	0.0155483
722.906	0.0154734
722.984	0.0154700
723.062	0.0154275
723.140	0.0155144
723.218	0.0155670
723.296	0.0154081
723.374	0.0156084
723.453	0.0154913
723.531	0.0155862
723.609	0.0155669
723.687	0.0155299
723.765	0.0155924
723.843	0.0156142
723.921	0.0156163
723.999	0.0154659
724.078	0.0153384
724.156	0.0156332
724.234	0.0156856
724.312	0.0156099
724.390	0.0155894
724.468	0.0155795
724.546	0.0154514
724.624	0.0154518
724.703	0.0155666
724.781	0.0155319
724.859	0.0155906
724.937	0.0156331
725.015	0.0156935
725.093	0.0153612
725.171	0.0154740
725.249	0.0154912
725.328	0.0154327
725.406	0.0154532
725.484	0.0155341
725.562	0.0154910
725.640	0.0153580
725.718	0.0155138
725.796	0.0153700
725.874	0.0153590
725.953	0.0152598
726.031	0.0155567
726.109	0.0154857
726.187	0.0152087
726.265	0.0154658
726.343	0.0154250
726.421	0.0153436
726.499	0.0153027
726.578	0.0153870
726.656	0.0155567
726.734	0.0154600
726.812	0.0156180
726.890	0.0155859
726.968	0.0154728
727.046	0.0155550
727.124	0.0155743
727.203	0.0155466
727.281	0.0156232
727.359	0.0155659
727.437	0.0155322
727.515	0.0155079
727.593	0.0157401
727.671	0.0156248
727.749	0.0155694
727.828	0.0156187
727.906	0.0155222
727.984	0.0154462
728.062	0.0155469
728.140	0.0154395
728.218	0.0153762
728.296	0.0155247
728.374	0.0154063
728.453	0.0155247
728.531	0.0154569
728.609	0.0153329
728.687	0.0154295
728.765	0.0152902
728.843	0.0154145
728.921	0.0154879
728.999	0.0155510
729.078	0.0154835
729.156	0.0154837
729.234	0.0154820
729.312	0.0155871
729.390	0.0155833
729.468	0.0155089
729.546	0.0155414
729.624	0.0156647
729.703	0.0155544
729.781	0.0156124
729.859	0.0154852
729.937	0.0153979
730.015	0.0153815
730.093	0.0155641
730.171	0.0156480
730.249	0.0156487
730.328	0.0154961
730.406	0.0152293
730.484	0.0154977
730.562	0.0155431
730.640	0.0155367
730.718	0.0155985
730.796	0.0154961
730.874	0.0152719
730.953	0.0154568
731.031	0.0155368
731.109	0.0154462
731.187	0.0156036
731.265	0.0156506
731.343	0.0154861
731.421	0.0155148
731.499	0.0156203
731.578	0.0155412
731.656	0.0154781
731.734	0.0155729
731.812	0.0155070
731.890	0.0154948
731.968	0.0154910
732.046	0.0156107
732.124	0.0156403
732.203	0.0155347
732.281	0.0154218
732.359	0.0154786
732.437	0.0153561
732.515	0.0156444
732.593	0.0155132
732.671	0.0154993
732.749	0.0155579
732.828	0.0154640
732.906	0.0154575
732.984	0.0157167
733.062	0.0155015
733.140	0.0155518
733.218	0.0156046
733.296	0.0156313
733.374	0.0155445
733.453	0.0155656
733.531	0.0156025
733.609	0.0154285
733.687	0.0153497
733.765	0.0154549
733.843	0.0154932
733.921	0.0154788
733.999	0.0154317
734.078	0.0154419
734.156	0.0153038
734.234	0.0153989
734.312	0.0154472
734.390	0.0155129
734.468	0.0153423
734.546	0.0155095
734.624	0.0156088
734.703	0.0155088
734.781	0.0154565
734.859	0.0153213
734.937	0.0154183
735.015	0.0155252
735.093	0.0156317
735.171	0.0154662
735.249	0.0154114
735.328	0.0156505
735.406	0.0155519
735.484	0.0155158
735.562	0.0155088
735.640	0.0154697
735.718	0.0156593
735.796	0.0155975
735.874	0.0155941
735.953	0.0155248
736.031	0.0156318
736.109	0.0155552
736.187	0.0154103
736.265	0.0155570
736.343	0.0155295
736.421	0.0154740
736.499	0.0155414
736.578	0.0156126
736.656	0.0155328
736.734	0.0154276
736.812	0.0155859
736.890	0.0157381
736.968	0.0156471
737.046	0.0155573
737.124	0.0155437
737.203	0.0156228
737.281	0.0155676
737.359	0.0154273
737.437	0.0154130
737.515	0.0154939
737.593	0.0154581
737.671	0.0153812
737.749	0.0154084
737.828	0.0154333
737.906	0.0153488
737.984	0.0152957
738.062	0.0153947
738.140	0.0154482
738.218	0.0154887
738.296	0.0154414
738.374	0.0153199
738.453	0.0153973
738.531	0.0156309
738.609	0.0155547
738.687	0.0156078
738.765	0.0156213
738.843	0.0155688
738.921	0.0155652
738.999	0.0155459
739.078	0.0157208
739.156	0.0156953
739.234	0.0154000
739.312	0.0154913
739.390	0.0156870
739.468	0.0154782
739.546	0.0155412
739.624	0.0154676
739.703	0.0155800
739.781	0.0155902
739.859	0.0154377
739.937	0.0154253
740.015	0.0154839
740.093	0.0155833
740.171	0.0155272
740.249	0.0154869
740.328	0.0154225
740.406	0.0155521
740.484	0.0154573
740.562	0.0153806
740.640	0.0155010
740.718	0.0153883
740.796	0.0155676
740.874	0.0154349
740.953	0.0153631
741.031	0.0155429
741.109	0.0154745
741.187	0.0155457
741.265	0.0154991
741.343	0.0153957
741.421	0.0154874
741.499	0.0154995
741.578	0.0154295
741.656	0.0153596
741.734	0.0155013
741.812	0.0155869
741.890	0.0155746
741.968	0.0155212
742.046	0.0155216
742.124	0.0154597
742.203	0.0154459
742.281	0.0155518
742.359	0.0156396
742.437	0.0156023
742.515	0.0155912
742.593	0.0155688
742.671	0.0155203
742.749	0.0155632
742.828	0.0155400
742.906	0.0155618
742.984	0.0155972
743.062	0.0155472
743.140	0.0157027
743.218	0.0154476
743.296	0.0156207
743.374	0.0156759
743.453	0.0155582
743.531	0.0155124
743.609	0.0156583
743.687	0.0155370
743.765	0.0154536
743.843	0.0153165
743.921	0.0153429
743.999	0.0154758
744.078	0.0155045
744.156	0.0154613
744.234	0.0154601
744.312	0.0156631
744.390	0.0154317
744.468	0.0154808
744.546	0.0155710
744.624	0.0156571
744.703	0.0156476
744.781	0.0155737
744.859	0.0154826
744.937	0.0154706
745.015	0.0154385
745.093	0.0155185
745.171	0.0155038
745.249	0.0154527
745.328	0.0154407
745.406	0.0154539
745.484	0.0154931
745.562	0.0154152
745.640	0.0154932
745.718	0.0154626
745.796	0.0155236
745.874	0.0152527
745.953	0.0154896
746.031	0.0156800
746.109	0.0156216
746.187	0.0154388
746.265	0.0155718
746.343	0.0155719
746.421	0.0157137
746.499	0.0156718
746.578	0.0156819
746.656	0.0156110
746.734	0.0155961
746.812	0.0156722
746.890	0.0156790
746.968	0.0154956
747.046	0.0155611
747.124	0.0155060
747.203	0.0156276
747.281	0.0155673
747.359	0.0155835
747.437	0.0156388
747.515	0.0154674
747.593	0.0154960
747.671	0.0154355
747.749	0.0155106
747.828	0.0154769
747.906	0.0154539
747.984	0.0154404
748.062	0.0153302
748.140	0.0154362
748.218	0.0154315
748.296	0.0154613
748.374	0.0152724
748.453	0.0154066
748.531	0.0154585
748.609	0.0154121
748.687	0.0153522
748.765	0.0153617
748.843	0.0154615
748.921	0.0153848
748.999	0.0153755
749.078	0.0153981
749.156	0.0153785
749.234	0.0154792
749.312	0.0153817
749.390	0.0155105
749.468	0.0153505
749.546	0.0154874
749.624	0.0154589
749.703	0.0155257
749.781	0.0156652
749.859	0.0156262
749.937	0.0155561
750.015	0.0154181
750.093	0.0157010
750.171	0.0156171
750.249	0.0154996
750.328	0.0156570
750.406	0.0156507
750.484	0.0156300
750.562	0.0157446
750.640	0.0155714
750.718	0.0157122
750.796	0.0158036
750.874	0.0157571
750.953	0.0155305
751.031	0.0158040
751.109	0.0156100
751.187	0.0156522
751.265	0.0155987
751.343	0.0156615
751.421	0.0155923
751.499	0.0155729
751.578	0.0155514
751.656	0.0157012
751.734	0.0156206
751.812	0.0155794
751.890	0.0156977
751.968	0.0155513
752.046	0.0155255
752.124	0.0156414
752.203	0.0155707
752.281	0.0154845
752.359	0.0155360
752.437	0.0155766
752.515	0.0154623
752.593	0.0154274
752.671	0.0153606
752.749	0.0152884
752.828	0.0154174
752.906	0.0155119
752.984	0.0153384
753.062	0.0151611
753.140	0.0152831
753.218	0.0154126
753.296	0.0153184
753.374	0.0152073
753.453	0.0153767
753.531	0.0153811
753.609	0.0153348
753.687	0.0155210
753.765	0.0154088
753.843	0.0155165
753.921	0.0155362
753.999	0.0154149
754.078	0.0154583
754.156	0.0156950
754.234	0.0156821
754.312	0.0155732
754.390	0.0157844
754.468	0.0155818
754.546	0.0154945
754.624	0.0157139
754.703	0.0156921
754.781	0.0156024
754.859	0.0156009
754.937	0.0156666
755.015	0.0154255
755.093	0.0155514
755.171	0.0157065
755.249	0.0156309
755.328	0.0156621
755.406	0.0155721
755.484	0.0155512
755.562	0.0156504
755.640	0.0156479
755.718	0.0157929
755.796	0.0156818
755.874	0.0156303
755.953	0.0155446
756.031	0.0155107
756.109	0.0152995
756.187	0.0153984
756.265	0.0154385
756.343	0.0154568
756.421	0.0153831
756.499	0.0154427
756.578	0.0153205
756.656	0.0153231
756.734	0.0153122
756.812	0.0152651
756.890	0.0151892
756.968	0.0153411
757.046	0.0153088
757.124	0.0153384
757.203	0.0152567
757.281	0.0152818
757.359	0.0154859
757.437	0.0152949
757.515	0.0154848
757.593	0.0155163
757.671	0.0155441
757.749	0.0156406
757.828	0.0156174
757.906	0.0156967
757.984	0.0156177
758.062	0.0156658
758.140	0.0157241
758.218	0.0156892
758.296	0.0156895
758.374	0.0158337
758.453	0.0156597
758.531	0.0156680
758.609	0.0156385
758.687	0.0155692
758.765	0.0155523
758.843	0.0155598
758.921	0.0155074
758.999	0.0155412
759.078	0.0154277
759.156	0.0154943
759.234	0.0154430
759.312	0.0154060
759.390	0.0154591
759.468	0.0154633
759.546	0.0154102
759.624	0.0154815
759.703	0.0154445
759.781	0.0155470
759.859	0.0157365
759.937	0.0155356
760.015	0.0156059
760.093	0.0155117
760.171	0.0155455
760.249	0.0156544
760.328	0.0155309
760.406	0.0154746
760.484	0.0155224
760.562	0.0155420
760.640	0.0154862
760.718	0.0154284
760.796	0.0154427
760.874	0.0153461
760.953	0.0153133
761.031	0.0153887
761.109	0.0152441
761.187	0.0153654
761.265	0.0154192
761.343	0.0154596
761.421	0.0153870
761.499	0.0153049
761.578	0.0154440
761.656	0.0155165
761.734	0.0156152
761.812	0.0157071
761.890	0.0155093
761.968	0.0158169
762.046	0.0156032
762.124	0.0158148
762.203	0.0157655
762.281	0.0157818
762.359	0.0157188
762.437	0.0157475
762.515	0.0156592
762.593	0.0156799
762.671	0.0157140
762.749	0.0156649
762.828	0.0155514
762.906	0.0154575
762.984	0.0154935
763.062	0.0155410
763.140	0.0154568
763.218	0.0154577
763.296	0.0154380
763.374	0.0153899
763.453	0.0153712
763.531	0.0152015
763.609	0.0154254
763.687	0.0153648
763.765	0.0153114
763.843	0.0154311
763.921	0.0152730
763.999	0.0153994
764.078	0.0155164
764.156	0.0152806
764.234	0.0153680
764.312	0.0153056
764.390	0.0154177
764.468	0.0153293
764.546	0.0154240
764.624	0.0153667
764.703	0.0153659
764.781	0.0153401
764.859	0.0153627
764.937	0.0153397
765.015	0.0154297
765.093	0.0154586
765.171	0.0154462
765.249	0.0154311
765.328	0.0154522
765.406	0.0154298
765.484	0.0155048
765.562	0.0155585
765.640	0.0155029
765.718	0.0155585
765.796	0.0154414
765.874	0.0154035
765.953	0.0153907
766.031	0.0154506
766.109	0.0156110
766.187	0.0155213
766.265	0.0155623
766.343	0.0155223
766.421	0.0154884
766.499	0.0154902
766.578	0.0157388
766.656	0.0155714
766.734	0.0155625
766.812	0.0156701
766.890	0.0156535
766.968	0.0155183
767.046	0.0156069
767.124	0.0154345
767.203	0.0153767
767.281	0.0153380
767.359	0.0154084
767.437	0.0155404
767.515	0.0153332
767.593	0.0154004
767.671	0.0151791
767.749	0.0153172
767.828	0.0152943
767.906	0.0152531
767.984	0.0151925
768.062	0.0151151
768.140	0.0150735
768.218	0.0151858
768.296	0.0151714
768.374	0.0153798
768.453	0.0153235
768.531	0.0151006
768.609	0.0153597
768.687	0.0153967
768.765	0.0153080
768.843	0.0153675
768.921	0.0153091
768.999	0.0155095
769.078	0.0153478
769.156	0.0155823
769.234	0.0155498
769.312	0.0154926
769.390	0.0154996
769.468	0.0155018
769.546	0.0155895
769.624	0.0155324
769.703	0.0155918
769.781	0.0154741
769.859	0.0156543
769.937	0.0154738
770.015	0.0154945
770.093	0.0154481
770.171	0.0155099
770.249	0.0154382
770.328	0.0155148
770.406	0.0155251
770.484	0.0154105
770.562	0.0155953
770.640	0.0155680
770.718	0.0156622
770.796	0.0155468
770.874	0.0156647
770.953	0.0154594
771.031	0.0155469
771.109	0.0156982
771.187	0.0156740
771.265	0.0155445
771.343	0.0155215
771.421	0.0155178
771.499	0.0154369
771.578	0.0152922
771.656	0.0153488
771.734	0.0153741
771.812	0.0153594
771.890	0.0153260
771.968	0.0152572
772.046	0.0151733
772.124	0.0151930
772.203	0.0152721
772.281	0.0154518
772.359	0.0153661
772.437	0.0154059
772.515	0.0153465
772.593	0.0154713
772.671	0.0155315
772.749	0.0154937
772.828	0.0153770
772.906	0.0155627
772.984	0.0156091
773.062	0.0155186
773.140	0.0156165
773.218	0.0156957
773.296	0.0158064
773.374	0.0157916
773.453	0.0156102
773.531	0.0156487
773.609	0.0157259
773.687	0.0155556
773.765	0.0156370
773.843	0.0156474
773.921	0.0155609
773.999	0.0155515
774.078	0.0155019
774.156	0.0153781
774.234	0.0156478
774.312	0.0154401
774.390	0.0155518
774.468	0.0153379
774.546	0.0154046
774.624	0.0153208
774.703	0.0154706
774.781	0.0154449
774.859	0.0154713
774.937	0.0153808
775.015	0.0153979
775.093	0.0153671
775.171	0.0153833
775.249	0.0153918
775.328	0.0154297
775.406	0.0154048
775.484	0.0153695
775.562	0.0152858
775.640	0.0153616
775.718	0.0155047
775.796	0.0153295
775.874	0.0154887
775.953	0.0154418
776.031	0.0153866
776.109	0.0153475
776.187	0.0153294
776.265	0.0153726
776.343	0.0153609
776.421	0.0154058
776.499	0.0154877
776.578	0.0154266
776.656	0.0153565
776.734	0.0153324
776.812	0.0152995
776.890	0.0153421
776.968	0.0154327
777.046	0.0153339
777.124	0.0153948
777.203	0.0153683
777.281	0.0154165
777.359	0.0154790
777.437	0.0156343
777.515	0.0156431
777.593	0.0157561
777.671	0.0156409
777.749	0.0157571
777.828	0.0155082
777.906	0.0155585
777.984	0.0157139
778.062	0.0158250
778.140	0.0156994
778.218	0.0156714
778.296	0.0156290
778.374	0.0156577
778.453	0.0156448
778.531	0.0154759
778.609	0.0154401
778.687	0.0154447
778.765	0.0155511
778.843	0.0153217
778.921	0.0153515
778.999	0.0153454
779.078	0.0152180
779.156	0.0152962
779.234	0.0153531
779.312	0.0150526
779.390	0.0151326
779.468	0.0153799
779.546	0.0154424
779.624	0.0153849
779.703	0.0155212
779.781	0.0155648
779.859	0.0154300
779.937	0.0156667
780.015	0.0156326
780.093	0.0155820
780.171	0.0156274
780.249	0.0156658
780.328	0.0156345
780.406	0.0157027
780.484	0.0155800
780.562	0.0154230
780.640	0.0154741
780.718	0.0154779
780.796	0.0153057
780.874	0.0151765
780.953	0.0153540
781.031	0.0154867
781.109	0.0152253
781.187	0.0151842
781.265	0.0152991
781.343	0.0153519
781.421	0.0153419
781.499	0.0153335
781.578	0.0153674
781.656	0.0154343
781.734	0.0156809
781.812	0.0156731
781.890	0.0158116
781.968	0.0157410
782.046	0.0157790
782.124	0.0158242
782.203	0.0159464
782.281	0.0159119
782.359	0.0158953
782.437	0.0158662
782.515	0.0155740
782.593	0.0155943
782.671	0.0155689
782.749	0.0154155
782.828	0.0153990
782.906	0.0152614
782.984	0.0153796
783.062	0.0151896
783.140	0.0152589
783.218	0.0152669
783.296	0.0150835
783.374	0.0151692
783.453	0.0152319
783.531	0.0153134
783.609	0.0151978
783.687	0.0153037
783.765	0.0154291
783.843	0.0154414
783.921	0.0153850
783.999	0.0156462
784.078	0.0154583
784.156	0.0155724
784.234	0.0156986
784.312	0.0156541
784.390	0.0155491
784.468	0.0156157
784.546	0.0155687
784.624	0.0154923
784.703	0.0153437
784.781	0.0153345
784.859	0.0153508
784.937	0.0154408
785.015	0.0155099
785.093	0.0154459
785.171	0.0153538
785.249	0.0153547
785.328	0.0153879
785.406	0.0154460
785.484	0.0154409
785.562	0.0154794
785.640	0.0154833
785.718	0.0154663
785.796	0.0155711
785.874	0.0156109
785.953	0.0155678
786.031	0.0154842
786.109	0.0155715
786.187	0.0156005
786.265	0.0154970
786.343	0.0153964
786.421	0.0154290
786.499	0.0154249
786.578	0.0152908
786.656	0.0154929
786.734	0.0154540
786.812	0.0153524
786.890	0.0154272
786.968	0.0153137
787.046	0.0152049
787.124	0.0152096
787.203	0.0153297
787.281	0.0153576
787.359	0.0152602
787.437	0.0150825
787.515	0.0152061
787.593	0.0152589
787.671	0.0153365
787.749	0.0153102
787.828	0.0153032
787.906	0.0152374
787.984	0.0154114
788.062	0.0154399
788.140	0.0153514
788.218	0.0154304
788.296	0.0154189
788.374	0.0154868
788.453	0.0153684
788.531	0.0154021
788.609	0.0155170
788.687	0.0153967
788.765	0.0156093
788.843	0.0155200
788.921	0.0155480
788.999	0.0153593
789.078	0.0153659
789.156	0.0153292
789.234	0.0154069
789.312	0.0154144
789.390	0.0153684
789.468	0.0155698
789.546	0.0154787
789.624	0.0154169
789.703	0.0155304
789.781	0.0154932
789.859	0.0152608
789.937	0.0154251
790.015	0.0154206
790.093	0.0154832
790.171	0.0154834
790.249	0.0154612
790.328	0.0153065
790.406	0.0154078
790.484	0.0153548
790.562	0.0153357
790.640	0.0154277
790.718	0.0153228
790.796	0.0154672
790.874	0.0154841
790.953	0.0153124
791.031	0.0153185
791.109	0.0154579
791.187	0.0155059
791.265	0.0155921
791.343	0.0155198
791.421	0.0154874
791.499	0.0153764
791.578	0.0155192
791.656	0.0156586
791.734	0.0153838
791.812	0.0154684
791.890	0.0154276
791.968	0.0153249
792.046	0.0152785
792.124	0.0151578
792.203	0.0153831
792.281	0.0152148
792.359	0.0152662
792.437	0.0153075
792.515	0.0152783
792.593	0.0152908
792.671	0.0154086
792.749	0.0153241
792.828	0.0153779
792.906	0.0155364
792.984	0.0155209
793.062	0.0155724
793.140	0.0156329
793.218	0.0156259
793.296	0.0155829
793.374	0.0156464
793.453	0.0155737
793.531	0.0155945
793.609	0.0155617
793.687	0.0154695
793.765	0.0155952
793.843	0.0153461
793.921	0.0153828
793.999	0.0153644
794.078	0.0153365
794.156	0.0152606
794.234	0.0153407
794.312	0.0150961
794.390	0.0151709
794.468	0.0154485
794.546	0.0153516
794.624	0.0152283
794.703	0.0153162
794.781	0.0153915
794.859	0.0154079
794.937	0.0155045
795.015	0.0154208
795.093	0.0155320
795.171	0.0155544
795.249	0.0154224
795.328	0.0155202
795.406	0.0155174
795.484	0.0154977
795.562	0.0155203
795.640	0.0153373
795.718	0.0153294
795.796	0.0154256
795.874	0.0153999
795.953	0.0153079
796.031	0.0152780
796.109	0.0152871
796.187	0.0152723
796.265	0.0153978
796.343	0.0153870
796.421	0.0153994
796.499	0.0152966
796.578	0.0154111
796.656	0.0154474
796.734	0.0155215
796.812	0.0155637
796.890	0.0156223
796.968	0.0155840
797.046	0.0155315
797.124	0.0157364
797.203	0.0156029
797.281	0.0156664
797.359	0.0155946
797.437	0.0155222
797.515	0.0156118
797.593	0.0155331
797.671	0.0155853
797.749	0.0155089
797.828	0.0154249
797.906	0.0155251
797.984	0.0154646
798.062	0.0154590
798.140	0.0154687
798.218	0.0155869
798.296	0.0153357
798.374	0.0153990
798.453	0.0153201
798.531	0.0153853
798.609	0.0154596
798.687	0.0154198
798.765	0.0153935
798.843	0.0154243
798.921	0.0155347
798.999	0.0155564
799.078	0.0154565
799.156	0.0154584
799.234	0.0156570
799.312	0.0154977
799.390	0.0154247
799.468	0.0155284
799.546	0.0155347
799.624	0.0155505
799.703	0.0154396
799.781	0.0155927
799.859	0.0154543
799.937	0.0154188
800.015	0.0154256
800.093	0.0153831
800.171	0.0154593
800.249	0.0154715
800.328	0.0152908
800.406	0.0154080
800.484	0.0153859
800.562	0.0154142
800.640	0.0156493
800.718	0.0154450
800.796	0.0155511
800.874	0.0155351
800.953	0.0155571
801.031	0.0155340
801.109	0.0154671
801.187	0.0155235
801.265	0.0154852
801.343	0.0155360
801.421	0.0154893
801.499	0.0154815
801.578	0.0154743
801.656	0.0154762
801.734	0.0153371
801.812	0.0153401
801.890	0.0153724
801.968	0.0153667
802.046	0.0153423
802.124	0.0153561
802.203	0.0153999
802.281	0.0152763
802.359	0.0155154
802.437	0.0154895
802.515	0.0155192
802.593	0.0156123
802.671	0.0155725
802.749	0.0157028
802.828	0.0157139
802.906	0.0155695
802.984	0.0155911
803.062	0.0155437
803.140	0.0154269
803.218	0.0155793
803.296	0.0156084
803.374	0.0154493
803.453	0.0154569
803.531	0.0154813
803.609	0.0155204
803.687	0.0153327
803.765	0.0154732
803.843	0.0153770
803.921	0.0153903
803.999	0.0154060
804.078	0.0154807
804.156	0.0154324
804.234	0.0154414
804.312	0.0154267
804.390	0.0154746
804.468	0.0155821
804.546	0.0153651
804.624	0.0155048
804.703	0.0154731
804.781	0.0154917
804.859	0.0154652
804.937	0.0155481
805.015	0.0153653
805.093	0.0153554
805.171	0.0153128
805.249	0.0153641
805.328	0.0154635
805.406	0.0153745
805.484	0.0153160
805.562	0.0153279
805.640	0.0152390
805.718	0.0153514
805.796	0.0152245
805.874	0.0153830
805.953	0.0153145
806.031	0.0155457
806.109	0.0155080
806.187	0.0154207
806.265	0.0154413
806.343	0.0156000
806.421	0.0155411
806.499	0.0155101
806.578	0.0155312
806.656	0.0155635
806.734	0.0154451
806.812	0.0155506
806.890	0.0155734
806.968	0.0155743
807.046	0.0154917
807.124	0.0155034
807.203	0.0153765
807.281	0.0154732
807.359	0.0155081
807.437	0.0153990
807.515	0.0153892
807.593	0.0153859
807.671	0.0155119
807.749	0.0154000
807.828	0.0154119
807.906	0.0153196
807.984	0.0154626
808.062	0.0154858
808.140	0.0153408
808.218	0.0155734
808.296	0.0154208
808.374	0.0154369
808.453	0.0155070
808.531	0.0154604
808.609	0.0153808
808.687	0.0154521
808.765	0.0155187
808.843	0.0156776
808.921	0.0155010
808.999	0.0153314
809.078	0.0153644
809.156	0.0153908
809.234	0.0154507
809.312	0.0154306
809.390	0.0152389
809.468	0.0154129
809.546	0.0152916
809.624	0.0154234
809.703	0.0153934
809.781	0.0153025
809.859	0.0153426
809.937	0.0154179
810.015	0.0154870
810.093	0.0155266
810.171	0.0154324
810.249	0.0155015
810.328	0.0155435
810.406	0.0155989
810.484	0.0154685
810.562	0.0153981
810.640	0.0155744
810.718	0.0155457
810.796	0.0153686
810.874	0.0153600
810.953	0.0153761
811.031	0.0155298
811.109	0.0153396
811.187	0.0152668
811.265	0.0154655
811.343	0.0154892
811.421	0.0153982
811.499	0.0153980
811.578	0.0153663
811.656	0.0155481
811.734	0.0153725
811.812	0.0153265
811.890	0.0155536
811.968	0.0155894
812.046	0.0156129
812.124	0.0155672
812.203	0.0155719
812.281	0.0157662
812.359	0.0155361
812.437	0.0156282
812.515	0.0156745
812.593	0.0155851
812.671	0.0153876
812.749	0.0155171
812.828	0.0154974
812.906	0.0155746
812.984	0.0154327
813.062	0.0154598
813.140	0.0153948
813.218	0.0153866
813.296	0.0153658
813.374	0.0156089
813.453	0.0155588
813.531	0.0155932
813.609	0.0155202
813.687	0.0155940
813.765	0.0155873
813.843	0.0155486
813.921	0.0156228
813.999	0.0155614
814.078	0.0155985
814.156	0.0156159
814.234	0.0155119
814.312	0.0156840
814.390	0.0155849
814.468	0.0155037
814.546	0.0154677
814.624	0.0154768
814.703	0.0155317
814.781	0.0154345
814.859	0.0155479
814.937	0.0152913
815.015	0.0153786
815.093	0.0153609
815.171	0.0154005
815.249	0.0153703
815.328	0.0152855
815.406	0.0154306
815.484	0.0154638
815.562	0.0154264
815.640	0.0155265
815.718	0.0156004
815.796	0.0156184
815.874	0.0155524
815.953	0.0154514
816.031	0.0156010
816.109	0.0156660
816.187	0.0156180
816.265	0.0154934
816.343	0.0155549
816.421	0.0155508
816.499	0.0154671
816.578	0.0154586
816.656	0.0154353
816.734	0.0154826
816.812	0.0155163
816.890	0.0155088
816.968	0.0154588
817.046	0.0155904
817.124	0.0154932
817.203	0.0154030
817.281	0.0154511
817.359	0.0154401
817.437	0.0154485
817.515	0.0154980
817.593	0.0155721
817.671	0.0154729
817.749	0.0155090
817.828	0.0155421
817.906	0.0156057
817.984	0.0156168
818.062	0.0155930
818.140	0.0153822
818.218	0.0155511
818.296	0.0154720
818.374	0.0154460
818.453	0.0154552
818.531	0.0155473
818.609	0.0154157
818.687	0.0154309
818.765	0.0153915
818.843	0.0155468
818.921	0.0155373
818.999	0.0154330
819.078	0.0153618
819.156	0.0153981
819.234	0.0154752
819.312	0.0154966
819.390	0.0154659
819.468	0.0155872
819.546	0.0156297
819.624	0.0156448
819.703	0.0154831
819.781	0.0156695
819.859	0.0155228
819.937	0.0156773
820.015	0.0155216
820.093	0.0155017
820.171	0.0154430
820.249	0.0155341
820.328	0.0155340
820.406	0.0155605
820.484	0.0156085
820.562	0.0155083
820.640	0.0154759
820.718	0.0155352
820.796	0.0155131
820.874	0.0155005
820.953	0.0154662
821.031	0.0155774
821.109	0.0156042
821.187	0.0155206
821.265	0.0154646
821.343	0.0155721
821.421	0.0154250
821.499	0.0155039
821.578	0.0156271
821.656	0.0155373
821.734	0.0156199
821.812	0.0155656
821.890	0.0153604
821.968	0.0155443
822.046	0.0156100
822.124	0.0154007
822.203	0.0154082
822.281	0.0155334
822.359	0.0155071
822.437	0.0155156
822.515	0.0154895
822.593	0.0154473
822.671	0.0155392
822.749	0.0155193
822.828	0.0153855
822.906	0.0155196
822.984	0.0155471
823.062	0.0154067
823.140	0.0154156
823.218	0.0154647
823.296	0.0154849
823.374	0.0152548
823.453	0.0152687
823.531	0.0154330
823.609	0.0155428
823.687	0.0154356
823.765	0.0154632
823.843	0.0155335
823.921	0.0153971
823.999	0.0153767
824.078	0.0154658
824.156	0.0156512
824.234	0.0154562
824.312	0.0156441
824.390	0.0154640
824.468	0.0154681
824.546	0.0155333
824.624	0.0154504
824.703	0.0155387
824.781	0.0154800
824.859	0.0155094
824.937	0.0154981
825.015	0.0155061
825.093	0.0156483
825.171	0.0156472
825.249	0.0155150
825.328	0.0155151
825.406	0.0156509
825.484	0.0156281
825.562	0.0155917
825.640	0.0156464
825.718	0.0155756
825.796	0.0155273
825.874	0.0155093
825.953	0.0156340
826.031	0.0155600
826.109	0.0155058
826.187	0.0154711
826.265	0.0154784
826.343	0.0153988
826.421	0.0155256
826.499	0.0154635
826.578	0.0153867
826.656	0.0155371
826.734	0.0155300
826.812	0.0153976
826.890	0.0153714
826.968	0.0153075
827.046	0.0153552
827.124	0.0154163
827.203	0.0154237
827.281	0.0154720
827.359	0.0155786
827.437	0.0154532
827.515	0.0154476
827.593	0.0154283
827.671	0.0155064
827.749	0.0154935
827.828	0.0155367
827.906	0.0154523
827.984	0.0154414
828.062	0.0155112
828.140	0.0155489
828.218	0.0155284
828.296	0.0155071
828.374	0.0153664
828.453	0.0153599
828.531	0.0153708
828.609	0.0154430
828.687	0.0154453
828.765	0.0153951
828.843	0.0154617
828.921	0.0153206
828.999	0.0155431
829.078	0.0154716
829.156	0.0154581
829.234	0.0153979
829.312	0.0155743
829.390	0.0156488
829.468	0.0154440
829.546	0.0156297
829.624	0.0154321
829.703	0.0155875
829.781	0.0155527
829.859	0.0154531
829.937	0.0155097
830.015	0.0154214
830.093	0.0153927
830.171	0.0154708
830.249	0.0154162
830.328	0.0154697
830.406	0.0153978
830.484	0.0154975
830.562	0.0154305
830.640	0.0154688
830.718	0.0155479
830.796	0.0154626
830.874	0.0153451
830.953	0.0153592
831.031	0.0153490
831.109	0.0153577
831.187	0.0155181
831.265	0.0155338
831.343	0.0155746
831.421	0.0155897
831.499	0.0155629
831.578	0.0155748
831.656	0.0154445
831.734	0.0154581
831.812	0.0156087
831.890	0.0155653
831.968	0.0155768
832.046	0.0155299
832.124	0.0154288
832.203	0.0155163
832.281	0.0155463
832.359	0.0155608
832.437	0.0154171
832.515	0.0154282
832.593	0.0154980
832.671	0.0154356
832.749	0.0155967
832.828	0.0155714
832.906	0.0155161
832.984	0.0155497
833.062	0.0155242
833.140	0.0155436
833.218	0.0155555
833.296	0.0156556
833.374	0.0154972
833.453	0.0153835
833.531	0.0155656
833.609	0.0156114
833.687	0.0155211
833.765	0.0154837
833.843	0.0154258
833.921	0.0153900
833.999	0.0153860
834.078	0.0154372
834.156	0.0154278
834.234	0.0153387
834.312	0.0153954
834.390	0.0152573
834.468	0.0153649
834.546	0.0153412
834.624	0.0153875
834.703	0.0152728
834.781	0.0153744
834.859	0.0155595
834.937	0.0154062
835.015	0.0154517
835.093	0.0155981
835.171	0.0155560
835.249	0.0155570
835.328	0.0153536
835.406	0.0155426
835.484	0.0155453
835.562	0.0156625
835.640	0.0155585
835.718	0.0155264
835.796	0.0155688
835.874	0.0155133
835.953	0.0154700
836.031	0.0155392
836.109	0.0154750
836.187	0.0156742
836.265	0.0155092
836.343	0.0155093
836.421	0.0156992
836.499	0.0155502
836.578	0.0155698
836.656	0.0154385
836.734	0.0155125
836.812	0.0155416
836.890	0.0155602
836.968	0.0155399
837.046	0.0155702
837.124	0.0156718
837.203	0.0156535
837.281	0.0155318
837.359	0.0154514
837.437	0.0154963
837.515	0.0154748
837.593	0.0154603
837.671	0.0153299
837.749	0.0154695
837.828	0.0154887
837.906	0.0154202
837.984	0.0153891
838.062	0.0153439
838.140	0.0155034
838.218	0.0153103
838.296	0.0154239
838.374	0.0154419
838.453	0.0154398
838.531	0.0154515
838.609	0.0155312
838.687	0.0154610
838.765	0.0155237
838.843	0.0155312
838.921	0.0156476
838.999	0.0155527
839.078	0.0155551
839.156	0.0154912
839.234	0.0154851
839.312	0.0154996
839.390	0.0153793
839.468	0.0154919
839.546	0.0155924
839.624	0.0155993
839.703	0.0154494
839.781	0.0155920
839.859	0.0156295
839.937	0.0155492
840.015	0.0156545
840.093	0.0155109
840.171	0.0155681
840.249	0.0155481
840.328	0.0154569
840.406	0.0155997
840.484	0.0157438
840.562	0.0155358
840.640	0.0156181
840.718	0.0156860
840.796	0.0155716
840.874	0.0155488
840.953	0.0155029
841.031	0.0155106
841.109	0.0156498
841.187	0.0154972
841.265	0.0155121
841.343	0.0154650
841.421	0.0154691
841.499	0.0153795
841.578	0.0152932
841.656	0.0153982
841.734	0.0154759
841.812	0.0153165
841.890	0.0153519
841.968	0.0153148
842.046	0.0153239
842.124	0.0154578
842.203	0.0154108
842.281	0.0154244
842.359	0.0154454
842.437	0.0153523
842.515	0.0153323
842.593	0.0154852
842.671	0.0155039
842.749	0.0154652
842.828	0.0153886
842.906	0.0153164
842.984	0.0154239
843.062	0.0153432
843.140	0.0154408
843.218	0.0153662
843.296	0.0154395
843.374	0.0155338
843.453	0.0154633
843.531	0.0154820
843.609	0.0155587
843.687	0.0154932
843.765	0.0154182
843.843	0.0153706
843.921	0.0152841
843.999	0.0155744
844.078	0.0155260
844.156	0.0153919
844.234	0.0154590
844.312	0.0154791
844.390	0.0154404
844.468	0.0155731
844.546	0.0155515
844.624	0.0155846
844.703	0.0155079
844.781	0.0156962
844.859	0.0157205
844.937	0.0156338
845.015	0.0155162
845.093	0.0154729
845.171	0.0154404
845.249	0.0155608
845.328	0.0155489
845.406	0.0156357
845.484	0.0154416
845.562	0.0153005
845.640	0.0154932
845.718	0.0154258
845.796	0.0154970
845.874	0.0155293
845.953	0.0155161
846.031	0.0156124
846.109	0.0155091
846.187	0.0154980
846.265	0.0155044
846.343	0.0154926
846.421	0.0155116
846.499	0.0154879
846.578	0.0154575
846.656	0.0155323
846.734	0.0154474
846.812	0.0156287
846.890	0.0155035
846.968	0.0154431
847.046	0.0155316
847.124	0.0155255
847.203	0.0154913
847.281	0.0154662
847.359	0.0154855
847.437	0.0155202
847.515	0.0154593
847.593	0.0155901
847.671	0.0155242
847.749	0.0155321
847.828	0.0155835
847.906	0.0156282
847.984	0.0155278
848.062	0.0154536
848.140	0.0154667
848.218	0.0155761
848.296	0.0154066
848.374	0.0155192
848.453	0.0154459
848.531	0.0155296
848.609	0.0155640
848.687	0.0153551
848.765	0.0154165
848.843	0.0154721
848.921	0.0154856
848.999	0.0153294
849.078	0.0153609
849.156	0.0153852
849.234	0.0154636
849.312	0.0154146
849.390	0.0155211
849.468	0.0154179
849.546	0.0154767
849.624	0.0153580
849.703	0.0154409
849.781	0.0154353
849.859	0.0153024
849.937	0.0153886
850.015	0.0154745
850.093	0.0153539
850.171	0.0153448
850.249	0.0154204
850.328	0.0153626
850.406	0.0153826
850.484	0.0153692
850.562	0.0154099
850.640	0.0153542
850.718	0.0153922
850.796	0.0154246
850.874	0.0155350
850.953	0.0154951
851.031	0.0155244
851.109	0.0154855
851.187	0.0155491
851.265	0.0157940
851.343	0.0155601
851.421	0.0155074
851.499	0.0154353
851.578	0.0156189
851.656	0.0157272
851.734	0.0156944
851.812	0.0155551
851.890	0.0155901
851.968	0.0154819
852.046	0.0156539
852.124	0.0155975
852.203	0.0155059
852.281	0.0156519
852.359	0.0155312
852.437	0.0155483
852.515	0.0156944
852.593	0.0155283
852.671	0.0156400
852.749	0.0155754
852.828	0.0155476
852.906	0.0154374
852.984	0.0156317
853.062	0.0154002
853.140	0.0154359
853.218	0.0154494
853.296	0.0153123
853.374	0.0153324
853.453	0.0154156
853.531	0.0153706
853.609	0.0154400
853.687	0.0153339
853.765	0.0153255
853.843	0.0153863
853.921	0.0153918
853.999	0.0154341
854.078	0.0154672
854.156	0.0156226
854.234	0.0154455
854.312	0.0154429
854.390	0.0154071
854.468	0.0155810
854.546	0.0155518
854.624	0.0155582
854.703	0.0155396
854.781	0.0154618
854.859	0.0153644
854.937	0.0154279
855.015	0.0155372
855.093	0.0154806
855.171	0.0154341
855.249	0.0155013
855.328	0.0155278
855.406	0.0154313
855.484	0.0154780
855.562	0.0155957
855.640	0.0154147
855.718	0.0155724
855.796	0.0155052
855.874	0.0155666
855.953	0.0155956
856.031	0.0155961
856.109	0.0154375
856.187	0.0155955
856.265	0.0154182
856.343	0.0154613
856.421	0.0155219
856.499	0.0154234
856.578	0.0152753
856.656	0.0153792
856.734	0.0153983
856.812	0.0154163
856.890	0.0153495
856.968	0.0153339
857.046	0.0154470
857.124	0.0153140
857.203	0.0153448
857.281	0.0153550
857.359	0.0152238
857.437	0.0153545
857.515	0.0154483
857.593	0.0153651
857.671	0.0154458
857.749	0.0154649
857.828	0.0152918
857.906	0.0154823
857.984	0.0154610
858.062	0.0153516
858.140	0.0155029
858.218	0.0155258
858.296	0.0155492
858.374	0.0154515
858.453	0.0154587
858.531	0.0154613
858.609	0.0155199
858.687	0.0154473
858.765	0.0153845
858.843	0.0154671
858.921	0.0154754
858.999	0.0155437
859.078	0.0154292
859.156	0.0154525
859.234	0.0154005
859.312	0.0154124
859.390	0.0155546
859.468	0.0155055
859.546	0.0156235
859.624	0.0156535
859.703	0.0153583
859.781	0.0155634
859.859	0.0156013
859.937	0.0156195
860.015	0.0156093
860.093	0.0156829
860.171	0.0157417
860.249	0.0155176
860.328	0.0155521
860.406	0.0156499
860.484	0.0156150
860.562	0.0155583
860.640	0.0155537
860.718	0.0154552
860.796	0.0154714
860.874	0.0154041
860.953	0.0152892
861.031	0.0152693
861.109	0.0153580
861.187	0.0152771
861.265	0.0154907
861.343	0.0153923
861.421	0.0152876
861.499	0.0153916
861.578	0.0154691
861.656	0.0153435
861.734	0.0154542
861.812	0.0155247
861.890	0.0154610
861.968	0.0154361
862.046	0.0153946
862.124	0.0154192
862.203	0.0154858
862.281	0.0155364
862.359	0.0153976
862.437	0.0154258
862.515	0.0155827
862.593	0.0154311
862.671	0.0154868
862.749	0.0154809
862.828	0.0154362
862.906	0.0155553
862.984	0.0155870
863.062	0.0155366
863.140	0.0155353
863.218	0.0155811
863.296	0.0154748
863.374	0.0157535
863.453	0.0156306
863.531	0.0154484
863.609	0.0157150
863.687	0.0157325
863.765	0.0155404
863.843	0.0156548
863.921	0.0155825
863.999	0.0155530
864.078	0.0156242
864.156	0.0155853
864.234	0.0155656
864.312	0.0155996
864.390	0.0155225
864.468	0.0155989
864.546	0.0155557
864.624	0.0154331
864.703	0.0154291
864.781	0.0153413
864.859	0.0155259
864.937	0.0153669
865.015	0.0154753
865.093	0.0154982
865.171	0.0154142
865.249	0.0154179
865.328	0.0153927
865.406	0.0154321
865.484	0.0154945
865.562	0.0153448
865.640	0.0154069
865.718	0.0153689
865.796	0.0154021
865.874	0.0153072
865.953	0.0153948
866.031	0.0153287
866.109	0.0153830
866.187	0.0155029
866.265	0.0153947
866.343	0.0154267
866.421	0.0153152
866.499	0.0153818
866.578	0.0154174
866.656	0.0153145
866.734	0.0154568
866.812	0.0155228
866.890	0.0155643
866.968	0.0154169
867.046	0.0155436
867.124	0.0154709
867.203	0.0155249
867.281	0.0156184
867.359	0.0155443
867.437	0.0154829
867.515	0.0155386
867.593	0.0155997
867.671	0.0156261
867.749	0.0155356
867.828	0.0155174
867.906	0.0154947
867.984	0.0154792
868.062	0.0153801
868.140	0.0155206
868.218	0.0155582
868.296	0.0155368
868.374	0.0154800
868.453	0.0154285
868.531	0.0154248
868.609	0.0154414
868.687	0.0153048
868.765	0.0154530
868.843	0.0153525
868.921	0.0154576
868.999	0.0155241
869.078	0.0153674
869.156	0.0153145
869.234	0.0153534
869.312	0.0153287
869.390	0.0153909
869.468	0.0153123
869.546	0.0153819
869.624	0.0153566
869.703	0.0153262
869.781	0.0153432
869.859	0.0153430
869.937	0.0152129
870.015	0.0152265
870.093	0.0153654
870.171	0.0153717
870.249	0.0153040
870.328	0.0153954
870.406	0.0154932
870.484	0.0155482
870.562	0.0153698
870.640	0.0156686
870.718	0.0154822
870.796	0.0154302
870.874	0.0156965
870.953	0.0154338
871.031	0.0154586
871.109	0.0154898
871.187	0.0156528
871.265	0.0155292
871.343	0.0155880
871.421	0.0155798
871.499	0.0154987
871.578	0.0154963
871.656	0.0156441
871.734	0.0155409
871.812	0.0155794
871.890	0.0155979
871.968	0.0155254
872.046	0.0155156
872.124	0.0154505
872.203	0.0152945
872.281	0.0154846
872.359	0.0155038
872.437	0.0155277
872.515	0.0155299
872.593	0.0154746
872.671	0.0155046
872.749	0.0154652
872.828	0.0154317
872.906	0.0155215
872.984	0.0156019
873.062	0.0155040
873.140	0.0155911
873.218	0.0155278
873.296	0.0153964
873.374	0.0154993
873.453	0.0153944
873.531	0.0154960
873.609	0.0154516
873.687	0.0155981
873.765	0.0153847
873.843	0.0153661
873.921	0.0153407
873.999	0.0154826
874.078	0.0154102
874.156	0.0154550
874.234	0.0155993
874.312	0.0154428
874.390	0.0155457
874.468	0.0154116
874.546	0.0154396
874.624	0.0154336
874.703	0.0154816
874.781	0.0155170
874.859	0.0156050
874.937	0.0155364
875.015	0.0155834
875.093	0.0155867
875.171	0.0154276
875.249	0.0156058
875.328	0.0156608
875.406	0.0155076
875.484	0.0155711
875.562	0.0155186
875.640	0.0154436
875.718	0.0155149
875.796	0.0155476
875.874	0.0154559
875.953	0.0155683
876.031	0.0155191
876.109	0.0154046
876.187	0.0154350
876.265	0.0155449
876.343	0.0155188
876.421	0.0154504
876.499	0.0154853
876.578	0.0154356
876.656	0.0153496
876.734	0.0154811
876.812	0.0155479
876.890	0.0155109
876.968	0.0154348
877.046	0.0153416
877.124	0.0153860
877.203	0.0154870
877.281	0.0154625
877.359	0.0153036
877.437	0.0153961
877.515	0.0154393
877.593	0.0156204
877.671	0.0155123
877.749	0.0154253
877.828	0.0153679
877.906	0.0153651
877.984	0.0152900
878.062	0.0153168
878.140	0.0154556
878.218	0.0155147
878.296	0.0155204
878.374	0.0154350
878.453	0.0154571
878.531	0.0155602
878.609	0.0155082
878.687	0.0153992
878.765	0.0155244
878.843	0.0155193
878.921	0.0156290
878.999	0.0155477
879.078	0.0155204
879.156	0.0155305
879.234	0.0155412
879.312	0.0157220
879.390	0.0154142
879.468	0.0154147
879.546	0.0155572
879.624	0.0154327
879.703	0.0155286
879.781	0.0155100
879.859	0.0153181
879.937	0.0153019
880.015	0.0155237
880.093	0.0153412
880.171	0.0154476
880.249	0.0152987
880.328	0.0153890
880.406	0.0155750
880.484	0.0154513
880.562	0.0155171
880.640	0.0155260
880.718	0.0155444
880.796	0.0155425
880.874	0.0153238
880.953	0.0153360
881.031	0.0153832
881.109	0.0154450
881.187	0.0154337
881.265	0.0154403
881.343	0.0153391
881.421	0.0155135
881.499	0.0153965
881.578	0.0153539
881.656	0.0154503
881.734	0.0152763
881.812	0.0154052
881.890	0.0153973
881.968	0.0153142
882.046	0.0153455
882.124	0.0155270
882.203	0.0153065
882.281	0.0154459
882.359	0.0153358
882.437	0.0153294
882.515	0.0153425
882.593	0.0152194
882.671	0.0155268
882.749	0.0154379
882.828	0.0153236
882.906	0.0153854
882.984	0.0153844
883.062	0.0153506
883.140	0.0153603
883.218	0.0154639
883.296	0.0154114
883.374	0.0154090
883.453	0.0154010
883.531	0.0154294
883.609	0.0155078
883.687	0.0154771
883.765	0.0154646
883.843	0.0152943
883.921	0.0154081
883.999	0.0153731
884.078	0.0153834
884.156	0.0155230
884.234	0.0153949
884.312	0.0154918
884.390	0.0155186
884.468	0.0154616
884.546	0.0153764
884.624	0.0153909
884.703	0.0154658
884.781	0.0153342
884.859	0.0153675
884.937	0.0155250
885.015	0.0154365
885.093	0.0154144
885.171	0.0153649
885.249	0.0152966
885.328	0.0154248
885.406	0.0155040
885.484	0.0154611
885.562	0.0154765
885.640	0.0153883
885.718	0.0155160
885.796	0.0153704
885.874	0.0154189
885.953	0.0154064
886.031	0.0154432
886.109	0.0153322
886.187	0.0154338
886.265	0.0153974
886.343	0.0154964
886.421	0.0153684
886.499	0.0152720
886.578	0.0152700
886.656	0.0155511
886.734	0.0154949
886.812	0.0154314
886.890	0.0154264
886.968	0.0152645
887.046	0.0153323
887.124	0.0154345
887.203	0.0153927
887.281	0.0154769
887.359	0.0154905
887.437	0.0152931
887.515	0.0155576
887.593	0.0154853
887.671	0.0155461
887.749	0.0154543
887.828	0.0154664
887.906	0.0154079
887.984	0.0153803
888.062	0.0153882
888.140	0.0155031
888.218	0.0154474
888.296	0.0154571
888.374	0.0153944
888.453	0.0154556
888.531	0.0154874
888.609	0.0154730
888.687	0.0153477
888.765	0.0153413
888.843	0.0153481
888.921	0.0154484
888.999	0.0154284
889.078	0.0155256
889.156	0.0154087
889.234	0.0152847
889.312	0.0154083
889.390	0.0154684
889.468	0.0155590
889.546	0.0155184
889.624	0.0154363
889.703	0.0156255
889.781	0.0155373
889.859	0.0154004
889.937	0.0154330
890.015	0.0155061
890.093	0.0155621
890.171	0.0154520
890.249	0.0154554
890.328	0.0155495
890.406	0.0153791
890.484	0.0155219
890.562	0.0155521
890.640	0.0153392
890.718	0.0154197
890.796	0.0153131
890.874	0.0154358
890.953	0.0154694
891.031	0.0153754
891.109	0.0154360
891.187	0.0154494
891.265	0.0153442
891.343	0.0155222
891.421	0.0156234
891.499	0.0154793
891.578	0.0155080
891.656	0.0154728
891.734	0.0155403
891.812	0.0155103
891.890	0.0155391
891.968	0.0155360
892.046	0.0153737
892.124	0.0154938
892.203	0.0154666
892.281	0.0157241
892.359	0.0154949
892.437	0.0154887
892.515	0.0155182
892.593	0.0153803
892.671	0.0153871
892.749	0.0154837
892.828	0.0154305
892.906	0.0155564
892.984	0.0156010
893.062	0.0153759
893.140	0.0154554
893.218	0.0155589
893.296	0.0154722
893.374	0.0154884
893.453	0.0156390
893.531	0.0156120
893.609	0.0155373
893.687	0.0154430
893.765	0.0155972
893.843	0.0155836
893.921	0.0155067
893.999	0.0154649
894.078	0.0156256
894.156	0.0154515
894.234	0.0154424
894.312	0.0155761
894.390	0.0154919
894.468	0.0155450
894.546	0.0155000
894.624	0.0154027
894.703	0.0153640
894.781	0.0154410
894.859	0.0155722
894.937	0.0153485
895.015	0.0153589
895.093	0.0155072
895.171	0.0155284
895.249	0.0155177
895.328	0.0153848
895.406	0.0153762
895.484	0.0154764
895.562	0.0155489
895.640	0.0154245
895.718	0.0156081
895.796	0.0155819
895.874	0.0155187
895.953	0.0154182
896.031	0.0154433
896.109	0.0154345
896.187	0.0154762
896.265	0.0154821
896.343	0.0154338
896.421	0.0154598
896.499	0.0155138
896.578	0.0155367
896.656	0.0155827
896.734	0.0155273
896.812	0.0154480
896.890	0.0154714
896.968	0.0154907
897.046	0.0155376
897.124	0.0153933
897.203	0.0155404
897.281	0.0154843
897.359	0.0155360
897.437	0.0153687
897.515	0.0154865
897.593	0.0155798
897.671	0.0154558
897.749	0.0154687
897.828	0.0155979
897.906	0.0155334
897.984	0.0154706
898.062	0.0155406
898.140	0.0153914
898.218	0.0154997
898.296	0.0155972
898.374	0.0155157
898.453	0.0153886
898.531	0.0153880
898.609	0.0154236
898.687	0.0155753
898.765	0.0154604
898.843	0.0155063
898.921	0.0154180
898.999	0.0154857
899.078	0.0155341
899.156	0.0156342
899.234	0.0155645
899.312	0.0154019
899.390	0.0153779
899.468	0.0155062
899.546	0.0154669
899.624	0.0155138
899.703	0.0154482
899.781	0.0153792
899.859	0.0154102
899.937	0.0154881
900.015	0.0153745
900.093	0.0154781
900.171	0.0153667
900.249	0.0154227
900.328	0.0156055
900.406	0.0154613
900.484	0.0154187
900.562	0.0154699
900.640	0.0154009
900.718	0.0155186
900.796	0.0155246
900.874	0.0155025
900.953	0.0153831
901.031	0.0155897
901.109	0.0154210
901.187	0.0153944
901.265	0.0154053
901.343	0.0154570
901.421	0.0154336
901.499	0.0153472
901.578	0.0153819
901.656	0.0154508
901.734	0.0152602
901.812	0.0154774
901.890	0.0156011
901.968	0.0154764
902.046	0.0153184
902.124	0.0153584
902.203	0.0153333
902.281	0.0154316
902.359	0.0153337
902.437	0.0154359
902.515	0.0153311
902.593	0.0153934
902.671	0.0155376
902.749	0.0155193
902.828	0.0154631
902.906	0.0154502
902.984	0.0153815
903.062	0.0153326
903.140	0.0154616
903.218	0.0154742
903.296	0.0153912
903.374	0.0154506
903.453	0.0155267
903.531	0.0154897
903.609	0.0156179
903.687	0.0155087
903.765	0.0154486
903.843	0.0154445
903.921	0.0155429
903.999	0.0155603
904.078	0.0155145
904.156	0.0154759
904.234	0.0156431
904.312	0.0154553
904.390	0.0154478
904.468	0.0154357
904.546	0.0154653
904.624	0.0154702
904.703	0.0156144
904.781	0.0153823
904.859	0.0154183
904.937	0.0155205
905.015	0.0155016
905.093	0.0155653
905.171	0.0155173
905.249	0.0156055
905.328	0.0155313
905.406	0.0155169
905.484	0.0154516
905.562	0.0154256
905.640	0.0153585
905.718	0.0155211
905.796	0.0155121
905.874	0.0154250
905.953	0.0153720
906.031	0.0154479
906.109	0.0155254
906.187	0.0155428
906.265	0.0153668
906.343	0.0152997
906.421	0.0153580
906.499	0.0154980
906.578	0.0155336
906.656	0.0153892
906.734	0.0154282
906.812	0.0153456
906.890	0.0153857
906.968	0.0154002
907.046	0.0153831
907.124	0.0153979
907.203	0.0153971
907.281	0.0153575
907.359	0.0154657
907.437	0.0154405
907.515	0.0154224
907.593	0.0154931
907.671	0.0153120
907.749	0.0154455
907.828	0.0154609
907.906	0.0156313
907.984	0.0154508
908.062	0.0153998
908.140	0.0154725
908.218	0.0154674
908.296	0.0154326
908.374	0.0154266
908.453	0.0155229
908.531	0.0155066
908.609	0.0153415
908.687	0.0154507
908.765	0.0155489
908.843	0.0153553
908.921	0.0152424
908.999	0.0154327
909.078	0.0154726
909.156	0.0153129
909.234	0.0154745
909.312	0.0154559
909.390	0.0153792
909.468	0.0153842
909.546	0.0153628
909.624	0.0155042
909.703	0.0154137
909.781	0.0153977
909.859	0.0154553
909.937	0.0154611
910.015	0.0154018
910.093	0.0154408
910.171	0.0153958
910.249	0.0153114
910.328	0.0153466
910.406	0.0153046
910.484	0.0152834
910.562	0.0153226
910.640	0.0153851
910.718	0.0153358
910.796	0.0154235
910.874	0.0153208
910.953	0.0153205
911.031	0.0154626
911.109	0.0153825
911.187	0.0154149
911.265	0.0154719
911.343	0.0153410
911.421	0.0153413
911.499	0.0154510
911.578	0.0154323
911.656	0.0155666
911.734	0.0154393
911.812	0.0154360
911.890	0.0155001
911.968	0.0155715
912.046	0.0154300
912.124	0.0154457
912.203	0.0153638
912.281	0.0154075
912.359	0.0156041
912.437	0.0155401
912.515	0.0154916
912.593	0.0154695
912.671	0.0154805
912.749	0.0155304
912.828	0.0154919
912.906	0.0153651
912.984	0.0154900
913.062	0.0156284
913.140	0.0154858
913.218	0.0154794
913.296	0.0154099
913.374	0.0154531
913.453	0.0154299
913.531	0.0155637
913.609	0.0155350
913.687	0.0155186
913.765	0.0154073
913.843	0.0154849
913.921	0.0154315
913.999	0.0155753
914.078	0.0155843
914.156	0.0154890
914.234	0.0154260
914.312	0.0155096
914.390	0.0155062
914.468	0.0155734
914.546	0.0156002
914.624	0.0155474
914.703	0.0154242
914.781	0.0154401
914.859	0.0155066
914.937	0.0155721
915.015	0.0153938
915.093	0.0154287
915.171	0.0154625
915.249	0.0155093
915.328	0.0155473
915.406	0.0155211
915.484	0.0155046
915.562	0.0153907
915.640	0.0155313
915.718	0.0155890
915.796	0.0155939
915.874	0.0156190
915.953	0.0155869
916.031	0.0155772
916.109	0.0155085
916.187	0.0155209
916.265	0.0155265
916.343	0.0156528
916.421	0.0154854
916.499	0.0155228
916.578	0.0154740
916.656	0.0154886
916.734	0.0154977
916.812	0.0154565
916.890	0.0154802
916.968	0.0153639
917.046	0.0154919
917.124	0.0155476
917.203	0.0153245
917.281	0.0155200
917.359	0.0155588
917.437	0.0154686
917.515	0.0153891
917.593	0.0154646
917.671	0.0155209
917.749	0.0154216
917.828	0.0154369
917.906	0.0153979
917.984	0.0154018
918.062	0.0154121
918.140	0.0154794
918.218	0.0155317
918.296	0.0154008
918.374	0.0154834
918.453	0.0153866
918.531	0.0154806
918.609	0.0154671
918.687	0.0153123
918.765	0.0154047
918.843	0.0155105
918.921	0.0153337
918.999	0.0154198
919.078	0.0154623
919.156	0.0154968
919.234	0.0154698
919.312	0.0154450
919.390	0.0154365
919.468	0.0154256
919.546	0.0153452
919.624	0.0153901
919.703	0.0155585
919.781	0.0154499
919.859	0.0154562
919.937	0.0154053
