05/06/2022	19:24:30	Ver.	4.1	UNKNOWN
Optical Delay	600.015094	Delta X		0.078125	Sweeps	1	Scan Rate	0/0
Coordinates	Axis 1	NaN	Axis 2	NaN	Axis 3	NaN	Axis 4	NaN	Axis 5	NaN	Axis 6	0.000000
TX Power	0.000000	RX Power	0.000000

600.015	0.0150206
600.093	0.0150039
600.171	0.0150458
600.249	0.0150199
600.328	0.0150557
600.406	0.0151326
600.484	0.0151607
600.562	0.0151937
600.640	0.0149498
600.718	0.0149158
600.796	0.0150648
600.874	0.0149406
600.953	0.0150028
601.031	0.0149654
601.109	0.0149072
601.187	0.0150064
601.265	0.0150317
601.343	0.0149686
601.421	0.0150809
601.499	0.0151163
601.578	0.0149928
601.656	0.0149783
601.734	0.0149756
601.812	0.0150831
601.890	0.0151729
601.968	0.0149671
602.046	0.0150829
602.124	0.0150120
602.203	0.0150027
602.281	0.0150601
602.359	0.0151231
602.437	0.0149937
602.515	0.0149131
602.593	0.0150429
602.671	0.0150682
602.749	0.0149567
602.828	0.0149677
602.906	0.0151103
602.984	0.0150715
603.062	0.0150300
603.140	0.0151106
603.218	0.0149777
603.296	0.0150706
603.374	0.0151456
603.453	0.0151369
603.531	0.0151587
603.609	0.0150488
603.687	0.0151858
603.765	0.0151206
603.843	0.0150706
603.921	0.0149289
603.999	0.0150623
604.078	0.0150181
604.156	0.0150510
604.234	0.0150432
604.312	0.0150876
604.390	0.0151225
604.468	0.0151522
604.546	0.0149986
604.624	0.0151872
604.703	0.0150394
604.781	0.0151595
604.859	0.0150894
604.937	0.0150307
605.015	0.0153316
605.093	0.0151706
605.171	0.0150230
605.249	0.0151572
605.328	0.0150488
605.406	0.0150609
605.484	0.0149606
605.562	0.0150823
605.640	0.0149300
605.718	0.0150343
605.796	0.0149792
605.874	0.0148792
605.953	0.0149111
606.031	0.0148951
606.109	0.0149094
606.187	0.0150684
606.265	0.0148497
606.343	0.0148999
606.421	0.0149133
606.499	0.0150018
606.578	0.0149171
606.656	0.0149785
606.734	0.0149426
606.812	0.0150179
606.890	0.0150336
606.968	0.0150777
607.046	0.0149908
607.124	0.0150653
607.203	0.0149866
607.281	0.0149569
607.359	0.0150237
607.437	0.0149270
607.515	0.0149561
607.593	0.0148170
607.671	0.0148735
607.749	0.0149883
607.828	0.0149996
607.906	0.0150611
607.984	0.0150111
608.062	0.0150414
608.140	0.0150847
608.218	0.0150894
608.296	0.0151067
608.374	0.0152209
608.453	0.0151393
608.531	0.0152049
608.609	0.0151118
608.687	0.0151634
608.765	0.0152244
608.843	0.0152190
608.921	0.0151384
608.999	0.0151082
609.078	0.0149352
609.156	0.0149628
609.234	0.0151478
609.312	0.0151302
609.390	0.0150440
609.468	0.0149554
609.546	0.0150410
609.624	0.0149526
609.703	0.0150547
609.781	0.0150997
609.859	0.0150229
609.937	0.0149849
610.015	0.0150414
610.093	0.0150333
610.171	0.0150325
610.249	0.0151074
610.328	0.0150050
610.406	0.0150983
610.484	0.0150155
610.562	0.0150745
610.640	0.0149486
610.718	0.0151219
610.796	0.0150652
610.874	0.0150613
610.953	0.0150173
611.031	0.0152312
611.109	0.0151031
611.187	0.0151952
611.265	0.0150455
611.343	0.0151283
611.421	0.0151550
611.499	0.0152398
611.578	0.0150594
611.656	0.0152077
611.734	0.0150825
611.812	0.0151698
611.890	0.0152728
611.968	0.0150962
612.046	0.0150842
612.124	0.0152310
612.203	0.0152425
612.281	0.0150861
612.359	0.0152192
612.437	0.0151177
612.515	0.0151170
612.593	0.0151257
612.671	0.0151566
612.749	0.0151314
612.828	0.0150876
612.906	0.0150544
612.984	0.0150205
613.062	0.0149900
613.140	0.0150531
613.218	0.0151031
613.296	0.0151911
613.374	0.0151210
613.453	0.0150744
613.531	0.0148965
613.609	0.0149427
613.687	0.0150084
613.765	0.0150095
613.843	0.0152506
613.921	0.0151221
613.999	0.0151015
614.078	0.0150981
614.156	0.0152085
614.234	0.0151099
614.312	0.0152525
614.390	0.0153088
614.468	0.0152859
614.546	0.0153243
614.624	0.0152889
614.703	0.0153227
614.781	0.0151520
614.859	0.0152557
614.937	0.0152606
615.015	0.0151805
615.093	0.0151980
615.171	0.0151025
615.249	0.0152128
615.328	0.0151001
615.406	0.0151197
615.484	0.0151788
615.562	0.0151440
615.640	0.0150587
615.718	0.0148804
615.796	0.0150135
615.874	0.0151183
615.953	0.0150401
616.031	0.0150047
616.109	0.0151911
616.187	0.0151001
616.265	0.0150774
616.343	0.0150042
616.421	0.0150672
616.499	0.0150655
616.578	0.0150850
616.656	0.0149922
616.734	0.0149847
616.812	0.0149760
616.890	0.0149554
616.968	0.0149300
617.046	0.0149007
617.124	0.0151639
617.203	0.0151114
617.281	0.0148746
617.359	0.0149367
617.437	0.0151326
617.515	0.0150430
617.593	0.0152295
617.671	0.0150750
617.749	0.0151280
617.828	0.0151085
617.906	0.0151659
617.984	0.0151291
618.062	0.0151858
618.140	0.0149524
618.218	0.0149943
618.296	0.0151702
618.374	0.0151028
618.453	0.0151041
618.531	0.0150498
618.609	0.0150382
618.687	0.0151044
618.765	0.0152159
618.843	0.0150040
618.921	0.0151371
618.999	0.0149869
619.078	0.0151131
619.156	0.0151434
619.234	0.0151331
619.312	0.0149464
619.390	0.0150660
619.468	0.0150518
619.546	0.0151219
619.624	0.0151139
619.703	0.0149951
619.781	0.0150538
619.859	0.0150706
619.937	0.0150880
620.015	0.0151485
620.093	0.0150370
620.171	0.0151443
620.249	0.0151255
620.328	0.0151979
620.406	0.0151329
620.484	0.0151000
620.562	0.0150051
620.640	0.0151072
620.718	0.0150893
620.796	0.0149886
620.874	0.0149313
620.953	0.0149355
621.031	0.0149896
621.109	0.0149740
621.187	0.0149184
621.265	0.0150150
621.343	0.0149762
621.421	0.0150682
621.499	0.0148837
621.578	0.0149763
621.656	0.0151344
621.734	0.0150481
621.812	0.0149976
621.890	0.0150072
621.968	0.0151808
622.046	0.0150723
622.124	0.0152008
622.203	0.0152105
622.281	0.0152562
622.359	0.0151932
622.437	0.0151217
622.515	0.0151806
622.593	0.0151040
622.671	0.0152221
622.749	0.0152737
622.828	0.0151160
622.906	0.0150901
622.984	0.0151323
623.062	0.0151835
623.140	0.0151097
623.218	0.0150683
623.296	0.0151223
623.374	0.0151910
623.453	0.0152770
623.531	0.0151964
623.609	0.0150979
623.687	0.0153374
623.765	0.0152405
623.843	0.0153137
623.921	0.0153112
623.999	0.0152067
624.078	0.0150941
624.156	0.0152318
624.234	0.0152966
624.312	0.0150481
624.390	0.0149323
624.468	0.0151971
624.546	0.0151826
624.624	0.0151016
624.703	0.0150926
624.781	0.0150645
624.859	0.0150654
624.937	0.0152618
625.015	0.0151276
625.093	0.0151390
625.171	0.0152028
625.249	0.0152299
625.328	0.0151237
625.406	0.0152195
625.484	0.0151445
625.562	0.0150983
625.640	0.0151519
625.718	0.0151575
625.796	0.0152116
625.874	0.0151998
625.953	0.0149886
626.031	0.0150428
626.109	0.0150915
626.187	0.0150551
626.265	0.0151422
626.343	0.0149834
626.421	0.0150202
626.499	0.0149617
626.578	0.0149290
626.656	0.0151272
626.734	0.0150338
626.812	0.0149879
626.890	0.0149966
626.968	0.0149295
627.046	0.0149831
627.124	0.0149284
627.203	0.0151044
627.281	0.0150611
627.359	0.0152064
627.437	0.0151246
627.515	0.0150579
627.593	0.0151293
627.671	0.0151332
627.749	0.0151070
627.828	0.0151842
627.906	0.0150968
627.984	0.0153010
628.062	0.0151016
628.140	0.0150766
628.218	0.0152628
628.296	0.0150922
628.374	0.0151217
628.453	0.0151478
628.531	0.0152316
628.609	0.0151402
628.687	0.0150393
628.765	0.0149850
628.843	0.0147927
628.921	0.0148875
628.999	0.0149250
629.078	0.0147224
629.156	0.0146770
629.234	0.0146104
629.312	0.0146152
629.390	0.0147962
629.468	0.0147655
629.546	0.0146887
629.624	0.0147242
629.703	0.0146385
629.781	0.0147962
629.859	0.0149217
629.937	0.0150372
630.015	0.0150178
630.093	0.0150002
630.171	0.0149996
630.249	0.0151077
630.328	0.0152160
630.406	0.0153018
630.484	0.0151221
630.562	0.0150137
630.640	0.0151743
630.718	0.0152822
630.796	0.0152757
630.874	0.0152238
630.953	0.0152973
631.031	0.0154486
631.109	0.0153445
631.187	0.0153513
631.265	0.0153725
631.343	0.0152666
631.421	0.0151763
631.499	0.0152401
631.578	0.0150958
631.656	0.0152205
631.734	0.0149888
631.812	0.0149117
631.890	0.0149585
631.968	0.0149371
632.046	0.0148644
632.124	0.0147065
632.203	0.0147939
632.281	0.0147231
632.359	0.0147420
632.437	0.0145730
632.515	0.0147149
632.593	0.0145966
632.671	0.0147285
632.749	0.0147333
632.828	0.0147388
632.906	0.0147264
632.984	0.0148128
633.062	0.0147926
633.140	0.0149566
633.218	0.0148395
633.296	0.0151132
633.374	0.0152092
633.453	0.0151294
633.531	0.0150065
633.609	0.0151841
633.687	0.0152843
633.765	0.0152203
633.843	0.0152345
633.921	0.0152972
633.999	0.0153130
634.078	0.0154263
634.156	0.0153577
634.234	0.0153376
634.312	0.0153985
634.390	0.0153541
634.468	0.0153300
634.546	0.0153999
634.624	0.0153531
634.703	0.0154813
634.781	0.0153041
634.859	0.0153125
634.937	0.0152197
635.015	0.0150999
635.093	0.0151251
635.171	0.0152171
635.249	0.0149329
635.328	0.0148975
635.406	0.0148553
635.484	0.0147913
635.562	0.0148698
635.640	0.0147362
635.718	0.0147172
635.796	0.0147523
635.874	0.0148196
635.953	0.0147316
636.031	0.0148178
636.109	0.0148525
636.187	0.0148098
636.265	0.0148244
636.343	0.0146664
636.421	0.0147381
636.499	0.0147001
636.578	0.0146722
636.656	0.0146269
636.734	0.0146301
636.812	0.0145866
636.890	0.0146553
636.968	0.0146621
637.046	0.0144980
637.124	0.0146904
637.203	0.0148221
637.281	0.0148022
637.359	0.0147890
637.437	0.0148531
637.515	0.0149599
637.593	0.0152051
637.671	0.0152155
637.749	0.0152818
637.828	0.0155854
637.906	0.0154964
637.984	0.0155360
638.062	0.0156416
638.140	0.0156270
638.218	0.0155803
638.296	0.0156440
638.374	0.0156880
638.453	0.0156001
638.531	0.0155019
638.609	0.0156472
638.687	0.0155437
638.765	0.0154285
638.843	0.0153978
638.921	0.0152905
638.999	0.0152452
639.078	0.0152493
639.156	0.0151161
639.234	0.0152207
639.312	0.0151702
639.390	0.0150917
639.468	0.0149811
639.546	0.0150503
639.624	0.0150025
639.703	0.0147996
639.781	0.0146495
639.859	0.0146764
639.937	0.0146446
640.015	0.0146571
640.093	0.0146124
640.171	0.0144171
640.249	0.0142655
640.328	0.0144653
640.406	0.0144783
640.484	0.0145055
640.562	0.0145966
640.640	0.0144772
640.718	0.0145424
640.796	0.0146770
640.874	0.0147879
640.953	0.0147972
641.031	0.0147137
641.109	0.0148976
641.187	0.0148160
641.265	0.0148569
641.343	0.0150642
641.421	0.0148743
641.499	0.0149816
641.578	0.0151469
641.656	0.0151559
641.734	0.0151537
641.812	0.0152705
641.890	0.0153865
641.968	0.0154809
642.046	0.0155140
642.124	0.0155207
642.203	0.0156293
642.281	0.0157376
642.359	0.0158391
642.437	0.0158566
642.515	0.0159989
642.593	0.0159571
642.671	0.0159471
642.749	0.0159477
642.828	0.0158099
642.906	0.0158788
642.984	0.0156882
643.062	0.0156126
643.140	0.0155485
643.218	0.0155351
643.296	0.0154374
643.374	0.0151684
643.453	0.0152099
643.531	0.0150629
643.609	0.0148960
643.687	0.0148249
643.765	0.0147906
643.843	0.0146894
643.921	0.0146221
643.999	0.0145531
644.078	0.0143961
644.156	0.0145459
644.234	0.0143318
644.312	0.0142444
644.390	0.0142609
644.468	0.0142152
644.546	0.0141996
644.624	0.0140237
644.703	0.0140527
644.781	0.0139728
644.859	0.0141570
644.937	0.0142236
645.015	0.0142768
645.093	0.0142946
645.171	0.0144133
645.249	0.0145866
645.328	0.0144776
645.406	0.0146851
645.484	0.0146938
645.562	0.0148295
645.640	0.0149516
645.718	0.0150372
645.796	0.0153977
645.874	0.0151966
645.953	0.0153851
646.031	0.0154591
646.109	0.0156585
646.187	0.0156625
646.265	0.0156110
646.343	0.0157207
646.421	0.0158792
646.499	0.0159703
646.578	0.0159146
646.656	0.0159689
646.734	0.0160236
646.812	0.0160816
646.890	0.0160926
646.968	0.0160358
647.046	0.0160559
647.124	0.0159105
647.203	0.0158720
647.281	0.0158160
647.359	0.0158906
647.437	0.0156812
647.515	0.0156640
647.593	0.0154010
647.671	0.0153178
647.749	0.0150043
647.828	0.0149356
647.906	0.0147816
647.984	0.0145263
648.062	0.0145213
648.140	0.0142322
648.218	0.0142558
648.296	0.0141385
648.374	0.0140891
648.453	0.0139268
648.531	0.0139730
648.609	0.0140901
648.687	0.0138953
648.765	0.0139682
648.843	0.0139400
648.921	0.0139024
648.999	0.0141386
649.078	0.0142268
649.156	0.0141937
649.234	0.0141730
649.312	0.0143140
649.390	0.0144106
649.468	0.0144734
649.546	0.0145291
649.624	0.0148092
649.703	0.0149253
649.781	0.0149834
649.859	0.0151953
649.937	0.0152820
650.015	0.0153528
650.093	0.0156242
650.171	0.0156872
650.249	0.0158957
650.328	0.0158434
650.406	0.0160709
650.484	0.0160267
650.562	0.0158971
650.640	0.0160181
650.718	0.0160117
650.796	0.0160037
650.874	0.0159541
650.953	0.0160238
651.031	0.0157626
651.109	0.0158266
651.187	0.0157298
651.265	0.0156783
651.343	0.0155779
651.421	0.0156401
651.499	0.0154494
651.578	0.0154144
651.656	0.0153985
651.734	0.0152991
651.812	0.0153426
651.890	0.0152188
651.968	0.0151736
652.046	0.0151269
652.124	0.0149757
652.203	0.0148009
652.281	0.0146126
652.359	0.0144572
652.437	0.0143323
652.515	0.0142416
652.593	0.0142116
652.671	0.0139688
652.749	0.0139882
652.828	0.0139002
652.906	0.0139294
652.984	0.0136827
653.062	0.0139024
653.140	0.0139301
653.218	0.0139818
653.296	0.0140147
653.374	0.0139051
653.453	0.0141055
653.531	0.0141431
653.609	0.0142583
653.687	0.0144437
653.765	0.0144939
653.843	0.0145657
653.921	0.0147353
653.999	0.0146828
654.078	0.0148737
654.156	0.0149507
654.234	0.0150385
654.312	0.0150527
654.390	0.0152757
654.468	0.0153639
654.546	0.0156156
654.624	0.0154562
654.703	0.0156339
654.781	0.0158313
654.859	0.0159247
654.937	0.0158421
655.015	0.0158224
655.093	0.0157405
655.171	0.0158922
655.249	0.0159824
655.328	0.0157096
655.406	0.0157472
655.484	0.0155876
655.562	0.0155707
655.640	0.0156797
655.718	0.0154519
655.796	0.0154936
655.874	0.0154471
655.953	0.0151528
656.031	0.0151943
656.109	0.0151273
656.187	0.0151869
656.265	0.0149222
656.343	0.0150047
656.421	0.0146855
656.499	0.0146739
656.578	0.0146603
656.656	0.0145387
656.734	0.0145971
656.812	0.0143503
656.890	0.0142591
656.968	0.0143183
657.046	0.0143268
657.124	0.0141101
657.203	0.0140900
657.281	0.0140412
657.359	0.0142041
657.437	0.0141756
657.515	0.0142423
657.593	0.0143291
657.671	0.0143674
657.749	0.0144228
657.828	0.0143777
657.906	0.0145837
657.984	0.0146319
658.062	0.0147346
658.140	0.0147909
658.218	0.0147936
658.296	0.0150573
658.374	0.0151024
658.453	0.0151060
658.531	0.0152617
658.609	0.0152181
658.687	0.0153723
658.765	0.0153494
658.843	0.0153940
658.921	0.0154977
658.999	0.0154559
659.078	0.0154309
659.156	0.0154047
659.234	0.0154518
659.312	0.0155794
659.390	0.0156219
659.468	0.0155528
659.546	0.0154829
659.624	0.0154573
659.703	0.0154550
659.781	0.0154063
659.859	0.0154227
659.937	0.0154319
660.015	0.0153066
660.093	0.0152522
660.171	0.0152660
660.249	0.0150599
660.328	0.0150586
660.406	0.0149951
660.484	0.0149203
660.562	0.0149809
660.640	0.0148145
660.718	0.0147626
660.796	0.0147439
660.874	0.0146255
660.953	0.0146301
661.031	0.0147027
661.109	0.0145767
661.187	0.0145454
661.265	0.0145502
661.343	0.0146522
661.421	0.0145068
661.499	0.0144884
661.578	0.0145748
661.656	0.0145126
661.734	0.0145139
661.812	0.0146281
661.890	0.0146559
661.968	0.0147622
662.046	0.0147765
662.124	0.0148055
662.203	0.0148372
662.281	0.0146791
662.359	0.0148600
662.437	0.0151466
662.515	0.0150301
662.593	0.0150288
662.671	0.0150308
662.749	0.0152972
662.828	0.0152908
662.906	0.0151588
662.984	0.0152785
663.062	0.0154465
663.140	0.0154231
663.218	0.0155128
663.296	0.0154373
663.374	0.0154308
663.453	0.0155453
663.531	0.0154579
663.609	0.0154836
663.687	0.0155199
663.765	0.0154136
663.843	0.0155988
663.921	0.0154330
663.999	0.0155744
664.078	0.0155296
664.156	0.0155539
664.234	0.0152267
664.312	0.0152840
664.390	0.0151559
664.468	0.0151794
664.546	0.0151968
664.624	0.0150849
664.703	0.0150704
664.781	0.0149297
664.859	0.0149592
664.937	0.0149006
665.015	0.0147314
665.093	0.0146683
665.171	0.0146038
665.249	0.0146632
665.328	0.0145137
665.406	0.0145351
665.484	0.0146613
665.562	0.0143575
665.640	0.0144201
665.718	0.0143747
665.796	0.0145291
665.874	0.0145392
665.953	0.0145348
666.031	0.0146896
666.109	0.0147781
666.187	0.0147263
666.265	0.0148463
666.343	0.0149963
666.421	0.0150264
666.499	0.0150585
666.578	0.0151382
666.656	0.0151774
666.734	0.0150755
666.812	0.0152163
666.890	0.0151592
666.968	0.0152424
667.046	0.0153992
667.124	0.0154573
667.203	0.0153424
667.281	0.0154061
667.359	0.0154879
667.437	0.0154939
667.515	0.0154472
667.593	0.0153791
667.671	0.0155527
667.749	0.0155483
667.828	0.0154040
667.906	0.0155162
667.984	0.0153737
668.062	0.0155766
668.140	0.0154414
668.218	0.0153574
668.296	0.0154253
668.374	0.0153392
668.453	0.0152828
668.531	0.0153394
668.609	0.0153746
668.687	0.0151458
668.765	0.0152129
668.843	0.0152348
668.921	0.0151002
668.999	0.0149458
669.078	0.0148685
669.156	0.0148426
669.234	0.0149644
669.312	0.0149375
669.390	0.0148657
669.468	0.0148564
669.546	0.0147022
669.624	0.0146845
669.703	0.0146963
669.781	0.0146569
669.859	0.0146642
669.937	0.0145941
670.015	0.0146028
670.093	0.0144621
670.171	0.0144244
670.249	0.0144890
670.328	0.0146807
670.406	0.0144495
670.484	0.0145417
670.562	0.0145668
670.640	0.0145839
670.718	0.0146153
670.796	0.0148162
670.874	0.0149662
670.953	0.0149667
671.031	0.0149115
671.109	0.0151072
671.187	0.0152409
671.265	0.0151830
671.343	0.0155087
671.421	0.0154509
671.499	0.0154967
671.578	0.0157685
671.656	0.0156725
671.734	0.0156279
671.812	0.0156936
671.890	0.0156654
671.968	0.0155959
672.046	0.0155824
672.124	0.0156218
672.203	0.0156660
672.281	0.0155914
672.359	0.0156879
672.437	0.0154621
672.515	0.0153808
672.593	0.0153429
672.671	0.0153779
672.749	0.0154024
672.828	0.0153042
672.906	0.0151421
672.984	0.0150289
673.062	0.0150121
673.140	0.0147462
673.218	0.0148781
673.296	0.0146304
673.374	0.0147098
673.453	0.0146996
673.531	0.0144159
673.609	0.0144421
673.687	0.0144785
673.765	0.0144044
673.843	0.0142759
673.921	0.0144604
673.999	0.0143545
674.078	0.0144479
674.156	0.0144478
674.234	0.0144427
674.312	0.0145103
674.390	0.0144849
674.468	0.0144846
674.546	0.0147713
674.624	0.0145192
674.703	0.0145538
674.781	0.0149338
674.859	0.0148663
674.937	0.0149078
675.015	0.0148580
675.093	0.0149276
675.171	0.0150095
675.249	0.0150875
675.328	0.0151398
675.406	0.0151180
675.484	0.0151859
675.562	0.0151937
675.640	0.0152233
675.718	0.0152926
675.796	0.0153658
675.874	0.0153670
675.953	0.0154477
676.031	0.0153122
676.109	0.0152856
676.187	0.0153300
676.265	0.0154403
676.343	0.0154726
676.421	0.0153922
676.499	0.0154874
676.578	0.0153779
676.656	0.0154218
676.734	0.0154317
676.812	0.0154029
676.890	0.0154094
676.968	0.0152999
677.046	0.0153169
677.124	0.0151903
677.203	0.0151472
677.281	0.0150754
677.359	0.0149913
677.437	0.0149673
677.515	0.0147492
677.593	0.0147206
677.671	0.0146497
677.749	0.0146087
677.828	0.0144860
677.906	0.0144137
677.984	0.0142448
678.062	0.0142004
678.140	0.0142006
678.218	0.0143488
678.296	0.0142147
678.374	0.0143223
678.453	0.0143488
678.531	0.0144424
678.609	0.0144238
678.687	0.0145007
678.765	0.0145309
678.843	0.0147789
678.921	0.0148392
678.999	0.0146902
679.078	0.0148742
679.156	0.0149993
679.234	0.0148185
679.312	0.0149734
679.390	0.0150844
679.468	0.0150341
679.546	0.0151135
679.624	0.0151679
679.703	0.0151416
679.781	0.0152318
679.859	0.0154351
679.937	0.0154748
680.015	0.0154066
680.093	0.0154444
680.171	0.0156172
680.249	0.0156303
680.328	0.0155784
680.406	0.0154644
680.484	0.0156528
680.562	0.0155015
680.640	0.0153779
680.718	0.0155933
680.796	0.0154353
680.874	0.0153610
680.953	0.0153188
681.031	0.0153316
681.109	0.0151756
681.187	0.0150698
681.265	0.0150759
681.343	0.0150506
681.421	0.0148512
681.499	0.0149883
681.578	0.0148468
681.656	0.0148103
681.734	0.0148088
681.812	0.0147639
681.890	0.0147549
681.968	0.0147311
682.046	0.0146100
682.124	0.0147129
682.203	0.0145965
682.281	0.0146497
682.359	0.0144907
682.437	0.0144560
682.515	0.0145041
682.593	0.0146264
682.671	0.0145546
682.749	0.0145261
682.828	0.0145942
682.906	0.0146165
682.984	0.0146869
683.062	0.0147715
683.140	0.0147465
683.218	0.0148668
683.296	0.0150112
683.374	0.0150877
683.453	0.0151304
683.531	0.0152706
683.609	0.0151283
683.687	0.0152216
683.765	0.0154582
683.843	0.0154428
683.921	0.0154723
683.999	0.0154522
684.078	0.0155033
684.156	0.0156591
684.234	0.0155179
684.312	0.0154793
684.390	0.0155412
684.468	0.0155459
684.546	0.0154285
684.624	0.0154020
684.703	0.0153973
684.781	0.0153974
684.859	0.0153125
684.937	0.0152398
685.015	0.0152938
685.093	0.0151988
685.171	0.0152074
685.249	0.0151985
685.328	0.0151019
685.406	0.0151048
685.484	0.0151216
685.562	0.0151349
685.640	0.0150588
685.718	0.0149952
685.796	0.0149134
685.874	0.0149185
685.953	0.0149783
686.031	0.0150052
686.109	0.0148218
686.187	0.0148660
686.265	0.0146873
686.343	0.0146793
686.421	0.0147050
686.499	0.0146490
686.578	0.0147739
686.656	0.0147935
686.734	0.0149143
686.812	0.0146640
686.890	0.0145885
686.968	0.0148342
687.046	0.0148801
687.124	0.0149060
687.203	0.0149238
687.281	0.0149215
687.359	0.0147648
687.437	0.0150394
687.515	0.0150616
687.593	0.0151663
687.671	0.0151953
687.749	0.0151801
687.828	0.0152985
687.906	0.0152134
687.984	0.0152941
688.062	0.0154980
688.140	0.0153403
688.218	0.0153882
688.296	0.0155221
688.374	0.0154572
688.453	0.0155368
688.531	0.0154424
688.609	0.0154617
688.687	0.0155090
688.765	0.0155079
688.843	0.0154071
688.921	0.0154268
688.999	0.0154159
689.078	0.0153468
689.156	0.0153083
689.234	0.0152333
689.312	0.0152242
689.390	0.0153120
689.468	0.0150333
689.546	0.0150789
689.624	0.0151688
689.703	0.0149322
689.781	0.0149281
689.859	0.0149454
689.937	0.0149556
690.015	0.0148691
690.093	0.0148299
690.171	0.0148340
690.249	0.0146803
690.328	0.0147247
690.406	0.0146637
690.484	0.0147231
690.562	0.0145901
690.640	0.0147038
690.718	0.0147808
690.796	0.0146262
690.874	0.0147114
690.953	0.0148784
691.031	0.0148285
691.109	0.0149506
691.187	0.0149573
691.265	0.0150567
691.343	0.0151511
691.421	0.0149884
691.499	0.0151450
691.578	0.0150526
691.656	0.0151901
691.734	0.0152658
691.812	0.0151973
691.890	0.0153083
691.968	0.0152621
692.046	0.0153369
692.124	0.0152119
692.203	0.0153030
692.281	0.0153059
692.359	0.0153476
692.437	0.0154507
692.515	0.0154298
692.593	0.0154841
692.671	0.0155448
692.749	0.0156044
692.828	0.0155259
692.906	0.0155527
692.984	0.0154961
693.062	0.0155177
693.140	0.0154924
693.218	0.0152930
693.296	0.0152982
693.374	0.0152320
693.453	0.0151845
693.531	0.0151635
693.609	0.0150960
693.687	0.0150380
693.765	0.0151149
693.843	0.0150478
693.921	0.0149345
693.999	0.0147997
694.078	0.0148553
694.156	0.0149986
694.234	0.0147672
694.312	0.0147157
694.390	0.0148879
694.468	0.0147203
694.546	0.0145382
694.624	0.0147112
694.703	0.0147224
694.781	0.0146530
694.859	0.0148209
694.937	0.0148666
695.015	0.0149100
695.093	0.0148664
695.171	0.0149126
695.249	0.0149277
695.328	0.0150251
695.406	0.0151539
695.484	0.0150033
695.562	0.0152506
695.640	0.0149987
695.718	0.0151038
695.796	0.0150402
695.874	0.0152497
695.953	0.0152331
696.031	0.0150704
696.109	0.0151420
696.187	0.0150734
696.265	0.0153090
696.343	0.0152565
696.421	0.0151049
696.499	0.0152634
696.578	0.0151814
696.656	0.0151611
696.734	0.0151962
696.812	0.0151290
696.890	0.0151541
696.968	0.0150392
697.046	0.0151683
697.124	0.0150562
697.203	0.0151003
697.281	0.0151173
697.359	0.0150185
697.437	0.0151122
697.515	0.0149944
697.593	0.0150492
697.671	0.0152490
697.749	0.0149954
697.828	0.0151112
697.906	0.0150623
697.984	0.0149789
698.062	0.0150555
698.140	0.0149366
698.218	0.0148493
698.296	0.0149069
698.374	0.0149229
698.453	0.0148988
698.531	0.0148022
698.609	0.0149204
698.687	0.0147642
698.765	0.0148869
698.843	0.0148135
698.921	0.0149054
698.999	0.0147985
699.078	0.0148998
699.156	0.0146693
699.234	0.0149181
699.312	0.0150124
699.390	0.0149649
699.468	0.0147929
699.546	0.0149055
699.624	0.0150780
699.703	0.0150777
699.781	0.0150479
699.859	0.0150928
699.937	0.0148588
700.015	0.0151233
700.093	0.0152189
700.171	0.0150399
700.249	0.0151480
700.328	0.0151554
700.406	0.0151059
700.484	0.0150401
700.562	0.0152966
700.640	0.0152718
700.718	0.0151839
700.796	0.0153306
700.874	0.0151745
700.953	0.0151237
701.031	0.0151650
701.109	0.0152500
701.187	0.0152956
701.265	0.0151447
701.343	0.0151969
701.421	0.0151315
701.499	0.0150918
701.578	0.0151711
701.656	0.0149970
701.734	0.0150649
701.812	0.0150402
701.890	0.0151479
701.968	0.0150419
702.046	0.0150527
702.124	0.0153029
702.203	0.0151280
702.281	0.0150552
702.359	0.0150788
702.437	0.0151260
702.515	0.0152638
702.593	0.0151903
702.671	0.0151081
702.749	0.0150639
702.828	0.0150337
702.906	0.0150658
702.984	0.0150098
703.062	0.0148928
703.140	0.0149698
703.218	0.0150134
703.296	0.0147208
703.374	0.0148140
703.453	0.0148356
703.531	0.0147854
703.609	0.0148726
703.687	0.0148881
703.765	0.0147906
703.843	0.0149475
703.921	0.0149104
703.999	0.0150689
704.078	0.0150101
704.156	0.0150636
704.234	0.0149825
704.312	0.0150835
704.390	0.0153632
704.468	0.0151355
704.546	0.0151550
704.624	0.0152622
704.703	0.0152448
704.781	0.0152515
704.859	0.0152003
704.937	0.0151183
705.015	0.0151469
705.093	0.0151640
705.171	0.0151640
705.249	0.0151944
705.328	0.0152057
705.406	0.0152579
705.484	0.0152824
705.562	0.0150729
705.640	0.0152207
705.718	0.0151974
705.796	0.0150910
705.874	0.0152427
705.953	0.0151517
706.031	0.0149817
706.109	0.0150732
706.187	0.0151187
706.265	0.0151138
706.343	0.0149837
706.421	0.0151877
706.499	0.0152003
706.578	0.0150800
706.656	0.0151200
706.734	0.0150916
706.812	0.0150570
706.890	0.0151249
706.968	0.0150687
707.046	0.0151916
707.124	0.0150725
707.203	0.0150498
707.281	0.0149928
707.359	0.0151139
707.437	0.0150508
707.515	0.0150885
707.593	0.0150523
707.671	0.0150019
707.749	0.0151387
707.828	0.0150705
707.906	0.0150653
707.984	0.0150529
708.062	0.0150642
708.140	0.0150279
708.218	0.0150320
708.296	0.0149940
708.374	0.0151314
708.453	0.0150812
708.531	0.0148685
708.609	0.0150457
708.687	0.0150124
708.765	0.0150134
708.843	0.0150978
708.921	0.0152482
708.999	0.0151004
709.078	0.0150928
709.156	0.0151881
709.234	0.0151924
709.312	0.0152038
709.390	0.0151897
709.468	0.0151708
709.546	0.0150464
709.624	0.0150766
709.703	0.0151635
709.781	0.0151028
709.859	0.0151102
709.937	0.0150729
710.015	0.0150333
710.093	0.0150862
710.171	0.0149416
710.249	0.0149701
710.328	0.0151205
710.406	0.0149311
710.484	0.0148887
710.562	0.0151041
710.640	0.0150637
710.718	0.0151526
710.796	0.0151536
710.874	0.0149922
710.953	0.0151587
711.031	0.0152191
711.109	0.0152263
711.187	0.0149651
711.265	0.0150323
711.343	0.0151568
711.421	0.0150053
711.499	0.0150051
711.578	0.0150533
711.656	0.0149906
711.734	0.0150483
711.812	0.0151044
711.890	0.0150462
711.968	0.0150330
712.046	0.0150060
712.124	0.0149187
712.203	0.0149608
712.281	0.0150642
712.359	0.0151276
712.437	0.0151834
712.515	0.0151244
712.593	0.0150426
712.671	0.0150371
712.749	0.0150208
712.828	0.0151807
712.906	0.0150339
712.984	0.0149521
713.062	0.0150454
713.140	0.0150587
713.218	0.0151994
713.296	0.0151065
713.374	0.0151719
713.453	0.0151827
713.531	0.0151211
713.609	0.0152225
713.687	0.0151768
713.765	0.0152937
713.843	0.0151770
713.921	0.0151958
713.999	0.0151596
714.078	0.0151829
714.156	0.0150945
714.234	0.0152414
714.312	0.0152288
714.390	0.0150373
714.468	0.0150500
714.546	0.0152390
714.624	0.0150832
714.703	0.0151153
714.781	0.0150261
714.859	0.0152011
714.937	0.0152040
715.015	0.0150716
715.093	0.0150229
715.171	0.0150421
715.249	0.0151388
715.328	0.0151230
715.406	0.0149891
715.484	0.0149539
715.562	0.0150053
715.640	0.0149805
715.718	0.0149384
715.796	0.0149746
715.874	0.0150098
715.953	0.0150330
716.031	0.0150489
716.109	0.0148844
716.187	0.0150639
716.265	0.0149761
716.343	0.0149805
716.421	0.0150983
716.499	0.0151666
716.578	0.0150172
716.656	0.0151311
716.734	0.0151564
716.812	0.0152216
716.890	0.0150237
716.968	0.0152145
717.046	0.0152976
717.124	0.0153977
717.203	0.0151776
717.281	0.0152598
717.359	0.0153376
717.437	0.0151565
717.515	0.0151627
717.593	0.0152757
717.671	0.0152181
717.749	0.0151067
717.828	0.0152697
717.906	0.0152163
717.984	0.0151215
718.062	0.0149870
718.140	0.0150304
718.218	0.0150962
718.296	0.0149717
718.374	0.0151320
718.453	0.0151711
718.531	0.0149105
718.609	0.0150668
718.687	0.0150078
718.765	0.0151077
718.843	0.0149007
718.921	0.0151540
718.999	0.0150317
719.078	0.0150194
719.156	0.0150622
719.234	0.0150658
719.312	0.0152019
719.390	0.0150831
719.468	0.0152046
719.546	0.0150625
719.624	0.0151471
719.703	0.0150897
719.781	0.0150522
719.859	0.0151142
719.937	0.0149284
720.015	0.0149165
720.093	0.0149070
720.171	0.0149742
720.249	0.0148128
720.328	0.0149953
720.406	0.0150066
720.484	0.0149158
720.562	0.0149916
720.640	0.0151205
720.718	0.0150318
720.796	0.0151011
720.874	0.0151933
720.953	0.0151650
721.031	0.0151637
721.109	0.0151606
721.187	0.0151944
721.265	0.0150394
721.343	0.0151014
721.421	0.0150642
721.499	0.0151078
721.578	0.0152183
721.656	0.0151021
721.734	0.0150993
721.812	0.0152659
721.890	0.0151984
721.968	0.0151905
722.046	0.0150803
722.124	0.0151809
722.203	0.0151944
722.281	0.0150307
722.359	0.0149977
722.437	0.0150687
722.515	0.0151678
722.593	0.0150352
722.671	0.0150605
722.749	0.0151562
722.828	0.0151560
722.906	0.0151608
722.984	0.0149947
723.062	0.0150722
723.140	0.0150215
723.218	0.0150081
723.296	0.0149621
723.374	0.0151346
723.453	0.0149319
723.531	0.0149159
723.609	0.0151105
723.687	0.0149368
723.765	0.0150011
723.843	0.0149298
723.921	0.0149686
723.999	0.0151742
724.078	0.0149805
724.156	0.0149915
724.234	0.0150319
724.312	0.0149080
724.390	0.0149922
724.468	0.0148963
724.546	0.0150578
724.624	0.0150400
724.703	0.0148388
724.781	0.0149149
724.859	0.0150336
724.937	0.0151104
725.015	0.0149807
725.093	0.0149683
725.171	0.0150109
725.249	0.0149285
725.328	0.0150066
725.406	0.0152426
725.484	0.0151884
725.562	0.0150579
725.640	0.0149813
725.718	0.0150281
725.796	0.0151077
725.874	0.0150505
725.953	0.0150176
726.031	0.0149117
726.109	0.0149417
726.187	0.0151288
726.265	0.0149655
726.343	0.0151802
726.421	0.0151276
726.499	0.0150862
726.578	0.0151063
726.656	0.0150931
726.734	0.0152063
726.812	0.0151973
726.890	0.0151128
726.968	0.0151254
727.046	0.0150999
727.124	0.0149613
727.203	0.0150761
727.281	0.0150452
727.359	0.0150681
727.437	0.0150858
727.515	0.0151003
727.593	0.0149600
727.671	0.0149644
727.749	0.0149755
727.828	0.0151060
727.906	0.0151342
727.984	0.0150036
728.062	0.0150504
728.140	0.0150242
728.218	0.0151028
728.296	0.0151415
728.374	0.0152039
728.453	0.0150472
728.531	0.0150796
728.609	0.0150953
728.687	0.0150731
728.765	0.0150519
728.843	0.0149472
728.921	0.0150314
728.999	0.0149192
729.078	0.0147669
729.156	0.0148692
729.234	0.0149866
729.312	0.0150674
729.390	0.0150372
729.468	0.0148477
729.546	0.0148241
729.624	0.0148904
729.703	0.0147623
729.781	0.0148584
729.859	0.0149621
729.937	0.0149321
730.015	0.0149960
730.093	0.0148963
730.171	0.0148622
730.249	0.0150744
730.328	0.0149216
730.406	0.0150166
730.484	0.0150681
730.562	0.0150145
730.640	0.0150041
730.718	0.0147747
730.796	0.0150034
730.874	0.0150627
730.953	0.0150001
731.031	0.0149985
731.109	0.0149945
731.187	0.0150164
731.265	0.0152050
731.343	0.0150977
731.421	0.0149398
731.499	0.0149913
731.578	0.0152058
731.656	0.0152483
731.734	0.0151088
731.812	0.0149337
731.890	0.0151258
731.968	0.0150526
732.046	0.0150760
732.124	0.0150630
732.203	0.0150617
732.281	0.0150085
732.359	0.0149311
732.437	0.0150616
732.515	0.0149802
732.593	0.0150266
732.671	0.0150599
732.749	0.0149586
732.828	0.0149290
732.906	0.0149915
732.984	0.0148400
733.062	0.0148460
733.140	0.0149885
733.218	0.0149091
733.296	0.0148902
733.374	0.0149832
733.453	0.0149442
733.531	0.0148920
733.609	0.0149916
733.687	0.0150539
733.765	0.0148393
733.843	0.0148463
733.921	0.0149748
733.999	0.0150381
734.078	0.0149864
734.156	0.0149667
734.234	0.0150726
734.312	0.0150421
734.390	0.0150947
734.468	0.0149618
734.546	0.0149242
734.624	0.0150148
734.703	0.0150031
734.781	0.0149821
734.859	0.0150539
734.937	0.0149851
735.015	0.0150459
735.093	0.0150086
735.171	0.0149928
735.249	0.0150349
735.328	0.0150603
735.406	0.0151701
735.484	0.0150249
735.562	0.0149611
735.640	0.0151283
735.718	0.0151169
735.796	0.0151319
735.874	0.0151040
735.953	0.0150657
736.031	0.0151295
736.109	0.0151381
736.187	0.0151003
736.265	0.0150066
736.343	0.0152498
736.421	0.0150460
736.499	0.0150034
736.578	0.0151003
736.656	0.0151840
736.734	0.0150632
736.812	0.0151305
736.890	0.0149471
736.968	0.0148655
737.046	0.0149307
737.124	0.0150439
737.203	0.0148254
737.281	0.0149529
737.359	0.0150506
737.437	0.0150693
737.515	0.0150325
737.593	0.0149734
737.671	0.0151235
737.749	0.0150811
737.828	0.0149242
737.906	0.0147954
737.984	0.0149741
738.062	0.0150471
738.140	0.0149320
738.218	0.0149627
738.296	0.0149701
738.374	0.0149403
738.453	0.0150215
738.531	0.0150407
738.609	0.0148634
738.687	0.0149628
738.765	0.0150026
738.843	0.0149658
738.921	0.0151473
738.999	0.0149804
739.078	0.0149955
739.156	0.0150243
739.234	0.0149508
739.312	0.0149739
739.390	0.0150821
739.468	0.0151624
739.546	0.0149816
739.624	0.0150970
739.703	0.0150197
739.781	0.0149914
739.859	0.0149702
739.937	0.0151060
740.015	0.0149152
740.093	0.0149335
740.171	0.0148868
740.249	0.0149598
740.328	0.0150687
740.406	0.0150334
740.484	0.0150146
740.562	0.0150382
740.640	0.0149274
740.718	0.0150121
740.796	0.0150283
740.874	0.0150075
740.953	0.0149385
741.031	0.0148879
741.109	0.0149281
741.187	0.0150395
741.265	0.0149426
741.343	0.0149885
741.421	0.0150588
741.499	0.0149653
741.578	0.0148304
741.656	0.0150049
741.734	0.0149559
741.812	0.0150212
741.890	0.0149210
741.968	0.0149384
742.046	0.0150423
742.124	0.0149928
742.203	0.0149244
742.281	0.0149548
742.359	0.0150255
742.437	0.0150745
742.515	0.0148505
742.593	0.0150314
742.671	0.0150578
742.749	0.0149642
742.828	0.0149864
742.906	0.0149323
742.984	0.0150777
743.062	0.0149930
743.140	0.0151930
743.218	0.0149484
743.296	0.0150326
743.374	0.0150073
743.453	0.0151229
743.531	0.0151122
743.609	0.0151599
743.687	0.0150598
743.765	0.0151640
743.843	0.0152042
743.921	0.0150838
743.999	0.0151241
744.078	0.0151746
744.156	0.0151402
744.234	0.0151201
744.312	0.0151150
744.390	0.0150050
744.468	0.0150997
744.546	0.0150707
744.624	0.0149621
744.703	0.0149132
744.781	0.0149271
744.859	0.0149705
744.937	0.0148153
745.015	0.0150121
745.093	0.0150124
745.171	0.0148796
745.249	0.0148712
745.328	0.0148222
745.406	0.0148125
745.484	0.0148044
745.562	0.0147516
745.640	0.0148045
745.718	0.0149813
745.796	0.0148628
745.874	0.0148864
745.953	0.0149516
746.031	0.0148563
746.109	0.0148233
746.187	0.0149299
746.265	0.0149665
746.343	0.0150144
746.421	0.0149181
746.499	0.0150796
746.578	0.0150981
746.656	0.0151867
746.734	0.0149957
746.812	0.0148910
746.890	0.0150520
746.968	0.0151956
747.046	0.0152071
747.124	0.0151409
747.203	0.0150793
747.281	0.0150623
747.359	0.0151066
747.437	0.0150401
747.515	0.0150696
747.593	0.0149955
747.671	0.0151212
747.749	0.0151961
747.828	0.0151496
747.906	0.0150499
747.984	0.0150986
748.062	0.0151266
748.140	0.0151897
748.218	0.0151560
748.296	0.0150487
748.374	0.0150782
748.453	0.0150614
748.531	0.0150605
748.609	0.0149931
748.687	0.0149565
748.765	0.0151479
748.843	0.0149521
748.921	0.0148574
748.999	0.0149316
749.078	0.0149573
749.156	0.0148658
749.234	0.0148573
749.312	0.0148913
749.390	0.0148217
749.468	0.0148633
749.546	0.0150339
749.624	0.0151028
749.703	0.0148672
749.781	0.0149548
749.859	0.0149903
749.937	0.0147858
750.015	0.0147802
750.093	0.0149050
750.171	0.0147869
750.249	0.0149937
750.328	0.0148502
750.406	0.0148079
750.484	0.0149932
750.562	0.0149567
750.640	0.0149236
750.718	0.0149258
750.796	0.0148949
750.874	0.0149668
750.953	0.0150153
751.031	0.0151197
751.109	0.0151472
751.187	0.0148779
751.265	0.0149348
751.343	0.0150816
751.421	0.0151421
751.499	0.0150267
751.578	0.0151266
751.656	0.0151872
751.734	0.0149466
751.812	0.0151636
751.890	0.0150797
751.968	0.0151537
752.046	0.0151952
752.124	0.0151228
752.203	0.0151025
752.281	0.0151542
752.359	0.0151043
752.437	0.0150705
752.515	0.0151275
752.593	0.0150243
752.671	0.0151022
752.749	0.0150009
752.828	0.0150887
752.906	0.0151366
752.984	0.0150194
753.062	0.0150086
753.140	0.0150353
753.218	0.0149800
753.296	0.0149526
753.374	0.0150262
753.453	0.0149723
753.531	0.0149099
753.609	0.0149184
753.687	0.0149254
753.765	0.0148668
753.843	0.0148526
753.921	0.0149947
753.999	0.0149848
754.078	0.0148778
754.156	0.0147688
754.234	0.0148904
754.312	0.0148811
754.390	0.0149229
754.468	0.0148486
754.546	0.0149529
754.624	0.0147859
754.703	0.0148222
754.781	0.0148433
754.859	0.0148504
754.937	0.0149648
755.015	0.0148753
755.093	0.0148837
755.171	0.0148356
755.249	0.0148706
755.328	0.0149107
755.406	0.0147685
755.484	0.0149243
755.562	0.0148475
755.640	0.0149429
755.718	0.0150885
755.796	0.0149655
755.874	0.0150095
755.953	0.0150589
756.031	0.0151250
756.109	0.0149925
756.187	0.0151211
756.265	0.0151382
756.343	0.0149977
756.421	0.0150347
756.499	0.0150116
756.578	0.0150316
756.656	0.0150547
756.734	0.0150523
756.812	0.0150656
756.890	0.0148786
756.968	0.0147799
757.046	0.0148696
757.124	0.0149606
757.203	0.0149532
757.281	0.0150131
757.359	0.0148566
757.437	0.0149239
757.515	0.0149211
757.593	0.0149763
757.671	0.0150558
757.749	0.0150963
757.828	0.0150002
757.906	0.0149800
757.984	0.0149446
758.062	0.0148739
758.140	0.0148985
758.218	0.0150449
758.296	0.0148428
758.374	0.0149295
758.453	0.0147762
758.531	0.0147298
758.609	0.0147643
758.687	0.0147343
758.765	0.0146571
758.843	0.0148256
758.921	0.0149133
758.999	0.0148049
759.078	0.0147887
759.156	0.0148190
759.234	0.0147881
759.312	0.0149760
759.390	0.0149015
759.468	0.0150588
759.546	0.0150700
759.624	0.0150745
759.703	0.0150655
759.781	0.0150495
759.859	0.0151875
759.937	0.0149577
760.015	0.0150934
760.093	0.0151728
760.171	0.0151408
760.249	0.0150167
760.328	0.0149026
760.406	0.0149091
760.484	0.0149729
760.562	0.0149961
760.640	0.0150095
760.718	0.0149689
760.796	0.0149046
760.874	0.0150404
760.953	0.0149299
761.031	0.0149472
761.109	0.0149050
761.187	0.0149816
761.265	0.0151128
761.343	0.0150350
761.421	0.0150597
761.499	0.0151913
761.578	0.0150529
761.656	0.0151603
761.734	0.0150716
761.812	0.0149988
761.890	0.0149081
761.968	0.0148732
762.046	0.0149830
762.124	0.0147437
762.203	0.0148296
762.281	0.0149625
762.359	0.0147929
762.437	0.0147368
762.515	0.0146523
762.593	0.0148304
762.671	0.0147926
762.749	0.0148641
762.828	0.0148593
762.906	0.0149233
762.984	0.0151107
763.062	0.0151337
763.140	0.0151321
763.218	0.0150500
763.296	0.0149788
763.374	0.0150570
763.453	0.0150603
763.531	0.0149648
763.609	0.0150538
763.687	0.0149612
763.765	0.0150319
763.843	0.0150261
763.921	0.0149477
763.999	0.0150410
764.078	0.0150526
764.156	0.0149409
764.234	0.0149438
764.312	0.0148666
764.390	0.0149891
764.468	0.0150259
764.546	0.0149382
764.624	0.0150901
764.703	0.0150997
764.781	0.0151599
764.859	0.0151402
764.937	0.0152068
765.015	0.0151605
765.093	0.0151416
765.171	0.0151357
765.249	0.0151180
765.328	0.0150939
765.406	0.0150870
765.484	0.0150810
765.562	0.0150101
765.640	0.0149758
765.718	0.0150350
765.796	0.0149200
765.874	0.0150166
765.953	0.0149757
766.031	0.0147604
766.109	0.0148362
766.187	0.0148777
766.265	0.0148203
766.343	0.0150320
766.421	0.0149655
766.499	0.0149539
766.578	0.0150542
766.656	0.0150256
766.734	0.0150518
766.812	0.0149564
766.890	0.0149044
766.968	0.0149921
767.046	0.0150323
767.124	0.0150990
767.203	0.0149900
767.281	0.0151482
767.359	0.0150241
767.437	0.0149882
767.515	0.0149553
767.593	0.0149691
767.671	0.0150403
767.749	0.0150156
767.828	0.0148852
767.906	0.0148889
767.984	0.0149904
768.062	0.0150095
768.140	0.0151444
768.218	0.0151678
768.296	0.0151479
768.374	0.0151569
768.453	0.0152705
768.531	0.0151698
768.609	0.0153039
768.687	0.0153866
768.765	0.0153799
768.843	0.0152290
768.921	0.0150737
768.999	0.0150610
769.078	0.0152132
769.156	0.0151569
769.234	0.0152658
769.312	0.0151287
769.390	0.0151105
769.468	0.0150434
769.546	0.0150758
769.624	0.0150948
769.703	0.0149005
769.781	0.0150243
769.859	0.0150217
769.937	0.0150853
770.015	0.0150709
770.093	0.0149699
770.171	0.0150309
770.249	0.0152039
770.328	0.0151431
770.406	0.0150455
770.484	0.0149741
770.562	0.0151035
770.640	0.0152062
770.718	0.0150562
770.796	0.0150446
770.874	0.0150104
770.953	0.0150690
771.031	0.0151279
771.109	0.0149325
771.187	0.0149561
771.265	0.0148363
771.343	0.0149175
771.421	0.0149556
771.499	0.0150169
771.578	0.0151193
771.656	0.0149330
771.734	0.0150982
771.812	0.0150874
771.890	0.0150499
771.968	0.0151431
772.046	0.0150879
772.124	0.0151590
772.203	0.0151357
772.281	0.0150998
772.359	0.0151791
772.437	0.0152354
772.515	0.0153065
772.593	0.0151736
772.671	0.0151960
772.749	0.0151466
772.828	0.0151973
772.906	0.0151437
772.984	0.0151237
773.062	0.0151093
773.140	0.0152056
773.218	0.0151320
773.296	0.0151418
773.374	0.0149877
773.453	0.0150147
773.531	0.0151629
773.609	0.0152106
773.687	0.0151148
773.765	0.0150851
773.843	0.0150465
773.921	0.0152076
773.999	0.0150524
774.078	0.0150441
774.156	0.0152332
774.234	0.0150745
774.312	0.0151093
774.390	0.0150401
774.468	0.0150005
774.546	0.0150348
774.624	0.0148737
774.703	0.0148679
774.781	0.0148820
774.859	0.0149943
774.937	0.0149450
775.015	0.0149039
775.093	0.0150381
775.171	0.0149187
775.249	0.0150594
775.328	0.0150045
775.406	0.0150684
775.484	0.0151301
775.562	0.0149850
775.640	0.0150620
775.718	0.0149999
775.796	0.0150684
775.874	0.0150433
775.953	0.0151483
776.031	0.0151984
776.109	0.0152103
776.187	0.0151549
776.265	0.0150085
776.343	0.0150559
776.421	0.0151472
776.499	0.0152524
776.578	0.0150880
776.656	0.0150869
776.734	0.0151611
776.812	0.0150683
776.890	0.0151113
776.968	0.0150554
777.046	0.0150682
777.124	0.0150353
777.203	0.0150288
777.281	0.0151355
777.359	0.0150290
777.437	0.0150483
777.515	0.0151810
777.593	0.0150513
777.671	0.0152717
777.749	0.0152086
777.828	0.0150085
777.906	0.0149540
777.984	0.0150762
778.062	0.0150520
778.140	0.0150233
778.218	0.0149763
778.296	0.0148948
778.374	0.0149521
778.453	0.0149004
778.531	0.0148499
778.609	0.0148782
778.687	0.0149751
778.765	0.0150697
778.843	0.0149548
778.921	0.0148700
778.999	0.0150294
779.078	0.0149662
779.156	0.0150565
779.234	0.0150127
779.312	0.0149793
779.390	0.0150684
779.468	0.0150687
779.546	0.0150460
779.624	0.0149758
779.703	0.0150333
779.781	0.0150309
779.859	0.0149729
779.937	0.0150220
780.015	0.0150084
780.093	0.0150250
780.171	0.0150470
780.249	0.0150920
780.328	0.0149832
780.406	0.0149516
780.484	0.0150819
780.562	0.0150456
780.640	0.0151491
780.718	0.0151914
780.796	0.0152126
780.874	0.0152688
780.953	0.0151860
781.031	0.0150719
781.109	0.0152161
781.187	0.0151490
781.265	0.0151130
781.343	0.0151721
781.421	0.0152003
781.499	0.0151524
781.578	0.0150001
781.656	0.0149902
781.734	0.0149277
781.812	0.0149177
781.890	0.0148540
781.968	0.0150299
782.046	0.0149760
782.124	0.0150131
782.203	0.0148998
782.281	0.0149889
782.359	0.0150114
782.437	0.0151868
782.515	0.0152677
782.593	0.0150463
782.671	0.0151900
782.749	0.0151384
782.828	0.0150762
782.906	0.0151553
782.984	0.0150304
783.062	0.0151406
783.140	0.0150762
783.218	0.0151183
783.296	0.0150777
783.374	0.0150443
783.453	0.0149439
783.531	0.0149853
783.609	0.0151420
783.687	0.0150083
783.765	0.0151014
783.843	0.0150578
783.921	0.0151492
783.999	0.0150265
784.078	0.0151926
784.156	0.0151647
784.234	0.0151157
784.312	0.0150360
784.390	0.0151681
784.468	0.0152849
784.546	0.0151519
784.624	0.0151009
784.703	0.0150797
784.781	0.0151189
784.859	0.0151675
784.937	0.0149853
785.015	0.0149912
785.093	0.0152575
785.171	0.0151093
785.249	0.0152245
785.328	0.0152491
785.406	0.0151801
785.484	0.0151633
785.562	0.0149689
785.640	0.0150198
785.718	0.0151334
785.796	0.0150642
785.874	0.0149123
785.953	0.0150418
786.031	0.0151057
786.109	0.0149799
786.187	0.0149614
786.265	0.0150859
786.343	0.0149741
786.421	0.0149949
786.499	0.0149743
786.578	0.0148457
786.656	0.0149020
786.734	0.0149216
786.812	0.0150629
786.890	0.0149700
786.968	0.0149680
787.046	0.0150613
787.124	0.0151258
787.203	0.0150310
787.281	0.0148653
787.359	0.0150638
787.437	0.0149771
787.515	0.0151450
787.593	0.0149349
787.671	0.0150269
787.749	0.0150500
787.828	0.0150583
787.906	0.0152108
787.984	0.0150793
788.062	0.0149763
788.140	0.0152147
788.218	0.0152158
788.296	0.0152104
788.374	0.0151139
788.453	0.0152839
788.531	0.0151864
788.609	0.0153265
788.687	0.0151239
788.765	0.0151498
788.843	0.0152954
788.921	0.0151902
788.999	0.0151045
789.078	0.0151735
789.156	0.0152164
789.234	0.0150460
789.312	0.0149516
789.390	0.0151087
789.468	0.0151000
789.546	0.0151747
789.624	0.0151897
789.703	0.0151534
789.781	0.0151839
789.859	0.0152539
789.937	0.0152683
790.015	0.0152618
790.093	0.0153018
790.171	0.0151652
790.249	0.0152094
790.328	0.0151255
790.406	0.0151172
790.484	0.0150748
790.562	0.0150353
790.640	0.0149606
790.718	0.0147876
790.796	0.0147665
790.874	0.0148026
790.953	0.0148563
791.031	0.0149113
791.109	0.0149308
791.187	0.0148941
791.265	0.0150793
791.343	0.0151082
791.421	0.0150675
791.499	0.0151102
791.578	0.0150846
791.656	0.0152336
791.734	0.0152474
791.812	0.0152650
791.890	0.0153799
791.968	0.0152185
792.046	0.0151794
792.124	0.0152323
792.203	0.0152582
792.281	0.0150610
792.359	0.0151363
792.437	0.0150896
792.515	0.0152225
792.593	0.0152267
792.671	0.0150925
792.749	0.0151580
792.828	0.0151448
792.906	0.0151797
792.984	0.0152083
793.062	0.0152398
793.140	0.0152567
793.218	0.0152827
793.296	0.0153751
793.374	0.0153432
793.453	0.0151169
793.531	0.0153580
793.609	0.0153174
793.687	0.0153174
793.765	0.0151041
793.843	0.0152689
793.921	0.0152173
793.999	0.0151731
794.078	0.0150921
794.156	0.0150607
794.234	0.0150745
794.312	0.0150812
794.390	0.0151161
794.468	0.0150172
794.546	0.0148971
794.624	0.0149535
794.703	0.0151212
794.781	0.0150736
794.859	0.0151251
794.937	0.0151994
795.015	0.0151661
795.093	0.0152391
795.171	0.0150555
795.249	0.0150185
795.328	0.0151179
795.406	0.0149921
795.484	0.0151031
795.562	0.0149226
795.640	0.0149652
795.718	0.0149566
795.796	0.0150024
795.874	0.0149657
795.953	0.0149297
796.031	0.0149345
796.109	0.0150334
796.187	0.0148917
796.265	0.0149390
796.343	0.0149578
796.421	0.0151956
796.499	0.0150452
796.578	0.0150175
796.656	0.0151551
796.734	0.0151778
796.812	0.0151962
796.890	0.0151889
796.968	0.0151697
797.046	0.0150110
797.124	0.0151341
797.203	0.0151169
797.281	0.0150219
797.359	0.0150478
797.437	0.0149613
797.515	0.0150370
797.593	0.0150549
797.671	0.0149592
797.749	0.0150537
797.828	0.0151096
797.906	0.0150313
797.984	0.0149422
798.062	0.0150770
798.140	0.0151942
798.218	0.0152648
798.296	0.0151226
798.374	0.0153976
798.453	0.0152455
798.531	0.0150584
798.609	0.0151926
798.687	0.0151109
798.765	0.0150576
798.843	0.0151141
798.921	0.0151248
798.999	0.0150750
799.078	0.0150314
799.156	0.0151497
799.234	0.0150244
799.312	0.0149893
799.390	0.0149297
799.468	0.0149258
799.546	0.0148898
799.624	0.0150699
799.703	0.0150203
799.781	0.0150541
799.859	0.0150597
799.937	0.0151292
800.015	0.0151096
800.093	0.0151014
800.171	0.0151176
800.249	0.0151322
800.328	0.0150108
800.406	0.0149574
800.484	0.0150214
800.562	0.0150317
800.640	0.0150191
800.718	0.0149783
800.796	0.0150165
800.874	0.0149970
800.953	0.0150612
801.031	0.0150757
801.109	0.0150271
801.187	0.0151006
801.265	0.0150813
801.343	0.0151148
801.421	0.0151454
801.499	0.0151070
801.578	0.0150790
801.656	0.0150176
801.734	0.0151994
801.812	0.0150992
801.890	0.0151974
801.968	0.0152198
802.046	0.0150922
802.124	0.0151375
802.203	0.0151457
802.281	0.0151539
802.359	0.0151331
802.437	0.0152689
802.515	0.0151087
802.593	0.0149931
802.671	0.0150659
802.749	0.0151262
802.828	0.0150767
802.906	0.0150589
802.984	0.0151286
803.062	0.0151453
803.140	0.0151116
803.218	0.0150591
803.296	0.0151125
803.374	0.0151764
803.453	0.0149680
803.531	0.0150057
803.609	0.0150764
803.687	0.0149605
803.765	0.0149223
803.843	0.0150468
803.921	0.0151216
803.999	0.0152158
804.078	0.0151709
804.156	0.0152183
804.234	0.0150819
804.312	0.0151137
804.390	0.0151532
804.468	0.0151225
804.546	0.0151343
804.624	0.0150067
804.703	0.0151892
804.781	0.0151872
804.859	0.0150625
804.937	0.0150278
805.015	0.0149614
805.093	0.0151167
805.171	0.0151057
805.249	0.0150562
805.328	0.0150524
805.406	0.0149799
805.484	0.0150808
805.562	0.0152496
805.640	0.0151076
805.718	0.0151983
805.796	0.0152023
805.874	0.0151311
805.953	0.0151163
806.031	0.0151261
806.109	0.0151141
806.187	0.0151694
806.265	0.0151231
806.343	0.0151783
806.421	0.0151580
806.499	0.0151506
806.578	0.0151753
806.656	0.0151543
806.734	0.0150218
806.812	0.0150364
806.890	0.0150127
806.968	0.0150935
807.046	0.0150967
807.124	0.0151751
807.203	0.0151243
807.281	0.0151215
807.359	0.0151520
807.437	0.0149911
807.515	0.0149564
807.593	0.0150804
807.671	0.0149948
807.749	0.0150607
807.828	0.0149779
807.906	0.0150027
807.984	0.0150100
808.062	0.0151233
808.140	0.0150370
808.218	0.0149126
808.296	0.0149400
808.374	0.0149249
808.453	0.0149412
808.531	0.0149226
808.609	0.0148213
808.687	0.0149030
808.765	0.0150323
808.843	0.0150420
808.921	0.0152476
808.999	0.0150669
809.078	0.0149868
809.156	0.0151211
809.234	0.0151866
809.312	0.0151247
809.390	0.0151482
809.468	0.0151760
809.546	0.0150520
809.624	0.0150818
809.703	0.0150803
809.781	0.0150242
809.859	0.0150603
809.937	0.0150984
810.015	0.0151664
810.093	0.0150484
810.171	0.0151970
810.249	0.0150450
810.328	0.0150890
810.406	0.0150339
810.484	0.0150312
810.562	0.0151598
810.640	0.0151554
810.718	0.0152059
810.796	0.0153005
810.874	0.0151486
810.953	0.0151266
811.031	0.0150284
811.109	0.0149770
811.187	0.0148944
811.265	0.0150231
811.343	0.0151003
811.421	0.0150101
811.499	0.0151432
811.578	0.0150156
811.656	0.0150408
811.734	0.0149972
811.812	0.0149409
811.890	0.0149126
811.968	0.0149479
812.046	0.0150516
812.124	0.0151315
812.203	0.0148239
812.281	0.0150012
812.359	0.0149442
812.437	0.0150306
812.515	0.0148895
812.593	0.0148752
812.671	0.0150892
812.749	0.0150866
812.828	0.0151048
812.906	0.0149287
812.984	0.0149332
813.062	0.0151274
813.140	0.0150071
813.218	0.0151067
813.296	0.0151268
813.374	0.0152802
813.453	0.0149624
813.531	0.0151047
813.609	0.0151672
813.687	0.0153811
813.765	0.0151678
813.843	0.0150854
813.921	0.0151538
813.999	0.0151808
814.078	0.0151279
814.156	0.0151671
814.234	0.0151564
814.312	0.0152043
814.390	0.0151492
814.468	0.0151125
814.546	0.0151500
814.624	0.0150175
814.703	0.0149922
814.781	0.0150346
814.859	0.0150328
814.937	0.0150201
815.015	0.0149696
815.093	0.0150573
815.171	0.0149710
815.249	0.0148867
815.328	0.0150123
815.406	0.0150494
815.484	0.0149746
815.562	0.0150927
815.640	0.0150802
815.718	0.0151035
815.796	0.0149584
815.874	0.0149563
815.953	0.0149901
816.031	0.0150799
816.109	0.0150267
816.187	0.0149084
816.265	0.0151167
816.343	0.0151793
816.421	0.0151195
816.499	0.0150698
816.578	0.0150108
816.656	0.0149150
816.734	0.0150352
816.812	0.0150395
816.890	0.0150854
816.968	0.0149080
817.046	0.0151048
817.124	0.0149725
817.203	0.0151412
817.281	0.0151050
817.359	0.0150405
817.437	0.0150171
817.515	0.0149024
817.593	0.0151204
817.671	0.0149596
817.749	0.0151907
817.828	0.0151110
817.906	0.0150719
817.984	0.0151960
818.062	0.0151830
818.140	0.0151450
818.218	0.0150681
818.296	0.0151640
818.374	0.0151639
818.453	0.0150416
818.531	0.0149419
818.609	0.0151102
818.687	0.0152338
818.765	0.0150855
818.843	0.0151679
818.921	0.0150271
818.999	0.0150938
819.078	0.0151666
819.156	0.0150697
819.234	0.0151151
819.312	0.0151474
819.390	0.0149794
819.468	0.0150481
819.546	0.0150818
819.624	0.0151341
819.703	0.0152279
819.781	0.0151266
819.859	0.0151340
819.937	0.0150391
820.015	0.0150431
820.093	0.0149847
820.171	0.0150305
820.249	0.0150833
820.328	0.0149008
820.406	0.0149408
820.484	0.0150776
820.562	0.0149039
820.640	0.0150829
820.718	0.0149081
820.796	0.0149923
820.874	0.0150257
820.953	0.0150959
821.031	0.0150146
821.109	0.0151308
821.187	0.0149687
821.265	0.0151246
821.343	0.0151900
821.421	0.0149582
821.499	0.0151320
821.578	0.0151494
821.656	0.0151698
821.734	0.0151846
821.812	0.0151746
821.890	0.0151694
821.968	0.0151263
822.046	0.0152576
822.124	0.0151701
822.203	0.0151849
822.281	0.0153160
822.359	0.0151794
822.437	0.0151703
822.515	0.0152838
822.593	0.0152174
822.671	0.0151263
822.749	0.0152448
822.828	0.0151964
822.906	0.0151482
822.984	0.0152052
823.062	0.0152296
823.140	0.0152667
823.218	0.0152317
823.296	0.0151111
823.374	0.0152642
823.453	0.0151823
823.531	0.0150285
823.609	0.0151210
823.687	0.0150927
823.765	0.0150457
823.843	0.0151347
823.921	0.0150626
823.999	0.0150313
824.078	0.0150387
824.156	0.0149871
824.234	0.0151112
824.312	0.0151398
824.390	0.0149906
824.468	0.0148833
824.546	0.0149747
824.624	0.0151500
824.703	0.0150502
824.781	0.0151490
824.859	0.0150845
824.937	0.0150502
825.015	0.0150104
825.093	0.0151116
825.171	0.0152322
825.249	0.0149904
825.328	0.0149280
825.406	0.0150618
825.484	0.0150683
825.562	0.0149242
825.640	0.0149890
825.718	0.0149786
825.796	0.0151548
825.874	0.0150640
825.953	0.0149851
826.031	0.0149482
826.109	0.0150249
826.187	0.0150893
826.265	0.0149609
826.343	0.0150533
826.421	0.0150805
826.499	0.0149850
826.578	0.0149658
826.656	0.0148548
826.734	0.0149452
826.812	0.0150768
826.890	0.0150475
826.968	0.0149101
827.046	0.0149497
827.124	0.0149604
827.203	0.0150034
827.281	0.0150652
827.359	0.0149879
827.437	0.0150185
827.515	0.0150986
827.593	0.0151469
827.671	0.0150419
827.749	0.0150703
827.828	0.0151466
827.906	0.0149327
827.984	0.0150309
828.062	0.0150462
828.140	0.0149732
828.218	0.0150784
828.296	0.0150546
828.374	0.0149320
828.453	0.0149133
828.531	0.0149583
828.609	0.0149088
828.687	0.0148722
828.765	0.0149467
828.843	0.0150668
828.921	0.0150764
828.999	0.0150609
829.078	0.0149518
829.156	0.0149600
829.234	0.0149487
829.312	0.0150005
829.390	0.0150699
829.468	0.0149934
829.546	0.0150400
829.624	0.0150195
829.703	0.0150983
829.781	0.0151013
829.859	0.0151685
829.937	0.0151891
830.015	0.0151167
830.093	0.0150517
830.171	0.0149888
830.249	0.0151051
830.328	0.0149883
830.406	0.0150789
830.484	0.0150377
830.562	0.0150294
830.640	0.0150458
830.718	0.0148816
830.796	0.0150452
830.874	0.0149950
830.953	0.0149210
831.031	0.0149989
831.109	0.0148935
831.187	0.0149456
831.265	0.0149633
831.343	0.0149447
831.421	0.0150400
831.499	0.0148985
831.578	0.0148350
831.656	0.0149490
831.734	0.0150437
831.812	0.0149802
831.890	0.0150373
831.968	0.0151427
832.046	0.0150786
832.124	0.0149792
832.203	0.0149443
832.281	0.0149733
832.359	0.0150241
832.437	0.0150368
832.515	0.0149081
832.593	0.0150379
832.671	0.0149541
832.749	0.0149601
832.828	0.0149711
832.906	0.0148872
832.984	0.0150548
833.062	0.0150485
833.140	0.0149926
833.218	0.0149674
833.296	0.0149849
833.374	0.0149357
833.453	0.0149123
833.531	0.0148956
833.609	0.0150641
833.687	0.0150682
833.765	0.0150232
833.843	0.0151252
833.921	0.0150795
833.999	0.0150112
834.078	0.0149979
834.156	0.0151064
834.234	0.0149872
834.312	0.0150540
834.390	0.0149890
834.468	0.0151281
834.546	0.0151109
834.624	0.0148679
834.703	0.0149663
834.781	0.0151431
834.859	0.0151282
834.937	0.0151381
835.015	0.0150394
835.093	0.0148979
835.171	0.0149536
835.249	0.0150144
835.328	0.0149086
835.406	0.0149553
835.484	0.0149776
835.562	0.0150333
835.640	0.0149636
835.718	0.0149794
835.796	0.0150024
835.874	0.0148070
835.953	0.0149541
836.031	0.0148640
836.109	0.0149506
836.187	0.0149204
836.265	0.0147189
836.343	0.0149698
836.421	0.0148514
836.499	0.0148373
836.578	0.0148880
836.656	0.0151012
836.734	0.0150091
836.812	0.0150018
836.890	0.0150538
836.968	0.0150361
837.046	0.0149439
837.124	0.0150320
837.203	0.0150381
837.281	0.0148671
837.359	0.0150500
837.437	0.0149524
837.515	0.0149613
837.593	0.0151411
837.671	0.0150484
837.749	0.0149393
837.828	0.0150346
837.906	0.0149958
837.984	0.0149538
838.062	0.0149954
838.140	0.0149704
838.218	0.0149957
838.296	0.0149734
838.374	0.0151629
838.453	0.0150420
838.531	0.0151109
838.609	0.0150289
838.687	0.0151982
838.765	0.0150906
838.843	0.0150112
838.921	0.0150349
838.999	0.0149768
839.078	0.0149635
839.156	0.0150119
839.234	0.0149607
839.312	0.0149148
839.390	0.0152325
839.468	0.0151740
839.546	0.0148289
839.624	0.0150893
839.703	0.0151412
839.781	0.0149469
839.859	0.0149960
839.937	0.0149946
840.015	0.0149532
840.093	0.0151571
840.171	0.0149721
840.249	0.0150397
840.328	0.0149894
840.406	0.0150182
840.484	0.0148846
840.562	0.0150507
840.640	0.0149377
840.718	0.0149873
840.796	0.0150668
840.874	0.0149599
840.953	0.0149815
841.031	0.0149623
841.109	0.0150270
841.187	0.0149976
841.265	0.0149474
841.343	0.0149291
841.421	0.0149422
841.499	0.0150813
841.578	0.0150648
841.656	0.0150568
841.734	0.0150170
841.812	0.0150725
841.890	0.0150699
841.968	0.0150819
842.046	0.0150723
842.124	0.0150624
842.203	0.0149577
842.281	0.0150630
842.359	0.0151620
842.437	0.0150887
842.515	0.0151096
842.593	0.0150043
842.671	0.0150853
842.749	0.0150969
842.828	0.0148470
842.906	0.0151955
842.984	0.0152428
843.062	0.0151472
843.140	0.0150616
843.218	0.0150629
843.296	0.0150703
843.374	0.0150288
843.453	0.0150398
843.531	0.0151302
843.609	0.0150729
843.687	0.0151111
843.765	0.0149369
843.843	0.0150977
843.921	0.0151387
843.999	0.0150056
844.078	0.0149643
844.156	0.0149275
844.234	0.0149595
844.312	0.0150180
844.390	0.0149329
844.468	0.0149468
844.546	0.0150362
844.624	0.0151089
844.703	0.0149019
844.781	0.0148974
844.859	0.0150391
844.937	0.0149490
845.015	0.0150565
845.093	0.0151054
845.171	0.0151242
845.249	0.0152460
845.328	0.0150672
845.406	0.0151291
845.484	0.0151817
845.562	0.0150486
845.640	0.0151421
845.718	0.0150504
845.796	0.0150851
845.874	0.0150865
845.953	0.0149861
846.031	0.0150948
846.109	0.0150646
846.187	0.0150803
846.265	0.0150111
846.343	0.0150647
846.421	0.0150613
846.499	0.0152189
846.578	0.0151731
846.656	0.0151639
846.734	0.0149900
846.812	0.0150882
846.890	0.0151415
846.968	0.0152202
847.046	0.0150584
847.124	0.0152190
847.203	0.0150176
847.281	0.0150230
847.359	0.0150925
847.437	0.0150603
847.515	0.0151048
847.593	0.0149542
847.671	0.0151501
847.749	0.0150257
847.828	0.0149641
847.906	0.0150562
847.984	0.0150128
848.062	0.0149701
848.140	0.0150574
848.218	0.0149198
848.296	0.0149780
848.374	0.0149397
848.453	0.0151211
848.531	0.0148409
848.609	0.0151228
848.687	0.0149776
848.765	0.0150950
848.843	0.0151139
848.921	0.0150474
848.999	0.0148669
849.078	0.0150049
849.156	0.0149533
849.234	0.0148830
849.312	0.0148879
849.390	0.0150587
849.468	0.0149076
849.546	0.0149317
849.624	0.0150446
849.703	0.0152234
849.781	0.0150435
849.859	0.0150610
849.937	0.0150941
850.015	0.0151629
850.093	0.0151456
850.171	0.0150208
850.249	0.0152219
850.328	0.0151508
850.406	0.0149833
850.484	0.0150446
850.562	0.0151099
850.640	0.0149937
850.718	0.0150883
850.796	0.0151385
850.874	0.0150719
850.953	0.0150411
851.031	0.0150163
851.109	0.0151486
851.187	0.0152283
851.265	0.0152795
851.343	0.0151149
851.421	0.0151254
851.499	0.0151820
851.578	0.0152772
851.656	0.0153264
851.734	0.0151367
851.812	0.0150630
851.890	0.0151062
851.968	0.0151642
852.046	0.0150691
852.124	0.0151047
852.203	0.0151178
852.281	0.0151138
852.359	0.0150101
852.437	0.0151085
852.515	0.0150675
852.593	0.0151701
852.671	0.0149632
852.749	0.0151485
852.828	0.0152065
852.906	0.0149538
852.984	0.0151176
853.062	0.0149828
853.140	0.0149566
853.218	0.0149594
853.296	0.0149942
853.374	0.0149599
853.453	0.0150277
853.531	0.0149872
853.609	0.0149931
853.687	0.0150574
853.765	0.0150021
853.843	0.0148003
853.921	0.0148519
853.999	0.0151025
854.078	0.0150138
854.156	0.0150583
854.234	0.0150578
854.312	0.0149136
854.390	0.0150075
854.468	0.0151045
854.546	0.0151765
854.624	0.0152383
854.703	0.0151003
854.781	0.0150877
854.859	0.0151318
854.937	0.0151218
855.015	0.0151470
855.093	0.0151624
855.171	0.0152296
855.249	0.0150451
855.328	0.0150629
855.406	0.0151089
855.484	0.0150053
855.562	0.0151265
855.640	0.0151412
855.718	0.0151546
855.796	0.0150922
855.874	0.0150659
855.953	0.0150922
856.031	0.0151051
856.109	0.0151033
856.187	0.0149506
856.265	0.0150594
856.343	0.0150310
856.421	0.0150427
856.499	0.0150188
856.578	0.0150020
856.656	0.0150320
856.734	0.0148985
856.812	0.0149268
856.890	0.0149390
856.968	0.0149323
857.046	0.0150081
857.124	0.0149660
857.203	0.0150023
857.281	0.0148814
857.359	0.0149735
857.437	0.0150427
857.515	0.0149094
857.593	0.0149773
857.671	0.0150455
857.749	0.0151481
857.828	0.0150961
857.906	0.0150644
857.984	0.0151319
858.062	0.0150423
858.140	0.0150259
858.218	0.0150598
858.296	0.0150423
858.374	0.0150569
858.453	0.0151653
858.531	0.0149155
858.609	0.0150660
858.687	0.0150625
858.765	0.0150023
858.843	0.0150259
858.921	0.0150014
858.999	0.0150577
859.078	0.0152357
859.156	0.0151142
859.234	0.0151332
859.312	0.0150784
859.390	0.0151408
859.468	0.0151775
859.546	0.0151410
859.624	0.0150956
859.703	0.0151196
859.781	0.0150990
859.859	0.0149435
859.937	0.0151463
860.015	0.0150157
860.093	0.0149751
860.171	0.0149956
860.249	0.0149764
860.328	0.0148778
860.406	0.0150713
860.484	0.0149850
860.562	0.0151422
860.640	0.0150895
860.718	0.0151516
860.796	0.0148376
860.874	0.0150451
860.953	0.0151439
861.031	0.0150897
861.109	0.0149339
861.187	0.0148867
861.265	0.0148010
861.343	0.0149969
861.421	0.0150175
861.499	0.0149998
861.578	0.0149713
861.656	0.0149809
861.734	0.0149181
861.812	0.0148438
861.890	0.0149059
861.968	0.0148639
862.046	0.0148531
862.124	0.0148754
862.203	0.0150624
862.281	0.0151090
862.359	0.0151084
862.437	0.0151295
862.515	0.0151799
862.593	0.0151759
862.671	0.0153624
862.749	0.0152650
862.828	0.0151562
862.906	0.0152302
862.984	0.0151657
863.062	0.0152065
863.140	0.0151931
863.218	0.0152332
863.296	0.0151417
863.374	0.0151271
863.453	0.0150750
863.531	0.0151926
863.609	0.0152036
863.687	0.0151241
863.765	0.0151640
863.843	0.0151485
863.921	0.0150786
863.999	0.0150525
864.078	0.0150949
864.156	0.0151517
864.234	0.0151495
864.312	0.0151859
864.390	0.0150684
864.468	0.0151293
864.546	0.0150810
864.624	0.0150037
864.703	0.0150470
864.781	0.0151569
864.859	0.0150176
864.937	0.0150723
865.015	0.0149207
865.093	0.0150970
865.171	0.0151861
865.249	0.0149278
865.328	0.0148293
865.406	0.0150374
865.484	0.0150266
865.562	0.0149234
865.640	0.0150777
865.718	0.0151354
865.796	0.0151610
865.874	0.0150343
865.953	0.0149528
866.031	0.0149924
866.109	0.0149899
866.187	0.0150020
866.265	0.0151042
866.343	0.0151524
866.421	0.0150267
866.499	0.0150278
866.578	0.0150730
866.656	0.0150531
866.734	0.0151423
866.812	0.0150376
866.890	0.0150288
866.968	0.0150158
867.046	0.0150375
867.124	0.0150539
867.203	0.0152248
867.281	0.0150916
867.359	0.0150436
867.437	0.0150934
867.515	0.0150459
867.593	0.0149957
867.671	0.0150729
867.749	0.0150919
867.828	0.0150630
867.906	0.0151042
867.984	0.0151263
868.062	0.0149707
868.140	0.0151837
868.218	0.0151963
868.296	0.0151067
868.374	0.0152046
868.453	0.0150277
868.531	0.0149583
868.609	0.0150157
868.687	0.0151337
868.765	0.0152240
868.843	0.0151591
868.921	0.0150102
868.999	0.0150232
869.078	0.0151072
869.156	0.0150881
869.234	0.0150153
869.312	0.0149699
869.390	0.0149981
869.468	0.0150423
869.546	0.0150931
869.624	0.0150530
869.703	0.0149133
869.781	0.0150141
869.859	0.0149799
869.937	0.0149809
870.015	0.0152653
870.093	0.0150877
870.171	0.0150605
870.249	0.0151266
870.328	0.0151431
870.406	0.0151213
870.484	0.0152481
870.562	0.0151150
870.640	0.0150946
870.718	0.0152161
870.796	0.0152260
870.874	0.0152135
870.953	0.0151273
871.031	0.0149719
871.109	0.0149539
871.187	0.0150185
871.265	0.0150762
871.343	0.0152539
871.421	0.0152361
871.499	0.0151093
871.578	0.0150831
871.656	0.0152190
871.734	0.0151640
871.812	0.0151542
871.890	0.0150719
871.968	0.0150748
872.046	0.0151160
872.124	0.0152596
872.203	0.0152187
872.281	0.0151550
872.359	0.0150966
872.437	0.0151251
872.515	0.0151499
872.593	0.0151181
872.671	0.0150500
872.749	0.0151842
872.828	0.0150900
872.906	0.0149699
872.984	0.0151227
873.062	0.0151729
873.140	0.0152010
873.218	0.0150002
873.296	0.0150616
873.374	0.0149313
873.453	0.0150369
873.531	0.0151210
873.609	0.0150522
873.687	0.0149700
873.765	0.0150874
873.843	0.0150858
873.921	0.0150815
873.999	0.0151469
874.078	0.0151422
874.156	0.0149974
874.234	0.0149504
874.312	0.0149172
874.390	0.0151244
874.468	0.0151934
874.546	0.0149965
874.624	0.0149784
874.703	0.0150769
874.781	0.0150206
874.859	0.0150389
874.937	0.0149869
875.015	0.0150432
875.093	0.0151102
875.171	0.0150349
875.249	0.0151851
875.328	0.0152091
875.406	0.0148932
875.484	0.0150804
875.562	0.0152119
875.640	0.0150277
875.718	0.0151910
875.796	0.0150971
875.874	0.0149508
875.953	0.0151293
876.031	0.0150515
876.109	0.0151123
876.187	0.0150507
876.265	0.0150748
876.343	0.0151044
876.421	0.0149559
876.499	0.0150591
876.578	0.0150699
876.656	0.0149856
876.734	0.0151735
876.812	0.0150542
876.890	0.0150631
876.968	0.0150679
877.046	0.0149666
877.124	0.0151277
877.203	0.0150165
877.281	0.0150476
877.359	0.0151057
877.437	0.0150535
877.515	0.0152242
877.593	0.0151389
877.671	0.0151591
877.749	0.0151486
877.828	0.0151389
877.906	0.0151340
877.984	0.0149986
878.062	0.0151406
878.140	0.0150330
878.218	0.0150595
878.296	0.0149940
878.374	0.0151375
878.453	0.0150790
878.531	0.0151764
878.609	0.0151568
878.687	0.0149764
878.765	0.0150072
878.843	0.0151746
878.921	0.0150613
878.999	0.0151232
879.078	0.0151736
879.156	0.0150327
879.234	0.0149961
879.312	0.0151197
879.390	0.0149640
879.468	0.0150809
879.546	0.0148096
879.624	0.0149567
879.703	0.0150706
879.781	0.0150133
879.859	0.0150963
879.937	0.0152016
880.015	0.0150196
880.093	0.0150350
880.171	0.0150612
880.249	0.0151061
880.328	0.0149832
880.406	0.0149754
880.484	0.0150093
880.562	0.0150166
880.640	0.0150653
880.718	0.0150115
880.796	0.0149741
880.874	0.0148691
880.953	0.0149605
881.031	0.0150080
881.109	0.0150472
881.187	0.0150016
881.265	0.0149948
881.343	0.0149447
881.421	0.0150148
881.499	0.0151799
881.578	0.0150661
881.656	0.0149982
881.734	0.0151907
881.812	0.0150120
881.890	0.0151282
881.968	0.0150222
882.046	0.0150912
882.124	0.0151025
882.203	0.0150423
882.281	0.0151031
882.359	0.0150938
882.437	0.0151258
882.515	0.0152006
882.593	0.0151851
882.671	0.0151878
882.749	0.0150843
882.828	0.0150429
882.906	0.0150717
882.984	0.0150283
883.062	0.0150884
883.140	0.0150624
883.218	0.0150359
883.296	0.0150620
883.374	0.0151550
883.453	0.0150526
883.531	0.0150791
883.609	0.0151086
883.687	0.0151696
883.765	0.0150661
883.843	0.0150667
883.921	0.0149924
883.999	0.0150879
884.078	0.0149963
884.156	0.0150658
884.234	0.0150394
884.312	0.0150200
884.390	0.0150120
884.468	0.0149509
884.546	0.0150330
884.624	0.0151344
884.703	0.0151801
884.781	0.0150826
884.859	0.0150217
884.937	0.0150300
885.015	0.0151070
885.093	0.0150644
885.171	0.0151225
885.249	0.0151337
885.328	0.0149572
885.406	0.0150685
885.484	0.0151066
885.562	0.0151770
885.640	0.0150275
885.718	0.0151330
885.796	0.0151684
885.874	0.0151215
885.953	0.0151252
886.031	0.0151259
886.109	0.0151309
886.187	0.0150928
886.265	0.0150587
886.343	0.0151733
886.421	0.0152654
886.499	0.0151034
886.578	0.0150966
886.656	0.0151083
886.734	0.0150922
886.812	0.0151002
886.890	0.0151386
886.968	0.0150990
887.046	0.0150711
887.124	0.0151543
887.203	0.0149926
887.281	0.0150085
887.359	0.0150732
887.437	0.0150517
887.515	0.0151094
887.593	0.0151136
887.671	0.0151492
887.749	0.0152155
887.828	0.0151146
887.906	0.0149992
887.984	0.0151007
888.062	0.0151488
888.140	0.0150799
888.218	0.0150662
888.296	0.0150434
888.374	0.0151347
888.453	0.0149665
888.531	0.0149943
888.609	0.0148666
888.687	0.0150845
888.765	0.0151257
888.843	0.0150164
888.921	0.0151031
888.999	0.0153142
889.078	0.0151025
889.156	0.0150356
889.234	0.0150101
889.312	0.0152786
889.390	0.0151459
889.468	0.0150716
889.546	0.0151437
889.624	0.0150524
889.703	0.0151400
889.781	0.0150027
889.859	0.0151901
889.937	0.0152287
890.015	0.0150310
890.093	0.0150977
890.171	0.0149975
890.249	0.0149578
890.328	0.0149818
890.406	0.0149420
890.484	0.0151363
890.562	0.0150845
890.640	0.0149986
890.718	0.0150600
890.796	0.0150087
890.874	0.0151389
890.953	0.0150677
891.031	0.0149848
891.109	0.0149940
891.187	0.0151091
891.265	0.0150769
891.343	0.0149636
891.421	0.0150102
891.499	0.0150019
891.578	0.0150540
891.656	0.0150558
891.734	0.0150375
891.812	0.0149402
891.890	0.0149773
891.968	0.0149011
892.046	0.0148959
892.124	0.0150294
892.203	0.0150100
892.281	0.0149942
892.359	0.0151595
892.437	0.0149236
892.515	0.0150541
892.593	0.0150670
892.671	0.0150633
892.749	0.0150974
892.828	0.0151032
892.906	0.0152027
892.984	0.0151295
893.062	0.0150894
893.140	0.0151210
893.218	0.0150076
893.296	0.0149497
893.374	0.0150060
893.453	0.0151566
893.531	0.0151260
893.609	0.0150434
893.687	0.0150300
893.765	0.0150845
893.843	0.0151528
893.921	0.0151973
893.999	0.0149243
894.078	0.0149664
894.156	0.0152039
894.234	0.0149762
894.312	0.0151069
894.390	0.0151592
894.468	0.0152067
894.546	0.0151194
894.624	0.0149834
894.703	0.0149414
894.781	0.0150548
894.859	0.0150627
894.937	0.0150437
895.015	0.0150629
895.093	0.0150072
895.171	0.0151508
895.249	0.0149825
895.328	0.0149304
895.406	0.0148753
895.484	0.0150595
895.562	0.0151399
895.640	0.0149149
895.718	0.0149468
895.796	0.0149940
895.874	0.0149462
895.953	0.0150082
896.031	0.0149858
896.109	0.0150674
896.187	0.0151054
896.265	0.0151003
896.343	0.0150323
896.421	0.0150044
896.499	0.0150106
896.578	0.0150559
896.656	0.0149718
896.734	0.0150563
896.812	0.0149987
896.890	0.0149349
896.968	0.0150306
897.046	0.0149950
897.124	0.0152055
897.203	0.0150409
897.281	0.0150346
897.359	0.0151369
897.437	0.0149630
897.515	0.0150422
897.593	0.0150585
897.671	0.0151477
897.749	0.0152046
897.828	0.0150011
897.906	0.0150644
897.984	0.0151412
898.062	0.0151226
898.140	0.0152644
898.218	0.0150262
898.296	0.0151633
898.374	0.0152269
898.453	0.0150781
898.531	0.0150745
898.609	0.0150586
898.687	0.0149967
898.765	0.0150816
898.843	0.0149317
898.921	0.0151419
898.999	0.0150022
899.078	0.0150138
899.156	0.0150709
899.234	0.0149757
899.312	0.0150134
899.390	0.0151280
899.468	0.0149588
899.546	0.0149857
899.624	0.0150401
899.703	0.0151428
899.781	0.0150261
899.859	0.0149783
899.937	0.0149728
900.015	0.0149801
900.093	0.0150110
900.171	0.0150336
900.249	0.0149353
900.328	0.0150072
900.406	0.0150491
900.484	0.0149095
900.562	0.0150238
900.640	0.0150294
900.718	0.0149610
900.796	0.0150905
900.874	0.0149306
900.953	0.0150745
901.031	0.0149784
901.109	0.0150356
901.187	0.0150111
901.265	0.0151315
901.343	0.0150977
901.421	0.0151157
901.499	0.0150023
901.578	0.0151893
901.656	0.0151510
901.734	0.0150716
901.812	0.0150260
901.890	0.0151060
901.968	0.0151674
902.046	0.0150687
902.124	0.0150850
902.203	0.0151843
902.281	0.0151089
902.359	0.0151035
902.437	0.0150868
902.515	0.0149512
902.593	0.0149970
902.671	0.0150194
902.749	0.0149506
902.828	0.0150527
902.906	0.0149326
902.984	0.0151253
903.062	0.0151055
903.140	0.0151198
903.218	0.0149789
903.296	0.0150161
903.374	0.0150320
903.453	0.0151316
903.531	0.0149707
903.609	0.0149192
903.687	0.0149727
903.765	0.0151171
903.843	0.0149925
903.921	0.0148890
903.999	0.0150256
904.078	0.0148757
904.156	0.0151277
904.234	0.0148739
904.312	0.0148721
904.390	0.0148741
904.468	0.0151443
904.546	0.0148964
904.624	0.0149127
904.703	0.0150069
904.781	0.0150435
904.859	0.0149747
904.937	0.0150478
905.015	0.0150893
905.093	0.0150114
905.171	0.0151282
905.249	0.0150740
905.328	0.0150407
905.406	0.0150632
905.484	0.0150478
905.562	0.0151034
905.640	0.0150809
905.718	0.0151437
905.796	0.0150621
905.874	0.0151089
905.953	0.0151630
906.031	0.0150324
906.109	0.0150160
906.187	0.0151850
906.265	0.0152032
906.343	0.0150539
906.421	0.0152514
906.499	0.0150384
906.578	0.0149438
906.656	0.0151270
906.734	0.0150128
906.812	0.0150893
906.890	0.0150333
906.968	0.0151597
907.046	0.0150843
907.124	0.0151507
907.203	0.0150582
907.281	0.0150781
907.359	0.0150520
907.437	0.0151272
907.515	0.0149883
907.593	0.0151422
907.671	0.0150775
907.749	0.0150073
907.828	0.0150878
907.906	0.0151011
907.984	0.0151405
908.062	0.0151058
908.140	0.0150195
908.218	0.0151840
908.296	0.0150007
908.374	0.0150501
908.453	0.0150742
908.531	0.0150288
908.609	0.0151162
908.687	0.0150411
908.765	0.0149908
908.843	0.0150841
908.921	0.0150868
908.999	0.0151106
909.078	0.0149576
909.156	0.0150935
909.234	0.0150852
909.312	0.0149880
909.390	0.0150217
909.468	0.0150346
909.546	0.0150365
909.624	0.0149392
909.703	0.0151964
909.781	0.0151065
909.859	0.0151450
909.937	0.0151456
910.015	0.0150470
910.093	0.0151126
910.171	0.0151735
910.249	0.0151958
910.328	0.0152137
910.406	0.0150330
910.484	0.0151345
910.562	0.0151106
910.640	0.0152016
910.718	0.0152643
910.796	0.0152998
910.874	0.0150714
910.953	0.0151599
911.031	0.0152324
911.109	0.0150605
911.187	0.0150355
911.265	0.0151831
911.343	0.0151964
911.421	0.0150808
911.499	0.0149621
911.578	0.0150453
911.656	0.0150420
911.734	0.0149484
911.812	0.0149174
911.890	0.0149844
911.968	0.0150797
912.046	0.0150674
912.124	0.0150209
912.203	0.0150451
912.281	0.0149834
912.359	0.0150571
912.437	0.0149715
912.515	0.0149554
912.593	0.0149302
912.671	0.0149648
912.749	0.0149571
912.828	0.0149500
912.906	0.0149572
912.984	0.0150983
913.062	0.0149099
913.140	0.0149987
913.218	0.0150639
913.296	0.0149335
913.374	0.0149656
913.453	0.0151437
913.531	0.0150046
913.609	0.0150639
913.687	0.0150587
913.765	0.0149483
913.843	0.0150706
913.921	0.0150012
913.999	0.0149765
914.078	0.0150170
914.156	0.0151937
914.234	0.0150845
914.312	0.0150486
914.390	0.0149484
914.468	0.0150313
914.546	0.0150685
914.624	0.0151599
914.703	0.0150069
914.781	0.0149953
914.859	0.0151648
914.937	0.0151005
915.015	0.0150639
915.093	0.0152493
915.171	0.0151551
915.249	0.0151325
915.328	0.0151316
915.406	0.0151383
915.484	0.0150539
915.562	0.0152322
915.640	0.0151064
915.718	0.0151100
915.796	0.0150204
915.874	0.0150925
915.953	0.0150394
916.031	0.0150234
916.109	0.0151942
916.187	0.0151997
916.265	0.0151479
916.343	0.0151526
916.421	0.0150909
916.499	0.0152915
916.578	0.0150534
916.656	0.0150675
916.734	0.0150583
916.812	0.0150772
916.890	0.0150979
916.968	0.0150559
917.046	0.0150034
917.124	0.0150477
917.203	0.0150360
917.281	0.0149396
917.359	0.0150089
917.437	0.0149810
917.515	0.0149826
917.593	0.0149849
917.671	0.0149335
917.749	0.0151980
917.828	0.0149979
917.906	0.0149970
917.984	0.0150359
918.062	0.0151007
918.140	0.0150421
918.218	0.0150233
918.296	0.0151574
918.374	0.0149805
918.453	0.0150385
918.531	0.0150100
918.609	0.0152099
918.687	0.0150900
918.765	0.0151169
918.843	0.0150944
918.921	0.0152369
918.999	0.0150597
919.078	0.0149702
919.156	0.0151879
919.234	0.0152392
919.312	0.0149733
919.390	0.0151372
919.468	0.0152325
919.546	0.0151165
919.624	0.0150550
919.703	0.0151740
919.781	0.0151125
919.859	0.0151601
919.937	0.0151539
