05/06/2022	19:24:45	Ver.	4.1	UNKNOWN
Optical Delay	600.015094	Delta X		0.078125	Sweeps	1	Scan Rate	0/0
Coordinates	Axis 1	NaN	Axis 2	NaN	Axis 3	NaN	Axis 4	NaN	Axis 5	NaN	Axis 6	0.000000
TX Power	0.000000	RX Power	0.000000

600.015	0.0158111
600.093	0.0157539
600.171	0.0158162
600.249	0.0158136
600.328	0.0158318
600.406	0.0158124
600.484	0.0157378
600.562	0.0158298
600.640	0.0158173
600.718	0.0158082
600.796	0.0157101
600.874	0.0158135
600.953	0.0157959
601.031	0.0156849
601.109	0.0158841
601.187	0.0157764
601.265	0.0157166
601.343	0.0158133
601.421	0.0156959
601.499	0.0159929
601.578	0.0159018
601.656	0.0158997
601.734	0.0157647
601.812	0.0158762
601.890	0.0159283
601.968	0.0157868
602.046	0.0156940
602.124	0.0157607
602.203	0.0158765
602.281	0.0157777
602.359	0.0157563
602.437	0.0157894
602.515	0.0156096
602.593	0.0156798
602.671	0.0158105
602.749	0.0159273
602.828	0.0156864
602.906	0.0157301
602.984	0.0156956
603.062	0.0157869
603.140	0.0157059
603.218	0.0158083
603.296	0.0157706
603.374	0.0157861
603.453	0.0157904
603.531	0.0157851
603.609	0.0158092
603.687	0.0157709
603.765	0.0157710
603.843	0.0159143
603.921	0.0158572
603.999	0.0157552
604.078	0.0156702
604.156	0.0157226
604.234	0.0159464
604.312	0.0158770
604.390	0.0158287
604.468	0.0156616
604.546	0.0157343
604.624	0.0159615
604.703	0.0157640
604.781	0.0158804
604.859	0.0159487
604.937	0.0158610
605.015	0.0158642
605.093	0.0158949
605.171	0.0158578
605.249	0.0157684
605.328	0.0158601
605.406	0.0156039
605.484	0.0157121
605.562	0.0157851
605.640	0.0156761
605.718	0.0157546
605.796	0.0157653
605.874	0.0158463
605.953	0.0156217
606.031	0.0157227
606.109	0.0156919
606.187	0.0157304
606.265	0.0157644
606.343	0.0159087
606.421	0.0157917
606.499	0.0158063
606.578	0.0157681
606.656	0.0158678
606.734	0.0157683
606.812	0.0158392
606.890	0.0158422
606.968	0.0159007
607.046	0.0160509
607.124	0.0159843
607.203	0.0158837
607.281	0.0157171
607.359	0.0157064
607.437	0.0157798
607.515	0.0159133
607.593	0.0159566
607.671	0.0158798
607.749	0.0158443
607.828	0.0158557
607.906	0.0159327
607.984	0.0158321
608.062	0.0158772
608.140	0.0160055
608.218	0.0160101
608.296	0.0158871
608.374	0.0159621
608.453	0.0158591
608.531	0.0158345
608.609	0.0158797
608.687	0.0159809
608.765	0.0156894
608.843	0.0158111
608.921	0.0159456
608.999	0.0158045
609.078	0.0158128
609.156	0.0157912
609.234	0.0157496
609.312	0.0158761
609.390	0.0159046
609.468	0.0157896
609.546	0.0156407
609.624	0.0158334
609.703	0.0157042
609.781	0.0159518
609.859	0.0159219
609.937	0.0158029
610.015	0.0158524
610.093	0.0158657
610.171	0.0156709
610.249	0.0158386
610.328	0.0158493
610.406	0.0158287
610.484	0.0158910
610.562	0.0158862
610.640	0.0157664
610.718	0.0158868
610.796	0.0158069
610.874	0.0159470
610.953	0.0160448
611.031	0.0160151
611.109	0.0159113
611.187	0.0160764
611.265	0.0159200
611.343	0.0159288
611.421	0.0159044
611.499	0.0159573
611.578	0.0160880
611.656	0.0160085
611.734	0.0158315
611.812	0.0159106
611.890	0.0159118
611.968	0.0157745
612.046	0.0159166
612.124	0.0157422
612.203	0.0157584
612.281	0.0157978
612.359	0.0157066
612.437	0.0158840
612.515	0.0158311
612.593	0.0157409
612.671	0.0158712
612.749	0.0157925
612.828	0.0158260
612.906	0.0156849
612.984	0.0157382
613.062	0.0157343
613.140	0.0156101
613.218	0.0157378
613.296	0.0158121
613.374	0.0158173
613.453	0.0157027
613.531	0.0158721
613.609	0.0159701
613.687	0.0160033
613.765	0.0158546
613.843	0.0158897
613.921	0.0159120
613.999	0.0158829
614.078	0.0161417
614.156	0.0160065
614.234	0.0158836
614.312	0.0159952
614.390	0.0159913
614.468	0.0158348
614.546	0.0157716
614.624	0.0159003
614.703	0.0159500
614.781	0.0158832
614.859	0.0158926
614.937	0.0158140
615.015	0.0158956
615.093	0.0159346
615.171	0.0157224
615.249	0.0157497
615.328	0.0157892
615.406	0.0158124
615.484	0.0158196
615.562	0.0158334
615.640	0.0156994
615.718	0.0157262
615.796	0.0158224
615.874	0.0158270
615.953	0.0158765
616.031	0.0157417
616.109	0.0157050
616.187	0.0158016
616.265	0.0158489
616.343	0.0158531
616.421	0.0157322
616.499	0.0158475
616.578	0.0157828
616.656	0.0157466
616.734	0.0159026
616.812	0.0158346
616.890	0.0159641
616.968	0.0158546
617.046	0.0159470
617.124	0.0157679
617.203	0.0158825
617.281	0.0158662
617.359	0.0159082
617.437	0.0159331
617.515	0.0158719
617.593	0.0158678
617.671	0.0158263
617.749	0.0158887
617.828	0.0158770
617.906	0.0158099
617.984	0.0157177
618.062	0.0157966
618.140	0.0159879
618.218	0.0157296
618.296	0.0158517
618.374	0.0157866
618.453	0.0159094
618.531	0.0156708
618.609	0.0157417
618.687	0.0158343
618.765	0.0159309
618.843	0.0159093
618.921	0.0158314
618.999	0.0158199
619.078	0.0157954
619.156	0.0159587
619.234	0.0158169
619.312	0.0157568
619.390	0.0158922
619.468	0.0158334
619.546	0.0158015
619.624	0.0159306
619.703	0.0159635
619.781	0.0158900
619.859	0.0159750
619.937	0.0159632
620.015	0.0157799
620.093	0.0157359
620.171	0.0157809
620.249	0.0158289
620.328	0.0157581
620.406	0.0157912
620.484	0.0158504
620.562	0.0158144
620.640	0.0158039
620.718	0.0157141
620.796	0.0157496
620.874	0.0157434
620.953	0.0157039
621.031	0.0157465
621.109	0.0156262
621.187	0.0157164
621.265	0.0157856
621.343	0.0157307
621.421	0.0158272
621.499	0.0158849
621.578	0.0159251
621.656	0.0159466
621.734	0.0158146
621.812	0.0159290
621.890	0.0159586
621.968	0.0158878
622.046	0.0158028
622.124	0.0158058
622.203	0.0158118
622.281	0.0157472
622.359	0.0158775
622.437	0.0158201
622.515	0.0159438
622.593	0.0158203
622.671	0.0158232
622.749	0.0157925
622.828	0.0158218
622.906	0.0158733
622.984	0.0159243
623.062	0.0160031
623.140	0.0158630
623.218	0.0161156
623.296	0.0159251
623.374	0.0158458
623.453	0.0160346
623.531	0.0159907
623.609	0.0159379
623.687	0.0158643
623.765	0.0158506
623.843	0.0157382
623.921	0.0159294
623.999	0.0157478
624.078	0.0158417
624.156	0.0157995
624.234	0.0157158
624.312	0.0158611
624.390	0.0156082
624.468	0.0157117
624.546	0.0157018
624.624	0.0156240
624.703	0.0158292
624.781	0.0157984
624.859	0.0157621
624.937	0.0158479
625.015	0.0157668
625.093	0.0157937
625.171	0.0157777
625.249	0.0157681
625.328	0.0158608
625.406	0.0157816
625.484	0.0158481
625.562	0.0158636
625.640	0.0157990
625.718	0.0158430
625.796	0.0157046
625.874	0.0156351
625.953	0.0157252
626.031	0.0157990
626.109	0.0157682
626.187	0.0157908
626.265	0.0156007
626.343	0.0156558
626.421	0.0156362
626.499	0.0156798
626.578	0.0156424
626.656	0.0157090
626.734	0.0156828
626.812	0.0157014
626.890	0.0156647
626.968	0.0157191
627.046	0.0157532
627.124	0.0157291
627.203	0.0159143
627.281	0.0157338
627.359	0.0157861
627.437	0.0158292
627.515	0.0159103
627.593	0.0158298
627.671	0.0158478
627.749	0.0158753
627.828	0.0159078
627.906	0.0159801
627.984	0.0160003
628.062	0.0160323
628.140	0.0159508
628.218	0.0160576
628.296	0.0159435
628.374	0.0157320
628.453	0.0156383
628.531	0.0157122
628.609	0.0154922
628.687	0.0153799
628.765	0.0155109
628.843	0.0153880
628.921	0.0153724
628.999	0.0153555
629.078	0.0154103
629.156	0.0152582
629.234	0.0155495
629.312	0.0153484
629.390	0.0154110
629.468	0.0154622
629.546	0.0155328
629.624	0.0155328
629.703	0.0155969
629.781	0.0157439
629.859	0.0158015
629.937	0.0158109
630.015	0.0159212
630.093	0.0158180
630.171	0.0159071
630.249	0.0159663
630.328	0.0159302
630.406	0.0158717
630.484	0.0160086
630.562	0.0160464
630.640	0.0160948
630.718	0.0162606
630.796	0.0161835
630.874	0.0160813
630.953	0.0161610
631.031	0.0161405
631.109	0.0160946
631.187	0.0160328
631.265	0.0159534
631.343	0.0158304
631.421	0.0158453
631.499	0.0157720
631.578	0.0156831
631.656	0.0155651
631.734	0.0153986
631.812	0.0154683
631.890	0.0153040
631.968	0.0153211
632.046	0.0153997
632.124	0.0152569
632.203	0.0152261
632.281	0.0152571
632.359	0.0152277
632.437	0.0153163
632.515	0.0151991
632.593	0.0152991
632.671	0.0155080
632.749	0.0155630
632.828	0.0156908
632.906	0.0156234
632.984	0.0156771
633.062	0.0157870
633.140	0.0158829
633.218	0.0158523
633.296	0.0158228
633.374	0.0159209
633.453	0.0159144
633.531	0.0159090
633.609	0.0160364
633.687	0.0159987
633.765	0.0160378
633.843	0.0161122
633.921	0.0159399
633.999	0.0160576
634.078	0.0160742
634.156	0.0161738
634.234	0.0159809
634.312	0.0161014
634.390	0.0161606
634.468	0.0160932
634.546	0.0160596
634.624	0.0159677
634.703	0.0158334
634.781	0.0159009
634.859	0.0159426
634.937	0.0158804
635.015	0.0156760
635.093	0.0157674
635.171	0.0157428
635.249	0.0154922
635.328	0.0156174
635.406	0.0155782
635.484	0.0154589
635.562	0.0154435
635.640	0.0155032
635.718	0.0155660
635.796	0.0154086
635.874	0.0155027
635.953	0.0156578
636.031	0.0156097
636.109	0.0155032
636.187	0.0156025
636.265	0.0156422
636.343	0.0156001
636.421	0.0154943
636.499	0.0155344
636.578	0.0155120
636.656	0.0155415
636.734	0.0155204
636.812	0.0155602
636.890	0.0155444
636.968	0.0156471
637.046	0.0155799
637.124	0.0156265
637.203	0.0157326
637.281	0.0159124
637.359	0.0159545
637.437	0.0159949
637.515	0.0160700
637.593	0.0161941
637.671	0.0163442
637.749	0.0164473
637.828	0.0164748
637.906	0.0166757
637.984	0.0164513
638.062	0.0165002
638.140	0.0164783
638.218	0.0164844
638.296	0.0163138
638.374	0.0163551
638.453	0.0162486
638.531	0.0162201
638.609	0.0159728
638.687	0.0161113
638.765	0.0160796
638.843	0.0160748
638.921	0.0158566
638.999	0.0156845
639.078	0.0157742
639.156	0.0158039
639.234	0.0157042
639.312	0.0157718
639.390	0.0156120
639.468	0.0156291
639.546	0.0156244
639.624	0.0153575
639.703	0.0152993
639.781	0.0151939
639.859	0.0153319
639.937	0.0152406
640.015	0.0152409
640.093	0.0153534
640.171	0.0152898
640.249	0.0152007
640.328	0.0154313
640.406	0.0154356
640.484	0.0154299
640.562	0.0153267
640.640	0.0153889
640.718	0.0155364
640.796	0.0155160
640.874	0.0157137
640.953	0.0156595
641.031	0.0156641
641.109	0.0156892
641.187	0.0157007
641.265	0.0157838
641.343	0.0158215
641.421	0.0158798
641.499	0.0157230
641.578	0.0159570
641.656	0.0161294
641.734	0.0161397
641.812	0.0162041
641.890	0.0162573
641.968	0.0163109
642.046	0.0163942
642.124	0.0165636
642.203	0.0164796
642.281	0.0166020
642.359	0.0165920
642.437	0.0164757
642.515	0.0165678
642.593	0.0166743
642.671	0.0164445
642.749	0.0163842
642.828	0.0164420
642.906	0.0161729
642.984	0.0161871
643.062	0.0160441
643.140	0.0158929
643.218	0.0157649
643.296	0.0156630
643.374	0.0157114
643.453	0.0154880
643.531	0.0153127
643.609	0.0152370
643.687	0.0152521
643.765	0.0153042
643.843	0.0151942
643.921	0.0151258
643.999	0.0149689
644.078	0.0148941
644.156	0.0149368
644.234	0.0149105
644.312	0.0149245
644.390	0.0149429
644.468	0.0148664
644.546	0.0149183
644.624	0.0149541
644.703	0.0148238
644.781	0.0151105
644.859	0.0151162
644.937	0.0152807
645.015	0.0153020
645.093	0.0154620
645.171	0.0154438
645.249	0.0154610
645.328	0.0157556
645.406	0.0158395
645.484	0.0157822
645.562	0.0159388
645.640	0.0162047
645.718	0.0161774
645.796	0.0163069
645.874	0.0162901
645.953	0.0164730
646.031	0.0165743
646.109	0.0165780
646.187	0.0167201
646.265	0.0165554
646.343	0.0166599
646.421	0.0167377
646.499	0.0167075
646.578	0.0167654
646.656	0.0167709
646.734	0.0169096
646.812	0.0167359
646.890	0.0168509
646.968	0.0168168
647.046	0.0168139
647.124	0.0166737
647.203	0.0165822
647.281	0.0163865
647.359	0.0163146
647.437	0.0161973
647.515	0.0159373
647.593	0.0157811
647.671	0.0156873
647.749	0.0155109
647.828	0.0153012
647.906	0.0150460
647.984	0.0150539
648.062	0.0147395
648.140	0.0146734
648.218	0.0146662
648.296	0.0144179
648.374	0.0146386
648.453	0.0145150
648.531	0.0145173
648.609	0.0144576
648.687	0.0144597
648.765	0.0145176
648.843	0.0147353
648.921	0.0146700
648.999	0.0148042
649.078	0.0148540
649.156	0.0149263
649.234	0.0150214
649.312	0.0151472
649.390	0.0153308
649.468	0.0155350
649.546	0.0155563
649.624	0.0158032
649.703	0.0159435
649.781	0.0160663
649.859	0.0161716
649.937	0.0162961
650.015	0.0164194
650.093	0.0164690
650.171	0.0166335
650.249	0.0166021
650.328	0.0166462
650.406	0.0166645
650.484	0.0166434
650.562	0.0166488
650.640	0.0166196
650.718	0.0165932
650.796	0.0165315
650.874	0.0165578
650.953	0.0164256
651.031	0.0163754
651.109	0.0164210
651.187	0.0163722
651.265	0.0162102
651.343	0.0161822
651.421	0.0161958
651.499	0.0159592
651.578	0.0160457
651.656	0.0159270
651.734	0.0158279
651.812	0.0158636
651.890	0.0156355
651.968	0.0155070
652.046	0.0155737
652.124	0.0153887
652.203	0.0152520
652.281	0.0151151
652.359	0.0149096
652.437	0.0148471
652.515	0.0148397
652.593	0.0145838
652.671	0.0144518
652.749	0.0144190
652.828	0.0146513
652.906	0.0145728
652.984	0.0144743
653.062	0.0145872
653.140	0.0146834
653.218	0.0147533
653.296	0.0147939
653.374	0.0148291
653.453	0.0150780
653.531	0.0151595
653.609	0.0152387
653.687	0.0153979
653.765	0.0153919
653.843	0.0155226
653.921	0.0156784
653.999	0.0158654
654.078	0.0157696
654.156	0.0159816
654.234	0.0162951
654.312	0.0160896
654.390	0.0163486
654.468	0.0163972
654.546	0.0165164
654.624	0.0167692
654.703	0.0166730
654.781	0.0166505
654.859	0.0167380
654.937	0.0167878
655.015	0.0167339
655.093	0.0167316
655.171	0.0167406
655.249	0.0166604
655.328	0.0166057
655.406	0.0164346
655.484	0.0164320
655.562	0.0162954
655.640	0.0162290
655.718	0.0162063
655.796	0.0161876
655.874	0.0159610
655.953	0.0158744
656.031	0.0158721
656.109	0.0157168
656.187	0.0157595
656.265	0.0155936
656.343	0.0154307
656.421	0.0154094
656.499	0.0153107
656.578	0.0153157
656.656	0.0151544
656.734	0.0152830
656.812	0.0151075
656.890	0.0150043
656.968	0.0150681
657.046	0.0149956
657.124	0.0149223
657.203	0.0149968
657.281	0.0148834
657.359	0.0148707
657.437	0.0150439
657.515	0.0150495
657.593	0.0151163
657.671	0.0151424
657.749	0.0152693
657.828	0.0153773
657.906	0.0154047
657.984	0.0154596
658.062	0.0155655
658.140	0.0156785
658.218	0.0158138
658.296	0.0158416
658.374	0.0160016
658.453	0.0160627
658.531	0.0159920
658.609	0.0162655
658.687	0.0161941
658.765	0.0162470
658.843	0.0163548
658.921	0.0163272
658.999	0.0162191
659.078	0.0163402
659.156	0.0163146
659.234	0.0162936
659.312	0.0164086
659.390	0.0163125
659.468	0.0162860
659.546	0.0164056
659.624	0.0162399
659.703	0.0161737
659.781	0.0162572
659.859	0.0162531
659.937	0.0162425
660.015	0.0161690
660.093	0.0160214
660.171	0.0159261
660.249	0.0157611
660.328	0.0158534
660.406	0.0157413
660.484	0.0157363
660.562	0.0155329
660.640	0.0155444
660.718	0.0155245
660.796	0.0154720
660.874	0.0154982
660.953	0.0154823
661.031	0.0154644
661.109	0.0154143
661.187	0.0153167
661.265	0.0154132
661.343	0.0154705
661.421	0.0154248
661.499	0.0154056
661.578	0.0153921
661.656	0.0154208
661.734	0.0155739
661.812	0.0155908
661.890	0.0154682
661.968	0.0154580
662.046	0.0155022
662.124	0.0156275
662.203	0.0156895
662.281	0.0155098
662.359	0.0157403
662.437	0.0158639
662.515	0.0155847
662.593	0.0158064
662.671	0.0159521
662.749	0.0160375
662.828	0.0159890
662.906	0.0161031
662.984	0.0160661
663.062	0.0161766
663.140	0.0162511
663.218	0.0163326
663.296	0.0162376
663.374	0.0162055
663.453	0.0162927
663.531	0.0162743
663.609	0.0163798
663.687	0.0162620
663.765	0.0162849
663.843	0.0161510
663.921	0.0161374
663.999	0.0163078
664.078	0.0161598
664.156	0.0160647
664.234	0.0161662
664.312	0.0160302
664.390	0.0161301
664.468	0.0160292
664.546	0.0158730
664.624	0.0157745
664.703	0.0156934
664.781	0.0155480
664.859	0.0154932
664.937	0.0156411
665.015	0.0155488
665.093	0.0152587
665.171	0.0153787
665.249	0.0152390
665.328	0.0151921
665.406	0.0152399
665.484	0.0151926
665.562	0.0151738
665.640	0.0151810
665.718	0.0153046
665.796	0.0152391
665.874	0.0152686
665.953	0.0151901
666.031	0.0154506
666.109	0.0154828
666.187	0.0155684
666.265	0.0155738
666.343	0.0155910
666.421	0.0157163
666.499	0.0158596
666.578	0.0159686
666.656	0.0159605
666.734	0.0160201
666.812	0.0160187
666.890	0.0160146
666.968	0.0161259
667.046	0.0160174
667.124	0.0160586
667.203	0.0159750
667.281	0.0161385
667.359	0.0161146
667.437	0.0161913
667.515	0.0160637
667.593	0.0161950
667.671	0.0161408
667.749	0.0160825
667.828	0.0160445
667.906	0.0161710
667.984	0.0161612
668.062	0.0160978
668.140	0.0161655
668.218	0.0161094
668.296	0.0160292
668.374	0.0160110
668.453	0.0159851
668.531	0.0160423
668.609	0.0159566
668.687	0.0160389
668.765	0.0158331
668.843	0.0159255
668.921	0.0158094
668.999	0.0156938
669.078	0.0156049
669.156	0.0154426
669.234	0.0154857
669.312	0.0153806
669.390	0.0154266
669.468	0.0153720
669.546	0.0152512
669.624	0.0153551
669.703	0.0153285
669.781	0.0151296
669.859	0.0151569
669.937	0.0153120
670.015	0.0151182
670.093	0.0151161
670.171	0.0151025
670.249	0.0152348
670.328	0.0152837
670.406	0.0152172
670.484	0.0153374
670.562	0.0152686
670.640	0.0153235
670.718	0.0154992
670.796	0.0154920
670.874	0.0156306
670.953	0.0156270
671.031	0.0158106
671.109	0.0159168
671.187	0.0161308
671.265	0.0160819
671.343	0.0161674
671.421	0.0162981
671.499	0.0163567
671.578	0.0163414
671.656	0.0163307
671.734	0.0164999
671.812	0.0164906
671.890	0.0163277
671.968	0.0161839
672.046	0.0163253
672.124	0.0165195
672.203	0.0162670
672.281	0.0162427
672.359	0.0162718
672.437	0.0160136
672.515	0.0160395
672.593	0.0160259
672.671	0.0161340
672.749	0.0160591
672.828	0.0158251
672.906	0.0158587
672.984	0.0158840
673.062	0.0157447
673.140	0.0156566
673.218	0.0154758
673.296	0.0155377
673.374	0.0155512
673.453	0.0155040
673.531	0.0151404
673.609	0.0151366
673.687	0.0152096
673.765	0.0151349
673.843	0.0150474
673.921	0.0150142
673.999	0.0151256
674.078	0.0150313
674.156	0.0150900
674.234	0.0150628
674.312	0.0152666
674.390	0.0153191
674.468	0.0151895
674.546	0.0152082
674.624	0.0154465
674.703	0.0155015
674.781	0.0156390
674.859	0.0157142
674.937	0.0157016
675.015	0.0158387
675.093	0.0158842
675.171	0.0158094
675.249	0.0157713
675.328	0.0158844
675.406	0.0159233
675.484	0.0159641
675.562	0.0160860
675.640	0.0159995
675.718	0.0160384
675.796	0.0162228
675.874	0.0163091
675.953	0.0161227
676.031	0.0163379
676.109	0.0161625
676.187	0.0161961
676.265	0.0162471
676.343	0.0163049
676.421	0.0162873
676.499	0.0163117
676.578	0.0162373
676.656	0.0161597
676.734	0.0160867
676.812	0.0160995
676.890	0.0160486
676.968	0.0161429
677.046	0.0160107
677.124	0.0159259
677.203	0.0157253
677.281	0.0157843
677.359	0.0158291
677.437	0.0157312
677.515	0.0155986
677.593	0.0156090
677.671	0.0153867
677.749	0.0154250
677.828	0.0154517
677.906	0.0153808
677.984	0.0151935
678.062	0.0151559
678.140	0.0151233
678.218	0.0152228
678.296	0.0151775
678.374	0.0151408
678.453	0.0152448
678.531	0.0151260
678.609	0.0152084
678.687	0.0153408
678.765	0.0153326
678.843	0.0154567
678.921	0.0153415
678.999	0.0154901
679.078	0.0156870
679.156	0.0154926
679.234	0.0155970
679.312	0.0157471
679.390	0.0157838
679.468	0.0158102
679.546	0.0158754
679.624	0.0160526
679.703	0.0159814
679.781	0.0159538
679.859	0.0161066
679.937	0.0161514
680.015	0.0160577
680.093	0.0161884
680.171	0.0161842
680.249	0.0162930
680.328	0.0163181
680.406	0.0163797
680.484	0.0163647
680.562	0.0162746
680.640	0.0162922
680.718	0.0162949
680.796	0.0162910
680.874	0.0161974
680.953	0.0162842
681.031	0.0159979
681.109	0.0161392
681.187	0.0159514
681.265	0.0158078
681.343	0.0158250
681.421	0.0158311
681.499	0.0156552
681.578	0.0156681
681.656	0.0156087
681.734	0.0155872
681.812	0.0155087
681.890	0.0155914
681.968	0.0155030
682.046	0.0154587
682.124	0.0152150
682.203	0.0153114
682.281	0.0154253
682.359	0.0154324
682.437	0.0153598
682.515	0.0152557
682.593	0.0154022
682.671	0.0153065
682.749	0.0152703
682.828	0.0154081
682.906	0.0152707
682.984	0.0153178
683.062	0.0154981
683.140	0.0154843
683.218	0.0154955
683.296	0.0155536
683.374	0.0156556
683.453	0.0157623
683.531	0.0158302
683.609	0.0159139
683.687	0.0159402
683.765	0.0160586
683.843	0.0161232
683.921	0.0160706
683.999	0.0161813
684.078	0.0161516
684.156	0.0161340
684.234	0.0161860
684.312	0.0160950
684.390	0.0161301
684.468	0.0163337
684.546	0.0163139
684.624	0.0161701
684.703	0.0163361
684.781	0.0163792
684.859	0.0161304
684.937	0.0162801
685.015	0.0162737
685.093	0.0162311
685.171	0.0161530
685.249	0.0159216
685.328	0.0160307
685.406	0.0160146
685.484	0.0159269
685.562	0.0159500
685.640	0.0159589
685.718	0.0157730
685.796	0.0157745
685.874	0.0159071
685.953	0.0156387
686.031	0.0157472
686.109	0.0156613
686.187	0.0155379
686.265	0.0154787
686.343	0.0152148
686.421	0.0155988
686.499	0.0155096
686.578	0.0154214
686.656	0.0154062
686.734	0.0154570
686.812	0.0154250
686.890	0.0153373
686.968	0.0155234
687.046	0.0155775
687.124	0.0156200
687.203	0.0156267
687.281	0.0156931
687.359	0.0158237
687.437	0.0157235
687.515	0.0158551
687.593	0.0158085
687.671	0.0157836
687.749	0.0157697
687.828	0.0159592
687.906	0.0160085
687.984	0.0160401
688.062	0.0159890
688.140	0.0160532
688.218	0.0159457
688.296	0.0160575
688.374	0.0160763
688.453	0.0161874
688.531	0.0160649
688.609	0.0162523
688.687	0.0160786
688.765	0.0161800
688.843	0.0162817
688.921	0.0162258
688.999	0.0161556
689.078	0.0161973
689.156	0.0160375
689.234	0.0161536
689.312	0.0159858
689.390	0.0161124
689.468	0.0160087
689.546	0.0158472
689.624	0.0158883
689.703	0.0160294
689.781	0.0157736
689.859	0.0158800
689.937	0.0158521
690.015	0.0156953
690.093	0.0157445
690.171	0.0157217
690.249	0.0157785
690.328	0.0155466
690.406	0.0156866
690.484	0.0155660
690.562	0.0155977
690.640	0.0156497
690.718	0.0154833
690.796	0.0154919
690.874	0.0155846
690.953	0.0154201
691.031	0.0154869
691.109	0.0154415
691.187	0.0155138
691.265	0.0153937
691.343	0.0155257
691.421	0.0156204
691.499	0.0154877
691.578	0.0154388
691.656	0.0157155
691.734	0.0157352
691.812	0.0156669
691.890	0.0157429
691.968	0.0157525
692.046	0.0159288
692.124	0.0158666
692.203	0.0158780
692.281	0.0159068
692.359	0.0159837
692.437	0.0160083
692.515	0.0160722
692.593	0.0160297
692.671	0.0160143
692.749	0.0160015
692.828	0.0160571
692.906	0.0162895
692.984	0.0161733
693.062	0.0161021
693.140	0.0161821
693.218	0.0161517
693.296	0.0161715
693.374	0.0161221
693.453	0.0160235
693.531	0.0160295
693.609	0.0160385
693.687	0.0160239
693.765	0.0158947
693.843	0.0158855
693.921	0.0158533
693.999	0.0157558
694.078	0.0158260
694.156	0.0157078
694.234	0.0155679
694.312	0.0156272
694.390	0.0155801
694.468	0.0156026
694.546	0.0155579
694.624	0.0155811
694.703	0.0154849
694.781	0.0154769
694.859	0.0154883
694.937	0.0154988
695.015	0.0156221
695.093	0.0155841
695.171	0.0155388
695.249	0.0155830
695.328	0.0157849
695.406	0.0157362
695.484	0.0157843
695.562	0.0155618
695.640	0.0156783
695.718	0.0158401
695.796	0.0158302
695.874	0.0157317
695.953	0.0157355
696.031	0.0158432
696.109	0.0158609
696.187	0.0157464
696.265	0.0158814
696.343	0.0159061
696.421	0.0159438
696.499	0.0159830
696.578	0.0158478
696.656	0.0160201
696.734	0.0160213
696.812	0.0161073
696.890	0.0159860
696.968	0.0160204
697.046	0.0159220
697.124	0.0159351
697.203	0.0159174
697.281	0.0160205
697.359	0.0159098
697.437	0.0158886
697.515	0.0160211
697.593	0.0159997
697.671	0.0158829
697.749	0.0158654
697.828	0.0158260
697.906	0.0157938
697.984	0.0157513
698.062	0.0158848
698.140	0.0158108
698.218	0.0157589
698.296	0.0156181
698.374	0.0157432
698.453	0.0157541
698.531	0.0156543
698.609	0.0156507
698.687	0.0156662
698.765	0.0156504
698.843	0.0155626
698.921	0.0155776
698.999	0.0156572
699.078	0.0155577
699.156	0.0155633
699.234	0.0156669
699.312	0.0155587
699.390	0.0157339
699.468	0.0156457
699.546	0.0156620
699.624	0.0157921
699.703	0.0156686
699.781	0.0156243
699.859	0.0157577
699.937	0.0158761
700.015	0.0157523
700.093	0.0156850
700.171	0.0157356
700.249	0.0159658
700.328	0.0158255
700.406	0.0159077
700.484	0.0158753
700.562	0.0158487
700.640	0.0158873
700.718	0.0159583
700.796	0.0159387
700.874	0.0160415
700.953	0.0157677
701.031	0.0159641
701.109	0.0159190
701.187	0.0160023
701.265	0.0160824
701.343	0.0158898
701.421	0.0160510
701.499	0.0159000
701.578	0.0160420
701.656	0.0158825
701.734	0.0159389
701.812	0.0158836
701.890	0.0161111
701.968	0.0159419
702.046	0.0159687
702.124	0.0158978
702.203	0.0158597
702.281	0.0160149
702.359	0.0160823
702.437	0.0158370
702.515	0.0158987
702.593	0.0159999
702.671	0.0158849
702.749	0.0159386
702.828	0.0158932
702.906	0.0157536
702.984	0.0158599
703.062	0.0157357
703.140	0.0156026
703.218	0.0156741
703.296	0.0156550
703.374	0.0157057
703.453	0.0155488
703.531	0.0154765
703.609	0.0155393
703.687	0.0154246
703.765	0.0155568
703.843	0.0155205
703.921	0.0154663
703.999	0.0156602
704.078	0.0156768
704.156	0.0155968
704.234	0.0157874
704.312	0.0157484
704.390	0.0159043
704.468	0.0158065
704.546	0.0157404
704.624	0.0158163
704.703	0.0157993
704.781	0.0156863
704.859	0.0159754
704.937	0.0159278
705.015	0.0159111
705.093	0.0158737
705.171	0.0159169
705.249	0.0159153
705.328	0.0159052
705.406	0.0158540
705.484	0.0159492
705.562	0.0158920
705.640	0.0158736
705.718	0.0158884
705.796	0.0159391
705.874	0.0160799
705.953	0.0159996
706.031	0.0159397
706.109	0.0161137
706.187	0.0161049
706.265	0.0159237
706.343	0.0160242
706.421	0.0159278
706.499	0.0159103
706.578	0.0158018
706.656	0.0158134
706.734	0.0157934
706.812	0.0157314
706.890	0.0156597
706.968	0.0157307
707.046	0.0157527
707.124	0.0157400
707.203	0.0156442
707.281	0.0156292
707.359	0.0157274
707.437	0.0155138
707.515	0.0157195
707.593	0.0157675
707.671	0.0157704
707.749	0.0157697
707.828	0.0156743
707.906	0.0157333
707.984	0.0157269
708.062	0.0158066
708.140	0.0156956
708.218	0.0157247
708.296	0.0157613
708.374	0.0157729
708.453	0.0157298
708.531	0.0157565
708.609	0.0156840
708.687	0.0155709
708.765	0.0156551
708.843	0.0157493
708.921	0.0157835
708.999	0.0157719
709.078	0.0158733
709.156	0.0159119
709.234	0.0158888
709.312	0.0158691
709.390	0.0158710
709.468	0.0158820
709.546	0.0160407
709.624	0.0160414
709.703	0.0160181
709.781	0.0159567
709.859	0.0160390
709.937	0.0160060
710.015	0.0158444
710.093	0.0159186
710.171	0.0160226
710.249	0.0159398
710.328	0.0158759
710.406	0.0158570
710.484	0.0157848
710.562	0.0158717
710.640	0.0157912
710.718	0.0157919
710.796	0.0158097
710.874	0.0158005
710.953	0.0157018
711.031	0.0157932
711.109	0.0159119
711.187	0.0159998
711.265	0.0159381
711.343	0.0159474
711.421	0.0159045
711.499	0.0158860
711.578	0.0160614
711.656	0.0158501
711.734	0.0157298
711.812	0.0158598
711.890	0.0157948
711.968	0.0156929
712.046	0.0157813
712.124	0.0157088
712.203	0.0156844
712.281	0.0158716
712.359	0.0158296
712.437	0.0157176
712.515	0.0157125
712.593	0.0157799
712.671	0.0156628
712.749	0.0156766
712.828	0.0157086
712.906	0.0158050
712.984	0.0158896
713.062	0.0157835
713.140	0.0159334
713.218	0.0159097
713.296	0.0157841
713.374	0.0157847
713.453	0.0158910
713.531	0.0158271
713.609	0.0159592
713.687	0.0158743
713.765	0.0157950
713.843	0.0158062
713.921	0.0158928
713.999	0.0158042
714.078	0.0159424
714.156	0.0159003
714.234	0.0158959
714.312	0.0159396
714.390	0.0158866
714.468	0.0159083
714.546	0.0159721
714.624	0.0157808
714.703	0.0159335
714.781	0.0159077
714.859	0.0158751
714.937	0.0158923
715.015	0.0159080
715.093	0.0160054
715.171	0.0158981
715.249	0.0158098
715.328	0.0158219
715.406	0.0157600
715.484	0.0158238
715.562	0.0157375
715.640	0.0158184
715.718	0.0157441
715.796	0.0158042
715.874	0.0156683
715.953	0.0157179
716.031	0.0157708
716.109	0.0157627
716.187	0.0156343
716.265	0.0156110
716.343	0.0156583
716.421	0.0158488
716.499	0.0157449
716.578	0.0157813
716.656	0.0156872
716.734	0.0157359
716.812	0.0158669
716.890	0.0158795
716.968	0.0157477
717.046	0.0159157
717.124	0.0159049
717.203	0.0158401
717.281	0.0158243
717.359	0.0159171
717.437	0.0158827
717.515	0.0158423
717.593	0.0159297
717.671	0.0158805
717.749	0.0159638
717.828	0.0159418
717.906	0.0159067
717.984	0.0159307
718.062	0.0157930
718.140	0.0157812
718.218	0.0160332
718.296	0.0160111
718.374	0.0159252
718.453	0.0159364
718.531	0.0158154
718.609	0.0158389
718.687	0.0159102
718.765	0.0157852
718.843	0.0158410
718.921	0.0157803
718.999	0.0160085
719.078	0.0158987
719.156	0.0158721
719.234	0.0158521
719.312	0.0159414
719.390	0.0159449
719.468	0.0158246
719.546	0.0158876
719.624	0.0158164
719.703	0.0158157
719.781	0.0159380
719.859	0.0158172
719.937	0.0157457
720.015	0.0157660
720.093	0.0157407
720.171	0.0157331
720.249	0.0157079
720.328	0.0155930
720.406	0.0157762
720.484	0.0157626
720.562	0.0158429
720.640	0.0158142
720.718	0.0158339
720.796	0.0156719
720.874	0.0157119
720.953	0.0157301
721.031	0.0156905
721.109	0.0157378
721.187	0.0156592
721.265	0.0157765
721.343	0.0156728
721.421	0.0159164
721.499	0.0159061
721.578	0.0157639
721.656	0.0156415
721.734	0.0157702
721.812	0.0157375
721.890	0.0158604
721.968	0.0158199
722.046	0.0157789
722.124	0.0159106
722.203	0.0158756
722.281	0.0159042
722.359	0.0159619
722.437	0.0159139
722.515	0.0158593
722.593	0.0159357
722.671	0.0159192
722.749	0.0157941
722.828	0.0157793
722.906	0.0158414
722.984	0.0160482
723.062	0.0158236
723.140	0.0158408
723.218	0.0159461
723.296	0.0159433
723.374	0.0158939
723.453	0.0159288
723.531	0.0158953
723.609	0.0159013
723.687	0.0160020
723.765	0.0158686
723.843	0.0160141
723.921	0.0158709
723.999	0.0158582
724.078	0.0158658
724.156	0.0158144
724.234	0.0159430
724.312	0.0158121
724.390	0.0157749
724.468	0.0157740
724.546	0.0158000
724.624	0.0156131
724.703	0.0158275
724.781	0.0157025
724.859	0.0156487
724.937	0.0157342
725.015	0.0156000
725.093	0.0155879
725.171	0.0155598
725.249	0.0156690
725.328	0.0155920
725.406	0.0155580
725.484	0.0156316
725.562	0.0155262
725.640	0.0156054
725.718	0.0156524
725.796	0.0157027
725.874	0.0156757
725.953	0.0156757
726.031	0.0156706
726.109	0.0157607
726.187	0.0157873
726.265	0.0158043
726.343	0.0157463
726.421	0.0157671
726.499	0.0157448
726.578	0.0158278
726.656	0.0159613
726.734	0.0157587
726.812	0.0158520
726.890	0.0158165
726.968	0.0158333
727.046	0.0157642
727.124	0.0157708
727.203	0.0157781
727.281	0.0157520
727.359	0.0157043
727.437	0.0158706
727.515	0.0157516
727.593	0.0157128
727.671	0.0157762
727.749	0.0157359
727.828	0.0158498
727.906	0.0159425
727.984	0.0157041
728.062	0.0158638
728.140	0.0158505
728.218	0.0157372
728.296	0.0157490
728.374	0.0157370
728.453	0.0156997
728.531	0.0157442
728.609	0.0155917
728.687	0.0155680
728.765	0.0158026
728.843	0.0156599
728.921	0.0155788
728.999	0.0156030
729.078	0.0157518
729.156	0.0155930
729.234	0.0156101
729.312	0.0155995
729.390	0.0155560
729.468	0.0154674
729.546	0.0155885
729.624	0.0156166
729.703	0.0155934
729.781	0.0155790
729.859	0.0156909
729.937	0.0154711
730.015	0.0155751
730.093	0.0157968
730.171	0.0156081
730.249	0.0157091
730.328	0.0156873
730.406	0.0157324
730.484	0.0157615
730.562	0.0156482
730.640	0.0156522
730.718	0.0157890
730.796	0.0158691
730.874	0.0156213
730.953	0.0158646
731.031	0.0158993
731.109	0.0157346
731.187	0.0158056
731.265	0.0159000
731.343	0.0159319
731.421	0.0158178
731.499	0.0158536
731.578	0.0159867
731.656	0.0159477
731.734	0.0158264
731.812	0.0159071
731.890	0.0158487
731.968	0.0157107
732.046	0.0157629
732.124	0.0158252
732.203	0.0159106
732.281	0.0158012
732.359	0.0157852
732.437	0.0158085
732.515	0.0159328
732.593	0.0158852
732.671	0.0157582
732.749	0.0157478
732.828	0.0156999
732.906	0.0156686
732.984	0.0156565
733.062	0.0155936
733.140	0.0157589
733.218	0.0156095
733.296	0.0154591
733.374	0.0158086
733.453	0.0155803
733.531	0.0156571
733.609	0.0156232
733.687	0.0157889
733.765	0.0156110
733.843	0.0157977
733.921	0.0158307
733.999	0.0157617
734.078	0.0158923
734.156	0.0158395
734.234	0.0157375
734.312	0.0157535
734.390	0.0158516
734.468	0.0159529
734.546	0.0158846
734.624	0.0158407
734.703	0.0157359
734.781	0.0159302
734.859	0.0159229
734.937	0.0158268
735.015	0.0157750
735.093	0.0158051
735.171	0.0158882
735.249	0.0158960
735.328	0.0157226
735.406	0.0157556
735.484	0.0159354
735.562	0.0159457
735.640	0.0157963
735.718	0.0158455
735.796	0.0158641
735.874	0.0158025
735.953	0.0156969
736.031	0.0158913
736.109	0.0158622
736.187	0.0156841
736.265	0.0157520
736.343	0.0156489
736.421	0.0157847
736.499	0.0157049
736.578	0.0156770
736.656	0.0157309
736.734	0.0157569
736.812	0.0157677
736.890	0.0156577
736.968	0.0156158
737.046	0.0155611
737.124	0.0156441
737.203	0.0157294
737.281	0.0157545
737.359	0.0157121
737.437	0.0157366
737.515	0.0156953
737.593	0.0156103
737.671	0.0156527
737.749	0.0155935
737.828	0.0156789
737.906	0.0157143
737.984	0.0158100
738.062	0.0158206
738.140	0.0157225
738.218	0.0156153
738.296	0.0156174
738.374	0.0158147
738.453	0.0156630
738.531	0.0157761
738.609	0.0158356
738.687	0.0158138
738.765	0.0157063
738.843	0.0156767
738.921	0.0157850
738.999	0.0158125
739.078	0.0158836
739.156	0.0158314
739.234	0.0157852
739.312	0.0157735
739.390	0.0158069
739.468	0.0157681
739.546	0.0159914
739.624	0.0158904
739.703	0.0159637
739.781	0.0158661
739.859	0.0157967
739.937	0.0157272
740.015	0.0159072
740.093	0.0158719
740.171	0.0158413
740.249	0.0156666
740.328	0.0156681
740.406	0.0157764
740.484	0.0158744
740.562	0.0158053
740.640	0.0157029
740.718	0.0157664
740.796	0.0157198
740.874	0.0158620
740.953	0.0158157
741.031	0.0158441
741.109	0.0157403
741.187	0.0157296
741.265	0.0157467
741.343	0.0158168
741.421	0.0156822
741.499	0.0157059
741.578	0.0156905
741.656	0.0156974
741.734	0.0156813
741.812	0.0156432
741.890	0.0157251
741.968	0.0156189
742.046	0.0158474
742.124	0.0156801
742.203	0.0158746
742.281	0.0157884
742.359	0.0158882
742.437	0.0158073
742.515	0.0156998
742.593	0.0156901
742.671	0.0158833
742.749	0.0158006
742.828	0.0158038
742.906	0.0158955
742.984	0.0157627
743.062	0.0158640
743.140	0.0159090
743.218	0.0159324
743.296	0.0159188
743.374	0.0157871
743.453	0.0159732
743.531	0.0160196
743.609	0.0159116
743.687	0.0158684
743.765	0.0159200
743.843	0.0158012
743.921	0.0159113
743.999	0.0158038
744.078	0.0158373
744.156	0.0159509
744.234	0.0157877
744.312	0.0157822
744.390	0.0158262
744.468	0.0157922
744.546	0.0158701
744.624	0.0156888
744.703	0.0157058
744.781	0.0157654
744.859	0.0156199
744.937	0.0157619
745.015	0.0157777
745.093	0.0156640
745.171	0.0155724
745.249	0.0156656
745.328	0.0156700
745.406	0.0157019
745.484	0.0155360
745.562	0.0156197
745.640	0.0155770
745.718	0.0155503
745.796	0.0154852
745.874	0.0156271
745.953	0.0156384
746.031	0.0156322
746.109	0.0155281
746.187	0.0156760
746.265	0.0156778
746.343	0.0156149
746.421	0.0157806
746.499	0.0156321
746.578	0.0157864
746.656	0.0158086
746.734	0.0156747
746.812	0.0159136
746.890	0.0157609
746.968	0.0158525
747.046	0.0159830
747.124	0.0159113
747.203	0.0158633
747.281	0.0158039
747.359	0.0158111
747.437	0.0158468
747.515	0.0157638
747.593	0.0157979
747.671	0.0157627
747.749	0.0158371
747.828	0.0158459
747.906	0.0157359
747.984	0.0158222
748.062	0.0158121
748.140	0.0157779
748.218	0.0158154
748.296	0.0159176
748.374	0.0159061
748.453	0.0157367
748.531	0.0158071
748.609	0.0157674
748.687	0.0157102
748.765	0.0157973
748.843	0.0156422
748.921	0.0156961
748.999	0.0156726
749.078	0.0155663
749.156	0.0157074
749.234	0.0156853
749.312	0.0155846
749.390	0.0157214
749.468	0.0156831
749.546	0.0156681
749.624	0.0155650
749.703	0.0155941
749.781	0.0156401
749.859	0.0155613
749.937	0.0155426
750.015	0.0156586
750.093	0.0156545
750.171	0.0155988
750.249	0.0155853
750.328	0.0155161
750.406	0.0156247
750.484	0.0157238
750.562	0.0157548
750.640	0.0157034
750.718	0.0156587
750.796	0.0157906
750.874	0.0158279
750.953	0.0156678
751.031	0.0158024
751.109	0.0158234
751.187	0.0158887
751.265	0.0158150
751.343	0.0158632
751.421	0.0158163
751.499	0.0157139
751.578	0.0158018
751.656	0.0158740
751.734	0.0159637
751.812	0.0158311
751.890	0.0159234
751.968	0.0158872
752.046	0.0158284
752.124	0.0158023
752.203	0.0157701
752.281	0.0158984
752.359	0.0158865
752.437	0.0157669
752.515	0.0158904
752.593	0.0158244
752.671	0.0158714
752.749	0.0159239
752.828	0.0158390
752.906	0.0158343
752.984	0.0156936
753.062	0.0157439
753.140	0.0157064
753.218	0.0157206
753.296	0.0157705
753.374	0.0156371
753.453	0.0156048
753.531	0.0157904
753.609	0.0156458
753.687	0.0156450
753.765	0.0157426
753.843	0.0157679
753.921	0.0156718
753.999	0.0156586
754.078	0.0157897
754.156	0.0157568
754.234	0.0156842
754.312	0.0156919
754.390	0.0156911
754.468	0.0156273
754.546	0.0156726
754.624	0.0157360
754.703	0.0158777
754.781	0.0157114
754.859	0.0157292
754.937	0.0158340
755.015	0.0158106
755.093	0.0156908
755.171	0.0156125
755.249	0.0157836
755.328	0.0158739
755.406	0.0157360
755.484	0.0158104
755.562	0.0158504
755.640	0.0157947
755.718	0.0158008
755.796	0.0157914
755.874	0.0157526
755.953	0.0158634
756.031	0.0158122
756.109	0.0158235
756.187	0.0157614
756.265	0.0158846
756.343	0.0159538
756.421	0.0158736
756.499	0.0157908
756.578	0.0159418
756.656	0.0158587
756.734	0.0157298
756.812	0.0157169
756.890	0.0158337
756.968	0.0157394
757.046	0.0158701
757.124	0.0156752
757.203	0.0157012
757.281	0.0156669
757.359	0.0157681
757.437	0.0156633
757.515	0.0155799
757.593	0.0154517
757.671	0.0156821
757.749	0.0156836
757.828	0.0156142
757.906	0.0156544
757.984	0.0155370
758.062	0.0156975
758.140	0.0155550
758.218	0.0155879
758.296	0.0156075
758.374	0.0156030
758.453	0.0155296
758.531	0.0157681
758.609	0.0156731
758.687	0.0156748
758.765	0.0157240
758.843	0.0156092
758.921	0.0157314
758.999	0.0156258
759.078	0.0156600
759.156	0.0156416
759.234	0.0156090
759.312	0.0156678
759.390	0.0155756
759.468	0.0156366
759.546	0.0156428
759.624	0.0157919
759.703	0.0156878
759.781	0.0157454
759.859	0.0158649
759.937	0.0158505
760.015	0.0158073
760.093	0.0157867
760.171	0.0159974
760.249	0.0159957
760.328	0.0159219
760.406	0.0159677
760.484	0.0159638
760.562	0.0158215
760.640	0.0158550
760.718	0.0160206
760.796	0.0157973
760.874	0.0157894
760.953	0.0157053
761.031	0.0156850
761.109	0.0156341
761.187	0.0156219
761.265	0.0156321
761.343	0.0156499
761.421	0.0156541
761.499	0.0157591
761.578	0.0156887
761.656	0.0157195
761.734	0.0157170
761.812	0.0158327
761.890	0.0158230
761.968	0.0157537
762.046	0.0158602
762.124	0.0158075
762.203	0.0157387
762.281	0.0157687
762.359	0.0156721
762.437	0.0157352
762.515	0.0156132
762.593	0.0157051
762.671	0.0157181
762.749	0.0156422
762.828	0.0156981
762.906	0.0158219
762.984	0.0158086
763.062	0.0156590
763.140	0.0158398
763.218	0.0159139
763.296	0.0159100
763.374	0.0160039
763.453	0.0159792
763.531	0.0160121
763.609	0.0159570
763.687	0.0160003
763.765	0.0160667
763.843	0.0161398
763.921	0.0159364
763.999	0.0158591
764.078	0.0158497
764.156	0.0159222
764.234	0.0158154
764.312	0.0158667
764.390	0.0157867
764.468	0.0158157
764.546	0.0157066
764.624	0.0157742
764.703	0.0158457
764.781	0.0158249
764.859	0.0158725
764.937	0.0158077
765.015	0.0158612
765.093	0.0159484
765.171	0.0159694
765.249	0.0158949
765.328	0.0158527
765.406	0.0157877
765.484	0.0158436
765.562	0.0159587
765.640	0.0159802
765.718	0.0159179
765.796	0.0158801
765.874	0.0157535
765.953	0.0157684
766.031	0.0158729
766.109	0.0157699
766.187	0.0156370
766.265	0.0157275
766.343	0.0156490
766.421	0.0156527
766.499	0.0157079
766.578	0.0157362
766.656	0.0156134
766.734	0.0156242
766.812	0.0155737
766.890	0.0157504
766.968	0.0157104
767.046	0.0157934
767.124	0.0157959
767.203	0.0157140
767.281	0.0159126
767.359	0.0158136
767.437	0.0158469
767.515	0.0158308
767.593	0.0158933
767.671	0.0159027
767.749	0.0158517
767.828	0.0157408
767.906	0.0158735
767.984	0.0159728
768.062	0.0159071
768.140	0.0156909
768.218	0.0157595
768.296	0.0158485
768.374	0.0157533
768.453	0.0158240
768.531	0.0159883
768.609	0.0159745
768.687	0.0158811
768.765	0.0158082
768.843	0.0158830
768.921	0.0159794
768.999	0.0159003
769.078	0.0158680
769.156	0.0157729
769.234	0.0159080
769.312	0.0159623
769.390	0.0157604
769.468	0.0157298
769.546	0.0157691
769.624	0.0157922
769.703	0.0156552
769.781	0.0155610
769.859	0.0157312
769.937	0.0156322
770.015	0.0156546
770.093	0.0156340
770.171	0.0157623
770.249	0.0157060
770.328	0.0157405
770.406	0.0156773
770.484	0.0158604
770.562	0.0159069
770.640	0.0158630
770.718	0.0157851
770.796	0.0157740
770.874	0.0159913
770.953	0.0158665
771.031	0.0158015
771.109	0.0158224
771.187	0.0159573
771.265	0.0158385
771.343	0.0157480
771.421	0.0156598
771.499	0.0156981
771.578	0.0158467
771.656	0.0158347
771.734	0.0157013
771.812	0.0159592
771.890	0.0157626
771.968	0.0155851
772.046	0.0158170
772.124	0.0159061
772.203	0.0158247
772.281	0.0157595
772.359	0.0157928
772.437	0.0160066
772.515	0.0159888
772.593	0.0160448
772.671	0.0159524
772.749	0.0159665
772.828	0.0158285
772.906	0.0157646
772.984	0.0157980
773.062	0.0157182
773.140	0.0156715
773.218	0.0158517
773.296	0.0158531
773.374	0.0157796
773.453	0.0158344
773.531	0.0157562
773.609	0.0156980
773.687	0.0156633
773.765	0.0156807
773.843	0.0157050
773.921	0.0157964
773.999	0.0157890
774.078	0.0157701
774.156	0.0158263
774.234	0.0157748
774.312	0.0159178
774.390	0.0158385
774.468	0.0158608
774.546	0.0156570
774.624	0.0157873
774.703	0.0157036
774.781	0.0156556
774.859	0.0157214
774.937	0.0157462
775.015	0.0158159
775.093	0.0157040
775.171	0.0157304
775.249	0.0156631
775.328	0.0155978
775.406	0.0157883
775.484	0.0158559
775.562	0.0158565
775.640	0.0157335
775.718	0.0157450
775.796	0.0159553
775.874	0.0158729
775.953	0.0158981
776.031	0.0159264
776.109	0.0161081
776.187	0.0159814
776.265	0.0158192
776.343	0.0158959
776.421	0.0159078
776.499	0.0158660
776.578	0.0157387
776.656	0.0157981
776.734	0.0157613
776.812	0.0156692
776.890	0.0158148
776.968	0.0157329
777.046	0.0158324
777.124	0.0159453
777.203	0.0159047
777.281	0.0158720
777.359	0.0160915
777.437	0.0157983
777.515	0.0158823
777.593	0.0158231
777.671	0.0158685
777.749	0.0158531
777.828	0.0159321
777.906	0.0157587
777.984	0.0159223
778.062	0.0157717
778.140	0.0157098
778.218	0.0157645
778.296	0.0156145
778.374	0.0157204
778.453	0.0156818
778.531	0.0157452
778.609	0.0156481
778.687	0.0156835
778.765	0.0157043
778.843	0.0156344
778.921	0.0157790
778.999	0.0159524
779.078	0.0158302
779.156	0.0158539
779.234	0.0158247
779.312	0.0157989
779.390	0.0158424
779.468	0.0159786
779.546	0.0160070
779.624	0.0160027
779.703	0.0158786
779.781	0.0159399
779.859	0.0160213
779.937	0.0159276
780.015	0.0156702
780.093	0.0158162
780.171	0.0157607
780.249	0.0155894
780.328	0.0158184
780.406	0.0158389
780.484	0.0156706
780.562	0.0157547
780.640	0.0158369
780.718	0.0158692
780.796	0.0158054
780.874	0.0157010
780.953	0.0159521
781.031	0.0159118
781.109	0.0159728
781.187	0.0159928
781.265	0.0159499
781.343	0.0159200
781.421	0.0158771
781.499	0.0159920
781.578	0.0157160
781.656	0.0155678
781.734	0.0157796
781.812	0.0156754
781.890	0.0157492
781.968	0.0156172
782.046	0.0155499
782.124	0.0156159
782.203	0.0156572
782.281	0.0154984
782.359	0.0157195
782.437	0.0158150
782.515	0.0158225
782.593	0.0158535
782.671	0.0158878
782.749	0.0158102
782.828	0.0160007
782.906	0.0158675
782.984	0.0159683
783.062	0.0159334
783.140	0.0157038
783.218	0.0158752
783.296	0.0157870
783.374	0.0158498
783.453	0.0157668
783.531	0.0156906
783.609	0.0156271
783.687	0.0156792
783.765	0.0156059
783.843	0.0154861
783.921	0.0156270
783.999	0.0158022
784.078	0.0157295
784.156	0.0158028
784.234	0.0159133
784.312	0.0158423
784.390	0.0159424
784.468	0.0158730
784.546	0.0158745
784.624	0.0159240
784.703	0.0158963
784.781	0.0158765
784.859	0.0160081
784.937	0.0159276
785.015	0.0159850
785.093	0.0158346
785.171	0.0158575
785.249	0.0157615
785.328	0.0156713
785.406	0.0157250
785.484	0.0156803
785.562	0.0157223
785.640	0.0158720
785.718	0.0158710
785.796	0.0158247
785.874	0.0159730
785.953	0.0159190
786.031	0.0158218
786.109	0.0159134
786.187	0.0160577
786.265	0.0160149
786.343	0.0159737
786.421	0.0159179
786.499	0.0158694
786.578	0.0157823
786.656	0.0158106
786.734	0.0157892
786.812	0.0156907
786.890	0.0157772
786.968	0.0156660
787.046	0.0156353
787.124	0.0156604
787.203	0.0157240
787.281	0.0156561
787.359	0.0156378
787.437	0.0157305
787.515	0.0156860
787.593	0.0158006
787.671	0.0159167
787.749	0.0158286
787.828	0.0158526
787.906	0.0159624
787.984	0.0158948
788.062	0.0158530
788.140	0.0159156
788.218	0.0159112
788.296	0.0158292
788.374	0.0159071
788.453	0.0157554
788.531	0.0158418
788.609	0.0158495
788.687	0.0157168
788.765	0.0156809
788.843	0.0157288
788.921	0.0158725
788.999	0.0157740
789.078	0.0157062
789.156	0.0157433
789.234	0.0158465
789.312	0.0158013
789.390	0.0158198
789.468	0.0159819
789.546	0.0159632
789.624	0.0159935
789.703	0.0159379
789.781	0.0158320
789.859	0.0158660
789.937	0.0160463
790.015	0.0158929
790.093	0.0158231
790.171	0.0158582
790.249	0.0159042
790.328	0.0158475
790.406	0.0158618
790.484	0.0156655
790.562	0.0157332
790.640	0.0156722
790.718	0.0157278
790.796	0.0156875
790.874	0.0156679
790.953	0.0157263
791.031	0.0155881
791.109	0.0157221
791.187	0.0156329
791.265	0.0157735
791.343	0.0156697
791.421	0.0157275
791.499	0.0157203
791.578	0.0157149
791.656	0.0159411
791.734	0.0156989
791.812	0.0159924
791.890	0.0159442
791.968	0.0158016
792.046	0.0159914
792.124	0.0157378
792.203	0.0158011
792.281	0.0158781
792.359	0.0157617
792.437	0.0158364
792.515	0.0158858
792.593	0.0158624
792.671	0.0156854
792.749	0.0158939
792.828	0.0158630
792.906	0.0157389
792.984	0.0158865
793.062	0.0158363
793.140	0.0158424
793.218	0.0159337
793.296	0.0159030
793.374	0.0158781
793.453	0.0159985
793.531	0.0160242
793.609	0.0159452
793.687	0.0159598
793.765	0.0158787
793.843	0.0158938
793.921	0.0158877
793.999	0.0156870
794.078	0.0156313
794.156	0.0157896
794.234	0.0158376
794.312	0.0157669
794.390	0.0156447
794.468	0.0156187
794.546	0.0157375
794.624	0.0157915
794.703	0.0157981
794.781	0.0158874
794.859	0.0157514
794.937	0.0157690
795.015	0.0159791
795.093	0.0159135
795.171	0.0158715
795.249	0.0156968
795.328	0.0157356
795.406	0.0158453
795.484	0.0157838
795.562	0.0156895
795.640	0.0157324
795.718	0.0156903
795.796	0.0156089
795.874	0.0155120
795.953	0.0157145
796.031	0.0157125
796.109	0.0157026
796.187	0.0157864
796.265	0.0156113
796.343	0.0157855
796.421	0.0157515
796.499	0.0157420
796.578	0.0159163
796.656	0.0160092
796.734	0.0159191
796.812	0.0159436
796.890	0.0159235
796.968	0.0158493
797.046	0.0158866
797.124	0.0159096
797.203	0.0156693
797.281	0.0157008
797.359	0.0157363
797.437	0.0158195
797.515	0.0158434
797.593	0.0159313
797.671	0.0155804
797.749	0.0157772
797.828	0.0158369
797.906	0.0158963
797.984	0.0159384
798.062	0.0159309
798.140	0.0160815
798.218	0.0160455
798.296	0.0158585
798.374	0.0157687
798.453	0.0160171
798.531	0.0160042
798.609	0.0158736
798.687	0.0158360
798.765	0.0158240
798.843	0.0158792
798.921	0.0156268
798.999	0.0156606
799.078	0.0157408
799.156	0.0157336
799.234	0.0156815
799.312	0.0158218
799.390	0.0158534
799.468	0.0158529
799.546	0.0156149
799.624	0.0158382
799.703	0.0157258
799.781	0.0157316
799.859	0.0159190
799.937	0.0156857
800.015	0.0156348
800.093	0.0158191
800.171	0.0158672
800.249	0.0157850
800.328	0.0157769
800.406	0.0158040
800.484	0.0156930
800.562	0.0158521
800.640	0.0157147
800.718	0.0156577
800.796	0.0158263
800.874	0.0158138
800.953	0.0157327
801.031	0.0158495
801.109	0.0158199
801.187	0.0158724
801.265	0.0158544
801.343	0.0158276
801.421	0.0159193
801.499	0.0159102
801.578	0.0159446
801.656	0.0159618
801.734	0.0160464
801.812	0.0158514
801.890	0.0159839
801.968	0.0158897
802.046	0.0160396
802.124	0.0159429
802.203	0.0158853
802.281	0.0158558
802.359	0.0158696
802.437	0.0157757
802.515	0.0158090
802.593	0.0158040
802.671	0.0158936
802.749	0.0159404
802.828	0.0158727
802.906	0.0157973
802.984	0.0158992
803.062	0.0158735
803.140	0.0157747
803.218	0.0158222
803.296	0.0157800
803.374	0.0157039
803.453	0.0157410
803.531	0.0160123
803.609	0.0158374
803.687	0.0156178
803.765	0.0156316
803.843	0.0157003
803.921	0.0158318
803.999	0.0157374
804.078	0.0158679
804.156	0.0157545
804.234	0.0156931
804.312	0.0157623
804.390	0.0159689
804.468	0.0158563
804.546	0.0158667
804.624	0.0158409
804.703	0.0158228
804.781	0.0157328
804.859	0.0158734
804.937	0.0158820
805.015	0.0157160
805.093	0.0156569
805.171	0.0157925
805.249	0.0157780
805.328	0.0158275
805.406	0.0157227
805.484	0.0158189
805.562	0.0157869
805.640	0.0158788
805.718	0.0157410
805.796	0.0157328
805.874	0.0159421
805.953	0.0158593
806.031	0.0157462
806.109	0.0157877
806.187	0.0158863
806.265	0.0158165
806.343	0.0158453
806.421	0.0158415
806.499	0.0157730
806.578	0.0157250
806.656	0.0156940
806.734	0.0158678
806.812	0.0157556
806.890	0.0157652
806.968	0.0158068
807.046	0.0156806
807.124	0.0157121
807.203	0.0157320
807.281	0.0158121
807.359	0.0156995
807.437	0.0156454
807.515	0.0157295
807.593	0.0157458
807.671	0.0157651
807.749	0.0156751
807.828	0.0157119
807.906	0.0157602
807.984	0.0156506
808.062	0.0157274
808.140	0.0158295
808.218	0.0157112
808.296	0.0157257
808.374	0.0156181
808.453	0.0157371
808.531	0.0155627
808.609	0.0157288
808.687	0.0158228
808.765	0.0155794
808.843	0.0157648
808.921	0.0156104
808.999	0.0156963
809.078	0.0157241
809.156	0.0156375
809.234	0.0157130
809.312	0.0156750
809.390	0.0157089
809.468	0.0157641
809.546	0.0158719
809.624	0.0157626
809.703	0.0158444
809.781	0.0156682
809.859	0.0158350
809.937	0.0157384
810.015	0.0158314
810.093	0.0156853
810.171	0.0157896
810.249	0.0156976
810.328	0.0157460
810.406	0.0157874
810.484	0.0158296
810.562	0.0158250
810.640	0.0159003
810.718	0.0158521
810.796	0.0156871
810.874	0.0157070
810.953	0.0157661
811.031	0.0159105
811.109	0.0158165
811.187	0.0158566
811.265	0.0158349
811.343	0.0156290
811.421	0.0157532
811.499	0.0155790
811.578	0.0156398
811.656	0.0157487
811.734	0.0156716
811.812	0.0156606
811.890	0.0156796
811.968	0.0157782
812.046	0.0156960
812.124	0.0156665
812.203	0.0156813
812.281	0.0157362
812.359	0.0156124
812.437	0.0156729
812.515	0.0155850
812.593	0.0158225
812.671	0.0157498
812.749	0.0157334
812.828	0.0157780
812.906	0.0156924
812.984	0.0157971
813.062	0.0157799
813.140	0.0157587
813.218	0.0158438
813.296	0.0157565
813.374	0.0159305
813.453	0.0157027
813.531	0.0157957
813.609	0.0157460
813.687	0.0157993
813.765	0.0157563
813.843	0.0159322
813.921	0.0158174
813.999	0.0157883
814.078	0.0159358
814.156	0.0159978
814.234	0.0158160
814.312	0.0158691
814.390	0.0159262
814.468	0.0158853
814.546	0.0158780
814.624	0.0158592
814.703	0.0157565
814.781	0.0158027
814.859	0.0158852
814.937	0.0158028
815.015	0.0159380
815.093	0.0158317
815.171	0.0158173
815.249	0.0157271
815.328	0.0156967
815.406	0.0156921
815.484	0.0158112
815.562	0.0158402
815.640	0.0156426
815.718	0.0157341
815.796	0.0158241
815.874	0.0156520
815.953	0.0156786
816.031	0.0158270
816.109	0.0158207
816.187	0.0158875
816.265	0.0158218
816.343	0.0156851
816.421	0.0157922
816.499	0.0159027
816.578	0.0158220
816.656	0.0157892
816.734	0.0158466
816.812	0.0159358
816.890	0.0159158
816.968	0.0156994
817.046	0.0158002
817.124	0.0158421
817.203	0.0158250
817.281	0.0157603
817.359	0.0158177
817.437	0.0157780
817.515	0.0158271
817.593	0.0159225
817.671	0.0158346
817.749	0.0158519
817.828	0.0158208
817.906	0.0159560
817.984	0.0158894
818.062	0.0159783
818.140	0.0158987
818.218	0.0159404
818.296	0.0157888
818.374	0.0158265
818.453	0.0160638
818.531	0.0160148
818.609	0.0158557
818.687	0.0158054
818.765	0.0156498
818.843	0.0156126
818.921	0.0157684
818.999	0.0158953
819.078	0.0158819
819.156	0.0159026
819.234	0.0158205
819.312	0.0157957
819.390	0.0158490
819.468	0.0157066
819.546	0.0156433
819.624	0.0157669
819.703	0.0157842
819.781	0.0157675
819.859	0.0157411
819.937	0.0155358
820.015	0.0158942
820.093	0.0157285
820.171	0.0157687
820.249	0.0158830
820.328	0.0158522
820.406	0.0156483
820.484	0.0156442
820.562	0.0157142
820.640	0.0156233
820.718	0.0156258
820.796	0.0156377
820.874	0.0156790
820.953	0.0157268
821.031	0.0156910
821.109	0.0158200
821.187	0.0159173
821.265	0.0158099
821.343	0.0156735
821.421	0.0157357
821.499	0.0159274
821.578	0.0158942
821.656	0.0156992
821.734	0.0157909
821.812	0.0158665
821.890	0.0158202
821.968	0.0157999
822.046	0.0159071
822.124	0.0158768
822.203	0.0157421
822.281	0.0158903
822.359	0.0159160
822.437	0.0158821
822.515	0.0159560
822.593	0.0159669
822.671	0.0158384
822.749	0.0158318
822.828	0.0158582
822.906	0.0158624
822.984	0.0159292
823.062	0.0158166
823.140	0.0157369
823.218	0.0158497
823.296	0.0158728
823.374	0.0158502
823.453	0.0158709
823.531	0.0158641
823.609	0.0156648
823.687	0.0155470
823.765	0.0157742
823.843	0.0157835
823.921	0.0158115
823.999	0.0156120
824.078	0.0156374
824.156	0.0156483
824.234	0.0157072
824.312	0.0155544
824.390	0.0156888
824.468	0.0157618
824.546	0.0156725
824.624	0.0156612
824.703	0.0157509
824.781	0.0157603
824.859	0.0156460
824.937	0.0158315
825.015	0.0156661
825.093	0.0157537
825.171	0.0157142
825.249	0.0157610
825.328	0.0155857
825.406	0.0157783
825.484	0.0158071
825.562	0.0157604
825.640	0.0157125
825.718	0.0157993
825.796	0.0157590
825.874	0.0158009
825.953	0.0158667
826.031	0.0158666
826.109	0.0156140
826.187	0.0157828
826.265	0.0158041
826.343	0.0157266
826.421	0.0157849
826.499	0.0158334
826.578	0.0158034
826.656	0.0158426
826.734	0.0157959
826.812	0.0158295
826.890	0.0157105
826.968	0.0157632
827.046	0.0157351
827.124	0.0158325
827.203	0.0158436
827.281	0.0158228
827.359	0.0158730
827.437	0.0157600
827.515	0.0158160
827.593	0.0158178
827.671	0.0158022
827.749	0.0158118
827.828	0.0159123
827.906	0.0157711
827.984	0.0157979
828.062	0.0158346
828.140	0.0159398
828.218	0.0158478
828.296	0.0154436
828.374	0.0157011
828.453	0.0157310
828.531	0.0157736
828.609	0.0158646
828.687	0.0157086
828.765	0.0156866
828.843	0.0157191
828.921	0.0157793
828.999	0.0157523
829.078	0.0157436
829.156	0.0158611
829.234	0.0158068
829.312	0.0157507
829.390	0.0157377
829.468	0.0157107
829.546	0.0158698
829.624	0.0157401
829.703	0.0158665
829.781	0.0157052
829.859	0.0158824
829.937	0.0158344
830.015	0.0158015
830.093	0.0158720
830.171	0.0158698
830.249	0.0156398
830.328	0.0156406
830.406	0.0159181
830.484	0.0156744
830.562	0.0158373
830.640	0.0156820
830.718	0.0155709
830.796	0.0157251
830.874	0.0157437
830.953	0.0157114
831.031	0.0157491
831.109	0.0156773
831.187	0.0156921
831.265	0.0156278
831.343	0.0157349
831.421	0.0158536
831.499	0.0155623
831.578	0.0155421
831.656	0.0157507
831.734	0.0158170
831.812	0.0156583
831.890	0.0156908
831.968	0.0157916
832.046	0.0155589
832.124	0.0158325
832.203	0.0158073
832.281	0.0156724
832.359	0.0157565
832.437	0.0156494
832.515	0.0156981
832.593	0.0157222
832.671	0.0157509
832.749	0.0158160
832.828	0.0158031
832.906	0.0156819
832.984	0.0157323
833.062	0.0155722
833.140	0.0156591
833.218	0.0156882
833.296	0.0158674
833.374	0.0157733
833.453	0.0157456
833.531	0.0157942
833.609	0.0158221
833.687	0.0157729
833.765	0.0158813
833.843	0.0157859
833.921	0.0157689
833.999	0.0158712
834.078	0.0157623
834.156	0.0157818
834.234	0.0158853
834.312	0.0158383
834.390	0.0158556
834.468	0.0158073
834.546	0.0158230
834.624	0.0157822
834.703	0.0157626
834.781	0.0159428
834.859	0.0157734
834.937	0.0157974
835.015	0.0158413
835.093	0.0158159
835.171	0.0157897
835.249	0.0157925
835.328	0.0157715
835.406	0.0158192
835.484	0.0158305
835.562	0.0157659
835.640	0.0157546
835.718	0.0157720
835.796	0.0157770
835.874	0.0158501
835.953	0.0158026
836.031	0.0157401
836.109	0.0156074
836.187	0.0158350
836.265	0.0157601
836.343	0.0157376
836.421	0.0157366
836.499	0.0157861
836.578	0.0158476
836.656	0.0157833
836.734	0.0157478
836.812	0.0156618
836.890	0.0158042
836.968	0.0158186
837.046	0.0159260
837.124	0.0158336
837.203	0.0159653
837.281	0.0159921
837.359	0.0157406
837.437	0.0157725
837.515	0.0159125
837.593	0.0157677
837.671	0.0159074
837.749	0.0157423
837.828	0.0157024
837.906	0.0157204
837.984	0.0157826
838.062	0.0156729
838.140	0.0156515
838.218	0.0157578
838.296	0.0158430
838.374	0.0157478
838.453	0.0156689
838.531	0.0157153
838.609	0.0156809
838.687	0.0158248
838.765	0.0157832
838.843	0.0157223
838.921	0.0157323
838.999	0.0156756
839.078	0.0158349
839.156	0.0157362
839.234	0.0157946
839.312	0.0157478
839.390	0.0156964
839.468	0.0157231
839.546	0.0157054
839.624	0.0158797
839.703	0.0156380
839.781	0.0157298
839.859	0.0158039
839.937	0.0158089
840.015	0.0157001
840.093	0.0157761
840.171	0.0156912
840.249	0.0158376
840.328	0.0157513
840.406	0.0158421
840.484	0.0157325
840.562	0.0158601
840.640	0.0158279
840.718	0.0155801
840.796	0.0156779
840.874	0.0157510
840.953	0.0157753
841.031	0.0159179
841.109	0.0158310
841.187	0.0158125
841.265	0.0157058
841.343	0.0157534
841.421	0.0157934
841.499	0.0157588
841.578	0.0156739
841.656	0.0157553
841.734	0.0159330
841.812	0.0158741
841.890	0.0157283
841.968	0.0157694
842.046	0.0159437
842.124	0.0158117
842.203	0.0158249
842.281	0.0157922
842.359	0.0157391
842.437	0.0157575
842.515	0.0158263
842.593	0.0158266
842.671	0.0157449
842.749	0.0157906
842.828	0.0157757
842.906	0.0156570
842.984	0.0157132
843.062	0.0156245
843.140	0.0157327
843.218	0.0157461
843.296	0.0157381
843.374	0.0157393
843.453	0.0157671
843.531	0.0157651
843.609	0.0157147
843.687	0.0158200
843.765	0.0158416
843.843	0.0157641
843.921	0.0156452
843.999	0.0156204
844.078	0.0156613
844.156	0.0156884
844.234	0.0157537
844.312	0.0157048
844.390	0.0157827
844.468	0.0157059
844.546	0.0158092
844.624	0.0158066
844.703	0.0156875
844.781	0.0156673
844.859	0.0156291
844.937	0.0157057
845.015	0.0156323
845.093	0.0158295
845.171	0.0157509
845.249	0.0157379
845.328	0.0157878
845.406	0.0158031
845.484	0.0157569
845.562	0.0156906
845.640	0.0158681
845.718	0.0157434
845.796	0.0157399
845.874	0.0157166
845.953	0.0157498
846.031	0.0157663
846.109	0.0155981
846.187	0.0156922
846.265	0.0157993
846.343	0.0157091
846.421	0.0157098
846.499	0.0157109
846.578	0.0158405
846.656	0.0158209
846.734	0.0158176
846.812	0.0158479
846.890	0.0158257
846.968	0.0158158
847.046	0.0157787
847.124	0.0158271
847.203	0.0158259
847.281	0.0159158
847.359	0.0158765
847.437	0.0158990
847.515	0.0158008
847.593	0.0158214
847.671	0.0157465
847.749	0.0157571
847.828	0.0157253
847.906	0.0157946
847.984	0.0157710
848.062	0.0159213
848.140	0.0159195
848.218	0.0157671
848.296	0.0157524
848.374	0.0157967
848.453	0.0157342
848.531	0.0157890
848.609	0.0157011
848.687	0.0157668
848.765	0.0159248
848.843	0.0158335
848.921	0.0158575
848.999	0.0157620
849.078	0.0158667
849.156	0.0157272
849.234	0.0157323
849.312	0.0157045
849.390	0.0157726
849.468	0.0157722
849.546	0.0157272
849.624	0.0157082
849.703	0.0158671
849.781	0.0157039
849.859	0.0156405
849.937	0.0158273
850.015	0.0158399
850.093	0.0158163
850.171	0.0157841
850.249	0.0158723
850.328	0.0157663
850.406	0.0158929
850.484	0.0159535
850.562	0.0157245
850.640	0.0157089
850.718	0.0157859
850.796	0.0158253
850.874	0.0157438
850.953	0.0157090
851.031	0.0158017
851.109	0.0157229
851.187	0.0158418
851.265	0.0158532
851.343	0.0157315
851.421	0.0158569
851.499	0.0158724
851.578	0.0158908
851.656	0.0156386
851.734	0.0157506
851.812	0.0157724
851.890	0.0157821
851.968	0.0158018
852.046	0.0157436
852.124	0.0158563
852.203	0.0158533
852.281	0.0157111
852.359	0.0157485
852.437	0.0158536
852.515	0.0157897
852.593	0.0157893
852.671	0.0157400
852.749	0.0157058
852.828	0.0156551
852.906	0.0157734
852.984	0.0156268
853.062	0.0158767
853.140	0.0157288
853.218	0.0157562
853.296	0.0157040
853.374	0.0156014
853.453	0.0156689
853.531	0.0157843
853.609	0.0158140
853.687	0.0155299
853.765	0.0157922
853.843	0.0156282
853.921	0.0157549
853.999	0.0158412
854.078	0.0156444
854.156	0.0157703
854.234	0.0156947
854.312	0.0157055
854.390	0.0158919
854.468	0.0158742
854.546	0.0158805
854.624	0.0159161
854.703	0.0160307
854.781	0.0158581
854.859	0.0158624
854.937	0.0158119
855.015	0.0157624
855.093	0.0159283
855.171	0.0158403
855.249	0.0159098
855.328	0.0159165
855.406	0.0157150
855.484	0.0158885
855.562	0.0159689
855.640	0.0157819
855.718	0.0157883
855.796	0.0159244
855.874	0.0157590
855.953	0.0156696
856.031	0.0157461
856.109	0.0158688
856.187	0.0157549
856.265	0.0157360
856.343	0.0158534
856.421	0.0157539
856.499	0.0156935
856.578	0.0158118
856.656	0.0157613
856.734	0.0157581
856.812	0.0157511
856.890	0.0157175
856.968	0.0156488
857.046	0.0157025
857.124	0.0156404
857.203	0.0156039
857.281	0.0157710
857.359	0.0157555
857.437	0.0157159
857.515	0.0157619
857.593	0.0156168
857.671	0.0157040
857.749	0.0157105
857.828	0.0157121
857.906	0.0157983
857.984	0.0157213
858.062	0.0158357
858.140	0.0157487
858.218	0.0158226
858.296	0.0159586
858.374	0.0158669
858.453	0.0157221
858.531	0.0158631
858.609	0.0158025
858.687	0.0157391
858.765	0.0156885
858.843	0.0157991
858.921	0.0156705
858.999	0.0159808
859.078	0.0157798
859.156	0.0157734
859.234	0.0160089
859.312	0.0158224
859.390	0.0157112
859.468	0.0157291
859.546	0.0157175
859.624	0.0158541
859.703	0.0157032
859.781	0.0157365
859.859	0.0159606
859.937	0.0158788
860.015	0.0158243
860.093	0.0157316
860.171	0.0157929
860.249	0.0158452
860.328	0.0158198
860.406	0.0157552
860.484	0.0158404
860.562	0.0158398
860.640	0.0157321
860.718	0.0157880
860.796	0.0157635
860.874	0.0157521
860.953	0.0156879
861.031	0.0156718
861.109	0.0157121
861.187	0.0157044
861.265	0.0157917
861.343	0.0158172
861.421	0.0157810
861.499	0.0158133
861.578	0.0156702
861.656	0.0156832
861.734	0.0156616
861.812	0.0157781
861.890	0.0157077
861.968	0.0158078
862.046	0.0158090
862.124	0.0157485
862.203	0.0157556
862.281	0.0158719
862.359	0.0157433
862.437	0.0158520
862.515	0.0158601
862.593	0.0159418
862.671	0.0159454
862.749	0.0159573
862.828	0.0158719
862.906	0.0158909
862.984	0.0161002
863.062	0.0159799
863.140	0.0158731
863.218	0.0159583
863.296	0.0159155
863.374	0.0159311
863.453	0.0159010
863.531	0.0158648
863.609	0.0158785
863.687	0.0157762
863.765	0.0158525
863.843	0.0157861
863.921	0.0157545
863.999	0.0157690
864.078	0.0158270
864.156	0.0158306
864.234	0.0157614
864.312	0.0156590
864.390	0.0157314
864.468	0.0157005
864.546	0.0158813
864.624	0.0158479
864.703	0.0158970
864.781	0.0156825
864.859	0.0156597
864.937	0.0157802
865.015	0.0158519
865.093	0.0158078
865.171	0.0158024
865.249	0.0157270
865.328	0.0157806
865.406	0.0157721
865.484	0.0157900
865.562	0.0156809
865.640	0.0157847
865.718	0.0158606
865.796	0.0158146
865.874	0.0158669
865.953	0.0157178
866.031	0.0158554
866.109	0.0158335
866.187	0.0158073
866.265	0.0158554
866.343	0.0158810
866.421	0.0159229
866.499	0.0159330
866.578	0.0157977
866.656	0.0157536
866.734	0.0158093
866.812	0.0159436
866.890	0.0158559
866.968	0.0158833
867.046	0.0159914
867.124	0.0160023
867.203	0.0159260
867.281	0.0160181
867.359	0.0158389
867.437	0.0158804
867.515	0.0158868
867.593	0.0158113
867.671	0.0159186
867.749	0.0157809
867.828	0.0157082
867.906	0.0158205
867.984	0.0157941
868.062	0.0158421
868.140	0.0158144
868.218	0.0157845
868.296	0.0158354
868.374	0.0157231
868.453	0.0157676
868.531	0.0158446
868.609	0.0157522
868.687	0.0156575
868.765	0.0156875
868.843	0.0157792
868.921	0.0157856
868.999	0.0158183
869.078	0.0157468
869.156	0.0157722
869.234	0.0157234
869.312	0.0157207
869.390	0.0155913
869.468	0.0157555
869.546	0.0156561
869.624	0.0157681
869.703	0.0158365
869.781	0.0157375
869.859	0.0158277
869.937	0.0158410
870.015	0.0157098
870.093	0.0160219
870.171	0.0157929
870.249	0.0158053
870.328	0.0157555
870.406	0.0158134
870.484	0.0158199
870.562	0.0158106
870.640	0.0157458
870.718	0.0157897
870.796	0.0158994
870.874	0.0158748
870.953	0.0157668
871.031	0.0158640
871.109	0.0157686
871.187	0.0157751
871.265	0.0158247
871.343	0.0157191
871.421	0.0158503
871.499	0.0157861
871.578	0.0157881
871.656	0.0157835
871.734	0.0157420
871.812	0.0158330
871.890	0.0158751
871.968	0.0159091
872.046	0.0157047
872.124	0.0157372
872.203	0.0159181
872.281	0.0158004
872.359	0.0159266
872.437	0.0158441
872.515	0.0158199
872.593	0.0157578
872.671	0.0157574
872.749	0.0157317
872.828	0.0158595
872.906	0.0158582
872.984	0.0158726
873.062	0.0157870
873.140	0.0158112
873.218	0.0157807
873.296	0.0159820
873.374	0.0158736
873.453	0.0158465
873.531	0.0159094
873.609	0.0158884
873.687	0.0158415
873.765	0.0157689
873.843	0.0157530
873.921	0.0157298
873.999	0.0159260
874.078	0.0159628
874.156	0.0159130
874.234	0.0157915
874.312	0.0157240
874.390	0.0157542
874.468	0.0157775
874.546	0.0158882
874.624	0.0158849
874.703	0.0158092
874.781	0.0159024
874.859	0.0158601
874.937	0.0158445
875.015	0.0158080
875.093	0.0159377
875.171	0.0159917
875.249	0.0158482
875.328	0.0157983
875.406	0.0158564
875.484	0.0158871
875.562	0.0158548
875.640	0.0158710
875.718	0.0158736
875.796	0.0157364
875.874	0.0159003
875.953	0.0157941
876.031	0.0158430
876.109	0.0158459
876.187	0.0158662
876.265	0.0157001
876.343	0.0158801
876.421	0.0158609
876.499	0.0158837
876.578	0.0158772
876.656	0.0157928
876.734	0.0158817
876.812	0.0158633
876.890	0.0157115
876.968	0.0157658
877.046	0.0159814
877.124	0.0159030
877.203	0.0158041
877.281	0.0157402
877.359	0.0159344
877.437	0.0158724
877.515	0.0159148
877.593	0.0156640
877.671	0.0157777
877.749	0.0159493
877.828	0.0157192
877.906	0.0158802
877.984	0.0158415
878.062	0.0157446
878.140	0.0158200
878.218	0.0157969
878.296	0.0157864
878.374	0.0157262
878.453	0.0157561
878.531	0.0158688
878.609	0.0158496
878.687	0.0157963
878.765	0.0157831
878.843	0.0157964
878.921	0.0158298
878.999	0.0158847
879.078	0.0158693
879.156	0.0158528
879.234	0.0159747
879.312	0.0158941
879.390	0.0157716
879.468	0.0158797
879.546	0.0158187
879.624	0.0157485
879.703	0.0158080
879.781	0.0157092
879.859	0.0158231
879.937	0.0157590
880.015	0.0158376
880.093	0.0158351
880.171	0.0158984
880.249	0.0158341
880.328	0.0156857
880.406	0.0158337
880.484	0.0158046
880.562	0.0158867
880.640	0.0159020
880.718	0.0158385
880.796	0.0157809
880.874	0.0158833
880.953	0.0158458
881.031	0.0160251
881.109	0.0158691
881.187	0.0158273
881.265	0.0158641
881.343	0.0159395
881.421	0.0157342
881.499	0.0157748
881.578	0.0158364
881.656	0.0158021
881.734	0.0157454
881.812	0.0158546
881.890	0.0159533
881.968	0.0158434
882.046	0.0158031
882.124	0.0160139
882.203	0.0157796
882.281	0.0158379
882.359	0.0157385
882.437	0.0158152
882.515	0.0158414
882.593	0.0158875
882.671	0.0158381
882.749	0.0159064
882.828	0.0158540
882.906	0.0157352
882.984	0.0158841
883.062	0.0157652
883.140	0.0158057
883.218	0.0157348
883.296	0.0156804
883.374	0.0158649
883.453	0.0158298
883.531	0.0158188
883.609	0.0158154
883.687	0.0157494
883.765	0.0158219
883.843	0.0157657
883.921	0.0158559
883.999	0.0159110
884.078	0.0159089
884.156	0.0159608
884.234	0.0158389
884.312	0.0158528
884.390	0.0158245
884.468	0.0157826
884.546	0.0158004
884.624	0.0157845
884.703	0.0158623
884.781	0.0158149
884.859	0.0157865
884.937	0.0158952
885.015	0.0158485
885.093	0.0158617
885.171	0.0158373
885.249	0.0158574
885.328	0.0158760
885.406	0.0158137
885.484	0.0157658
885.562	0.0158623
885.640	0.0158109
885.718	0.0158954
885.796	0.0159175
885.874	0.0157439
885.953	0.0157320
886.031	0.0158379
886.109	0.0159742
886.187	0.0158044
886.265	0.0156472
886.343	0.0157159
886.421	0.0157808
886.499	0.0158382
886.578	0.0159161
886.656	0.0157819
886.734	0.0156985
886.812	0.0158875
886.890	0.0158871
886.968	0.0158163
887.046	0.0157607
887.124	0.0157013
887.203	0.0158758
887.281	0.0159069
887.359	0.0157487
887.437	0.0157320
887.515	0.0157004
887.593	0.0157878
887.671	0.0158613
887.749	0.0158316
887.828	0.0157555
887.906	0.0156390
887.984	0.0158377
888.062	0.0158276
888.140	0.0156924
888.218	0.0158600
888.296	0.0158656
888.374	0.0157755
888.453	0.0157857
888.531	0.0157981
888.609	0.0158754
888.687	0.0158194
888.765	0.0157927
888.843	0.0157886
888.921	0.0158033
888.999	0.0159022
889.078	0.0158125
889.156	0.0158789
889.234	0.0160012
889.312	0.0158202
889.390	0.0157947
889.468	0.0158763
889.546	0.0157218
889.624	0.0158008
889.703	0.0158666
889.781	0.0157764
889.859	0.0157497
889.937	0.0157080
890.015	0.0158522
890.093	0.0157850
890.171	0.0157622
890.249	0.0156827
890.328	0.0158425
890.406	0.0160023
890.484	0.0157676
890.562	0.0156402
890.640	0.0158572
890.718	0.0158702
890.796	0.0156993
890.874	0.0156918
890.953	0.0156750
891.031	0.0156909
891.109	0.0156112
891.187	0.0157159
891.265	0.0156882
891.343	0.0156046
891.421	0.0157178
891.499	0.0157591
891.578	0.0157871
891.656	0.0155119
891.734	0.0156504
891.812	0.0155772
891.890	0.0157858
891.968	0.0157698
892.046	0.0156644
892.124	0.0156944
892.203	0.0156116
892.281	0.0156290
892.359	0.0156772
892.437	0.0155529
892.515	0.0158016
892.593	0.0157091
892.671	0.0156825
892.749	0.0156607
892.828	0.0158614
892.906	0.0156399
892.984	0.0156451
893.062	0.0157431
893.140	0.0157029
893.218	0.0158953
893.296	0.0157931
893.374	0.0157486
893.453	0.0156870
893.531	0.0157633
893.609	0.0157368
893.687	0.0158617
893.765	0.0158092
893.843	0.0157714
893.921	0.0158217
893.999	0.0157482
894.078	0.0156271
894.156	0.0157340
894.234	0.0157990
894.312	0.0158190
894.390	0.0157926
894.468	0.0157606
894.546	0.0158628
894.624	0.0156761
894.703	0.0157262
894.781	0.0157419
894.859	0.0157387
894.937	0.0157997
895.015	0.0156895
895.093	0.0157235
895.171	0.0157236
895.249	0.0156757
895.328	0.0155537
895.406	0.0157487
895.484	0.0156801
895.562	0.0156867
895.640	0.0156818
895.718	0.0158194
895.796	0.0158126
895.874	0.0157703
895.953	0.0157687
896.031	0.0158588
896.109	0.0158469
896.187	0.0157059
896.265	0.0157895
896.343	0.0157661
896.421	0.0156798
896.499	0.0155909
896.578	0.0158182
896.656	0.0158729
896.734	0.0157864
896.812	0.0157863
896.890	0.0158832
896.968	0.0158015
897.046	0.0157826
897.124	0.0156826
897.203	0.0158213
897.281	0.0158788
897.359	0.0157358
897.437	0.0158679
897.515	0.0160369
897.593	0.0159599
897.671	0.0157536
897.749	0.0157471
897.828	0.0157184
897.906	0.0158477
897.984	0.0158589
898.062	0.0158309
898.140	0.0158398
898.218	0.0158688
898.296	0.0160249
898.374	0.0158850
898.453	0.0157906
898.531	0.0158170
898.609	0.0158550
898.687	0.0158504
898.765	0.0158160
898.843	0.0158541
898.921	0.0159067
898.999	0.0156374
899.078	0.0158999
899.156	0.0158633
899.234	0.0158636
899.312	0.0159341
899.390	0.0159850
899.468	0.0158589
899.546	0.0158385
899.624	0.0157565
899.703	0.0158179
899.781	0.0159079
899.859	0.0157896
899.937	0.0156997
900.015	0.0157053
900.093	0.0157459
900.171	0.0158096
900.249	0.0157359
900.328	0.0158982
900.406	0.0157344
900.484	0.0157846
900.562	0.0159020
900.640	0.0159510
900.718	0.0156116
900.796	0.0158124
900.874	0.0157380
900.953	0.0157786
901.031	0.0157974
901.109	0.0157531
901.187	0.0157800
901.265	0.0158737
901.343	0.0157101
901.421	0.0157306
901.499	0.0157417
901.578	0.0158523
901.656	0.0157781
901.734	0.0157785
901.812	0.0158284
901.890	0.0156725
901.968	0.0156342
902.046	0.0157051
902.124	0.0157385
902.203	0.0157307
902.281	0.0157072
902.359	0.0158703
902.437	0.0158333
902.515	0.0156482
902.593	0.0156703
902.671	0.0157906
902.749	0.0156613
902.828	0.0157683
902.906	0.0158100
902.984	0.0157978
903.062	0.0157379
903.140	0.0157932
903.218	0.0158230
903.296	0.0158035
903.374	0.0158694
903.453	0.0157532
903.531	0.0157426
903.609	0.0158415
903.687	0.0158397
903.765	0.0157481
903.843	0.0157521
903.921	0.0157132
903.999	0.0156707
904.078	0.0156497
904.156	0.0156860
904.234	0.0156717
904.312	0.0156927
904.390	0.0157915
904.468	0.0156664
904.546	0.0155930
904.624	0.0158039
904.703	0.0157165
904.781	0.0156878
904.859	0.0157762
904.937	0.0157869
905.015	0.0157014
905.093	0.0156633
905.171	0.0156296
905.249	0.0158019
905.328	0.0158259
905.406	0.0157827
905.484	0.0156770
905.562	0.0156697
905.640	0.0157006
905.718	0.0157993
905.796	0.0157719
905.874	0.0158505
905.953	0.0157866
906.031	0.0157422
906.109	0.0156385
906.187	0.0157722
906.265	0.0157910
906.343	0.0158350
906.421	0.0157705
906.499	0.0158710
906.578	0.0157363
906.656	0.0158507
906.734	0.0158354
906.812	0.0157084
906.890	0.0157687
906.968	0.0159275
907.046	0.0156616
907.124	0.0155855
907.203	0.0158147
907.281	0.0157438
907.359	0.0158108
907.437	0.0158599
907.515	0.0157041
907.593	0.0158772
907.671	0.0156739
907.749	0.0157737
907.828	0.0157585
907.906	0.0157056
907.984	0.0157121
908.062	0.0157743
908.140	0.0158796
908.218	0.0157645
908.296	0.0157549
908.374	0.0158337
908.453	0.0156611
908.531	0.0157255
908.609	0.0157182
908.687	0.0158288
908.765	0.0156488
908.843	0.0157185
908.921	0.0156750
908.999	0.0157431
909.078	0.0158421
909.156	0.0158091
909.234	0.0158255
909.312	0.0158495
909.390	0.0156936
909.468	0.0157691
909.546	0.0159013
909.624	0.0158800
909.703	0.0157370
909.781	0.0157958
909.859	0.0157776
909.937	0.0158321
910.015	0.0157389
910.093	0.0157874
910.171	0.0158372
910.249	0.0158495
910.328	0.0157358
910.406	0.0158158
910.484	0.0159052
910.562	0.0158302
910.640	0.0159061
910.718	0.0158369
910.796	0.0157697
910.874	0.0157739
910.953	0.0158238
911.031	0.0158432
911.109	0.0157717
911.187	0.0157057
911.265	0.0157562
911.343	0.0158205
911.421	0.0157685
911.499	0.0158057
911.578	0.0157405
911.656	0.0157976
911.734	0.0157253
911.812	0.0157325
911.890	0.0158771
911.968	0.0157737
912.046	0.0158543
912.124	0.0157193
912.203	0.0156616
912.281	0.0157262
912.359	0.0157559
912.437	0.0158931
912.515	0.0157751
912.593	0.0157362
912.671	0.0156644
912.749	0.0157359
912.828	0.0157291
912.906	0.0157599
912.984	0.0156369
913.062	0.0157882
913.140	0.0158186
913.218	0.0157684
913.296	0.0157252
913.374	0.0158333
913.453	0.0157585
913.531	0.0156713
913.609	0.0157555
913.687	0.0159288
913.765	0.0157957
913.843	0.0157212
913.921	0.0157644
913.999	0.0158299
914.078	0.0157445
914.156	0.0158485
914.234	0.0157597
914.312	0.0158164
914.390	0.0157597
914.468	0.0157368
914.546	0.0158572
914.624	0.0157686
914.703	0.0158833
914.781	0.0157205
914.859	0.0159346
914.937	0.0158047
915.015	0.0157989
915.093	0.0158720
915.171	0.0156970
915.249	0.0158498
915.328	0.0157431
915.406	0.0157575
915.484	0.0157689
915.562	0.0157819
915.640	0.0158528
915.718	0.0157858
915.796	0.0156509
915.874	0.0156941
915.953	0.0157313
916.031	0.0157569
916.109	0.0158765
916.187	0.0158297
916.265	0.0157900
916.343	0.0157883
916.421	0.0158044
916.499	0.0157654
916.578	0.0156915
916.656	0.0158624
916.734	0.0158373
916.812	0.0158844
916.890	0.0157428
916.968	0.0157508
917.046	0.0156802
917.124	0.0158189
917.203	0.0158170
917.281	0.0157988
917.359	0.0157036
917.437	0.0158487
917.515	0.0157402
917.593	0.0156589
917.671	0.0157348
917.749	0.0158386
917.828	0.0159056
917.906	0.0157731
917.984	0.0157334
918.062	0.0158154
918.140	0.0158302
918.218	0.0157732
918.296	0.0157960
918.374	0.0158020
918.453	0.0159625
918.531	0.0158044
918.609	0.0157094
918.687	0.0159406
918.765	0.0160228
918.843	0.0159044
918.921	0.0159103
918.999	0.0157849
919.078	0.0158624
919.156	0.0159795
919.234	0.0158354
919.312	0.0157914
919.390	0.0158004
919.468	0.0160160
919.546	0.0158740
919.624	0.0157648
919.703	0.0158633
919.781	0.0158064
919.859	0.0158494
919.937	0.0158184
