05/06/2022	19:35:06	Ver.	4.1	UNKNOWN
Optical Delay	600.015094	Delta X		0.078125	Sweeps	1	Scan Rate	0/0
Coordinates	Axis 1	NaN	Axis 2	NaN	Axis 3	NaN	Axis 4	NaN	Axis 5	NaN	Axis 6	0.000000
TX Power	0.000000	RX Power	0.000000

600.015	0.0152786
600.093	0.0151982
600.171	0.0151608
600.249	0.0151981
600.328	0.0151983
600.406	0.0151757
600.484	0.0152479
600.562	0.0152280
600.640	0.0152175
600.718	0.0153307
600.796	0.0153268
600.874	0.0150985
600.953	0.0153146
601.031	0.0152055
601.109	0.0152513
601.187	0.0153376
601.265	0.0153855
601.343	0.0151565
601.421	0.0151848
601.499	0.0153224
601.578	0.0153265
601.656	0.0152895
601.734	0.0152984
601.812	0.0152302
601.890	0.0153944
601.968	0.0152450
602.046	0.0152370
602.124	0.0153757
602.203	0.0151972
602.281	0.0153442
602.359	0.0152395
602.437	0.0151753
602.515	0.0152581
602.593	0.0152829
602.671	0.0152601
602.749	0.0152574
602.828	0.0151868
602.906	0.0152309
602.984	0.0153017
603.062	0.0152538
603.140	0.0151951
603.218	0.0154464
603.296	0.0152690
603.374	0.0153625
603.453	0.0153632
603.531	0.0152850
603.609	0.0153815
603.687	0.0154880
603.765	0.0153286
603.843	0.0153105
603.921	0.0154275
603.999	0.0152779
604.078	0.0152985
604.156	0.0153773
604.234	0.0152247
604.312	0.0152933
604.390	0.0152308
604.468	0.0152942
604.546	0.0152652
604.624	0.0151918
604.703	0.0152759
604.781	0.0152230
604.859	0.0153669
604.937	0.0151805
605.015	0.0152696
605.093	0.0153416
605.171	0.0154066
605.249	0.0153944
605.328	0.0153082
605.406	0.0152618
605.484	0.0153718
605.562	0.0154269
605.640	0.0154235
605.718	0.0154227
605.796	0.0154919
605.874	0.0155691
605.953	0.0155232
606.031	0.0155304
606.109	0.0154202
606.187	0.0154280
606.265	0.0153753
606.343	0.0153757
606.421	0.0152930
606.499	0.0153690
606.578	0.0154226
606.656	0.0153410
606.734	0.0153205
606.812	0.0153964
606.890	0.0152375
606.968	0.0152874
607.046	0.0152493
607.124	0.0152061
607.203	0.0151640
607.281	0.0150847
607.359	0.0151102
607.437	0.0151807
607.515	0.0152368
607.593	0.0152171
607.671	0.0151025
607.749	0.0151931
607.828	0.0151221
607.906	0.0152859
607.984	0.0151403
608.062	0.0152981
608.140	0.0153568
608.218	0.0152517
608.296	0.0153153
608.374	0.0153163
608.453	0.0153839
608.531	0.0154397
608.609	0.0153644
608.687	0.0155015
608.765	0.0155573
608.843	0.0154260
608.921	0.0155155
608.999	0.0154614
609.078	0.0154779
609.156	0.0155057
609.234	0.0155193
609.312	0.0155844
609.390	0.0156652
609.468	0.0155749
609.546	0.0156841
609.624	0.0156089
609.703	0.0156436
609.781	0.0155436
609.859	0.0154364
609.937	0.0154828
610.015	0.0154852
610.093	0.0155038
610.171	0.0153740
610.249	0.0151657
610.328	0.0153526
610.406	0.0151918
610.484	0.0152270
610.562	0.0151064
610.640	0.0151047
610.718	0.0151406
610.796	0.0151455
610.874	0.0151464
610.953	0.0151451
611.031	0.0151163
611.109	0.0150364
611.187	0.0153222
611.265	0.0152611
611.343	0.0153863
611.421	0.0154992
611.499	0.0154869
611.578	0.0154234
611.656	0.0155137
611.734	0.0154475
611.812	0.0156454
611.890	0.0155561
611.968	0.0155653
612.046	0.0156194
612.124	0.0155992
612.203	0.0156320
612.281	0.0156199
612.359	0.0156618
612.437	0.0156987
612.515	0.0155808
612.593	0.0156126
612.671	0.0155939
612.749	0.0155180
612.828	0.0156441
612.906	0.0153505
612.984	0.0155031
613.062	0.0155068
613.140	0.0154653
613.218	0.0153686
613.296	0.0153890
613.374	0.0154805
613.453	0.0154420
613.531	0.0154382
613.609	0.0154480
613.687	0.0153885
613.765	0.0152917
613.843	0.0151741
613.921	0.0152487
613.999	0.0152788
614.078	0.0152072
614.156	0.0151762
614.234	0.0152668
614.312	0.0153104
614.390	0.0152304
614.468	0.0152943
614.546	0.0152236
614.624	0.0153728
614.703	0.0153960
614.781	0.0152801
614.859	0.0155342
614.937	0.0155688
615.015	0.0155549
615.093	0.0155513
615.171	0.0156450
615.249	0.0155254
615.328	0.0156434
615.406	0.0156580
615.484	0.0156674
615.562	0.0154834
615.640	0.0155771
615.718	0.0156837
615.796	0.0155939
615.874	0.0154868
615.953	0.0153065
616.031	0.0153435
616.109	0.0153095
616.187	0.0154150
616.265	0.0154003
616.343	0.0153313
616.421	0.0152975
616.499	0.0153457
616.578	0.0153573
616.656	0.0153172
616.734	0.0153114
616.812	0.0154626
616.890	0.0154130
616.968	0.0154375
617.046	0.0154099
617.124	0.0153745
617.203	0.0154328
617.281	0.0154792
617.359	0.0155061
617.437	0.0154368
617.515	0.0155626
617.593	0.0153876
617.671	0.0153514
617.749	0.0154455
617.828	0.0154124
617.906	0.0154205
617.984	0.0155354
618.062	0.0153684
618.140	0.0154316
618.218	0.0154356
618.296	0.0153741
618.374	0.0153749
618.453	0.0154124
618.531	0.0154291
618.609	0.0154601
618.687	0.0155263
618.765	0.0155344
618.843	0.0153362
618.921	0.0153873
618.999	0.0153947
619.078	0.0155295
619.156	0.0153286
619.234	0.0154797
619.312	0.0155396
619.390	0.0154285
619.468	0.0155159
619.546	0.0155747
619.624	0.0154240
619.703	0.0153615
619.781	0.0155530
619.859	0.0155690
619.937	0.0153838
620.015	0.0154398
620.093	0.0153981
620.171	0.0154237
620.249	0.0153170
620.328	0.0153605
620.406	0.0153584
620.484	0.0153596
620.562	0.0153438
620.640	0.0155100
620.718	0.0153626
620.796	0.0154159
620.874	0.0153773
620.953	0.0152140
621.031	0.0154480
621.109	0.0153551
621.187	0.0153539
621.265	0.0152702
621.343	0.0152940
621.421	0.0153414
621.499	0.0153448
621.578	0.0153149
621.656	0.0153657
621.734	0.0153698
621.812	0.0154371
621.890	0.0153104
621.968	0.0154296
622.046	0.0154944
622.124	0.0154361
622.203	0.0154236
622.281	0.0154054
622.359	0.0154555
622.437	0.0154336
622.515	0.0154200
622.593	0.0152955
622.671	0.0152820
622.749	0.0154546
622.828	0.0152748
622.906	0.0151535
622.984	0.0153407
623.062	0.0149755
623.140	0.0149184
623.218	0.0151383
623.296	0.0150810
623.374	0.0150084
623.453	0.0150761
623.531	0.0150132
623.609	0.0150931
623.687	0.0150402
623.765	0.0151321
623.843	0.0151141
623.921	0.0152438
623.999	0.0152102
624.078	0.0152090
624.156	0.0153085
624.234	0.0154197
624.312	0.0155019
624.390	0.0153970
624.468	0.0155855
624.546	0.0157515
624.624	0.0155965
624.703	0.0155124
624.781	0.0155357
624.859	0.0155460
624.937	0.0155868
625.015	0.0155223
625.093	0.0154607
625.171	0.0154049
625.249	0.0154058
625.328	0.0153578
625.406	0.0152835
625.484	0.0151532
625.562	0.0152387
625.640	0.0151427
625.718	0.0150662
625.796	0.0150140
625.874	0.0149388
625.953	0.0149206
626.031	0.0149796
626.109	0.0147663
626.187	0.0148598
626.265	0.0149397
626.343	0.0148099
626.421	0.0148399
626.499	0.0149892
626.578	0.0148871
626.656	0.0150147
626.734	0.0151627
626.812	0.0150695
626.890	0.0151665
626.968	0.0154261
627.046	0.0153973
627.124	0.0154123
627.203	0.0154329
627.281	0.0155051
627.359	0.0154847
627.437	0.0155289
627.515	0.0156998
627.593	0.0155586
627.671	0.0156900
627.749	0.0157872
627.828	0.0159644
627.906	0.0157561
627.984	0.0157417
628.062	0.0158733
628.140	0.0157662
628.218	0.0158311
628.296	0.0156244
628.374	0.0156256
628.453	0.0156605
628.531	0.0156882
628.609	0.0155208
628.687	0.0155504
628.765	0.0154440
628.843	0.0153762
628.921	0.0152560
628.999	0.0153976
629.078	0.0152090
629.156	0.0152702
629.234	0.0151691
629.312	0.0151372
629.390	0.0149937
629.468	0.0149126
629.546	0.0148930
629.624	0.0149380
629.703	0.0149907
629.781	0.0149079
629.859	0.0147952
629.937	0.0148560
630.015	0.0148453
630.093	0.0149688
630.171	0.0150796
630.249	0.0150592
630.328	0.0151035
630.406	0.0151674
630.484	0.0153748
630.562	0.0152895
630.640	0.0152102
630.718	0.0154716
630.796	0.0154301
630.874	0.0155219
630.953	0.0153246
631.031	0.0154877
631.109	0.0152685
631.187	0.0154696
631.265	0.0155282
631.343	0.0155116
631.421	0.0154239
631.499	0.0154255
631.578	0.0154929
631.656	0.0154996
631.734	0.0156252
631.812	0.0155602
631.890	0.0156057
631.968	0.0156273
632.046	0.0156788
632.124	0.0156124
632.203	0.0156470
632.281	0.0156869
632.359	0.0158787
632.437	0.0158473
632.515	0.0158629
632.593	0.0157194
632.671	0.0157103
632.749	0.0156441
632.828	0.0156912
632.906	0.0157575
632.984	0.0157214
633.062	0.0156431
633.140	0.0155183
633.218	0.0155731
633.296	0.0154272
633.374	0.0154366
633.453	0.0153728
633.531	0.0153816
633.609	0.0152902
633.687	0.0151467
633.765	0.0152543
633.843	0.0150913
633.921	0.0150618
633.999	0.0151234
634.078	0.0150529
634.156	0.0149622
634.234	0.0149274
634.312	0.0149011
634.390	0.0149173
634.468	0.0148784
634.546	0.0148784
634.624	0.0149144
634.703	0.0150084
634.781	0.0151003
634.859	0.0150102
634.937	0.0150627
635.015	0.0152140
635.093	0.0153483
635.171	0.0155140
635.249	0.0155274
635.328	0.0156722
635.406	0.0156831
635.484	0.0158275
635.562	0.0158769
635.640	0.0157584
635.718	0.0161460
635.796	0.0160589
635.874	0.0160678
635.953	0.0160195
636.031	0.0160618
636.109	0.0161064
636.187	0.0160269
636.265	0.0159514
636.343	0.0160264
636.421	0.0158107
636.499	0.0159174
636.578	0.0158415
636.656	0.0158710
636.734	0.0158511
636.812	0.0157665
636.890	0.0157341
636.968	0.0156679
637.046	0.0154722
637.124	0.0156229
637.203	0.0153992
637.281	0.0153219
637.359	0.0152294
637.437	0.0152271
637.515	0.0151488
637.593	0.0149982
637.671	0.0150654
637.749	0.0151901
637.828	0.0151230
637.906	0.0151321
637.984	0.0150692
638.062	0.0150613
638.140	0.0150909
638.218	0.0150092
638.296	0.0149812
638.374	0.0150105
638.453	0.0149900
638.531	0.0150273
638.609	0.0152529
638.687	0.0151279
638.765	0.0152215
638.843	0.0151400
638.921	0.0151891
638.999	0.0152645
639.078	0.0154199
639.156	0.0153210
639.234	0.0153053
639.312	0.0152416
639.390	0.0153934
639.468	0.0154453
639.546	0.0154494
639.624	0.0155005
639.703	0.0154885
639.781	0.0156011
639.859	0.0156104
639.937	0.0156939
640.015	0.0157039
640.093	0.0157243
640.171	0.0156960
640.249	0.0158181
640.328	0.0156796
640.406	0.0157691
640.484	0.0156375
640.562	0.0157243
640.640	0.0157836
640.718	0.0156458
640.796	0.0156915
640.874	0.0156274
640.953	0.0156356
641.031	0.0156612
641.109	0.0157332
641.187	0.0157424
641.265	0.0155662
641.343	0.0155944
641.421	0.0156904
641.499	0.0155619
641.578	0.0155885
641.656	0.0154472
641.734	0.0155848
641.812	0.0155017
641.890	0.0154391
641.968	0.0153153
642.046	0.0154258
642.124	0.0152855
642.203	0.0152900
642.281	0.0151979
642.359	0.0151417
642.437	0.0150907
642.515	0.0150775
642.593	0.0148498
642.671	0.0148612
642.749	0.0148947
642.828	0.0150033
642.906	0.0148692
642.984	0.0149380
643.062	0.0147250
643.140	0.0149606
643.218	0.0149421
643.296	0.0149782
643.374	0.0151289
643.453	0.0152670
643.531	0.0151474
643.609	0.0152183
643.687	0.0152762
643.765	0.0154242
643.843	0.0152381
643.921	0.0156178
643.999	0.0155489
644.078	0.0156515
644.156	0.0156240
644.234	0.0157204
644.312	0.0158337
644.390	0.0159109
644.468	0.0158769
644.546	0.0158877
644.624	0.0158758
644.703	0.0157918
644.781	0.0158411
644.859	0.0158257
644.937	0.0157842
645.015	0.0156824
645.093	0.0156436
645.171	0.0156404
645.249	0.0156944
645.328	0.0154545
645.406	0.0153713
645.484	0.0153853
645.562	0.0153077
645.640	0.0153518
645.718	0.0152954
645.796	0.0152209
645.874	0.0151826
645.953	0.0151668
646.031	0.0152805
646.109	0.0152941
646.187	0.0152718
646.265	0.0153170
646.343	0.0153715
646.421	0.0153080
646.499	0.0153176
646.578	0.0153483
646.656	0.0152095
646.734	0.0154724
646.812	0.0154485
646.890	0.0152752
646.968	0.0153318
647.046	0.0153783
647.124	0.0152366
647.203	0.0153544
647.281	0.0153467
647.359	0.0153053
647.437	0.0152521
647.515	0.0151492
647.593	0.0150453
647.671	0.0149658
647.749	0.0149813
647.828	0.0148241
647.906	0.0147994
647.984	0.0148665
648.062	0.0147143
648.140	0.0148093
648.218	0.0146260
648.296	0.0147446
648.374	0.0148973
648.453	0.0149309
648.531	0.0150031
648.609	0.0150600
648.687	0.0151121
648.765	0.0151621
648.843	0.0152231
648.921	0.0153979
648.999	0.0153458
649.078	0.0155437
649.156	0.0156363
649.234	0.0155733
649.312	0.0155129
649.390	0.0155717
649.468	0.0156380
649.546	0.0157245
649.624	0.0158541
649.703	0.0158184
649.781	0.0158968
649.859	0.0157451
649.937	0.0157291
650.015	0.0158385
650.093	0.0157669
650.171	0.0156411
650.249	0.0156075
650.328	0.0155528
650.406	0.0155428
650.484	0.0154184
650.562	0.0154046
650.640	0.0154252
650.718	0.0155132
650.796	0.0153963
650.874	0.0153687
650.953	0.0154205
651.031	0.0151745
651.109	0.0153982
651.187	0.0155080
651.265	0.0153183
651.343	0.0153697
651.421	0.0152992
651.499	0.0152773
651.578	0.0153001
651.656	0.0153427
651.734	0.0153018
651.812	0.0153683
651.890	0.0152502
651.968	0.0153703
652.046	0.0154379
652.124	0.0153851
652.203	0.0153512
652.281	0.0151984
652.359	0.0151939
652.437	0.0151183
652.515	0.0150546
652.593	0.0150461
652.671	0.0150511
652.749	0.0148786
652.828	0.0150340
652.906	0.0149774
652.984	0.0148495
653.062	0.0148943
653.140	0.0150006
653.218	0.0149527
653.296	0.0149038
653.374	0.0149844
653.453	0.0150610
653.531	0.0151430
653.609	0.0151289
653.687	0.0151660
653.765	0.0153538
653.843	0.0152675
653.921	0.0152615
653.999	0.0154074
654.078	0.0157098
654.156	0.0155583
654.234	0.0156158
654.312	0.0155595
654.390	0.0155865
654.468	0.0156758
654.546	0.0158752
654.624	0.0157854
654.703	0.0157516
654.781	0.0158529
654.859	0.0158451
654.937	0.0158187
655.015	0.0158945
655.093	0.0156721
655.171	0.0157416
655.249	0.0156773
655.328	0.0157607
655.406	0.0156839
655.484	0.0156125
655.562	0.0156739
655.640	0.0155550
655.718	0.0155915
655.796	0.0154659
655.874	0.0154908
655.953	0.0153244
656.031	0.0154243
656.109	0.0153944
656.187	0.0153815
656.265	0.0153407
656.343	0.0151796
656.421	0.0152718
656.499	0.0152818
656.578	0.0153616
656.656	0.0153009
656.734	0.0151802
656.812	0.0151995
656.890	0.0151275
656.968	0.0151033
657.046	0.0151460
657.124	0.0151143
657.203	0.0150073
657.281	0.0149048
657.359	0.0150002
657.437	0.0147787
657.515	0.0149633
657.593	0.0150102
657.671	0.0148134
657.749	0.0147749
657.828	0.0149821
657.906	0.0150002
657.984	0.0149054
658.062	0.0150939
658.140	0.0152220
658.218	0.0151608
658.296	0.0152419
658.374	0.0153189
658.453	0.0154064
658.531	0.0154317
658.609	0.0155495
658.687	0.0156056
658.765	0.0156248
658.843	0.0156202
658.921	0.0156986
658.999	0.0157319
659.078	0.0157529
659.156	0.0158871
659.234	0.0158241
659.312	0.0158240
659.390	0.0158974
659.468	0.0159112
659.546	0.0158115
659.624	0.0157528
659.703	0.0157627
659.781	0.0157646
659.859	0.0157389
659.937	0.0156777
660.015	0.0156329
660.093	0.0155487
660.171	0.0155529
660.249	0.0155748
660.328	0.0155276
660.406	0.0154869
660.484	0.0155798
660.562	0.0155074
660.640	0.0154627
660.718	0.0154427
660.796	0.0156144
660.874	0.0155380
660.953	0.0154050
661.031	0.0154872
661.109	0.0154293
661.187	0.0153145
661.265	0.0153962
661.343	0.0153369
661.421	0.0154081
661.499	0.0154113
661.578	0.0153974
661.656	0.0154069
661.734	0.0153719
661.812	0.0153224
661.890	0.0153128
661.968	0.0154391
662.046	0.0153554
662.124	0.0151878
662.203	0.0152761
662.281	0.0153870
662.359	0.0154158
662.437	0.0153538
662.515	0.0155066
662.593	0.0154027
662.671	0.0153973
662.749	0.0154481
662.828	0.0154400
662.906	0.0154293
662.984	0.0154955
663.062	0.0154630
663.140	0.0155833
663.218	0.0154858
663.296	0.0155089
663.374	0.0156118
663.453	0.0155889
663.531	0.0155093
663.609	0.0156432
663.687	0.0154457
663.765	0.0154356
663.843	0.0154993
663.921	0.0154440
663.999	0.0153959
664.078	0.0155978
664.156	0.0155293
664.234	0.0156324
664.312	0.0156205
664.390	0.0156530
664.468	0.0156023
664.546	0.0155588
664.624	0.0155791
664.703	0.0156526
664.781	0.0155944
664.859	0.0155657
664.937	0.0156087
665.015	0.0156244
665.093	0.0157851
665.171	0.0156261
665.249	0.0154527
665.328	0.0155679
665.406	0.0154572
665.484	0.0154248
665.562	0.0154848
665.640	0.0155382
665.718	0.0155163
665.796	0.0153601
665.874	0.0155583
665.953	0.0152516
666.031	0.0153297
666.109	0.0152627
666.187	0.0152383
666.265	0.0153671
666.343	0.0153176
666.421	0.0152917
666.499	0.0153340
666.578	0.0151934
666.656	0.0152505
666.734	0.0153195
666.812	0.0153244
666.890	0.0151410
666.968	0.0151691
667.046	0.0151263
667.124	0.0150873
667.203	0.0152291
667.281	0.0150545
667.359	0.0149944
667.437	0.0150531
667.515	0.0150261
667.593	0.0151381
667.671	0.0150349
667.749	0.0151017
667.828	0.0152203
667.906	0.0152201
667.984	0.0152564
668.062	0.0153889
668.140	0.0153630
668.218	0.0153644
668.296	0.0153465
668.374	0.0153995
668.453	0.0154884
668.531	0.0153983
668.609	0.0154393
668.687	0.0154679
668.765	0.0154011
668.843	0.0154132
668.921	0.0153646
668.999	0.0153333
669.078	0.0153945
669.156	0.0154845
669.234	0.0154384
669.312	0.0154021
669.390	0.0154160
669.468	0.0152625
669.546	0.0153249
669.624	0.0152364
669.703	0.0155193
669.781	0.0153988
669.859	0.0154674
669.937	0.0153719
670.015	0.0153765
670.093	0.0152888
670.171	0.0152708
670.249	0.0152883
670.328	0.0154607
670.406	0.0152765
670.484	0.0153030
670.562	0.0151019
670.640	0.0152518
670.718	0.0152091
670.796	0.0151381
670.874	0.0149858
670.953	0.0150492
671.031	0.0151166
671.109	0.0150896
671.187	0.0150066
671.265	0.0151007
671.343	0.0150780
671.421	0.0150241
671.499	0.0150066
671.578	0.0150301
671.656	0.0151219
671.734	0.0149403
671.812	0.0150212
671.890	0.0151033
671.968	0.0152395
672.046	0.0150818
672.124	0.0149950
672.203	0.0149980
672.281	0.0151906
672.359	0.0152351
672.437	0.0152326
672.515	0.0151735
672.593	0.0153210
672.671	0.0153581
672.749	0.0153450
672.828	0.0154321
672.906	0.0154845
672.984	0.0154337
673.062	0.0154503
673.140	0.0154478
673.218	0.0155282
673.296	0.0156274
673.374	0.0154306
673.453	0.0154647
673.531	0.0154226
673.609	0.0154757
673.687	0.0153724
673.765	0.0152005
673.843	0.0153582
673.921	0.0154236
673.999	0.0153449
674.078	0.0153600
674.156	0.0153599
674.234	0.0153245
674.312	0.0151605
674.390	0.0153270
674.468	0.0153752
674.546	0.0154173
674.624	0.0154281
674.703	0.0153457
674.781	0.0153828
674.859	0.0154089
674.937	0.0152699
675.015	0.0153078
675.093	0.0154196
675.171	0.0154044
675.249	0.0152834
675.328	0.0150758
675.406	0.0149738
675.484	0.0151554
675.562	0.0149701
675.640	0.0150758
675.718	0.0149624
675.796	0.0149884
675.874	0.0150667
675.953	0.0150591
676.031	0.0149154
676.109	0.0149332
676.187	0.0149416
676.265	0.0151011
676.343	0.0151042
676.421	0.0151566
676.499	0.0152287
676.578	0.0151690
676.656	0.0152101
676.734	0.0151894
676.812	0.0152151
676.890	0.0151245
676.968	0.0151216
677.046	0.0151569
677.124	0.0151900
677.203	0.0150690
677.281	0.0151604
677.359	0.0151539
677.437	0.0152146
677.515	0.0152223
677.593	0.0152056
677.671	0.0152965
677.749	0.0153197
677.828	0.0153404
677.906	0.0155031
677.984	0.0153863
678.062	0.0154237
678.140	0.0155061
678.218	0.0155244
678.296	0.0153687
678.374	0.0154373
678.453	0.0153664
678.531	0.0155592
678.609	0.0155892
678.687	0.0155281
678.765	0.0155254
678.843	0.0154813
678.921	0.0155168
678.999	0.0154574
679.078	0.0155099
679.156	0.0155449
679.234	0.0155226
679.312	0.0156005
679.390	0.0153474
679.468	0.0153474
679.546	0.0155148
679.624	0.0155422
679.703	0.0153687
679.781	0.0152680
679.859	0.0154308
679.937	0.0151062
680.015	0.0152567
680.093	0.0152905
680.171	0.0152475
680.249	0.0152117
680.328	0.0151546
680.406	0.0152584
680.484	0.0152562
680.562	0.0152932
680.640	0.0151759
680.718	0.0152286
680.796	0.0152590
680.874	0.0152524
680.953	0.0152150
681.031	0.0151405
681.109	0.0151459
681.187	0.0151868
681.265	0.0151253
681.343	0.0151392
681.421	0.0150667
681.499	0.0152205
681.578	0.0152876
681.656	0.0151126
681.734	0.0151369
681.812	0.0151617
681.890	0.0152840
681.968	0.0153041
682.046	0.0152991
682.124	0.0153027
682.203	0.0152725
682.281	0.0154542
682.359	0.0154544
682.437	0.0153384
682.515	0.0153947
682.593	0.0152068
682.671	0.0153880
682.749	0.0153548
682.828	0.0154266
682.906	0.0152470
682.984	0.0152573
683.062	0.0153372
683.140	0.0154980
683.218	0.0153760
683.296	0.0153009
683.374	0.0155655
683.453	0.0153635
683.531	0.0155140
683.609	0.0153192
683.687	0.0155296
683.765	0.0155663
683.843	0.0155356
683.921	0.0155705
683.999	0.0157220
684.078	0.0155978
684.156	0.0155739
684.234	0.0155363
684.312	0.0155432
684.390	0.0155623
684.468	0.0155061
684.546	0.0155483
684.624	0.0153592
684.703	0.0153298
684.781	0.0153571
684.859	0.0153340
684.937	0.0153198
685.015	0.0152524
685.093	0.0152030
685.171	0.0152689
685.249	0.0150728
685.328	0.0152853
685.406	0.0152462
685.484	0.0151040
685.562	0.0151167
685.640	0.0150787
685.718	0.0151205
685.796	0.0149839
685.874	0.0150307
685.953	0.0150040
686.031	0.0150906
686.109	0.0151031
686.187	0.0149722
686.265	0.0151685
686.343	0.0149662
686.421	0.0151330
686.499	0.0149591
686.578	0.0151138
686.656	0.0150544
686.734	0.0149470
686.812	0.0149318
686.890	0.0150500
686.968	0.0152899
687.046	0.0153543
687.124	0.0153526
687.203	0.0154238
687.281	0.0154099
687.359	0.0154195
687.437	0.0155285
687.515	0.0155996
687.593	0.0156781
687.671	0.0156521
687.749	0.0157149
687.828	0.0157388
687.906	0.0155919
687.984	0.0156792
688.062	0.0157626
688.140	0.0156040
688.218	0.0155667
688.296	0.0155254
688.374	0.0155570
688.453	0.0154765
688.531	0.0155510
688.609	0.0154357
688.687	0.0152470
688.765	0.0153964
688.843	0.0153930
688.921	0.0154499
688.999	0.0154142
689.078	0.0152923
689.156	0.0152322
689.234	0.0152236
689.312	0.0152563
689.390	0.0153585
689.468	0.0153866
689.546	0.0151804
689.624	0.0152710
689.703	0.0154640
689.781	0.0153001
689.859	0.0152953
689.937	0.0152187
690.015	0.0151449
690.093	0.0152914
690.171	0.0152175
690.249	0.0151985
690.328	0.0151494
690.406	0.0151353
690.484	0.0151305
690.562	0.0151955
690.640	0.0151155
690.718	0.0151656
690.796	0.0149849
690.874	0.0150844
690.953	0.0150813
691.031	0.0150628
691.109	0.0151920
691.187	0.0149741
691.265	0.0149700
691.343	0.0150914
691.421	0.0151933
691.499	0.0150449
691.578	0.0149652
691.656	0.0150492
691.734	0.0152672
691.812	0.0152235
691.890	0.0152429
691.968	0.0152815
692.046	0.0151915
692.124	0.0152380
692.203	0.0153518
692.281	0.0153900
692.359	0.0153432
692.437	0.0153844
692.515	0.0153790
692.593	0.0154137
692.671	0.0154359
692.749	0.0155391
692.828	0.0155356
692.906	0.0154996
692.984	0.0154759
693.062	0.0154144
693.140	0.0154742
693.218	0.0153984
693.296	0.0154575
693.374	0.0153996
693.453	0.0153184
693.531	0.0153727
693.609	0.0153635
693.687	0.0153777
693.765	0.0154043
693.843	0.0154277
693.921	0.0152572
693.999	0.0153091
694.078	0.0152145
694.156	0.0152624
694.234	0.0152587
694.312	0.0154148
694.390	0.0153101
694.468	0.0151935
694.546	0.0151470
694.624	0.0152079
694.703	0.0151805
694.781	0.0152894
694.859	0.0153313
694.937	0.0152535
695.015	0.0152043
695.093	0.0152599
695.171	0.0154410
695.249	0.0153342
695.328	0.0151558
695.406	0.0152166
695.484	0.0153362
695.562	0.0154314
695.640	0.0153153
695.718	0.0152398
695.796	0.0150836
695.874	0.0151637
695.953	0.0152658
696.031	0.0153799
696.109	0.0153519
696.187	0.0152161
696.265	0.0151882
696.343	0.0153568
696.421	0.0153836
696.499	0.0152798
696.578	0.0152448
696.656	0.0153289
696.734	0.0153872
696.812	0.0154242
696.890	0.0153542
696.968	0.0153886
697.046	0.0153961
697.124	0.0153109
697.203	0.0154478
697.281	0.0155283
697.359	0.0154061
697.437	0.0154288
697.515	0.0153658
697.593	0.0153817
697.671	0.0153646
697.749	0.0153012
697.828	0.0153365
697.906	0.0152995
697.984	0.0154440
698.062	0.0154481
698.140	0.0153114
698.218	0.0153168
698.296	0.0154019
698.374	0.0154369
698.453	0.0153750
698.531	0.0154787
698.609	0.0152283
698.687	0.0152750
698.765	0.0154424
698.843	0.0153523
698.921	0.0153036
698.999	0.0153006
699.078	0.0152859
699.156	0.0153286
699.234	0.0153436
699.312	0.0152925
699.390	0.0152834
699.468	0.0152264
699.546	0.0152711
699.624	0.0151814
699.703	0.0151591
699.781	0.0151532
699.859	0.0152113
699.937	0.0153064
700.015	0.0151293
700.093	0.0149924
700.171	0.0151887
700.249	0.0151820
700.328	0.0151563
700.406	0.0151110
700.484	0.0151678
700.562	0.0150992
700.640	0.0151044
700.718	0.0150008
700.796	0.0150481
700.874	0.0151028
700.953	0.0151588
701.031	0.0150845
701.109	0.0150940
701.187	0.0151919
701.265	0.0153856
701.343	0.0153774
701.421	0.0153976
701.499	0.0153947
701.578	0.0155212
701.656	0.0154876
701.734	0.0154706
701.812	0.0155924
701.890	0.0155392
701.968	0.0157308
702.046	0.0157715
702.124	0.0155779
702.203	0.0156798
702.281	0.0156445
702.359	0.0156479
702.437	0.0155763
702.515	0.0156026
702.593	0.0155642
702.671	0.0154300
702.749	0.0155032
702.828	0.0155241
702.906	0.0154689
702.984	0.0154048
703.062	0.0153034
703.140	0.0153255
703.218	0.0152859
703.296	0.0152199
703.374	0.0153856
703.453	0.0153369
703.531	0.0152167
703.609	0.0152220
703.687	0.0151146
703.765	0.0152071
703.843	0.0152940
703.921	0.0152930
703.999	0.0152708
704.078	0.0154003
704.156	0.0152218
704.234	0.0152587
704.312	0.0152657
704.390	0.0153115
704.468	0.0153356
704.546	0.0154077
704.624	0.0154102
704.703	0.0154169
704.781	0.0154053
704.859	0.0154483
704.937	0.0152587
705.015	0.0153930
705.093	0.0153384
705.171	0.0154336
705.249	0.0154435
705.328	0.0152599
705.406	0.0152422
705.484	0.0152159
705.562	0.0151443
705.640	0.0151289
705.718	0.0153214
705.796	0.0151994
705.874	0.0152434
705.953	0.0153068
706.031	0.0152782
706.109	0.0152002
706.187	0.0152975
706.265	0.0152449
706.343	0.0152631
706.421	0.0153459
706.499	0.0153972
706.578	0.0154735
706.656	0.0154564
706.734	0.0155093
706.812	0.0154145
706.890	0.0155550
706.968	0.0154889
707.046	0.0154245
707.124	0.0154705
707.203	0.0155095
707.281	0.0154989
707.359	0.0152468
707.437	0.0153246
707.515	0.0153610
707.593	0.0153545
707.671	0.0153252
707.749	0.0152883
707.828	0.0153109
707.906	0.0152334
707.984	0.0152280
708.062	0.0151878
708.140	0.0153554
708.218	0.0152269
708.296	0.0151955
708.374	0.0152766
708.453	0.0152134
708.531	0.0152367
708.609	0.0153663
708.687	0.0152291
708.765	0.0152218
708.843	0.0150817
708.921	0.0150633
708.999	0.0151579
709.078	0.0150793
709.156	0.0152081
709.234	0.0151090
709.312	0.0151258
709.390	0.0151227
709.468	0.0150645
709.546	0.0151269
709.624	0.0151096
709.703	0.0150978
709.781	0.0151501
709.859	0.0151740
709.937	0.0152000
710.015	0.0151170
710.093	0.0152876
710.171	0.0152429
710.249	0.0151365
710.328	0.0152618
710.406	0.0152621
710.484	0.0152818
710.562	0.0153035
710.640	0.0152619
710.718	0.0152977
710.796	0.0153680
710.874	0.0153294
710.953	0.0154611
711.031	0.0155328
711.109	0.0153142
711.187	0.0152826
711.265	0.0153153
711.343	0.0154960
711.421	0.0154499
711.499	0.0153269
711.578	0.0154126
711.656	0.0155173
711.734	0.0154397
711.812	0.0154697
711.890	0.0154102
711.968	0.0155377
712.046	0.0154942
712.124	0.0153822
712.203	0.0153606
712.281	0.0154733
712.359	0.0154856
712.437	0.0154922
712.515	0.0154468
712.593	0.0154333
712.671	0.0155049
712.749	0.0154572
712.828	0.0154795
712.906	0.0155506
712.984	0.0155360
713.062	0.0153954
713.140	0.0155273
713.218	0.0154747
713.296	0.0156483
713.374	0.0154926
713.453	0.0155299
713.531	0.0156134
713.609	0.0156477
713.687	0.0154549
713.765	0.0154762
713.843	0.0155769
713.921	0.0155306
713.999	0.0154713
714.078	0.0154716
714.156	0.0154298
714.234	0.0156224
714.312	0.0153996
714.390	0.0152007
714.468	0.0153495
714.546	0.0154215
714.624	0.0152579
714.703	0.0153681
714.781	0.0152653
714.859	0.0152922
714.937	0.0153419
715.015	0.0152602
715.093	0.0153799
715.171	0.0152880
715.249	0.0153110
715.328	0.0153928
715.406	0.0155015
715.484	0.0154010
715.562	0.0154459
715.640	0.0153810
715.718	0.0155329
715.796	0.0156031
715.874	0.0155617
715.953	0.0154691
716.031	0.0154581
716.109	0.0153389
716.187	0.0154574
716.265	0.0153748
716.343	0.0153040
716.421	0.0153036
716.499	0.0153192
716.578	0.0154123
716.656	0.0152805
716.734	0.0153672
716.812	0.0153359
716.890	0.0152615
716.968	0.0153290
717.046	0.0153767
717.124	0.0153952
717.203	0.0152582
717.281	0.0152819
717.359	0.0153912
717.437	0.0152515
717.515	0.0153869
717.593	0.0153000
717.671	0.0153214
717.749	0.0154835
717.828	0.0152718
717.906	0.0154278
717.984	0.0151909
718.062	0.0153028
718.140	0.0152570
718.218	0.0153453
718.296	0.0152822
718.374	0.0153691
718.453	0.0152849
718.531	0.0153790
718.609	0.0154359
718.687	0.0152844
718.765	0.0153206
718.843	0.0153205
718.921	0.0152916
718.999	0.0153461
719.078	0.0152546
719.156	0.0153963
719.234	0.0154146
719.312	0.0151711
719.390	0.0152112
719.468	0.0152905
719.546	0.0152921
719.624	0.0152547
719.703	0.0150614
719.781	0.0150984
719.859	0.0151485
719.937	0.0152460
720.015	0.0150620
720.093	0.0150867
720.171	0.0151376
720.249	0.0152925
720.328	0.0152266
720.406	0.0152264
720.484	0.0153573
720.562	0.0153223
720.640	0.0152477
720.718	0.0153986
720.796	0.0153172
720.874	0.0154757
720.953	0.0154706
721.031	0.0155027
721.109	0.0153946
721.187	0.0155341
721.265	0.0155783
721.343	0.0156578
721.421	0.0154200
721.499	0.0155043
721.578	0.0155750
721.656	0.0153049
721.734	0.0153792
721.812	0.0154790
721.890	0.0153760
721.968	0.0153729
722.046	0.0153089
722.124	0.0152453
722.203	0.0152790
722.281	0.0150890
722.359	0.0152646
722.437	0.0151987
722.515	0.0152771
722.593	0.0151293
722.671	0.0153827
722.749	0.0152081
722.828	0.0152521
722.906	0.0151722
722.984	0.0152500
723.062	0.0152768
723.140	0.0153455
723.218	0.0153054
723.296	0.0152669
723.374	0.0154066
723.453	0.0154111
723.531	0.0153975
723.609	0.0155090
723.687	0.0155920
723.765	0.0154827
723.843	0.0154089
723.921	0.0154218
723.999	0.0153663
724.078	0.0154128
724.156	0.0155854
724.234	0.0154704
724.312	0.0151875
724.390	0.0153863
724.468	0.0153860
724.546	0.0151931
724.624	0.0153902
724.703	0.0153295
724.781	0.0152770
724.859	0.0153873
724.937	0.0152676
725.015	0.0152220
725.093	0.0153058
725.171	0.0153886
725.249	0.0154676
725.328	0.0155141
725.406	0.0154058
725.484	0.0152606
725.562	0.0153616
725.640	0.0156204
725.718	0.0155530
725.796	0.0155504
725.874	0.0155389
725.953	0.0154963
726.031	0.0154175
726.109	0.0153893
726.187	0.0153412
726.265	0.0154147
726.343	0.0154648
726.421	0.0154994
726.499	0.0153724
726.578	0.0153035
726.656	0.0153404
726.734	0.0154256
726.812	0.0154606
726.890	0.0153255
726.968	0.0153026
727.046	0.0154134
727.124	0.0152721
727.203	0.0154969
727.281	0.0154048
727.359	0.0152845
727.437	0.0153934
727.515	0.0153815
727.593	0.0153399
727.671	0.0153630
727.749	0.0153471
727.828	0.0153762
727.906	0.0153645
727.984	0.0153339
728.062	0.0152744
728.140	0.0153027
728.218	0.0153539
728.296	0.0153227
728.374	0.0152925
728.453	0.0154272
728.531	0.0153580
728.609	0.0155246
728.687	0.0155725
728.765	0.0154523
728.843	0.0155101
728.921	0.0154593
728.999	0.0153996
729.078	0.0154101
729.156	0.0154466
729.234	0.0152650
729.312	0.0153706
729.390	0.0152261
729.468	0.0153809
729.546	0.0153455
729.624	0.0154352
729.703	0.0154343
729.781	0.0153990
729.859	0.0152912
729.937	0.0153260
730.015	0.0153568
730.093	0.0153149
730.171	0.0153409
730.249	0.0153944
730.328	0.0153992
730.406	0.0153227
730.484	0.0153854
730.562	0.0152851
730.640	0.0153591
730.718	0.0155006
730.796	0.0154064
730.874	0.0155117
730.953	0.0154842
731.031	0.0154251
731.109	0.0154850
731.187	0.0153680
731.265	0.0154730
731.343	0.0154077
731.421	0.0155373
731.499	0.0153724
731.578	0.0152940
731.656	0.0153748
731.734	0.0153146
731.812	0.0153039
731.890	0.0153376
731.968	0.0152740
732.046	0.0153777
732.124	0.0153674
732.203	0.0152467
732.281	0.0155274
732.359	0.0153934
732.437	0.0154012
732.515	0.0152934
732.593	0.0154364
732.671	0.0154476
732.749	0.0154807
732.828	0.0153452
732.906	0.0153333
732.984	0.0154568
733.062	0.0154321
733.140	0.0154328
733.218	0.0153941
733.296	0.0154337
733.374	0.0153702
733.453	0.0154529
733.531	0.0156891
733.609	0.0154671
733.687	0.0152629
733.765	0.0153654
733.843	0.0154444
733.921	0.0153214
733.999	0.0153661
734.078	0.0153747
734.156	0.0153270
734.234	0.0153220
734.312	0.0152168
734.390	0.0152821
734.468	0.0152415
734.546	0.0152634
734.624	0.0153036
734.703	0.0152816
734.781	0.0153143
734.859	0.0152626
734.937	0.0153586
735.015	0.0153513
735.093	0.0152596
735.171	0.0152997
735.249	0.0153683
735.328	0.0153291
735.406	0.0154811
735.484	0.0155721
735.562	0.0154569
735.640	0.0153256
735.718	0.0154154
735.796	0.0154385
735.874	0.0154724
735.953	0.0153950
736.031	0.0154607
736.109	0.0154179
736.187	0.0154450
736.265	0.0154143
736.343	0.0154152
736.421	0.0154813
736.499	0.0154249
736.578	0.0155227
736.656	0.0154920
736.734	0.0155452
736.812	0.0153639
736.890	0.0154375
736.968	0.0153345
737.046	0.0155457
737.124	0.0154725
737.203	0.0155613
737.281	0.0155965
737.359	0.0155089
737.437	0.0155344
737.515	0.0156509
737.593	0.0155114
737.671	0.0154574
737.749	0.0155570
737.828	0.0155301
737.906	0.0155100
737.984	0.0153615
738.062	0.0154335
738.140	0.0153811
738.218	0.0154035
738.296	0.0154466
738.374	0.0153500
738.453	0.0152209
738.531	0.0153487
738.609	0.0153393
738.687	0.0153533
738.765	0.0154179
738.843	0.0152649
738.921	0.0152346
738.999	0.0152425
739.078	0.0154030
739.156	0.0151685
739.234	0.0152061
739.312	0.0153779
739.390	0.0152972
739.468	0.0154034
739.546	0.0153409
739.624	0.0152481
739.703	0.0152494
739.781	0.0152969
739.859	0.0153899
739.937	0.0153330
740.015	0.0154850
740.093	0.0153505
740.171	0.0153342
740.249	0.0153061
740.328	0.0153831
740.406	0.0154194
740.484	0.0154193
740.562	0.0154472
740.640	0.0153819
740.718	0.0154715
740.796	0.0153222
740.874	0.0153918
740.953	0.0154855
741.031	0.0153470
741.109	0.0153481
741.187	0.0153436
741.265	0.0154565
741.343	0.0153483
741.421	0.0154444
741.499	0.0153269
741.578	0.0152539
741.656	0.0153922
741.734	0.0154702
741.812	0.0152411
741.890	0.0153970
741.968	0.0152687
742.046	0.0151797
742.124	0.0155007
742.203	0.0153329
742.281	0.0152589
742.359	0.0153667
742.437	0.0154410
742.515	0.0154364
742.593	0.0154629
742.671	0.0152521
742.749	0.0153079
742.828	0.0154515
742.906	0.0154515
742.984	0.0152091
743.062	0.0153258
743.140	0.0153330
743.218	0.0152862
743.296	0.0152523
743.374	0.0154002
743.453	0.0152547
743.531	0.0152586
743.609	0.0152448
743.687	0.0153374
743.765	0.0151732
743.843	0.0151957
743.921	0.0151641
743.999	0.0151163
744.078	0.0151422
744.156	0.0151150
744.234	0.0151016
744.312	0.0152676
744.390	0.0151517
744.468	0.0153052
744.546	0.0152190
744.624	0.0153189
744.703	0.0153564
744.781	0.0154074
744.859	0.0154319
744.937	0.0154601
745.015	0.0151332
745.093	0.0153235
745.171	0.0153820
745.249	0.0152918
745.328	0.0153753
745.406	0.0153656
745.484	0.0153593
745.562	0.0153572
745.640	0.0152840
745.718	0.0153999
745.796	0.0154100
745.874	0.0153747
745.953	0.0153288
746.031	0.0152651
746.109	0.0153288
746.187	0.0153519
746.265	0.0153799
746.343	0.0154099
746.421	0.0152550
746.499	0.0153313
746.578	0.0153043
746.656	0.0154652
746.734	0.0152436
746.812	0.0152116
746.890	0.0152719
746.968	0.0154259
747.046	0.0153017
747.124	0.0152470
747.203	0.0153210
747.281	0.0154798
747.359	0.0152110
747.437	0.0153248
747.515	0.0154411
747.593	0.0154082
747.671	0.0152321
747.749	0.0154120
747.828	0.0154295
747.906	0.0153027
747.984	0.0152296
748.062	0.0152615
748.140	0.0154503
748.218	0.0152425
748.296	0.0151454
748.374	0.0153001
748.453	0.0153384
748.531	0.0153012
748.609	0.0152078
748.687	0.0152675
748.765	0.0153043
748.843	0.0152960
748.921	0.0152620
748.999	0.0153412
749.078	0.0152898
749.156	0.0152655
749.234	0.0152647
749.312	0.0153512
749.390	0.0153867
749.468	0.0154434
749.546	0.0153371
749.624	0.0152991
749.703	0.0154733
749.781	0.0154083
749.859	0.0153226
749.937	0.0153259
750.015	0.0155036
750.093	0.0154634
750.171	0.0153168
750.249	0.0153785
750.328	0.0153587
750.406	0.0153261
750.484	0.0152985
750.562	0.0155128
750.640	0.0153895
750.718	0.0153461
750.796	0.0154686
750.874	0.0154696
750.953	0.0155100
751.031	0.0154192
751.109	0.0153443
751.187	0.0154097
751.265	0.0154904
751.343	0.0154564
751.421	0.0153429
751.499	0.0153627
751.578	0.0153432
751.656	0.0155783
751.734	0.0154683
751.812	0.0153734
751.890	0.0153046
751.968	0.0153181
752.046	0.0154745
752.124	0.0154705
752.203	0.0154704
752.281	0.0154548
752.359	0.0156136
752.437	0.0155708
752.515	0.0155477
752.593	0.0155573
752.671	0.0154530
752.749	0.0154174
752.828	0.0155881
752.906	0.0154787
752.984	0.0155193
753.062	0.0155781
753.140	0.0154951
753.218	0.0153138
753.296	0.0154762
753.374	0.0153294
753.453	0.0152667
753.531	0.0153684
753.609	0.0154626
753.687	0.0152824
753.765	0.0151955
753.843	0.0151328
753.921	0.0152614
753.999	0.0153635
754.078	0.0153416
754.156	0.0151569
754.234	0.0151879
754.312	0.0153551
754.390	0.0153271
754.468	0.0150939
754.546	0.0152527
754.624	0.0152721
754.703	0.0152323
754.781	0.0153280
754.859	0.0153293
754.937	0.0153124
755.015	0.0153893
755.093	0.0153175
755.171	0.0154578
755.249	0.0153235
755.328	0.0153448
755.406	0.0154112
755.484	0.0153554
755.562	0.0154341
755.640	0.0153724
755.718	0.0151616
755.796	0.0155366
755.874	0.0153542
755.953	0.0154114
756.031	0.0154147
756.109	0.0153316
756.187	0.0153712
756.265	0.0154395
756.343	0.0153423
756.421	0.0154989
756.499	0.0152250
756.578	0.0153837
756.656	0.0155605
756.734	0.0154315
756.812	0.0154509
756.890	0.0153423
756.968	0.0154724
757.046	0.0154094
757.124	0.0153309
757.203	0.0153434
757.281	0.0154636
757.359	0.0154729
757.437	0.0154749
757.515	0.0155627
757.593	0.0154743
757.671	0.0154501
757.749	0.0155153
757.828	0.0154723
757.906	0.0153378
757.984	0.0154073
758.062	0.0153577
758.140	0.0153932
758.218	0.0154277
758.296	0.0153718
758.374	0.0153999
758.453	0.0153111
758.531	0.0153435
758.609	0.0153768
758.687	0.0152252
758.765	0.0153519
758.843	0.0152910
758.921	0.0152220
758.999	0.0151557
759.078	0.0152869
759.156	0.0152698
759.234	0.0153325
759.312	0.0152444
759.390	0.0152480
759.468	0.0152709
759.546	0.0152775
759.624	0.0152678
759.703	0.0150986
759.781	0.0153174
759.859	0.0153622
759.937	0.0153384
760.015	0.0153826
760.093	0.0152190
760.171	0.0152289
760.249	0.0152891
760.328	0.0154476
760.406	0.0153532
760.484	0.0153214
760.562	0.0152498
760.640	0.0154919
760.718	0.0153963
760.796	0.0152249
760.874	0.0153777
760.953	0.0153786
761.031	0.0152328
761.109	0.0152892
761.187	0.0153140
761.265	0.0152583
761.343	0.0153659
761.421	0.0153211
761.499	0.0153321
761.578	0.0154227
761.656	0.0152844
761.734	0.0152979
761.812	0.0154810
761.890	0.0153079
761.968	0.0152302
762.046	0.0153626
762.124	0.0152252
762.203	0.0151222
762.281	0.0151878
762.359	0.0152549
762.437	0.0152637
762.515	0.0151643
762.593	0.0152032
762.671	0.0153059
762.749	0.0153174
762.828	0.0152713
762.906	0.0151499
762.984	0.0152789
763.062	0.0151856
763.140	0.0151405
763.218	0.0152366
763.296	0.0151194
763.374	0.0153328
763.453	0.0153289
763.531	0.0152976
763.609	0.0152494
763.687	0.0152143
763.765	0.0153220
763.843	0.0154118
763.921	0.0151243
763.999	0.0153073
764.078	0.0154195
764.156	0.0152103
764.234	0.0152668
764.312	0.0152122
764.390	0.0152480
764.468	0.0152935
764.546	0.0151675
764.624	0.0152081
764.703	0.0152542
764.781	0.0151708
764.859	0.0151811
764.937	0.0151897
765.015	0.0150778
765.093	0.0152028
765.171	0.0151548
765.249	0.0151363
765.328	0.0151039
765.406	0.0151255
765.484	0.0151273
765.562	0.0152579
765.640	0.0151395
765.718	0.0151906
765.796	0.0153161
765.874	0.0151566
765.953	0.0152499
766.031	0.0153488
766.109	0.0152007
766.187	0.0151637
766.265	0.0151771
766.343	0.0152764
766.421	0.0153294
766.499	0.0152921
766.578	0.0151278
766.656	0.0154176
766.734	0.0152695
766.812	0.0151080
766.890	0.0153667
766.968	0.0153552
767.046	0.0152422
767.124	0.0154528
767.203	0.0153829
767.281	0.0152642
767.359	0.0154211
767.437	0.0152969
767.515	0.0153646
767.593	0.0154800
767.671	0.0153766
767.749	0.0153720
767.828	0.0153018
767.906	0.0152028
767.984	0.0153646
768.062	0.0153612
768.140	0.0152032
768.218	0.0153062
768.296	0.0153443
768.374	0.0152640
768.453	0.0152553
768.531	0.0151701
768.609	0.0153342
768.687	0.0154155
768.765	0.0153895
768.843	0.0152798
768.921	0.0154483
768.999	0.0154947
769.078	0.0153379
769.156	0.0155067
769.234	0.0153135
769.312	0.0153786
769.390	0.0154934
769.468	0.0154069
769.546	0.0154066
769.624	0.0153706
769.703	0.0154144
769.781	0.0155711
769.859	0.0155020
769.937	0.0154967
770.015	0.0155795
770.093	0.0154773
770.171	0.0155009
770.249	0.0153970
770.328	0.0152831
770.406	0.0155038
770.484	0.0154649
770.562	0.0153477
770.640	0.0154056
770.718	0.0154339
770.796	0.0156051
770.874	0.0155608
770.953	0.0153723
771.031	0.0154085
771.109	0.0154754
771.187	0.0153897
771.265	0.0153123
771.343	0.0153926
771.421	0.0153339
771.499	0.0153560
771.578	0.0154156
771.656	0.0153742
771.734	0.0153622
771.812	0.0154826
771.890	0.0155505
771.968	0.0154670
772.046	0.0155351
772.124	0.0153180
772.203	0.0154626
772.281	0.0154053
772.359	0.0152818
772.437	0.0152967
772.515	0.0153662
772.593	0.0154891
772.671	0.0153837
772.749	0.0153432
772.828	0.0153629
772.906	0.0153699
772.984	0.0153912
773.062	0.0153440
773.140	0.0152134
773.218	0.0153470
773.296	0.0153237
773.374	0.0152109
773.453	0.0153258
773.531	0.0153638
773.609	0.0153251
773.687	0.0153639
773.765	0.0152860
773.843	0.0154403
773.921	0.0154258
773.999	0.0153257
774.078	0.0153268
774.156	0.0154690
774.234	0.0153958
774.312	0.0153449
774.390	0.0153750
774.468	0.0153970
774.546	0.0153515
774.624	0.0154294
774.703	0.0154543
774.781	0.0153386
774.859	0.0152316
774.937	0.0152737
775.015	0.0154581
775.093	0.0152696
775.171	0.0151666
775.249	0.0151305
775.328	0.0152819
775.406	0.0152795
775.484	0.0153711
775.562	0.0153696
775.640	0.0153126
775.718	0.0152630
775.796	0.0153771
775.874	0.0154990
775.953	0.0154537
776.031	0.0154524
776.109	0.0153379
776.187	0.0154810
776.265	0.0152870
776.343	0.0154823
776.421	0.0154327
776.499	0.0154273
776.578	0.0154314
776.656	0.0154102
776.734	0.0152569
776.812	0.0153751
776.890	0.0154514
776.968	0.0154804
777.046	0.0153441
777.124	0.0153922
777.203	0.0153119
777.281	0.0153725
777.359	0.0152734
777.437	0.0152608
777.515	0.0153166
777.593	0.0153555
777.671	0.0153709
777.749	0.0153654
777.828	0.0154047
777.906	0.0153561
777.984	0.0154302
778.062	0.0152777
778.140	0.0153458
778.218	0.0153090
778.296	0.0153101
778.374	0.0154240
778.453	0.0153503
778.531	0.0154856
778.609	0.0154535
778.687	0.0154494
778.765	0.0153503
778.843	0.0154480
778.921	0.0154882
778.999	0.0155534
779.078	0.0153905
779.156	0.0154089
779.234	0.0154417
779.312	0.0154198
779.390	0.0154913
779.468	0.0153607
779.546	0.0153613
779.624	0.0154637
779.703	0.0154003
779.781	0.0154224
779.859	0.0154366
779.937	0.0154831
780.015	0.0154494
780.093	0.0154874
780.171	0.0153446
780.249	0.0153963
780.328	0.0153485
780.406	0.0154107
780.484	0.0153268
780.562	0.0154510
780.640	0.0152847
780.718	0.0153594
780.796	0.0154404
780.874	0.0152184
780.953	0.0152689
781.031	0.0152534
781.109	0.0153193
781.187	0.0152909
781.265	0.0151806
781.343	0.0151534
781.421	0.0151466
781.499	0.0152431
781.578	0.0153683
781.656	0.0151850
781.734	0.0151824
781.812	0.0152023
781.890	0.0152029
781.968	0.0151706
782.046	0.0153429
782.124	0.0152256
782.203	0.0153283
782.281	0.0152254
782.359	0.0151411
782.437	0.0152210
782.515	0.0151266
782.593	0.0152426
782.671	0.0154257
782.749	0.0151954
782.828	0.0151174
782.906	0.0152747
782.984	0.0152553
783.062	0.0152822
783.140	0.0152965
783.218	0.0152547
783.296	0.0151643
783.374	0.0152826
783.453	0.0152790
783.531	0.0150348
783.609	0.0151551
783.687	0.0153243
783.765	0.0152830
783.843	0.0152110
783.921	0.0153334
783.999	0.0152926
784.078	0.0151985
784.156	0.0153954
784.234	0.0152190
784.312	0.0152736
784.390	0.0151632
784.468	0.0152750
784.546	0.0154471
784.624	0.0152717
784.703	0.0153344
784.781	0.0154176
784.859	0.0154375
784.937	0.0154802
785.015	0.0155346
785.093	0.0154604
785.171	0.0156112
785.249	0.0155821
785.328	0.0154449
785.406	0.0153227
785.484	0.0154179
785.562	0.0153756
785.640	0.0153606
785.718	0.0152558
785.796	0.0152646
785.874	0.0153304
785.953	0.0152805
786.031	0.0152869
786.109	0.0152699
786.187	0.0152473
786.265	0.0151912
786.343	0.0152328
786.421	0.0151572
786.499	0.0152864
786.578	0.0153090
786.656	0.0152351
786.734	0.0151421
786.812	0.0152408
786.890	0.0152025
786.968	0.0153957
787.046	0.0152125
787.124	0.0151729
787.203	0.0152547
787.281	0.0152951
787.359	0.0152473
787.437	0.0153217
787.515	0.0152189
787.593	0.0151363
787.671	0.0152898
787.749	0.0152634
787.828	0.0151804
787.906	0.0153017
787.984	0.0153376
788.062	0.0153127
788.140	0.0152805
788.218	0.0153609
788.296	0.0153531
788.374	0.0152575
788.453	0.0153226
788.531	0.0153889
788.609	0.0153926
788.687	0.0153603
788.765	0.0152178
788.843	0.0151649
788.921	0.0151833
788.999	0.0149874
789.078	0.0149870
789.156	0.0152150
789.234	0.0152464
789.312	0.0151619
789.390	0.0150749
789.468	0.0151642
789.546	0.0150734
789.624	0.0150958
789.703	0.0153333
789.781	0.0152563
789.859	0.0153257
789.937	0.0152059
790.015	0.0153371
790.093	0.0153669
790.171	0.0152675
790.249	0.0152901
790.328	0.0153378
790.406	0.0153862
790.484	0.0153982
790.562	0.0153609
790.640	0.0152879
790.718	0.0153711
790.796	0.0153085
790.874	0.0153544
790.953	0.0153207
791.031	0.0151366
791.109	0.0153097
791.187	0.0152417
791.265	0.0152718
791.343	0.0154150
791.421	0.0153186
791.499	0.0153394
791.578	0.0152691
791.656	0.0154258
791.734	0.0153812
791.812	0.0154626
791.890	0.0154360
791.968	0.0153051
792.046	0.0152252
792.124	0.0151772
792.203	0.0153955
792.281	0.0153742
792.359	0.0153101
792.437	0.0152310
792.515	0.0153404
792.593	0.0153034
792.671	0.0153551
792.749	0.0153738
792.828	0.0151945
792.906	0.0151273
792.984	0.0152924
793.062	0.0152538
793.140	0.0152109
793.218	0.0151143
793.296	0.0153365
793.374	0.0154065
793.453	0.0151805
793.531	0.0152582
793.609	0.0152647
793.687	0.0153345
793.765	0.0153232
793.843	0.0152454
793.921	0.0151945
793.999	0.0152775
794.078	0.0153654
794.156	0.0153908
794.234	0.0152402
794.312	0.0152454
794.390	0.0154395
794.468	0.0153227
794.546	0.0154275
794.624	0.0154507
794.703	0.0154193
794.781	0.0153110
794.859	0.0154957
794.937	0.0155074
795.015	0.0154504
795.093	0.0154594
795.171	0.0154706
795.249	0.0155344
795.328	0.0155399
795.406	0.0155500
795.484	0.0155455
795.562	0.0155872
795.640	0.0153813
795.718	0.0156074
795.796	0.0155009
795.874	0.0154211
795.953	0.0154503
796.031	0.0153445
796.109	0.0154658
796.187	0.0153226
796.265	0.0152351
796.343	0.0153512
796.421	0.0151982
796.499	0.0152236
796.578	0.0153723
796.656	0.0152873
796.734	0.0152607
796.812	0.0152261
796.890	0.0153603
796.968	0.0154755
797.046	0.0153356
797.124	0.0154031
797.203	0.0152892
797.281	0.0154075
797.359	0.0154034
797.437	0.0155489
797.515	0.0154080
797.593	0.0154707
797.671	0.0154042
797.749	0.0154326
797.828	0.0154910
797.906	0.0154373
797.984	0.0154087
798.062	0.0155918
798.140	0.0153998
798.218	0.0154199
798.296	0.0154790
798.374	0.0154345
798.453	0.0154144
798.531	0.0153848
798.609	0.0155415
798.687	0.0154381
798.765	0.0154574
798.843	0.0154701
798.921	0.0155091
798.999	0.0156063
799.078	0.0153688
799.156	0.0154774
799.234	0.0153923
799.312	0.0155164
799.390	0.0155589
799.468	0.0155280
799.546	0.0155304
799.624	0.0155052
799.703	0.0153303
799.781	0.0152586
799.859	0.0154433
799.937	0.0153812
800.015	0.0152717
800.093	0.0153532
800.171	0.0154097
800.249	0.0154362
800.328	0.0154172
800.406	0.0153392
800.484	0.0154762
800.562	0.0153661
800.640	0.0154183
800.718	0.0155418
800.796	0.0155746
800.874	0.0155139
800.953	0.0155453
801.031	0.0154890
801.109	0.0153751
801.187	0.0154199
801.265	0.0154442
801.343	0.0153237
801.421	0.0154094
801.499	0.0154321
801.578	0.0155386
801.656	0.0153463
801.734	0.0152395
801.812	0.0153425
801.890	0.0153102
801.968	0.0153350
802.046	0.0154250
802.124	0.0154929
802.203	0.0154327
802.281	0.0154494
802.359	0.0154428
802.437	0.0154002
802.515	0.0153842
802.593	0.0154855
802.671	0.0154993
802.749	0.0155373
802.828	0.0153905
802.906	0.0153466
802.984	0.0153592
803.062	0.0154908
803.140	0.0154221
803.218	0.0154658
803.296	0.0154572
803.374	0.0155112
803.453	0.0154095
803.531	0.0154777
803.609	0.0155633
803.687	0.0154770
803.765	0.0155059
803.843	0.0154077
803.921	0.0154842
803.999	0.0153870
804.078	0.0154326
804.156	0.0154057
804.234	0.0153987
804.312	0.0154649
804.390	0.0154233
804.468	0.0152870
804.546	0.0153992
804.624	0.0154645
804.703	0.0153159
804.781	0.0153966
804.859	0.0153188
804.937	0.0154805
805.015	0.0155251
805.093	0.0153395
805.171	0.0152451
805.249	0.0154356
805.328	0.0152943
805.406	0.0153073
805.484	0.0154041
805.562	0.0153613
805.640	0.0153846
805.718	0.0154398
805.796	0.0153095
805.874	0.0153605
805.953	0.0154038
806.031	0.0153078
806.109	0.0153033
806.187	0.0153075
806.265	0.0154699
806.343	0.0154065
806.421	0.0153302
806.499	0.0154284
806.578	0.0154211
806.656	0.0152477
806.734	0.0152789
806.812	0.0153821
806.890	0.0153873
806.968	0.0154324
807.046	0.0153579
807.124	0.0152700
807.203	0.0153231
807.281	0.0154429
807.359	0.0153848
807.437	0.0154821
807.515	0.0153261
807.593	0.0152851
807.671	0.0153907
807.749	0.0152826
807.828	0.0154334
807.906	0.0154208
807.984	0.0153532
808.062	0.0152942
808.140	0.0152616
808.218	0.0154026
808.296	0.0153040
808.374	0.0153826
808.453	0.0153267
808.531	0.0152954
808.609	0.0152941
808.687	0.0152748
808.765	0.0152927
808.843	0.0153519
808.921	0.0153659
808.999	0.0153848
809.078	0.0153279
809.156	0.0151884
809.234	0.0153992
809.312	0.0153453
809.390	0.0154088
809.468	0.0153609
809.546	0.0155078
809.624	0.0156230
809.703	0.0155695
809.781	0.0153651
809.859	0.0154188
809.937	0.0155286
810.015	0.0156264
810.093	0.0155124
810.171	0.0155080
810.249	0.0154370
810.328	0.0154746
810.406	0.0154801
810.484	0.0153673
810.562	0.0152187
810.640	0.0153423
810.718	0.0153167
810.796	0.0154018
810.874	0.0154025
810.953	0.0152686
811.031	0.0152611
811.109	0.0152608
811.187	0.0153037
811.265	0.0153107
811.343	0.0152743
811.421	0.0153361
811.499	0.0152798
811.578	0.0152754
811.656	0.0151576
811.734	0.0154337
811.812	0.0153466
811.890	0.0154235
811.968	0.0153348
812.046	0.0152338
812.124	0.0153470
812.203	0.0155268
812.281	0.0154178
812.359	0.0153648
812.437	0.0153142
812.515	0.0152531
812.593	0.0152291
812.671	0.0153858
812.749	0.0154149
812.828	0.0152689
812.906	0.0152158
812.984	0.0153576
813.062	0.0152106
813.140	0.0151835
813.218	0.0152168
813.296	0.0152633
813.374	0.0151573
813.453	0.0151942
813.531	0.0152603
813.609	0.0152395
813.687	0.0152483
813.765	0.0151653
813.843	0.0150198
813.921	0.0152003
813.999	0.0153474
814.078	0.0152292
814.156	0.0151859
814.234	0.0153285
814.312	0.0151743
814.390	0.0151676
814.468	0.0151853
814.546	0.0153325
814.624	0.0153529
814.703	0.0152168
814.781	0.0152449
814.859	0.0152287
814.937	0.0152717
815.015	0.0152544
815.093	0.0153711
815.171	0.0152258
815.249	0.0152345
815.328	0.0152168
815.406	0.0153915
815.484	0.0152425
815.562	0.0152392
815.640	0.0154195
815.718	0.0153438
815.796	0.0152933
815.874	0.0153118
815.953	0.0152511
816.031	0.0152956
816.109	0.0152465
816.187	0.0152888
816.265	0.0152132
816.343	0.0152579
816.421	0.0154158
816.499	0.0153945
816.578	0.0151993
816.656	0.0154090
816.734	0.0154162
816.812	0.0152682
816.890	0.0152013
816.968	0.0152432
817.046	0.0152919
817.124	0.0152800
817.203	0.0152048
817.281	0.0151938
817.359	0.0153017
817.437	0.0152531
817.515	0.0154603
817.593	0.0153385
817.671	0.0153854
817.749	0.0154859
817.828	0.0153674
817.906	0.0153134
817.984	0.0152223
818.062	0.0153183
818.140	0.0153636
818.218	0.0152921
818.296	0.0154093
818.374	0.0153044
818.453	0.0155318
818.531	0.0155303
818.609	0.0153538
818.687	0.0153506
818.765	0.0153558
818.843	0.0153862
818.921	0.0155516
818.999	0.0154695
819.078	0.0154482
819.156	0.0154751
819.234	0.0155231
819.312	0.0155119
819.390	0.0154681
819.468	0.0155913
819.546	0.0155827
819.624	0.0154227
819.703	0.0155824
819.781	0.0155199
819.859	0.0155553
819.937	0.0153830
820.015	0.0154574
820.093	0.0154940
820.171	0.0154431
820.249	0.0155576
820.328	0.0155238
820.406	0.0153767
820.484	0.0154945
820.562	0.0155075
820.640	0.0154288
820.718	0.0153691
820.796	0.0154526
820.874	0.0154388
820.953	0.0154504
821.031	0.0154134
821.109	0.0154625
821.187	0.0155280
821.265	0.0154309
821.343	0.0154757
821.421	0.0154134
821.499	0.0153752
821.578	0.0156033
821.656	0.0153960
821.734	0.0155490
821.812	0.0155238
821.890	0.0154111
821.968	0.0153702
822.046	0.0154477
822.124	0.0155538
822.203	0.0153651
822.281	0.0154973
822.359	0.0155156
822.437	0.0153491
822.515	0.0153969
822.593	0.0154266
822.671	0.0153069
822.749	0.0156178
822.828	0.0154431
822.906	0.0155370
822.984	0.0153745
823.062	0.0153441
823.140	0.0153154
823.218	0.0153448
823.296	0.0153902
823.374	0.0155237
823.453	0.0153667
823.531	0.0152708
823.609	0.0152473
823.687	0.0155570
823.765	0.0153108
823.843	0.0154142
823.921	0.0155501
823.999	0.0154488
824.078	0.0153387
824.156	0.0153626
824.234	0.0153963
824.312	0.0154993
824.390	0.0154413
824.468	0.0153962
824.546	0.0153998
824.624	0.0154394
824.703	0.0154787
824.781	0.0153729
824.859	0.0153323
824.937	0.0153317
825.015	0.0155227
825.093	0.0153857
825.171	0.0154292
825.249	0.0153784
825.328	0.0153739
825.406	0.0153537
825.484	0.0154433
825.562	0.0153544
825.640	0.0153881
825.718	0.0153414
825.796	0.0153947
825.874	0.0154913
825.953	0.0154681
826.031	0.0153549
826.109	0.0152081
826.187	0.0154169
826.265	0.0153644
826.343	0.0153928
826.421	0.0154632
826.499	0.0153439
826.578	0.0154075
826.656	0.0154680
826.734	0.0154580
826.812	0.0154472
826.890	0.0154173
826.968	0.0155354
827.046	0.0154510
827.124	0.0153379
827.203	0.0152959
827.281	0.0153810
827.359	0.0153732
827.437	0.0154337
827.515	0.0153057
827.593	0.0152921
827.671	0.0153793
827.749	0.0153583
827.828	0.0152531
827.906	0.0153270
827.984	0.0153040
828.062	0.0152902
828.140	0.0152470
828.218	0.0152889
828.296	0.0152375
828.374	0.0153352
828.453	0.0152871
828.531	0.0152921
828.609	0.0153233
828.687	0.0153931
828.765	0.0152815
828.843	0.0152158
828.921	0.0152856
828.999	0.0152845
829.078	0.0153455
829.156	0.0153697
829.234	0.0152872
829.312	0.0153343
829.390	0.0154469
829.468	0.0154498
829.546	0.0152877
829.624	0.0154220
829.703	0.0152188
829.781	0.0153790
829.859	0.0154935
829.937	0.0151937
830.015	0.0154292
830.093	0.0153159
830.171	0.0153294
830.249	0.0153031
830.328	0.0153888
830.406	0.0153028
830.484	0.0152460
830.562	0.0152680
830.640	0.0152707
830.718	0.0153654
830.796	0.0152776
830.874	0.0152518
830.953	0.0153334
831.031	0.0150935
831.109	0.0153442
831.187	0.0152685
831.265	0.0153297
831.343	0.0152683
831.421	0.0153471
831.499	0.0153370
831.578	0.0151892
831.656	0.0152209
831.734	0.0153835
831.812	0.0153831
831.890	0.0152997
831.968	0.0152642
832.046	0.0151672
832.124	0.0153679
832.203	0.0153127
832.281	0.0151802
832.359	0.0152840
832.437	0.0153844
832.515	0.0153835
832.593	0.0152703
832.671	0.0152610
832.749	0.0153302
832.828	0.0152995
832.906	0.0153477
832.984	0.0152500
833.062	0.0153544
833.140	0.0153079
833.218	0.0152409
833.296	0.0153789
833.374	0.0153733
833.453	0.0154617
833.531	0.0153112
833.609	0.0153083
833.687	0.0153560
833.765	0.0152835
833.843	0.0154247
833.921	0.0154068
833.999	0.0153898
834.078	0.0154579
834.156	0.0153077
834.234	0.0152564
834.312	0.0154786
834.390	0.0154911
834.468	0.0154726
834.546	0.0153954
834.624	0.0153366
834.703	0.0154997
834.781	0.0153395
834.859	0.0153856
834.937	0.0153222
835.015	0.0152608
835.093	0.0152972
835.171	0.0153972
835.249	0.0153706
835.328	0.0153828
835.406	0.0152716
835.484	0.0153166
835.562	0.0152122
835.640	0.0152831
835.718	0.0154099
835.796	0.0153780
835.874	0.0152908
835.953	0.0153118
836.031	0.0153312
836.109	0.0152879
836.187	0.0152671
836.265	0.0152629
836.343	0.0153364
836.421	0.0152250
836.499	0.0152079
836.578	0.0152687
836.656	0.0152571
836.734	0.0153382
836.812	0.0153071
836.890	0.0151434
836.968	0.0152936
837.046	0.0152520
837.124	0.0152489
837.203	0.0151141
837.281	0.0151740
837.359	0.0153204
837.437	0.0152962
837.515	0.0152345
837.593	0.0151793
837.671	0.0153723
837.749	0.0152802
837.828	0.0151228
837.906	0.0152141
837.984	0.0153287
838.062	0.0152328
838.140	0.0152968
838.218	0.0153551
838.296	0.0153495
838.374	0.0153597
838.453	0.0154003
838.531	0.0153503
838.609	0.0153705
838.687	0.0153833
838.765	0.0152179
838.843	0.0152385
838.921	0.0153416
838.999	0.0153065
839.078	0.0152872
839.156	0.0152097
839.234	0.0152168
839.312	0.0152567
839.390	0.0153819
839.468	0.0153029
839.546	0.0153029
839.624	0.0152576
839.703	0.0152736
839.781	0.0152089
839.859	0.0153040
839.937	0.0152080
840.015	0.0153178
840.093	0.0153384
840.171	0.0152087
840.249	0.0153175
840.328	0.0153713
840.406	0.0152940
840.484	0.0152248
840.562	0.0152869
840.640	0.0152458
840.718	0.0152853
840.796	0.0152672
840.874	0.0153999
840.953	0.0152737
841.031	0.0153665
841.109	0.0153914
841.187	0.0152492
841.265	0.0153750
841.343	0.0153928
841.421	0.0153053
841.499	0.0152070
841.578	0.0153664
841.656	0.0153679
841.734	0.0153412
841.812	0.0152001
841.890	0.0153307
841.968	0.0153340
842.046	0.0153350
842.124	0.0152264
842.203	0.0153589
842.281	0.0152872
842.359	0.0152193
842.437	0.0153322
842.515	0.0152482
842.593	0.0152167
842.671	0.0152322
842.749	0.0152433
842.828	0.0155099
842.906	0.0155573
842.984	0.0152727
843.062	0.0153104
843.140	0.0154717
843.218	0.0153848
843.296	0.0155039
843.374	0.0155240
843.453	0.0155585
843.531	0.0153584
843.609	0.0154664
843.687	0.0153683
843.765	0.0153683
843.843	0.0154597
843.921	0.0153922
843.999	0.0155026
844.078	0.0153954
844.156	0.0153198
844.234	0.0155093
844.312	0.0154984
844.390	0.0153528
844.468	0.0152725
844.546	0.0153418
844.624	0.0153471
844.703	0.0154883
844.781	0.0154261
844.859	0.0154765
844.937	0.0152851
845.015	0.0153994
845.093	0.0153674
845.171	0.0154594
845.249	0.0154854
845.328	0.0153150
845.406	0.0154738
845.484	0.0154393
845.562	0.0153719
845.640	0.0154118
845.718	0.0155370
845.796	0.0154617
845.874	0.0155014
845.953	0.0154399
846.031	0.0153652
846.109	0.0153404
846.187	0.0153741
846.265	0.0152705
846.343	0.0153874
846.421	0.0154260
846.499	0.0153381
846.578	0.0154044
846.656	0.0153098
846.734	0.0154956
846.812	0.0154649
846.890	0.0153509
846.968	0.0154365
847.046	0.0153008
847.124	0.0152869
847.203	0.0153889
847.281	0.0153191
847.359	0.0153904
847.437	0.0153114
847.515	0.0154921
847.593	0.0153236
847.671	0.0152866
847.749	0.0154532
847.828	0.0153410
847.906	0.0153673
847.984	0.0152842
848.062	0.0152953
848.140	0.0152750
848.218	0.0153539
848.296	0.0154502
848.374	0.0154067
848.453	0.0152811
848.531	0.0153841
848.609	0.0154561
848.687	0.0153907
848.765	0.0153456
848.843	0.0154061
848.921	0.0153265
848.999	0.0154045
849.078	0.0154175
849.156	0.0153840
849.234	0.0155423
849.312	0.0153736
849.390	0.0153751
849.468	0.0153301
849.546	0.0154851
849.624	0.0154702
849.703	0.0155362
849.781	0.0154978
849.859	0.0153526
849.937	0.0153484
850.015	0.0154688
850.093	0.0154547
850.171	0.0155119
850.249	0.0155742
850.328	0.0155933
850.406	0.0155489
850.484	0.0155222
850.562	0.0154507
850.640	0.0155187
850.718	0.0154666
850.796	0.0154135
850.874	0.0153918
850.953	0.0154576
851.031	0.0154205
851.109	0.0153600
851.187	0.0155177
851.265	0.0155177
851.343	0.0154571
851.421	0.0153725
851.499	0.0153703
851.578	0.0152411
851.656	0.0154531
851.734	0.0152875
851.812	0.0153629
851.890	0.0153788
851.968	0.0153404
852.046	0.0155025
852.124	0.0153407
852.203	0.0154932
852.281	0.0154406
852.359	0.0154248
852.437	0.0152837
852.515	0.0153864
852.593	0.0154333
852.671	0.0153469
852.749	0.0153719
852.828	0.0152395
852.906	0.0153741
852.984	0.0155021
853.062	0.0154596
853.140	0.0152930
853.218	0.0154144
853.296	0.0153545
853.374	0.0154063
853.453	0.0153982
853.531	0.0154894
853.609	0.0154140
853.687	0.0155537
853.765	0.0154409
853.843	0.0153538
853.921	0.0154594
853.999	0.0154704
854.078	0.0153318
854.156	0.0154105
854.234	0.0154292
854.312	0.0153799
854.390	0.0154567
854.468	0.0154047
854.546	0.0152757
854.624	0.0153661
854.703	0.0154020
854.781	0.0153367
854.859	0.0153602
854.937	0.0153406
855.015	0.0153745
855.093	0.0153542
855.171	0.0154837
855.249	0.0154263
855.328	0.0153183
855.406	0.0154058
855.484	0.0154536
855.562	0.0153022
855.640	0.0152589
855.718	0.0153870
855.796	0.0152215
855.874	0.0152399
855.953	0.0153764
856.031	0.0154585
856.109	0.0153606
856.187	0.0152799
856.265	0.0153916
856.343	0.0153167
856.421	0.0153075
856.499	0.0153308
856.578	0.0153538
856.656	0.0153437
856.734	0.0153532
856.812	0.0152944
856.890	0.0152317
856.968	0.0152473
857.046	0.0153140
857.124	0.0152543
857.203	0.0152489
857.281	0.0153557
857.359	0.0153591
857.437	0.0153097
857.515	0.0152419
857.593	0.0153223
857.671	0.0152853
857.749	0.0152812
857.828	0.0152634
857.906	0.0151980
857.984	0.0153503
858.062	0.0153021
858.140	0.0153499
858.218	0.0153731
858.296	0.0154276
858.374	0.0153297
858.453	0.0152065
858.531	0.0153886
858.609	0.0153898
858.687	0.0153529
858.765	0.0153666
858.843	0.0152741
858.921	0.0154849
858.999	0.0155080
859.078	0.0154501
859.156	0.0154341
859.234	0.0152625
859.312	0.0154908
859.390	0.0153041
859.468	0.0154790
859.546	0.0154862
859.624	0.0153954
859.703	0.0153673
859.781	0.0152886
859.859	0.0153266
859.937	0.0152795
860.015	0.0153281
860.093	0.0154039
860.171	0.0152330
860.249	0.0152579
860.328	0.0153894
860.406	0.0152322
860.484	0.0152110
860.562	0.0152603
860.640	0.0154268
860.718	0.0152515
860.796	0.0153114
860.874	0.0154223
860.953	0.0153996
861.031	0.0153648
861.109	0.0154150
861.187	0.0153709
861.265	0.0152476
861.343	0.0153262
861.421	0.0153747
861.499	0.0154329
861.578	0.0152631
861.656	0.0153660
861.734	0.0153789
861.812	0.0153383
861.890	0.0153333
861.968	0.0154124
862.046	0.0153060
862.124	0.0155636
862.203	0.0153476
862.281	0.0152863
862.359	0.0153091
862.437	0.0153273
862.515	0.0152820
862.593	0.0152592
862.671	0.0153316
862.749	0.0154814
862.828	0.0153864
862.906	0.0154214
862.984	0.0153503
863.062	0.0154812
863.140	0.0153638
863.218	0.0152388
863.296	0.0153370
863.374	0.0153672
863.453	0.0152515
863.531	0.0152526
863.609	0.0153922
863.687	0.0154775
863.765	0.0153465
863.843	0.0154220
863.921	0.0153385
863.999	0.0152861
864.078	0.0153776
864.156	0.0154476
864.234	0.0153095
864.312	0.0152378
864.390	0.0153346
864.468	0.0153597
864.546	0.0152597
864.624	0.0152670
864.703	0.0154191
864.781	0.0154166
864.859	0.0152945
864.937	0.0151496
865.015	0.0152465
865.093	0.0152857
865.171	0.0151682
865.249	0.0151892
865.328	0.0152452
865.406	0.0152293
865.484	0.0152790
865.562	0.0150906
865.640	0.0152840
865.718	0.0152483
865.796	0.0152226
865.874	0.0153214
865.953	0.0152984
866.031	0.0152144
866.109	0.0151434
866.187	0.0153036
866.265	0.0151768
866.343	0.0153072
866.421	0.0151861
866.499	0.0152951
866.578	0.0153792
866.656	0.0153677
866.734	0.0153284
866.812	0.0152293
866.890	0.0153082
866.968	0.0152981
867.046	0.0152348
867.124	0.0152525
867.203	0.0151380
867.281	0.0152143
867.359	0.0153312
867.437	0.0152715
867.515	0.0152135
867.593	0.0152740
867.671	0.0153521
867.749	0.0152631
867.828	0.0153632
867.906	0.0152479
867.984	0.0152382
868.062	0.0154266
868.140	0.0153212
868.218	0.0154128
868.296	0.0153371
868.374	0.0153181
868.453	0.0153052
868.531	0.0153621
868.609	0.0154031
868.687	0.0154181
868.765	0.0154270
868.843	0.0155024
868.921	0.0154335
868.999	0.0154709
869.078	0.0154742
869.156	0.0153894
869.234	0.0153333
869.312	0.0153986
869.390	0.0153675
869.468	0.0154085
869.546	0.0154129
869.624	0.0155595
869.703	0.0155416
869.781	0.0154408
869.859	0.0154855
869.937	0.0154439
870.015	0.0152741
870.093	0.0154410
870.171	0.0153715
870.249	0.0153812
870.328	0.0153484
870.406	0.0152937
870.484	0.0154407
870.562	0.0154535
870.640	0.0153719
870.718	0.0154663
870.796	0.0153561
870.874	0.0153444
870.953	0.0154066
871.031	0.0154050
871.109	0.0153604
871.187	0.0153677
871.265	0.0153860
871.343	0.0153452
871.421	0.0153372
871.499	0.0154015
871.578	0.0154141
871.656	0.0154030
871.734	0.0154504
871.812	0.0154674
871.890	0.0154292
871.968	0.0155283
872.046	0.0154399
872.124	0.0154790
872.203	0.0153748
872.281	0.0154872
872.359	0.0154588
872.437	0.0154478
872.515	0.0154224
872.593	0.0154249
872.671	0.0154350
872.749	0.0154086
872.828	0.0153319
872.906	0.0152937
872.984	0.0152234
873.062	0.0153709
873.140	0.0154008
873.218	0.0153432
873.296	0.0152828
873.374	0.0153481
873.453	0.0153120
873.531	0.0153242
873.609	0.0152581
873.687	0.0152916
873.765	0.0154613
873.843	0.0154502
873.921	0.0152977
873.999	0.0153374
874.078	0.0153162
874.156	0.0154015
874.234	0.0152928
874.312	0.0153198
874.390	0.0153207
874.468	0.0152796
874.546	0.0154027
874.624	0.0153687
874.703	0.0155001
874.781	0.0153958
874.859	0.0153390
874.937	0.0153246
875.015	0.0152174
875.093	0.0153381
875.171	0.0154470
875.249	0.0153779
875.328	0.0154700
875.406	0.0152709
875.484	0.0153423
875.562	0.0154688
875.640	0.0152431
875.718	0.0152219
875.796	0.0153181
875.874	0.0153043
875.953	0.0153253
876.031	0.0152903
876.109	0.0151663
876.187	0.0152605
876.265	0.0152459
876.343	0.0152912
876.421	0.0153812
876.499	0.0151711
876.578	0.0154414
876.656	0.0153792
876.734	0.0152906
876.812	0.0151875
876.890	0.0152454
876.968	0.0153996
877.046	0.0152769
877.124	0.0153779
877.203	0.0154167
877.281	0.0152908
877.359	0.0152713
877.437	0.0152456
877.515	0.0153662
877.593	0.0152932
877.671	0.0154070
877.749	0.0153461
877.828	0.0153441
877.906	0.0154134
877.984	0.0153949
878.062	0.0152823
878.140	0.0153115
878.218	0.0154453
878.296	0.0153841
878.374	0.0153846
878.453	0.0154151
878.531	0.0153368
878.609	0.0154401
878.687	0.0153278
878.765	0.0153097
878.843	0.0154489
878.921	0.0156463
878.999	0.0154333
879.078	0.0152921
879.156	0.0154767
879.234	0.0154890
879.312	0.0155182
879.390	0.0153708
879.468	0.0154967
879.546	0.0154228
879.624	0.0153806
879.703	0.0154023
879.781	0.0153998
879.859	0.0154520
879.937	0.0153532
880.015	0.0154379
880.093	0.0154495
880.171	0.0152765
880.249	0.0154596
880.328	0.0154472
880.406	0.0153180
880.484	0.0153734
880.562	0.0154245
880.640	0.0155261
880.718	0.0154198
880.796	0.0152572
880.874	0.0151907
880.953	0.0152779
881.031	0.0154076
881.109	0.0153493
881.187	0.0153949
881.265	0.0153059
881.343	0.0152865
881.421	0.0153449
881.499	0.0151662
881.578	0.0151316
881.656	0.0154266
881.734	0.0153075
881.812	0.0153064
881.890	0.0153220
881.968	0.0151138
882.046	0.0152737
882.124	0.0154913
882.203	0.0153922
882.281	0.0152435
882.359	0.0153712
882.437	0.0154661
882.515	0.0154819
882.593	0.0155286
882.671	0.0153274
882.749	0.0153843
882.828	0.0154564
882.906	0.0154599
882.984	0.0154082
883.062	0.0153570
883.140	0.0154348
883.218	0.0154593
883.296	0.0154470
883.374	0.0154345
883.453	0.0154598
883.531	0.0154256
883.609	0.0153568
883.687	0.0154639
883.765	0.0153149
883.843	0.0153279
883.921	0.0153812
883.999	0.0153249
884.078	0.0154723
884.156	0.0153252
884.234	0.0152715
884.312	0.0152711
884.390	0.0153970
884.468	0.0153452
884.546	0.0153455
884.624	0.0153245
884.703	0.0152396
884.781	0.0153960
884.859	0.0153839
884.937	0.0153525
885.015	0.0153450
885.093	0.0152796
885.171	0.0153967
885.249	0.0154466
885.328	0.0153969
885.406	0.0154501
885.484	0.0153022
885.562	0.0153535
885.640	0.0153751
885.718	0.0152287
885.796	0.0153279
885.874	0.0154359
885.953	0.0154037
886.031	0.0152716
886.109	0.0154415
886.187	0.0154433
886.265	0.0152105
886.343	0.0153114
886.421	0.0153870
886.499	0.0154452
886.578	0.0152702
886.656	0.0153532
886.734	0.0152817
886.812	0.0152243
886.890	0.0152493
886.968	0.0152883
887.046	0.0154002
887.124	0.0153310
887.203	0.0152789
887.281	0.0152978
887.359	0.0153657
887.437	0.0152990
887.515	0.0153537
887.593	0.0152969
887.671	0.0153922
887.749	0.0153231
887.828	0.0152902
887.906	0.0153876
887.984	0.0154907
888.062	0.0154160
888.140	0.0153812
888.218	0.0153904
888.296	0.0154816
888.374	0.0154593
888.453	0.0153616
888.531	0.0154790
888.609	0.0154269
888.687	0.0153098
888.765	0.0154467
888.843	0.0153876
888.921	0.0154266
888.999	0.0153917
889.078	0.0152900
889.156	0.0154236
889.234	0.0152464
889.312	0.0153252
889.390	0.0153600
889.468	0.0153791
889.546	0.0153278
889.624	0.0153500
889.703	0.0154429
889.781	0.0152245
889.859	0.0153320
889.937	0.0154249
890.015	0.0153869
890.093	0.0152556
890.171	0.0153606
890.249	0.0152467
890.328	0.0152618
890.406	0.0154084
890.484	0.0152280
890.562	0.0152406
890.640	0.0152934
890.718	0.0153809
890.796	0.0153213
890.874	0.0153318
890.953	0.0153444
891.031	0.0152989
891.109	0.0152975
891.187	0.0152870
891.265	0.0152859
891.343	0.0153583
891.421	0.0153777
891.499	0.0153773
891.578	0.0153355
891.656	0.0153967
891.734	0.0154105
891.812	0.0155022
891.890	0.0154088
891.968	0.0154301
892.046	0.0154008
892.124	0.0154601
892.203	0.0153629
892.281	0.0152990
892.359	0.0153430
892.437	0.0152814
892.515	0.0153793
892.593	0.0154114
892.671	0.0153904
892.749	0.0153932
892.828	0.0155896
892.906	0.0153623
892.984	0.0153880
893.062	0.0153397
893.140	0.0153177
893.218	0.0153383
893.296	0.0153396
893.374	0.0154852
893.453	0.0154481
893.531	0.0153484
893.609	0.0153733
893.687	0.0154173
893.765	0.0154763
893.843	0.0155634
893.921	0.0153700
893.999	0.0154238
894.078	0.0154414
894.156	0.0153902
894.234	0.0154463
894.312	0.0155185
894.390	0.0154430
894.468	0.0153909
894.546	0.0154349
894.624	0.0153844
894.703	0.0154240
894.781	0.0153642
894.859	0.0154051
894.937	0.0154390
895.015	0.0154494
895.093	0.0153882
895.171	0.0154750
895.249	0.0153812
895.328	0.0153589
895.406	0.0154449
895.484	0.0153706
895.562	0.0153410
895.640	0.0154652
895.718	0.0154158
895.796	0.0155185
895.874	0.0155415
895.953	0.0153533
896.031	0.0152818
896.109	0.0154156
896.187	0.0153529
896.265	0.0153616
896.343	0.0153703
896.421	0.0154857
896.499	0.0152451
896.578	0.0152827
896.656	0.0154755
896.734	0.0154073
896.812	0.0153402
896.890	0.0153735
896.968	0.0153701
897.046	0.0152249
897.124	0.0153477
897.203	0.0154416
897.281	0.0152748
897.359	0.0153542
897.437	0.0154034
897.515	0.0151710
897.593	0.0152567
897.671	0.0152571
897.749	0.0153138
897.828	0.0152706
897.906	0.0152531
897.984	0.0152974
898.062	0.0153036
898.140	0.0152314
898.218	0.0151907
898.296	0.0154013
898.374	0.0153582
898.453	0.0151933
898.531	0.0153429
898.609	0.0153824
898.687	0.0153339
898.765	0.0152488
898.843	0.0152869
898.921	0.0152760
898.999	0.0153769
899.078	0.0154208
899.156	0.0153522
899.234	0.0153691
899.312	0.0153950
899.390	0.0153555
899.468	0.0154661
899.546	0.0155443
899.624	0.0152220
899.703	0.0154391
899.781	0.0153686
899.859	0.0154736
899.937	0.0153724
900.015	0.0153972
900.093	0.0153834
900.171	0.0153508
900.249	0.0154333
900.328	0.0153832
900.406	0.0153480
900.484	0.0152942
900.562	0.0153856
900.640	0.0152632
900.718	0.0154176
900.796	0.0153664
900.874	0.0153781
900.953	0.0153317
901.031	0.0153809
901.109	0.0154067
901.187	0.0153960
901.265	0.0153175
901.343	0.0154353
901.421	0.0155452
901.499	0.0154649
901.578	0.0153975
901.656	0.0153837
901.734	0.0154524
901.812	0.0154980
901.890	0.0154126
901.968	0.0154002
902.046	0.0153457
902.124	0.0153782
902.203	0.0153723
902.281	0.0155331
902.359	0.0153752
902.437	0.0154301
902.515	0.0155095
902.593	0.0153645
902.671	0.0154430
902.749	0.0154479
902.828	0.0153981
902.906	0.0153878
902.984	0.0153769
903.062	0.0155194
903.140	0.0153355
903.218	0.0154037
903.296	0.0153228
903.374	0.0154128
903.453	0.0153584
903.531	0.0153713
903.609	0.0153509
903.687	0.0153554
903.765	0.0153645
903.843	0.0153978
903.921	0.0153751
903.999	0.0153365
904.078	0.0154405
904.156	0.0152634
904.234	0.0153690
904.312	0.0154649
904.390	0.0154724
904.468	0.0152769
904.546	0.0153929
904.624	0.0152956
904.703	0.0154258
904.781	0.0155121
904.859	0.0153491
904.937	0.0153178
905.015	0.0153354
905.093	0.0152712
905.171	0.0153401
905.249	0.0153456
905.328	0.0153141
905.406	0.0152631
905.484	0.0152792
905.562	0.0153177
905.640	0.0152124
905.718	0.0151143
905.796	0.0152502
905.874	0.0152948
905.953	0.0153975
906.031	0.0151700
906.109	0.0151752
906.187	0.0152925
906.265	0.0151471
906.343	0.0151829
906.421	0.0152850
906.499	0.0153308
906.578	0.0153572
906.656	0.0153112
906.734	0.0153490
906.812	0.0153517
906.890	0.0153112
906.968	0.0154250
907.046	0.0154072
907.124	0.0153275
907.203	0.0153735
907.281	0.0153088
907.359	0.0154431
907.437	0.0153570
907.515	0.0153788
907.593	0.0152732
907.671	0.0154229
907.749	0.0153661
907.828	0.0152470
907.906	0.0153787
907.984	0.0153890
908.062	0.0152593
908.140	0.0154070
908.218	0.0154732
908.296	0.0152829
908.374	0.0152608
908.453	0.0154402
908.531	0.0153779
908.609	0.0153658
908.687	0.0153787
908.765	0.0152924
908.843	0.0153162
908.921	0.0153638
908.999	0.0152499
909.078	0.0152847
909.156	0.0154221
909.234	0.0154807
909.312	0.0153122
909.390	0.0153711
909.468	0.0152593
909.546	0.0154268
909.624	0.0153699
909.703	0.0153600
909.781	0.0153574
909.859	0.0153433
909.937	0.0152372
910.015	0.0152743
910.093	0.0153579
910.171	0.0153283
910.249	0.0153314
910.328	0.0154483
910.406	0.0153003
910.484	0.0153824
910.562	0.0154155
910.640	0.0154894
910.718	0.0153406
910.796	0.0152187
910.874	0.0152562
910.953	0.0153250
911.031	0.0152257
911.109	0.0153130
911.187	0.0151984
911.265	0.0152903
911.343	0.0152228
911.421	0.0152373
911.499	0.0153127
911.578	0.0152695
911.656	0.0153423
911.734	0.0152985
911.812	0.0154460
911.890	0.0152303
911.968	0.0152739
912.046	0.0154439
912.124	0.0154391
912.203	0.0155250
912.281	0.0154449
912.359	0.0152126
912.437	0.0153936
912.515	0.0153337
912.593	0.0154861
912.671	0.0155033
912.749	0.0154242
912.828	0.0153221
912.906	0.0153342
912.984	0.0154429
913.062	0.0153638
913.140	0.0154230
913.218	0.0153295
913.296	0.0154865
913.374	0.0153733
913.453	0.0153569
913.531	0.0153757
913.609	0.0152445
913.687	0.0152660
913.765	0.0154061
913.843	0.0152892
913.921	0.0152930
913.999	0.0153553
914.078	0.0153593
914.156	0.0151836
914.234	0.0152351
914.312	0.0153320
914.390	0.0152992
914.468	0.0154395
914.546	0.0152834
914.624	0.0153574
914.703	0.0153869
914.781	0.0152168
914.859	0.0152443
914.937	0.0154771
915.015	0.0153307
915.093	0.0152509
915.171	0.0153847
915.249	0.0152772
915.328	0.0153103
915.406	0.0154852
915.484	0.0153263
915.562	0.0154322
915.640	0.0152605
915.718	0.0153194
915.796	0.0154616
915.874	0.0154099
915.953	0.0152374
916.031	0.0152918
916.109	0.0153413
916.187	0.0153616
916.265	0.0153194
916.343	0.0152715
916.421	0.0153016
916.499	0.0154158
916.578	0.0154034
916.656	0.0153040
916.734	0.0154405
916.812	0.0153310
916.890	0.0153244
916.968	0.0152285
917.046	0.0152896
917.124	0.0154673
917.203	0.0154743
917.281	0.0154461
917.359	0.0153615
917.437	0.0153867
917.515	0.0153599
917.593	0.0153152
917.671	0.0154465
917.749	0.0152787
917.828	0.0152782
917.906	0.0153354
917.984	0.0153482
918.062	0.0153049
918.140	0.0152515
918.218	0.0153360
918.296	0.0153378
918.374	0.0153094
918.453	0.0151713
918.531	0.0152498
918.609	0.0152537
918.687	0.0153818
918.765	0.0152296
918.843	0.0152132
918.921	0.0151402
918.999	0.0153861
919.078	0.0153139
919.156	0.0154128
919.234	0.0152682
919.312	0.0152361
919.390	0.0153764
919.468	0.0153070
919.546	0.0152792
919.624	0.0152283
919.703	0.0151863
919.781	0.0153838
919.859	0.0153778
919.937	0.0153558
