05/06/2022	19:35:26	Ver.	4.1	UNKNOWN
Optical Delay	600.015094	Delta X		0.078125	Sweeps	1	Scan Rate	0/0
Coordinates	Axis 1	NaN	Axis 2	NaN	Axis 3	NaN	Axis 4	NaN	Axis 5	NaN	Axis 6	0.000000
TX Power	0.000000	RX Power	0.000000

600.015	0.0152377
600.093	0.0149908
600.171	0.0151578
600.249	0.0152633
600.328	0.0152124
600.406	0.0151622
600.484	0.0152361
600.562	0.0150845
600.640	0.0152144
600.718	0.0152856
600.796	0.0152764
600.874	0.0153128
600.953	0.0152781
601.031	0.0151112
601.109	0.0152566
601.187	0.0151611
601.265	0.0152513
601.343	0.0153127
601.421	0.0152621
601.499	0.0152412
601.578	0.0152694
601.656	0.0152546
601.734	0.0152654
601.812	0.0151785
601.890	0.0151659
601.968	0.0152982
602.046	0.0153086
602.124	0.0153416
602.203	0.0151862
602.281	0.0152936
602.359	0.0152190
602.437	0.0152221
602.515	0.0152625
602.593	0.0153036
602.671	0.0152887
602.749	0.0152071
602.828	0.0152569
602.906	0.0155119
602.984	0.0152672
603.062	0.0154449
603.140	0.0154097
603.218	0.0153458
603.296	0.0153689
603.374	0.0153685
603.453	0.0154449
603.531	0.0155013
603.609	0.0151389
603.687	0.0153207
603.765	0.0152692
603.843	0.0153785
603.921	0.0154288
603.999	0.0152576
604.078	0.0152776
604.156	0.0152042
604.234	0.0151983
604.312	0.0152996
604.390	0.0151426
604.468	0.0152628
604.546	0.0151465
604.624	0.0151974
604.703	0.0153171
604.781	0.0153757
604.859	0.0153487
604.937	0.0154243
605.015	0.0153265
605.093	0.0153619
605.171	0.0155390
605.249	0.0154581
605.328	0.0152789
605.406	0.0153255
605.484	0.0154285
605.562	0.0155267
605.640	0.0156004
605.718	0.0154041
605.796	0.0154391
605.874	0.0154877
605.953	0.0154031
606.031	0.0153119
606.109	0.0154536
606.187	0.0152904
606.265	0.0153777
606.343	0.0154622
606.421	0.0153268
606.499	0.0153580
606.578	0.0153627
606.656	0.0153141
606.734	0.0152933
606.812	0.0152701
606.890	0.0152303
606.968	0.0152302
607.046	0.0151908
607.124	0.0154044
607.203	0.0152453
607.281	0.0151115
607.359	0.0151317
607.437	0.0151550
607.515	0.0151364
607.593	0.0150344
607.671	0.0151299
607.749	0.0151955
607.828	0.0153138
607.906	0.0151169
607.984	0.0152320
608.062	0.0151640
608.140	0.0153830
608.218	0.0153114
608.296	0.0153835
608.374	0.0154343
608.453	0.0155506
608.531	0.0154507
608.609	0.0154282
608.687	0.0153963
608.765	0.0154493
608.843	0.0155442
608.921	0.0155222
608.999	0.0155145
609.078	0.0155602
609.156	0.0153958
609.234	0.0156210
609.312	0.0156129
609.390	0.0156094
609.468	0.0156380
609.546	0.0156219
609.624	0.0155833
609.703	0.0155448
609.781	0.0155022
609.859	0.0153654
609.937	0.0154021
610.015	0.0153560
610.093	0.0151408
610.171	0.0150659
610.249	0.0151845
610.328	0.0151241
610.406	0.0150557
610.484	0.0149433
610.562	0.0150310
610.640	0.0151575
610.718	0.0151759
610.796	0.0151757
610.874	0.0151801
610.953	0.0152310
611.031	0.0153494
611.109	0.0153315
611.187	0.0153683
611.265	0.0154557
611.343	0.0154991
611.421	0.0155257
611.499	0.0154563
611.578	0.0155254
611.656	0.0155385
611.734	0.0155609
611.812	0.0155936
611.890	0.0155312
611.968	0.0155535
612.046	0.0154226
612.124	0.0155167
612.203	0.0153749
612.281	0.0154136
612.359	0.0155322
612.437	0.0155064
612.515	0.0153030
612.593	0.0152997
612.671	0.0154013
612.749	0.0152844
612.828	0.0154462
612.906	0.0155508
612.984	0.0153378
613.062	0.0152789
613.140	0.0153123
613.218	0.0152097
613.296	0.0153606
613.374	0.0154439
613.453	0.0152096
613.531	0.0153072
613.609	0.0153340
613.687	0.0152451
613.765	0.0153733
613.843	0.0152881
613.921	0.0152784
613.999	0.0152535
614.078	0.0152065
614.156	0.0152055
614.234	0.0152124
614.312	0.0152752
614.390	0.0152711
614.468	0.0153748
614.546	0.0152207
614.624	0.0155035
614.703	0.0154840
614.781	0.0154769
614.859	0.0155281
614.937	0.0155672
615.015	0.0156363
615.093	0.0156433
615.171	0.0156176
615.249	0.0156301
615.328	0.0155866
615.406	0.0154289
615.484	0.0154665
615.562	0.0154298
615.640	0.0155781
615.718	0.0153944
615.796	0.0153991
615.874	0.0154343
615.953	0.0152937
616.031	0.0152296
616.109	0.0152026
616.187	0.0152774
616.265	0.0152224
616.343	0.0152783
616.421	0.0153028
616.499	0.0151994
616.578	0.0152809
616.656	0.0151462
616.734	0.0151673
616.812	0.0152784
616.890	0.0152247
616.968	0.0151950
617.046	0.0153162
617.124	0.0153539
617.203	0.0153245
617.281	0.0153146
617.359	0.0152485
617.437	0.0153206
617.515	0.0153091
617.593	0.0153374
617.671	0.0153809
617.749	0.0153898
617.828	0.0152335
617.906	0.0153532
617.984	0.0155016
618.062	0.0153892
618.140	0.0154156
618.218	0.0154787
618.296	0.0154548
618.374	0.0154571
618.453	0.0155116
618.531	0.0155148
618.609	0.0154647
618.687	0.0154010
618.765	0.0154806
618.843	0.0153373
618.921	0.0153293
618.999	0.0153903
619.078	0.0152581
619.156	0.0152874
619.234	0.0152312
619.312	0.0153164
619.390	0.0152737
619.468	0.0153153
619.546	0.0153192
619.624	0.0152249
619.703	0.0151679
619.781	0.0152959
619.859	0.0152037
619.937	0.0151482
620.015	0.0153188
620.093	0.0152474
620.171	0.0153218
620.249	0.0151558
620.328	0.0150954
620.406	0.0150805
620.484	0.0151789
620.562	0.0151380
620.640	0.0151962
620.718	0.0151514
620.796	0.0150620
620.874	0.0150837
620.953	0.0151953
621.031	0.0151868
621.109	0.0151213
621.187	0.0150620
621.265	0.0151614
621.343	0.0152631
621.421	0.0150731
621.499	0.0150047
621.578	0.0151701
621.656	0.0151864
621.734	0.0153687
621.812	0.0152782
621.890	0.0152919
621.968	0.0153738
622.046	0.0153223
622.124	0.0152246
622.203	0.0153352
622.281	0.0153681
622.359	0.0152257
622.437	0.0152296
622.515	0.0151796
622.593	0.0152821
622.671	0.0153492
622.749	0.0152274
622.828	0.0152991
622.906	0.0152444
622.984	0.0152412
623.062	0.0151363
623.140	0.0151006
623.218	0.0150951
623.296	0.0148629
623.374	0.0151091
623.453	0.0150288
623.531	0.0150068
623.609	0.0149834
623.687	0.0152202
623.765	0.0152619
623.843	0.0151353
623.921	0.0151518
623.999	0.0152029
624.078	0.0153506
624.156	0.0154678
624.234	0.0154372
624.312	0.0154744
624.390	0.0155137
624.468	0.0154737
624.546	0.0156129
624.624	0.0155427
624.703	0.0154910
624.781	0.0155215
624.859	0.0154972
624.937	0.0153683
625.015	0.0153926
625.093	0.0154186
625.171	0.0153484
625.249	0.0153130
625.328	0.0153451
625.406	0.0151837
625.484	0.0150195
625.562	0.0149645
625.640	0.0149866
625.718	0.0150306
625.796	0.0148106
625.874	0.0149582
625.953	0.0149353
626.031	0.0148831
626.109	0.0148614
626.187	0.0149154
626.265	0.0149139
626.343	0.0148558
626.421	0.0150616
626.499	0.0150522
626.578	0.0151565
626.656	0.0151678
626.734	0.0152316
626.812	0.0152874
626.890	0.0152066
626.968	0.0153595
627.046	0.0154344
627.124	0.0154538
627.203	0.0155113
627.281	0.0156031
627.359	0.0156574
627.437	0.0158234
627.515	0.0157574
627.593	0.0157975
627.671	0.0158256
627.749	0.0157690
627.828	0.0157607
627.906	0.0159031
627.984	0.0158603
628.062	0.0157159
628.140	0.0157401
628.218	0.0157250
628.296	0.0157487
628.374	0.0154974
628.453	0.0154292
628.531	0.0154909
628.609	0.0154690
628.687	0.0154665
628.765	0.0152677
628.843	0.0152489
628.921	0.0152123
628.999	0.0151546
629.078	0.0151024
629.156	0.0148728
629.234	0.0148438
629.312	0.0148439
629.390	0.0148837
629.468	0.0147843
629.546	0.0148949
629.624	0.0147629
629.703	0.0148598
629.781	0.0148475
629.859	0.0148267
629.937	0.0148642
630.015	0.0149625
630.093	0.0150407
630.171	0.0151552
630.249	0.0150838
630.328	0.0151997
630.406	0.0153098
630.484	0.0152308
630.562	0.0154728
630.640	0.0153690
630.718	0.0155038
630.796	0.0153573
630.874	0.0155561
630.953	0.0154638
631.031	0.0154445
631.109	0.0154956
631.187	0.0155370
631.265	0.0155017
631.343	0.0156358
631.421	0.0155830
631.499	0.0155750
631.578	0.0155341
631.656	0.0156043
631.734	0.0155441
631.812	0.0156229
631.890	0.0155634
631.968	0.0156844
632.046	0.0157265
632.124	0.0157578
632.203	0.0156278
632.281	0.0155952
632.359	0.0156882
632.437	0.0156867
632.515	0.0157941
632.593	0.0157206
632.671	0.0156995
632.749	0.0158213
632.828	0.0155990
632.906	0.0157005
632.984	0.0155660
633.062	0.0155934
633.140	0.0154676
633.218	0.0154198
633.296	0.0154454
633.374	0.0153781
633.453	0.0152932
633.531	0.0152682
633.609	0.0152248
633.687	0.0151649
633.765	0.0152191
633.843	0.0151454
633.921	0.0150759
633.999	0.0150999
634.078	0.0151022
634.156	0.0148342
634.234	0.0148233
634.312	0.0149372
634.390	0.0149781
634.468	0.0148245
634.546	0.0148014
634.624	0.0149765
634.703	0.0151117
634.781	0.0151379
634.859	0.0151117
634.937	0.0151995
635.015	0.0153348
635.093	0.0155157
635.171	0.0156106
635.249	0.0156294
635.328	0.0156491
635.406	0.0156931
635.484	0.0159612
635.562	0.0158518
635.640	0.0159242
635.718	0.0159035
635.796	0.0160638
635.874	0.0159985
635.953	0.0159113
636.031	0.0160455
636.109	0.0159551
636.187	0.0159709
636.265	0.0158723
636.343	0.0159010
636.421	0.0158122
636.499	0.0156677
636.578	0.0157979
636.656	0.0158291
636.734	0.0156549
636.812	0.0156852
636.890	0.0154808
636.968	0.0154412
637.046	0.0153520
637.124	0.0153078
637.203	0.0153227
637.281	0.0152292
637.359	0.0153377
637.437	0.0151871
637.515	0.0149971
637.593	0.0150089
637.671	0.0149616
637.749	0.0150484
637.828	0.0149298
637.906	0.0148534
637.984	0.0150323
638.062	0.0151134
638.140	0.0150045
638.218	0.0149362
638.296	0.0150175
638.374	0.0149123
638.453	0.0150651
638.531	0.0151425
638.609	0.0151054
638.687	0.0151482
638.765	0.0151559
638.843	0.0152741
638.921	0.0152368
638.999	0.0153103
639.078	0.0154553
639.156	0.0154470
639.234	0.0153853
639.312	0.0153757
639.390	0.0155096
639.468	0.0155549
639.546	0.0155713
639.624	0.0156129
639.703	0.0156974
639.781	0.0155864
639.859	0.0156277
639.937	0.0155856
640.015	0.0157027
640.093	0.0157578
640.171	0.0156762
640.249	0.0154978
640.328	0.0157220
640.406	0.0156541
640.484	0.0156763
640.562	0.0155679
640.640	0.0155540
640.718	0.0155561
640.796	0.0155501
640.874	0.0156142
640.953	0.0155701
641.031	0.0155146
641.109	0.0155572
641.187	0.0155596
641.265	0.0155029
641.343	0.0154781
641.421	0.0156190
641.499	0.0155045
641.578	0.0153826
641.656	0.0153831
641.734	0.0153078
641.812	0.0152855
641.890	0.0152699
641.968	0.0154301
642.046	0.0151540
642.124	0.0151694
642.203	0.0151228
642.281	0.0149242
642.359	0.0148324
642.437	0.0148940
642.515	0.0148158
642.593	0.0149403
642.671	0.0148015
642.749	0.0147810
642.828	0.0146629
642.906	0.0147466
642.984	0.0147986
643.062	0.0148131
643.140	0.0148158
643.218	0.0149126
643.296	0.0149432
643.374	0.0149586
643.453	0.0149647
643.531	0.0151118
643.609	0.0152010
643.687	0.0153646
643.765	0.0154738
643.843	0.0153891
643.921	0.0153176
643.999	0.0154780
644.078	0.0156974
644.156	0.0156585
644.234	0.0155017
644.312	0.0157479
644.390	0.0157313
644.468	0.0155566
644.546	0.0157053
644.624	0.0156583
644.703	0.0156277
644.781	0.0156913
644.859	0.0156714
644.937	0.0154674
645.015	0.0153693
645.093	0.0152533
645.171	0.0152357
645.249	0.0152827
645.328	0.0152021
645.406	0.0153204
645.484	0.0151539
645.562	0.0150681
645.640	0.0151606
645.718	0.0151617
645.796	0.0152098
645.874	0.0152018
645.953	0.0152312
646.031	0.0151751
646.109	0.0150358
646.187	0.0151708
646.265	0.0151771
646.343	0.0152968
646.421	0.0152839
646.499	0.0153632
646.578	0.0152434
646.656	0.0153014
646.734	0.0153185
646.812	0.0153098
646.890	0.0154369
646.968	0.0154905
647.046	0.0153533
647.124	0.0153410
647.203	0.0154146
647.281	0.0153499
647.359	0.0153839
647.437	0.0152582
647.515	0.0150590
647.593	0.0151012
647.671	0.0149116
647.749	0.0148431
647.828	0.0148667
647.906	0.0148447
647.984	0.0148363
648.062	0.0148524
648.140	0.0147422
648.218	0.0147643
648.296	0.0148631
648.374	0.0149943
648.453	0.0151122
648.531	0.0151407
648.609	0.0151157
648.687	0.0151981
648.765	0.0152061
648.843	0.0154017
648.921	0.0154449
648.999	0.0155286
649.078	0.0155424
649.156	0.0156578
649.234	0.0157445
649.312	0.0156669
649.390	0.0156424
649.468	0.0156373
649.546	0.0157354
649.624	0.0156876
649.703	0.0156691
649.781	0.0156487
649.859	0.0157626
649.937	0.0157998
650.015	0.0156647
650.093	0.0156744
650.171	0.0155283
650.249	0.0155593
650.328	0.0155605
650.406	0.0155054
650.484	0.0154090
650.562	0.0154766
650.640	0.0154879
650.718	0.0153103
650.796	0.0152631
650.874	0.0152122
650.953	0.0153806
651.031	0.0154578
651.109	0.0152824
651.187	0.0153947
651.265	0.0153615
651.343	0.0154352
651.421	0.0154194
651.499	0.0153199
651.578	0.0153066
651.656	0.0153716
651.734	0.0153557
651.812	0.0153444
651.890	0.0152945
651.968	0.0151165
652.046	0.0153029
652.124	0.0153542
652.203	0.0152319
652.281	0.0151981
652.359	0.0152378
652.437	0.0150735
652.515	0.0151287
652.593	0.0150203
652.671	0.0149620
652.749	0.0149877
652.828	0.0150181
652.906	0.0149393
652.984	0.0148937
653.062	0.0149194
653.140	0.0150285
653.218	0.0150441
653.296	0.0149041
653.374	0.0151525
653.453	0.0150163
653.531	0.0150952
653.609	0.0150051
653.687	0.0151286
653.765	0.0151814
653.843	0.0151431
653.921	0.0153306
653.999	0.0152183
654.078	0.0152727
654.156	0.0152891
654.234	0.0154369
654.312	0.0154588
654.390	0.0154005
654.468	0.0155795
654.546	0.0155660
654.624	0.0156358
654.703	0.0156191
654.781	0.0157368
654.859	0.0156982
654.937	0.0158389
655.015	0.0156790
655.093	0.0157272
655.171	0.0155930
655.249	0.0155238
655.328	0.0156437
655.406	0.0156120
655.484	0.0156236
655.562	0.0154738
655.640	0.0155025
655.718	0.0154973
655.796	0.0155712
655.874	0.0155232
655.953	0.0152890
656.031	0.0153221
656.109	0.0152427
656.187	0.0152783
656.265	0.0153690
656.343	0.0152038
656.421	0.0152702
656.499	0.0150306
656.578	0.0152000
656.656	0.0152027
656.734	0.0150634
656.812	0.0151354
656.890	0.0151637
656.968	0.0150407
657.046	0.0150382
657.124	0.0150185
657.203	0.0147708
657.281	0.0147945
657.359	0.0148843
657.437	0.0149406
657.515	0.0147144
657.593	0.0147020
657.671	0.0148476
657.749	0.0148412
657.828	0.0149803
657.906	0.0151630
657.984	0.0150077
658.062	0.0152724
658.140	0.0153384
658.218	0.0153288
658.296	0.0153886
658.374	0.0154951
658.453	0.0155172
658.531	0.0154162
658.609	0.0157128
658.687	0.0157670
658.765	0.0157244
658.843	0.0157332
658.921	0.0157190
658.999	0.0156639
659.078	0.0155034
659.156	0.0157037
659.234	0.0157716
659.312	0.0156335
659.390	0.0157055
659.468	0.0156441
659.546	0.0154983
659.624	0.0155372
659.703	0.0155102
659.781	0.0156157
659.859	0.0156924
659.937	0.0156360
660.015	0.0155565
660.093	0.0155573
660.171	0.0154575
660.249	0.0155688
660.328	0.0155025
660.406	0.0155130
660.484	0.0154901
660.562	0.0155849
660.640	0.0156107
660.718	0.0154826
660.796	0.0154413
660.874	0.0155128
660.953	0.0154828
661.031	0.0155500
661.109	0.0153238
661.187	0.0153503
661.265	0.0153761
661.343	0.0153284
661.421	0.0153806
661.499	0.0153381
661.578	0.0152919
661.656	0.0153353
661.734	0.0153168
661.812	0.0154332
661.890	0.0152239
661.968	0.0153823
662.046	0.0153374
662.124	0.0151877
662.203	0.0152764
662.281	0.0152003
662.359	0.0151830
662.437	0.0153153
662.515	0.0152867
662.593	0.0152715
662.671	0.0151789
662.749	0.0152505
662.828	0.0152305
662.906	0.0153614
662.984	0.0153399
663.062	0.0152294
663.140	0.0152233
663.218	0.0152656
663.296	0.0153085
663.374	0.0151640
663.453	0.0153020
663.531	0.0151639
663.609	0.0153452
663.687	0.0153803
663.765	0.0155268
663.843	0.0153030
663.921	0.0151720
663.999	0.0151351
664.078	0.0154100
664.156	0.0155521
664.234	0.0154803
664.312	0.0153714
664.390	0.0154846
664.468	0.0154758
664.546	0.0153660
664.624	0.0154395
664.703	0.0154272
664.781	0.0154427
664.859	0.0154684
664.937	0.0154624
665.015	0.0154434
665.093	0.0154207
665.171	0.0154613
665.249	0.0152872
665.328	0.0154691
665.406	0.0154805
665.484	0.0153930
665.562	0.0154452
665.640	0.0153975
665.718	0.0153538
665.796	0.0153841
665.874	0.0152722
665.953	0.0152801
666.031	0.0153387
666.109	0.0152958
666.187	0.0152206
666.265	0.0152817
666.343	0.0152419
666.421	0.0151546
666.499	0.0151536
666.578	0.0152753
666.656	0.0152232
666.734	0.0151163
666.812	0.0150500
666.890	0.0150615
666.968	0.0151608
667.046	0.0151038
667.124	0.0150481
667.203	0.0149747
667.281	0.0149429
667.359	0.0151344
667.437	0.0149705
667.515	0.0149902
667.593	0.0150530
667.671	0.0151899
667.749	0.0150700
667.828	0.0150695
667.906	0.0151677
667.984	0.0150952
668.062	0.0149908
668.140	0.0151881
668.218	0.0153899
668.296	0.0152268
668.374	0.0152493
668.453	0.0152544
668.531	0.0153291
668.609	0.0153302
668.687	0.0152346
668.765	0.0152650
668.843	0.0154075
668.921	0.0153561
668.999	0.0154296
669.078	0.0154651
669.156	0.0152691
669.234	0.0153990
669.312	0.0153656
669.390	0.0154399
669.468	0.0153525
669.546	0.0153509
669.624	0.0154111
669.703	0.0154115
669.781	0.0153925
669.859	0.0154312
669.937	0.0154085
670.015	0.0154453
670.093	0.0152489
670.171	0.0153396
670.249	0.0154211
670.328	0.0152112
670.406	0.0151776
670.484	0.0152679
670.562	0.0152399
670.640	0.0150890
670.718	0.0151288
670.796	0.0151293
670.874	0.0152000
670.953	0.0151418
671.031	0.0150990
671.109	0.0151035
671.187	0.0153283
671.265	0.0152872
671.343	0.0153438
671.421	0.0151994
671.499	0.0152450
671.578	0.0153145
671.656	0.0152354
671.734	0.0153199
671.812	0.0152955
671.890	0.0151466
671.968	0.0153043
672.046	0.0150852
672.124	0.0151850
672.203	0.0150681
672.281	0.0151312
672.359	0.0151601
672.437	0.0151381
672.515	0.0151184
672.593	0.0150947
672.671	0.0151736
672.749	0.0151308
672.828	0.0151841
672.906	0.0153211
672.984	0.0153262
673.062	0.0152377
673.140	0.0152401
673.218	0.0154044
673.296	0.0154765
673.374	0.0154119
673.453	0.0154626
673.531	0.0154355
673.609	0.0153324
673.687	0.0155068
673.765	0.0153868
673.843	0.0153978
673.921	0.0153047
673.999	0.0152351
674.078	0.0152528
674.156	0.0152035
674.234	0.0152490
674.312	0.0154105
674.390	0.0152373
674.468	0.0152087
674.546	0.0152313
674.624	0.0151952
674.703	0.0151259
674.781	0.0151913
674.859	0.0152027
674.937	0.0153500
675.015	0.0153469
675.093	0.0152697
675.171	0.0151538
675.249	0.0152122
675.328	0.0153038
675.406	0.0150556
675.484	0.0150404
675.562	0.0151273
675.640	0.0150761
675.718	0.0149154
675.796	0.0148717
675.874	0.0150089
675.953	0.0149039
676.031	0.0150232
676.109	0.0150800
676.187	0.0150172
676.265	0.0151897
676.343	0.0150867
676.421	0.0153064
676.499	0.0152546
676.578	0.0151348
676.656	0.0152183
676.734	0.0152991
676.812	0.0153368
676.890	0.0152789
676.968	0.0152781
677.046	0.0153589
677.124	0.0151928
677.203	0.0151764
677.281	0.0153196
677.359	0.0153323
677.437	0.0151803
677.515	0.0153249
677.593	0.0152045
677.671	0.0153320
677.749	0.0153801
677.828	0.0152856
677.906	0.0153297
677.984	0.0153005
678.062	0.0153001
678.140	0.0155154
678.218	0.0154625
678.296	0.0153844
678.374	0.0153429
678.453	0.0153326
678.531	0.0154624
678.609	0.0154178
678.687	0.0154702
678.765	0.0153680
678.843	0.0155521
678.921	0.0155634
678.999	0.0154597
679.078	0.0155037
679.156	0.0154961
679.234	0.0155263
679.312	0.0155714
679.390	0.0154245
679.468	0.0153722
679.546	0.0153972
679.624	0.0153998
679.703	0.0155266
679.781	0.0152885
679.859	0.0153458
679.937	0.0152128
680.015	0.0151489
680.093	0.0152363
680.171	0.0152505
680.249	0.0152515
680.328	0.0151878
680.406	0.0151344
680.484	0.0152220
680.562	0.0151572
680.640	0.0150429
680.718	0.0151289
680.796	0.0152100
680.874	0.0152218
680.953	0.0150465
681.031	0.0151914
681.109	0.0152128
681.187	0.0150001
681.265	0.0151736
681.343	0.0151975
681.421	0.0151585
681.499	0.0152900
681.578	0.0152667
681.656	0.0153970
681.734	0.0151757
681.812	0.0152291
681.890	0.0154351
681.968	0.0152604
682.046	0.0151831
682.124	0.0151983
682.203	0.0153704
682.281	0.0152554
682.359	0.0153530
682.437	0.0153638
682.515	0.0152129
682.593	0.0152697
682.671	0.0151545
682.749	0.0152483
682.828	0.0152570
682.906	0.0152180
682.984	0.0152677
683.062	0.0151692
683.140	0.0152261
683.218	0.0151630
683.296	0.0153461
683.374	0.0152220
683.453	0.0153219
683.531	0.0153413
683.609	0.0152958
683.687	0.0153832
683.765	0.0154877
683.843	0.0153170
683.921	0.0155699
683.999	0.0154325
684.078	0.0154985
684.156	0.0154802
684.234	0.0155862
684.312	0.0156667
684.390	0.0156700
684.468	0.0154086
684.546	0.0156293
684.624	0.0155666
684.703	0.0154166
684.781	0.0154005
684.859	0.0153948
684.937	0.0154086
685.015	0.0155238
685.093	0.0152757
685.171	0.0152157
685.249	0.0152341
685.328	0.0151866
685.406	0.0152085
685.484	0.0151301
685.562	0.0152627
685.640	0.0150030
685.718	0.0150053
685.796	0.0150722
685.874	0.0150620
685.953	0.0151038
686.031	0.0151028
686.109	0.0148246
686.187	0.0149483
686.265	0.0150188
686.343	0.0149294
686.421	0.0149593
686.499	0.0150722
686.578	0.0150009
686.656	0.0150892
686.734	0.0149591
686.812	0.0150676
686.890	0.0150445
686.968	0.0152132
687.046	0.0153006
687.124	0.0154194
687.203	0.0153421
687.281	0.0153877
687.359	0.0154608
687.437	0.0155828
687.515	0.0157949
687.593	0.0156394
687.671	0.0155312
687.749	0.0156327
687.828	0.0156291
687.906	0.0155323
687.984	0.0156260
688.062	0.0155560
688.140	0.0156760
688.218	0.0155935
688.296	0.0153692
688.374	0.0153634
688.453	0.0155060
688.531	0.0152762
688.609	0.0153295
688.687	0.0153727
688.765	0.0154292
688.843	0.0151938
688.921	0.0150709
688.999	0.0150965
689.078	0.0151008
689.156	0.0150676
689.234	0.0150428
689.312	0.0152712
689.390	0.0152241
689.468	0.0152405
689.546	0.0152386
689.624	0.0150890
689.703	0.0150820
689.781	0.0149801
689.859	0.0151009
689.937	0.0151328
690.015	0.0150964
690.093	0.0152743
690.171	0.0151541
690.249	0.0150101
690.328	0.0151022
690.406	0.0150922
690.484	0.0150804
690.562	0.0152105
690.640	0.0150710
690.718	0.0151010
690.796	0.0151107
690.874	0.0150295
690.953	0.0149909
691.031	0.0151784
691.109	0.0151114
691.187	0.0150997
691.265	0.0150669
691.343	0.0150410
691.421	0.0150098
691.499	0.0151041
691.578	0.0150637
691.656	0.0151917
691.734	0.0151526
691.812	0.0150233
691.890	0.0151479
691.968	0.0151692
692.046	0.0152306
692.124	0.0152607
692.203	0.0152594
692.281	0.0152737
692.359	0.0154622
692.437	0.0153293
692.515	0.0152579
692.593	0.0154498
692.671	0.0154785
692.749	0.0154295
692.828	0.0155092
692.906	0.0155613
692.984	0.0154631
693.062	0.0154712
693.140	0.0154805
693.218	0.0155003
693.296	0.0154561
693.374	0.0155003
693.453	0.0154548
693.531	0.0154406
693.609	0.0153250
693.687	0.0153829
693.765	0.0153960
693.843	0.0153320
693.921	0.0153236
693.999	0.0153852
694.078	0.0154113
694.156	0.0153473
694.234	0.0152194
694.312	0.0152256
694.390	0.0152221
694.468	0.0152767
694.546	0.0152981
694.624	0.0152542
694.703	0.0152082
694.781	0.0152381
694.859	0.0152686
694.937	0.0152915
695.015	0.0154063
695.093	0.0152485
695.171	0.0152874
695.249	0.0153276
695.328	0.0153047
695.406	0.0152802
695.484	0.0152207
695.562	0.0153378
695.640	0.0153577
695.718	0.0151010
695.796	0.0153094
695.874	0.0153236
695.953	0.0152242
696.031	0.0152361
696.109	0.0152739
696.187	0.0152525
696.265	0.0153672
696.343	0.0153526
696.421	0.0154039
696.499	0.0153722
696.578	0.0151898
696.656	0.0152086
696.734	0.0152740
696.812	0.0154710
696.890	0.0154382
696.968	0.0152795
697.046	0.0154596
697.124	0.0152837
697.203	0.0153513
697.281	0.0151742
697.359	0.0152171
697.437	0.0153689
697.515	0.0152853
697.593	0.0151427
697.671	0.0153005
697.749	0.0152588
697.828	0.0151879
697.906	0.0151738
697.984	0.0151568
698.062	0.0152181
698.140	0.0152618
698.218	0.0152437
698.296	0.0152861
698.374	0.0154062
698.453	0.0154350
698.531	0.0152766
698.609	0.0153028
698.687	0.0153265
698.765	0.0155514
698.843	0.0154710
698.921	0.0153383
698.999	0.0153365
699.078	0.0153165
699.156	0.0153761
699.234	0.0153681
699.312	0.0154019
699.390	0.0154316
699.468	0.0152625
699.546	0.0152681
699.624	0.0152989
699.703	0.0152302
699.781	0.0152788
699.859	0.0152379
699.937	0.0152357
700.015	0.0151830
700.093	0.0151127
700.171	0.0151820
700.249	0.0152010
700.328	0.0150520
700.406	0.0150301
700.484	0.0151756
700.562	0.0150733
700.640	0.0150100
700.718	0.0152003
700.796	0.0151292
700.874	0.0151476
700.953	0.0151276
701.031	0.0152750
701.109	0.0153263
701.187	0.0152613
701.265	0.0153893
701.343	0.0153593
701.421	0.0152679
701.499	0.0153993
701.578	0.0154206
701.656	0.0153516
701.734	0.0155425
701.812	0.0155369
701.890	0.0154560
701.968	0.0155558
702.046	0.0155454
702.124	0.0156031
702.203	0.0155704
702.281	0.0155754
702.359	0.0155445
702.437	0.0155667
702.515	0.0153613
702.593	0.0155452
702.671	0.0155489
702.749	0.0154237
702.828	0.0153453
702.906	0.0153516
702.984	0.0154433
703.062	0.0152758
703.140	0.0152142
703.218	0.0152620
703.296	0.0152592
703.374	0.0152669
703.453	0.0152068
703.531	0.0152676
703.609	0.0152597
703.687	0.0153529
703.765	0.0153445
703.843	0.0153302
703.921	0.0153003
703.999	0.0152213
704.078	0.0151689
704.156	0.0153597
704.234	0.0151767
704.312	0.0152983
704.390	0.0151818
704.468	0.0152427
704.546	0.0152387
704.624	0.0152430
704.703	0.0152216
704.781	0.0152680
704.859	0.0151033
704.937	0.0153471
705.015	0.0152541
705.093	0.0151854
705.171	0.0151492
705.249	0.0150933
705.328	0.0150876
705.406	0.0151719
705.484	0.0152378
705.562	0.0151796
705.640	0.0150279
705.718	0.0151337
705.796	0.0150725
705.874	0.0150764
705.953	0.0150904
706.031	0.0151996
706.109	0.0150185
706.187	0.0151138
706.265	0.0152448
706.343	0.0151596
706.421	0.0152213
706.499	0.0151926
706.578	0.0151711
706.656	0.0152824
706.734	0.0153046
706.812	0.0153272
706.890	0.0152957
706.968	0.0154391
707.046	0.0154362
707.124	0.0154098
707.203	0.0154028
707.281	0.0153802
707.359	0.0153937
707.437	0.0153992
707.515	0.0152969
707.593	0.0152054
707.671	0.0153262
707.749	0.0154357
707.828	0.0153789
707.906	0.0153612
707.984	0.0154404
708.062	0.0152679
708.140	0.0152657
708.218	0.0153259
708.296	0.0153496
708.374	0.0152542
708.453	0.0152826
708.531	0.0153691
708.609	0.0153055
708.687	0.0152905
708.765	0.0153419
708.843	0.0153563
708.921	0.0153808
708.999	0.0151443
709.078	0.0153451
709.156	0.0152094
709.234	0.0152546
709.312	0.0152940
709.390	0.0153520
709.468	0.0153419
709.546	0.0153148
709.624	0.0152286
709.703	0.0152563
709.781	0.0153699
709.859	0.0153053
709.937	0.0152221
710.015	0.0152095
710.093	0.0152522
710.171	0.0154073
710.249	0.0154156
710.328	0.0154057
710.406	0.0154276
710.484	0.0154726
710.562	0.0153642
710.640	0.0153952
710.718	0.0155883
710.796	0.0154100
710.874	0.0154378
710.953	0.0154190
711.031	0.0153732
711.109	0.0153723
711.187	0.0155396
711.265	0.0154980
711.343	0.0155381
711.421	0.0154436
711.499	0.0154228
711.578	0.0153909
711.656	0.0155685
711.734	0.0154504
711.812	0.0155053
711.890	0.0154292
711.968	0.0155414
712.046	0.0155248
712.124	0.0153871
712.203	0.0155817
712.281	0.0155215
712.359	0.0155450
712.437	0.0154754
712.515	0.0154774
712.593	0.0154385
712.671	0.0153535
712.749	0.0153487
712.828	0.0153969
712.906	0.0154023
712.984	0.0153220
713.062	0.0153315
713.140	0.0154546
713.218	0.0154066
713.296	0.0153863
713.374	0.0152357
713.453	0.0152798
713.531	0.0154062
713.609	0.0154140
713.687	0.0155176
713.765	0.0153775
713.843	0.0152416
713.921	0.0153377
713.999	0.0153918
714.078	0.0153178
714.156	0.0154179
714.234	0.0152880
714.312	0.0153256
714.390	0.0153173
714.468	0.0152105
714.546	0.0151875
714.624	0.0151907
714.703	0.0152890
714.781	0.0152336
714.859	0.0150877
714.937	0.0151666
715.015	0.0152225
715.093	0.0151870
715.171	0.0151449
715.249	0.0151518
715.328	0.0151229
715.406	0.0151964
715.484	0.0153767
715.562	0.0152267
715.640	0.0153410
715.718	0.0154552
715.796	0.0152921
715.874	0.0154030
715.953	0.0153886
716.031	0.0154836
716.109	0.0153082
716.187	0.0151081
716.265	0.0152354
716.343	0.0152758
716.421	0.0153558
716.499	0.0153564
716.578	0.0152843
716.656	0.0152599
716.734	0.0152914
716.812	0.0152338
716.890	0.0152135
716.968	0.0153310
717.046	0.0152853
717.124	0.0151884
717.203	0.0151431
717.281	0.0153320
717.359	0.0153466
717.437	0.0153059
717.515	0.0153773
717.593	0.0152229
717.671	0.0151437
717.749	0.0152796
717.828	0.0153987
717.906	0.0154664
717.984	0.0152800
718.062	0.0153422
718.140	0.0154340
718.218	0.0152532
718.296	0.0152605
718.374	0.0153477
718.453	0.0153742
718.531	0.0152442
718.609	0.0153688
718.687	0.0153796
718.765	0.0153825
718.843	0.0154222
718.921	0.0153705
718.999	0.0153085
719.078	0.0152090
719.156	0.0150607
719.234	0.0152052
719.312	0.0151216
719.390	0.0152296
719.468	0.0150879
719.546	0.0153092
719.624	0.0152394
719.703	0.0151863
719.781	0.0151233
719.859	0.0153013
719.937	0.0152386
720.015	0.0152455
720.093	0.0151912
720.171	0.0153979
720.249	0.0152727
720.328	0.0153571
720.406	0.0154511
720.484	0.0153027
720.562	0.0152771
720.640	0.0153220
720.718	0.0154353
720.796	0.0154529
720.874	0.0154478
720.953	0.0154412
721.031	0.0153631
721.109	0.0153941
721.187	0.0155073
721.265	0.0154509
721.343	0.0154594
721.421	0.0154809
721.499	0.0154497
721.578	0.0153755
721.656	0.0152843
721.734	0.0153440
721.812	0.0154256
721.890	0.0152376
721.968	0.0152620
722.046	0.0153616
722.124	0.0152131
722.203	0.0152412
722.281	0.0152496
722.359	0.0150953
722.437	0.0152525
722.515	0.0151058
722.593	0.0151475
722.671	0.0152476
722.749	0.0152634
722.828	0.0152187
722.906	0.0152416
722.984	0.0153220
723.062	0.0153318
723.140	0.0152795
723.218	0.0152964
723.296	0.0152143
723.374	0.0151476
723.453	0.0154087
723.531	0.0154945
723.609	0.0154465
723.687	0.0154081
723.765	0.0154988
723.843	0.0152553
723.921	0.0153426
723.999	0.0155441
724.078	0.0153877
724.156	0.0152819
724.234	0.0153903
724.312	0.0153218
724.390	0.0153399
724.468	0.0154351
724.546	0.0153922
724.624	0.0153635
724.703	0.0153088
724.781	0.0153113
724.859	0.0153828
724.937	0.0152218
725.015	0.0152269
725.093	0.0153132
725.171	0.0153100
725.249	0.0153218
725.328	0.0154257
725.406	0.0153204
725.484	0.0153545
725.562	0.0154329
725.640	0.0154739
725.718	0.0153711
725.796	0.0153098
725.874	0.0153002
725.953	0.0153883
726.031	0.0153098
726.109	0.0154360
726.187	0.0154233
726.265	0.0151894
726.343	0.0153185
726.421	0.0154620
726.499	0.0154771
726.578	0.0153561
726.656	0.0152218
726.734	0.0152266
726.812	0.0152789
726.890	0.0153212
726.968	0.0151878
727.046	0.0150676
727.124	0.0152910
727.203	0.0153471
727.281	0.0151893
727.359	0.0153147
727.437	0.0152281
727.515	0.0153740
727.593	0.0152862
727.671	0.0152884
727.749	0.0153274
727.828	0.0152335
727.906	0.0151976
727.984	0.0152473
728.062	0.0152491
728.140	0.0151913
728.218	0.0151039
728.296	0.0152599
728.374	0.0154238
728.453	0.0155096
728.531	0.0153530
728.609	0.0152225
728.687	0.0153727
728.765	0.0152362
728.843	0.0153609
728.921	0.0153868
728.999	0.0152245
729.078	0.0152753
729.156	0.0154057
729.234	0.0153300
729.312	0.0153184
729.390	0.0152856
729.468	0.0153499
729.546	0.0154362
729.624	0.0152400
729.703	0.0153558
729.781	0.0153577
729.859	0.0152438
729.937	0.0153040
730.015	0.0152531
730.093	0.0152020
730.171	0.0152462
730.249	0.0152070
730.328	0.0151746
730.406	0.0152511
730.484	0.0152641
730.562	0.0152036
730.640	0.0153944
730.718	0.0154719
730.796	0.0153291
730.874	0.0154050
730.953	0.0155695
731.031	0.0153516
731.109	0.0153505
731.187	0.0152939
731.265	0.0152509
731.343	0.0153210
731.421	0.0153094
731.499	0.0154165
731.578	0.0153291
731.656	0.0153741
731.734	0.0152320
731.812	0.0153750
731.890	0.0152882
731.968	0.0153492
732.046	0.0153676
732.124	0.0154002
732.203	0.0155065
732.281	0.0154107
732.359	0.0152929
732.437	0.0152940
732.515	0.0153717
732.593	0.0153838
732.671	0.0153662
732.749	0.0153768
732.828	0.0153540
732.906	0.0155569
732.984	0.0153693
733.062	0.0153179
733.140	0.0154673
733.218	0.0155044
733.296	0.0156017
733.374	0.0156054
733.453	0.0156671
733.531	0.0154993
733.609	0.0155553
733.687	0.0154938
733.765	0.0154385
733.843	0.0154530
733.921	0.0153905
733.999	0.0153746
734.078	0.0153627
734.156	0.0154186
734.234	0.0153244
734.312	0.0153424
734.390	0.0152968
734.468	0.0151997
734.546	0.0151637
734.624	0.0154102
734.703	0.0153397
734.781	0.0153687
734.859	0.0152113
734.937	0.0152551
735.015	0.0153817
735.093	0.0152364
735.171	0.0153571
735.249	0.0152551
735.328	0.0152786
735.406	0.0152760
735.484	0.0154177
735.562	0.0153268
735.640	0.0153378
735.718	0.0155046
735.796	0.0153895
735.874	0.0154787
735.953	0.0155092
736.031	0.0153642
736.109	0.0155687
736.187	0.0155527
736.265	0.0155183
736.343	0.0155131
736.421	0.0154409
736.499	0.0155415
736.578	0.0154655
736.656	0.0153899
736.734	0.0154724
736.812	0.0154452
736.890	0.0154130
736.968	0.0153982
737.046	0.0155154
737.124	0.0154813
737.203	0.0153376
737.281	0.0154813
737.359	0.0154581
737.437	0.0154702
737.515	0.0155396
737.593	0.0155933
737.671	0.0154909
737.749	0.0155392
737.828	0.0155331
737.906	0.0153535
737.984	0.0153288
738.062	0.0153402
738.140	0.0152937
738.218	0.0153073
738.296	0.0153297
738.374	0.0152497
738.453	0.0151890
738.531	0.0153229
738.609	0.0152012
738.687	0.0152415
738.765	0.0150874
738.843	0.0151222
738.921	0.0151476
738.999	0.0152783
739.078	0.0152830
739.156	0.0151935
739.234	0.0151457
739.312	0.0151194
739.390	0.0152231
739.468	0.0151983
739.546	0.0151398
739.624	0.0152517
739.703	0.0151093
739.781	0.0151176
739.859	0.0151505
739.937	0.0151387
740.015	0.0152169
740.093	0.0152467
740.171	0.0153484
740.249	0.0152885
740.328	0.0151918
740.406	0.0152582
740.484	0.0153101
740.562	0.0152361
740.640	0.0152840
740.718	0.0153059
740.796	0.0152615
740.874	0.0152553
740.953	0.0153524
741.031	0.0154375
741.109	0.0153446
741.187	0.0153531
741.265	0.0152453
741.343	0.0153757
741.421	0.0152055
741.499	0.0152905
741.578	0.0152101
741.656	0.0153272
741.734	0.0152822
741.812	0.0151874
741.890	0.0153286
741.968	0.0151933
742.046	0.0153040
742.124	0.0153315
742.203	0.0154263
742.281	0.0152129
742.359	0.0152613
742.437	0.0151319
742.515	0.0153972
742.593	0.0152626
742.671	0.0151694
742.749	0.0151605
742.828	0.0152594
742.906	0.0152193
742.984	0.0152859
743.062	0.0152780
743.140	0.0151998
743.218	0.0152048
743.296	0.0151315
743.374	0.0153490
743.453	0.0152493
743.531	0.0149953
743.609	0.0150312
743.687	0.0151701
743.765	0.0151192
743.843	0.0151553
743.921	0.0151427
743.999	0.0151183
744.078	0.0151571
744.156	0.0151392
744.234	0.0151389
744.312	0.0151806
744.390	0.0150274
744.468	0.0150076
744.546	0.0150864
744.624	0.0150655
744.703	0.0152519
744.781	0.0151309
744.859	0.0152755
744.937	0.0153046
745.015	0.0151921
745.093	0.0152740
745.171	0.0154042
745.249	0.0152437
745.328	0.0154316
745.406	0.0153297
745.484	0.0153467
745.562	0.0153860
745.640	0.0154259
745.718	0.0153922
745.796	0.0152891
745.874	0.0153395
745.953	0.0155307
746.031	0.0153921
746.109	0.0154326
746.187	0.0153500
746.265	0.0152824
746.343	0.0152779
746.421	0.0152809
746.499	0.0153893
746.578	0.0155159
746.656	0.0154057
746.734	0.0153926
746.812	0.0154284
746.890	0.0151366
746.968	0.0152939
747.046	0.0154276
747.124	0.0153888
747.203	0.0153767
747.281	0.0152494
747.359	0.0152768
747.437	0.0154204
747.515	0.0154611
747.593	0.0154633
747.671	0.0155354
747.749	0.0153372
747.828	0.0153703
747.906	0.0154811
747.984	0.0154268
748.062	0.0153416
748.140	0.0154489
748.218	0.0151661
748.296	0.0154142
748.374	0.0154261
748.453	0.0153252
748.531	0.0152636
748.609	0.0153358
748.687	0.0152827
748.765	0.0152477
748.843	0.0151450
748.921	0.0153327
748.999	0.0152882
749.078	0.0154447
749.156	0.0153543
749.234	0.0152434
749.312	0.0152808
749.390	0.0152698
749.468	0.0152390
749.546	0.0153376
749.624	0.0152258
749.703	0.0152341
749.781	0.0153160
749.859	0.0153714
749.937	0.0152728
750.015	0.0152477
750.093	0.0154072
750.171	0.0153585
750.249	0.0154085
750.328	0.0153076
750.406	0.0155555
750.484	0.0153457
750.562	0.0152559
750.640	0.0154186
750.718	0.0153957
750.796	0.0153940
750.874	0.0153945
750.953	0.0153958
751.031	0.0155087
751.109	0.0154330
751.187	0.0154424
751.265	0.0154298
751.343	0.0153528
751.421	0.0153370
751.499	0.0154289
751.578	0.0154296
751.656	0.0155247
751.734	0.0153783
751.812	0.0152798
751.890	0.0155407
751.968	0.0153279
752.046	0.0153139
752.124	0.0154403
752.203	0.0154263
752.281	0.0153500
752.359	0.0153439
752.437	0.0155189
752.515	0.0154736
752.593	0.0154136
752.671	0.0153484
752.749	0.0155132
752.828	0.0153588
752.906	0.0155162
752.984	0.0154147
753.062	0.0153725
753.140	0.0153671
753.218	0.0153828
753.296	0.0154642
753.374	0.0153214
753.453	0.0153237
753.531	0.0151454
753.609	0.0154069
753.687	0.0152522
753.765	0.0152535
753.843	0.0152273
753.921	0.0153157
753.999	0.0151973
754.078	0.0151919
754.156	0.0152933
754.234	0.0152146
754.312	0.0152327
754.390	0.0152755
754.468	0.0152425
754.546	0.0151483
754.624	0.0152883
754.703	0.0153533
754.781	0.0152910
754.859	0.0153728
754.937	0.0153065
755.015	0.0153128
755.093	0.0154504
755.171	0.0152982
755.249	0.0152154
755.328	0.0153555
755.406	0.0152260
755.484	0.0153228
755.562	0.0155111
755.640	0.0153523
755.718	0.0153138
755.796	0.0154655
755.874	0.0154005
755.953	0.0153412
756.031	0.0153789
756.109	0.0153629
756.187	0.0153057
756.265	0.0152411
756.343	0.0153213
756.421	0.0153737
756.499	0.0153518
756.578	0.0153511
756.656	0.0154130
756.734	0.0151868
756.812	0.0153744
756.890	0.0153683
756.968	0.0153303
757.046	0.0153601
757.124	0.0152907
757.203	0.0152275
757.281	0.0152856
757.359	0.0153299
757.437	0.0153239
757.515	0.0152126
757.593	0.0153048
757.671	0.0151936
757.749	0.0153252
757.828	0.0153141
757.906	0.0152502
757.984	0.0153239
758.062	0.0150852
758.140	0.0152534
758.218	0.0153542
758.296	0.0153098
758.374	0.0154023
758.453	0.0152681
758.531	0.0154179
758.609	0.0152296
758.687	0.0151714
758.765	0.0151913
758.843	0.0152761
758.921	0.0151660
758.999	0.0151710
759.078	0.0152661
759.156	0.0152269
759.234	0.0151686
759.312	0.0151923
759.390	0.0151169
759.468	0.0150509
759.546	0.0151768
759.624	0.0151591
759.703	0.0150755
759.781	0.0153084
759.859	0.0150946
759.937	0.0151566
760.015	0.0151577
760.093	0.0152420
760.171	0.0152198
760.249	0.0151671
760.328	0.0152065
760.406	0.0152041
760.484	0.0152241
760.562	0.0153616
760.640	0.0152940
760.718	0.0151548
760.796	0.0152429
760.874	0.0151279
760.953	0.0152803
761.031	0.0152446
761.109	0.0152402
761.187	0.0152345
761.265	0.0153797
761.343	0.0152718
761.421	0.0153661
761.499	0.0152304
761.578	0.0152943
761.656	0.0152519
761.734	0.0152451
761.812	0.0152830
761.890	0.0152411
761.968	0.0153360
762.046	0.0151079
762.124	0.0152457
762.203	0.0151440
762.281	0.0152876
762.359	0.0153010
762.437	0.0152071
762.515	0.0150961
762.593	0.0151255
762.671	0.0151457
762.749	0.0151949
762.828	0.0150900
762.906	0.0152045
762.984	0.0151971
763.062	0.0151977
763.140	0.0151408
763.218	0.0152608
763.296	0.0153284
763.374	0.0152057
763.453	0.0150564
763.531	0.0152165
763.609	0.0153101
763.687	0.0150719
763.765	0.0150133
763.843	0.0152380
763.921	0.0152917
763.999	0.0152679
764.078	0.0152235
764.156	0.0151173
764.234	0.0151495
764.312	0.0150636
764.390	0.0153159
764.468	0.0153025
764.546	0.0152145
764.624	0.0152666
764.703	0.0152267
764.781	0.0151773
764.859	0.0150997
764.937	0.0152382
765.015	0.0151765
765.093	0.0152608
765.171	0.0151601
765.249	0.0152357
765.328	0.0151855
765.406	0.0152032
765.484	0.0151252
765.562	0.0152928
765.640	0.0152816
765.718	0.0153918
765.796	0.0152327
765.874	0.0152940
765.953	0.0152998
766.031	0.0152720
766.109	0.0153474
766.187	0.0153750
766.265	0.0153831
766.343	0.0153539
766.421	0.0153444
766.499	0.0154856
766.578	0.0153666
766.656	0.0153836
766.734	0.0153343
766.812	0.0154469
766.890	0.0153627
766.968	0.0153258
767.046	0.0154838
767.124	0.0154163
767.203	0.0153681
767.281	0.0153687
767.359	0.0154455
767.437	0.0154608
767.515	0.0154705
767.593	0.0154457
767.671	0.0153917
767.749	0.0154502
767.828	0.0153612
767.906	0.0153222
767.984	0.0154711
768.062	0.0155081
768.140	0.0154279
768.218	0.0155372
768.296	0.0155495
768.374	0.0153173
768.453	0.0155300
768.531	0.0153542
768.609	0.0154023
768.687	0.0153843
768.765	0.0154152
768.843	0.0154056
768.921	0.0154160
768.999	0.0153938
769.078	0.0155059
769.156	0.0155170
769.234	0.0153370
769.312	0.0154021
769.390	0.0153297
769.468	0.0154270
769.546	0.0153997
769.624	0.0153239
769.703	0.0153876
769.781	0.0153226
769.859	0.0154354
769.937	0.0154864
770.015	0.0153403
770.093	0.0154485
770.171	0.0154993
770.249	0.0153397
770.328	0.0153194
770.406	0.0154103
770.484	0.0154125
770.562	0.0154727
770.640	0.0155181
770.718	0.0153873
770.796	0.0154912
770.874	0.0154753
770.953	0.0154349
771.031	0.0156258
771.109	0.0154695
771.187	0.0153728
771.265	0.0153849
771.343	0.0154091
771.421	0.0153289
771.499	0.0154253
771.578	0.0154031
771.656	0.0153748
771.734	0.0155167
771.812	0.0153672
771.890	0.0153925
771.968	0.0154266
772.046	0.0153935
772.124	0.0153327
772.203	0.0154165
772.281	0.0153320
772.359	0.0153252
772.437	0.0152859
772.515	0.0152980
772.593	0.0154640
772.671	0.0153766
772.749	0.0151983
772.828	0.0153358
772.906	0.0153844
772.984	0.0153399
773.062	0.0152930
773.140	0.0152413
773.218	0.0152290
773.296	0.0153278
773.374	0.0153269
773.453	0.0154127
773.531	0.0154067
773.609	0.0152882
773.687	0.0151174
773.765	0.0152727
773.843	0.0153806
773.921	0.0152858
773.999	0.0153569
774.078	0.0152551
774.156	0.0153427
774.234	0.0153954
774.312	0.0153969
774.390	0.0153394
774.468	0.0154220
774.546	0.0154812
774.624	0.0155058
774.703	0.0154340
774.781	0.0152274
774.859	0.0153671
774.937	0.0152946
775.015	0.0152620
775.093	0.0153395
775.171	0.0151653
775.249	0.0153687
775.328	0.0153136
775.406	0.0151936
775.484	0.0152047
775.562	0.0153978
775.640	0.0153943
775.718	0.0150914
775.796	0.0152135
775.874	0.0153452
775.953	0.0153635
776.031	0.0152850
776.109	0.0152601
776.187	0.0152562
776.265	0.0154762
776.343	0.0154401
776.421	0.0154388
776.499	0.0153685
776.578	0.0153986
776.656	0.0154258
776.734	0.0154108
776.812	0.0153954
776.890	0.0153519
776.968	0.0154334
777.046	0.0152897
777.124	0.0154053
777.203	0.0152204
777.281	0.0152380
777.359	0.0152766
777.437	0.0153416
777.515	0.0152596
777.593	0.0152322
777.671	0.0151609
777.749	0.0152070
777.828	0.0151930
777.906	0.0152104
777.984	0.0152881
778.062	0.0152528
778.140	0.0152833
778.218	0.0153398
778.296	0.0153481
778.374	0.0152638
778.453	0.0153377
778.531	0.0153995
778.609	0.0152223
778.687	0.0152882
778.765	0.0152464
778.843	0.0152650
778.921	0.0152177
778.999	0.0152708
779.078	0.0151223
779.156	0.0152269
779.234	0.0151828
779.312	0.0151196
779.390	0.0151539
779.468	0.0151873
779.546	0.0153088
779.624	0.0153438
779.703	0.0152100
779.781	0.0153234
779.859	0.0153493
779.937	0.0152852
780.015	0.0153284
780.093	0.0153370
780.171	0.0154254
780.249	0.0153483
780.328	0.0152837
780.406	0.0152676
780.484	0.0153653
780.562	0.0151762
780.640	0.0150853
780.718	0.0152852
780.796	0.0153259
780.874	0.0151785
780.953	0.0151306
781.031	0.0149512
781.109	0.0150677
781.187	0.0151942
781.265	0.0151103
781.343	0.0152322
781.421	0.0152551
781.499	0.0152406
781.578	0.0152611
781.656	0.0153062
781.734	0.0152942
781.812	0.0152382
781.890	0.0153812
781.968	0.0153487
782.046	0.0153135
782.124	0.0152692
782.203	0.0153266
782.281	0.0152864
782.359	0.0151911
782.437	0.0151582
782.515	0.0152034
782.593	0.0151653
782.671	0.0150948
782.749	0.0151395
782.828	0.0150986
782.906	0.0151299
782.984	0.0153590
783.062	0.0152398
783.140	0.0151908
783.218	0.0151917
783.296	0.0153340
783.374	0.0153497
783.453	0.0154113
783.531	0.0152186
783.609	0.0153481
783.687	0.0152903
783.765	0.0152149
783.843	0.0152515
783.921	0.0152748
783.999	0.0152735
784.078	0.0152255
784.156	0.0152288
784.234	0.0152947
784.312	0.0152125
784.390	0.0153145
784.468	0.0153709
784.546	0.0153685
784.624	0.0154899
784.703	0.0154833
784.781	0.0152850
784.859	0.0155276
784.937	0.0153601
785.015	0.0154057
785.093	0.0154047
785.171	0.0152596
785.249	0.0153690
785.328	0.0154526
785.406	0.0152325
785.484	0.0152465
785.562	0.0153574
785.640	0.0153815
785.718	0.0151358
785.796	0.0151946
785.874	0.0151709
785.953	0.0153136
786.031	0.0152336
786.109	0.0152697
786.187	0.0151983
786.265	0.0151601
786.343	0.0151465
786.421	0.0151943
786.499	0.0152496
786.578	0.0151028
786.656	0.0151830
786.734	0.0153217
786.812	0.0152654
786.890	0.0151897
786.968	0.0153088
787.046	0.0152496
787.124	0.0153061
787.203	0.0152796
787.281	0.0152862
787.359	0.0152018
787.437	0.0151340
787.515	0.0152972
787.593	0.0152643
787.671	0.0151881
787.749	0.0150715
787.828	0.0151308
787.906	0.0151227
787.984	0.0152777
788.062	0.0151393
788.140	0.0150911
788.218	0.0152355
788.296	0.0152018
788.374	0.0152525
788.453	0.0152248
788.531	0.0153234
788.609	0.0153509
788.687	0.0152617
788.765	0.0152233
788.843	0.0152469
788.921	0.0153568
788.999	0.0152220
789.078	0.0151646
789.156	0.0152516
789.234	0.0152303
789.312	0.0153351
789.390	0.0153208
789.468	0.0152117
789.546	0.0150837
789.624	0.0153210
789.703	0.0152160
789.781	0.0153160
789.859	0.0152570
789.937	0.0153809
790.015	0.0153568
790.093	0.0151814
790.171	0.0152706
790.249	0.0153377
790.328	0.0153070
790.406	0.0154584
790.484	0.0154349
790.562	0.0152804
790.640	0.0153017
790.718	0.0152446
790.796	0.0152164
790.874	0.0152893
790.953	0.0154274
791.031	0.0153450
791.109	0.0153597
791.187	0.0153001
791.265	0.0152534
791.343	0.0153432
791.421	0.0152670
791.499	0.0154426
791.578	0.0154439
791.656	0.0152606
791.734	0.0152895
791.812	0.0153054
791.890	0.0153687
791.968	0.0154173
792.046	0.0154562
792.124	0.0154458
792.203	0.0153442
792.281	0.0155102
792.359	0.0153681
792.437	0.0155261
792.515	0.0154534
792.593	0.0154004
792.671	0.0155157
792.749	0.0154381
792.828	0.0154575
792.906	0.0153919
792.984	0.0152986
793.062	0.0153787
793.140	0.0153728
793.218	0.0153615
793.296	0.0153681
793.374	0.0153020
793.453	0.0151268
793.531	0.0152153
793.609	0.0153205
793.687	0.0154363
793.765	0.0153443
793.843	0.0153223
793.921	0.0152773
793.999	0.0154158
794.078	0.0153577
794.156	0.0153163
794.234	0.0154420
794.312	0.0153558
794.390	0.0155197
794.468	0.0153339
794.546	0.0155433
794.624	0.0154012
794.703	0.0154568
794.781	0.0156599
794.859	0.0153636
794.937	0.0154517
795.015	0.0155805
795.093	0.0156200
795.171	0.0156007
795.249	0.0155401
795.328	0.0155673
795.406	0.0156325
795.484	0.0155547
795.562	0.0154461
795.640	0.0154568
795.718	0.0154508
795.796	0.0154447
795.874	0.0154521
795.953	0.0154240
796.031	0.0154362
796.109	0.0154579
796.187	0.0152859
796.265	0.0153955
796.343	0.0154179
796.421	0.0154812
796.499	0.0153550
796.578	0.0152928
796.656	0.0152661
796.734	0.0153036
796.812	0.0154574
796.890	0.0154738
796.968	0.0152690
797.046	0.0152977
797.124	0.0153787
797.203	0.0153519
797.281	0.0153708
797.359	0.0154196
797.437	0.0153181
797.515	0.0154063
797.593	0.0154754
797.671	0.0155565
797.749	0.0153227
797.828	0.0153522
797.906	0.0153974
797.984	0.0156204
798.062	0.0152718
798.140	0.0154273
798.218	0.0153863
798.296	0.0153508
798.374	0.0152232
798.453	0.0154080
798.531	0.0154969
798.609	0.0153683
798.687	0.0154877
798.765	0.0152463
798.843	0.0152017
798.921	0.0153644
798.999	0.0153257
799.078	0.0153368
799.156	0.0152847
799.234	0.0153838
799.312	0.0154597
799.390	0.0154163
799.468	0.0153711
799.546	0.0154586
799.624	0.0153397
799.703	0.0154459
799.781	0.0154247
799.859	0.0153912
799.937	0.0152996
800.015	0.0154461
800.093	0.0154403
800.171	0.0153151
800.249	0.0153992
800.328	0.0153707
800.406	0.0153593
800.484	0.0154434
800.562	0.0153050
800.640	0.0153425
800.718	0.0153818
800.796	0.0153687
800.874	0.0154569
800.953	0.0153280
801.031	0.0153425
801.109	0.0153052
801.187	0.0153264
801.265	0.0155180
801.343	0.0153790
801.421	0.0154519
801.499	0.0153951
801.578	0.0152985
801.656	0.0152513
801.734	0.0152058
801.812	0.0151890
801.890	0.0153490
801.968	0.0154696
802.046	0.0153121
802.124	0.0152765
802.203	0.0151839
802.281	0.0153159
802.359	0.0153913
802.437	0.0154580
802.515	0.0153183
802.593	0.0153172
802.671	0.0152506
802.749	0.0153123
802.828	0.0152499
802.906	0.0154801
802.984	0.0154669
803.062	0.0152464
803.140	0.0153439
803.218	0.0154137
803.296	0.0154482
803.374	0.0153857
803.453	0.0153598
803.531	0.0154669
803.609	0.0154382
803.687	0.0154871
803.765	0.0155215
803.843	0.0155743
803.921	0.0154975
803.999	0.0154013
804.078	0.0153838
804.156	0.0152822
804.234	0.0154649
804.312	0.0154008
804.390	0.0154662
804.468	0.0154677
804.546	0.0154120
804.624	0.0154136
804.703	0.0152966
804.781	0.0154702
804.859	0.0153378
804.937	0.0154032
805.015	0.0153292
805.093	0.0153162
805.171	0.0152818
805.249	0.0153273
805.328	0.0152435
805.406	0.0152722
805.484	0.0152702
805.562	0.0151678
805.640	0.0151958
805.718	0.0152294
805.796	0.0152801
805.874	0.0152058
805.953	0.0153267
806.031	0.0152784
806.109	0.0153453
806.187	0.0152701
806.265	0.0153296
806.343	0.0153053
806.421	0.0153125
806.499	0.0153587
806.578	0.0153259
806.656	0.0153427
806.734	0.0153643
806.812	0.0154666
806.890	0.0153222
806.968	0.0153342
807.046	0.0153704
807.124	0.0152473
807.203	0.0153802
807.281	0.0154186
807.359	0.0154314
807.437	0.0154279
807.515	0.0153980
807.593	0.0153127
807.671	0.0154216
807.749	0.0153048
807.828	0.0152563
807.906	0.0153233
807.984	0.0153937
808.062	0.0152959
808.140	0.0153883
808.218	0.0153680
808.296	0.0153111
808.374	0.0153716
808.453	0.0152937
808.531	0.0153874
808.609	0.0153093
808.687	0.0152848
808.765	0.0152554
808.843	0.0154164
808.921	0.0155487
808.999	0.0153378
809.078	0.0152484
809.156	0.0153286
809.234	0.0152798
809.312	0.0154501
809.390	0.0152363
809.468	0.0152821
809.546	0.0153902
809.624	0.0153211
809.703	0.0152576
809.781	0.0153691
809.859	0.0152946
809.937	0.0152551
810.015	0.0153323
810.093	0.0153307
810.171	0.0151852
810.249	0.0152361
810.328	0.0151932
810.406	0.0153920
810.484	0.0153471
810.562	0.0152559
810.640	0.0151801
810.718	0.0152756
810.796	0.0151991
810.874	0.0152296
810.953	0.0152117
811.031	0.0153029
811.109	0.0152541
811.187	0.0152109
811.265	0.0152589
811.343	0.0152239
811.421	0.0152591
811.499	0.0152001
811.578	0.0151422
811.656	0.0152641
811.734	0.0152613
811.812	0.0151611
811.890	0.0151984
811.968	0.0152349
812.046	0.0153737
812.124	0.0153048
812.203	0.0151933
812.281	0.0153797
812.359	0.0151958
812.437	0.0151998
812.515	0.0152396
812.593	0.0153579
812.671	0.0153296
812.749	0.0152736
812.828	0.0152744
812.906	0.0153038
812.984	0.0152631
813.062	0.0152075
813.140	0.0153247
813.218	0.0153339
813.296	0.0152765
813.374	0.0152660
813.453	0.0152709
813.531	0.0152663
813.609	0.0151814
813.687	0.0151913
813.765	0.0152291
813.843	0.0152477
813.921	0.0153056
813.999	0.0153246
814.078	0.0153191
814.156	0.0153123
814.234	0.0153877
814.312	0.0152191
814.390	0.0151595
814.468	0.0152711
814.546	0.0153697
814.624	0.0153291
814.703	0.0153152
814.781	0.0153600
814.859	0.0154166
814.937	0.0154090
815.015	0.0152390
815.093	0.0152351
815.171	0.0153764
815.249	0.0154139
815.328	0.0153784
815.406	0.0153659
815.484	0.0154007
815.562	0.0154575
815.640	0.0154775
815.718	0.0155358
815.796	0.0154130
815.874	0.0153987
815.953	0.0154374
816.031	0.0155789
816.109	0.0154540
816.187	0.0154197
816.265	0.0153542
816.343	0.0154760
816.421	0.0154655
816.499	0.0154283
816.578	0.0154491
816.656	0.0154638
816.734	0.0155109
816.812	0.0155106
816.890	0.0155511
816.968	0.0156270
817.046	0.0155197
817.124	0.0155540
817.203	0.0155677
817.281	0.0155328
817.359	0.0155090
817.437	0.0154599
817.515	0.0154129
817.593	0.0156482
817.671	0.0155653
817.749	0.0153412
817.828	0.0153725
817.906	0.0151650
817.984	0.0155107
818.062	0.0154622
818.140	0.0153698
818.218	0.0153803
818.296	0.0153649
818.374	0.0153153
818.453	0.0153775
818.531	0.0154016
818.609	0.0154414
818.687	0.0153910
818.765	0.0152976
818.843	0.0154652
818.921	0.0154122
818.999	0.0153219
819.078	0.0154544
819.156	0.0154664
819.234	0.0155402
819.312	0.0155825
819.390	0.0154440
819.468	0.0154299
819.546	0.0154408
819.624	0.0155603
819.703	0.0155228
819.781	0.0155206
819.859	0.0156628
819.937	0.0153687
820.015	0.0154626
820.093	0.0152992
820.171	0.0154122
820.249	0.0154623
820.328	0.0154284
820.406	0.0153738
820.484	0.0154388
820.562	0.0153921
820.640	0.0154218
820.718	0.0155487
820.796	0.0154049
820.874	0.0154329
820.953	0.0155560
821.031	0.0154734
821.109	0.0153752
821.187	0.0154134
821.265	0.0153351
821.343	0.0154246
821.421	0.0154862
821.499	0.0154407
821.578	0.0153851
821.656	0.0154790
821.734	0.0154156
821.812	0.0153483
821.890	0.0155024
821.968	0.0155123
822.046	0.0154707
822.124	0.0154330
822.203	0.0154871
822.281	0.0154275
822.359	0.0156120
822.437	0.0154893
822.515	0.0154528
822.593	0.0154067
822.671	0.0154518
822.749	0.0156438
822.828	0.0155401
822.906	0.0156082
822.984	0.0153713
823.062	0.0154050
823.140	0.0152468
823.218	0.0153091
823.296	0.0154519
823.374	0.0155092
823.453	0.0154099
823.531	0.0153893
823.609	0.0154483
823.687	0.0154326
823.765	0.0153484
823.843	0.0154606
823.921	0.0154265
823.999	0.0154784
824.078	0.0154556
824.156	0.0152772
824.234	0.0153692
824.312	0.0153813
824.390	0.0154862
824.468	0.0154159
824.546	0.0153072
824.624	0.0155328
824.703	0.0155125
824.781	0.0153803
824.859	0.0154127
824.937	0.0154765
825.015	0.0154057
825.093	0.0154195
825.171	0.0153877
825.249	0.0153625
825.328	0.0153609
825.406	0.0153609
825.484	0.0153967
825.562	0.0154309
825.640	0.0154002
825.718	0.0154780
825.796	0.0152610
825.874	0.0152560
825.953	0.0153406
826.031	0.0153458
826.109	0.0152473
826.187	0.0154782
826.265	0.0152946
826.343	0.0153106
826.421	0.0153579
826.499	0.0153474
826.578	0.0155207
826.656	0.0153808
826.734	0.0154191
826.812	0.0153891
826.890	0.0153777
826.968	0.0154017
827.046	0.0153757
827.124	0.0153973
827.203	0.0154276
827.281	0.0153336
827.359	0.0152604
827.437	0.0153794
827.515	0.0152538
827.593	0.0152582
827.671	0.0153305
827.749	0.0153511
827.828	0.0152274
827.906	0.0151546
827.984	0.0150858
828.062	0.0153721
828.140	0.0152650
828.218	0.0153517
828.296	0.0154745
828.374	0.0154972
828.453	0.0153271
828.531	0.0152373
828.609	0.0152116
828.687	0.0152365
828.765	0.0154513
828.843	0.0153185
828.921	0.0153528
828.999	0.0154148
829.078	0.0152601
829.156	0.0153214
829.234	0.0153867
829.312	0.0153149
829.390	0.0153281
829.468	0.0153848
829.546	0.0152479
829.624	0.0153880
829.703	0.0153897
829.781	0.0153617
829.859	0.0152499
829.937	0.0151731
830.015	0.0153527
830.093	0.0154181
830.171	0.0153172
830.249	0.0152593
830.328	0.0152888
830.406	0.0153717
830.484	0.0151610
830.562	0.0152518
830.640	0.0153111
830.718	0.0153474
830.796	0.0152489
830.874	0.0152792
830.953	0.0152589
831.031	0.0153628
831.109	0.0154416
831.187	0.0154288
831.265	0.0151868
831.343	0.0152813
831.421	0.0153426
831.499	0.0152652
831.578	0.0152795
831.656	0.0151785
831.734	0.0152929
831.812	0.0153078
831.890	0.0152829
831.968	0.0153970
832.046	0.0153037
832.124	0.0151372
832.203	0.0152927
832.281	0.0153471
832.359	0.0153641
832.437	0.0152934
832.515	0.0153070
832.593	0.0153432
832.671	0.0152545
832.749	0.0151549
832.828	0.0153530
832.906	0.0152377
832.984	0.0150423
833.062	0.0152688
833.140	0.0152673
833.218	0.0151918
833.296	0.0153144
833.374	0.0152734
833.453	0.0152632
833.531	0.0153500
833.609	0.0154691
833.687	0.0153236
833.765	0.0152820
833.843	0.0153881
833.921	0.0153109
833.999	0.0153178
834.078	0.0153912
834.156	0.0152398
834.234	0.0153331
834.312	0.0154517
834.390	0.0152757
834.468	0.0152097
834.546	0.0152169
834.624	0.0152287
834.703	0.0153631
834.781	0.0152184
834.859	0.0153384
834.937	0.0152788
835.015	0.0152431
835.093	0.0153192
835.171	0.0152576
835.249	0.0151411
835.328	0.0152570
835.406	0.0152805
835.484	0.0152514
835.562	0.0152442
835.640	0.0153385
835.718	0.0153135
835.796	0.0152804
835.874	0.0153672
835.953	0.0152337
836.031	0.0153694
836.109	0.0153689
836.187	0.0154035
836.265	0.0152797
836.343	0.0152700
836.421	0.0153363
836.499	0.0153249
836.578	0.0153036
836.656	0.0153279
836.734	0.0152750
836.812	0.0152525
836.890	0.0153349
836.968	0.0152715
837.046	0.0151225
837.124	0.0151778
837.203	0.0151716
837.281	0.0153014
837.359	0.0153312
837.437	0.0153098
837.515	0.0154395
837.593	0.0152277
837.671	0.0152127
837.749	0.0152645
837.828	0.0152333
837.906	0.0152010
837.984	0.0152115
838.062	0.0153312
838.140	0.0152347
838.218	0.0151354
838.296	0.0153040
838.374	0.0151881
838.453	0.0152339
838.531	0.0154237
838.609	0.0153398
838.687	0.0153536
838.765	0.0153493
838.843	0.0152820
838.921	0.0154028
838.999	0.0152644
839.078	0.0152971
839.156	0.0153387
839.234	0.0154153
839.312	0.0152261
839.390	0.0152966
839.468	0.0150806
839.546	0.0153876
839.624	0.0151852
839.703	0.0152334
839.781	0.0152311
839.859	0.0152886
839.937	0.0151562
840.015	0.0151886
840.093	0.0153936
840.171	0.0153562
840.249	0.0151995
840.328	0.0154033
840.406	0.0153219
840.484	0.0153728
840.562	0.0153936
840.640	0.0154421
840.718	0.0153408
840.796	0.0153920
840.874	0.0152975
840.953	0.0154389
841.031	0.0155447
841.109	0.0152687
841.187	0.0153545
841.265	0.0153848
841.343	0.0155237
841.421	0.0154041
841.499	0.0152771
841.578	0.0154609
841.656	0.0152966
841.734	0.0153838
841.812	0.0154011
841.890	0.0153126
841.968	0.0152744
842.046	0.0153558
842.124	0.0152987
842.203	0.0150903
842.281	0.0152103
842.359	0.0153378
842.437	0.0152908
842.515	0.0153045
842.593	0.0153139
842.671	0.0152490
842.749	0.0151447
842.828	0.0152727
842.906	0.0153947
842.984	0.0153387
843.062	0.0153119
843.140	0.0153728
843.218	0.0154615
843.296	0.0153236
843.374	0.0153689
843.453	0.0154553
843.531	0.0154168
843.609	0.0153642
843.687	0.0152861
843.765	0.0153699
843.843	0.0154647
843.921	0.0155184
843.999	0.0153150
844.078	0.0152825
844.156	0.0152946
844.234	0.0152523
844.312	0.0154004
844.390	0.0153988
844.468	0.0153067
844.546	0.0153996
844.624	0.0153661
844.703	0.0153086
844.781	0.0152328
844.859	0.0153531
844.937	0.0152071
845.015	0.0153423
845.093	0.0153649
845.171	0.0154601
845.249	0.0154887
845.328	0.0152635
845.406	0.0154740
845.484	0.0154550
845.562	0.0153417
845.640	0.0153880
845.718	0.0154873
845.796	0.0153738
845.874	0.0154461
845.953	0.0154544
846.031	0.0154716
846.109	0.0155338
846.187	0.0153770
846.265	0.0153522
846.343	0.0153869
846.421	0.0155239
846.499	0.0155099
846.578	0.0155872
846.656	0.0153909
846.734	0.0152413
846.812	0.0153272
846.890	0.0154702
846.968	0.0153934
847.046	0.0154733
847.124	0.0155252
847.203	0.0154093
847.281	0.0153349
847.359	0.0153793
847.437	0.0153507
847.515	0.0155663
847.593	0.0154449
847.671	0.0154278
847.749	0.0153658
847.828	0.0153953
847.906	0.0152873
847.984	0.0153145
848.062	0.0154272
848.140	0.0153164
848.218	0.0153077
848.296	0.0154206
848.374	0.0153642
848.453	0.0153188
848.531	0.0152782
848.609	0.0153802
848.687	0.0152318
848.765	0.0154259
848.843	0.0153945
848.921	0.0154115
848.999	0.0152490
849.078	0.0152449
849.156	0.0154269
849.234	0.0152853
849.312	0.0152978
849.390	0.0152535
849.468	0.0154340
849.546	0.0153002
849.624	0.0153632
849.703	0.0153642
849.781	0.0153214
849.859	0.0153928
849.937	0.0154333
850.015	0.0154525
850.093	0.0154411
850.171	0.0154762
850.249	0.0155184
850.328	0.0155243
850.406	0.0153288
850.484	0.0153532
850.562	0.0155275
850.640	0.0154198
850.718	0.0154208
850.796	0.0153442
850.874	0.0154179
850.953	0.0154691
851.031	0.0153179
851.109	0.0153431
851.187	0.0153472
851.265	0.0151414
851.343	0.0152329
851.421	0.0152750
851.499	0.0154585
851.578	0.0152551
851.656	0.0153194
851.734	0.0152124
851.812	0.0152326
851.890	0.0152690
851.968	0.0152407
852.046	0.0154044
852.124	0.0152744
852.203	0.0151543
852.281	0.0152908
852.359	0.0153286
852.437	0.0152839
852.515	0.0152866
852.593	0.0154142
852.671	0.0153356
852.749	0.0154414
852.828	0.0153395
852.906	0.0153215
852.984	0.0153318
853.062	0.0152314
853.140	0.0152210
853.218	0.0152412
853.296	0.0152973
853.374	0.0152814
853.453	0.0152958
853.531	0.0151733
853.609	0.0152046
853.687	0.0153954
853.765	0.0152203
853.843	0.0152876
853.921	0.0152961
853.999	0.0154126
854.078	0.0153050
854.156	0.0153365
854.234	0.0153296
854.312	0.0153685
854.390	0.0151987
854.468	0.0153852
854.546	0.0151978
854.624	0.0152900
854.703	0.0153366
854.781	0.0153230
854.859	0.0153790
854.937	0.0153091
855.015	0.0151865
855.093	0.0153426
855.171	0.0152479
855.249	0.0152979
855.328	0.0153758
855.406	0.0153646
855.484	0.0152894
855.562	0.0152782
855.640	0.0153705
855.718	0.0153774
855.796	0.0153036
855.874	0.0154528
855.953	0.0153715
856.031	0.0153070
856.109	0.0154189
856.187	0.0154237
856.265	0.0152769
856.343	0.0152242
856.421	0.0154891
856.499	0.0154160
856.578	0.0153065
856.656	0.0152107
856.734	0.0152762
856.812	0.0152299
856.890	0.0153043
856.968	0.0153415
857.046	0.0154339
857.124	0.0153159
857.203	0.0152875
857.281	0.0152792
857.359	0.0154069
857.437	0.0154144
857.515	0.0152993
857.593	0.0152206
857.671	0.0152498
857.749	0.0154539
857.828	0.0155106
857.906	0.0153313
857.984	0.0153074
858.062	0.0154198
858.140	0.0154011
858.218	0.0153423
858.296	0.0152819
858.374	0.0152503
858.453	0.0155022
858.531	0.0153934
858.609	0.0152060
858.687	0.0154684
858.765	0.0155125
858.843	0.0152645
858.921	0.0153757
858.999	0.0153672
859.078	0.0154402
859.156	0.0152041
859.234	0.0152323
859.312	0.0151934
859.390	0.0152902
859.468	0.0152934
859.546	0.0153580
859.624	0.0153223
859.703	0.0152682
859.781	0.0151947
859.859	0.0153714
859.937	0.0153237
860.015	0.0152288
860.093	0.0151797
860.171	0.0153188
860.249	0.0152862
860.328	0.0153687
860.406	0.0151424
860.484	0.0152348
860.562	0.0151521
860.640	0.0153884
860.718	0.0154076
860.796	0.0153091
860.874	0.0151736
860.953	0.0151508
861.031	0.0152532
861.109	0.0152978
861.187	0.0152086
861.265	0.0152863
861.343	0.0152113
861.421	0.0152185
861.499	0.0151897
861.578	0.0153692
861.656	0.0154113
861.734	0.0152803
861.812	0.0152704
861.890	0.0152770
861.968	0.0151553
862.046	0.0152474
862.124	0.0153759
862.203	0.0152802
862.281	0.0152242
862.359	0.0152111
862.437	0.0152904
862.515	0.0152974
862.593	0.0152614
862.671	0.0153296
862.749	0.0153194
862.828	0.0152421
862.906	0.0153562
862.984	0.0152646
863.062	0.0153953
863.140	0.0153155
863.218	0.0153052
863.296	0.0153821
863.374	0.0153383
863.453	0.0152638
863.531	0.0152315
863.609	0.0151639
863.687	0.0152583
863.765	0.0152842
863.843	0.0152177
863.921	0.0152341
863.999	0.0152634
864.078	0.0153945
864.156	0.0153465
864.234	0.0152586
864.312	0.0152550
864.390	0.0152457
864.468	0.0151482
864.546	0.0152595
864.624	0.0152542
864.703	0.0152255
864.781	0.0152739
864.859	0.0152420
864.937	0.0153009
865.015	0.0152543
865.093	0.0152890
865.171	0.0152882
865.249	0.0152927
865.328	0.0154660
865.406	0.0153264
865.484	0.0152856
865.562	0.0154764
865.640	0.0152492
865.718	0.0152466
865.796	0.0153477
865.874	0.0153183
865.953	0.0153509
866.031	0.0154133
866.109	0.0153078
866.187	0.0153445
866.265	0.0153686
866.343	0.0153495
866.421	0.0154526
866.499	0.0153917
866.578	0.0154415
866.656	0.0154198
866.734	0.0153290
866.812	0.0153843
866.890	0.0154177
866.968	0.0154687
867.046	0.0154652
867.124	0.0154652
867.203	0.0153929
867.281	0.0153416
867.359	0.0153673
867.437	0.0154410
867.515	0.0153295
867.593	0.0153548
867.671	0.0152930
867.749	0.0153853
867.828	0.0153041
867.906	0.0153745
867.984	0.0155379
868.062	0.0154477
868.140	0.0153719
868.218	0.0154722
868.296	0.0154033
868.374	0.0154390
868.453	0.0154750
868.531	0.0153396
868.609	0.0154071
868.687	0.0154803
868.765	0.0155422
868.843	0.0152908
868.921	0.0154131
868.999	0.0153379
869.078	0.0154853
869.156	0.0154419
869.234	0.0154117
869.312	0.0154286
869.390	0.0153725
869.468	0.0153759
869.546	0.0155061
869.624	0.0153472
869.703	0.0153155
869.781	0.0153479
869.859	0.0154595
869.937	0.0155956
870.015	0.0152698
870.093	0.0153302
870.171	0.0153580
870.249	0.0153313
870.328	0.0153335
870.406	0.0154189
870.484	0.0152832
870.562	0.0151560
870.640	0.0153043
870.718	0.0154607
870.796	0.0153678
870.874	0.0154669
870.953	0.0153827
871.031	0.0153614
871.109	0.0152588
871.187	0.0153343
871.265	0.0154375
871.343	0.0153001
871.421	0.0153764
871.499	0.0154617
871.578	0.0153159
871.656	0.0153887
871.734	0.0154137
871.812	0.0152116
871.890	0.0152856
871.968	0.0152013
872.046	0.0153183
872.124	0.0154063
872.203	0.0154107
872.281	0.0152715
872.359	0.0153779
872.437	0.0153274
872.515	0.0152666
872.593	0.0153880
872.671	0.0150978
872.749	0.0152992
872.828	0.0153555
872.906	0.0150868
872.984	0.0151751
873.062	0.0153082
873.140	0.0150661
873.218	0.0150920
873.296	0.0153445
873.374	0.0152112
873.453	0.0153629
873.531	0.0153405
873.609	0.0151200
873.687	0.0153194
873.765	0.0151880
873.843	0.0152567
873.921	0.0153582
873.999	0.0153148
874.078	0.0153449
874.156	0.0153424
874.234	0.0153215
874.312	0.0153289
874.390	0.0153468
874.468	0.0153268
874.546	0.0154220
874.624	0.0153353
874.703	0.0153748
874.781	0.0154201
874.859	0.0152142
874.937	0.0153068
875.015	0.0153190
875.093	0.0153212
875.171	0.0152567
875.249	0.0155643
875.328	0.0153168
875.406	0.0152567
875.484	0.0153854
875.562	0.0152998
875.640	0.0152709
875.718	0.0153263
875.796	0.0152943
875.874	0.0151879
875.953	0.0152953
876.031	0.0153391
876.109	0.0152028
876.187	0.0153568
876.265	0.0154177
876.343	0.0155198
876.421	0.0151853
876.499	0.0151249
876.578	0.0152386
876.656	0.0152541
876.734	0.0154142
876.812	0.0154422
876.890	0.0154494
876.968	0.0153810
877.046	0.0153960
877.124	0.0154430
877.203	0.0153310
877.281	0.0152526
877.359	0.0152283
877.437	0.0152546
877.515	0.0153481
877.593	0.0152519
877.671	0.0154007
877.749	0.0152377
877.828	0.0152893
877.906	0.0152959
877.984	0.0152372
878.062	0.0153899
878.140	0.0151778
878.218	0.0152356
878.296	0.0154192
878.374	0.0154280
878.453	0.0153420
878.531	0.0152809
878.609	0.0152475
878.687	0.0152818
878.765	0.0152113
878.843	0.0152805
878.921	0.0154028
878.999	0.0153195
879.078	0.0154237
879.156	0.0153031
879.234	0.0154113
879.312	0.0153576
879.390	0.0152351
879.468	0.0152991
879.546	0.0155249
879.624	0.0153026
879.703	0.0154656
879.781	0.0154763
879.859	0.0153821
879.937	0.0152869
880.015	0.0152816
880.093	0.0154707
880.171	0.0153573
880.249	0.0151822
880.328	0.0152188
880.406	0.0152824
880.484	0.0152255
880.562	0.0153510
880.640	0.0153393
880.718	0.0152824
880.796	0.0152283
880.874	0.0153286
880.953	0.0151949
881.031	0.0153436
881.109	0.0153951
881.187	0.0153897
881.265	0.0153819
881.343	0.0153297
881.421	0.0153548
881.499	0.0153632
881.578	0.0153388
881.656	0.0154372
881.734	0.0154830
881.812	0.0153421
881.890	0.0153817
881.968	0.0153273
882.046	0.0152576
882.124	0.0152883
882.203	0.0152545
882.281	0.0153841
882.359	0.0153518
882.437	0.0153903
882.515	0.0153645
882.593	0.0154035
882.671	0.0153439
882.749	0.0153957
882.828	0.0153568
882.906	0.0153306
882.984	0.0154521
883.062	0.0154110
883.140	0.0153534
883.218	0.0154053
883.296	0.0154342
883.374	0.0153596
883.453	0.0154939
883.531	0.0153023
883.609	0.0153762
883.687	0.0153191
883.765	0.0153176
883.843	0.0152764
883.921	0.0152763
883.999	0.0152243
884.078	0.0154104
884.156	0.0153816
884.234	0.0152588
884.312	0.0152892
884.390	0.0153418
884.468	0.0153560
884.546	0.0152887
884.624	0.0153590
884.703	0.0153462
884.781	0.0151706
884.859	0.0152119
884.937	0.0151920
885.015	0.0154353
885.093	0.0156104
885.171	0.0153466
885.249	0.0152888
885.328	0.0152353
885.406	0.0153220
885.484	0.0152935
885.562	0.0152912
885.640	0.0154340
885.718	0.0152231
885.796	0.0152493
885.874	0.0152637
885.953	0.0153545
886.031	0.0154317
886.109	0.0153536
886.187	0.0154031
886.265	0.0152327
886.343	0.0151961
886.421	0.0152663
886.499	0.0153178
886.578	0.0151879
886.656	0.0152498
886.734	0.0152703
886.812	0.0152536
886.890	0.0151947
886.968	0.0153548
887.046	0.0152855
887.124	0.0153012
887.203	0.0152051
887.281	0.0154256
887.359	0.0153397
887.437	0.0151894
887.515	0.0153616
887.593	0.0152370
887.671	0.0154246
887.749	0.0153857
887.828	0.0152371
887.906	0.0153138
887.984	0.0153190
888.062	0.0153420
888.140	0.0153569
888.218	0.0153508
888.296	0.0153808
888.374	0.0154276
888.453	0.0154643
888.531	0.0153763
888.609	0.0154481
888.687	0.0153487
888.765	0.0152780
888.843	0.0153841
888.921	0.0153822
888.999	0.0153629
889.078	0.0152368
889.156	0.0153749
889.234	0.0154244
889.312	0.0153171
889.390	0.0153863
889.468	0.0154308
889.546	0.0153468
889.624	0.0153522
889.703	0.0154826
889.781	0.0153419
889.859	0.0153851
889.937	0.0153539
890.015	0.0153802
890.093	0.0154787
890.171	0.0155679
890.249	0.0154811
890.328	0.0154114
890.406	0.0154282
890.484	0.0154723
890.562	0.0154905
890.640	0.0154432
890.718	0.0155303
890.796	0.0154627
890.874	0.0153987
890.953	0.0153826
891.031	0.0154326
891.109	0.0155479
891.187	0.0154841
891.265	0.0153651
891.343	0.0154748
891.421	0.0153994
891.499	0.0154449
891.578	0.0155750
891.656	0.0154578
891.734	0.0154527
891.812	0.0153061
891.890	0.0154874
891.968	0.0153119
892.046	0.0152081
892.124	0.0155390
892.203	0.0154304
892.281	0.0154453
892.359	0.0153941
892.437	0.0154803
892.515	0.0153704
892.593	0.0153056
892.671	0.0153187
892.749	0.0153916
892.828	0.0152109
892.906	0.0153254
892.984	0.0154583
893.062	0.0154446
893.140	0.0153419
893.218	0.0153367
893.296	0.0154984
893.374	0.0153181
893.453	0.0154332
893.531	0.0154542
893.609	0.0155489
893.687	0.0154417
893.765	0.0153419
893.843	0.0152975
893.921	0.0154578
893.999	0.0154282
894.078	0.0153378
894.156	0.0153543
894.234	0.0153539
894.312	0.0154358
894.390	0.0153493
894.468	0.0153390
894.546	0.0153909
894.624	0.0154872
894.703	0.0154270
894.781	0.0152969
894.859	0.0153680
894.937	0.0153915
895.015	0.0153203
895.093	0.0152914
895.171	0.0154102
895.249	0.0152342
895.328	0.0152368
895.406	0.0151504
895.484	0.0152462
895.562	0.0152892
895.640	0.0152232
895.718	0.0153632
895.796	0.0153255
895.874	0.0152301
895.953	0.0153136
896.031	0.0152489
896.109	0.0153541
896.187	0.0152959
896.265	0.0152861
896.343	0.0151530
896.421	0.0152768
896.499	0.0152559
896.578	0.0153487
896.656	0.0152737
896.734	0.0152567
896.812	0.0153211
896.890	0.0153835
896.968	0.0153221
897.046	0.0154233
897.124	0.0152354
897.203	0.0152798
897.281	0.0152396
897.359	0.0155231
897.437	0.0153587
897.515	0.0152863
897.593	0.0152149
897.671	0.0152551
897.749	0.0152708
897.828	0.0152514
897.906	0.0153533
897.984	0.0152712
898.062	0.0151764
898.140	0.0152309
898.218	0.0153088
898.296	0.0152804
898.374	0.0153088
898.453	0.0153936
898.531	0.0154321
898.609	0.0152993
898.687	0.0152964
898.765	0.0154464
898.843	0.0154376
898.921	0.0154186
898.999	0.0154185
899.078	0.0154449
899.156	0.0154549
899.234	0.0154101
899.312	0.0153681
899.390	0.0153038
899.468	0.0153544
899.546	0.0152847
899.624	0.0153803
899.703	0.0153654
899.781	0.0152861
899.859	0.0153374
899.937	0.0153902
900.015	0.0152425
900.093	0.0154629
900.171	0.0153244
900.249	0.0154449
900.328	0.0154626
900.406	0.0154184
900.484	0.0153595
900.562	0.0153879
900.640	0.0153438
900.718	0.0153426
900.796	0.0153667
900.874	0.0154897
900.953	0.0154248
901.031	0.0154326
901.109	0.0153404
901.187	0.0152811
901.265	0.0154051
901.343	0.0153296
901.421	0.0154088
901.499	0.0153381
901.578	0.0153433
901.656	0.0152593
901.734	0.0152363
901.812	0.0154208
901.890	0.0152982
901.968	0.0152919
902.046	0.0153478
902.124	0.0153549
902.203	0.0153940
902.281	0.0154174
902.359	0.0153806
902.437	0.0152996
902.515	0.0154002
902.593	0.0153022
902.671	0.0153300
902.749	0.0151919
902.828	0.0152467
902.906	0.0153018
902.984	0.0151500
903.062	0.0153642
903.140	0.0151820
903.218	0.0152267
903.296	0.0152186
903.374	0.0152969
903.453	0.0152530
903.531	0.0151316
903.609	0.0152207
903.687	0.0152035
903.765	0.0152236
903.843	0.0152840
903.921	0.0152034
903.999	0.0151994
904.078	0.0152859
904.156	0.0152893
904.234	0.0152082
904.312	0.0151960
904.390	0.0152810
904.468	0.0152520
904.546	0.0153743
904.624	0.0154186
904.703	0.0153721
904.781	0.0151768
904.859	0.0152765
904.937	0.0153857
905.015	0.0153258
905.093	0.0152002
905.171	0.0152761
905.249	0.0153561
905.328	0.0152177
905.406	0.0152301
905.484	0.0150874
905.562	0.0152478
905.640	0.0151795
905.718	0.0151948
905.796	0.0153582
905.874	0.0152381
905.953	0.0151929
906.031	0.0152329
906.109	0.0153262
906.187	0.0152983
906.265	0.0153131
906.343	0.0152749
906.421	0.0152477
906.499	0.0152259
906.578	0.0154344
906.656	0.0153416
906.734	0.0151057
906.812	0.0153227
906.890	0.0152187
906.968	0.0153706
907.046	0.0152237
907.124	0.0153014
907.203	0.0153510
907.281	0.0153735
907.359	0.0152429
907.437	0.0153788
907.515	0.0152990
907.593	0.0151741
907.671	0.0152020
907.749	0.0153387
907.828	0.0153429
907.906	0.0151881
907.984	0.0151813
908.062	0.0152234
908.140	0.0153333
908.218	0.0152790
908.296	0.0152567
908.374	0.0152438
908.453	0.0152933
908.531	0.0151781
908.609	0.0153700
908.687	0.0152697
908.765	0.0153552
908.843	0.0152811
908.921	0.0152939
908.999	0.0153892
909.078	0.0152478
909.156	0.0152705
909.234	0.0153497
909.312	0.0153049
909.390	0.0152531
909.468	0.0152988
909.546	0.0152708
909.624	0.0154037
909.703	0.0153503
909.781	0.0152360
909.859	0.0153720
909.937	0.0154351
910.015	0.0153190
910.093	0.0152090
910.171	0.0154170
910.249	0.0154003
910.328	0.0153661
910.406	0.0153197
910.484	0.0154421
910.562	0.0152396
910.640	0.0152052
910.718	0.0152619
910.796	0.0153102
910.874	0.0154147
910.953	0.0151685
911.031	0.0152688
911.109	0.0151926
911.187	0.0152808
911.265	0.0152748
911.343	0.0152979
911.421	0.0153222
911.499	0.0152200
911.578	0.0151752
911.656	0.0152129
911.734	0.0154127
911.812	0.0152708
911.890	0.0152918
911.968	0.0153152
912.046	0.0153846
912.124	0.0152949
912.203	0.0152114
912.281	0.0153127
912.359	0.0153320
912.437	0.0151881
912.515	0.0152866
912.593	0.0152783
912.671	0.0154382
912.749	0.0152706
912.828	0.0152124
912.906	0.0152355
912.984	0.0153165
913.062	0.0153021
913.140	0.0153622
913.218	0.0152644
913.296	0.0152696
913.374	0.0152913
913.453	0.0152855
913.531	0.0151904
913.609	0.0151998
913.687	0.0152805
913.765	0.0152729
913.843	0.0153097
913.921	0.0152892
913.999	0.0153071
914.078	0.0153392
914.156	0.0153485
914.234	0.0152546
914.312	0.0151433
914.390	0.0154145
914.468	0.0153745
914.546	0.0152486
914.624	0.0153054
914.703	0.0153142
914.781	0.0153059
914.859	0.0153573
914.937	0.0152916
915.015	0.0154082
915.093	0.0153214
915.171	0.0153111
915.249	0.0154234
915.328	0.0153520
915.406	0.0152735
915.484	0.0153536
915.562	0.0153905
915.640	0.0152207
915.718	0.0153629
915.796	0.0152119
915.874	0.0152628
915.953	0.0152748
916.031	0.0151736
916.109	0.0153271
916.187	0.0153155
916.265	0.0153310
916.343	0.0152408
916.421	0.0152306
916.499	0.0153353
916.578	0.0152258
916.656	0.0152764
916.734	0.0153391
916.812	0.0152403
916.890	0.0154150
916.968	0.0154883
917.046	0.0153532
917.124	0.0152477
917.203	0.0153032
917.281	0.0154439
917.359	0.0153913
917.437	0.0153452
917.515	0.0153136
917.593	0.0153001
917.671	0.0152438
917.749	0.0152216
917.828	0.0153347
917.906	0.0153537
917.984	0.0153238
918.062	0.0152029
918.140	0.0151592
918.218	0.0152186
918.296	0.0153191
918.374	0.0153281
918.453	0.0151370
918.531	0.0152226
918.609	0.0151316
918.687	0.0150571
918.765	0.0151292
918.843	0.0151043
918.921	0.0151640
918.999	0.0153252
919.078	0.0152769
919.156	0.0151937
919.234	0.0151648
919.312	0.0153650
919.390	0.0152738
919.468	0.0152015
919.546	0.0152537
919.624	0.0152516
919.703	0.0151691
919.781	0.0151349
919.859	0.0153048
919.937	0.0153281
