05/06/2022	18:42:23	Ver.	4.1	UNKNOWN
Optical Delay	600.015094	Delta X		0.078125	Sweeps	1	Scan Rate	0/0
Coordinates	Axis 1	NaN	Axis 2	NaN	Axis 3	NaN	Axis 4	NaN	Axis 5	NaN	Axis 6	0.000000
TX Power	0.000000	RX Power	0.000000

600.015	0.0135927
600.093	0.0135383
600.171	0.0137070
600.249	0.0136100
600.328	0.0135147
600.406	0.0135639
600.484	0.0135473
600.562	0.0135614
600.640	0.0135852
600.718	0.0135580
600.796	0.0135581
600.874	0.0137108
600.953	0.0137321
601.031	0.0135612
601.109	0.0136301
601.187	0.0134833
601.265	0.0136275
601.343	0.0135508
601.421	0.0136012
601.499	0.0136103
601.578	0.0136709
601.656	0.0135613
601.734	0.0134899
601.812	0.0136742
601.890	0.0136085
601.968	0.0136309
602.046	0.0136785
602.124	0.0135827
602.203	0.0136562
602.281	0.0136141
602.359	0.0135901
602.437	0.0134419
602.515	0.0135390
602.593	0.0135201
602.671	0.0136254
602.749	0.0136243
602.828	0.0135734
602.906	0.0135472
602.984	0.0135973
603.062	0.0136918
603.140	0.0136156
603.218	0.0134800
603.296	0.0136203
603.374	0.0136653
603.453	0.0136208
603.531	0.0135814
603.609	0.0135220
603.687	0.0134128
603.765	0.0135542
603.843	0.0135444
603.921	0.0134605
603.999	0.0136309
604.078	0.0135302
604.156	0.0135854
604.234	0.0137154
604.312	0.0134846
604.390	0.0135896
604.468	0.0135468
604.546	0.0135891
604.624	0.0135284
604.703	0.0135910
604.781	0.0136290
604.859	0.0136363
604.937	0.0135392
605.015	0.0136004
605.093	0.0136915
605.171	0.0135035
605.249	0.0136189
605.328	0.0135806
605.406	0.0136864
605.484	0.0134953
605.562	0.0134266
605.640	0.0135554
605.718	0.0135374
605.796	0.0136239
605.874	0.0135934
605.953	0.0136386
606.031	0.0135114
606.109	0.0135688
606.187	0.0136394
606.265	0.0135932
606.343	0.0135773
606.421	0.0135814
606.499	0.0136075
606.578	0.0135610
606.656	0.0135834
606.734	0.0135539
606.812	0.0135590
606.890	0.0136803
606.968	0.0137640
607.046	0.0135617
607.124	0.0136288
607.203	0.0135334
607.281	0.0134629
607.359	0.0136058
607.437	0.0136995
607.515	0.0135659
607.593	0.0135576
607.671	0.0135921
607.749	0.0135619
607.828	0.0136181
607.906	0.0135677
607.984	0.0134755
608.062	0.0134843
608.140	0.0135745
608.218	0.0136344
608.296	0.0136053
608.374	0.0135982
608.453	0.0134266
608.531	0.0135917
608.609	0.0136519
608.687	0.0136491
608.765	0.0134951
608.843	0.0136705
608.921	0.0136366
608.999	0.0134773
609.078	0.0136005
609.156	0.0136700
609.234	0.0136063
609.312	0.0135860
609.390	0.0135631
609.468	0.0136202
609.546	0.0137366
609.624	0.0135405
609.703	0.0135756
609.781	0.0135609
609.859	0.0135113
609.937	0.0135464
610.015	0.0135390
610.093	0.0134336
610.171	0.0136389
610.249	0.0134976
610.328	0.0135585
610.406	0.0135516
610.484	0.0136111
610.562	0.0136535
610.640	0.0135540
610.718	0.0135116
610.796	0.0136549
610.874	0.0136507
610.953	0.0134921
611.031	0.0136462
611.109	0.0136918
611.187	0.0135392
611.265	0.0136987
611.343	0.0135577
611.421	0.0136607
611.499	0.0136518
611.578	0.0136652
611.656	0.0136483
611.734	0.0136983
611.812	0.0135754
611.890	0.0136386
611.968	0.0135690
612.046	0.0135005
612.124	0.0135983
612.203	0.0136635
612.281	0.0136442
612.359	0.0137075
612.437	0.0136449
612.515	0.0136703
612.593	0.0135966
612.671	0.0135730
612.749	0.0135239
612.828	0.0135867
612.906	0.0136625
612.984	0.0136507
613.062	0.0136325
613.140	0.0136015
613.218	0.0135619
613.296	0.0136432
613.374	0.0137065
613.453	0.0135455
613.531	0.0134490
613.609	0.0135358
613.687	0.0136744
613.765	0.0135341
613.843	0.0135233
613.921	0.0135139
613.999	0.0137085
614.078	0.0135949
614.156	0.0134422
614.234	0.0135482
614.312	0.0136575
614.390	0.0135957
614.468	0.0134847
614.546	0.0134363
614.624	0.0135207
614.703	0.0135872
614.781	0.0135284
614.859	0.0136574
614.937	0.0135295
615.015	0.0135555
615.093	0.0135979
615.171	0.0135773
615.249	0.0134433
615.328	0.0133937
615.406	0.0135434
615.484	0.0135190
615.562	0.0136185
615.640	0.0136485
615.718	0.0135011
615.796	0.0134894
615.874	0.0135863
615.953	0.0135622
616.031	0.0135146
616.109	0.0136972
616.187	0.0136063
616.265	0.0134740
616.343	0.0136710
616.421	0.0136061
616.499	0.0135722
616.578	0.0134624
616.656	0.0135270
616.734	0.0135939
616.812	0.0137355
616.890	0.0136172
616.968	0.0136825
617.046	0.0136568
617.124	0.0135988
617.203	0.0136181
617.281	0.0136555
617.359	0.0135668
617.437	0.0135986
617.515	0.0134920
617.593	0.0136033
617.671	0.0135447
617.749	0.0134736
617.828	0.0135622
617.906	0.0136095
617.984	0.0135490
618.062	0.0135240
618.140	0.0136177
618.218	0.0136605
618.296	0.0135373
618.374	0.0136022
618.453	0.0136920
618.531	0.0135022
618.609	0.0136469
618.687	0.0134820
618.765	0.0135503
618.843	0.0135944
618.921	0.0134064
618.999	0.0135322
619.078	0.0136691
619.156	0.0135640
619.234	0.0135055
619.312	0.0136910
619.390	0.0135609
619.468	0.0135024
619.546	0.0135960
619.624	0.0137751
619.703	0.0135603
619.781	0.0134576
619.859	0.0136057
619.937	0.0138073
620.015	0.0135011
620.093	0.0134512
620.171	0.0135730
620.249	0.0136474
620.328	0.0136642
620.406	0.0135402
620.484	0.0135604
620.562	0.0135365
620.640	0.0136414
620.718	0.0136816
620.796	0.0135499
620.874	0.0135253
620.953	0.0135901
621.031	0.0135879
621.109	0.0135157
621.187	0.0135764
621.265	0.0135558
621.343	0.0135828
621.421	0.0135941
621.499	0.0135468
621.578	0.0135685
621.656	0.0135872
621.734	0.0136321
621.812	0.0136694
621.890	0.0135869
621.968	0.0136964
622.046	0.0135516
622.124	0.0135175
622.203	0.0135304
622.281	0.0134830
622.359	0.0135946
622.437	0.0136340
622.515	0.0136439
622.593	0.0135835
622.671	0.0135527
622.749	0.0136089
622.828	0.0134337
622.906	0.0136174
622.984	0.0136608
623.062	0.0135854
623.140	0.0135405
623.218	0.0136219
623.296	0.0135931
623.374	0.0134531
623.453	0.0134335
623.531	0.0136703
623.609	0.0135162
623.687	0.0136113
623.765	0.0135837
623.843	0.0135924
623.921	0.0134901
623.999	0.0135188
624.078	0.0134983
624.156	0.0135415
624.234	0.0136037
624.312	0.0136234
624.390	0.0137164
624.468	0.0136217
624.546	0.0135259
624.624	0.0136607
624.703	0.0134874
624.781	0.0134598
624.859	0.0135016
624.937	0.0135265
625.015	0.0136397
625.093	0.0135386
625.171	0.0135432
625.249	0.0135571
625.328	0.0134164
625.406	0.0134492
625.484	0.0136026
625.562	0.0135683
625.640	0.0135837
625.718	0.0136422
625.796	0.0135696
625.874	0.0134545
625.953	0.0136517
626.031	0.0135621
626.109	0.0135214
626.187	0.0136331
626.265	0.0134821
626.343	0.0136063
626.421	0.0136173
626.499	0.0136123
626.578	0.0135958
626.656	0.0135931
626.734	0.0136144
626.812	0.0135612
626.890	0.0134688
626.968	0.0135037
627.046	0.0135334
627.124	0.0136617
627.203	0.0134873
627.281	0.0135017
627.359	0.0135530
627.437	0.0136704
627.515	0.0135944
627.593	0.0135905
627.671	0.0135217
627.749	0.0136156
627.828	0.0136018
627.906	0.0135844
627.984	0.0136501
628.062	0.0135788
628.140	0.0136401
628.218	0.0135353
628.296	0.0134991
628.374	0.0135536
628.453	0.0135712
628.531	0.0134681
628.609	0.0136803
628.687	0.0136586
628.765	0.0136315
628.843	0.0136189
628.921	0.0135720
628.999	0.0135320
629.078	0.0136185
629.156	0.0135936
629.234	0.0135117
629.312	0.0136463
629.390	0.0135730
629.468	0.0135131
629.546	0.0137371
629.624	0.0136349
629.703	0.0135957
629.781	0.0135130
629.859	0.0136087
629.937	0.0135326
630.015	0.0136494
630.093	0.0135908
630.171	0.0135516
630.249	0.0135644
630.328	0.0135561
630.406	0.0136089
630.484	0.0136318
630.562	0.0136057
630.640	0.0137315
630.718	0.0136008
630.796	0.0134730
630.874	0.0135378
630.953	0.0135566
631.031	0.0136630
631.109	0.0135593
631.187	0.0134522
631.265	0.0136021
631.343	0.0136229
631.421	0.0134818
631.499	0.0135382
631.578	0.0135561
631.656	0.0136084
631.734	0.0134998
631.812	0.0135772
631.890	0.0137832
631.968	0.0136787
632.046	0.0135425
632.124	0.0135842
632.203	0.0136079
632.281	0.0134802
632.359	0.0135153
632.437	0.0137004
632.515	0.0135495
632.593	0.0135712
632.671	0.0135908
632.749	0.0135896
632.828	0.0134396
632.906	0.0135716
632.984	0.0135612
633.062	0.0134930
633.140	0.0137649
633.218	0.0136906
633.296	0.0135915
633.374	0.0136534
633.453	0.0137502
633.531	0.0135422
633.609	0.0134531
633.687	0.0135927
633.765	0.0136162
633.843	0.0135788
633.921	0.0135050
633.999	0.0135100
634.078	0.0135729
634.156	0.0134841
634.234	0.0134941
634.312	0.0135027
634.390	0.0135573
634.468	0.0136104
634.546	0.0136568
634.624	0.0135554
634.703	0.0136827
634.781	0.0136584
634.859	0.0135007
634.937	0.0135132
635.015	0.0136042
635.093	0.0135609
635.171	0.0136000
635.249	0.0136435
635.328	0.0135458
635.406	0.0135899
635.484	0.0135532
635.562	0.0137247
635.640	0.0134673
635.718	0.0136266
635.796	0.0135820
635.874	0.0135052
635.953	0.0135306
636.031	0.0134890
636.109	0.0136323
636.187	0.0135932
636.265	0.0135642
636.343	0.0134679
636.421	0.0134440
636.499	0.0136385
636.578	0.0136099
636.656	0.0135645
636.734	0.0135472
636.812	0.0135648
636.890	0.0136713
636.968	0.0136543
637.046	0.0137431
637.124	0.0134845
637.203	0.0134680
637.281	0.0134533
637.359	0.0136227
637.437	0.0134672
637.515	0.0136037
637.593	0.0134975
637.671	0.0136348
637.749	0.0135875
637.828	0.0135807
637.906	0.0135381
637.984	0.0135437
638.062	0.0135889
638.140	0.0135612
638.218	0.0136412
638.296	0.0137144
638.374	0.0135270
638.453	0.0135439
638.531	0.0135796
638.609	0.0135462
638.687	0.0136940
638.765	0.0135657
638.843	0.0135540
638.921	0.0135983
638.999	0.0134711
639.078	0.0134299
639.156	0.0136594
639.234	0.0135778
639.312	0.0133736
639.390	0.0136408
639.468	0.0135298
639.546	0.0136028
639.624	0.0135432
639.703	0.0135851
639.781	0.0136009
639.859	0.0136952
639.937	0.0136195
640.015	0.0135307
640.093	0.0135423
640.171	0.0136298
640.249	0.0134889
640.328	0.0136044
640.406	0.0135097
640.484	0.0134354
640.562	0.0135378
640.640	0.0135612
640.718	0.0135837
640.796	0.0136209
640.874	0.0136772
640.953	0.0135623
641.031	0.0136556
641.109	0.0135442
641.187	0.0133271
641.265	0.0135926
641.343	0.0135709
641.421	0.0134348
641.499	0.0136565
641.578	0.0135863
641.656	0.0135868
641.734	0.0136627
641.812	0.0136596
641.890	0.0134888
641.968	0.0137035
642.046	0.0135317
642.124	0.0134739
642.203	0.0136231
642.281	0.0136396
642.359	0.0136721
642.437	0.0135457
642.515	0.0135455
642.593	0.0135908
642.671	0.0135645
642.749	0.0136005
642.828	0.0136057
642.906	0.0135670
642.984	0.0135880
643.062	0.0135813
643.140	0.0135648
643.218	0.0136085
643.296	0.0134415
643.374	0.0135594
643.453	0.0135143
643.531	0.0135803
643.609	0.0134869
643.687	0.0136044
643.765	0.0135996
643.843	0.0135870
643.921	0.0135127
643.999	0.0135034
644.078	0.0135165
644.156	0.0136399
644.234	0.0136115
644.312	0.0135822
644.390	0.0136299
644.468	0.0137476
644.546	0.0134747
644.624	0.0134791
644.703	0.0135664
644.781	0.0136211
644.859	0.0137049
644.937	0.0136676
645.015	0.0135647
645.093	0.0134765
645.171	0.0135069
645.249	0.0135360
645.328	0.0136462
645.406	0.0135649
645.484	0.0136591
645.562	0.0135458
645.640	0.0135936
645.718	0.0135951
645.796	0.0136266
645.874	0.0134578
645.953	0.0136871
646.031	0.0135372
646.109	0.0136680
646.187	0.0137197
646.265	0.0136415
646.343	0.0136171
646.421	0.0135429
646.499	0.0135724
646.578	0.0135649
646.656	0.0135237
646.734	0.0134824
646.812	0.0135338
646.890	0.0136975
646.968	0.0136092
647.046	0.0134628
647.124	0.0135191
647.203	0.0136652
647.281	0.0136098
647.359	0.0135835
647.437	0.0134785
647.515	0.0136244
647.593	0.0136829
647.671	0.0136242
647.749	0.0135190
647.828	0.0135396
647.906	0.0134483
647.984	0.0135710
648.062	0.0135158
648.140	0.0135380
648.218	0.0135755
648.296	0.0135140
648.374	0.0136167
648.453	0.0136282
648.531	0.0135563
648.609	0.0134740
648.687	0.0135924
648.765	0.0136158
648.843	0.0135647
648.921	0.0135767
648.999	0.0136073
649.078	0.0135413
649.156	0.0135872
649.234	0.0136845
649.312	0.0134605
649.390	0.0136228
649.468	0.0136538
649.546	0.0135288
649.624	0.0136865
649.703	0.0134676
649.781	0.0136120
649.859	0.0135698
649.937	0.0134991
650.015	0.0136136
650.093	0.0135741
650.171	0.0136539
650.249	0.0136765
650.328	0.0136031
650.406	0.0136076
650.484	0.0134625
650.562	0.0133836
650.640	0.0136845
650.718	0.0136763
650.796	0.0135011
650.874	0.0135820
650.953	0.0136764
651.031	0.0135395
651.109	0.0136393
651.187	0.0135873
651.265	0.0136340
651.343	0.0135252
651.421	0.0135808
651.499	0.0135599
651.578	0.0136964
651.656	0.0137124
651.734	0.0135651
651.812	0.0135863
651.890	0.0135720
651.968	0.0136082
652.046	0.0135663
652.124	0.0136066
652.203	0.0135850
652.281	0.0135687
652.359	0.0136400
652.437	0.0135844
652.515	0.0135490
652.593	0.0135375
652.671	0.0136654
652.749	0.0135735
652.828	0.0135576
652.906	0.0136212
652.984	0.0136600
653.062	0.0136210
653.140	0.0136079
653.218	0.0134408
653.296	0.0136456
653.374	0.0135313
653.453	0.0136224
653.531	0.0134959
653.609	0.0135438
653.687	0.0136870
653.765	0.0135014
653.843	0.0135455
653.921	0.0136458
653.999	0.0137007
654.078	0.0137311
654.156	0.0136031
654.234	0.0135963
654.312	0.0136956
654.390	0.0135149
654.468	0.0136756
654.546	0.0136388
654.624	0.0135093
654.703	0.0134885
654.781	0.0136391
654.859	0.0136081
654.937	0.0134769
655.015	0.0135229
655.093	0.0136269
655.171	0.0136581
655.249	0.0136409
655.328	0.0135332
655.406	0.0136266
655.484	0.0136072
655.562	0.0137054
655.640	0.0136275
655.718	0.0134750
655.796	0.0135274
655.874	0.0136134
655.953	0.0136705
656.031	0.0135792
656.109	0.0135683
656.187	0.0135146
656.265	0.0135575
656.343	0.0136608
656.421	0.0137132
656.499	0.0134753
656.578	0.0134783
656.656	0.0134710
656.734	0.0136328
656.812	0.0136219
656.890	0.0136346
656.968	0.0135104
657.046	0.0134434
657.124	0.0136675
657.203	0.0137825
657.281	0.0135892
657.359	0.0136324
657.437	0.0136097
657.515	0.0135172
657.593	0.0136900
657.671	0.0136933
657.749	0.0136021
657.828	0.0135553
657.906	0.0135799
657.984	0.0136489
658.062	0.0136891
658.140	0.0134554
658.218	0.0136126
658.296	0.0134609
658.374	0.0135517
658.453	0.0136964
658.531	0.0135813
658.609	0.0135065
658.687	0.0134545
658.765	0.0136642
658.843	0.0135358
658.921	0.0136162
658.999	0.0135268
659.078	0.0135226
659.156	0.0136214
659.234	0.0135850
659.312	0.0134163
659.390	0.0135087
659.468	0.0136559
659.546	0.0135883
659.624	0.0135297
659.703	0.0136874
659.781	0.0136092
659.859	0.0135086
659.937	0.0134626
660.015	0.0135614
660.093	0.0135266
660.171	0.0135590
660.249	0.0135372
660.328	0.0134895
660.406	0.0135400
660.484	0.0134258
660.562	0.0135957
660.640	0.0135117
660.718	0.0134983
660.796	0.0135499
660.874	0.0135461
660.953	0.0135776
661.031	0.0135853
661.109	0.0136357
661.187	0.0136897
661.265	0.0135067
661.343	0.0134559
661.421	0.0135612
661.499	0.0135164
661.578	0.0135839
661.656	0.0134957
661.734	0.0136158
661.812	0.0135680
661.890	0.0136181
661.968	0.0136729
662.046	0.0134035
662.124	0.0135376
662.203	0.0134329
662.281	0.0135553
662.359	0.0136377
662.437	0.0134595
662.515	0.0134023
662.593	0.0136478
662.671	0.0136214
662.749	0.0134913
662.828	0.0136288
662.906	0.0136481
662.984	0.0134792
663.062	0.0135219
663.140	0.0135381
663.218	0.0135629
663.296	0.0134336
663.374	0.0136396
663.453	0.0137054
663.531	0.0134776
663.609	0.0133574
663.687	0.0135037
663.765	0.0135770
663.843	0.0136200
663.921	0.0134186
663.999	0.0135996
664.078	0.0136400
664.156	0.0134528
664.234	0.0134011
664.312	0.0136160
664.390	0.0135863
664.468	0.0134830
664.546	0.0134805
664.624	0.0135240
664.703	0.0134529
664.781	0.0134319
664.859	0.0135423
664.937	0.0134935
665.015	0.0135490
665.093	0.0135248
665.171	0.0136066
665.249	0.0135764
665.328	0.0135631
665.406	0.0134960
665.484	0.0135378
665.562	0.0135482
665.640	0.0135593
665.718	0.0134816
665.796	0.0134454
665.874	0.0134941
665.953	0.0136590
666.031	0.0135954
666.109	0.0133712
666.187	0.0135677
666.265	0.0136899
666.343	0.0135410
666.421	0.0135381
666.499	0.0134992
666.578	0.0134854
666.656	0.0135570
666.734	0.0136289
666.812	0.0136756
666.890	0.0135729
666.968	0.0135521
667.046	0.0136495
667.124	0.0136644
667.203	0.0135664
667.281	0.0136877
667.359	0.0135747
667.437	0.0135512
667.515	0.0136136
667.593	0.0135560
667.671	0.0135901
667.749	0.0136041
667.828	0.0135490
667.906	0.0135654
667.984	0.0135215
668.062	0.0135816
668.140	0.0135678
668.218	0.0136108
668.296	0.0136512
668.374	0.0135248
668.453	0.0135007
668.531	0.0136424
668.609	0.0134830
668.687	0.0134612
668.765	0.0135299
668.843	0.0134950
668.921	0.0136142
668.999	0.0136395
669.078	0.0135880
669.156	0.0136400
669.234	0.0136330
669.312	0.0135394
669.390	0.0135831
669.468	0.0136357
669.546	0.0136760
669.624	0.0136971
669.703	0.0135538
669.781	0.0135193
669.859	0.0136673
669.937	0.0137012
670.015	0.0136052
670.093	0.0136900
670.171	0.0137168
670.249	0.0136974
670.328	0.0135072
670.406	0.0135452
670.484	0.0135624
670.562	0.0136670
670.640	0.0137393
670.718	0.0135851
670.796	0.0136579
670.874	0.0136945
670.953	0.0135750
671.031	0.0136442
671.109	0.0135693
671.187	0.0135819
671.265	0.0136420
671.343	0.0137091
671.421	0.0136604
671.499	0.0138113
671.578	0.0137791
671.656	0.0135463
671.734	0.0135590
671.812	0.0135863
671.890	0.0137045
671.968	0.0137256
672.046	0.0136420
672.124	0.0137095
672.203	0.0137199
672.281	0.0136047
672.359	0.0135808
672.437	0.0136140
672.515	0.0136194
672.593	0.0135629
672.671	0.0136875
672.749	0.0136697
672.828	0.0136832
672.906	0.0136186
672.984	0.0135992
673.062	0.0136395
673.140	0.0137162
673.218	0.0137955
673.296	0.0136539
673.374	0.0136114
673.453	0.0136697
673.531	0.0137181
673.609	0.0136871
673.687	0.0137451
673.765	0.0136232
673.843	0.0136219
673.921	0.0137825
673.999	0.0134986
674.078	0.0137685
674.156	0.0137550
674.234	0.0135132
674.312	0.0136745
674.390	0.0136038
674.468	0.0136950
674.546	0.0137859
674.624	0.0135995
674.703	0.0136004
674.781	0.0135844
674.859	0.0136399
674.937	0.0137208
675.015	0.0136609
675.093	0.0135987
675.171	0.0137395
675.249	0.0135786
675.328	0.0136845
675.406	0.0136887
675.484	0.0136243
675.562	0.0136668
675.640	0.0137134
675.718	0.0137063
675.796	0.0136676
675.874	0.0136551
675.953	0.0135960
676.031	0.0136289
676.109	0.0136012
676.187	0.0137248
676.265	0.0134816
676.343	0.0135848
676.421	0.0134592
676.499	0.0135981
676.578	0.0137328
676.656	0.0136300
676.734	0.0134928
676.812	0.0135951
676.890	0.0135864
676.968	0.0135014
677.046	0.0137432
677.124	0.0135738
677.203	0.0136775
677.281	0.0135810
677.359	0.0135580
677.437	0.0136448
677.515	0.0136668
677.593	0.0136556
677.671	0.0135899
677.749	0.0135488
677.828	0.0134547
677.906	0.0135813
677.984	0.0135729
678.062	0.0136040
678.140	0.0134679
678.218	0.0136681
678.296	0.0136413
678.374	0.0135103
678.453	0.0135791
678.531	0.0134509
678.609	0.0135919
678.687	0.0135852
678.765	0.0135525
678.843	0.0135570
678.921	0.0136008
678.999	0.0136630
679.078	0.0136620
679.156	0.0135463
679.234	0.0136403
679.312	0.0135662
679.390	0.0135710
679.468	0.0134991
679.546	0.0135030
679.624	0.0134958
679.703	0.0135189
679.781	0.0134113
679.859	0.0135249
679.937	0.0135423
680.015	0.0135220
680.093	0.0135658
680.171	0.0135339
680.249	0.0135493
680.328	0.0136160
680.406	0.0135350
680.484	0.0134300
680.562	0.0136001
680.640	0.0135526
680.718	0.0136073
680.796	0.0136010
680.874	0.0136038
680.953	0.0134902
681.031	0.0136417
681.109	0.0135003
681.187	0.0134733
681.265	0.0135616
681.343	0.0135486
681.421	0.0136317
681.499	0.0136172
681.578	0.0136752
681.656	0.0136333
681.734	0.0134988
681.812	0.0135223
681.890	0.0135915
681.968	0.0136082
682.046	0.0136069
682.124	0.0136147
682.203	0.0135529
682.281	0.0136433
682.359	0.0135718
682.437	0.0134847
682.515	0.0135619
682.593	0.0135875
682.671	0.0136403
682.749	0.0136265
682.828	0.0135357
682.906	0.0134595
682.984	0.0135384
683.062	0.0135431
683.140	0.0135544
683.218	0.0134541
683.296	0.0135619
683.374	0.0134659
683.453	0.0134368
683.531	0.0136048
683.609	0.0136111
683.687	0.0136842
683.765	0.0136855
683.843	0.0135487
683.921	0.0135326
683.999	0.0135686
684.078	0.0135287
684.156	0.0135244
684.234	0.0138026
684.312	0.0135892
684.390	0.0136136
684.468	0.0136702
684.546	0.0136672
684.624	0.0135514
684.703	0.0135357
684.781	0.0134241
684.859	0.0134230
684.937	0.0133129
685.015	0.0135635
685.093	0.0135978
685.171	0.0135975
685.249	0.0136279
685.328	0.0137250
685.406	0.0137343
685.484	0.0138508
685.562	0.0140014
685.640	0.0138783
685.718	0.0138246
685.796	0.0138419
685.874	0.0138785
685.953	0.0134007
686.031	0.0134679
686.109	0.0132458
686.187	0.0130321
686.265	0.0129767
686.343	0.0127915
686.421	0.0128260
686.499	0.0128179
686.578	0.0129114
686.656	0.0132861
686.734	0.0133715
686.812	0.0136486
686.890	0.0141255
686.968	0.0143902
687.046	0.0146841
687.124	0.0146056
687.203	0.0147668
687.281	0.0148306
687.359	0.0146866
687.437	0.0143923
687.515	0.0142814
687.593	0.0139814
687.671	0.0135733
687.749	0.0133192
687.828	0.0127885
687.906	0.0124028
687.984	0.0122156
688.062	0.0121210
688.140	0.0121013
688.218	0.0121486
688.296	0.0122240
688.374	0.0124454
688.453	0.0127286
688.531	0.0132610
688.609	0.0135061
688.687	0.0139547
688.765	0.0141770
688.843	0.0145281
688.921	0.0147864
688.999	0.0148566
689.078	0.0149072
689.156	0.0148300
689.234	0.0147234
689.312	0.0146284
689.390	0.0144511
689.468	0.0142252
689.546	0.0139076
689.624	0.0137126
689.703	0.0134947
689.781	0.0133195
689.859	0.0131268
689.937	0.0129141
690.015	0.0128662
690.093	0.0128365
690.171	0.0127889
690.249	0.0128280
690.328	0.0128277
690.406	0.0128798
690.484	0.0129581
690.562	0.0129990
690.640	0.0130256
690.718	0.0130537
690.796	0.0130300
690.874	0.0133794
690.953	0.0133561
691.031	0.0133593
691.109	0.0134608
691.187	0.0135397
691.265	0.0137075
691.343	0.0137672
691.421	0.0139275
691.499	0.0138939
691.578	0.0138868
691.656	0.0139236
691.734	0.0138112
691.812	0.0137282
691.890	0.0137645
691.968	0.0137087
692.046	0.0136041
692.124	0.0135458
692.203	0.0135167
692.281	0.0133567
692.359	0.0132294
692.437	0.0131227
692.515	0.0132264
692.593	0.0133327
692.671	0.0133398
692.749	0.0134442
692.828	0.0134373
692.906	0.0135197
692.984	0.0136603
693.062	0.0136907
693.140	0.0138757
693.218	0.0139072
693.296	0.0139799
693.374	0.0139416
693.453	0.0140029
693.531	0.0139196
693.609	0.0138499
693.687	0.0138212
693.765	0.0136790
693.843	0.0134129
693.921	0.0133096
693.999	0.0133151
694.078	0.0131439
694.156	0.0130911
694.234	0.0132357
694.312	0.0132114
694.390	0.0132311
694.468	0.0132620
694.546	0.0134724
694.624	0.0134756
694.703	0.0135827
694.781	0.0139085
694.859	0.0138480
694.937	0.0139961
695.015	0.0140858
695.093	0.0140010
695.171	0.0140079
695.249	0.0140970
695.328	0.0140810
695.406	0.0139928
695.484	0.0138555
695.562	0.0137658
695.640	0.0137405
695.718	0.0135797
695.796	0.0134990
695.874	0.0134060
695.953	0.0133523
696.031	0.0132404
696.109	0.0131889
696.187	0.0132642
696.265	0.0131117
696.343	0.0132593
696.421	0.0131265
696.499	0.0131418
696.578	0.0131522
696.656	0.0132088
696.734	0.0130659
696.812	0.0133879
696.890	0.0133759
696.968	0.0135113
697.046	0.0133767
697.124	0.0137234
697.203	0.0138230
697.281	0.0137383
697.359	0.0138165
697.437	0.0139370
697.515	0.0138921
697.593	0.0140131
697.671	0.0140613
697.749	0.0141237
697.828	0.0140753
697.906	0.0140386
697.984	0.0138831
698.062	0.0138554
698.140	0.0139432
698.218	0.0138002
698.296	0.0137753
698.374	0.0135706
698.453	0.0134602
698.531	0.0134703
698.609	0.0132992
698.687	0.0133105
698.765	0.0132198
698.843	0.0130227
698.921	0.0129696
698.999	0.0132242
699.078	0.0132637
699.156	0.0132669
699.234	0.0132416
699.312	0.0133466
699.390	0.0133987
699.468	0.0135410
699.546	0.0137771
699.624	0.0136723
699.703	0.0136575
699.781	0.0136623
699.859	0.0136790
699.937	0.0137039
700.015	0.0136417
700.093	0.0136102
700.171	0.0135155
700.249	0.0135915
700.328	0.0134492
700.406	0.0134499
700.484	0.0132732
700.562	0.0133238
700.640	0.0133305
700.718	0.0133212
700.796	0.0131514
700.874	0.0132839
700.953	0.0132815
701.031	0.0134598
701.109	0.0136768
701.187	0.0136286
701.265	0.0137479
701.343	0.0138521
701.421	0.0138511
701.499	0.0140012
701.578	0.0139986
701.656	0.0139182
701.734	0.0140105
701.812	0.0140057
701.890	0.0140646
701.968	0.0140221
702.046	0.0139574
702.124	0.0137433
702.203	0.0138811
702.281	0.0137430
702.359	0.0137018
702.437	0.0134499
702.515	0.0133623
702.593	0.0133426
702.671	0.0132138
702.749	0.0131458
702.828	0.0130346
702.906	0.0130566
702.984	0.0131349
703.062	0.0130595
703.140	0.0131547
703.218	0.0132945
703.296	0.0133645
703.374	0.0133096
703.453	0.0135481
703.531	0.0136909
703.609	0.0137126
703.687	0.0138997
703.765	0.0139675
703.843	0.0142467
703.921	0.0142741
703.999	0.0142006
704.078	0.0142777
704.156	0.0142442
704.234	0.0141301
704.312	0.0140628
704.390	0.0140012
704.468	0.0138708
704.546	0.0135651
704.624	0.0134210
704.703	0.0132614
704.781	0.0131872
704.859	0.0128246
704.937	0.0128106
705.015	0.0128915
705.093	0.0127776
705.171	0.0127620
705.249	0.0127342
705.328	0.0128396
705.406	0.0129081
705.484	0.0131800
705.562	0.0134179
705.640	0.0134674
705.718	0.0136552
705.796	0.0139226
705.874	0.0140826
705.953	0.0142432
706.031	0.0143920
706.109	0.0144357
706.187	0.0145786
706.265	0.0145397
706.343	0.0144251
706.421	0.0144632
706.499	0.0142589
706.578	0.0140584
706.656	0.0139684
706.734	0.0137875
706.812	0.0136483
706.890	0.0134779
706.968	0.0133919
707.046	0.0132877
707.124	0.0132873
707.203	0.0130978
707.281	0.0130576
707.359	0.0130015
707.437	0.0130897
707.515	0.0131171
707.593	0.0131231
707.671	0.0131741
707.749	0.0132580
707.828	0.0133320
707.906	0.0133642
707.984	0.0134305
708.062	0.0135082
708.140	0.0135381
708.218	0.0134524
708.296	0.0133857
708.374	0.0134007
708.453	0.0134460
708.531	0.0134553
708.609	0.0135448
708.687	0.0134343
708.765	0.0132853
708.843	0.0131911
708.921	0.0131464
708.999	0.0132953
709.078	0.0132709
709.156	0.0132321
709.234	0.0132793
709.312	0.0134306
709.390	0.0136147
709.468	0.0136472
709.546	0.0134959
709.624	0.0136726
709.703	0.0137302
709.781	0.0137490
709.859	0.0137216
709.937	0.0138122
710.015	0.0136783
710.093	0.0137388
710.171	0.0137233
710.249	0.0136896
710.328	0.0137424
710.406	0.0137181
710.484	0.0137727
710.562	0.0136704
710.640	0.0137669
710.718	0.0137792
710.796	0.0138305
710.874	0.0138010
710.953	0.0139240
711.031	0.0138750
711.109	0.0139865
711.187	0.0139748
711.265	0.0140115
711.343	0.0139287
711.421	0.0137951
711.499	0.0138223
711.578	0.0138262
711.656	0.0139386
711.734	0.0137075
711.812	0.0138400
711.890	0.0136599
711.968	0.0135376
712.046	0.0136054
712.124	0.0134984
712.203	0.0133683
712.281	0.0133153
712.359	0.0133427
712.437	0.0133073
712.515	0.0132961
712.593	0.0131625
712.671	0.0134192
712.749	0.0133648
712.828	0.0134095
712.906	0.0134346
712.984	0.0135373
713.062	0.0135186
713.140	0.0134470
713.218	0.0134780
713.296	0.0134435
713.374	0.0136004
713.453	0.0135324
713.531	0.0136733
713.609	0.0134425
713.687	0.0134570
713.765	0.0133797
713.843	0.0133282
713.921	0.0133422
713.999	0.0132231
714.078	0.0132729
714.156	0.0131584
714.234	0.0133585
714.312	0.0131906
714.390	0.0133918
714.468	0.0134509
714.546	0.0134902
714.624	0.0136696
714.703	0.0135796
714.781	0.0137545
714.859	0.0137507
714.937	0.0137144
715.015	0.0138805
715.093	0.0138553
715.171	0.0137849
715.249	0.0139345
715.328	0.0139266
715.406	0.0139555
715.484	0.0137993
715.562	0.0137699
715.640	0.0136548
715.718	0.0136609
715.796	0.0136979
715.874	0.0135278
715.953	0.0135486
716.031	0.0134956
716.109	0.0134332
716.187	0.0134804
716.265	0.0133815
716.343	0.0134468
716.421	0.0133096
716.499	0.0134848
716.578	0.0135500
716.656	0.0135333
716.734	0.0135361
716.812	0.0136146
716.890	0.0136842
716.968	0.0136164
717.046	0.0139111
717.124	0.0136991
717.203	0.0136382
717.281	0.0138281
717.359	0.0136958
717.437	0.0135731
717.515	0.0134059
717.593	0.0133528
717.671	0.0133035
717.749	0.0134215
717.828	0.0133340
717.906	0.0132093
717.984	0.0133467
718.062	0.0132408
718.140	0.0133566
718.218	0.0132787
718.296	0.0133921
718.374	0.0134695
718.453	0.0134361
718.531	0.0134332
718.609	0.0135001
718.687	0.0134434
718.765	0.0134406
718.843	0.0135349
718.921	0.0134805
718.999	0.0134922
719.078	0.0134996
719.156	0.0134239
719.234	0.0134358
719.312	0.0134445
719.390	0.0133324
719.468	0.0134148
719.546	0.0135069
719.624	0.0135342
719.703	0.0133978
719.781	0.0134954
719.859	0.0136768
719.937	0.0134761
720.015	0.0137125
720.093	0.0135627
720.171	0.0134895
720.249	0.0137342
720.328	0.0136275
720.406	0.0135982
720.484	0.0136916
720.562	0.0136549
720.640	0.0137083
720.718	0.0136516
720.796	0.0136904
720.874	0.0136597
720.953	0.0136212
721.031	0.0136628
721.109	0.0135468
721.187	0.0137611
721.265	0.0135831
721.343	0.0135930
721.421	0.0133585
721.499	0.0134435
721.578	0.0134602
721.656	0.0134294
721.734	0.0133996
721.812	0.0134821
721.890	0.0134803
721.968	0.0134554
722.046	0.0134531
722.124	0.0135367
722.203	0.0136193
722.281	0.0136069
722.359	0.0134602
722.437	0.0135198
722.515	0.0136758
722.593	0.0136731
722.671	0.0135010
722.749	0.0134772
722.828	0.0134647
722.906	0.0134940
722.984	0.0132955
723.062	0.0133174
723.140	0.0132638
723.218	0.0132354
723.296	0.0131106
723.374	0.0132196
723.453	0.0131701
723.531	0.0132064
723.609	0.0133505
723.687	0.0134327
723.765	0.0135030
723.843	0.0135108
723.921	0.0136558
723.999	0.0136054
724.078	0.0136671
724.156	0.0137416
724.234	0.0138483
724.312	0.0137955
724.390	0.0138117
724.468	0.0137820
724.546	0.0137894
724.624	0.0137038
724.703	0.0137302
724.781	0.0137682
724.859	0.0136879
724.937	0.0137418
725.015	0.0134756
725.093	0.0134515
725.171	0.0134701
725.249	0.0134325
725.328	0.0134706
725.406	0.0133931
725.484	0.0134657
725.562	0.0134445
725.640	0.0134717
725.718	0.0136198
725.796	0.0136443
725.874	0.0135281
725.953	0.0137466
726.031	0.0137436
726.109	0.0137807
726.187	0.0137430
726.265	0.0137334
726.343	0.0137616
726.421	0.0138320
726.499	0.0137263
726.578	0.0137321
726.656	0.0137630
726.734	0.0136936
726.812	0.0136617
726.890	0.0135859
726.968	0.0135905
727.046	0.0133827
727.124	0.0134962
727.203	0.0133295
727.281	0.0135443
727.359	0.0135307
727.437	0.0134228
727.515	0.0134197
727.593	0.0132452
727.671	0.0135428
727.749	0.0135128
727.828	0.0135360
727.906	0.0136591
727.984	0.0136345
728.062	0.0135101
728.140	0.0134992
728.218	0.0136118
728.296	0.0135743
728.374	0.0135630
728.453	0.0135552
728.531	0.0135748
728.609	0.0135892
728.687	0.0135970
728.765	0.0135419
728.843	0.0133948
728.921	0.0134960
728.999	0.0134273
729.078	0.0134074
729.156	0.0134566
729.234	0.0134970
729.312	0.0135623
729.390	0.0134645
729.468	0.0134581
729.546	0.0133551
729.624	0.0133730
729.703	0.0135207
729.781	0.0133991
729.859	0.0132380
729.937	0.0136504
730.015	0.0134665
730.093	0.0135905
730.171	0.0136279
730.249	0.0135800
730.328	0.0135175
730.406	0.0136047
730.484	0.0136569
730.562	0.0135706
730.640	0.0135538
730.718	0.0136241
730.796	0.0135989
730.874	0.0134728
730.953	0.0136338
731.031	0.0134325
731.109	0.0135867
731.187	0.0134039
731.265	0.0135296
731.343	0.0134205
731.421	0.0134056
731.499	0.0135754
731.578	0.0135970
731.656	0.0135781
731.734	0.0135883
731.812	0.0136138
731.890	0.0134084
731.968	0.0135382
732.046	0.0135835
732.124	0.0136518
732.203	0.0136723
732.281	0.0136543
732.359	0.0136380
732.437	0.0135715
732.515	0.0136050
732.593	0.0135993
732.671	0.0136559
732.749	0.0136352
732.828	0.0135816
732.906	0.0136276
732.984	0.0135110
733.062	0.0136691
733.140	0.0136375
733.218	0.0136057
733.296	0.0135248
733.374	0.0135720
733.453	0.0136758
733.531	0.0135130
733.609	0.0135172
733.687	0.0136177
733.765	0.0136409
733.843	0.0136005
733.921	0.0135159
733.999	0.0135898
734.078	0.0136739
734.156	0.0135894
734.234	0.0136198
734.312	0.0136303
734.390	0.0136981
734.468	0.0137469
734.546	0.0135786
734.624	0.0137272
734.703	0.0137513
734.781	0.0135375
734.859	0.0134257
734.937	0.0136353
735.015	0.0136878
735.093	0.0133354
735.171	0.0136174
735.249	0.0135391
735.328	0.0134959
735.406	0.0135465
735.484	0.0135049
735.562	0.0135984
735.640	0.0135539
735.718	0.0135187
735.796	0.0135388
735.874	0.0135912
735.953	0.0136707
736.031	0.0134758
736.109	0.0134869
736.187	0.0135954
736.265	0.0135606
736.343	0.0135101
736.421	0.0135779
736.499	0.0138907
736.578	0.0135521
736.656	0.0136367
736.734	0.0136839
736.812	0.0135852
736.890	0.0136626
736.968	0.0136520
737.046	0.0137400
737.124	0.0136594
737.203	0.0137630
737.281	0.0137196
737.359	0.0137804
737.437	0.0136336
737.515	0.0136916
737.593	0.0136237
737.671	0.0135397
737.749	0.0136105
737.828	0.0136998
737.906	0.0135481
737.984	0.0135616
738.062	0.0135175
738.140	0.0136449
738.218	0.0134686
738.296	0.0135774
738.374	0.0133347
738.453	0.0136584
738.531	0.0136209
738.609	0.0135376
738.687	0.0136054
738.765	0.0137101
738.843	0.0136272
738.921	0.0137008
738.999	0.0137768
739.078	0.0138425
739.156	0.0139503
739.234	0.0139480
739.312	0.0138831
739.390	0.0138409
739.468	0.0138803
739.546	0.0137079
739.624	0.0137688
739.703	0.0137971
739.781	0.0138243
739.859	0.0137424
739.937	0.0137083
740.015	0.0136241
740.093	0.0134455
740.171	0.0132388
740.249	0.0133990
740.328	0.0135501
740.406	0.0134293
740.484	0.0133823
740.562	0.0133104
740.640	0.0134786
740.718	0.0133661
740.796	0.0133495
740.874	0.0133907
740.953	0.0134794
741.031	0.0133602
741.109	0.0134559
741.187	0.0135883
741.265	0.0135708
741.343	0.0136886
741.421	0.0137175
741.499	0.0136272
741.578	0.0137218
741.656	0.0136587
741.734	0.0135680
741.812	0.0137300
741.890	0.0137129
741.968	0.0136707
742.046	0.0136465
742.124	0.0136745
742.203	0.0135963
742.281	0.0136768
742.359	0.0135451
742.437	0.0136645
742.515	0.0135576
742.593	0.0135049
742.671	0.0136011
742.749	0.0135579
742.828	0.0134878
742.906	0.0134158
742.984	0.0135969
743.062	0.0137362
743.140	0.0135799
743.218	0.0136341
743.296	0.0135452
743.374	0.0136201
743.453	0.0136513
743.531	0.0136811
743.609	0.0135915
743.687	0.0136884
743.765	0.0135659
743.843	0.0134903
743.921	0.0136716
743.999	0.0134493
744.078	0.0134585
744.156	0.0134500
744.234	0.0134990
744.312	0.0133770
744.390	0.0134575
744.468	0.0133640
744.546	0.0133586
744.624	0.0134758
744.703	0.0133153
744.781	0.0133178
744.859	0.0133886
744.937	0.0133774
745.015	0.0133894
745.093	0.0134126
745.171	0.0134070
745.249	0.0134959
745.328	0.0134273
745.406	0.0136684
745.484	0.0136180
745.562	0.0135284
745.640	0.0135468
745.718	0.0135750
745.796	0.0136297
745.874	0.0136330
745.953	0.0135418
746.031	0.0134532
746.109	0.0136329
746.187	0.0135567
746.265	0.0135110
746.343	0.0136216
746.421	0.0135456
746.499	0.0135551
746.578	0.0135291
746.656	0.0136082
746.734	0.0134761
746.812	0.0135426
746.890	0.0136891
746.968	0.0134997
747.046	0.0136877
747.124	0.0137747
747.203	0.0136909
747.281	0.0138202
747.359	0.0137816
747.437	0.0135551
747.515	0.0136835
747.593	0.0136552
747.671	0.0136363
747.749	0.0137412
747.828	0.0136571
747.906	0.0135353
747.984	0.0135459
748.062	0.0134895
748.140	0.0135226
748.218	0.0134822
748.296	0.0134740
748.374	0.0134145
748.453	0.0133261
748.531	0.0134750
748.609	0.0132825
748.687	0.0134145
748.765	0.0135590
748.843	0.0135011
748.921	0.0133984
748.999	0.0134997
749.078	0.0134107
749.156	0.0135138
749.234	0.0135351
749.312	0.0134698
749.390	0.0134266
749.468	0.0135883
749.546	0.0136308
749.624	0.0134943
749.703	0.0135085
749.781	0.0135709
749.859	0.0135906
749.937	0.0135451
750.015	0.0135625
750.093	0.0135542
750.171	0.0134933
750.249	0.0134879
750.328	0.0135567
750.406	0.0137171
750.484	0.0137811
750.562	0.0135761
750.640	0.0136053
750.718	0.0134755
750.796	0.0135985
750.874	0.0135243
750.953	0.0136987
751.031	0.0137267
751.109	0.0135946
751.187	0.0136738
751.265	0.0135451
751.343	0.0133872
751.421	0.0136188
751.499	0.0136491
751.578	0.0137004
751.656	0.0135889
751.734	0.0136073
751.812	0.0136040
751.890	0.0136524
751.968	0.0136012
752.046	0.0135551
752.124	0.0135939
752.203	0.0136674
752.281	0.0134671
752.359	0.0135825
752.437	0.0134637
752.515	0.0135680
752.593	0.0134253
752.671	0.0132575
752.749	0.0134571
752.828	0.0134948
752.906	0.0134488
752.984	0.0133456
753.062	0.0134650
753.140	0.0134596
753.218	0.0133953
753.296	0.0134496
753.374	0.0136858
753.453	0.0135208
753.531	0.0134460
753.609	0.0134603
753.687	0.0135480
753.765	0.0136163
753.843	0.0135986
753.921	0.0135554
753.999	0.0135715
754.078	0.0134808
754.156	0.0134176
754.234	0.0136005
754.312	0.0136688
754.390	0.0134876
754.468	0.0134813
754.546	0.0136593
754.624	0.0135860
754.703	0.0135690
754.781	0.0135279
754.859	0.0136645
754.937	0.0136862
755.015	0.0135706
755.093	0.0135913
755.171	0.0135991
755.249	0.0135435
755.328	0.0135758
755.406	0.0135000
755.484	0.0136402
755.562	0.0134840
755.640	0.0135201
755.718	0.0135410
755.796	0.0135422
755.874	0.0136460
755.953	0.0135956
756.031	0.0136178
756.109	0.0136269
756.187	0.0135523
756.265	0.0135617
756.343	0.0136361
756.421	0.0136340
756.499	0.0136463
756.578	0.0136537
756.656	0.0135777
756.734	0.0135175
756.812	0.0136073
756.890	0.0135120
756.968	0.0135734
757.046	0.0133960
757.124	0.0135207
757.203	0.0135911
757.281	0.0134644
757.359	0.0134961
757.437	0.0133624
757.515	0.0134274
757.593	0.0133075
757.671	0.0133621
757.749	0.0133419
757.828	0.0133859
757.906	0.0134287
757.984	0.0133934
758.062	0.0134036
758.140	0.0135075
758.218	0.0136353
758.296	0.0136178
758.374	0.0136317
758.453	0.0136648
758.531	0.0136211
758.609	0.0136972
758.687	0.0136926
758.765	0.0138023
758.843	0.0137560
758.921	0.0136395
758.999	0.0137377
759.078	0.0136730
759.156	0.0137849
759.234	0.0136474
759.312	0.0135954
759.390	0.0136282
759.468	0.0136027
759.546	0.0135738
759.624	0.0134438
759.703	0.0135586
759.781	0.0134602
759.859	0.0135733
759.937	0.0136397
760.015	0.0135339
760.093	0.0135097
760.171	0.0136666
760.249	0.0135501
760.328	0.0134921
760.406	0.0135835
760.484	0.0136826
760.562	0.0136735
760.640	0.0135482
760.718	0.0136466
760.796	0.0136156
760.874	0.0134792
760.953	0.0134354
761.031	0.0134589
761.109	0.0135288
761.187	0.0135545
761.265	0.0135622
761.343	0.0136166
761.421	0.0135642
761.499	0.0135846
761.578	0.0137009
761.656	0.0136975
761.734	0.0136578
761.812	0.0137509
761.890	0.0138101
761.968	0.0137070
762.046	0.0138288
762.124	0.0137486
762.203	0.0137382
762.281	0.0136237
762.359	0.0135957
762.437	0.0136032
762.515	0.0135167
762.593	0.0135276
762.671	0.0133891
762.749	0.0135030
762.828	0.0135442
762.906	0.0135165
762.984	0.0134960
763.062	0.0135476
763.140	0.0136539
763.218	0.0135535
763.296	0.0134902
763.374	0.0135249
763.453	0.0134782
763.531	0.0137359
763.609	0.0136649
763.687	0.0135985
763.765	0.0136003
763.843	0.0135964
763.921	0.0136674
763.999	0.0135346
764.078	0.0134982
764.156	0.0136293
764.234	0.0136089
764.312	0.0134742
764.390	0.0135462
764.468	0.0136154
764.546	0.0135824
764.624	0.0135715
764.703	0.0135901
764.781	0.0137723
764.859	0.0135821
764.937	0.0134669
765.015	0.0136554
765.093	0.0136317
765.171	0.0137710
765.249	0.0136418
765.328	0.0137228
765.406	0.0135683
765.484	0.0138126
765.562	0.0136752
765.640	0.0135378
765.718	0.0134674
765.796	0.0134161
765.874	0.0135585
765.953	0.0135074
766.031	0.0134583
766.109	0.0134447
766.187	0.0134353
766.265	0.0135867
766.343	0.0136095
766.421	0.0136050
766.499	0.0136106
766.578	0.0138360
766.656	0.0135072
766.734	0.0136603
766.812	0.0136233
766.890	0.0135435
766.968	0.0134186
767.046	0.0134687
767.124	0.0134497
767.203	0.0133846
767.281	0.0134548
767.359	0.0135007
767.437	0.0134717
767.515	0.0133903
767.593	0.0133920
767.671	0.0133905
767.749	0.0133933
767.828	0.0134332
767.906	0.0134544
767.984	0.0135935
768.062	0.0134317
768.140	0.0134769
768.218	0.0135071
768.296	0.0136156
768.374	0.0135160
768.453	0.0136353
768.531	0.0137104
768.609	0.0136134
768.687	0.0136967
768.765	0.0137338
768.843	0.0137305
768.921	0.0136322
768.999	0.0136109
769.078	0.0135482
769.156	0.0136835
769.234	0.0136646
769.312	0.0136256
769.390	0.0135449
769.468	0.0135605
769.546	0.0136034
769.624	0.0135682
769.703	0.0135083
769.781	0.0135482
769.859	0.0135477
769.937	0.0136294
770.015	0.0136581
770.093	0.0135870
770.171	0.0135729
770.249	0.0134366
770.328	0.0135808
770.406	0.0135739
770.484	0.0136115
770.562	0.0135242
770.640	0.0135440
770.718	0.0134157
770.796	0.0134476
770.874	0.0134018
770.953	0.0134030
771.031	0.0135201
771.109	0.0134976
771.187	0.0135571
771.265	0.0134528
771.343	0.0135948
771.421	0.0134560
771.499	0.0135326
771.578	0.0136373
771.656	0.0135787
771.734	0.0136347
771.812	0.0135172
771.890	0.0135690
771.968	0.0136271
772.046	0.0136185
772.124	0.0135296
772.203	0.0136202
772.281	0.0136113
772.359	0.0136530
772.437	0.0138387
772.515	0.0137574
772.593	0.0136068
772.671	0.0137092
772.749	0.0136966
772.828	0.0136533
772.906	0.0135723
772.984	0.0137630
773.062	0.0135271
773.140	0.0134653
773.218	0.0135464
773.296	0.0135413
773.374	0.0135072
773.453	0.0135928
773.531	0.0134879
773.609	0.0133769
773.687	0.0134731
773.765	0.0135748
773.843	0.0134499
773.921	0.0136344
773.999	0.0134900
774.078	0.0134911
774.156	0.0135545
774.234	0.0135271
774.312	0.0135206
774.390	0.0134366
774.468	0.0135596
774.546	0.0134937
774.624	0.0134350
774.703	0.0134228
774.781	0.0135575
774.859	0.0134653
774.937	0.0134694
775.015	0.0135548
775.093	0.0136361
775.171	0.0135918
775.249	0.0135845
775.328	0.0136772
775.406	0.0136156
775.484	0.0135249
775.562	0.0136415
775.640	0.0136019
775.718	0.0136295
775.796	0.0136010
775.874	0.0136382
775.953	0.0135000
776.031	0.0136286
776.109	0.0135700
776.187	0.0134863
776.265	0.0134406
776.343	0.0134915
776.421	0.0135970
776.499	0.0136150
776.578	0.0135752
776.656	0.0135974
776.734	0.0134898
776.812	0.0135531
776.890	0.0136628
776.968	0.0135127
777.046	0.0136352
777.124	0.0136407
777.203	0.0136522
777.281	0.0136500
777.359	0.0135745
777.437	0.0137878
777.515	0.0135854
777.593	0.0136014
777.671	0.0136295
777.749	0.0134830
777.828	0.0136382
777.906	0.0135770
777.984	0.0135371
778.062	0.0137093
778.140	0.0135595
778.218	0.0136794
778.296	0.0136306
778.374	0.0134305
778.453	0.0136793
778.531	0.0136423
778.609	0.0136338
778.687	0.0137405
778.765	0.0137090
778.843	0.0134982
778.921	0.0136344
778.999	0.0136253
779.078	0.0135963
779.156	0.0136092
779.234	0.0135399
779.312	0.0135381
779.390	0.0135838
779.468	0.0134613
779.546	0.0134070
779.624	0.0135191
779.703	0.0134573
779.781	0.0134444
779.859	0.0135513
779.937	0.0133817
780.015	0.0135009
780.093	0.0135073
780.171	0.0135500
780.249	0.0135261
780.328	0.0134308
780.406	0.0136181
780.484	0.0133813
780.562	0.0135339
780.640	0.0135576
780.718	0.0135452
780.796	0.0136217
780.874	0.0135004
780.953	0.0136648
781.031	0.0135657
781.109	0.0135695
781.187	0.0135382
781.265	0.0135669
781.343	0.0135159
781.421	0.0136694
781.499	0.0135941
781.578	0.0136697
781.656	0.0136437
781.734	0.0134711
781.812	0.0136941
781.890	0.0137595
781.968	0.0135917
782.046	0.0135397
782.124	0.0134940
782.203	0.0134624
782.281	0.0136255
782.359	0.0136457
782.437	0.0135124
782.515	0.0134867
782.593	0.0134959
782.671	0.0135975
782.749	0.0134584
782.828	0.0134315
782.906	0.0134930
782.984	0.0133446
783.062	0.0133582
783.140	0.0135088
783.218	0.0135110
783.296	0.0135492
783.374	0.0134791
783.453	0.0136887
783.531	0.0137834
783.609	0.0136835
783.687	0.0136440
783.765	0.0136327
783.843	0.0137230
783.921	0.0136031
783.999	0.0136164
784.078	0.0136186
784.156	0.0137521
784.234	0.0136226
784.312	0.0135220
784.390	0.0135553
784.468	0.0134697
784.546	0.0134219
784.624	0.0133681
784.703	0.0132939
784.781	0.0133269
784.859	0.0134789
784.937	0.0133181
785.015	0.0133598
785.093	0.0133997
785.171	0.0134074
785.249	0.0133771
785.328	0.0135175
785.406	0.0135763
785.484	0.0136264
785.562	0.0135691
785.640	0.0136788
785.718	0.0136330
785.796	0.0137407
785.874	0.0136209
785.953	0.0136605
786.031	0.0136593
786.109	0.0136694
786.187	0.0136026
786.265	0.0136926
786.343	0.0135284
786.421	0.0134278
786.499	0.0134564
786.578	0.0134428
786.656	0.0134058
786.734	0.0133134
786.812	0.0132816
786.890	0.0133597
786.968	0.0133564
787.046	0.0134367
787.124	0.0133385
787.203	0.0135052
787.281	0.0135464
787.359	0.0135490
787.437	0.0135437
787.515	0.0135810
787.593	0.0135654
787.671	0.0135165
787.749	0.0135867
787.828	0.0137071
787.906	0.0136391
787.984	0.0136678
788.062	0.0135966
788.140	0.0137042
788.218	0.0135617
788.296	0.0136256
788.374	0.0136921
788.453	0.0135856
788.531	0.0135323
788.609	0.0135747
788.687	0.0135310
788.765	0.0135851
788.843	0.0135284
788.921	0.0135318
788.999	0.0136114
789.078	0.0135841
789.156	0.0136053
789.234	0.0135052
789.312	0.0134986
789.390	0.0134930
789.468	0.0134310
789.546	0.0135603
789.624	0.0135516
789.703	0.0134064
789.781	0.0136729
789.859	0.0136715
789.937	0.0135971
790.015	0.0135411
790.093	0.0133617
790.171	0.0134938
790.249	0.0135828
790.328	0.0136188
790.406	0.0135810
790.484	0.0135858
790.562	0.0136407
790.640	0.0136920
790.718	0.0135793
790.796	0.0135492
790.874	0.0136294
790.953	0.0137178
791.031	0.0135279
791.109	0.0136649
791.187	0.0137025
791.265	0.0135735
791.343	0.0135583
791.421	0.0135313
791.499	0.0134208
791.578	0.0136022
791.656	0.0135790
791.734	0.0135093
791.812	0.0134933
791.890	0.0134914
791.968	0.0135542
792.046	0.0136543
792.124	0.0135646
792.203	0.0135015
792.281	0.0135740
792.359	0.0135196
792.437	0.0135012
792.515	0.0137267
792.593	0.0136491
792.671	0.0136337
792.749	0.0135733
792.828	0.0135397
792.906	0.0135168
792.984	0.0135397
793.062	0.0135896
793.140	0.0134025
793.218	0.0135213
793.296	0.0134628
793.374	0.0135089
793.453	0.0134694
793.531	0.0135384
793.609	0.0134621
793.687	0.0135183
793.765	0.0135754
793.843	0.0136221
793.921	0.0136330
793.999	0.0134913
794.078	0.0135419
794.156	0.0136850
794.234	0.0135952
794.312	0.0135792
794.390	0.0135400
794.468	0.0135504
794.546	0.0135252
794.624	0.0135455
794.703	0.0137128
794.781	0.0137148
794.859	0.0135426
794.937	0.0134822
795.015	0.0136419
795.093	0.0135526
795.171	0.0134911
795.249	0.0135105
795.328	0.0134226
795.406	0.0134091
795.484	0.0135512
795.562	0.0134100
795.640	0.0133835
795.718	0.0135303
795.796	0.0136082
795.874	0.0133633
795.953	0.0134469
796.031	0.0134108
796.109	0.0135529
796.187	0.0133121
796.265	0.0133630
796.343	0.0135606
796.421	0.0133780
796.499	0.0134161
796.578	0.0134290
796.656	0.0132286
796.734	0.0134478
796.812	0.0132946
796.890	0.0133630
796.968	0.0134154
797.046	0.0135384
797.124	0.0133614
797.203	0.0133859
797.281	0.0133054
797.359	0.0135294
797.437	0.0134624
797.515	0.0134281
797.593	0.0134763
797.671	0.0134879
797.749	0.0137181
797.828	0.0136010
797.906	0.0135492
797.984	0.0135139
798.062	0.0135500
798.140	0.0135921
798.218	0.0134992
798.296	0.0135833
798.374	0.0136967
798.453	0.0137990
798.531	0.0136443
798.609	0.0136183
798.687	0.0136405
798.765	0.0135159
798.843	0.0137595
798.921	0.0137276
798.999	0.0136797
799.078	0.0137600
799.156	0.0137064
799.234	0.0137366
799.312	0.0135826
799.390	0.0138078
799.468	0.0136885
799.546	0.0136882
799.624	0.0138208
799.703	0.0138102
799.781	0.0136415
799.859	0.0136911
799.937	0.0139254
800.015	0.0139453
800.093	0.0137997
800.171	0.0137879
800.249	0.0139210
800.328	0.0138876
800.406	0.0137660
800.484	0.0137066
800.562	0.0137565
800.640	0.0137794
800.718	0.0137573
800.796	0.0136958
800.874	0.0136893
800.953	0.0135143
801.031	0.0134956
801.109	0.0136263
801.187	0.0134353
801.265	0.0133750
801.343	0.0133517
801.421	0.0133887
801.499	0.0133744
801.578	0.0133131
801.656	0.0132301
801.734	0.0132925
801.812	0.0132871
801.890	0.0133645
801.968	0.0133239
802.046	0.0134003
802.124	0.0133315
802.203	0.0133353
802.281	0.0133876
802.359	0.0134493
802.437	0.0133874
802.515	0.0133414
802.593	0.0133041
802.671	0.0134161
802.749	0.0135756
802.828	0.0134118
802.906	0.0134895
802.984	0.0135122
803.062	0.0135860
803.140	0.0135437
803.218	0.0135325
803.296	0.0133945
803.374	0.0135679
803.453	0.0136691
803.531	0.0135974
803.609	0.0135160
803.687	0.0135861
803.765	0.0135358
803.843	0.0134724
803.921	0.0135948
803.999	0.0136237
804.078	0.0134377
804.156	0.0135243
804.234	0.0135363
804.312	0.0134584
804.390	0.0134074
804.468	0.0135136
804.546	0.0134590
804.624	0.0134477
804.703	0.0135889
804.781	0.0136235
804.859	0.0135744
804.937	0.0134261
805.015	0.0135252
805.093	0.0135034
805.171	0.0135074
805.249	0.0134710
805.328	0.0134006
805.406	0.0134125
805.484	0.0134092
805.562	0.0135264
805.640	0.0137103
805.718	0.0135091
805.796	0.0134699
805.874	0.0135230
805.953	0.0135936
806.031	0.0134705
806.109	0.0135094
806.187	0.0135599
806.265	0.0134691
806.343	0.0136240
806.421	0.0135865
806.499	0.0134282
806.578	0.0136159
806.656	0.0135760
806.734	0.0136031
806.812	0.0135545
806.890	0.0134628
806.968	0.0134689
807.046	0.0136298
807.124	0.0136668
807.203	0.0134857
807.281	0.0134682
807.359	0.0135976
807.437	0.0135905
807.515	0.0136404
807.593	0.0136922
807.671	0.0136720
807.749	0.0136087
807.828	0.0136296
807.906	0.0137679
807.984	0.0135884
808.062	0.0135670
808.140	0.0135746
808.218	0.0136032
808.296	0.0136256
808.374	0.0135087
808.453	0.0134238
808.531	0.0135623
808.609	0.0136401
808.687	0.0136071
808.765	0.0134278
808.843	0.0134804
808.921	0.0135645
808.999	0.0135445
809.078	0.0136379
809.156	0.0135989
809.234	0.0134768
809.312	0.0136479
809.390	0.0135567
809.468	0.0134941
809.546	0.0137025
809.624	0.0135384
809.703	0.0135357
809.781	0.0136371
809.859	0.0137671
809.937	0.0135574
810.015	0.0135979
810.093	0.0135236
810.171	0.0135359
810.249	0.0135439
810.328	0.0135359
810.406	0.0134350
810.484	0.0135330
810.562	0.0136272
810.640	0.0134444
810.718	0.0134791
810.796	0.0135342
810.874	0.0133969
810.953	0.0135166
811.031	0.0135028
811.109	0.0134937
811.187	0.0134877
811.265	0.0135282
811.343	0.0135311
811.421	0.0136202
811.499	0.0136282
811.578	0.0136315
811.656	0.0135886
811.734	0.0134565
811.812	0.0136328
811.890	0.0136351
811.968	0.0135371
812.046	0.0135458
812.124	0.0134327
812.203	0.0133377
812.281	0.0132932
812.359	0.0134385
812.437	0.0134892
812.515	0.0134255
812.593	0.0133866
812.671	0.0134581
812.749	0.0133457
812.828	0.0133374
812.906	0.0135075
812.984	0.0134090
813.062	0.0135022
813.140	0.0134401
813.218	0.0134559
813.296	0.0134691
813.374	0.0135397
813.453	0.0136069
813.531	0.0134126
813.609	0.0135587
813.687	0.0136423
813.765	0.0135499
813.843	0.0135695
813.921	0.0134359
813.999	0.0134268
814.078	0.0133431
814.156	0.0133850
814.234	0.0133794
814.312	0.0135046
814.390	0.0134534
814.468	0.0134503
814.546	0.0134444
814.624	0.0134608
814.703	0.0134892
814.781	0.0135522
814.859	0.0135339
814.937	0.0135376
815.015	0.0136644
815.093	0.0137247
815.171	0.0137100
815.249	0.0136242
815.328	0.0136356
815.406	0.0137438
815.484	0.0138605
815.562	0.0136356
815.640	0.0136546
815.718	0.0138402
815.796	0.0137361
815.874	0.0136061
815.953	0.0136018
816.031	0.0135694
816.109	0.0136417
816.187	0.0137859
816.265	0.0136340
816.343	0.0136052
816.421	0.0136235
816.499	0.0136945
816.578	0.0138304
816.656	0.0136423
816.734	0.0136195
816.812	0.0136167
816.890	0.0136219
816.968	0.0135468
817.046	0.0135061
817.124	0.0133987
817.203	0.0133979
817.281	0.0134082
817.359	0.0133443
817.437	0.0134168
817.515	0.0134503
817.593	0.0133507
817.671	0.0135483
817.749	0.0134488
817.828	0.0134253
817.906	0.0133939
817.984	0.0136082
818.062	0.0135141
818.140	0.0135654
818.218	0.0135119
818.296	0.0134626
818.374	0.0135196
818.453	0.0134882
818.531	0.0134351
818.609	0.0135827
818.687	0.0136008
818.765	0.0135400
818.843	0.0134522
818.921	0.0134744
818.999	0.0136629
819.078	0.0135665
819.156	0.0134190
819.234	0.0133212
819.312	0.0135362
819.390	0.0134531
819.468	0.0133982
819.546	0.0135107
819.624	0.0134875
819.703	0.0135136
819.781	0.0133775
819.859	0.0133874
819.937	0.0134949
820.015	0.0134843
820.093	0.0134435
820.171	0.0134557
820.249	0.0133426
820.328	0.0136391
820.406	0.0136083
820.484	0.0134316
820.562	0.0134907
820.640	0.0135769
820.718	0.0135581
820.796	0.0135284
820.874	0.0136355
820.953	0.0136350
821.031	0.0137418
821.109	0.0136087
821.187	0.0135928
821.265	0.0136555
821.343	0.0136003
821.421	0.0134554
821.499	0.0135332
821.578	0.0136549
821.656	0.0133472
821.734	0.0135516
821.812	0.0135271
821.890	0.0134451
821.968	0.0135452
822.046	0.0134136
822.124	0.0136494
822.203	0.0136532
822.281	0.0134870
822.359	0.0135460
822.437	0.0136003
822.515	0.0135395
822.593	0.0136250
822.671	0.0136172
822.749	0.0136559
822.828	0.0136702
822.906	0.0136748
822.984	0.0136176
823.062	0.0135809
823.140	0.0135983
823.218	0.0135579
823.296	0.0137505
823.374	0.0136140
823.453	0.0135932
823.531	0.0136287
823.609	0.0136385
823.687	0.0136628
823.765	0.0134477
823.843	0.0135287
823.921	0.0135408
823.999	0.0135762
824.078	0.0135046
824.156	0.0134373
824.234	0.0135048
824.312	0.0135333
824.390	0.0135178
824.468	0.0135327
824.546	0.0135612
824.624	0.0134853
824.703	0.0135577
824.781	0.0134367
824.859	0.0134487
824.937	0.0136175
825.015	0.0135191
825.093	0.0135032
825.171	0.0135491
825.249	0.0134508
825.328	0.0133861
825.406	0.0135126
825.484	0.0136214
825.562	0.0135835
825.640	0.0133673
825.718	0.0135840
825.796	0.0135450
825.874	0.0134319
825.953	0.0135065
826.031	0.0134447
826.109	0.0133732
826.187	0.0134646
826.265	0.0134589
826.343	0.0135103
826.421	0.0135629
826.499	0.0134750
826.578	0.0135585
826.656	0.0132928
826.734	0.0135532
826.812	0.0135886
826.890	0.0135551
826.968	0.0135985
827.046	0.0134685
827.124	0.0135983
827.203	0.0133961
827.281	0.0134957
827.359	0.0136071
827.437	0.0134496
827.515	0.0133338
827.593	0.0134785
827.671	0.0135194
827.749	0.0134119
827.828	0.0133685
827.906	0.0136451
827.984	0.0135857
828.062	0.0136630
828.140	0.0136872
828.218	0.0136266
828.296	0.0133614
828.374	0.0136648
828.453	0.0135441
828.531	0.0136893
828.609	0.0137060
828.687	0.0136456
828.765	0.0137818
828.843	0.0135851
828.921	0.0135023
828.999	0.0135017
829.078	0.0136411
829.156	0.0136233
829.234	0.0136325
829.312	0.0136243
829.390	0.0135646
829.468	0.0135403
829.546	0.0135564
829.624	0.0136262
829.703	0.0134943
829.781	0.0136021
829.859	0.0135580
829.937	0.0135902
830.015	0.0137601
830.093	0.0136033
830.171	0.0135356
830.249	0.0136536
830.328	0.0136174
830.406	0.0136051
830.484	0.0137323
830.562	0.0135916
830.640	0.0135873
830.718	0.0136610
830.796	0.0137239
830.874	0.0136922
830.953	0.0137653
831.031	0.0136199
831.109	0.0135972
831.187	0.0135606
831.265	0.0136227
831.343	0.0135922
831.421	0.0136023
831.499	0.0136396
831.578	0.0136994
831.656	0.0136128
831.734	0.0135357
831.812	0.0134962
831.890	0.0135451
831.968	0.0137254
832.046	0.0136038
832.124	0.0135854
832.203	0.0136808
832.281	0.0135966
832.359	0.0135583
832.437	0.0133994
832.515	0.0135432
832.593	0.0136533
832.671	0.0136016
832.749	0.0135602
832.828	0.0136560
832.906	0.0135785
832.984	0.0134576
833.062	0.0136243
833.140	0.0135552
833.218	0.0135107
833.296	0.0136292
833.374	0.0135329
833.453	0.0135366
833.531	0.0135641
833.609	0.0136000
833.687	0.0135804
833.765	0.0135871
833.843	0.0135066
833.921	0.0135951
833.999	0.0138099
834.078	0.0137129
834.156	0.0136669
834.234	0.0136852
834.312	0.0136574
834.390	0.0137563
834.468	0.0136433
834.546	0.0135350
834.624	0.0136087
834.703	0.0136050
834.781	0.0135813
834.859	0.0136168
834.937	0.0136700
835.015	0.0135018
835.093	0.0135571
835.171	0.0135109
835.249	0.0135284
835.328	0.0134838
835.406	0.0135870
835.484	0.0135590
835.562	0.0135175
835.640	0.0135529
835.718	0.0135714
835.796	0.0136406
835.874	0.0134837
835.953	0.0135153
836.031	0.0136647
836.109	0.0137571
836.187	0.0135807
836.265	0.0136273
836.343	0.0136997
836.421	0.0135764
836.499	0.0135368
836.578	0.0137300
836.656	0.0137380
836.734	0.0137326
836.812	0.0135986
836.890	0.0135942
836.968	0.0135957
837.046	0.0135075
837.124	0.0136078
837.203	0.0136497
837.281	0.0136715
837.359	0.0135355
837.437	0.0136103
837.515	0.0134894
837.593	0.0137220
837.671	0.0137286
837.749	0.0137550
837.828	0.0137131
837.906	0.0136671
837.984	0.0137727
838.062	0.0135878
838.140	0.0136424
838.218	0.0137072
838.296	0.0136722
838.374	0.0137153
838.453	0.0136560
838.531	0.0136289
838.609	0.0136533
838.687	0.0136368
838.765	0.0135732
838.843	0.0136094
838.921	0.0136337
838.999	0.0136669
839.078	0.0136519
839.156	0.0136237
839.234	0.0136607
839.312	0.0137009
839.390	0.0136253
839.468	0.0137391
839.546	0.0136813
839.624	0.0138609
839.703	0.0136529
839.781	0.0136992
839.859	0.0137898
839.937	0.0137769
840.015	0.0136709
840.093	0.0137553
840.171	0.0135378
840.249	0.0136040
840.328	0.0134480
840.406	0.0135677
840.484	0.0136665
840.562	0.0135533
840.640	0.0135950
840.718	0.0134753
840.796	0.0135284
840.874	0.0135292
840.953	0.0135884
841.031	0.0136595
841.109	0.0135130
841.187	0.0135809
841.265	0.0136914
841.343	0.0136575
841.421	0.0136364
841.499	0.0136590
841.578	0.0135075
841.656	0.0135619
841.734	0.0136577
841.812	0.0136791
841.890	0.0137708
841.968	0.0136191
842.046	0.0135300
842.124	0.0136534
842.203	0.0136263
842.281	0.0136656
842.359	0.0136074
842.437	0.0136776
842.515	0.0136533
842.593	0.0135991
842.671	0.0136189
842.749	0.0137086
842.828	0.0135206
842.906	0.0136118
842.984	0.0135767
843.062	0.0136395
843.140	0.0133968
843.218	0.0135794
843.296	0.0136397
843.374	0.0134811
843.453	0.0135505
843.531	0.0135564
843.609	0.0135165
843.687	0.0135650
843.765	0.0134099
843.843	0.0135207
843.921	0.0136330
843.999	0.0135661
844.078	0.0135445
844.156	0.0136464
844.234	0.0136142
844.312	0.0135139
844.390	0.0135373
844.468	0.0136591
844.546	0.0134994
844.624	0.0135558
844.703	0.0136661
844.781	0.0136378
844.859	0.0134031
844.937	0.0136288
845.015	0.0136782
845.093	0.0135445
845.171	0.0136328
845.249	0.0134731
845.328	0.0134875
845.406	0.0135127
845.484	0.0136219
845.562	0.0133866
845.640	0.0136098
845.718	0.0135111
845.796	0.0135916
845.874	0.0135287
845.953	0.0135517
846.031	0.0135070
846.109	0.0134927
846.187	0.0136485
846.265	0.0135860
846.343	0.0134802
846.421	0.0136772
846.499	0.0135272
846.578	0.0136125
846.656	0.0136288
846.734	0.0137239
846.812	0.0135754
846.890	0.0134686
846.968	0.0136719
847.046	0.0135736
847.124	0.0137395
847.203	0.0136407
847.281	0.0134502
847.359	0.0136292
847.437	0.0134892
847.515	0.0135663
847.593	0.0135415
847.671	0.0136339
847.749	0.0136362
847.828	0.0135517
847.906	0.0135686
847.984	0.0134603
848.062	0.0134823
848.140	0.0136148
848.218	0.0136001
848.296	0.0135530
848.374	0.0137039
848.453	0.0136545
848.531	0.0134837
848.609	0.0134988
848.687	0.0136969
848.765	0.0136251
848.843	0.0135297
848.921	0.0135777
848.999	0.0135361
849.078	0.0136209
849.156	0.0136074
849.234	0.0136272
849.312	0.0134132
849.390	0.0134362
849.468	0.0135077
849.546	0.0136040
849.624	0.0135459
849.703	0.0134290
849.781	0.0135100
849.859	0.0135408
849.937	0.0135847
850.015	0.0135265
850.093	0.0136163
850.171	0.0135797
850.249	0.0135261
850.328	0.0136318
850.406	0.0136492
850.484	0.0135893
850.562	0.0136544
850.640	0.0138128
850.718	0.0135409
850.796	0.0134956
850.874	0.0136408
850.953	0.0136076
851.031	0.0138110
851.109	0.0136268
851.187	0.0136273
851.265	0.0135038
851.343	0.0135995
851.421	0.0136308
851.499	0.0135098
851.578	0.0135185
851.656	0.0135635
851.734	0.0133804
851.812	0.0134799
851.890	0.0136478
851.968	0.0136082
852.046	0.0135171
852.124	0.0136342
852.203	0.0135752
852.281	0.0136342
852.359	0.0135714
852.437	0.0136499
852.515	0.0135757
852.593	0.0136245
852.671	0.0136211
852.749	0.0137412
852.828	0.0136967
852.906	0.0136780
852.984	0.0135664
853.062	0.0137621
853.140	0.0137360
853.218	0.0135651
853.296	0.0136126
853.374	0.0136777
853.453	0.0136047
853.531	0.0135721
853.609	0.0136145
853.687	0.0136466
853.765	0.0136767
853.843	0.0134450
853.921	0.0135564
853.999	0.0135447
854.078	0.0136813
854.156	0.0134662
854.234	0.0135508
854.312	0.0136085
854.390	0.0135970
854.468	0.0136187
854.546	0.0136938
854.624	0.0136272
854.703	0.0135894
854.781	0.0136381
854.859	0.0135798
854.937	0.0136673
855.015	0.0136089
855.093	0.0136940
855.171	0.0135596
855.249	0.0135040
855.328	0.0137089
855.406	0.0137210
855.484	0.0136486
855.562	0.0135154
855.640	0.0135545
855.718	0.0135010
855.796	0.0134577
855.874	0.0134480
855.953	0.0134793
856.031	0.0135748
856.109	0.0135660
856.187	0.0133610
856.265	0.0135039
856.343	0.0135960
856.421	0.0135968
856.499	0.0134633
856.578	0.0135664
856.656	0.0136311
856.734	0.0135844
856.812	0.0135851
856.890	0.0135213
856.968	0.0136303
857.046	0.0136569
857.124	0.0135363
857.203	0.0136706
857.281	0.0136256
857.359	0.0135124
857.437	0.0135423
857.515	0.0134422
857.593	0.0133720
857.671	0.0136359
857.749	0.0136025
857.828	0.0134186
857.906	0.0135742
857.984	0.0135277
858.062	0.0136351
858.140	0.0136086
858.218	0.0137350
858.296	0.0137186
858.374	0.0136659
858.453	0.0135734
858.531	0.0136909
858.609	0.0137035
858.687	0.0137038
858.765	0.0136531
858.843	0.0136290
858.921	0.0135656
858.999	0.0136205
859.078	0.0136672
859.156	0.0134668
859.234	0.0134354
859.312	0.0135871
859.390	0.0135629
859.468	0.0135009
859.546	0.0136279
859.624	0.0136087
859.703	0.0134952
859.781	0.0134918
859.859	0.0134959
859.937	0.0136304
860.015	0.0135614
860.093	0.0134832
860.171	0.0135050
860.249	0.0135857
860.328	0.0137066
860.406	0.0135925
860.484	0.0136046
860.562	0.0135300
860.640	0.0135253
860.718	0.0135882
860.796	0.0135218
860.874	0.0135647
860.953	0.0136279
861.031	0.0135487
861.109	0.0135201
861.187	0.0135642
861.265	0.0136256
861.343	0.0135055
861.421	0.0135975
861.499	0.0136133
861.578	0.0136066
861.656	0.0135904
861.734	0.0137158
861.812	0.0136939
861.890	0.0136662
861.968	0.0136816
862.046	0.0135947
862.124	0.0136003
862.203	0.0137249
862.281	0.0137032
862.359	0.0136903
862.437	0.0135468
862.515	0.0136223
862.593	0.0135712
862.671	0.0134731
862.749	0.0135886
862.828	0.0135368
862.906	0.0136653
862.984	0.0135491
863.062	0.0133604
863.140	0.0136009
863.218	0.0134331
863.296	0.0134229
863.374	0.0134039
863.453	0.0135046
863.531	0.0135925
863.609	0.0135648
863.687	0.0134884
863.765	0.0135017
863.843	0.0135204
863.921	0.0134979
863.999	0.0135420
864.078	0.0136157
864.156	0.0135438
864.234	0.0135635
864.312	0.0135682
864.390	0.0135520
864.468	0.0136443
864.546	0.0136810
864.624	0.0136272
864.703	0.0136703
864.781	0.0135747
864.859	0.0135755
864.937	0.0136721
865.015	0.0136311
865.093	0.0136353
865.171	0.0135025
865.249	0.0135197
865.328	0.0134502
865.406	0.0135383
865.484	0.0135001
865.562	0.0135732
865.640	0.0135410
865.718	0.0135011
865.796	0.0135733
865.874	0.0135046
865.953	0.0135854
866.031	0.0135314
866.109	0.0134650
866.187	0.0134328
866.265	0.0135724
866.343	0.0137090
866.421	0.0135902
866.499	0.0135992
866.578	0.0136049
866.656	0.0136045
866.734	0.0136027
866.812	0.0136350
866.890	0.0135195
866.968	0.0135651
867.046	0.0136893
867.124	0.0136373
867.203	0.0135390
867.281	0.0134799
867.359	0.0135007
867.437	0.0134427
867.515	0.0134726
867.593	0.0134807
867.671	0.0134792
867.749	0.0135461
867.828	0.0134580
867.906	0.0133524
867.984	0.0134865
868.062	0.0135545
868.140	0.0135848
868.218	0.0135264
868.296	0.0135084
868.374	0.0133819
868.453	0.0135360
868.531	0.0135089
868.609	0.0135320
868.687	0.0136865
868.765	0.0136513
868.843	0.0135989
868.921	0.0135495
868.999	0.0137523
869.078	0.0137164
869.156	0.0136057
869.234	0.0135673
869.312	0.0136768
869.390	0.0137584
869.468	0.0137209
869.546	0.0135684
869.624	0.0135972
869.703	0.0136770
869.781	0.0136026
869.859	0.0136050
869.937	0.0136999
870.015	0.0136520
870.093	0.0136832
870.171	0.0135207
870.249	0.0135859
870.328	0.0136342
870.406	0.0135342
870.484	0.0136955
870.562	0.0136932
870.640	0.0136716
870.718	0.0135348
870.796	0.0137064
870.874	0.0137255
870.953	0.0136786
871.031	0.0137244
871.109	0.0135420
871.187	0.0135913
871.265	0.0136470
871.343	0.0136154
871.421	0.0135391
871.499	0.0136454
871.578	0.0135855
871.656	0.0135298
871.734	0.0136108
871.812	0.0135394
871.890	0.0135132
871.968	0.0134808
872.046	0.0135359
872.124	0.0136444
872.203	0.0135643
872.281	0.0135787
872.359	0.0135538
872.437	0.0135342
872.515	0.0136105
872.593	0.0137141
872.671	0.0135358
872.749	0.0135612
872.828	0.0137086
872.906	0.0136565
872.984	0.0136029
873.062	0.0135329
873.140	0.0137395
873.218	0.0137437
873.296	0.0137008
873.374	0.0136740
873.453	0.0135275
873.531	0.0137508
873.609	0.0135840
873.687	0.0135339
873.765	0.0137083
873.843	0.0135534
873.921	0.0133706
873.999	0.0135505
874.078	0.0135335
874.156	0.0134584
874.234	0.0134527
874.312	0.0135064
874.390	0.0135211
874.468	0.0134225
874.546	0.0135032
874.624	0.0135758
874.703	0.0134314
874.781	0.0133847
874.859	0.0134115
874.937	0.0136791
875.015	0.0134341
875.093	0.0135111
875.171	0.0136472
875.249	0.0136832
875.328	0.0134586
875.406	0.0135122
875.484	0.0135781
875.562	0.0135892
875.640	0.0134569
875.718	0.0134518
875.796	0.0135535
875.874	0.0135629
875.953	0.0134859
876.031	0.0135629
876.109	0.0136014
876.187	0.0134991
876.265	0.0136655
876.343	0.0135259
876.421	0.0135884
876.499	0.0136095
876.578	0.0134969
876.656	0.0136398
876.734	0.0135851
876.812	0.0135661
876.890	0.0136382
876.968	0.0136417
877.046	0.0134548
877.124	0.0135423
877.203	0.0137225
877.281	0.0135215
877.359	0.0135076
877.437	0.0136176
877.515	0.0135214
877.593	0.0134512
877.671	0.0135921
877.749	0.0136619
877.828	0.0135870
877.906	0.0134569
877.984	0.0134007
878.062	0.0134311
878.140	0.0135037
878.218	0.0135030
878.296	0.0134659
878.374	0.0135706
878.453	0.0135722
878.531	0.0134566
878.609	0.0136414
878.687	0.0136920
878.765	0.0137787
878.843	0.0136421
878.921	0.0137023
878.999	0.0136442
879.078	0.0134624
879.156	0.0135180
879.234	0.0135139
879.312	0.0133780
879.390	0.0133640
879.468	0.0134138
879.546	0.0132941
879.624	0.0131939
879.703	0.0132253
879.781	0.0132728
879.859	0.0131750
879.937	0.0133378
880.015	0.0133055
880.093	0.0135337
880.171	0.0135315
880.249	0.0136320
880.328	0.0137256
880.406	0.0135985
880.484	0.0137299
880.562	0.0136771
880.640	0.0136899
880.718	0.0136963
880.796	0.0138683
880.874	0.0136057
880.953	0.0135323
881.031	0.0134976
881.109	0.0136617
881.187	0.0135424
881.265	0.0132819
881.343	0.0133172
881.421	0.0133000
881.499	0.0134119
881.578	0.0133150
881.656	0.0134470
881.734	0.0134837
881.812	0.0134288
881.890	0.0135383
881.968	0.0136647
882.046	0.0135840
882.124	0.0135091
882.203	0.0137766
882.281	0.0137286
882.359	0.0136240
882.437	0.0138537
882.515	0.0137654
882.593	0.0137414
882.671	0.0137182
882.749	0.0136409
882.828	0.0137215
882.906	0.0136235
882.984	0.0136804
883.062	0.0137508
883.140	0.0135790
883.218	0.0137195
883.296	0.0137109
883.374	0.0137379
883.453	0.0137961
883.531	0.0137415
883.609	0.0136224
883.687	0.0135281
883.765	0.0135969
883.843	0.0134999
883.921	0.0135382
883.999	0.0134715
884.078	0.0134633
884.156	0.0137173
884.234	0.0135010
884.312	0.0134000
884.390	0.0136096
884.468	0.0135232
884.546	0.0135036
884.624	0.0135568
884.703	0.0135909
884.781	0.0136373
884.859	0.0134912
884.937	0.0135087
885.015	0.0136121
885.093	0.0136387
885.171	0.0136504
885.249	0.0135226
885.328	0.0136157
885.406	0.0135800
885.484	0.0135692
885.562	0.0135655
885.640	0.0136213
885.718	0.0135514
885.796	0.0134494
885.874	0.0135265
885.953	0.0135497
886.031	0.0136256
886.109	0.0134495
886.187	0.0135880
886.265	0.0135642
886.343	0.0135479
886.421	0.0135679
886.499	0.0136594
886.578	0.0136784
886.656	0.0137716
886.734	0.0136162
886.812	0.0136172
886.890	0.0136099
886.968	0.0135806
887.046	0.0136706
887.124	0.0135821
887.203	0.0136335
887.281	0.0133855
887.359	0.0136552
887.437	0.0135681
887.515	0.0136014
887.593	0.0133756
887.671	0.0134780
887.749	0.0135322
887.828	0.0134704
887.906	0.0134353
887.984	0.0135996
888.062	0.0134957
888.140	0.0135769
888.218	0.0135731
888.296	0.0135516
888.374	0.0134500
888.453	0.0135559
888.531	0.0134292
888.609	0.0135485
888.687	0.0135844
888.765	0.0134831
888.843	0.0135087
888.921	0.0137192
888.999	0.0136576
889.078	0.0136807
889.156	0.0135398
889.234	0.0135428
889.312	0.0137217
889.390	0.0135848
889.468	0.0136251
889.546	0.0135007
889.624	0.0135210
889.703	0.0136858
889.781	0.0134229
889.859	0.0134802
889.937	0.0134623
890.015	0.0134284
890.093	0.0135031
890.171	0.0133501
890.249	0.0134134
890.328	0.0133086
890.406	0.0134171
890.484	0.0134421
890.562	0.0133068
890.640	0.0133805
890.718	0.0134927
890.796	0.0131995
890.874	0.0133139
890.953	0.0134920
891.031	0.0134789
891.109	0.0135499
891.187	0.0135703
891.265	0.0134377
891.343	0.0134235
891.421	0.0135609
891.499	0.0135611
891.578	0.0136105
891.656	0.0136156
891.734	0.0136053
891.812	0.0135223
891.890	0.0136052
891.968	0.0135857
892.046	0.0135706
892.124	0.0135715
892.203	0.0134931
892.281	0.0134738
892.359	0.0134583
892.437	0.0134016
892.515	0.0134898
892.593	0.0134927
892.671	0.0133607
892.749	0.0136031
892.828	0.0134004
892.906	0.0133736
892.984	0.0133945
893.062	0.0135627
893.140	0.0135249
893.218	0.0136092
893.296	0.0136414
893.374	0.0136830
893.453	0.0136590
893.531	0.0136076
893.609	0.0137173
893.687	0.0137531
893.765	0.0137901
893.843	0.0136723
893.921	0.0136161
893.999	0.0136932
894.078	0.0136964
894.156	0.0135594
894.234	0.0136013
894.312	0.0136703
894.390	0.0137425
894.468	0.0137022
894.546	0.0134591
894.624	0.0135023
894.703	0.0136954
894.781	0.0137026
894.859	0.0135329
894.937	0.0136007
895.015	0.0137801
895.093	0.0137573
895.171	0.0137574
895.249	0.0138046
895.328	0.0136920
895.406	0.0136974
895.484	0.0135415
895.562	0.0137143
895.640	0.0136819
895.718	0.0135729
895.796	0.0135239
895.874	0.0133851
895.953	0.0133749
896.031	0.0133280
896.109	0.0133365
896.187	0.0133197
896.265	0.0133241
896.343	0.0133822
896.421	0.0132153
896.499	0.0132693
896.578	0.0133532
896.656	0.0132967
896.734	0.0132999
896.812	0.0133630
896.890	0.0133726
896.968	0.0133948
897.046	0.0132480
897.124	0.0134628
897.203	0.0134612
897.281	0.0133829
897.359	0.0134973
897.437	0.0136086
897.515	0.0135725
897.593	0.0135870
897.671	0.0134895
897.749	0.0134747
897.828	0.0134792
897.906	0.0136530
897.984	0.0136396
898.062	0.0134521
898.140	0.0135889
898.218	0.0136894
898.296	0.0135136
898.374	0.0133808
898.453	0.0135460
898.531	0.0135822
898.609	0.0135219
898.687	0.0132856
898.765	0.0132681
898.843	0.0132800
898.921	0.0134080
898.999	0.0134772
899.078	0.0134562
899.156	0.0134721
899.234	0.0136143
899.312	0.0135013
899.390	0.0134747
899.468	0.0135509
899.546	0.0136008
899.624	0.0135654
899.703	0.0137121
899.781	0.0137557
899.859	0.0136607
899.937	0.0137045
900.015	0.0137534
900.093	0.0137801
900.171	0.0137730
900.249	0.0135611
900.328	0.0137475
900.406	0.0136050
900.484	0.0134497
900.562	0.0134975
900.640	0.0134837
900.718	0.0135103
900.796	0.0135199
900.874	0.0134816
900.953	0.0133298
901.031	0.0132852
901.109	0.0133959
901.187	0.0135030
901.265	0.0135191
901.343	0.0134319
901.421	0.0135400
901.499	0.0134055
901.578	0.0133665
901.656	0.0135795
901.734	0.0135711
901.812	0.0135278
901.890	0.0135960
901.968	0.0137092
902.046	0.0135889
902.124	0.0135995
902.203	0.0136118
902.281	0.0136174
902.359	0.0134676
902.437	0.0134759
902.515	0.0134749
902.593	0.0136989
902.671	0.0135799
902.749	0.0134715
902.828	0.0135075
902.906	0.0135050
902.984	0.0135847
903.062	0.0134988
903.140	0.0134966
903.218	0.0135516
903.296	0.0134959
903.374	0.0135296
903.453	0.0134226
903.531	0.0135754
903.609	0.0136360
903.687	0.0135947
903.765	0.0135705
903.843	0.0135473
903.921	0.0134618
903.999	0.0134959
904.078	0.0136246
904.156	0.0137526
904.234	0.0137019
904.312	0.0135452
904.390	0.0136613
904.468	0.0136633
904.546	0.0135091
904.624	0.0135121
904.703	0.0136001
904.781	0.0137071
904.859	0.0136459
904.937	0.0137357
905.015	0.0135556
905.093	0.0136065
905.171	0.0136350
905.249	0.0135724
905.328	0.0134511
905.406	0.0134278
905.484	0.0134562
905.562	0.0134863
905.640	0.0135307
905.718	0.0136505
905.796	0.0135072
905.874	0.0134447
905.953	0.0133380
906.031	0.0134602
906.109	0.0135092
906.187	0.0134792
906.265	0.0135048
906.343	0.0135619
906.421	0.0135638
906.499	0.0135619
906.578	0.0134798
906.656	0.0135699
906.734	0.0135341
906.812	0.0136336
906.890	0.0135518
906.968	0.0135207
907.046	0.0136575
907.124	0.0135992
907.203	0.0136934
907.281	0.0137428
907.359	0.0134906
907.437	0.0135828
907.515	0.0136669
907.593	0.0135946
907.671	0.0134612
907.749	0.0135521
907.828	0.0135212
907.906	0.0133704
907.984	0.0137582
908.062	0.0136411
908.140	0.0134922
908.218	0.0134967
908.296	0.0135740
908.374	0.0135111
908.453	0.0135683
908.531	0.0136602
908.609	0.0136589
908.687	0.0135929
908.765	0.0135584
908.843	0.0134708
908.921	0.0136407
908.999	0.0135129
909.078	0.0134631
909.156	0.0134886
909.234	0.0135311
909.312	0.0136497
909.390	0.0134954
909.468	0.0135542
909.546	0.0135497
909.624	0.0135519
909.703	0.0136208
909.781	0.0136116
909.859	0.0135975
909.937	0.0135622
910.015	0.0136861
910.093	0.0136288
910.171	0.0136937
910.249	0.0137026
910.328	0.0135981
910.406	0.0135683
910.484	0.0137263
910.562	0.0136096
910.640	0.0135109
910.718	0.0135467
910.796	0.0135320
910.874	0.0134423
910.953	0.0134809
911.031	0.0135387
911.109	0.0136478
911.187	0.0134905
911.265	0.0134105
911.343	0.0135253
911.421	0.0135622
911.499	0.0134938
911.578	0.0135722
911.656	0.0133605
911.734	0.0135599
911.812	0.0136563
911.890	0.0135164
911.968	0.0135700
912.046	0.0137682
912.124	0.0137101
912.203	0.0135699
912.281	0.0135779
912.359	0.0136549
912.437	0.0136710
912.515	0.0137076
912.593	0.0136486
912.671	0.0138139
912.749	0.0136168
912.828	0.0135247
912.906	0.0135088
912.984	0.0135395
913.062	0.0135334
913.140	0.0136279
913.218	0.0134301
913.296	0.0134977
913.374	0.0133327
913.453	0.0135545
913.531	0.0135213
913.609	0.0134541
913.687	0.0134314
913.765	0.0134341
913.843	0.0134896
913.921	0.0135355
913.999	0.0135824
914.078	0.0134634
914.156	0.0133842
914.234	0.0137041
914.312	0.0135335
914.390	0.0135078
914.468	0.0135686
914.546	0.0134314
914.624	0.0134805
914.703	0.0135744
914.781	0.0137385
914.859	0.0136411
914.937	0.0136043
915.015	0.0134948
915.093	0.0135098
915.171	0.0134675
915.249	0.0136724
915.328	0.0135683
915.406	0.0135591
915.484	0.0136964
915.562	0.0135721
915.640	0.0135365
915.718	0.0136385
915.796	0.0135818
915.874	0.0135057
915.953	0.0136287
916.031	0.0135957
916.109	0.0134937
916.187	0.0134825
916.265	0.0135748
916.343	0.0134917
916.421	0.0135361
916.499	0.0135921
916.578	0.0135868
916.656	0.0135319
916.734	0.0135894
916.812	0.0135511
916.890	0.0134758
916.968	0.0136017
917.046	0.0136649
917.124	0.0135866
917.203	0.0135381
917.281	0.0136193
917.359	0.0135526
917.437	0.0135210
917.515	0.0136507
917.593	0.0136700
917.671	0.0135236
917.749	0.0136943
917.828	0.0134698
917.906	0.0134383
917.984	0.0135286
918.062	0.0134957
918.140	0.0134757
918.218	0.0135345
918.296	0.0135487
918.374	0.0133512
918.453	0.0133985
918.531	0.0135828
918.609	0.0135141
918.687	0.0134803
918.765	0.0135677
918.843	0.0135006
918.921	0.0134731
918.999	0.0134670
919.078	0.0134026
919.156	0.0134495
919.234	0.0134985
919.312	0.0136081
919.390	0.0135477
919.468	0.0134345
919.546	0.0134778
919.624	0.0135334
919.703	0.0134155
919.781	0.0134956
919.859	0.0135593
919.937	0.0133238
