05/06/2022	19:37:06	Ver.	4.1	UNKNOWN
Optical Delay	600.015094	Delta X		0.078125	Sweeps	1	Scan Rate	0/0
Coordinates	Axis 1	NaN	Axis 2	NaN	Axis 3	NaN	Axis 4	NaN	Axis 5	NaN	Axis 6	0.000000
TX Power	0.000000	RX Power	0.000000

600.015	0.0152071
600.093	0.0154035
600.171	0.0152218
600.249	0.0152841
600.328	0.0150722
600.406	0.0151280
600.484	0.0153547
600.562	0.0152475
600.640	0.0151873
600.718	0.0152292
600.796	0.0152747
600.874	0.0153093
600.953	0.0151971
601.031	0.0152749
601.109	0.0151666
601.187	0.0153609
601.265	0.0153323
601.343	0.0152569
601.421	0.0152728
601.499	0.0152962
601.578	0.0152790
601.656	0.0151904
601.734	0.0152665
601.812	0.0151655
601.890	0.0152599
601.968	0.0153330
602.046	0.0152076
602.124	0.0152332
602.203	0.0153407
602.281	0.0150888
602.359	0.0151395
602.437	0.0152092
602.515	0.0149950
602.593	0.0151320
602.671	0.0152467
602.749	0.0151928
602.828	0.0150656
602.906	0.0151678
602.984	0.0151940
603.062	0.0150864
603.140	0.0152484
603.218	0.0152138
603.296	0.0152314
603.374	0.0152270
603.453	0.0154033
603.531	0.0153142
603.609	0.0152115
603.687	0.0152296
603.765	0.0151616
603.843	0.0153077
603.921	0.0151982
603.999	0.0152734
604.078	0.0151943
604.156	0.0150707
604.234	0.0152636
604.312	0.0150842
604.390	0.0152180
604.468	0.0152162
604.546	0.0149924
604.624	0.0150260
604.703	0.0151327
604.781	0.0150965
604.859	0.0151311
604.937	0.0149937
605.015	0.0151302
605.093	0.0150401
605.171	0.0149822
605.249	0.0151218
605.328	0.0150545
605.406	0.0148785
605.484	0.0149888
605.562	0.0149641
605.640	0.0150237
605.718	0.0150459
605.796	0.0150660
605.874	0.0150306
605.953	0.0150436
606.031	0.0151279
606.109	0.0151234
606.187	0.0150561
606.265	0.0150094
606.343	0.0151595
606.421	0.0151220
606.499	0.0151348
606.578	0.0152614
606.656	0.0152183
606.734	0.0151473
606.812	0.0151933
606.890	0.0153207
606.968	0.0153632
607.046	0.0152879
607.124	0.0152718
607.203	0.0152511
607.281	0.0153247
607.359	0.0152459
607.437	0.0152585
607.515	0.0153552
607.593	0.0152217
607.671	0.0150779
607.749	0.0153957
607.828	0.0152026
607.906	0.0152594
607.984	0.0151668
608.062	0.0152255
608.140	0.0152460
608.218	0.0152803
608.296	0.0151693
608.374	0.0150893
608.453	0.0149101
608.531	0.0149619
608.609	0.0149725
608.687	0.0148681
608.765	0.0148565
608.843	0.0149660
608.921	0.0149636
608.999	0.0149989
609.078	0.0150649
609.156	0.0149899
609.234	0.0150013
609.312	0.0150328
609.390	0.0150415
609.468	0.0151685
609.546	0.0151168
609.624	0.0151254
609.703	0.0150554
609.781	0.0151335
609.859	0.0151411
609.937	0.0151915
610.015	0.0151599
610.093	0.0151810
610.171	0.0153339
610.249	0.0152880
610.328	0.0152611
610.406	0.0151642
610.484	0.0151122
610.562	0.0151261
610.640	0.0150468
610.718	0.0151409
610.796	0.0151389
610.874	0.0151008
610.953	0.0149854
611.031	0.0150502
611.109	0.0150297
611.187	0.0149418
611.265	0.0148758
611.343	0.0149357
611.421	0.0150311
611.499	0.0148745
611.578	0.0148656
611.656	0.0149358
611.734	0.0149783
611.812	0.0148924
611.890	0.0147872
611.968	0.0149013
612.046	0.0148337
612.124	0.0148190
612.203	0.0148974
612.281	0.0149906
612.359	0.0151120
612.437	0.0150133
612.515	0.0151457
612.593	0.0150568
612.671	0.0150296
612.749	0.0150974
612.828	0.0150988
612.906	0.0150770
612.984	0.0151059
613.062	0.0150889
613.140	0.0151601
613.218	0.0152459
613.296	0.0151861
613.374	0.0152424
613.453	0.0150362
613.531	0.0150555
613.609	0.0151325
613.687	0.0151656
613.765	0.0152880
613.843	0.0150829
613.921	0.0151427
613.999	0.0151577
614.078	0.0150148
614.156	0.0148913
614.234	0.0151509
614.312	0.0150877
614.390	0.0150067
614.468	0.0149128
614.546	0.0149405
614.624	0.0150566
614.703	0.0150397
614.781	0.0148683
614.859	0.0149570
614.937	0.0150487
615.015	0.0149317
615.093	0.0150066
615.171	0.0150433
615.249	0.0148160
615.328	0.0149897
615.406	0.0149043
615.484	0.0148441
615.562	0.0149866
615.640	0.0150635
615.718	0.0149778
615.796	0.0150330
615.874	0.0151261
615.953	0.0150150
616.031	0.0150586
616.109	0.0150360
616.187	0.0150579
616.265	0.0149981
616.343	0.0151119
616.421	0.0151562
616.499	0.0151406
616.578	0.0149198
616.656	0.0150375
616.734	0.0150917
616.812	0.0150777
616.890	0.0151237
616.968	0.0150475
617.046	0.0150039
617.124	0.0150874
617.203	0.0150632
617.281	0.0150853
617.359	0.0149592
617.437	0.0148693
617.515	0.0152345
617.593	0.0150454
617.671	0.0149535
617.749	0.0151411
617.828	0.0151983
617.906	0.0151936
617.984	0.0152451
618.062	0.0150954
618.140	0.0150902
618.218	0.0152215
618.296	0.0151569
618.374	0.0150901
618.453	0.0150248
618.531	0.0152308
618.609	0.0151626
618.687	0.0151550
618.765	0.0151121
618.843	0.0150370
618.921	0.0149198
618.999	0.0151366
619.078	0.0150258
619.156	0.0150713
619.234	0.0151216
619.312	0.0150732
619.390	0.0151955
619.468	0.0151561
619.546	0.0150947
619.624	0.0152184
619.703	0.0154128
619.781	0.0152928
619.859	0.0151827
619.937	0.0153213
620.015	0.0153905
620.093	0.0153901
620.171	0.0152841
620.249	0.0152297
620.328	0.0154686
620.406	0.0154869
620.484	0.0152946
620.562	0.0153339
620.640	0.0152825
620.718	0.0154412
620.796	0.0154101
620.874	0.0152739
620.953	0.0153065
621.031	0.0152559
621.109	0.0153237
621.187	0.0153857
621.265	0.0153578
621.343	0.0152608
621.421	0.0153063
621.499	0.0152650
621.578	0.0151276
621.656	0.0151396
621.734	0.0150071
621.812	0.0150450
621.890	0.0150929
621.968	0.0150761
622.046	0.0150882
622.124	0.0151558
622.203	0.0152439
622.281	0.0152156
622.359	0.0152219
622.437	0.0154380
622.515	0.0152261
622.593	0.0152092
622.671	0.0153385
622.749	0.0153625
622.828	0.0155487
622.906	0.0154407
622.984	0.0155197
623.062	0.0157653
623.140	0.0155685
623.218	0.0155257
623.296	0.0155487
623.374	0.0155653
623.453	0.0154829
623.531	0.0153657
623.609	0.0152675
623.687	0.0154019
623.765	0.0153576
623.843	0.0151524
623.921	0.0151006
623.999	0.0151163
624.078	0.0150013
624.156	0.0149957
624.234	0.0150175
624.312	0.0149454
624.390	0.0147427
624.468	0.0149113
624.546	0.0148141
624.624	0.0148021
624.703	0.0149088
624.781	0.0149176
624.859	0.0148930
624.937	0.0149954
625.015	0.0151263
625.093	0.0149763
625.171	0.0151019
625.249	0.0151783
625.328	0.0152268
625.406	0.0153570
625.484	0.0152611
625.562	0.0153506
625.640	0.0153889
625.718	0.0155406
625.796	0.0155398
625.874	0.0154881
625.953	0.0155869
626.031	0.0156195
626.109	0.0155245
626.187	0.0156316
626.265	0.0157431
626.343	0.0157933
626.421	0.0156997
626.499	0.0158302
626.578	0.0157474
626.656	0.0156404
626.734	0.0156170
626.812	0.0155277
626.890	0.0154726
626.968	0.0154003
627.046	0.0152112
627.124	0.0152100
627.203	0.0152452
627.281	0.0150711
627.359	0.0149855
627.437	0.0149078
627.515	0.0148389
627.593	0.0148273
627.671	0.0147594
627.749	0.0147575
627.828	0.0146220
627.906	0.0147647
627.984	0.0145634
628.062	0.0145028
628.140	0.0147177
628.218	0.0146565
628.296	0.0146567
628.374	0.0147527
628.453	0.0146871
628.531	0.0148389
628.609	0.0148898
628.687	0.0149176
628.765	0.0149961
628.843	0.0151414
628.921	0.0151937
628.999	0.0151952
629.078	0.0152573
629.156	0.0154034
629.234	0.0153764
629.312	0.0154542
629.390	0.0152722
629.468	0.0153017
629.546	0.0154446
629.624	0.0154466
629.703	0.0154100
629.781	0.0154257
629.859	0.0153594
629.937	0.0153904
630.015	0.0154689
630.093	0.0154256
630.171	0.0154150
630.249	0.0152440
630.328	0.0152690
630.406	0.0153469
630.484	0.0154710
630.562	0.0151735
630.640	0.0152216
630.718	0.0151321
630.796	0.0153561
630.874	0.0152740
630.953	0.0152232
631.031	0.0151444
631.109	0.0151508
631.187	0.0151390
631.265	0.0151799
631.343	0.0149971
631.421	0.0152110
631.499	0.0150980
631.578	0.0150554
631.656	0.0151733
631.734	0.0149918
631.812	0.0150685
631.890	0.0149924
631.968	0.0149250
632.046	0.0150184
632.124	0.0149765
632.203	0.0150280
632.281	0.0149509
632.359	0.0148740
632.437	0.0148047
632.515	0.0147813
632.593	0.0148813
632.671	0.0148466
632.749	0.0147453
632.828	0.0146774
632.906	0.0147086
632.984	0.0147686
633.062	0.0147710
633.140	0.0146980
633.218	0.0148630
633.296	0.0148305
633.374	0.0146990
633.453	0.0147917
633.531	0.0149171
633.609	0.0150382
633.687	0.0151497
633.765	0.0151568
633.843	0.0152623
633.921	0.0153579
633.999	0.0153615
634.078	0.0154165
634.156	0.0156557
634.234	0.0157661
634.312	0.0156853
634.390	0.0156469
634.468	0.0157410
634.546	0.0158089
634.624	0.0157697
634.703	0.0158492
634.781	0.0157571
634.859	0.0158288
634.937	0.0157110
635.015	0.0156481
635.093	0.0156178
635.171	0.0156123
635.249	0.0154585
635.328	0.0153278
635.406	0.0153671
635.484	0.0152299
635.562	0.0152521
635.640	0.0151373
635.718	0.0151475
635.796	0.0149873
635.874	0.0147092
635.953	0.0147854
636.031	0.0148147
636.109	0.0148289
636.187	0.0146944
636.265	0.0146726
636.343	0.0145100
636.421	0.0145186
636.499	0.0145856
636.578	0.0145448
636.656	0.0146968
636.734	0.0146873
636.812	0.0147333
636.890	0.0146440
636.968	0.0147395
637.046	0.0148032
637.124	0.0149258
637.203	0.0151604
637.281	0.0150922
637.359	0.0151264
637.437	0.0153004
637.515	0.0153525
637.593	0.0153363
637.671	0.0154848
637.749	0.0156271
637.828	0.0155623
637.906	0.0155919
637.984	0.0155189
638.062	0.0154900
638.140	0.0155652
638.218	0.0155676
638.296	0.0154968
638.374	0.0153629
638.453	0.0153348
638.531	0.0154501
638.609	0.0153848
638.687	0.0152987
638.765	0.0154867
638.843	0.0153387
638.921	0.0152212
638.999	0.0151736
639.078	0.0152573
639.156	0.0151164
639.234	0.0151795
639.312	0.0151276
639.390	0.0150641
639.468	0.0150444
639.546	0.0150991
639.624	0.0150937
639.703	0.0149661
639.781	0.0150311
639.859	0.0150933
639.937	0.0150763
640.015	0.0150791
640.093	0.0150990
640.171	0.0149880
640.249	0.0150540
640.328	0.0150023
640.406	0.0151349
640.484	0.0150996
640.562	0.0150770
640.640	0.0148904
640.718	0.0150066
640.796	0.0149380
640.874	0.0149486
640.953	0.0149993
641.031	0.0149731
641.109	0.0149233
641.187	0.0147575
641.265	0.0147303
641.343	0.0147401
641.421	0.0147025
641.499	0.0146271
641.578	0.0145831
641.656	0.0145561
641.734	0.0146156
641.812	0.0145583
641.890	0.0144439
641.968	0.0146570
642.046	0.0147347
642.124	0.0148449
642.203	0.0148185
642.281	0.0149013
642.359	0.0150367
642.437	0.0151305
642.515	0.0153104
642.593	0.0153204
642.671	0.0154082
642.749	0.0154041
642.828	0.0155096
642.906	0.0155095
642.984	0.0156709
643.062	0.0157339
643.140	0.0155497
643.218	0.0157101
643.296	0.0156748
643.374	0.0155094
643.453	0.0156073
643.531	0.0154026
643.609	0.0153413
643.687	0.0153800
643.765	0.0153931
643.843	0.0151599
643.921	0.0149744
643.999	0.0150158
644.078	0.0150194
644.156	0.0150010
644.234	0.0150017
644.312	0.0148614
644.390	0.0149473
644.468	0.0149765
644.546	0.0149858
644.624	0.0150168
644.703	0.0150140
644.781	0.0150155
644.859	0.0149631
644.937	0.0151888
645.015	0.0152524
645.093	0.0150378
645.171	0.0149983
645.249	0.0150766
645.328	0.0151176
645.406	0.0151731
645.484	0.0150528
645.562	0.0152094
645.640	0.0151527
645.718	0.0151836
645.796	0.0150904
645.874	0.0152250
645.953	0.0150391
646.031	0.0150938
646.109	0.0151981
646.187	0.0150016
646.265	0.0149905
646.343	0.0151136
646.421	0.0149316
646.499	0.0150346
646.578	0.0149143
646.656	0.0149367
646.734	0.0148862
646.812	0.0148622
646.890	0.0148813
646.968	0.0149464
647.046	0.0149736
647.124	0.0148134
647.203	0.0148514
647.281	0.0149370
647.359	0.0149236
647.437	0.0148225
647.515	0.0150553
647.593	0.0150755
647.671	0.0150653
647.749	0.0151108
647.828	0.0152728
647.906	0.0153575
647.984	0.0153242
648.062	0.0154573
648.140	0.0154671
648.218	0.0155442
648.296	0.0153993
648.374	0.0155289
648.453	0.0156059
648.531	0.0154326
648.609	0.0154214
648.687	0.0155151
648.765	0.0154315
648.843	0.0154202
648.921	0.0153841
648.999	0.0152932
649.078	0.0151936
649.156	0.0153088
649.234	0.0151340
649.312	0.0152044
649.390	0.0150803
649.468	0.0152386
649.546	0.0152248
649.624	0.0151987
649.703	0.0153381
649.781	0.0151992
649.859	0.0152381
649.937	0.0152341
650.015	0.0152138
650.093	0.0151903
650.171	0.0151884
650.249	0.0151843
650.328	0.0151027
650.406	0.0151819
650.484	0.0150360
650.562	0.0149936
650.640	0.0149306
650.718	0.0148215
650.796	0.0147987
650.874	0.0147388
650.953	0.0146690
651.031	0.0147124
651.109	0.0146490
651.187	0.0147346
651.265	0.0146989
651.343	0.0147591
651.421	0.0145635
651.499	0.0147187
651.578	0.0147263
651.656	0.0148750
651.734	0.0147682
651.812	0.0149274
651.890	0.0149487
651.968	0.0149183
652.046	0.0150935
652.124	0.0150314
652.203	0.0149807
652.281	0.0150229
652.359	0.0149844
652.437	0.0150386
652.515	0.0150320
652.593	0.0150160
652.671	0.0149459
652.749	0.0151173
652.828	0.0151694
652.906	0.0151432
652.984	0.0151749
653.062	0.0152963
653.140	0.0152725
653.218	0.0152205
653.296	0.0153442
653.374	0.0155111
653.453	0.0154264
653.531	0.0154169
653.609	0.0154748
653.687	0.0154452
653.765	0.0155346
653.843	0.0157293
653.921	0.0154776
653.999	0.0155494
654.078	0.0154048
654.156	0.0153498
654.234	0.0155137
654.312	0.0152943
654.390	0.0153349
654.468	0.0152715
654.546	0.0152879
654.624	0.0152376
654.703	0.0151497
654.781	0.0149514
654.859	0.0149610
654.937	0.0150414
655.015	0.0148432
655.093	0.0148032
655.171	0.0148318
655.249	0.0149909
655.328	0.0148861
655.406	0.0148326
655.484	0.0150457
655.562	0.0149841
655.640	0.0148103
655.718	0.0148190
655.796	0.0148396
655.874	0.0147723
655.953	0.0149178
656.031	0.0149677
656.109	0.0147340
656.187	0.0146698
656.265	0.0147459
656.343	0.0147777
656.421	0.0146452
656.499	0.0147697
656.578	0.0148045
656.656	0.0147805
656.734	0.0147837
656.812	0.0148422
656.890	0.0149847
656.968	0.0151829
657.046	0.0150938
657.124	0.0151730
657.203	0.0151900
657.281	0.0153863
657.359	0.0153799
657.437	0.0153495
657.515	0.0152508
657.593	0.0155039
657.671	0.0154446
657.749	0.0153828
657.828	0.0153424
657.906	0.0153852
657.984	0.0153422
658.062	0.0152885
658.140	0.0151560
658.218	0.0152962
658.296	0.0152144
658.374	0.0150877
658.453	0.0150711
658.531	0.0151484
658.609	0.0150822
658.687	0.0150820
658.765	0.0152345
658.843	0.0151939
658.921	0.0152689
658.999	0.0153066
659.078	0.0151395
659.156	0.0152830
659.234	0.0152701
659.312	0.0152673
659.390	0.0153892
659.468	0.0152020
659.546	0.0152769
659.624	0.0153508
659.703	0.0153595
659.781	0.0152218
659.859	0.0151633
659.937	0.0151407
660.015	0.0150423
660.093	0.0150397
660.171	0.0152013
660.249	0.0150588
660.328	0.0149952
660.406	0.0149028
660.484	0.0146881
660.562	0.0149363
660.640	0.0150555
660.718	0.0148210
660.796	0.0148029
660.874	0.0149508
660.953	0.0147845
661.031	0.0147279
661.109	0.0148688
661.187	0.0147705
661.265	0.0147935
661.343	0.0148376
661.421	0.0149568
661.499	0.0147331
661.578	0.0148071
661.656	0.0149277
661.734	0.0149113
661.812	0.0148015
661.890	0.0148960
661.968	0.0147961
662.046	0.0148608
662.124	0.0148351
662.203	0.0148692
662.281	0.0148435
662.359	0.0149981
662.437	0.0149593
662.515	0.0150130
662.593	0.0151293
662.671	0.0151194
662.749	0.0151439
662.828	0.0152194
662.906	0.0151875
662.984	0.0153072
663.062	0.0152705
663.140	0.0152203
663.218	0.0152575
663.296	0.0151627
663.374	0.0152286
663.453	0.0151120
663.531	0.0151305
663.609	0.0151942
663.687	0.0151277
663.765	0.0149512
663.843	0.0150794
663.921	0.0151070
663.999	0.0150561
664.078	0.0150444
664.156	0.0150982
664.234	0.0150043
664.312	0.0151534
664.390	0.0150528
664.468	0.0150005
664.546	0.0151263
664.624	0.0151451
664.703	0.0151784
664.781	0.0151004
664.859	0.0151094
664.937	0.0150696
665.015	0.0150420
665.093	0.0152245
665.171	0.0152193
665.249	0.0151734
665.328	0.0150967
665.406	0.0151698
665.484	0.0150742
665.562	0.0151343
665.640	0.0150050
665.718	0.0150496
665.796	0.0149673
665.874	0.0149599
665.953	0.0148827
666.031	0.0148475
666.109	0.0148754
666.187	0.0147050
666.265	0.0146957
666.343	0.0147499
666.421	0.0146626
666.499	0.0146632
666.578	0.0145574
666.656	0.0145694
666.734	0.0146274
666.812	0.0146649
666.890	0.0145996
666.968	0.0146564
667.046	0.0148175
667.124	0.0148766
667.203	0.0147982
667.281	0.0148473
667.359	0.0151080
667.437	0.0150712
667.515	0.0150488
667.593	0.0149999
667.671	0.0151382
667.749	0.0150771
667.828	0.0152372
667.906	0.0152583
667.984	0.0151597
668.062	0.0152518
668.140	0.0152090
668.218	0.0152734
668.296	0.0152811
668.374	0.0152123
668.453	0.0151876
668.531	0.0152425
668.609	0.0152029
668.687	0.0152279
668.765	0.0151614
668.843	0.0152503
668.921	0.0150623
668.999	0.0150597
669.078	0.0150777
669.156	0.0149706
669.234	0.0150256
669.312	0.0150502
669.390	0.0149738
669.468	0.0148492
669.546	0.0148827
669.624	0.0148848
669.703	0.0147935
669.781	0.0149198
669.859	0.0150107
669.937	0.0150147
670.015	0.0148980
670.093	0.0149567
670.171	0.0150894
670.249	0.0150933
670.328	0.0149939
670.406	0.0152288
670.484	0.0151456
670.562	0.0150861
670.640	0.0152133
670.718	0.0151514
670.796	0.0151665
670.874	0.0151499
670.953	0.0151013
671.031	0.0151384
671.109	0.0151625
671.187	0.0150083
671.265	0.0151336
671.343	0.0150136
671.421	0.0149101
671.499	0.0149223
671.578	0.0148645
671.656	0.0147873
671.734	0.0149200
671.812	0.0148003
671.890	0.0148179
671.968	0.0148354
672.046	0.0148405
672.124	0.0148703
672.203	0.0149334
672.281	0.0148251
672.359	0.0149627
672.437	0.0148984
672.515	0.0150107
672.593	0.0150117
672.671	0.0151359
672.749	0.0152763
672.828	0.0151569
672.906	0.0153690
672.984	0.0153990
673.062	0.0153595
673.140	0.0154963
673.218	0.0154276
673.296	0.0154230
673.374	0.0153975
673.453	0.0154844
673.531	0.0154510
673.609	0.0152909
673.687	0.0152680
673.765	0.0152459
673.843	0.0151488
673.921	0.0151604
673.999	0.0151615
674.078	0.0150396
674.156	0.0150771
674.234	0.0151519
674.312	0.0152121
674.390	0.0151471
674.468	0.0150579
674.546	0.0150681
674.624	0.0151652
674.703	0.0152178
674.781	0.0151096
674.859	0.0150626
674.937	0.0153475
675.015	0.0152190
675.093	0.0151067
675.171	0.0151929
675.249	0.0151923
675.328	0.0151811
675.406	0.0151740
675.484	0.0150498
675.562	0.0151774
675.640	0.0152238
675.718	0.0151935
675.796	0.0153194
675.874	0.0153244
675.953	0.0151727
676.031	0.0152716
676.109	0.0151635
676.187	0.0150276
676.265	0.0150414
676.343	0.0151102
676.421	0.0152300
676.499	0.0150784
676.578	0.0149326
676.656	0.0149023
676.734	0.0147321
676.812	0.0149059
676.890	0.0150700
676.968	0.0149928
677.046	0.0149020
677.124	0.0148498
677.203	0.0148570
677.281	0.0150251
677.359	0.0149452
677.437	0.0148653
677.515	0.0149088
677.593	0.0149924
677.671	0.0150563
677.749	0.0149839
677.828	0.0150578
677.906	0.0150075
677.984	0.0151549
678.062	0.0151041
678.140	0.0150808
678.218	0.0151614
678.296	0.0152302
678.374	0.0151727
678.453	0.0149977
678.531	0.0151495
678.609	0.0151364
678.687	0.0152827
678.765	0.0151511
678.843	0.0151279
678.921	0.0151084
678.999	0.0149979
679.078	0.0150760
679.156	0.0152065
679.234	0.0150939
679.312	0.0150825
679.390	0.0149026
679.468	0.0148196
679.546	0.0148845
679.624	0.0148919
679.703	0.0147366
679.781	0.0149105
679.859	0.0148478
679.937	0.0148304
680.015	0.0150331
680.093	0.0148896
680.171	0.0147908
680.249	0.0149194
680.328	0.0150356
680.406	0.0150990
680.484	0.0149702
680.562	0.0151057
680.640	0.0150497
680.718	0.0151092
680.796	0.0149809
680.874	0.0151031
680.953	0.0150340
681.031	0.0149736
681.109	0.0151615
681.187	0.0150012
681.265	0.0149932
681.343	0.0149890
681.421	0.0150633
681.499	0.0149081
681.578	0.0150062
681.656	0.0149840
681.734	0.0149565
681.812	0.0149046
681.890	0.0149904
681.968	0.0150917
682.046	0.0151016
682.124	0.0150701
682.203	0.0151511
682.281	0.0150012
682.359	0.0151395
682.437	0.0151183
682.515	0.0151073
682.593	0.0152993
682.671	0.0152035
682.749	0.0151886
682.828	0.0151163
682.906	0.0151673
682.984	0.0150210
683.062	0.0150541
683.140	0.0151455
683.218	0.0150435
683.296	0.0149631
683.374	0.0151993
683.453	0.0150918
683.531	0.0149799
683.609	0.0149696
683.687	0.0151765
683.765	0.0152159
683.843	0.0151294
683.921	0.0152457
683.999	0.0152866
684.078	0.0152956
684.156	0.0152402
684.234	0.0151794
684.312	0.0152951
684.390	0.0151299
684.468	0.0152141
684.546	0.0151705
684.624	0.0152064
684.703	0.0150474
684.781	0.0150004
684.859	0.0151109
684.937	0.0149818
685.015	0.0149586
685.093	0.0149654
685.171	0.0149599
685.249	0.0149028
685.328	0.0148586
685.406	0.0149659
685.484	0.0148510
685.562	0.0149728
685.640	0.0149696
685.718	0.0150681
685.796	0.0151802
685.874	0.0150801
685.953	0.0151131
686.031	0.0152304
686.109	0.0151884
686.187	0.0150904
686.265	0.0151279
686.343	0.0152531
686.421	0.0150423
686.499	0.0152271
686.578	0.0151534
686.656	0.0151688
686.734	0.0152311
686.812	0.0150033
686.890	0.0150809
686.968	0.0150092
687.046	0.0151581
687.124	0.0152104
687.203	0.0151797
687.281	0.0152544
687.359	0.0152082
687.437	0.0151783
687.515	0.0152566
687.593	0.0154790
687.671	0.0154366
687.749	0.0152991
687.828	0.0151459
687.906	0.0152097
687.984	0.0150988
688.062	0.0151429
688.140	0.0150026
688.218	0.0150570
688.296	0.0150374
688.374	0.0148669
688.453	0.0148448
688.531	0.0149068
688.609	0.0147446
688.687	0.0147172
688.765	0.0147977
688.843	0.0147951
688.921	0.0147893
688.999	0.0147633
689.078	0.0149598
689.156	0.0149614
689.234	0.0150533
689.312	0.0149762
689.390	0.0151655
689.468	0.0152276
689.546	0.0151247
689.624	0.0151980
689.703	0.0151914
689.781	0.0153216
689.859	0.0153448
689.937	0.0152859
690.015	0.0152650
690.093	0.0152237
690.171	0.0153032
690.249	0.0152799
690.328	0.0151694
690.406	0.0152277
690.484	0.0150907
690.562	0.0150488
690.640	0.0150292
690.718	0.0148958
690.796	0.0148523
690.874	0.0150085
690.953	0.0149521
691.031	0.0148769
691.109	0.0150675
691.187	0.0149390
691.265	0.0149618
691.343	0.0147818
691.421	0.0149619
691.499	0.0150503
691.578	0.0149619
691.656	0.0149969
691.734	0.0150710
691.812	0.0150672
691.890	0.0149768
691.968	0.0150427
692.046	0.0152037
692.124	0.0150674
692.203	0.0149426
692.281	0.0150822
692.359	0.0150350
692.437	0.0149693
692.515	0.0150431
692.593	0.0152661
692.671	0.0151590
692.749	0.0153460
692.828	0.0153040
692.906	0.0153551
692.984	0.0153670
693.062	0.0155639
693.140	0.0153278
693.218	0.0154385
693.296	0.0152834
693.374	0.0152872
693.453	0.0153093
693.531	0.0152281
693.609	0.0151278
693.687	0.0150426
693.765	0.0152110
693.843	0.0150451
693.921	0.0150114
693.999	0.0150053
694.078	0.0150202
694.156	0.0150134
694.234	0.0147844
694.312	0.0147890
694.390	0.0149180
694.468	0.0148972
694.546	0.0149311
694.624	0.0148824
694.703	0.0151045
694.781	0.0150986
694.859	0.0151258
694.937	0.0152215
695.015	0.0152984
695.093	0.0152943
695.171	0.0154353
695.249	0.0153336
695.328	0.0153376
695.406	0.0154288
695.484	0.0152416
695.562	0.0153400
695.640	0.0154538
695.718	0.0151708
695.796	0.0152529
695.874	0.0151558
695.953	0.0152399
696.031	0.0151546
696.109	0.0150330
696.187	0.0149587
696.265	0.0151021
696.343	0.0152080
696.421	0.0151473
696.499	0.0151015
696.578	0.0150591
696.656	0.0151834
696.734	0.0150468
696.812	0.0151855
696.890	0.0151221
696.968	0.0150890
697.046	0.0152043
697.124	0.0152174
697.203	0.0152139
697.281	0.0151251
697.359	0.0153033
697.437	0.0150970
697.515	0.0152187
697.593	0.0152146
697.671	0.0151473
697.749	0.0151278
697.828	0.0152042
697.906	0.0151949
697.984	0.0152087
698.062	0.0151653
698.140	0.0152430
698.218	0.0153417
698.296	0.0154539
698.374	0.0152975
698.453	0.0153104
698.531	0.0154415
698.609	0.0151606
698.687	0.0153026
698.765	0.0153600
698.843	0.0153004
698.921	0.0153634
698.999	0.0151374
699.078	0.0150745
699.156	0.0151280
699.234	0.0150440
699.312	0.0149357
699.390	0.0149573
699.468	0.0149505
699.546	0.0148591
699.624	0.0149558
699.703	0.0149825
699.781	0.0147421
699.859	0.0149400
699.937	0.0149602
700.015	0.0149650
700.093	0.0149284
700.171	0.0150971
700.249	0.0151308
700.328	0.0150815
700.406	0.0149099
700.484	0.0151939
700.562	0.0152347
700.640	0.0151070
700.718	0.0153343
700.796	0.0152106
700.874	0.0153194
700.953	0.0153663
701.031	0.0151891
701.109	0.0152250
701.187	0.0152836
701.265	0.0153061
701.343	0.0152101
701.421	0.0151678
701.499	0.0150809
701.578	0.0151625
701.656	0.0151521
701.734	0.0150697
701.812	0.0150648
701.890	0.0150427
701.968	0.0152361
702.046	0.0152669
702.124	0.0151754
702.203	0.0150860
702.281	0.0152309
702.359	0.0152110
702.437	0.0151721
702.515	0.0154038
702.593	0.0152611
702.671	0.0153839
702.749	0.0154105
702.828	0.0153746
702.906	0.0154916
702.984	0.0154301
703.062	0.0152940
703.140	0.0154398
703.218	0.0154280
703.296	0.0154625
703.374	0.0153811
703.453	0.0154229
703.531	0.0151656
703.609	0.0153082
703.687	0.0152338
703.765	0.0152729
703.843	0.0153049
703.921	0.0151118
703.999	0.0152007
704.078	0.0152299
704.156	0.0150714
704.234	0.0150787
704.312	0.0152097
704.390	0.0151768
704.468	0.0150835
704.546	0.0150211
704.624	0.0152161
704.703	0.0151254
704.781	0.0149594
704.859	0.0151540
704.937	0.0150856
705.015	0.0151718
705.093	0.0153191
705.171	0.0151974
705.249	0.0151029
705.328	0.0152515
705.406	0.0152322
705.484	0.0151956
705.562	0.0151822
705.640	0.0153060
705.718	0.0151621
705.796	0.0153091
705.874	0.0152014
705.953	0.0152682
706.031	0.0153492
706.109	0.0153587
706.187	0.0152632
706.265	0.0152238
706.343	0.0151832
706.421	0.0152438
706.499	0.0151937
706.578	0.0152561
706.656	0.0152842
706.734	0.0151494
706.812	0.0151650
706.890	0.0152313
706.968	0.0154559
707.046	0.0152703
707.124	0.0151672
707.203	0.0151510
707.281	0.0151759
707.359	0.0152642
707.437	0.0150700
707.515	0.0151566
707.593	0.0150433
707.671	0.0150474
707.749	0.0151882
707.828	0.0150121
707.906	0.0150206
707.984	0.0150723
708.062	0.0149753
708.140	0.0148624
708.218	0.0150757
708.296	0.0150691
708.374	0.0149761
708.453	0.0150901
708.531	0.0151228
708.609	0.0151723
708.687	0.0151064
708.765	0.0150439
708.843	0.0150489
708.921	0.0149982
708.999	0.0150938
709.078	0.0150777
709.156	0.0151530
709.234	0.0150637
709.312	0.0148470
709.390	0.0149650
709.468	0.0149391
709.546	0.0150557
709.624	0.0150812
709.703	0.0149789
709.781	0.0149698
709.859	0.0149858
709.937	0.0149780
710.015	0.0148701
710.093	0.0151072
710.171	0.0150801
710.249	0.0151582
710.328	0.0150927
710.406	0.0149329
710.484	0.0149397
710.562	0.0150728
710.640	0.0150349
710.718	0.0150879
710.796	0.0149698
710.874	0.0151459
710.953	0.0150096
711.031	0.0150769
711.109	0.0150285
711.187	0.0150326
711.265	0.0149413
711.343	0.0150813
711.421	0.0150244
711.499	0.0150661
711.578	0.0151093
711.656	0.0151842
711.734	0.0150259
711.812	0.0150887
711.890	0.0151756
711.968	0.0151075
712.046	0.0149041
712.124	0.0150855
712.203	0.0150851
712.281	0.0152612
712.359	0.0150275
712.437	0.0148754
712.515	0.0150328
712.593	0.0150225
712.671	0.0150022
712.749	0.0150143
712.828	0.0148988
712.906	0.0149300
712.984	0.0149931
713.062	0.0150279
713.140	0.0149952
713.218	0.0149387
713.296	0.0148655
713.374	0.0149918
713.453	0.0150635
713.531	0.0151112
713.609	0.0150797
713.687	0.0149472
713.765	0.0151075
713.843	0.0151093
713.921	0.0151318
713.999	0.0150730
714.078	0.0151135
714.156	0.0153144
714.234	0.0151971
714.312	0.0150968
714.390	0.0152339
714.468	0.0151660
714.546	0.0152110
714.624	0.0151785
714.703	0.0152867
714.781	0.0152912
714.859	0.0152540
714.937	0.0150462
715.015	0.0151968
715.093	0.0152135
715.171	0.0152737
715.249	0.0149393
715.328	0.0150241
715.406	0.0150850
715.484	0.0150373
715.562	0.0150271
715.640	0.0151422
715.718	0.0150323
715.796	0.0151066
715.874	0.0151200
715.953	0.0151053
716.031	0.0151233
716.109	0.0151020
716.187	0.0149874
716.265	0.0151356
716.343	0.0152665
716.421	0.0151450
716.499	0.0151848
716.578	0.0151135
716.656	0.0150106
716.734	0.0151765
716.812	0.0151267
716.890	0.0151002
716.968	0.0150559
717.046	0.0150912
717.124	0.0150089
717.203	0.0150140
717.281	0.0149980
717.359	0.0150835
717.437	0.0150622
717.515	0.0150871
717.593	0.0151145
717.671	0.0150703
717.749	0.0150864
717.828	0.0150421
717.906	0.0151317
717.984	0.0150311
718.062	0.0150953
718.140	0.0151019
718.218	0.0150584
718.296	0.0150385
718.374	0.0150222
718.453	0.0149842
718.531	0.0150382
718.609	0.0150938
718.687	0.0150927
718.765	0.0150513
718.843	0.0152151
718.921	0.0152351
718.999	0.0151110
719.078	0.0150173
719.156	0.0152025
719.234	0.0151777
719.312	0.0151305
719.390	0.0152126
719.468	0.0152048
719.546	0.0151578
719.624	0.0153253
719.703	0.0153440
719.781	0.0151597
719.859	0.0153117
719.937	0.0151807
720.015	0.0152372
720.093	0.0154391
720.171	0.0152441
720.249	0.0152658
720.328	0.0152592
720.406	0.0151757
720.484	0.0151853
720.562	0.0152223
720.640	0.0151890
720.718	0.0151009
720.796	0.0149136
720.874	0.0148676
720.953	0.0151267
721.031	0.0149313
721.109	0.0149262
721.187	0.0149284
721.265	0.0149672
721.343	0.0149033
721.421	0.0150481
721.499	0.0150311
721.578	0.0150318
721.656	0.0151501
721.734	0.0150182
721.812	0.0149249
721.890	0.0151556
721.968	0.0150888
722.046	0.0151211
722.124	0.0151855
722.203	0.0152474
722.281	0.0152476
722.359	0.0152113
722.437	0.0151659
722.515	0.0151484
722.593	0.0152325
722.671	0.0151891
722.749	0.0152061
722.828	0.0152192
722.906	0.0152235
722.984	0.0153034
723.062	0.0152147
723.140	0.0152913
723.218	0.0152657
723.296	0.0153150
723.374	0.0153326
723.453	0.0152747
723.531	0.0153148
723.609	0.0153627
723.687	0.0153075
723.765	0.0151753
723.843	0.0152041
723.921	0.0152135
723.999	0.0153307
724.078	0.0150999
724.156	0.0151759
724.234	0.0152134
724.312	0.0152252
724.390	0.0151474
724.468	0.0151421
724.546	0.0149921
724.624	0.0150969
724.703	0.0151138
724.781	0.0151711
724.859	0.0150880
724.937	0.0150747
725.015	0.0152045
725.093	0.0153272
725.171	0.0151355
725.249	0.0150887
725.328	0.0150534
725.406	0.0151721
725.484	0.0150274
725.562	0.0151253
725.640	0.0150835
725.718	0.0151801
725.796	0.0150779
725.874	0.0150818
725.953	0.0150455
726.031	0.0150362
726.109	0.0150180
726.187	0.0150236
726.265	0.0150106
726.343	0.0150842
726.421	0.0151522
726.499	0.0150196
726.578	0.0151285
726.656	0.0151907
726.734	0.0152014
726.812	0.0152545
726.890	0.0150536
726.968	0.0150977
727.046	0.0150975
727.124	0.0152618
727.203	0.0151982
727.281	0.0152544
727.359	0.0151833
727.437	0.0152175
727.515	0.0152458
727.593	0.0152830
727.671	0.0151436
727.749	0.0152591
727.828	0.0151611
727.906	0.0151341
727.984	0.0151130
728.062	0.0150977
728.140	0.0151370
728.218	0.0150689
728.296	0.0150839
728.374	0.0150215
728.453	0.0150695
728.531	0.0150230
728.609	0.0150580
728.687	0.0151102
728.765	0.0151593
728.843	0.0151283
728.921	0.0151398
728.999	0.0150290
729.078	0.0149890
729.156	0.0150974
729.234	0.0150437
729.312	0.0150791
729.390	0.0149667
729.468	0.0149990
729.546	0.0151296
729.624	0.0150687
729.703	0.0150680
729.781	0.0149626
729.859	0.0151347
729.937	0.0151650
730.015	0.0150803
730.093	0.0150897
730.171	0.0151425
730.249	0.0152251
730.328	0.0152020
730.406	0.0150765
730.484	0.0151258
730.562	0.0152409
730.640	0.0151126
730.718	0.0151046
730.796	0.0152360
730.874	0.0153248
730.953	0.0150876
731.031	0.0150427
731.109	0.0151814
731.187	0.0151762
731.265	0.0150845
731.343	0.0150055
731.421	0.0149736
731.499	0.0149942
731.578	0.0150160
731.656	0.0149728
731.734	0.0150058
731.812	0.0150861
731.890	0.0149985
731.968	0.0150480
732.046	0.0151048
732.124	0.0150002
732.203	0.0148320
732.281	0.0150461
732.359	0.0149767
732.437	0.0150069
732.515	0.0149301
732.593	0.0149752
732.671	0.0149965
732.749	0.0150037
732.828	0.0150358
732.906	0.0151008
732.984	0.0149616
733.062	0.0148930
733.140	0.0147905
733.218	0.0148981
733.296	0.0149443
733.374	0.0149917
733.453	0.0150033
733.531	0.0149193
733.609	0.0149462
733.687	0.0151284
733.765	0.0151648
733.843	0.0148976
733.921	0.0150668
733.999	0.0149922
734.078	0.0150636
734.156	0.0151321
734.234	0.0150563
734.312	0.0149483
734.390	0.0150943
734.468	0.0151808
734.546	0.0151608
734.624	0.0150486
734.703	0.0151233
734.781	0.0151546
734.859	0.0150455
734.937	0.0150546
735.015	0.0150407
735.093	0.0150470
735.171	0.0149960
735.249	0.0151990
735.328	0.0151026
735.406	0.0152161
735.484	0.0151346
735.562	0.0150864
735.640	0.0152675
735.718	0.0152525
735.796	0.0151258
735.874	0.0152483
735.953	0.0151639
736.031	0.0151698
736.109	0.0151796
736.187	0.0151051
736.265	0.0151193
736.343	0.0152563
736.421	0.0149883
736.499	0.0151092
736.578	0.0151416
736.656	0.0150692
736.734	0.0150624
736.812	0.0151669
736.890	0.0150880
736.968	0.0150523
737.046	0.0150464
737.124	0.0149526
737.203	0.0150787
737.281	0.0148855
737.359	0.0150797
737.437	0.0150788
737.515	0.0150301
737.593	0.0149703
737.671	0.0150291
737.749	0.0151036
737.828	0.0150683
737.906	0.0148354
737.984	0.0149911
738.062	0.0150346
738.140	0.0150411
738.218	0.0149773
738.296	0.0150577
738.374	0.0149873
738.453	0.0149963
738.531	0.0149549
738.609	0.0149657
738.687	0.0151324
738.765	0.0150978
738.843	0.0150495
738.921	0.0149467
738.999	0.0150199
739.078	0.0152048
739.156	0.0152370
739.234	0.0150497
739.312	0.0151540
739.390	0.0151404
739.468	0.0152598
739.546	0.0152003
739.624	0.0151463
739.703	0.0153503
739.781	0.0152942
739.859	0.0152530
739.937	0.0151671
740.015	0.0151598
740.093	0.0151923
740.171	0.0152503
740.249	0.0152656
740.328	0.0151778
740.406	0.0150298
740.484	0.0152761
740.562	0.0152052
740.640	0.0152120
740.718	0.0152582
740.796	0.0151626
740.874	0.0152228
740.953	0.0151283
741.031	0.0151353
741.109	0.0151307
741.187	0.0151469
741.265	0.0153208
741.343	0.0151886
741.421	0.0152528
741.499	0.0152730
741.578	0.0152377
741.656	0.0152124
741.734	0.0151522
741.812	0.0152116
741.890	0.0152583
741.968	0.0153344
742.046	0.0152635
742.124	0.0152114
742.203	0.0151492
742.281	0.0153116
742.359	0.0151919
742.437	0.0151914
742.515	0.0152451
742.593	0.0151402
742.671	0.0151768
742.749	0.0152963
742.828	0.0153214
742.906	0.0152175
742.984	0.0151810
743.062	0.0151031
743.140	0.0151345
743.218	0.0151307
743.296	0.0150056
743.374	0.0151848
743.453	0.0152023
743.531	0.0150297
743.609	0.0151788
743.687	0.0151360
743.765	0.0151363
743.843	0.0152749
743.921	0.0152346
743.999	0.0152489
744.078	0.0152979
744.156	0.0152011
744.234	0.0153967
744.312	0.0153789
744.390	0.0152244
744.468	0.0152780
744.546	0.0151797
744.624	0.0151171
744.703	0.0152525
744.781	0.0152563
744.859	0.0152249
744.937	0.0151799
745.015	0.0153891
745.093	0.0151982
745.171	0.0152966
745.249	0.0152821
745.328	0.0150810
745.406	0.0151434
745.484	0.0151775
745.562	0.0152348
745.640	0.0151780
745.718	0.0153473
745.796	0.0152167
745.874	0.0152100
745.953	0.0152662
746.031	0.0151495
746.109	0.0151163
746.187	0.0152694
746.265	0.0151997
746.343	0.0152379
746.421	0.0151855
746.499	0.0150513
746.578	0.0151466
746.656	0.0152440
746.734	0.0151923
746.812	0.0152036
746.890	0.0151031
746.968	0.0151033
747.046	0.0151732
747.124	0.0150858
747.203	0.0151760
747.281	0.0151447
747.359	0.0151620
747.437	0.0151907
747.515	0.0150359
747.593	0.0151007
747.671	0.0151018
747.749	0.0151434
747.828	0.0151740
747.906	0.0151521
747.984	0.0150410
748.062	0.0150632
748.140	0.0149714
748.218	0.0150819
748.296	0.0151391
748.374	0.0150323
748.453	0.0150391
748.531	0.0149352
748.609	0.0149206
748.687	0.0150160
748.765	0.0148361
748.843	0.0151077
748.921	0.0150942
748.999	0.0149789
749.078	0.0149719
749.156	0.0149771
749.234	0.0149273
749.312	0.0151003
749.390	0.0150175
749.468	0.0150143
749.546	0.0150407
749.624	0.0151085
749.703	0.0150622
749.781	0.0151652
749.859	0.0151785
749.937	0.0150333
750.015	0.0150065
750.093	0.0151339
750.171	0.0150666
750.249	0.0152174
750.328	0.0150352
750.406	0.0149468
750.484	0.0150965
750.562	0.0148113
750.640	0.0149329
750.718	0.0150168
750.796	0.0150648
750.874	0.0148762
750.953	0.0148653
751.031	0.0148599
751.109	0.0148654
751.187	0.0149893
751.265	0.0149406
751.343	0.0149208
751.421	0.0149339
751.499	0.0149348
751.578	0.0149568
751.656	0.0149846
751.734	0.0150591
751.812	0.0150171
751.890	0.0151173
751.968	0.0150703
752.046	0.0149806
752.124	0.0150481
752.203	0.0150087
752.281	0.0149387
752.359	0.0150242
752.437	0.0149090
752.515	0.0149159
752.593	0.0149316
752.671	0.0150867
752.749	0.0148904
752.828	0.0149273
752.906	0.0149329
752.984	0.0150164
753.062	0.0149641
753.140	0.0149547
753.218	0.0148228
753.296	0.0148742
753.374	0.0147784
753.453	0.0148747
753.531	0.0147478
753.609	0.0148542
753.687	0.0149355
753.765	0.0147860
753.843	0.0148448
753.921	0.0148792
753.999	0.0148501
754.078	0.0148997
754.156	0.0148810
754.234	0.0149134
754.312	0.0149367
754.390	0.0150585
754.468	0.0149403
754.546	0.0150228
754.624	0.0150362
754.703	0.0150042
754.781	0.0150349
754.859	0.0149592
754.937	0.0151507
755.015	0.0151114
755.093	0.0149812
755.171	0.0150323
755.249	0.0149365
755.328	0.0149204
755.406	0.0151935
755.484	0.0152271
755.562	0.0150744
755.640	0.0152193
755.718	0.0151949
755.796	0.0151490
755.874	0.0150713
755.953	0.0150897
756.031	0.0151303
756.109	0.0151100
756.187	0.0150413
756.265	0.0150410
756.343	0.0151659
756.421	0.0152316
756.499	0.0152715
756.578	0.0152186
756.656	0.0151606
756.734	0.0152496
756.812	0.0151906
756.890	0.0150661
756.968	0.0150753
757.046	0.0152223
757.124	0.0152229
757.203	0.0150851
757.281	0.0151151
757.359	0.0151322
757.437	0.0151073
757.515	0.0149813
757.593	0.0150529
757.671	0.0150755
757.749	0.0151333
757.828	0.0151585
757.906	0.0151338
757.984	0.0152393
758.062	0.0151791
758.140	0.0151849
758.218	0.0152410
758.296	0.0150609
758.374	0.0151050
758.453	0.0152473
758.531	0.0152139
758.609	0.0151407
758.687	0.0150987
758.765	0.0151814
758.843	0.0150613
758.921	0.0152818
758.999	0.0152337
759.078	0.0151519
759.156	0.0152573
759.234	0.0153113
759.312	0.0151675
759.390	0.0152513
759.468	0.0151876
759.546	0.0151950
759.624	0.0152461
759.703	0.0153233
759.781	0.0153046
759.859	0.0153471
759.937	0.0151424
760.015	0.0152233
760.093	0.0153132
760.171	0.0152779
760.249	0.0152237
760.328	0.0151925
760.406	0.0151421
760.484	0.0151707
760.562	0.0151432
760.640	0.0152052
760.718	0.0150899
760.796	0.0152119
760.874	0.0152331
760.953	0.0152021
761.031	0.0151511
761.109	0.0151349
761.187	0.0151752
761.265	0.0151146
761.343	0.0153430
761.421	0.0151551
761.499	0.0150974
761.578	0.0150753
761.656	0.0153197
761.734	0.0151377
761.812	0.0150790
761.890	0.0152199
761.968	0.0151712
762.046	0.0150573
762.124	0.0152606
762.203	0.0151778
762.281	0.0151308
762.359	0.0150764
762.437	0.0150747
762.515	0.0151633
762.593	0.0150867
762.671	0.0151304
762.749	0.0152350
762.828	0.0151588
762.906	0.0150462
762.984	0.0151725
763.062	0.0152403
763.140	0.0151286
763.218	0.0153043
763.296	0.0154151
763.374	0.0151199
763.453	0.0151000
763.531	0.0152702
763.609	0.0151802
763.687	0.0151324
763.765	0.0151771
763.843	0.0151209
763.921	0.0151095
763.999	0.0151945
764.078	0.0152503
764.156	0.0151397
764.234	0.0151071
764.312	0.0151235
764.390	0.0151823
764.468	0.0152640
764.546	0.0152677
764.624	0.0152595
764.703	0.0150696
764.781	0.0151556
764.859	0.0152229
764.937	0.0152808
765.015	0.0151948
765.093	0.0152917
765.171	0.0153282
765.249	0.0153307
765.328	0.0153297
765.406	0.0151568
765.484	0.0152824
765.562	0.0152259
765.640	0.0154031
765.718	0.0152605
765.796	0.0152489
765.874	0.0151730
765.953	0.0151650
766.031	0.0152374
766.109	0.0152046
766.187	0.0152375
766.265	0.0151419
766.343	0.0151859
766.421	0.0152820
766.499	0.0152818
766.578	0.0152206
766.656	0.0152151
766.734	0.0152656
766.812	0.0152442
766.890	0.0152218
766.968	0.0150697
767.046	0.0151714
767.124	0.0151424
767.203	0.0150861
767.281	0.0151546
767.359	0.0152276
767.437	0.0151384
767.515	0.0150547
767.593	0.0150654
767.671	0.0152257
767.749	0.0150031
767.828	0.0149805
767.906	0.0150441
767.984	0.0151379
768.062	0.0150721
768.140	0.0151292
768.218	0.0150902
768.296	0.0149953
768.374	0.0151203
768.453	0.0151331
768.531	0.0149364
768.609	0.0150733
768.687	0.0151732
768.765	0.0151681
768.843	0.0150523
768.921	0.0150267
768.999	0.0151215
769.078	0.0151908
769.156	0.0151515
769.234	0.0150570
769.312	0.0151007
769.390	0.0150767
769.468	0.0151042
769.546	0.0151463
769.624	0.0150460
769.703	0.0150783
769.781	0.0151212
769.859	0.0150001
769.937	0.0149552
770.015	0.0149680
770.093	0.0151115
770.171	0.0149840
770.249	0.0150464
770.328	0.0151479
770.406	0.0151019
770.484	0.0150716
770.562	0.0149622
770.640	0.0150365
770.718	0.0150574
770.796	0.0149788
770.874	0.0152440
770.953	0.0150027
771.031	0.0150297
771.109	0.0151068
771.187	0.0151357
771.265	0.0150650
771.343	0.0149918
771.421	0.0148927
771.499	0.0151245
771.578	0.0149794
771.656	0.0148650
771.734	0.0148920
771.812	0.0148882
771.890	0.0148619
771.968	0.0150711
772.046	0.0150691
772.124	0.0149678
772.203	0.0150615
772.281	0.0150140
772.359	0.0150694
772.437	0.0151334
772.515	0.0151361
772.593	0.0152377
772.671	0.0150668
772.749	0.0149321
772.828	0.0151256
772.906	0.0151199
772.984	0.0151164
773.062	0.0149836
773.140	0.0150957
773.218	0.0150298
773.296	0.0150510
773.374	0.0149461
773.453	0.0149717
773.531	0.0148325
773.609	0.0150374
773.687	0.0150441
773.765	0.0149551
773.843	0.0149814
773.921	0.0149514
773.999	0.0149939
774.078	0.0146856
774.156	0.0148295
774.234	0.0148843
774.312	0.0147859
774.390	0.0148208
774.468	0.0149804
774.546	0.0149303
774.624	0.0149550
774.703	0.0148865
774.781	0.0149881
774.859	0.0149195
774.937	0.0149625
775.015	0.0150159
775.093	0.0149922
775.171	0.0149811
775.249	0.0149132
775.328	0.0149593
775.406	0.0148983
775.484	0.0151082
775.562	0.0150954
775.640	0.0150290
775.718	0.0149825
775.796	0.0149181
775.874	0.0149183
775.953	0.0148550
776.031	0.0148350
776.109	0.0149724
776.187	0.0149987
776.265	0.0150077
776.343	0.0148914
776.421	0.0150446
776.499	0.0148872
776.578	0.0149812
776.656	0.0150057
776.734	0.0149697
776.812	0.0150160
776.890	0.0150455
776.968	0.0149831
777.046	0.0150704
777.124	0.0149758
777.203	0.0149606
777.281	0.0149596
777.359	0.0150437
777.437	0.0149569
777.515	0.0149699
777.593	0.0150520
777.671	0.0151283
777.749	0.0149200
777.828	0.0149727
777.906	0.0149615
777.984	0.0150864
778.062	0.0149756
778.140	0.0149609
778.218	0.0149522
778.296	0.0149413
778.374	0.0149486
778.453	0.0149590
778.531	0.0150219
778.609	0.0148837
778.687	0.0148343
778.765	0.0148736
778.843	0.0150140
778.921	0.0149856
778.999	0.0151049
779.078	0.0149773
779.156	0.0149238
779.234	0.0149365
779.312	0.0150363
779.390	0.0151522
779.468	0.0151068
779.546	0.0152215
779.624	0.0150674
779.703	0.0150982
779.781	0.0152463
779.859	0.0152313
779.937	0.0152929
780.015	0.0153012
780.093	0.0152097
780.171	0.0152412
780.249	0.0153008
780.328	0.0152837
780.406	0.0153097
780.484	0.0152261
780.562	0.0150255
780.640	0.0151311
780.718	0.0151684
780.796	0.0151709
780.874	0.0152042
780.953	0.0151517
781.031	0.0151173
781.109	0.0150172
781.187	0.0150948
781.265	0.0149938
781.343	0.0149377
781.421	0.0150917
781.499	0.0150188
781.578	0.0151000
781.656	0.0150624
781.734	0.0151889
781.812	0.0151820
781.890	0.0151553
781.968	0.0152599
782.046	0.0153049
782.124	0.0153294
782.203	0.0154333
782.281	0.0153517
782.359	0.0152789
782.437	0.0152472
782.515	0.0152088
782.593	0.0152549
782.671	0.0153225
782.749	0.0152643
782.828	0.0150924
782.906	0.0151422
782.984	0.0150166
783.062	0.0151263
783.140	0.0150060
783.218	0.0150111
783.296	0.0151669
783.374	0.0152224
783.453	0.0151218
783.531	0.0150928
783.609	0.0152268
783.687	0.0152632
783.765	0.0153638
783.843	0.0152481
783.921	0.0151891
783.999	0.0152094
784.078	0.0153160
784.156	0.0151548
784.234	0.0151157
784.312	0.0152973
784.390	0.0152029
784.468	0.0151210
784.546	0.0152382
784.624	0.0151534
784.703	0.0152969
784.781	0.0151617
784.859	0.0153046
784.937	0.0153202
785.015	0.0150642
785.093	0.0151011
785.171	0.0153443
785.249	0.0153547
785.328	0.0151630
785.406	0.0151605
785.484	0.0152683
785.562	0.0151671
785.640	0.0152821
785.718	0.0150443
785.796	0.0150735
785.874	0.0151557
785.953	0.0151181
786.031	0.0151761
786.109	0.0151701
786.187	0.0150830
786.265	0.0150721
786.343	0.0149611
786.421	0.0150516
786.499	0.0150498
786.578	0.0151409
786.656	0.0148173
786.734	0.0150496
786.812	0.0150851
786.890	0.0150621
786.968	0.0150059
787.046	0.0150644
787.124	0.0151877
787.203	0.0152334
787.281	0.0150256
787.359	0.0151427
787.437	0.0151598
787.515	0.0151051
787.593	0.0151789
787.671	0.0152895
787.749	0.0152305
787.828	0.0151992
787.906	0.0151066
787.984	0.0153484
788.062	0.0151268
788.140	0.0151145
788.218	0.0151554
788.296	0.0152396
788.374	0.0151340
788.453	0.0151572
788.531	0.0150452
788.609	0.0151717
788.687	0.0151701
788.765	0.0151263
788.843	0.0152229
788.921	0.0150780
788.999	0.0150562
789.078	0.0150204
789.156	0.0151161
789.234	0.0151286
789.312	0.0151044
789.390	0.0151154
789.468	0.0151184
789.546	0.0151385
789.624	0.0150462
789.703	0.0151180
789.781	0.0152442
789.859	0.0150496
789.937	0.0152539
790.015	0.0151743
790.093	0.0154494
790.171	0.0152103
790.249	0.0151995
790.328	0.0153254
790.406	0.0154417
790.484	0.0152885
790.562	0.0153301
790.640	0.0152756
790.718	0.0151584
790.796	0.0153076
790.874	0.0152597
790.953	0.0153282
791.031	0.0153606
791.109	0.0153262
791.187	0.0150725
791.265	0.0152441
791.343	0.0151102
791.421	0.0150891
791.499	0.0151428
791.578	0.0150838
791.656	0.0151105
791.734	0.0150269
791.812	0.0149888
791.890	0.0150438
791.968	0.0150122
792.046	0.0149001
792.124	0.0150494
792.203	0.0150693
792.281	0.0150546
792.359	0.0151123
792.437	0.0150011
792.515	0.0150557
792.593	0.0152561
792.671	0.0152146
792.749	0.0151888
792.828	0.0153880
792.906	0.0152603
792.984	0.0152274
793.062	0.0152885
793.140	0.0152528
793.218	0.0153121
793.296	0.0153241
793.374	0.0152924
793.453	0.0151482
793.531	0.0150835
793.609	0.0152720
793.687	0.0152930
793.765	0.0152238
793.843	0.0152714
793.921	0.0153097
793.999	0.0151350
794.078	0.0151482
794.156	0.0150996
794.234	0.0150903
794.312	0.0149358
794.390	0.0150085
794.468	0.0150249
794.546	0.0150498
794.624	0.0150607
794.703	0.0150695
794.781	0.0150809
794.859	0.0151058
794.937	0.0152211
795.015	0.0152032
795.093	0.0153704
795.171	0.0152483
795.249	0.0152863
795.328	0.0152380
795.406	0.0154038
795.484	0.0154786
795.562	0.0154010
795.640	0.0153475
795.718	0.0152881
795.796	0.0152849
795.874	0.0152855
795.953	0.0152099
796.031	0.0151595
796.109	0.0151878
796.187	0.0150229
796.265	0.0151008
796.343	0.0150815
796.421	0.0151875
796.499	0.0151676
796.578	0.0149513
796.656	0.0149995
796.734	0.0149189
796.812	0.0149552
796.890	0.0150984
796.968	0.0150471
797.046	0.0149215
797.124	0.0149351
797.203	0.0149519
797.281	0.0150117
797.359	0.0150330
797.437	0.0149731
797.515	0.0150198
797.593	0.0151398
797.671	0.0152087
797.749	0.0151232
797.828	0.0151535
797.906	0.0150513
797.984	0.0150827
798.062	0.0151432
798.140	0.0151991
798.218	0.0150629
798.296	0.0151315
798.374	0.0152329
798.453	0.0150757
798.531	0.0151974
798.609	0.0151260
798.687	0.0150087
798.765	0.0150774
798.843	0.0150784
798.921	0.0151402
798.999	0.0151768
799.078	0.0151531
799.156	0.0150366
799.234	0.0150967
799.312	0.0151061
799.390	0.0149881
799.468	0.0149298
799.546	0.0150677
799.624	0.0149999
799.703	0.0149468
799.781	0.0149570
799.859	0.0150259
799.937	0.0149455
800.015	0.0149580
800.093	0.0150227
800.171	0.0149046
800.249	0.0149405
800.328	0.0149770
800.406	0.0151150
800.484	0.0148537
800.562	0.0149402
800.640	0.0150077
800.718	0.0150294
800.796	0.0149245
800.874	0.0151023
800.953	0.0149428
801.031	0.0151195
801.109	0.0152192
801.187	0.0152420
801.265	0.0151899
801.343	0.0150776
801.421	0.0151092
801.499	0.0152428
801.578	0.0151509
801.656	0.0150805
801.734	0.0151853
801.812	0.0151752
801.890	0.0151685
801.968	0.0150652
802.046	0.0150896
802.124	0.0150634
802.203	0.0150229
802.281	0.0150055
802.359	0.0150387
802.437	0.0152709
802.515	0.0150194
802.593	0.0150556
802.671	0.0151140
802.749	0.0150971
802.828	0.0152328
802.906	0.0151550
802.984	0.0150052
803.062	0.0151941
803.140	0.0150159
803.218	0.0150534
803.296	0.0150211
803.374	0.0150448
803.453	0.0149707
803.531	0.0149100
803.609	0.0150921
803.687	0.0151698
803.765	0.0150362
803.843	0.0150564
803.921	0.0151487
803.999	0.0150898
804.078	0.0150369
804.156	0.0150871
804.234	0.0151630
804.312	0.0151077
804.390	0.0150801
804.468	0.0150825
804.546	0.0151315
804.624	0.0149995
804.703	0.0151767
804.781	0.0150880
804.859	0.0150961
804.937	0.0152435
805.015	0.0151038
805.093	0.0151392
805.171	0.0150737
805.249	0.0150108
805.328	0.0150785
805.406	0.0151782
805.484	0.0151443
805.562	0.0150905
805.640	0.0151270
805.718	0.0150865
805.796	0.0149829
805.874	0.0152395
805.953	0.0150432
806.031	0.0150748
806.109	0.0151756
806.187	0.0153076
806.265	0.0151979
806.343	0.0151661
806.421	0.0152944
806.499	0.0152348
806.578	0.0153442
806.656	0.0152461
806.734	0.0152240
806.812	0.0152357
806.890	0.0151340
806.968	0.0152013
807.046	0.0150712
807.124	0.0150997
807.203	0.0150832
807.281	0.0151284
807.359	0.0151421
807.437	0.0151336
807.515	0.0150829
807.593	0.0149973
807.671	0.0151669
807.749	0.0151445
807.828	0.0151438
807.906	0.0151497
807.984	0.0152867
808.062	0.0151368
808.140	0.0151215
808.218	0.0153807
808.296	0.0152615
808.374	0.0151977
808.453	0.0153125
808.531	0.0152325
808.609	0.0151301
808.687	0.0152073
808.765	0.0150948
808.843	0.0151376
808.921	0.0151624
808.999	0.0150313
809.078	0.0150794
809.156	0.0151897
809.234	0.0151935
809.312	0.0150482
809.390	0.0151551
809.468	0.0152086
809.546	0.0151227
809.624	0.0150042
809.703	0.0150178
809.781	0.0150629
809.859	0.0150900
809.937	0.0151170
810.015	0.0152029
810.093	0.0152366
810.171	0.0152486
810.249	0.0151431
810.328	0.0151497
810.406	0.0151431
810.484	0.0151688
810.562	0.0151383
810.640	0.0149519
810.718	0.0152058
810.796	0.0152240
810.874	0.0151728
810.953	0.0151141
811.031	0.0149781
811.109	0.0151057
811.187	0.0150554
811.265	0.0151180
811.343	0.0151744
811.421	0.0151181
811.499	0.0150214
811.578	0.0150764
811.656	0.0151967
811.734	0.0151569
811.812	0.0153198
811.890	0.0151813
811.968	0.0151128
812.046	0.0151491
812.124	0.0151809
812.203	0.0151216
812.281	0.0152936
812.359	0.0152122
812.437	0.0150995
812.515	0.0150562
812.593	0.0150541
812.671	0.0152210
812.749	0.0150409
812.828	0.0150527
812.906	0.0150156
812.984	0.0150900
813.062	0.0151431
813.140	0.0150692
813.218	0.0151311
813.296	0.0151250
813.374	0.0152391
813.453	0.0151658
813.531	0.0151058
813.609	0.0150616
813.687	0.0152438
813.765	0.0151879
813.843	0.0150932
813.921	0.0151453
813.999	0.0151504
814.078	0.0152214
814.156	0.0151727
814.234	0.0151671
814.312	0.0151861
814.390	0.0151879
814.468	0.0150749
814.546	0.0152363
814.624	0.0151682
814.703	0.0150917
814.781	0.0150188
814.859	0.0149696
814.937	0.0151879
815.015	0.0151353
815.093	0.0149935
815.171	0.0152565
815.249	0.0150417
815.328	0.0150490
815.406	0.0152222
815.484	0.0151694
815.562	0.0150988
815.640	0.0151281
815.718	0.0150769
815.796	0.0150888
815.874	0.0150959
815.953	0.0151791
816.031	0.0149715
816.109	0.0150594
816.187	0.0151286
816.265	0.0151230
816.343	0.0151278
816.421	0.0152280
816.499	0.0150512
816.578	0.0151838
816.656	0.0151646
816.734	0.0151701
816.812	0.0151290
816.890	0.0152711
816.968	0.0152400
817.046	0.0151704
817.124	0.0152601
817.203	0.0152187
817.281	0.0151421
817.359	0.0152952
817.437	0.0151189
817.515	0.0152555
817.593	0.0152003
817.671	0.0150967
817.749	0.0151767
817.828	0.0151817
817.906	0.0152260
817.984	0.0151987
818.062	0.0152299
818.140	0.0151122
818.218	0.0151408
818.296	0.0150683
818.374	0.0151637
818.453	0.0151525
818.531	0.0150542
818.609	0.0150414
818.687	0.0149398
818.765	0.0151064
818.843	0.0149571
818.921	0.0149332
818.999	0.0149509
819.078	0.0149532
819.156	0.0149737
819.234	0.0149883
819.312	0.0149790
819.390	0.0150352
819.468	0.0150888
819.546	0.0150427
819.624	0.0151586
819.703	0.0151457
819.781	0.0151562
819.859	0.0151957
819.937	0.0152229
820.015	0.0151607
820.093	0.0152592
820.171	0.0151649
820.249	0.0151627
820.328	0.0151937
820.406	0.0151625
820.484	0.0152132
820.562	0.0151614
820.640	0.0150665
820.718	0.0152583
820.796	0.0150781
820.874	0.0151508
820.953	0.0151833
821.031	0.0151744
821.109	0.0150495
821.187	0.0149791
821.265	0.0150301
821.343	0.0149869
821.421	0.0149989
821.499	0.0151101
821.578	0.0150276
821.656	0.0150494
821.734	0.0150934
821.812	0.0150292
821.890	0.0153296
821.968	0.0150449
822.046	0.0151323
822.124	0.0152323
822.203	0.0151753
822.281	0.0151274
822.359	0.0151453
822.437	0.0150510
822.515	0.0152205
822.593	0.0151301
822.671	0.0151328
822.749	0.0151624
822.828	0.0151087
822.906	0.0151318
822.984	0.0149828
823.062	0.0150925
823.140	0.0151167
823.218	0.0150127
823.296	0.0150264
823.374	0.0150117
823.453	0.0150993
823.531	0.0150268
823.609	0.0151214
823.687	0.0151688
823.765	0.0150584
823.843	0.0151263
823.921	0.0151177
823.999	0.0151117
824.078	0.0149819
824.156	0.0151958
824.234	0.0151584
824.312	0.0150546
824.390	0.0151395
824.468	0.0151736
824.546	0.0152484
824.624	0.0151307
824.703	0.0151245
824.781	0.0151394
824.859	0.0151321
824.937	0.0150964
825.015	0.0151557
825.093	0.0152078
825.171	0.0152428
825.249	0.0152059
825.328	0.0152335
825.406	0.0152551
825.484	0.0153128
825.562	0.0151808
825.640	0.0151334
825.718	0.0152874
825.796	0.0150898
825.874	0.0151318
825.953	0.0151212
826.031	0.0151671
826.109	0.0151242
826.187	0.0151322
826.265	0.0151719
826.343	0.0151401
826.421	0.0150188
826.499	0.0150070
826.578	0.0150904
826.656	0.0150660
826.734	0.0149809
826.812	0.0150749
826.890	0.0151039
826.968	0.0150350
827.046	0.0149905
827.124	0.0150577
827.203	0.0150124
827.281	0.0151522
827.359	0.0151871
827.437	0.0150861
827.515	0.0150284
827.593	0.0150066
827.671	0.0150417
827.749	0.0150594
827.828	0.0150768
827.906	0.0148814
827.984	0.0149792
828.062	0.0150573
828.140	0.0148885
828.218	0.0150064
828.296	0.0150925
828.374	0.0150045
828.453	0.0150194
828.531	0.0149638
828.609	0.0149447
828.687	0.0151212
828.765	0.0149952
828.843	0.0149915
828.921	0.0150221
828.999	0.0151144
829.078	0.0152070
829.156	0.0151068
829.234	0.0151534
829.312	0.0149084
829.390	0.0149998
829.468	0.0150162
829.546	0.0151179
829.624	0.0151328
829.703	0.0151051
829.781	0.0149011
829.859	0.0149625
829.937	0.0150091
830.015	0.0150023
830.093	0.0151233
830.171	0.0149733
830.249	0.0149245
830.328	0.0150220
830.406	0.0151902
830.484	0.0150649
830.562	0.0149921
830.640	0.0150315
830.718	0.0151057
830.796	0.0150674
830.874	0.0151183
830.953	0.0152199
831.031	0.0149442
831.109	0.0149834
831.187	0.0149457
831.265	0.0150726
831.343	0.0149268
831.421	0.0149809
831.499	0.0150977
831.578	0.0150384
831.656	0.0150305
831.734	0.0150963
831.812	0.0151278
831.890	0.0150796
831.968	0.0149641
832.046	0.0151394
832.124	0.0150028
832.203	0.0150548
832.281	0.0151498
832.359	0.0150751
832.437	0.0150392
832.515	0.0150345
832.593	0.0150269
832.671	0.0148866
832.749	0.0151844
832.828	0.0150053
832.906	0.0150092
832.984	0.0150427
833.062	0.0151511
833.140	0.0150939
833.218	0.0151891
833.296	0.0150107
833.374	0.0150439
833.453	0.0151243
833.531	0.0151781
833.609	0.0151017
833.687	0.0151151
833.765	0.0153333
833.843	0.0150856
833.921	0.0151126
833.999	0.0152511
834.078	0.0152874
834.156	0.0151962
834.234	0.0151682
834.312	0.0152130
834.390	0.0151624
834.468	0.0152558
834.546	0.0152351
834.624	0.0153006
834.703	0.0152997
834.781	0.0153466
834.859	0.0153761
834.937	0.0152442
835.015	0.0151886
835.093	0.0152271
835.171	0.0152320
835.249	0.0151279
835.328	0.0150815
835.406	0.0152847
835.484	0.0151305
835.562	0.0152754
835.640	0.0152916
835.718	0.0153136
835.796	0.0152416
835.874	0.0151888
835.953	0.0152340
836.031	0.0151509
836.109	0.0151524
836.187	0.0152811
836.265	0.0152498
836.343	0.0151661
836.421	0.0151166
836.499	0.0152746
836.578	0.0152860
836.656	0.0152385
836.734	0.0152493
836.812	0.0151668
836.890	0.0152802
836.968	0.0152176
837.046	0.0151118
837.124	0.0150571
837.203	0.0151057
837.281	0.0151918
837.359	0.0151751
837.437	0.0151199
837.515	0.0151474
837.593	0.0151988
837.671	0.0151662
837.749	0.0151711
837.828	0.0150835
837.906	0.0151473
837.984	0.0151863
838.062	0.0151658
838.140	0.0151764
838.218	0.0152213
838.296	0.0151617
838.374	0.0152617
838.453	0.0151329
838.531	0.0150793
838.609	0.0151778
838.687	0.0151302
838.765	0.0151193
838.843	0.0151263
838.921	0.0151758
838.999	0.0150868
839.078	0.0152142
839.156	0.0152754
839.234	0.0152488
839.312	0.0152399
839.390	0.0152214
839.468	0.0149783
839.546	0.0151074
839.624	0.0151584
839.703	0.0151487
839.781	0.0152264
839.859	0.0152290
839.937	0.0150739
840.015	0.0151624
840.093	0.0151643
840.171	0.0150545
840.249	0.0152567
840.328	0.0151413
840.406	0.0153154
840.484	0.0151683
840.562	0.0150874
840.640	0.0152499
840.718	0.0151781
840.796	0.0152264
840.874	0.0151778
840.953	0.0152135
841.031	0.0152128
841.109	0.0153704
841.187	0.0151707
841.265	0.0150815
841.343	0.0152068
841.421	0.0151894
841.499	0.0152372
841.578	0.0151625
841.656	0.0151665
841.734	0.0151797
841.812	0.0150970
841.890	0.0151104
841.968	0.0151325
842.046	0.0153194
842.124	0.0151998
842.203	0.0151330
842.281	0.0151518
842.359	0.0151412
842.437	0.0151899
842.515	0.0152543
842.593	0.0152259
842.671	0.0152010
842.749	0.0152721
842.828	0.0152070
842.906	0.0153178
842.984	0.0152722
843.062	0.0151608
843.140	0.0152573
843.218	0.0152136
843.296	0.0152590
843.374	0.0152020
843.453	0.0151817
843.531	0.0153870
843.609	0.0152227
843.687	0.0151237
843.765	0.0151891
843.843	0.0151228
843.921	0.0152310
843.999	0.0150969
844.078	0.0150266
844.156	0.0150828
844.234	0.0150304
844.312	0.0150774
844.390	0.0151701
844.468	0.0151524
844.546	0.0151489
844.624	0.0151311
844.703	0.0153274
844.781	0.0152408
844.859	0.0152091
844.937	0.0152322
845.015	0.0151698
845.093	0.0152760
845.171	0.0152042
845.249	0.0151029
845.328	0.0152611
845.406	0.0153652
845.484	0.0152946
845.562	0.0153886
845.640	0.0153463
845.718	0.0152389
845.796	0.0151847
845.874	0.0153275
845.953	0.0152873
846.031	0.0151655
846.109	0.0152888
846.187	0.0152272
846.265	0.0151572
846.343	0.0152414
846.421	0.0153146
846.499	0.0152772
846.578	0.0151713
846.656	0.0151117
846.734	0.0151128
846.812	0.0151696
846.890	0.0151016
846.968	0.0150576
847.046	0.0150052
847.124	0.0150334
847.203	0.0151123
847.281	0.0150500
847.359	0.0151431
847.437	0.0151128
847.515	0.0151384
847.593	0.0150665
847.671	0.0150409
847.749	0.0151157
847.828	0.0150972
847.906	0.0151241
847.984	0.0151167
848.062	0.0151091
848.140	0.0151368
848.218	0.0151552
848.296	0.0152792
848.374	0.0152008
848.453	0.0151364
848.531	0.0150964
848.609	0.0152715
848.687	0.0151694
848.765	0.0152211
848.843	0.0152573
848.921	0.0152322
848.999	0.0150896
849.078	0.0151257
849.156	0.0151309
849.234	0.0151292
849.312	0.0152645
849.390	0.0152541
849.468	0.0151021
849.546	0.0151951
849.624	0.0150900
849.703	0.0151217
849.781	0.0151560
849.859	0.0152095
849.937	0.0152132
850.015	0.0151454
850.093	0.0151598
850.171	0.0151562
850.249	0.0151378
850.328	0.0150768
850.406	0.0149934
850.484	0.0151070
850.562	0.0150921
850.640	0.0151385
850.718	0.0151157
850.796	0.0152399
850.874	0.0150742
850.953	0.0150791
851.031	0.0151840
851.109	0.0151185
851.187	0.0152628
851.265	0.0151833
851.343	0.0150715
851.421	0.0150562
851.499	0.0150393
851.578	0.0150284
851.656	0.0151249
851.734	0.0150177
851.812	0.0150626
851.890	0.0151025
851.968	0.0150999
852.046	0.0150153
852.124	0.0149629
852.203	0.0150991
852.281	0.0150877
852.359	0.0151171
852.437	0.0151847
852.515	0.0152411
852.593	0.0151192
852.671	0.0151144
852.749	0.0151206
852.828	0.0151720
852.906	0.0149805
852.984	0.0151144
853.062	0.0151288
853.140	0.0150329
853.218	0.0150560
853.296	0.0150230
853.374	0.0151414
853.453	0.0151171
853.531	0.0151460
853.609	0.0151067
853.687	0.0150443
853.765	0.0151421
853.843	0.0150242
853.921	0.0152080
853.999	0.0151189
854.078	0.0152276
854.156	0.0151062
854.234	0.0151810
854.312	0.0151715
854.390	0.0150708
854.468	0.0151208
854.546	0.0150140
854.624	0.0150604
854.703	0.0151643
854.781	0.0152380
854.859	0.0151516
854.937	0.0150822
855.015	0.0151760
855.093	0.0150659
855.171	0.0150664
855.249	0.0152069
855.328	0.0151344
855.406	0.0151592
855.484	0.0151151
855.562	0.0150578
855.640	0.0150218
855.718	0.0151143
855.796	0.0152025
855.874	0.0150512
855.953	0.0150735
856.031	0.0151218
856.109	0.0150694
856.187	0.0150898
856.265	0.0150187
856.343	0.0151060
856.421	0.0151515
856.499	0.0151196
856.578	0.0151405
856.656	0.0150639
856.734	0.0150931
856.812	0.0151033
856.890	0.0151666
856.968	0.0150105
857.046	0.0149651
857.124	0.0152804
857.203	0.0151468
857.281	0.0150912
857.359	0.0151682
857.437	0.0152629
857.515	0.0151357
857.593	0.0150271
857.671	0.0150478
857.749	0.0152155
857.828	0.0150479
857.906	0.0150501
857.984	0.0150005
858.062	0.0150542
858.140	0.0151242
858.218	0.0151237
858.296	0.0150612
858.374	0.0150584
858.453	0.0150974
858.531	0.0151000
858.609	0.0150731
858.687	0.0150372
858.765	0.0150159
858.843	0.0150925
858.921	0.0150952
858.999	0.0150581
859.078	0.0150372
859.156	0.0150322
859.234	0.0151275
859.312	0.0152410
859.390	0.0151894
859.468	0.0151081
859.546	0.0152561
859.624	0.0152394
859.703	0.0152527
859.781	0.0151060
859.859	0.0152091
859.937	0.0152456
860.015	0.0151662
860.093	0.0152176
860.171	0.0151431
860.249	0.0151717
860.328	0.0151891
860.406	0.0152710
860.484	0.0152568
860.562	0.0151736
860.640	0.0153621
860.718	0.0152692
860.796	0.0151877
860.874	0.0151273
860.953	0.0151184
861.031	0.0151862
861.109	0.0152403
861.187	0.0152064
861.265	0.0151031
861.343	0.0150842
861.421	0.0151541
861.499	0.0152001
861.578	0.0151707
861.656	0.0151649
861.734	0.0152020
861.812	0.0150915
861.890	0.0151460
861.968	0.0152563
862.046	0.0152035
862.124	0.0151247
862.203	0.0151907
862.281	0.0151026
862.359	0.0150211
862.437	0.0151654
862.515	0.0151169
862.593	0.0151853
862.671	0.0151317
862.749	0.0151608
862.828	0.0151426
862.906	0.0151697
862.984	0.0151730
863.062	0.0152282
863.140	0.0152312
863.218	0.0151272
863.296	0.0150977
863.374	0.0152309
863.453	0.0150488
863.531	0.0151596
863.609	0.0151932
863.687	0.0150616
863.765	0.0152057
863.843	0.0151189
863.921	0.0151035
863.999	0.0151319
864.078	0.0150559
864.156	0.0150982
864.234	0.0151035
864.312	0.0151482
864.390	0.0150893
864.468	0.0152317
864.546	0.0150467
864.624	0.0150424
864.703	0.0151580
864.781	0.0151221
864.859	0.0150464
864.937	0.0151196
865.015	0.0152175
865.093	0.0151434
865.171	0.0150772
865.249	0.0151773
865.328	0.0150603
865.406	0.0152248
865.484	0.0151145
865.562	0.0148910
865.640	0.0151177
865.718	0.0150260
865.796	0.0150351
865.874	0.0150896
865.953	0.0149995
866.031	0.0150665
866.109	0.0150816
866.187	0.0149828
866.265	0.0150113
866.343	0.0151344
866.421	0.0150470
866.499	0.0150285
866.578	0.0149796
866.656	0.0149788
866.734	0.0149182
866.812	0.0150049
866.890	0.0150418
866.968	0.0150266
867.046	0.0149842
867.124	0.0151030
867.203	0.0149683
867.281	0.0149844
867.359	0.0150288
867.437	0.0151346
867.515	0.0152698
867.593	0.0151060
867.671	0.0151093
867.749	0.0150957
867.828	0.0151250
867.906	0.0150377
867.984	0.0151123
868.062	0.0151123
868.140	0.0150443
868.218	0.0151434
868.296	0.0150030
868.374	0.0152608
868.453	0.0150687
868.531	0.0152545
868.609	0.0151773
868.687	0.0151128
868.765	0.0152477
868.843	0.0152155
868.921	0.0151907
868.999	0.0152535
869.078	0.0152443
869.156	0.0151117
869.234	0.0151820
869.312	0.0153295
869.390	0.0152650
869.468	0.0152376
869.546	0.0152103
869.624	0.0152144
869.703	0.0151756
869.781	0.0150816
869.859	0.0153006
869.937	0.0151219
870.015	0.0151335
870.093	0.0152107
870.171	0.0150433
870.249	0.0150591
870.328	0.0152856
870.406	0.0151533
870.484	0.0151656
870.562	0.0152244
870.640	0.0152169
870.718	0.0151513
870.796	0.0153636
870.874	0.0152345
870.953	0.0152564
871.031	0.0152759
871.109	0.0152505
871.187	0.0151981
871.265	0.0152633
871.343	0.0152641
871.421	0.0154123
871.499	0.0152148
871.578	0.0153090
871.656	0.0153652
871.734	0.0153049
871.812	0.0152468
871.890	0.0153125
871.968	0.0152837
872.046	0.0152406
872.124	0.0152881
872.203	0.0154390
872.281	0.0152013
872.359	0.0152900
872.437	0.0151617
872.515	0.0154293
872.593	0.0153404
872.671	0.0153702
872.749	0.0152557
872.828	0.0152338
872.906	0.0153419
872.984	0.0154166
873.062	0.0154714
873.140	0.0152460
873.218	0.0152716
873.296	0.0154157
873.374	0.0153980
873.453	0.0153628
873.531	0.0152444
873.609	0.0153484
873.687	0.0153469
873.765	0.0153044
873.843	0.0154272
873.921	0.0152094
873.999	0.0152420
874.078	0.0154125
874.156	0.0152189
874.234	0.0152309
874.312	0.0151666
874.390	0.0150412
874.468	0.0150914
874.546	0.0151181
874.624	0.0152194
874.703	0.0152171
874.781	0.0151692
874.859	0.0151049
874.937	0.0151576
875.015	0.0151936
875.093	0.0152171
875.171	0.0152602
875.249	0.0152104
875.328	0.0150786
875.406	0.0149390
875.484	0.0151079
875.562	0.0151814
875.640	0.0150519
875.718	0.0151840
875.796	0.0151470
875.874	0.0150867
875.953	0.0151212
876.031	0.0151094
876.109	0.0151742
876.187	0.0151295
876.265	0.0151663
876.343	0.0151299
876.421	0.0149123
876.499	0.0149909
876.578	0.0151582
876.656	0.0151432
876.734	0.0150565
876.812	0.0150314
876.890	0.0149666
876.968	0.0149986
877.046	0.0149750
877.124	0.0149013
877.203	0.0150474
877.281	0.0150431
877.359	0.0149939
877.437	0.0150397
877.515	0.0150282
877.593	0.0149110
877.671	0.0150525
877.749	0.0150471
877.828	0.0150084
877.906	0.0152257
877.984	0.0152018
878.062	0.0151578
878.140	0.0151103
878.218	0.0152197
878.296	0.0152187
878.374	0.0151334
878.453	0.0149758
878.531	0.0150470
878.609	0.0152857
878.687	0.0151430
878.765	0.0151968
878.843	0.0153045
878.921	0.0150956
878.999	0.0153847
879.078	0.0152392
879.156	0.0151681
879.234	0.0152205
879.312	0.0150573
879.390	0.0150718
879.468	0.0151656
879.546	0.0150710
879.624	0.0151318
879.703	0.0151669
879.781	0.0151780
879.859	0.0150811
879.937	0.0150460
880.015	0.0151546
880.093	0.0150912
880.171	0.0150789
880.249	0.0152673
880.328	0.0151264
880.406	0.0150814
880.484	0.0151805
880.562	0.0152168
880.640	0.0152435
880.718	0.0152512
880.796	0.0151675
880.874	0.0152427
880.953	0.0152773
881.031	0.0151273
881.109	0.0152586
881.187	0.0153266
881.265	0.0152756
881.343	0.0151756
881.421	0.0151165
881.499	0.0152646
881.578	0.0153571
881.656	0.0152545
881.734	0.0151612
881.812	0.0153482
881.890	0.0152157
881.968	0.0151181
882.046	0.0152313
882.124	0.0151673
882.203	0.0150545
882.281	0.0152116
882.359	0.0153333
882.437	0.0151749
882.515	0.0152094
882.593	0.0152655
882.671	0.0152237
882.749	0.0153458
882.828	0.0152617
882.906	0.0150918
882.984	0.0151553
883.062	0.0151801
883.140	0.0152309
883.218	0.0152820
883.296	0.0152333
883.374	0.0153388
883.453	0.0151658
883.531	0.0153094
883.609	0.0152032
883.687	0.0151820
883.765	0.0153044
883.843	0.0152013
883.921	0.0152187
883.999	0.0152277
884.078	0.0150925
884.156	0.0152451
884.234	0.0151580
884.312	0.0151977
884.390	0.0152278
884.468	0.0151070
884.546	0.0152959
884.624	0.0151675
884.703	0.0152157
884.781	0.0150558
884.859	0.0150887
884.937	0.0151954
885.015	0.0150233
885.093	0.0151681
885.171	0.0151337
885.249	0.0150471
885.328	0.0149787
885.406	0.0150499
885.484	0.0150019
885.562	0.0148835
885.640	0.0150346
885.718	0.0150896
885.796	0.0150043
885.874	0.0150882
885.953	0.0149401
886.031	0.0149594
886.109	0.0150065
886.187	0.0151638
886.265	0.0150946
886.343	0.0150367
886.421	0.0150308
886.499	0.0150474
886.578	0.0148929
886.656	0.0150358
886.734	0.0152023
886.812	0.0151157
886.890	0.0149048
886.968	0.0150739
887.046	0.0150351
887.124	0.0151140
887.203	0.0151006
887.281	0.0151691
887.359	0.0150874
887.437	0.0149481
887.515	0.0151154
887.593	0.0151869
887.671	0.0150219
887.749	0.0150723
887.828	0.0150798
887.906	0.0149598
887.984	0.0148437
888.062	0.0149249
888.140	0.0150127
888.218	0.0149866
888.296	0.0150570
888.374	0.0149278
888.453	0.0149210
888.531	0.0149203
888.609	0.0150329
888.687	0.0149152
888.765	0.0150217
888.843	0.0149458
888.921	0.0150932
888.999	0.0150553
889.078	0.0150645
889.156	0.0151340
889.234	0.0152108
889.312	0.0150285
889.390	0.0149963
889.468	0.0150493
889.546	0.0149680
889.624	0.0150888
889.703	0.0150406
889.781	0.0150080
889.859	0.0151325
889.937	0.0150881
890.015	0.0150288
890.093	0.0150140
890.171	0.0151493
890.249	0.0151420
890.328	0.0151066
890.406	0.0151649
890.484	0.0150680
890.562	0.0151183
890.640	0.0151277
890.718	0.0150974
890.796	0.0152089
890.874	0.0151037
890.953	0.0151801
891.031	0.0151819
891.109	0.0151876
891.187	0.0151291
891.265	0.0151532
891.343	0.0151644
891.421	0.0151067
891.499	0.0151142
891.578	0.0151516
891.656	0.0151786
891.734	0.0152213
891.812	0.0152274
891.890	0.0150872
891.968	0.0150684
892.046	0.0151411
892.124	0.0152222
892.203	0.0152200
892.281	0.0151994
892.359	0.0151173
892.437	0.0151842
892.515	0.0151996
892.593	0.0152479
892.671	0.0151849
892.749	0.0150795
892.828	0.0152370
892.906	0.0153110
892.984	0.0153754
893.062	0.0151499
893.140	0.0151469
893.218	0.0153242
893.296	0.0152498
893.374	0.0152418
893.453	0.0152422
893.531	0.0151507
893.609	0.0151935
893.687	0.0152397
893.765	0.0152090
893.843	0.0152741
893.921	0.0152711
893.999	0.0152670
894.078	0.0153551
894.156	0.0150967
894.234	0.0151679
894.312	0.0151597
894.390	0.0152172
894.468	0.0150969
894.546	0.0152548
894.624	0.0151616
894.703	0.0152865
894.781	0.0152604
894.859	0.0152050
894.937	0.0152949
895.015	0.0153172
895.093	0.0151257
895.171	0.0151814
895.249	0.0152430
895.328	0.0150967
895.406	0.0151411
895.484	0.0153460
895.562	0.0151563
895.640	0.0150268
895.718	0.0152323
895.796	0.0153034
895.874	0.0152338
895.953	0.0151590
896.031	0.0152605
896.109	0.0151984
896.187	0.0152290
896.265	0.0151692
896.343	0.0151228
896.421	0.0152213
896.499	0.0151711
896.578	0.0151210
896.656	0.0151730
896.734	0.0151768
896.812	0.0152836
896.890	0.0151968
896.968	0.0152435
897.046	0.0152023
897.124	0.0150972
897.203	0.0150880
897.281	0.0152229
897.359	0.0152303
897.437	0.0150251
897.515	0.0151263
897.593	0.0150653
897.671	0.0151579
897.749	0.0151231
897.828	0.0152125
897.906	0.0150636
897.984	0.0151862
898.062	0.0150788
898.140	0.0150710
898.218	0.0150653
898.296	0.0150998
898.374	0.0151138
898.453	0.0151252
898.531	0.0149303
898.609	0.0149916
898.687	0.0151324
898.765	0.0150508
898.843	0.0151251
898.921	0.0151112
898.999	0.0151311
899.078	0.0151997
899.156	0.0148680
899.234	0.0149960
899.312	0.0149887
899.390	0.0151269
899.468	0.0149548
899.546	0.0150297
899.624	0.0151441
899.703	0.0149654
899.781	0.0148414
899.859	0.0150526
899.937	0.0150105
900.015	0.0150028
900.093	0.0150304
900.171	0.0150466
900.249	0.0150020
900.328	0.0150880
900.406	0.0149338
900.484	0.0149310
900.562	0.0149919
900.640	0.0149496
900.718	0.0151633
900.796	0.0151003
900.874	0.0149329
900.953	0.0150723
901.031	0.0151694
901.109	0.0150694
901.187	0.0150658
901.265	0.0149985
901.343	0.0150026
901.421	0.0150155
901.499	0.0149710
901.578	0.0150646
901.656	0.0151093
901.734	0.0150854
901.812	0.0148911
901.890	0.0151421
901.968	0.0151110
902.046	0.0149225
902.124	0.0150496
902.203	0.0150641
902.281	0.0149806
902.359	0.0150174
902.437	0.0151490
902.515	0.0150164
902.593	0.0150523
902.671	0.0149200
902.749	0.0149796
902.828	0.0149592
902.906	0.0148838
902.984	0.0151086
903.062	0.0150143
903.140	0.0150428
903.218	0.0150909
903.296	0.0149691
903.374	0.0150924
903.453	0.0150935
903.531	0.0150433
903.609	0.0149577
903.687	0.0150663
903.765	0.0151202
903.843	0.0150053
903.921	0.0150868
903.999	0.0150551
904.078	0.0151088
904.156	0.0151151
904.234	0.0150058
904.312	0.0151630
904.390	0.0150990
904.468	0.0150890
904.546	0.0151480
904.624	0.0151559
904.703	0.0152953
904.781	0.0150739
904.859	0.0150727
904.937	0.0151579
905.015	0.0152987
905.093	0.0151527
905.171	0.0151452
905.249	0.0152705
905.328	0.0152206
905.406	0.0152018
905.484	0.0152999
905.562	0.0152711
905.640	0.0152085
905.718	0.0151626
905.796	0.0151177
905.874	0.0151528
905.953	0.0151808
906.031	0.0152032
906.109	0.0152983
906.187	0.0152053
906.265	0.0151987
906.343	0.0150441
906.421	0.0151638
906.499	0.0152029
906.578	0.0152356
906.656	0.0151289
906.734	0.0149660
906.812	0.0150694
906.890	0.0149873
906.968	0.0151501
907.046	0.0151018
907.124	0.0148573
907.203	0.0150215
907.281	0.0150648
907.359	0.0150343
907.437	0.0150581
907.515	0.0149632
907.593	0.0150188
907.671	0.0150939
907.749	0.0148574
907.828	0.0150632
907.906	0.0150134
907.984	0.0150063
908.062	0.0150721
908.140	0.0149986
908.218	0.0150458
908.296	0.0149100
908.374	0.0150061
908.453	0.0151595
908.531	0.0150528
908.609	0.0150449
908.687	0.0149770
908.765	0.0150635
908.843	0.0150429
908.921	0.0150713
908.999	0.0150161
909.078	0.0150468
909.156	0.0151560
909.234	0.0151129
909.312	0.0150927
909.390	0.0150114
909.468	0.0149281
909.546	0.0149294
909.624	0.0150954
909.703	0.0150016
909.781	0.0151270
909.859	0.0150064
909.937	0.0149682
910.015	0.0149301
910.093	0.0149523
910.171	0.0150285
910.249	0.0150545
910.328	0.0150117
910.406	0.0150220
910.484	0.0149644
910.562	0.0150413
910.640	0.0150484
910.718	0.0150988
910.796	0.0150101
910.874	0.0149765
910.953	0.0150386
911.031	0.0150755
911.109	0.0150512
911.187	0.0150541
911.265	0.0151213
911.343	0.0149837
911.421	0.0150561
911.499	0.0150632
911.578	0.0149795
911.656	0.0149622
911.734	0.0150318
911.812	0.0151144
911.890	0.0149889
911.968	0.0150137
912.046	0.0151270
912.124	0.0149680
912.203	0.0148984
912.281	0.0149152
912.359	0.0148222
912.437	0.0150469
912.515	0.0150104
912.593	0.0151228
912.671	0.0151093
912.749	0.0150295
912.828	0.0148779
912.906	0.0151048
912.984	0.0148833
913.062	0.0150010
913.140	0.0149325
913.218	0.0149739
913.296	0.0150246
913.374	0.0150645
913.453	0.0150550
913.531	0.0150525
913.609	0.0148589
913.687	0.0149421
913.765	0.0150803
913.843	0.0150332
913.921	0.0150175
913.999	0.0150980
914.078	0.0150004
914.156	0.0150607
914.234	0.0151057
914.312	0.0150583
914.390	0.0151804
914.468	0.0151501
914.546	0.0151257
914.624	0.0150716
914.703	0.0151973
914.781	0.0151316
914.859	0.0151524
914.937	0.0151524
915.015	0.0151743
915.093	0.0151431
915.171	0.0151105
915.249	0.0152056
915.328	0.0151352
915.406	0.0150706
915.484	0.0151575
915.562	0.0151388
915.640	0.0150780
915.718	0.0149902
915.796	0.0150889
915.874	0.0152126
915.953	0.0152203
916.031	0.0151257
916.109	0.0151089
916.187	0.0151233
916.265	0.0152139
916.343	0.0151726
916.421	0.0151111
916.499	0.0151311
916.578	0.0151472
916.656	0.0152640
916.734	0.0150797
916.812	0.0152729
916.890	0.0152045
916.968	0.0153167
917.046	0.0152108
917.124	0.0150504
917.203	0.0152954
917.281	0.0151209
917.359	0.0151765
917.437	0.0151192
917.515	0.0151460
917.593	0.0151888
917.671	0.0150621
917.749	0.0151534
917.828	0.0152367
917.906	0.0151148
917.984	0.0151289
918.062	0.0151423
918.140	0.0149911
918.218	0.0151991
918.296	0.0151899
918.374	0.0151826
918.453	0.0151781
918.531	0.0151730
918.609	0.0151376
918.687	0.0151191
918.765	0.0151728
918.843	0.0152437
918.921	0.0150800
918.999	0.0150204
919.078	0.0152110
919.156	0.0152506
919.234	0.0152409
919.312	0.0150974
919.390	0.0151751
919.468	0.0151140
919.546	0.0152213
919.624	0.0153198
919.703	0.0151597
919.781	0.0150659
919.859	0.0150568
919.937	0.0150511
