05/06/2022	19:37:26	Ver.	4.1	UNKNOWN
Optical Delay	600.015094	Delta X		0.078125	Sweeps	1	Scan Rate	0/0
Coordinates	Axis 1	NaN	Axis 2	NaN	Axis 3	NaN	Axis 4	NaN	Axis 5	NaN	Axis 6	0.000000
TX Power	0.000000	RX Power	0.000000

600.015	0.0154771
600.093	0.0154973
600.171	0.0153613
600.249	0.0154212
600.328	0.0154616
600.406	0.0154507
600.484	0.0154269
600.562	0.0154861
600.640	0.0154207
600.718	0.0154530
600.796	0.0155064
600.874	0.0154751
600.953	0.0155711
601.031	0.0154356
601.109	0.0155176
601.187	0.0154071
601.265	0.0153175
601.343	0.0153807
601.421	0.0156059
601.499	0.0155254
601.578	0.0154578
601.656	0.0154571
601.734	0.0153496
601.812	0.0154116
601.890	0.0154620
601.968	0.0152615
602.046	0.0154185
602.124	0.0153313
602.203	0.0151352
602.281	0.0153666
602.359	0.0153601
602.437	0.0152602
602.515	0.0153177
602.593	0.0153741
602.671	0.0154440
602.749	0.0153119
602.828	0.0153114
602.906	0.0153616
602.984	0.0154126
603.062	0.0154833
603.140	0.0154525
603.218	0.0154279
603.296	0.0153316
603.374	0.0154865
603.453	0.0153819
603.531	0.0154961
603.609	0.0154310
603.687	0.0154327
603.765	0.0153621
603.843	0.0153648
603.921	0.0155201
603.999	0.0155724
604.078	0.0153840
604.156	0.0152283
604.234	0.0153026
604.312	0.0153428
604.390	0.0154794
604.468	0.0153526
604.546	0.0152841
604.624	0.0152955
604.703	0.0152502
604.781	0.0152146
604.859	0.0153117
604.937	0.0154224
605.015	0.0152738
605.093	0.0152461
605.171	0.0154556
605.249	0.0153439
605.328	0.0154220
605.406	0.0154386
605.484	0.0155106
605.562	0.0153396
605.640	0.0155148
605.718	0.0154623
605.796	0.0154573
605.874	0.0154556
605.953	0.0153997
606.031	0.0155470
606.109	0.0156800
606.187	0.0156826
606.265	0.0155865
606.343	0.0154755
606.421	0.0156344
606.499	0.0155296
606.578	0.0156540
606.656	0.0156864
606.734	0.0156779
606.812	0.0156541
606.890	0.0156852
606.968	0.0155843
607.046	0.0157647
607.124	0.0156412
607.203	0.0155498
607.281	0.0157275
607.359	0.0155238
607.437	0.0156469
607.515	0.0155274
607.593	0.0156230
607.671	0.0155376
607.749	0.0155272
607.828	0.0153967
607.906	0.0154957
607.984	0.0154889
608.062	0.0154032
608.140	0.0154485
608.218	0.0154147
608.296	0.0153675
608.374	0.0153232
608.453	0.0154159
608.531	0.0152229
608.609	0.0153237
608.687	0.0153255
608.765	0.0153040
608.843	0.0154746
608.921	0.0154655
608.999	0.0153366
609.078	0.0153737
609.156	0.0155427
609.234	0.0156117
609.312	0.0155852
609.390	0.0155518
609.468	0.0155878
609.546	0.0157870
609.624	0.0157076
609.703	0.0157322
609.781	0.0157486
609.859	0.0158484
609.937	0.0157746
610.015	0.0156664
610.093	0.0157211
610.171	0.0158128
610.249	0.0156265
610.328	0.0155179
610.406	0.0156703
610.484	0.0156467
610.562	0.0156009
610.640	0.0157042
610.718	0.0156800
610.796	0.0155802
610.874	0.0154510
610.953	0.0154106
611.031	0.0155894
611.109	0.0154320
611.187	0.0155466
611.265	0.0155067
611.343	0.0154280
611.421	0.0153066
611.499	0.0155002
611.578	0.0154912
611.656	0.0154214
611.734	0.0153763
611.812	0.0154950
611.890	0.0155687
611.968	0.0155156
612.046	0.0155827
612.124	0.0155019
612.203	0.0154174
612.281	0.0154944
612.359	0.0155190
612.437	0.0154818
612.515	0.0155225
612.593	0.0155604
612.671	0.0156234
612.749	0.0154952
612.828	0.0155500
612.906	0.0154594
612.984	0.0154827
613.062	0.0154737
613.140	0.0155241
613.218	0.0156107
613.296	0.0154932
613.374	0.0156445
613.453	0.0155988
613.531	0.0153608
613.609	0.0155605
613.687	0.0154803
613.765	0.0155012
613.843	0.0154371
613.921	0.0155331
613.999	0.0155539
614.078	0.0155854
614.156	0.0153827
614.234	0.0155140
614.312	0.0155072
614.390	0.0155058
614.468	0.0154251
614.546	0.0154834
614.624	0.0154325
614.703	0.0155866
614.781	0.0154120
614.859	0.0154108
614.937	0.0155412
615.015	0.0154552
615.093	0.0154573
615.171	0.0153239
615.249	0.0154848
615.328	0.0153858
615.406	0.0155178
615.484	0.0156860
615.562	0.0155031
615.640	0.0154646
615.718	0.0156393
615.796	0.0156090
615.874	0.0156773
615.953	0.0156549
616.031	0.0156648
616.109	0.0156667
616.187	0.0155724
616.265	0.0158009
616.343	0.0157130
616.421	0.0157963
616.499	0.0157202
616.578	0.0156842
616.656	0.0156784
616.734	0.0156478
616.812	0.0157751
616.890	0.0157848
616.968	0.0156206
617.046	0.0155489
617.124	0.0156236
617.203	0.0154054
617.281	0.0155685
617.359	0.0157021
617.437	0.0153539
617.515	0.0155228
617.593	0.0156441
617.671	0.0155465
617.749	0.0155704
617.828	0.0155255
617.906	0.0154898
617.984	0.0155513
618.062	0.0156367
618.140	0.0155864
618.218	0.0155335
618.296	0.0156527
618.374	0.0155879
618.453	0.0155058
618.531	0.0154408
618.609	0.0155244
618.687	0.0155168
618.765	0.0156084
618.843	0.0154156
618.921	0.0154951
618.999	0.0154142
619.078	0.0153420
619.156	0.0153971
619.234	0.0155344
619.312	0.0154786
619.390	0.0154307
619.468	0.0154169
619.546	0.0155336
619.624	0.0156411
619.703	0.0155267
619.781	0.0157142
619.859	0.0157099
619.937	0.0156619
620.015	0.0156679
620.093	0.0157560
620.171	0.0156721
620.249	0.0156681
620.328	0.0158105
620.406	0.0157278
620.484	0.0157361
620.562	0.0157422
620.640	0.0156355
620.718	0.0156744
620.796	0.0155975
620.874	0.0155836
620.953	0.0156519
621.031	0.0157823
621.109	0.0157055
621.187	0.0154511
621.265	0.0155437
621.343	0.0156084
621.421	0.0156164
621.499	0.0154641
621.578	0.0154000
621.656	0.0153028
621.734	0.0153207
621.812	0.0152631
621.890	0.0152740
621.968	0.0153062
622.046	0.0151468
622.124	0.0152753
622.203	0.0152448
622.281	0.0153143
622.359	0.0153036
622.437	0.0154070
622.515	0.0154053
622.593	0.0155616
622.671	0.0154317
622.749	0.0154362
622.828	0.0154533
622.906	0.0156637
622.984	0.0156471
623.062	0.0156759
623.140	0.0156425
623.218	0.0157512
623.296	0.0155984
623.374	0.0156224
623.453	0.0155633
623.531	0.0155657
623.609	0.0156533
623.687	0.0155255
623.765	0.0154722
623.843	0.0153967
623.921	0.0153667
623.999	0.0153506
624.078	0.0151760
624.156	0.0151971
624.234	0.0151946
624.312	0.0151118
624.390	0.0151601
624.468	0.0151877
624.546	0.0151830
624.624	0.0152041
624.703	0.0152120
624.781	0.0151506
624.859	0.0150639
624.937	0.0151830
625.015	0.0151762
625.093	0.0152525
625.171	0.0151279
625.249	0.0151812
625.328	0.0153860
625.406	0.0153793
625.484	0.0154387
625.562	0.0154651
625.640	0.0155295
625.718	0.0157003
625.796	0.0155634
625.874	0.0156700
625.953	0.0157616
626.031	0.0157573
626.109	0.0159582
626.187	0.0159519
626.265	0.0159827
626.343	0.0159502
626.421	0.0158754
626.499	0.0158688
626.578	0.0159438
626.656	0.0158575
626.734	0.0157149
626.812	0.0156729
626.890	0.0157166
626.968	0.0156802
627.046	0.0155078
627.124	0.0153820
627.203	0.0152998
627.281	0.0151898
627.359	0.0150607
627.437	0.0151025
627.515	0.0151106
627.593	0.0149217
627.671	0.0150639
627.749	0.0149417
627.828	0.0148278
627.906	0.0150615
627.984	0.0149747
628.062	0.0150019
628.140	0.0148914
628.218	0.0149626
628.296	0.0150926
628.374	0.0150697
628.453	0.0153296
628.531	0.0152686
628.609	0.0152632
628.687	0.0153446
628.765	0.0154935
628.843	0.0156178
628.921	0.0156566
628.999	0.0154558
629.078	0.0157307
629.156	0.0157938
629.234	0.0157615
629.312	0.0158092
629.390	0.0159690
629.468	0.0158372
629.546	0.0158339
629.624	0.0159071
629.703	0.0159963
629.781	0.0158897
629.859	0.0157957
629.937	0.0158803
630.015	0.0157922
630.093	0.0158094
630.171	0.0158778
630.249	0.0158102
630.328	0.0157471
630.406	0.0159371
630.484	0.0157162
630.562	0.0157595
630.640	0.0158867
630.718	0.0158009
630.796	0.0155832
630.874	0.0156454
630.953	0.0156605
631.031	0.0154968
631.109	0.0155759
631.187	0.0155254
631.265	0.0154418
631.343	0.0155145
631.421	0.0154527
631.499	0.0153006
631.578	0.0155484
631.656	0.0154189
631.734	0.0153195
631.812	0.0154890
631.890	0.0155176
631.968	0.0155860
632.046	0.0154230
632.124	0.0154629
632.203	0.0155188
632.281	0.0153816
632.359	0.0155003
632.437	0.0154584
632.515	0.0154945
632.593	0.0155428
632.671	0.0154271
632.749	0.0152966
632.828	0.0152322
632.906	0.0152504
632.984	0.0152328
633.062	0.0151111
633.140	0.0152134
633.218	0.0151604
633.296	0.0149864
633.374	0.0151509
633.453	0.0152711
633.531	0.0151965
633.609	0.0152782
633.687	0.0152608
633.765	0.0154062
633.843	0.0154915
633.921	0.0156426
633.999	0.0156924
634.078	0.0157889
634.156	0.0157957
634.234	0.0158406
634.312	0.0159900
634.390	0.0160513
634.468	0.0160908
634.546	0.0160282
634.624	0.0161079
634.703	0.0162345
634.781	0.0159400
634.859	0.0159800
634.937	0.0159750
635.015	0.0159822
635.093	0.0158471
635.171	0.0159310
635.249	0.0156590
635.328	0.0156052
635.406	0.0156586
635.484	0.0157270
635.562	0.0155338
635.640	0.0154655
635.718	0.0154008
635.796	0.0153719
635.874	0.0152628
635.953	0.0153008
636.031	0.0150089
636.109	0.0149841
636.187	0.0149451
636.265	0.0149364
636.343	0.0148065
636.421	0.0149307
636.499	0.0148667
636.578	0.0147228
636.656	0.0147803
636.734	0.0147450
636.812	0.0147485
636.890	0.0146423
636.968	0.0148267
637.046	0.0149386
637.124	0.0149393
637.203	0.0150533
637.281	0.0152638
637.359	0.0153590
637.437	0.0154032
637.515	0.0156122
637.593	0.0156407
637.671	0.0157972
637.749	0.0157344
637.828	0.0158022
637.906	0.0158685
637.984	0.0157542
638.062	0.0158043
638.140	0.0158024
638.218	0.0156400
638.296	0.0157344
638.374	0.0157536
638.453	0.0157169
638.531	0.0156412
638.609	0.0157146
638.687	0.0154963
638.765	0.0154408
638.843	0.0153278
638.921	0.0152345
638.999	0.0153809
639.078	0.0151910
639.156	0.0152775
639.234	0.0153316
639.312	0.0153069
639.390	0.0152011
639.468	0.0152361
639.546	0.0152126
639.624	0.0152052
639.703	0.0152615
639.781	0.0151807
639.859	0.0151675
639.937	0.0154085
640.015	0.0154618
640.093	0.0154980
640.171	0.0154095
640.249	0.0154240
640.328	0.0154205
640.406	0.0154691
640.484	0.0153301
640.562	0.0154493
640.640	0.0154988
640.718	0.0154813
640.796	0.0154571
640.874	0.0154137
640.953	0.0154700
641.031	0.0152666
641.109	0.0152791
641.187	0.0152738
641.265	0.0152278
641.343	0.0151894
641.421	0.0152754
641.499	0.0152226
641.578	0.0150525
641.656	0.0149945
641.734	0.0151425
641.812	0.0150677
641.890	0.0150546
641.968	0.0149925
642.046	0.0149742
642.124	0.0150484
642.203	0.0152216
642.281	0.0151405
642.359	0.0151736
642.437	0.0152223
642.515	0.0152901
642.593	0.0153676
642.671	0.0153798
642.749	0.0155233
642.828	0.0157300
642.906	0.0157137
642.984	0.0158167
643.062	0.0159676
643.140	0.0159527
643.218	0.0160308
643.296	0.0160658
643.374	0.0159427
643.453	0.0160825
643.531	0.0160507
643.609	0.0159757
643.687	0.0158109
643.765	0.0159723
643.843	0.0156973
643.921	0.0156155
643.999	0.0154630
644.078	0.0153431
644.156	0.0152211
644.234	0.0152213
644.312	0.0151562
644.390	0.0151287
644.468	0.0151640
644.546	0.0150558
644.624	0.0150332
644.703	0.0149967
644.781	0.0148886
644.859	0.0152091
644.937	0.0152303
645.015	0.0152488
645.093	0.0153103
645.171	0.0152255
645.249	0.0153378
645.328	0.0154054
645.406	0.0155117
645.484	0.0155504
645.562	0.0153983
645.640	0.0154518
645.718	0.0155373
645.796	0.0154700
645.874	0.0155107
645.953	0.0156297
646.031	0.0154360
646.109	0.0155986
646.187	0.0154619
646.265	0.0154427
646.343	0.0154428
646.421	0.0154503
646.499	0.0155336
646.578	0.0154421
646.656	0.0155338
646.734	0.0153671
646.812	0.0153893
646.890	0.0153531
646.968	0.0152161
647.046	0.0153429
647.124	0.0152592
647.203	0.0153626
647.281	0.0153201
647.359	0.0153629
647.437	0.0153928
647.515	0.0152973
647.593	0.0151771
647.671	0.0153134
647.749	0.0153758
647.828	0.0151844
647.906	0.0153292
647.984	0.0152479
648.062	0.0153453
648.140	0.0153803
648.218	0.0154900
648.296	0.0155099
648.374	0.0155316
648.453	0.0156143
648.531	0.0155231
648.609	0.0156071
648.687	0.0158635
648.765	0.0157251
648.843	0.0157649
648.921	0.0157977
648.999	0.0156274
649.078	0.0156563
649.156	0.0157746
649.234	0.0157245
649.312	0.0156865
649.390	0.0157232
649.468	0.0157286
649.546	0.0156894
649.624	0.0155569
649.703	0.0154868
649.781	0.0154540
649.859	0.0156205
649.937	0.0156489
650.015	0.0156866
650.093	0.0157099
650.171	0.0156245
650.249	0.0155294
650.328	0.0154765
650.406	0.0155320
650.484	0.0154623
650.562	0.0156064
650.640	0.0154206
650.718	0.0153258
650.796	0.0151543
650.874	0.0152345
650.953	0.0152457
651.031	0.0151757
651.109	0.0151015
651.187	0.0150037
651.265	0.0149906
651.343	0.0150070
651.421	0.0149860
651.499	0.0148332
651.578	0.0148631
651.656	0.0149637
651.734	0.0150700
651.812	0.0151737
651.890	0.0150693
651.968	0.0152323
652.046	0.0154826
652.124	0.0153982
652.203	0.0155367
652.281	0.0155592
652.359	0.0156228
652.437	0.0156553
652.515	0.0155354
652.593	0.0157568
652.671	0.0157367
652.749	0.0155891
652.828	0.0155682
652.906	0.0157353
652.984	0.0156270
653.062	0.0156863
653.140	0.0155988
653.218	0.0156598
653.296	0.0155733
653.374	0.0156802
653.453	0.0156360
653.531	0.0154952
653.609	0.0155449
653.687	0.0157294
653.765	0.0155932
653.843	0.0156632
653.921	0.0156242
653.999	0.0156698
654.078	0.0156695
654.156	0.0156005
654.234	0.0155674
654.312	0.0155291
654.390	0.0155213
654.468	0.0156440
654.546	0.0154888
654.624	0.0154681
654.703	0.0155077
654.781	0.0155807
654.859	0.0154316
654.937	0.0153439
655.015	0.0153363
655.093	0.0153814
655.171	0.0154543
655.249	0.0154134
655.328	0.0153371
655.406	0.0151972
655.484	0.0154475
655.562	0.0152593
655.640	0.0152881
655.718	0.0152769
655.796	0.0153289
655.874	0.0153666
655.953	0.0152167
656.031	0.0151793
656.109	0.0153523
656.187	0.0151579
656.265	0.0151556
656.343	0.0151327
656.421	0.0148241
656.499	0.0150794
656.578	0.0150095
656.656	0.0148820
656.734	0.0148971
656.812	0.0149771
656.890	0.0148073
656.968	0.0149428
657.046	0.0148639
657.124	0.0150737
657.203	0.0151854
657.281	0.0151778
657.359	0.0151756
657.437	0.0153004
657.515	0.0154153
657.593	0.0156015
657.671	0.0155138
657.749	0.0155375
657.828	0.0155870
657.906	0.0158218
657.984	0.0156640
658.062	0.0156700
658.140	0.0156930
658.218	0.0156849
658.296	0.0155587
658.374	0.0156251
658.453	0.0155209
658.531	0.0153968
658.609	0.0154860
658.687	0.0155869
658.765	0.0154433
658.843	0.0153352
658.921	0.0153860
658.999	0.0152868
659.078	0.0153200
659.156	0.0153612
659.234	0.0153736
659.312	0.0154412
659.390	0.0153043
659.468	0.0155231
659.546	0.0154276
659.624	0.0155346
659.703	0.0155434
659.781	0.0156339
659.859	0.0155099
659.937	0.0154877
660.015	0.0154173
660.093	0.0155095
660.171	0.0153974
660.249	0.0154945
660.328	0.0152219
660.406	0.0153212
660.484	0.0154412
660.562	0.0153519
660.640	0.0153411
660.718	0.0152489
660.796	0.0153269
660.874	0.0152127
660.953	0.0151852
661.031	0.0152601
661.109	0.0152335
661.187	0.0151699
661.265	0.0150258
661.343	0.0150772
661.421	0.0152264
661.499	0.0151759
661.578	0.0150729
661.656	0.0150021
661.734	0.0150961
661.812	0.0151860
661.890	0.0150659
661.968	0.0150336
662.046	0.0151200
662.124	0.0152699
662.203	0.0152695
662.281	0.0151783
662.359	0.0151707
662.437	0.0154259
662.515	0.0154173
662.593	0.0153400
662.671	0.0154812
662.749	0.0155102
662.828	0.0155150
662.906	0.0154414
662.984	0.0158194
663.062	0.0157543
663.140	0.0157178
663.218	0.0157648
663.296	0.0159222
663.374	0.0158739
663.453	0.0159598
663.531	0.0160275
663.609	0.0157295
663.687	0.0158390
663.765	0.0156293
663.843	0.0157486
663.921	0.0156192
663.999	0.0154231
664.078	0.0156152
664.156	0.0155646
664.234	0.0154375
664.312	0.0154447
664.390	0.0153167
664.468	0.0152940
664.546	0.0153437
664.624	0.0154027
664.703	0.0154723
664.781	0.0153680
664.859	0.0155144
664.937	0.0155373
665.015	0.0155760
665.093	0.0155594
665.171	0.0155252
665.249	0.0155582
665.328	0.0155153
665.406	0.0154179
665.484	0.0155356
665.562	0.0154360
665.640	0.0153172
665.718	0.0153903
665.796	0.0151307
665.874	0.0153206
665.953	0.0151730
666.031	0.0151519
666.109	0.0150912
666.187	0.0149890
666.265	0.0151087
666.343	0.0153002
666.421	0.0151011
666.499	0.0151221
666.578	0.0148904
666.656	0.0149613
666.734	0.0151202
666.812	0.0149984
666.890	0.0149394
666.968	0.0150175
667.046	0.0148829
667.124	0.0149030
667.203	0.0149467
667.281	0.0148575
667.359	0.0149496
667.437	0.0149603
667.515	0.0149183
667.593	0.0149242
667.671	0.0150773
667.749	0.0151924
667.828	0.0152094
667.906	0.0153632
667.984	0.0154165
668.062	0.0155165
668.140	0.0155890
668.218	0.0156033
668.296	0.0156980
668.374	0.0156928
668.453	0.0157537
668.531	0.0159393
668.609	0.0158193
668.687	0.0157471
668.765	0.0157561
668.843	0.0158157
668.921	0.0157545
668.999	0.0156833
669.078	0.0155678
669.156	0.0154979
669.234	0.0155530
669.312	0.0154217
669.390	0.0155827
669.468	0.0154279
669.546	0.0153333
669.624	0.0154018
669.703	0.0153469
669.781	0.0153593
669.859	0.0154535
669.937	0.0155025
670.015	0.0155283
670.093	0.0154508
670.171	0.0154388
670.249	0.0155518
670.328	0.0156599
670.406	0.0155637
670.484	0.0156575
670.562	0.0157974
670.640	0.0155572
670.718	0.0157012
670.796	0.0158475
670.874	0.0156429
670.953	0.0155783
671.031	0.0154951
671.109	0.0157479
671.187	0.0155317
671.265	0.0155514
671.343	0.0155806
671.421	0.0153152
671.499	0.0153455
671.578	0.0153159
671.656	0.0153688
671.734	0.0153403
671.812	0.0152639
671.890	0.0153643
671.968	0.0154263
672.046	0.0152984
672.124	0.0155116
672.203	0.0155272
672.281	0.0153868
672.359	0.0153731
672.437	0.0154028
672.515	0.0155022
672.593	0.0153947
672.671	0.0153744
672.749	0.0154346
672.828	0.0153611
672.906	0.0153529
672.984	0.0153384
673.062	0.0154539
673.140	0.0153453
673.218	0.0155245
673.296	0.0156367
673.374	0.0156046
673.453	0.0157787
673.531	0.0155669
673.609	0.0156392
673.687	0.0156543
673.765	0.0157189
673.843	0.0155536
673.921	0.0157429
673.999	0.0157755
674.078	0.0157312
674.156	0.0158263
674.234	0.0156613
674.312	0.0155309
674.390	0.0155072
674.468	0.0153413
674.546	0.0152595
674.624	0.0153782
674.703	0.0154243
674.781	0.0154372
674.859	0.0152352
674.937	0.0153611
675.015	0.0152998
675.093	0.0152563
675.171	0.0153178
675.249	0.0152988
675.328	0.0153411
675.406	0.0153657
675.484	0.0155376
675.562	0.0155106
675.640	0.0153830
675.718	0.0155768
675.796	0.0156380
675.874	0.0155160
675.953	0.0154687
676.031	0.0154715
676.109	0.0156326
676.187	0.0154208
676.265	0.0154391
676.343	0.0155297
676.421	0.0154279
676.499	0.0152899
676.578	0.0153699
676.656	0.0152220
676.734	0.0151640
676.812	0.0150777
676.890	0.0150790
676.968	0.0152269
677.046	0.0152126
677.124	0.0150500
677.203	0.0151057
677.281	0.0152454
677.359	0.0152559
677.437	0.0152483
677.515	0.0154129
677.593	0.0152643
677.671	0.0152882
677.749	0.0154025
677.828	0.0154763
677.906	0.0153799
677.984	0.0153754
678.062	0.0154256
678.140	0.0154824
678.218	0.0154102
678.296	0.0154316
678.374	0.0154560
678.453	0.0154321
678.531	0.0154036
678.609	0.0152583
678.687	0.0154033
678.765	0.0153433
678.843	0.0153393
678.921	0.0153854
678.999	0.0153590
679.078	0.0155440
679.156	0.0153933
679.234	0.0153610
679.312	0.0154752
679.390	0.0154548
679.468	0.0155155
679.546	0.0155627
679.624	0.0156100
679.703	0.0153899
679.781	0.0154260
679.859	0.0155267
679.937	0.0156029
680.015	0.0154782
680.093	0.0154860
680.171	0.0156444
680.249	0.0155626
680.328	0.0155422
680.406	0.0154645
680.484	0.0155572
680.562	0.0155429
680.640	0.0155654
680.718	0.0155222
680.796	0.0155559
680.874	0.0156035
680.953	0.0154694
681.031	0.0155949
681.109	0.0155523
681.187	0.0155516
681.265	0.0154504
681.343	0.0155167
681.421	0.0155954
681.499	0.0154585
681.578	0.0153559
681.656	0.0154652
681.734	0.0154362
681.812	0.0153899
681.890	0.0154031
681.968	0.0154037
682.046	0.0153143
682.124	0.0154063
682.203	0.0153890
682.281	0.0153011
682.359	0.0153255
682.437	0.0154612
682.515	0.0154694
682.593	0.0155119
682.671	0.0156997
682.749	0.0157294
682.828	0.0157111
682.906	0.0158118
682.984	0.0158906
683.062	0.0156725
683.140	0.0156105
683.218	0.0157410
683.296	0.0157457
683.374	0.0157841
683.453	0.0158176
683.531	0.0156271
683.609	0.0157501
683.687	0.0155260
683.765	0.0154763
683.843	0.0156708
683.921	0.0155613
683.999	0.0154862
684.078	0.0153529
684.156	0.0153262
684.234	0.0153252
684.312	0.0152134
684.390	0.0154214
684.468	0.0154411
684.546	0.0153325
684.624	0.0154587
684.703	0.0155412
684.781	0.0154644
684.859	0.0155863
684.937	0.0155786
685.015	0.0154965
685.093	0.0156781
685.171	0.0156294
685.249	0.0155654
685.328	0.0156021
685.406	0.0154507
685.484	0.0155299
685.562	0.0157056
685.640	0.0155737
685.718	0.0154737
685.796	0.0153411
685.874	0.0152534
685.953	0.0153527
686.031	0.0152699
686.109	0.0153082
686.187	0.0153464
686.265	0.0152942
686.343	0.0153087
686.421	0.0152631
686.499	0.0153390
686.578	0.0153703
686.656	0.0152836
686.734	0.0152559
686.812	0.0153146
686.890	0.0152307
686.968	0.0152256
687.046	0.0153642
687.124	0.0152833
687.203	0.0153587
687.281	0.0153944
687.359	0.0153653
687.437	0.0153040
687.515	0.0152090
687.593	0.0153690
687.671	0.0154444
687.749	0.0155126
687.828	0.0154746
687.906	0.0155552
687.984	0.0156490
688.062	0.0157891
688.140	0.0158659
688.218	0.0159304
688.296	0.0159412
688.374	0.0159303
688.453	0.0159530
688.531	0.0157107
688.609	0.0157304
688.687	0.0157934
688.765	0.0157753
688.843	0.0156880
688.921	0.0156170
688.999	0.0155948
689.078	0.0154118
689.156	0.0154202
689.234	0.0152969
689.312	0.0151668
689.390	0.0151763
689.468	0.0152403
689.546	0.0152632
689.624	0.0152883
689.703	0.0153245
689.781	0.0152350
689.859	0.0152604
689.937	0.0153616
690.015	0.0153645
690.093	0.0153909
690.171	0.0155332
690.249	0.0155700
690.328	0.0155640
690.406	0.0157647
690.484	0.0158585
690.562	0.0157584
690.640	0.0156846
690.718	0.0157013
690.796	0.0158421
690.874	0.0159055
690.953	0.0157569
691.031	0.0158328
691.109	0.0156151
691.187	0.0156337
691.265	0.0156905
691.343	0.0155547
691.421	0.0154696
691.499	0.0156239
691.578	0.0154249
691.656	0.0154026
691.734	0.0153651
691.812	0.0153790
691.890	0.0153137
691.968	0.0151933
692.046	0.0154257
692.124	0.0153119
692.203	0.0152709
692.281	0.0152722
692.359	0.0151883
692.437	0.0153568
692.515	0.0154750
692.593	0.0153252
692.671	0.0154136
692.749	0.0153718
692.828	0.0152846
692.906	0.0154018
692.984	0.0153693
693.062	0.0153550
693.140	0.0154178
693.218	0.0154368
693.296	0.0154769
693.374	0.0155340
693.453	0.0156277
693.531	0.0157519
693.609	0.0156536
693.687	0.0156908
693.765	0.0156171
693.843	0.0155766
693.921	0.0158171
693.999	0.0158733
694.078	0.0157918
694.156	0.0157473
694.234	0.0156725
694.312	0.0155608
694.390	0.0155318
694.468	0.0155564
694.546	0.0154267
694.624	0.0154420
694.703	0.0155073
694.781	0.0153046
694.859	0.0152988
694.937	0.0152882
695.015	0.0150900
695.093	0.0152068
695.171	0.0152043
695.249	0.0152769
695.328	0.0153986
695.406	0.0154873
695.484	0.0155852
695.562	0.0156192
695.640	0.0156207
695.718	0.0157839
695.796	0.0156626
695.874	0.0158284
695.953	0.0158234
696.031	0.0157255
696.109	0.0159515
696.187	0.0157900
696.265	0.0157440
696.343	0.0157014
696.421	0.0156581
696.499	0.0157199
696.578	0.0157318
696.656	0.0156264
696.734	0.0155423
696.812	0.0154939
696.890	0.0155190
696.968	0.0154728
697.046	0.0153927
697.124	0.0153291
697.203	0.0153996
697.281	0.0156311
697.359	0.0156827
697.437	0.0156440
697.515	0.0157340
697.593	0.0155772
697.671	0.0156208
697.749	0.0156339
697.828	0.0157455
697.906	0.0156919
697.984	0.0156438
698.062	0.0156301
698.140	0.0157433
698.218	0.0156437
698.296	0.0157668
698.374	0.0156691
698.453	0.0156616
698.531	0.0156709
698.609	0.0157016
698.687	0.0157838
698.765	0.0156298
698.843	0.0154775
698.921	0.0156346
698.999	0.0156629
699.078	0.0156656
699.156	0.0155656
699.234	0.0156533
699.312	0.0157683
699.390	0.0157536
699.468	0.0156660
699.546	0.0156721
699.624	0.0157899
699.703	0.0156532
699.781	0.0156197
699.859	0.0157459
699.937	0.0156676
700.015	0.0156591
700.093	0.0156136
700.171	0.0155807
700.249	0.0156001
700.328	0.0156254
700.406	0.0154058
700.484	0.0154352
700.562	0.0153925
700.640	0.0153849
700.718	0.0153077
700.796	0.0154369
700.874	0.0153989
700.953	0.0153664
701.031	0.0152863
701.109	0.0153698
701.187	0.0154249
701.265	0.0152628
701.343	0.0153054
701.421	0.0152350
701.499	0.0152818
701.578	0.0155035
701.656	0.0153207
701.734	0.0154684
701.812	0.0153589
701.890	0.0152087
701.968	0.0154306
702.046	0.0154700
702.124	0.0153093
702.203	0.0152393
702.281	0.0153365
702.359	0.0153680
702.437	0.0154194
702.515	0.0152717
702.593	0.0152550
702.671	0.0154256
702.749	0.0154271
702.828	0.0155840
702.906	0.0156377
702.984	0.0154354
703.062	0.0156673
703.140	0.0155952
703.218	0.0156344
703.296	0.0155137
703.374	0.0157447
703.453	0.0156501
703.531	0.0156806
703.609	0.0155801
703.687	0.0156363
703.765	0.0156069
703.843	0.0154105
703.921	0.0153560
703.999	0.0153954
704.078	0.0153931
704.156	0.0154839
704.234	0.0153268
704.312	0.0154581
704.390	0.0154434
704.468	0.0153683
704.546	0.0153905
704.624	0.0153736
704.703	0.0153350
704.781	0.0154881
704.859	0.0154907
704.937	0.0154605
705.015	0.0155341
705.093	0.0155341
705.171	0.0155331
705.249	0.0155016
705.328	0.0155004
705.406	0.0154108
705.484	0.0153642
705.562	0.0154573
705.640	0.0154231
705.718	0.0154565
705.796	0.0154809
705.874	0.0154543
705.953	0.0154702
706.031	0.0154916
706.109	0.0154266
706.187	0.0153470
706.265	0.0154519
706.343	0.0154826
706.421	0.0154695
706.499	0.0154469
706.578	0.0154928
706.656	0.0153236
706.734	0.0152442
706.812	0.0155032
706.890	0.0154396
706.968	0.0154524
707.046	0.0152966
707.124	0.0154180
707.203	0.0155389
707.281	0.0153503
707.359	0.0153519
707.437	0.0153427
707.515	0.0154315
707.593	0.0151804
707.671	0.0153152
707.749	0.0153011
707.828	0.0154430
707.906	0.0153296
707.984	0.0154510
708.062	0.0153998
708.140	0.0153938
708.218	0.0154741
708.296	0.0156028
708.374	0.0154905
708.453	0.0155268
708.531	0.0155553
708.609	0.0155464
708.687	0.0154774
708.765	0.0155643
708.843	0.0155996
708.921	0.0154816
708.999	0.0154823
709.078	0.0154205
709.156	0.0154938
709.234	0.0153632
709.312	0.0152299
709.390	0.0151987
709.468	0.0154897
709.546	0.0153173
709.624	0.0153967
709.703	0.0154264
709.781	0.0154057
709.859	0.0153448
709.937	0.0153368
710.015	0.0154951
710.093	0.0155421
710.171	0.0154431
710.249	0.0155389
710.328	0.0155219
710.406	0.0154848
710.484	0.0155340
710.562	0.0155730
710.640	0.0156376
710.718	0.0155296
710.796	0.0156090
710.874	0.0154386
710.953	0.0154974
711.031	0.0156094
711.109	0.0156384
711.187	0.0154578
711.265	0.0154543
711.343	0.0155363
711.421	0.0154792
711.499	0.0153588
711.578	0.0154079
711.656	0.0153359
711.734	0.0154807
711.812	0.0153326
711.890	0.0153854
711.968	0.0153565
712.046	0.0154856
712.124	0.0153431
712.203	0.0153704
712.281	0.0153402
712.359	0.0154392
712.437	0.0153941
712.515	0.0154592
712.593	0.0154520
712.671	0.0154085
712.749	0.0153584
712.828	0.0154049
712.906	0.0155209
712.984	0.0154393
713.062	0.0155653
713.140	0.0155351
713.218	0.0156175
713.296	0.0155183
713.374	0.0155499
713.453	0.0155962
713.531	0.0155695
713.609	0.0155681
713.687	0.0155329
713.765	0.0155696
713.843	0.0154858
713.921	0.0155817
713.999	0.0155375
714.078	0.0156768
714.156	0.0155227
714.234	0.0155762
714.312	0.0154671
714.390	0.0155268
714.468	0.0154683
714.546	0.0154355
714.624	0.0154112
714.703	0.0154073
714.781	0.0153844
714.859	0.0153928
714.937	0.0154325
715.015	0.0155069
715.093	0.0155040
715.171	0.0153558
715.249	0.0154642
715.328	0.0155730
715.406	0.0155353
715.484	0.0155962
715.562	0.0155714
715.640	0.0156320
715.718	0.0155733
715.796	0.0157328
715.874	0.0156994
715.953	0.0155891
716.031	0.0156154
716.109	0.0157439
716.187	0.0157238
716.265	0.0156912
716.343	0.0155997
716.421	0.0155502
716.499	0.0155971
716.578	0.0155155
716.656	0.0155674
716.734	0.0155798
716.812	0.0155984
716.890	0.0154493
716.968	0.0153707
717.046	0.0153174
717.124	0.0155453
717.203	0.0154626
717.281	0.0154848
717.359	0.0153576
717.437	0.0155879
717.515	0.0155301
717.593	0.0155699
717.671	0.0156223
717.749	0.0155318
717.828	0.0156198
717.906	0.0155779
717.984	0.0154031
718.062	0.0155074
718.140	0.0155949
718.218	0.0153379
718.296	0.0153285
718.374	0.0153851
718.453	0.0154938
718.531	0.0154722
718.609	0.0154025
718.687	0.0154230
718.765	0.0154350
718.843	0.0154984
718.921	0.0154520
718.999	0.0154232
719.078	0.0154907
719.156	0.0155302
719.234	0.0154837
719.312	0.0154384
719.390	0.0155074
719.468	0.0156789
719.546	0.0154139
719.624	0.0156767
719.703	0.0156670
719.781	0.0153587
719.859	0.0153263
719.937	0.0155626
720.015	0.0155450
720.093	0.0155581
720.171	0.0153751
720.249	0.0153058
720.328	0.0154826
720.406	0.0154256
720.484	0.0153503
720.562	0.0154711
720.640	0.0153535
720.718	0.0156227
720.796	0.0154767
720.874	0.0154516
720.953	0.0155481
721.031	0.0154370
721.109	0.0155755
721.187	0.0155355
721.265	0.0154323
721.343	0.0153640
721.421	0.0153739
721.499	0.0154055
721.578	0.0153249
721.656	0.0153420
721.734	0.0152911
721.812	0.0152598
721.890	0.0151690
721.968	0.0152808
722.046	0.0153012
722.124	0.0152107
722.203	0.0151184
722.281	0.0152851
722.359	0.0151178
722.437	0.0152781
722.515	0.0152726
722.593	0.0153590
722.671	0.0153377
722.749	0.0154196
722.828	0.0154246
722.906	0.0154209
722.984	0.0156884
723.062	0.0154389
723.140	0.0154829
723.218	0.0154703
723.296	0.0154212
723.374	0.0154560
723.453	0.0155055
723.531	0.0155637
723.609	0.0155070
723.687	0.0155251
723.765	0.0153647
723.843	0.0155157
723.921	0.0156091
723.999	0.0153139
724.078	0.0154144
724.156	0.0154308
724.234	0.0154732
724.312	0.0154593
724.390	0.0153331
724.468	0.0153660
724.546	0.0155928
724.624	0.0154199
724.703	0.0154671
724.781	0.0153782
724.859	0.0154334
724.937	0.0155173
725.015	0.0156226
725.093	0.0154381
725.171	0.0154400
725.249	0.0153239
725.328	0.0155639
725.406	0.0154640
725.484	0.0153668
725.562	0.0153551
725.640	0.0153099
725.718	0.0154292
725.796	0.0153697
725.874	0.0152570
725.953	0.0154671
726.031	0.0155424
726.109	0.0154890
726.187	0.0155681
726.265	0.0156248
726.343	0.0156979
726.421	0.0156332
726.499	0.0154482
726.578	0.0155994
726.656	0.0157017
726.734	0.0156033
726.812	0.0155274
726.890	0.0155801
726.968	0.0155430
727.046	0.0155508
727.124	0.0155119
727.203	0.0154432
727.281	0.0153804
727.359	0.0152984
727.437	0.0153256
727.515	0.0152991
727.593	0.0153310
727.671	0.0153470
727.749	0.0153158
727.828	0.0152838
727.906	0.0152310
727.984	0.0153163
728.062	0.0152986
728.140	0.0154874
728.218	0.0155155
728.296	0.0154219
728.374	0.0153913
728.453	0.0155147
728.531	0.0154057
728.609	0.0154729
728.687	0.0152976
728.765	0.0151785
728.843	0.0154131
728.921	0.0152882
728.999	0.0152940
729.078	0.0152587
729.156	0.0153067
729.234	0.0151363
729.312	0.0152684
729.390	0.0152261
729.468	0.0152393
729.546	0.0152783
729.624	0.0151960
729.703	0.0151366
729.781	0.0151962
729.859	0.0151933
729.937	0.0152801
730.015	0.0153690
730.093	0.0153163
730.171	0.0153097
730.249	0.0153767
730.328	0.0155154
730.406	0.0154877
730.484	0.0155484
730.562	0.0154472
730.640	0.0154424
730.718	0.0153640
730.796	0.0154688
730.874	0.0155382
730.953	0.0154714
731.031	0.0154181
731.109	0.0153071
731.187	0.0155307
731.265	0.0154182
731.343	0.0153719
731.421	0.0153381
731.499	0.0154303
731.578	0.0153243
731.656	0.0154086
731.734	0.0154191
731.812	0.0152775
731.890	0.0152973
731.968	0.0152491
732.046	0.0152968
732.124	0.0153868
732.203	0.0155093
732.281	0.0154071
732.359	0.0153288
732.437	0.0153888
732.515	0.0152837
732.593	0.0152610
732.671	0.0154605
732.749	0.0152511
732.828	0.0153522
732.906	0.0154562
732.984	0.0154460
733.062	0.0153395
733.140	0.0153782
733.218	0.0153074
733.296	0.0153537
733.374	0.0154124
733.453	0.0155357
733.531	0.0153948
733.609	0.0154743
733.687	0.0155407
733.765	0.0154672
733.843	0.0155511
733.921	0.0156367
733.999	0.0156016
734.078	0.0153767
734.156	0.0157249
734.234	0.0156169
734.312	0.0155465
734.390	0.0155989
734.468	0.0155225
734.546	0.0155827
734.624	0.0155081
734.703	0.0155181
734.781	0.0154722
734.859	0.0155000
734.937	0.0156467
735.015	0.0156654
735.093	0.0157450
735.171	0.0155745
735.249	0.0156564
735.328	0.0156216
735.406	0.0157752
735.484	0.0156981
735.562	0.0157775
735.640	0.0156437
735.718	0.0156740
735.796	0.0157830
735.874	0.0156758
735.953	0.0156804
736.031	0.0157626
736.109	0.0155796
736.187	0.0155865
736.265	0.0155727
736.343	0.0154870
736.421	0.0156902
736.499	0.0155116
736.578	0.0154207
736.656	0.0154592
736.734	0.0153149
736.812	0.0153831
736.890	0.0154292
736.968	0.0153593
737.046	0.0152673
737.124	0.0153952
737.203	0.0155165
737.281	0.0153166
737.359	0.0153099
737.437	0.0153909
737.515	0.0154021
737.593	0.0154675
737.671	0.0153114
737.749	0.0153036
737.828	0.0155492
737.906	0.0154310
737.984	0.0152860
738.062	0.0152598
738.140	0.0152891
738.218	0.0154848
738.296	0.0153874
738.374	0.0153014
738.453	0.0153987
738.531	0.0154118
738.609	0.0154175
738.687	0.0153877
738.765	0.0153996
738.843	0.0153542
738.921	0.0154379
738.999	0.0154386
739.078	0.0153285
739.156	0.0153277
739.234	0.0155093
739.312	0.0154218
739.390	0.0152444
739.468	0.0154676
739.546	0.0155264
739.624	0.0155452
739.703	0.0153881
739.781	0.0154984
739.859	0.0153725
739.937	0.0156005
740.015	0.0154909
740.093	0.0154086
740.171	0.0154437
740.249	0.0156048
740.328	0.0154113
740.406	0.0154685
740.484	0.0155333
740.562	0.0154790
740.640	0.0155402
740.718	0.0154482
740.796	0.0153978
740.874	0.0154538
740.953	0.0155315
741.031	0.0153768
741.109	0.0155124
741.187	0.0156008
741.265	0.0154866
741.343	0.0153631
741.421	0.0153664
741.499	0.0153761
741.578	0.0155213
741.656	0.0154137
741.734	0.0153207
741.812	0.0153336
741.890	0.0153533
741.968	0.0153924
742.046	0.0152284
742.124	0.0152710
742.203	0.0153369
742.281	0.0152473
742.359	0.0153481
742.437	0.0153386
742.515	0.0153070
742.593	0.0153236
742.671	0.0154698
742.749	0.0153834
742.828	0.0153542
742.906	0.0153511
742.984	0.0153621
743.062	0.0153760
743.140	0.0153182
743.218	0.0154227
743.296	0.0153974
743.374	0.0153729
743.453	0.0154687
743.531	0.0152818
743.609	0.0153613
743.687	0.0153659
743.765	0.0153797
743.843	0.0154573
743.921	0.0153319
743.999	0.0152733
744.078	0.0152626
744.156	0.0153397
744.234	0.0153609
744.312	0.0151823
744.390	0.0153358
744.468	0.0153930
744.546	0.0153841
744.624	0.0152144
744.703	0.0153013
744.781	0.0151853
744.859	0.0153693
744.937	0.0153782
745.015	0.0154085
745.093	0.0152959
745.171	0.0152496
745.249	0.0152572
745.328	0.0153992
745.406	0.0153082
745.484	0.0152189
745.562	0.0154774
745.640	0.0153960
745.718	0.0153317
745.796	0.0154086
745.874	0.0153961
745.953	0.0154900
746.031	0.0153763
746.109	0.0155473
746.187	0.0154961
746.265	0.0152786
746.343	0.0155344
746.421	0.0154610
746.499	0.0155386
746.578	0.0155450
746.656	0.0154488
746.734	0.0154889
746.812	0.0154145
746.890	0.0152798
746.968	0.0153122
747.046	0.0154325
747.124	0.0155242
747.203	0.0154928
747.281	0.0153857
747.359	0.0152392
747.437	0.0154875
747.515	0.0154030
747.593	0.0153185
747.671	0.0153960
747.749	0.0154116
747.828	0.0153745
747.906	0.0154225
747.984	0.0153792
748.062	0.0153942
748.140	0.0152814
748.218	0.0153233
748.296	0.0150589
748.374	0.0152604
748.453	0.0152898
748.531	0.0152531
748.609	0.0152802
748.687	0.0152776
748.765	0.0153584
748.843	0.0153473
748.921	0.0152486
748.999	0.0151904
749.078	0.0152269
749.156	0.0152556
749.234	0.0153253
749.312	0.0151814
749.390	0.0152299
749.468	0.0151005
749.546	0.0151956
749.624	0.0152760
749.703	0.0153520
749.781	0.0153471
749.859	0.0154112
749.937	0.0153748
750.015	0.0154622
750.093	0.0155005
750.171	0.0155946
750.249	0.0154308
750.328	0.0154446
750.406	0.0155507
750.484	0.0154517
750.562	0.0155455
750.640	0.0154632
750.718	0.0155418
750.796	0.0154867
750.874	0.0155518
750.953	0.0154072
751.031	0.0153996
751.109	0.0153499
751.187	0.0154927
751.265	0.0155423
751.343	0.0153500
751.421	0.0154534
751.499	0.0153766
751.578	0.0153723
751.656	0.0154488
751.734	0.0153789
751.812	0.0154764
751.890	0.0154318
751.968	0.0153475
752.046	0.0154123
752.124	0.0153884
752.203	0.0153117
752.281	0.0154156
752.359	0.0154205
752.437	0.0153451
752.515	0.0154298
752.593	0.0154620
752.671	0.0153200
752.749	0.0154906
752.828	0.0154054
752.906	0.0153810
752.984	0.0153469
753.062	0.0153181
753.140	0.0155247
753.218	0.0153516
753.296	0.0154270
753.374	0.0152769
753.453	0.0153190
753.531	0.0154371
753.609	0.0154642
753.687	0.0154360
753.765	0.0153581
753.843	0.0154659
753.921	0.0153915
753.999	0.0154218
754.078	0.0154963
754.156	0.0154533
754.234	0.0152271
754.312	0.0153716
754.390	0.0153354
754.468	0.0154961
754.546	0.0154552
754.624	0.0154832
754.703	0.0154916
754.781	0.0153568
754.859	0.0154773
754.937	0.0156251
755.015	0.0156150
755.093	0.0155868
755.171	0.0156099
755.249	0.0155888
755.328	0.0155452
755.406	0.0155351
755.484	0.0156120
755.562	0.0156395
755.640	0.0157456
755.718	0.0156126
755.796	0.0156850
755.874	0.0158594
755.953	0.0157401
756.031	0.0156026
756.109	0.0156023
756.187	0.0157793
756.265	0.0156375
756.343	0.0156926
756.421	0.0157882
756.499	0.0156432
756.578	0.0157808
756.656	0.0156384
756.734	0.0156524
756.812	0.0157219
756.890	0.0155964
756.968	0.0155401
757.046	0.0156736
757.124	0.0155850
757.203	0.0157179
757.281	0.0156456
757.359	0.0157200
757.437	0.0157253
757.515	0.0155222
757.593	0.0156450
757.671	0.0156499
757.749	0.0156360
757.828	0.0156865
757.906	0.0155041
757.984	0.0155815
758.062	0.0155765
758.140	0.0154967
758.218	0.0155656
758.296	0.0156663
758.374	0.0154816
758.453	0.0156218
758.531	0.0155064
758.609	0.0155679
758.687	0.0156122
758.765	0.0155305
758.843	0.0154850
758.921	0.0157354
758.999	0.0155850
759.078	0.0155106
759.156	0.0155321
759.234	0.0155942
759.312	0.0154517
759.390	0.0155309
759.468	0.0155064
759.546	0.0155766
759.624	0.0155859
759.703	0.0155838
759.781	0.0154619
759.859	0.0154932
759.937	0.0154946
760.015	0.0155503
760.093	0.0155810
760.171	0.0156181
760.249	0.0157323
760.328	0.0156214
760.406	0.0155682
760.484	0.0156578
760.562	0.0156415
760.640	0.0153636
760.718	0.0156541
760.796	0.0156713
760.874	0.0154282
760.953	0.0155453
761.031	0.0157674
761.109	0.0157027
761.187	0.0155815
761.265	0.0155264
761.343	0.0155582
761.421	0.0155285
761.499	0.0154118
761.578	0.0155299
761.656	0.0156029
761.734	0.0155962
761.812	0.0154481
761.890	0.0154720
761.968	0.0156138
762.046	0.0154099
762.124	0.0154296
762.203	0.0154480
762.281	0.0154211
762.359	0.0153633
762.437	0.0153949
762.515	0.0154662
762.593	0.0154134
762.671	0.0154298
762.749	0.0154446
762.828	0.0154391
762.906	0.0153967
762.984	0.0151952
763.062	0.0154961
763.140	0.0153857
763.218	0.0154919
763.296	0.0152702
763.374	0.0155038
763.453	0.0153699
763.531	0.0154604
763.609	0.0154143
763.687	0.0154292
763.765	0.0154919
763.843	0.0153912
763.921	0.0152942
763.999	0.0152707
764.078	0.0153867
764.156	0.0153296
764.234	0.0154014
764.312	0.0153846
764.390	0.0154063
764.468	0.0154216
764.546	0.0152875
764.624	0.0153947
764.703	0.0153969
764.781	0.0153054
764.859	0.0154469
764.937	0.0154227
765.015	0.0154115
765.093	0.0154472
765.171	0.0154309
765.249	0.0153844
765.328	0.0153755
765.406	0.0153333
765.484	0.0154211
765.562	0.0153573
765.640	0.0153841
765.718	0.0154688
765.796	0.0152716
765.874	0.0152335
765.953	0.0152823
766.031	0.0152576
766.109	0.0153876
766.187	0.0152556
766.265	0.0153024
766.343	0.0153132
766.421	0.0153793
766.499	0.0153117
766.578	0.0151486
766.656	0.0151318
766.734	0.0153168
766.812	0.0153275
766.890	0.0152419
766.968	0.0152740
767.046	0.0152233
767.124	0.0153184
767.203	0.0154139
767.281	0.0154444
767.359	0.0153146
767.437	0.0152251
767.515	0.0152923
767.593	0.0152866
767.671	0.0153487
767.749	0.0153531
767.828	0.0153095
767.906	0.0153641
767.984	0.0154359
768.062	0.0154971
768.140	0.0154361
768.218	0.0154016
768.296	0.0153909
768.374	0.0153792
768.453	0.0153358
768.531	0.0153441
768.609	0.0153030
768.687	0.0152833
768.765	0.0153043
768.843	0.0153417
768.921	0.0152821
768.999	0.0153375
769.078	0.0153637
769.156	0.0152605
769.234	0.0151653
769.312	0.0150829
769.390	0.0152390
769.468	0.0152940
769.546	0.0151105
769.624	0.0151541
769.703	0.0151044
769.781	0.0152702
769.859	0.0153836
769.937	0.0151892
770.015	0.0153381
770.093	0.0153947
770.171	0.0153828
770.249	0.0153793
770.328	0.0153887
770.406	0.0153533
770.484	0.0155312
770.562	0.0154456
770.640	0.0154285
770.718	0.0153338
770.796	0.0153553
770.874	0.0153610
770.953	0.0153175
771.031	0.0154984
771.109	0.0153843
771.187	0.0153111
771.265	0.0153320
771.343	0.0152703
771.421	0.0153489
771.499	0.0153195
771.578	0.0154255
771.656	0.0153236
771.734	0.0152274
771.812	0.0152658
771.890	0.0151220
771.968	0.0153343
772.046	0.0152931
772.124	0.0154424
772.203	0.0154559
772.281	0.0152318
772.359	0.0153271
772.437	0.0153506
772.515	0.0153575
772.593	0.0153538
772.671	0.0154461
772.749	0.0154197
772.828	0.0152242
772.906	0.0152896
772.984	0.0154617
773.062	0.0153901
773.140	0.0153179
773.218	0.0152155
773.296	0.0152240
773.374	0.0152094
773.453	0.0153539
773.531	0.0152750
773.609	0.0151458
773.687	0.0153750
773.765	0.0153013
773.843	0.0151701
773.921	0.0152875
773.999	0.0152753
774.078	0.0153326
774.156	0.0151742
774.234	0.0152722
774.312	0.0153501
774.390	0.0152531
774.468	0.0153335
774.546	0.0153648
774.624	0.0153479
774.703	0.0152737
774.781	0.0152074
774.859	0.0153139
774.937	0.0153742
775.015	0.0153042
775.093	0.0154996
775.171	0.0153757
775.249	0.0154548
775.328	0.0153587
775.406	0.0154628
775.484	0.0155141
775.562	0.0154787
775.640	0.0154984
775.718	0.0154138
775.796	0.0155200
775.874	0.0155154
775.953	0.0155607
776.031	0.0155212
776.109	0.0154752
776.187	0.0155798
776.265	0.0154556
776.343	0.0154718
776.421	0.0156039
776.499	0.0155144
776.578	0.0155714
776.656	0.0155211
776.734	0.0155164
776.812	0.0155086
776.890	0.0155442
776.968	0.0155694
777.046	0.0155606
777.124	0.0155791
777.203	0.0156360
777.281	0.0155616
777.359	0.0155296
777.437	0.0155681
777.515	0.0155470
777.593	0.0156359
777.671	0.0156229
777.749	0.0155761
777.828	0.0155295
777.906	0.0155600
777.984	0.0155959
778.062	0.0156447
778.140	0.0155650
778.218	0.0154254
778.296	0.0155610
778.374	0.0155186
778.453	0.0156047
778.531	0.0155421
778.609	0.0154452
778.687	0.0155351
778.765	0.0156687
778.843	0.0155662
778.921	0.0155135
778.999	0.0156629
779.078	0.0155077
779.156	0.0155691
779.234	0.0156250
779.312	0.0155590
779.390	0.0155659
779.468	0.0156287
779.546	0.0155627
779.624	0.0155249
779.703	0.0157482
779.781	0.0155758
779.859	0.0157116
779.937	0.0155103
780.015	0.0156800
780.093	0.0156533
780.171	0.0156506
780.249	0.0156101
780.328	0.0157328
780.406	0.0156882
780.484	0.0155385
780.562	0.0155765
780.640	0.0157089
780.718	0.0156884
780.796	0.0157383
780.874	0.0157302
780.953	0.0156116
781.031	0.0157568
781.109	0.0156826
781.187	0.0156862
781.265	0.0157884
781.343	0.0156584
781.421	0.0157178
781.499	0.0157759
781.578	0.0155560
781.656	0.0157171
781.734	0.0154945
781.812	0.0155463
781.890	0.0155385
781.968	0.0155536
782.046	0.0155020
782.124	0.0154771
782.203	0.0155274
782.281	0.0155983
782.359	0.0155327
782.437	0.0155231
782.515	0.0154985
782.593	0.0153891
782.671	0.0154544
782.749	0.0154630
782.828	0.0154854
782.906	0.0155031
782.984	0.0155698
783.062	0.0154076
783.140	0.0154020
783.218	0.0153880
783.296	0.0154063
783.374	0.0153948
783.453	0.0154217
783.531	0.0153996
783.609	0.0152862
783.687	0.0153423
783.765	0.0153354
783.843	0.0154030
783.921	0.0153343
783.999	0.0153596
784.078	0.0154111
784.156	0.0154786
784.234	0.0153577
784.312	0.0153790
784.390	0.0155013
784.468	0.0155636
784.546	0.0154500
784.624	0.0153720
784.703	0.0154794
784.781	0.0153770
784.859	0.0153492
784.937	0.0154362
785.015	0.0155102
785.093	0.0154169
785.171	0.0153732
785.249	0.0153336
785.328	0.0154013
785.406	0.0154115
785.484	0.0153517
785.562	0.0154379
785.640	0.0155278
785.718	0.0154340
785.796	0.0154491
785.874	0.0153756
785.953	0.0154721
786.031	0.0155874
786.109	0.0154879
786.187	0.0156022
786.265	0.0157270
786.343	0.0154960
786.421	0.0156137
786.499	0.0157079
786.578	0.0155814
786.656	0.0155167
786.734	0.0155186
786.812	0.0154510
786.890	0.0155516
786.968	0.0155128
787.046	0.0154845
787.124	0.0154800
787.203	0.0156430
787.281	0.0154109
787.359	0.0154883
787.437	0.0152827
787.515	0.0155317
787.593	0.0152377
787.671	0.0153941
787.749	0.0153655
787.828	0.0154535
787.906	0.0154146
787.984	0.0152605
788.062	0.0151807
788.140	0.0153137
788.218	0.0152260
788.296	0.0153320
788.374	0.0153309
788.453	0.0152602
788.531	0.0153204
788.609	0.0153178
788.687	0.0155548
788.765	0.0152609
788.843	0.0152136
788.921	0.0152282
788.999	0.0153003
789.078	0.0153000
789.156	0.0154969
789.234	0.0154240
789.312	0.0152637
789.390	0.0154130
789.468	0.0154219
789.546	0.0154494
789.624	0.0154830
789.703	0.0153981
789.781	0.0153782
789.859	0.0155151
789.937	0.0153619
790.015	0.0154741
790.093	0.0154395
790.171	0.0153690
790.249	0.0155605
790.328	0.0155238
790.406	0.0155943
790.484	0.0154680
790.562	0.0154598
790.640	0.0155099
790.718	0.0155124
790.796	0.0154360
790.874	0.0153748
790.953	0.0153049
791.031	0.0152592
791.109	0.0154665
791.187	0.0154389
791.265	0.0153754
791.343	0.0153448
791.421	0.0153690
791.499	0.0151444
791.578	0.0153475
791.656	0.0153326
791.734	0.0153910
791.812	0.0156032
791.890	0.0153702
791.968	0.0153258
792.046	0.0154242
792.124	0.0153561
792.203	0.0153813
792.281	0.0153454
792.359	0.0154498
792.437	0.0154215
792.515	0.0154504
792.593	0.0155181
792.671	0.0155320
792.749	0.0155527
792.828	0.0154778
792.906	0.0155566
792.984	0.0157063
793.062	0.0156764
793.140	0.0155608
793.218	0.0154191
793.296	0.0155993
793.374	0.0154984
793.453	0.0154006
793.531	0.0154231
793.609	0.0154144
793.687	0.0151547
793.765	0.0151856
793.843	0.0152081
793.921	0.0152315
793.999	0.0150629
794.078	0.0150748
794.156	0.0152148
794.234	0.0151712
794.312	0.0151492
794.390	0.0153304
794.468	0.0152307
794.546	0.0153918
794.624	0.0151391
794.703	0.0153050
794.781	0.0155174
794.859	0.0153143
794.937	0.0154249
795.015	0.0153554
795.093	0.0154353
795.171	0.0153240
795.249	0.0155041
795.328	0.0153307
795.406	0.0154547
795.484	0.0155054
795.562	0.0154085
795.640	0.0153381
795.718	0.0153342
795.796	0.0153011
795.874	0.0154075
795.953	0.0154480
796.031	0.0154008
796.109	0.0153377
796.187	0.0154312
796.265	0.0152711
796.343	0.0153651
796.421	0.0153458
796.499	0.0154366
796.578	0.0153687
796.656	0.0154219
796.734	0.0154382
796.812	0.0152223
796.890	0.0153577
796.968	0.0155334
797.046	0.0155123
797.124	0.0153226
797.203	0.0154441
797.281	0.0153413
797.359	0.0152812
797.437	0.0153082
797.515	0.0153912
797.593	0.0152278
797.671	0.0153439
797.749	0.0153585
797.828	0.0153786
797.906	0.0155665
797.984	0.0153885
798.062	0.0154050
798.140	0.0155498
798.218	0.0154629
798.296	0.0155450
798.374	0.0154060
798.453	0.0155553
798.531	0.0155256
798.609	0.0155415
798.687	0.0156358
798.765	0.0153835
798.843	0.0153345
798.921	0.0154246
798.999	0.0153470
799.078	0.0154307
799.156	0.0153557
799.234	0.0153315
799.312	0.0154243
799.390	0.0153172
799.468	0.0153777
799.546	0.0153522
799.624	0.0152048
799.703	0.0152480
799.781	0.0153918
799.859	0.0151677
799.937	0.0152503
800.015	0.0154289
800.093	0.0153493
800.171	0.0154411
800.249	0.0154955
800.328	0.0154073
800.406	0.0154795
800.484	0.0154723
800.562	0.0154694
800.640	0.0157217
800.718	0.0156760
800.796	0.0157124
800.874	0.0154743
800.953	0.0156392
801.031	0.0156486
801.109	0.0155607
801.187	0.0155645
801.265	0.0156000
801.343	0.0157811
801.421	0.0157236
801.499	0.0156715
801.578	0.0156203
801.656	0.0155832
801.734	0.0155242
801.812	0.0155062
801.890	0.0155791
801.968	0.0155359
802.046	0.0155524
802.124	0.0154881
802.203	0.0156373
802.281	0.0154983
802.359	0.0153191
802.437	0.0155858
802.515	0.0154202
802.593	0.0154266
802.671	0.0153250
802.749	0.0153812
802.828	0.0154307
802.906	0.0153045
802.984	0.0153970
803.062	0.0154755
803.140	0.0154218
803.218	0.0154230
803.296	0.0154677
803.374	0.0154831
803.453	0.0154980
803.531	0.0152632
803.609	0.0154102
803.687	0.0154671
803.765	0.0155508
803.843	0.0153938
803.921	0.0156208
803.999	0.0155295
804.078	0.0154776
804.156	0.0155936
804.234	0.0153731
804.312	0.0154809
804.390	0.0155020
804.468	0.0153745
804.546	0.0154903
804.624	0.0154728
804.703	0.0155344
804.781	0.0154223
804.859	0.0154614
804.937	0.0155570
805.015	0.0155786
805.093	0.0153880
805.171	0.0155042
805.249	0.0155459
805.328	0.0156538
805.406	0.0154858
805.484	0.0156013
805.562	0.0154148
805.640	0.0154970
805.718	0.0155441
805.796	0.0155502
805.874	0.0155406
805.953	0.0155928
806.031	0.0155463
806.109	0.0153848
806.187	0.0153181
806.265	0.0153535
806.343	0.0153976
806.421	0.0153156
806.499	0.0153281
806.578	0.0153246
806.656	0.0153641
806.734	0.0152097
806.812	0.0152503
806.890	0.0152124
806.968	0.0152347
807.046	0.0153032
807.124	0.0152432
807.203	0.0152684
807.281	0.0153762
807.359	0.0151323
807.437	0.0153366
807.515	0.0153715
807.593	0.0154124
807.671	0.0154460
807.749	0.0154795
807.828	0.0154733
807.906	0.0154678
807.984	0.0153408
808.062	0.0155246
808.140	0.0156016
808.218	0.0154760
808.296	0.0154004
808.374	0.0155096
808.453	0.0155614
808.531	0.0154852
808.609	0.0153924
808.687	0.0153468
808.765	0.0153526
808.843	0.0153383
808.921	0.0153475
808.999	0.0152783
809.078	0.0152831
809.156	0.0152641
809.234	0.0152451
809.312	0.0154129
809.390	0.0154607
809.468	0.0154101
809.546	0.0154124
809.624	0.0155136
809.703	0.0155611
809.781	0.0154797
809.859	0.0155052
809.937	0.0155044
810.015	0.0154005
810.093	0.0154085
810.171	0.0153880
810.249	0.0154785
810.328	0.0155334
810.406	0.0153941
810.484	0.0154935
810.562	0.0154264
810.640	0.0154414
810.718	0.0153550
810.796	0.0154089
810.874	0.0153707
810.953	0.0154260
811.031	0.0155332
811.109	0.0155870
811.187	0.0154392
811.265	0.0154263
811.343	0.0155648
811.421	0.0155322
811.499	0.0154591
811.578	0.0156010
811.656	0.0154062
811.734	0.0155424
811.812	0.0156007
811.890	0.0157138
811.968	0.0155154
812.046	0.0153630
812.124	0.0154748
812.203	0.0155316
812.281	0.0154227
812.359	0.0154775
812.437	0.0153779
812.515	0.0154087
812.593	0.0154621
812.671	0.0155021
812.749	0.0153765
812.828	0.0154196
812.906	0.0154817
812.984	0.0155063
813.062	0.0154413
813.140	0.0154789
813.218	0.0154177
813.296	0.0153636
813.374	0.0154518
813.453	0.0155597
813.531	0.0155767
813.609	0.0154412
813.687	0.0153770
813.765	0.0154778
813.843	0.0154141
813.921	0.0154797
813.999	0.0156238
814.078	0.0155618
814.156	0.0154652
814.234	0.0154342
814.312	0.0155053
814.390	0.0155453
814.468	0.0155091
814.546	0.0155278
814.624	0.0154939
814.703	0.0154102
814.781	0.0155135
814.859	0.0156686
814.937	0.0154952
815.015	0.0154718
815.093	0.0155826
815.171	0.0154339
815.249	0.0155399
815.328	0.0154795
815.406	0.0154136
815.484	0.0153724
815.562	0.0154227
815.640	0.0154173
815.718	0.0153256
815.796	0.0153365
815.874	0.0152436
815.953	0.0153545
816.031	0.0152734
816.109	0.0153029
816.187	0.0152540
816.265	0.0151983
816.343	0.0153046
816.421	0.0152534
816.499	0.0151984
816.578	0.0152980
816.656	0.0152312
816.734	0.0154289
816.812	0.0153259
816.890	0.0154388
816.968	0.0154878
817.046	0.0155124
817.124	0.0153259
817.203	0.0154100
817.281	0.0155277
817.359	0.0154398
817.437	0.0154419
817.515	0.0156008
817.593	0.0154080
817.671	0.0154150
817.749	0.0154500
817.828	0.0155701
817.906	0.0154819
817.984	0.0153989
818.062	0.0154755
818.140	0.0153728
818.218	0.0154481
818.296	0.0154031
818.374	0.0153471
818.453	0.0153446
818.531	0.0153162
818.609	0.0153596
818.687	0.0154568
818.765	0.0154231
818.843	0.0154240
818.921	0.0155360
818.999	0.0155392
819.078	0.0154892
819.156	0.0155047
819.234	0.0155260
819.312	0.0156322
819.390	0.0155006
819.468	0.0156013
819.546	0.0155008
819.624	0.0153876
819.703	0.0155859
819.781	0.0154494
819.859	0.0153922
819.937	0.0154289
820.015	0.0153496
820.093	0.0153631
820.171	0.0152786
820.249	0.0153239
820.328	0.0154012
820.406	0.0152896
820.484	0.0152878
820.562	0.0152269
820.640	0.0152612
820.718	0.0153163
820.796	0.0153122
820.874	0.0153316
820.953	0.0153738
821.031	0.0154536
821.109	0.0153960
821.187	0.0153374
821.265	0.0153952
821.343	0.0153436
821.421	0.0152721
821.499	0.0152709
821.578	0.0154645
821.656	0.0152953
821.734	0.0153617
821.812	0.0154467
821.890	0.0153779
821.968	0.0152568
822.046	0.0152757
822.124	0.0152965
822.203	0.0153184
822.281	0.0153512
822.359	0.0153645
822.437	0.0153562
822.515	0.0153580
822.593	0.0153541
822.671	0.0153258
822.749	0.0154619
822.828	0.0154232
822.906	0.0152850
822.984	0.0153702
823.062	0.0154572
823.140	0.0154157
823.218	0.0153362
823.296	0.0153658
823.374	0.0154571
823.453	0.0152953
823.531	0.0152410
823.609	0.0152935
823.687	0.0154923
823.765	0.0152560
823.843	0.0152197
823.921	0.0154030
823.999	0.0152211
824.078	0.0153469
824.156	0.0152527
824.234	0.0152229
824.312	0.0153348
824.390	0.0153236
824.468	0.0152208
824.546	0.0152081
824.624	0.0151927
824.703	0.0151382
824.781	0.0151505
824.859	0.0152228
824.937	0.0150567
825.015	0.0151279
825.093	0.0152429
825.171	0.0150507
825.249	0.0151233
825.328	0.0151712
825.406	0.0152346
825.484	0.0152609
825.562	0.0152929
825.640	0.0151888
825.718	0.0153146
825.796	0.0153278
825.874	0.0152578
825.953	0.0152245
826.031	0.0152557
826.109	0.0153770
826.187	0.0152902
826.265	0.0153516
826.343	0.0154085
826.421	0.0153077
826.499	0.0154308
826.578	0.0152718
826.656	0.0153261
826.734	0.0153477
826.812	0.0154762
826.890	0.0153905
826.968	0.0154045
827.046	0.0153879
827.124	0.0154300
827.203	0.0153729
827.281	0.0154673
827.359	0.0154365
827.437	0.0153660
827.515	0.0153151
827.593	0.0153784
827.671	0.0154574
827.749	0.0153452
827.828	0.0153973
827.906	0.0153457
827.984	0.0153018
828.062	0.0153992
828.140	0.0153259
828.218	0.0153658
828.296	0.0153958
828.374	0.0153533
828.453	0.0153597
828.531	0.0155164
828.609	0.0153655
828.687	0.0154540
828.765	0.0155944
828.843	0.0153963
828.921	0.0155698
828.999	0.0156477
829.078	0.0155467
829.156	0.0156516
829.234	0.0156167
829.312	0.0155663
829.390	0.0155864
829.468	0.0156413
829.546	0.0156691
829.624	0.0155519
829.703	0.0155660
829.781	0.0156921
829.859	0.0156322
829.937	0.0155334
830.015	0.0154647
830.093	0.0155563
830.171	0.0155388
830.249	0.0155240
830.328	0.0156045
830.406	0.0156927
830.484	0.0155441
830.562	0.0154983
830.640	0.0155241
830.718	0.0156403
830.796	0.0154420
830.874	0.0155532
830.953	0.0156454
831.031	0.0155809
831.109	0.0156337
831.187	0.0155787
831.265	0.0157622
831.343	0.0155199
831.421	0.0157301
831.499	0.0156219
831.578	0.0156012
831.656	0.0156376
831.734	0.0155877
831.812	0.0155965
831.890	0.0155758
831.968	0.0154474
832.046	0.0156035
832.124	0.0154961
832.203	0.0156808
832.281	0.0155688
832.359	0.0155833
832.437	0.0154833
832.515	0.0155212
832.593	0.0155885
832.671	0.0154736
832.749	0.0153506
832.828	0.0153951
832.906	0.0154745
832.984	0.0155480
833.062	0.0153342
833.140	0.0153348
833.218	0.0154745
833.296	0.0153284
833.374	0.0153809
833.453	0.0153906
833.531	0.0154610
833.609	0.0154752
833.687	0.0154675
833.765	0.0153904
833.843	0.0154247
833.921	0.0154522
833.999	0.0154587
834.078	0.0155515
834.156	0.0155729
834.234	0.0155901
834.312	0.0155548
834.390	0.0156756
834.468	0.0155662
834.546	0.0155714
834.624	0.0156520
834.703	0.0156968
834.781	0.0157957
834.859	0.0156097
834.937	0.0155659
835.015	0.0155222
835.093	0.0154988
835.171	0.0155962
835.249	0.0155375
835.328	0.0155949
835.406	0.0154490
835.484	0.0154510
835.562	0.0154145
835.640	0.0153894
835.718	0.0154292
835.796	0.0155131
835.874	0.0155470
835.953	0.0154530
836.031	0.0155159
836.109	0.0155251
836.187	0.0154933
836.265	0.0154998
836.343	0.0155096
836.421	0.0154358
836.499	0.0154851
836.578	0.0157191
836.656	0.0155212
836.734	0.0155280
836.812	0.0155067
836.890	0.0156219
836.968	0.0155623
837.046	0.0155205
837.124	0.0156326
837.203	0.0156177
837.281	0.0157231
837.359	0.0156490
837.437	0.0155732
837.515	0.0155914
837.593	0.0156438
837.671	0.0156731
837.749	0.0156507
837.828	0.0155634
837.906	0.0156317
837.984	0.0155023
838.062	0.0154546
838.140	0.0155091
838.218	0.0154932
838.296	0.0154331
838.374	0.0154931
838.453	0.0155382
838.531	0.0154950
838.609	0.0154645
838.687	0.0153977
838.765	0.0153735
838.843	0.0154274
838.921	0.0154628
838.999	0.0156411
839.078	0.0154632
839.156	0.0155172
839.234	0.0155601
839.312	0.0154928
839.390	0.0153693
839.468	0.0155326
839.546	0.0155466
839.624	0.0155578
839.703	0.0154385
839.781	0.0154968
839.859	0.0154335
839.937	0.0154909
840.015	0.0153985
840.093	0.0155669
840.171	0.0154883
840.249	0.0154532
840.328	0.0153727
840.406	0.0153661
840.484	0.0153430
840.562	0.0153136
840.640	0.0153594
840.718	0.0154332
840.796	0.0152434
840.874	0.0154068
840.953	0.0153150
841.031	0.0153026
841.109	0.0153889
841.187	0.0154798
841.265	0.0155041
841.343	0.0152169
841.421	0.0153155
841.499	0.0154450
841.578	0.0154512
841.656	0.0154663
841.734	0.0154308
841.812	0.0152244
841.890	0.0153833
841.968	0.0153490
842.046	0.0153847
842.124	0.0154414
842.203	0.0154806
842.281	0.0153291
842.359	0.0151802
842.437	0.0153796
842.515	0.0154698
842.593	0.0154212
842.671	0.0154429
842.749	0.0154061
842.828	0.0154456
842.906	0.0154121
842.984	0.0154018
843.062	0.0153448
843.140	0.0154738
843.218	0.0153288
843.296	0.0153996
843.374	0.0154844
843.453	0.0153373
843.531	0.0154774
843.609	0.0156022
843.687	0.0156579
843.765	0.0155226
843.843	0.0156162
843.921	0.0155572
843.999	0.0155597
844.078	0.0155956
844.156	0.0154697
844.234	0.0155482
844.312	0.0155619
844.390	0.0155353
844.468	0.0155291
844.546	0.0155159
844.624	0.0154473
844.703	0.0154487
844.781	0.0156232
844.859	0.0153893
844.937	0.0153449
845.015	0.0153697
845.093	0.0154542
845.171	0.0153009
845.249	0.0154382
845.328	0.0153928
845.406	0.0153830
845.484	0.0153690
845.562	0.0154012
845.640	0.0155792
845.718	0.0154491
845.796	0.0153362
845.874	0.0154350
845.953	0.0154599
846.031	0.0155501
846.109	0.0153960
846.187	0.0153805
846.265	0.0154088
846.343	0.0155231
846.421	0.0154160
846.499	0.0154673
846.578	0.0155242
846.656	0.0155264
846.734	0.0152058
846.812	0.0154863
846.890	0.0154234
846.968	0.0153349
847.046	0.0153565
847.124	0.0154739
847.203	0.0153872
847.281	0.0153596
847.359	0.0152549
847.437	0.0151913
847.515	0.0152505
847.593	0.0155012
847.671	0.0153105
847.749	0.0154315
847.828	0.0154252
847.906	0.0152854
847.984	0.0153102
848.062	0.0153531
848.140	0.0153909
848.218	0.0154078
848.296	0.0153639
848.374	0.0152309
848.453	0.0154327
848.531	0.0153416
848.609	0.0153341
848.687	0.0154194
848.765	0.0153254
848.843	0.0152441
848.921	0.0155251
848.999	0.0154034
849.078	0.0153678
849.156	0.0153840
849.234	0.0153913
849.312	0.0153825
849.390	0.0155292
849.468	0.0155146
849.546	0.0154413
849.624	0.0153935
849.703	0.0154386
849.781	0.0153574
849.859	0.0154919
849.937	0.0154568
850.015	0.0153423
850.093	0.0152881
850.171	0.0153605
850.249	0.0153564
850.328	0.0153635
850.406	0.0152926
850.484	0.0153447
850.562	0.0154021
850.640	0.0153944
850.718	0.0152534
850.796	0.0152296
850.874	0.0152030
850.953	0.0152880
851.031	0.0153065
851.109	0.0152744
851.187	0.0153146
851.265	0.0153524
851.343	0.0152760
851.421	0.0152344
851.499	0.0153970
851.578	0.0155028
851.656	0.0154128
851.734	0.0152948
851.812	0.0154733
851.890	0.0155199
851.968	0.0154813
852.046	0.0153141
852.124	0.0152782
852.203	0.0153662
852.281	0.0153813
852.359	0.0152737
852.437	0.0154169
852.515	0.0153981
852.593	0.0154591
852.671	0.0155067
852.749	0.0153419
852.828	0.0152969
852.906	0.0152790
852.984	0.0152316
853.062	0.0153378
853.140	0.0152861
853.218	0.0152763
853.296	0.0153851
853.374	0.0153201
853.453	0.0153428
853.531	0.0153319
853.609	0.0152599
853.687	0.0152597
853.765	0.0153060
853.843	0.0152628
853.921	0.0152901
853.999	0.0153088
854.078	0.0153613
854.156	0.0152943
854.234	0.0152340
854.312	0.0153025
854.390	0.0154488
854.468	0.0154353
854.546	0.0153726
854.624	0.0153929
854.703	0.0155795
854.781	0.0154922
854.859	0.0153924
854.937	0.0154408
855.015	0.0155062
855.093	0.0156285
855.171	0.0154633
855.249	0.0156286
855.328	0.0155405
855.406	0.0155325
855.484	0.0156255
855.562	0.0154243
855.640	0.0153614
855.718	0.0154519
855.796	0.0155101
855.874	0.0155083
855.953	0.0154964
856.031	0.0153571
856.109	0.0154224
856.187	0.0154848
856.265	0.0154695
856.343	0.0154901
856.421	0.0154819
856.499	0.0154298
856.578	0.0154906
856.656	0.0154675
856.734	0.0154344
856.812	0.0154715
856.890	0.0155125
856.968	0.0155900
857.046	0.0156114
857.124	0.0156172
857.203	0.0156237
857.281	0.0155521
857.359	0.0156448
857.437	0.0155163
857.515	0.0155707
857.593	0.0156039
857.671	0.0155334
857.749	0.0155691
857.828	0.0153979
857.906	0.0155558
857.984	0.0154775
858.062	0.0154391
858.140	0.0153428
858.218	0.0153297
858.296	0.0153880
858.374	0.0154541
858.453	0.0155035
858.531	0.0153854
858.609	0.0153761
858.687	0.0154553
858.765	0.0154067
858.843	0.0154667
858.921	0.0155266
858.999	0.0154942
859.078	0.0154856
859.156	0.0155862
859.234	0.0154822
859.312	0.0154568
859.390	0.0155130
859.468	0.0156556
859.546	0.0157168
859.624	0.0157593
859.703	0.0157027
859.781	0.0156229
859.859	0.0156545
859.937	0.0156889
860.015	0.0156836
860.093	0.0156660
860.171	0.0157022
860.249	0.0156672
860.328	0.0157153
860.406	0.0156683
860.484	0.0157693
860.562	0.0156847
860.640	0.0156642
860.718	0.0157865
860.796	0.0155492
860.874	0.0154639
860.953	0.0155558
861.031	0.0155535
861.109	0.0155342
861.187	0.0154501
861.265	0.0155083
861.343	0.0156973
861.421	0.0154964
861.499	0.0154357
861.578	0.0154243
861.656	0.0154401
861.734	0.0154203
861.812	0.0156015
861.890	0.0155514
861.968	0.0155437
862.046	0.0154929
862.124	0.0155502
862.203	0.0155135
862.281	0.0155669
862.359	0.0154585
862.437	0.0154588
862.515	0.0154691
862.593	0.0153540
862.671	0.0155216
862.749	0.0155219
862.828	0.0154924
862.906	0.0154640
862.984	0.0154908
863.062	0.0155606
863.140	0.0154028
863.218	0.0154547
863.296	0.0153911
863.374	0.0153098
863.453	0.0154009
863.531	0.0153132
863.609	0.0153323
863.687	0.0152944
863.765	0.0153407
863.843	0.0154391
863.921	0.0155315
863.999	0.0153952
864.078	0.0154350
864.156	0.0153709
864.234	0.0155290
864.312	0.0154794
864.390	0.0154982
864.468	0.0152407
864.546	0.0153725
864.624	0.0154652
864.703	0.0154540
864.781	0.0154482
864.859	0.0154459
864.937	0.0153230
865.015	0.0153252
865.093	0.0154022
865.171	0.0155273
865.249	0.0154639
865.328	0.0155419
865.406	0.0152998
865.484	0.0154639
865.562	0.0154331
865.640	0.0153554
865.718	0.0154786
865.796	0.0154675
865.874	0.0154733
865.953	0.0154881
866.031	0.0154921
866.109	0.0156368
866.187	0.0154401
866.265	0.0154870
866.343	0.0153790
866.421	0.0155301
866.499	0.0154607
866.578	0.0154779
866.656	0.0157152
866.734	0.0154526
866.812	0.0153606
866.890	0.0153941
866.968	0.0154742
867.046	0.0155524
867.124	0.0155478
867.203	0.0155144
867.281	0.0154657
867.359	0.0155589
867.437	0.0155145
867.515	0.0155607
867.593	0.0154497
867.671	0.0155539
867.749	0.0154777
867.828	0.0155258
867.906	0.0154704
867.984	0.0155779
868.062	0.0155326
868.140	0.0154579
868.218	0.0154608
868.296	0.0156751
868.374	0.0154900
868.453	0.0154442
868.531	0.0155187
868.609	0.0155798
868.687	0.0154048
868.765	0.0153987
868.843	0.0155250
868.921	0.0154884
868.999	0.0155595
869.078	0.0156829
869.156	0.0154671
869.234	0.0156602
869.312	0.0155554
869.390	0.0154337
869.468	0.0156094
869.546	0.0155201
869.624	0.0156020
869.703	0.0156490
869.781	0.0156619
869.859	0.0157616
869.937	0.0156496
870.015	0.0156464
870.093	0.0154176
870.171	0.0155570
870.249	0.0155532
870.328	0.0155981
870.406	0.0154266
870.484	0.0155843
870.562	0.0154562
870.640	0.0154858
870.718	0.0153613
870.796	0.0153972
870.874	0.0155046
870.953	0.0154632
871.031	0.0154073
871.109	0.0154377
871.187	0.0155264
871.265	0.0154362
871.343	0.0153210
871.421	0.0154147
871.499	0.0155598
871.578	0.0154938
871.656	0.0154329
871.734	0.0155003
871.812	0.0155019
871.890	0.0152543
871.968	0.0153783
872.046	0.0154797
872.124	0.0153970
872.203	0.0154112
872.281	0.0155070
872.359	0.0153825
872.437	0.0153420
872.515	0.0153996
872.593	0.0152806
872.671	0.0152494
872.749	0.0153448
872.828	0.0154039
872.906	0.0153752
872.984	0.0152991
873.062	0.0152680
873.140	0.0153840
873.218	0.0154144
873.296	0.0154079
873.374	0.0153848
873.453	0.0153094
873.531	0.0153786
873.609	0.0153750
873.687	0.0153483
873.765	0.0153603
873.843	0.0153955
873.921	0.0154572
873.999	0.0154209
874.078	0.0155235
874.156	0.0154980
874.234	0.0154503
874.312	0.0156286
874.390	0.0154226
874.468	0.0154557
874.546	0.0154339
874.624	0.0154485
874.703	0.0155001
874.781	0.0155247
874.859	0.0154921
874.937	0.0154632
875.015	0.0152359
875.093	0.0154530
875.171	0.0154076
875.249	0.0153911
875.328	0.0153789
875.406	0.0153084
875.484	0.0153668
875.562	0.0154945
875.640	0.0151634
875.718	0.0152158
875.796	0.0151487
875.874	0.0152962
875.953	0.0152847
876.031	0.0152435
876.109	0.0152283
876.187	0.0154141
876.265	0.0154649
876.343	0.0153360
876.421	0.0152991
876.499	0.0152634
876.578	0.0153642
876.656	0.0154021
876.734	0.0155254
876.812	0.0154404
876.890	0.0153093
876.968	0.0152897
877.046	0.0154068
877.124	0.0154989
877.203	0.0154754
877.281	0.0154773
877.359	0.0154199
877.437	0.0154003
877.515	0.0155251
877.593	0.0154130
877.671	0.0155390
877.749	0.0155352
877.828	0.0155826
877.906	0.0156227
877.984	0.0155536
878.062	0.0155765
878.140	0.0154832
878.218	0.0154630
878.296	0.0155252
878.374	0.0154877
878.453	0.0155585
878.531	0.0155740
878.609	0.0154443
878.687	0.0155772
878.765	0.0156428
878.843	0.0155902
878.921	0.0156585
878.999	0.0153821
879.078	0.0154794
879.156	0.0155403
879.234	0.0154272
879.312	0.0154238
879.390	0.0154190
879.468	0.0155225
879.546	0.0153400
879.624	0.0154424
879.703	0.0154487
879.781	0.0154535
879.859	0.0154649
879.937	0.0153067
880.015	0.0154004
880.093	0.0153069
880.171	0.0153800
880.249	0.0153844
880.328	0.0154263
880.406	0.0153395
880.484	0.0153762
880.562	0.0153550
880.640	0.0152688
880.718	0.0153058
880.796	0.0152392
880.874	0.0153025
880.953	0.0153277
881.031	0.0152203
881.109	0.0153260
881.187	0.0153587
881.265	0.0152715
881.343	0.0153050
881.421	0.0153255
881.499	0.0153434
881.578	0.0153709
881.656	0.0155177
881.734	0.0154797
881.812	0.0154359
881.890	0.0155779
881.968	0.0154464
882.046	0.0154680
882.124	0.0152766
882.203	0.0153963
882.281	0.0155943
882.359	0.0154634
882.437	0.0153979
882.515	0.0154978
882.593	0.0154243
882.671	0.0154917
882.749	0.0155865
882.828	0.0154852
882.906	0.0154883
882.984	0.0155249
883.062	0.0155896
883.140	0.0154737
883.218	0.0153533
883.296	0.0154498
883.374	0.0153555
883.453	0.0155092
883.531	0.0155383
883.609	0.0153951
883.687	0.0154110
883.765	0.0156213
883.843	0.0154015
883.921	0.0152894
883.999	0.0153798
884.078	0.0155649
884.156	0.0153779
884.234	0.0154894
884.312	0.0154886
884.390	0.0153438
884.468	0.0154826
884.546	0.0154799
884.624	0.0153937
884.703	0.0153376
884.781	0.0153947
884.859	0.0154404
884.937	0.0153596
885.015	0.0154691
885.093	0.0153802
885.171	0.0153907
885.249	0.0153806
885.328	0.0154482
885.406	0.0154555
885.484	0.0154744
885.562	0.0155186
885.640	0.0152440
885.718	0.0154156
885.796	0.0154028
885.874	0.0154495
885.953	0.0152686
886.031	0.0154440
886.109	0.0154800
886.187	0.0154404
886.265	0.0153247
886.343	0.0154732
886.421	0.0154652
886.499	0.0154258
886.578	0.0154015
886.656	0.0154378
886.734	0.0154613
886.812	0.0155833
886.890	0.0156303
886.968	0.0155893
887.046	0.0155721
887.124	0.0155284
887.203	0.0154286
887.281	0.0156045
887.359	0.0157332
887.437	0.0156452
887.515	0.0155746
887.593	0.0156342
887.671	0.0155430
887.749	0.0155624
887.828	0.0156238
887.906	0.0156447
887.984	0.0156004
888.062	0.0155428
888.140	0.0154594
888.218	0.0156444
888.296	0.0155704
888.374	0.0155167
888.453	0.0156724
888.531	0.0155224
888.609	0.0155020
888.687	0.0155217
888.765	0.0154889
888.843	0.0155270
888.921	0.0155548
888.999	0.0154192
889.078	0.0155885
889.156	0.0155728
889.234	0.0155899
889.312	0.0155106
889.390	0.0154585
889.468	0.0153519
889.546	0.0154593
889.624	0.0155459
889.703	0.0155679
889.781	0.0153600
889.859	0.0153996
889.937	0.0156632
890.015	0.0155553
890.093	0.0154389
890.171	0.0153936
890.249	0.0153488
890.328	0.0154556
890.406	0.0152959
890.484	0.0154870
890.562	0.0154661
890.640	0.0153481
890.718	0.0152621
890.796	0.0153423
890.874	0.0153551
890.953	0.0152879
891.031	0.0152837
891.109	0.0152192
891.187	0.0153107
891.265	0.0152863
891.343	0.0152864
891.421	0.0152487
891.499	0.0154438
891.578	0.0154168
891.656	0.0153085
891.734	0.0152974
891.812	0.0153297
891.890	0.0153010
891.968	0.0153529
892.046	0.0154732
892.124	0.0155133
892.203	0.0153564
892.281	0.0153558
892.359	0.0153945
892.437	0.0153671
892.515	0.0152115
892.593	0.0153313
892.671	0.0153867
892.749	0.0152348
892.828	0.0154536
892.906	0.0154079
892.984	0.0154196
893.062	0.0152760
893.140	0.0153362
893.218	0.0152760
893.296	0.0152642
893.374	0.0155242
893.453	0.0153834
893.531	0.0153230
893.609	0.0153532
893.687	0.0153540
893.765	0.0153777
893.843	0.0153639
893.921	0.0152998
893.999	0.0153244
894.078	0.0153908
894.156	0.0153745
894.234	0.0152485
894.312	0.0152679
894.390	0.0153545
894.468	0.0153252
894.546	0.0153365
894.624	0.0153850
894.703	0.0153872
894.781	0.0154488
894.859	0.0153455
894.937	0.0154633
895.015	0.0152958
895.093	0.0154096
895.171	0.0152870
895.249	0.0152834
895.328	0.0153439
895.406	0.0153649
895.484	0.0153651
895.562	0.0153659
895.640	0.0152510
895.718	0.0153267
895.796	0.0154611
895.874	0.0152373
895.953	0.0152939
896.031	0.0152872
896.109	0.0152910
896.187	0.0153670
896.265	0.0153745
896.343	0.0153679
896.421	0.0153220
896.499	0.0154279
896.578	0.0154477
896.656	0.0153131
896.734	0.0153189
896.812	0.0154475
896.890	0.0152574
896.968	0.0154424
897.046	0.0153279
897.124	0.0152501
897.203	0.0153195
897.281	0.0153035
897.359	0.0153288
897.437	0.0153851
897.515	0.0153648
897.593	0.0153089
897.671	0.0151360
897.749	0.0152018
897.828	0.0153350
897.906	0.0154873
897.984	0.0152496
898.062	0.0153001
898.140	0.0152954
898.218	0.0152561
898.296	0.0153378
898.374	0.0152733
898.453	0.0153034
898.531	0.0153676
898.609	0.0154242
898.687	0.0154234
898.765	0.0153359
898.843	0.0151685
898.921	0.0152676
898.999	0.0154054
899.078	0.0151520
899.156	0.0152512
899.234	0.0153931
899.312	0.0154335
899.390	0.0153679
899.468	0.0153551
899.546	0.0153504
899.624	0.0154624
899.703	0.0153568
899.781	0.0153015
899.859	0.0154570
899.937	0.0153997
900.015	0.0153947
900.093	0.0153754
900.171	0.0153531
900.249	0.0154505
900.328	0.0154330
900.406	0.0153517
900.484	0.0154453
900.562	0.0155901
900.640	0.0154395
900.718	0.0153278
900.796	0.0151777
900.874	0.0153887
900.953	0.0153043
901.031	0.0153599
901.109	0.0154200
901.187	0.0152702
901.265	0.0152740
901.343	0.0153087
901.421	0.0152560
901.499	0.0153116
901.578	0.0151848
901.656	0.0153323
901.734	0.0154080
901.812	0.0154189
901.890	0.0153085
901.968	0.0154910
902.046	0.0154413
902.124	0.0154058
902.203	0.0153078
902.281	0.0155465
902.359	0.0155292
902.437	0.0154639
902.515	0.0153446
902.593	0.0154620
902.671	0.0154195
902.749	0.0154823
902.828	0.0154287
902.906	0.0154308
902.984	0.0155371
903.062	0.0153712
903.140	0.0153875
903.218	0.0153867
903.296	0.0153896
903.374	0.0153872
903.453	0.0153620
903.531	0.0153648
903.609	0.0152713
903.687	0.0153988
903.765	0.0153092
903.843	0.0152534
903.921	0.0151845
903.999	0.0152145
904.078	0.0153314
904.156	0.0153072
904.234	0.0151977
904.312	0.0151993
904.390	0.0153149
904.468	0.0154319
904.546	0.0152958
904.624	0.0153967
904.703	0.0154784
904.781	0.0153781
904.859	0.0152819
904.937	0.0154040
905.015	0.0155405
905.093	0.0154646
905.171	0.0153506
905.249	0.0154009
905.328	0.0153558
905.406	0.0154925
905.484	0.0155188
905.562	0.0154823
905.640	0.0153542
905.718	0.0153979
905.796	0.0154058
905.874	0.0154028
905.953	0.0154369
906.031	0.0153809
906.109	0.0153471
906.187	0.0154714
906.265	0.0154682
906.343	0.0154639
906.421	0.0154175
906.499	0.0153831
906.578	0.0153904
906.656	0.0154922
906.734	0.0155122
906.812	0.0155656
906.890	0.0153789
906.968	0.0154122
907.046	0.0154214
907.124	0.0154658
907.203	0.0153737
907.281	0.0153251
907.359	0.0154658
907.437	0.0153776
907.515	0.0154617
907.593	0.0154324
907.671	0.0153912
907.749	0.0154038
907.828	0.0152579
907.906	0.0153443
907.984	0.0153983
908.062	0.0152769
908.140	0.0152953
908.218	0.0153117
908.296	0.0152991
908.374	0.0152949
908.453	0.0153806
908.531	0.0154337
908.609	0.0153214
908.687	0.0154295
908.765	0.0153358
908.843	0.0153052
908.921	0.0153292
908.999	0.0153593
909.078	0.0154794
909.156	0.0152282
909.234	0.0153745
909.312	0.0153245
909.390	0.0152660
909.468	0.0153306
909.546	0.0152332
909.624	0.0153674
909.703	0.0153654
909.781	0.0153367
909.859	0.0153452
909.937	0.0153764
910.015	0.0152890
910.093	0.0152973
910.171	0.0153011
910.249	0.0154086
910.328	0.0153126
910.406	0.0153583
910.484	0.0154156
910.562	0.0154721
910.640	0.0154423
910.718	0.0153235
910.796	0.0154276
910.874	0.0153796
910.953	0.0154366
911.031	0.0153564
911.109	0.0153979
911.187	0.0152636
911.265	0.0154058
911.343	0.0155166
911.421	0.0154850
911.499	0.0153749
911.578	0.0152126
911.656	0.0154713
911.734	0.0155117
911.812	0.0153235
911.890	0.0153473
911.968	0.0154335
912.046	0.0153532
912.124	0.0153986
912.203	0.0153529
912.281	0.0155139
912.359	0.0155114
912.437	0.0154021
912.515	0.0155391
912.593	0.0154588
912.671	0.0155595
912.749	0.0153401
912.828	0.0154688
912.906	0.0156064
912.984	0.0156025
913.062	0.0153573
913.140	0.0154312
913.218	0.0155280
913.296	0.0155278
913.374	0.0155614
913.453	0.0154614
913.531	0.0154379
913.609	0.0154186
913.687	0.0154413
913.765	0.0154630
913.843	0.0155257
913.921	0.0153671
913.999	0.0155125
914.078	0.0155405
914.156	0.0154604
914.234	0.0154260
914.312	0.0154288
914.390	0.0154836
914.468	0.0154037
914.546	0.0153207
914.624	0.0154614
914.703	0.0154645
914.781	0.0154988
914.859	0.0153634
914.937	0.0154174
915.015	0.0154385
915.093	0.0154855
915.171	0.0153894
915.249	0.0153200
915.328	0.0155618
915.406	0.0154610
915.484	0.0153671
915.562	0.0154173
915.640	0.0153796
915.718	0.0152910
915.796	0.0153191
915.874	0.0154838
915.953	0.0153735
916.031	0.0154142
916.109	0.0155193
916.187	0.0154529
916.265	0.0153642
916.343	0.0154470
916.421	0.0153091
916.499	0.0154752
916.578	0.0154801
916.656	0.0153605
916.734	0.0153101
916.812	0.0153500
916.890	0.0152177
916.968	0.0153735
917.046	0.0154917
917.124	0.0154091
917.203	0.0151941
917.281	0.0152184
917.359	0.0152245
917.437	0.0152576
917.515	0.0152367
917.593	0.0152625
917.671	0.0150981
917.749	0.0151646
917.828	0.0152793
917.906	0.0152030
917.984	0.0152013
918.062	0.0152259
918.140	0.0151340
918.218	0.0152358
918.296	0.0151771
918.374	0.0153461
918.453	0.0153132
918.531	0.0152280
918.609	0.0152367
918.687	0.0151756
918.765	0.0152823
918.843	0.0152639
918.921	0.0151913
918.999	0.0151830
919.078	0.0151091
919.156	0.0152879
919.234	0.0152196
919.312	0.0152002
919.390	0.0153397
919.468	0.0153617
919.546	0.0152230
919.624	0.0150687
919.703	0.0152372
919.781	0.0152663
919.859	0.0153461
919.937	0.0154235
