05/06/2022	19:40:11	Ver.	4.1	UNKNOWN
Optical Delay	600.015094	Delta X		0.078125	Sweeps	1	Scan Rate	0/0
Coordinates	Axis 1	NaN	Axis 2	NaN	Axis 3	NaN	Axis 4	NaN	Axis 5	NaN	Axis 6	0.000000
TX Power	0.000000	RX Power	0.000000

600.015	0.0153315
600.093	0.0153127
600.171	0.0152709
600.249	0.0152788
600.328	0.0150874
600.406	0.0149825
600.484	0.0151653
600.562	0.0151105
600.640	0.0148694
600.718	0.0149152
600.796	0.0150446
600.874	0.0149758
600.953	0.0150093
601.031	0.0149955
601.109	0.0148901
601.187	0.0149142
601.265	0.0149420
601.343	0.0148793
601.421	0.0149317
601.499	0.0147688
601.578	0.0148388
601.656	0.0148730
601.734	0.0147707
601.812	0.0148518
601.890	0.0149289
601.968	0.0147616
602.046	0.0146108
602.124	0.0145509
602.203	0.0145367
602.281	0.0146299
602.359	0.0147385
602.437	0.0147042
602.515	0.0146380
602.593	0.0146719
602.671	0.0147258
602.749	0.0147565
602.828	0.0148135
602.906	0.0147334
602.984	0.0147443
603.062	0.0147935
603.140	0.0148745
603.218	0.0148320
603.296	0.0147372
603.374	0.0148627
603.453	0.0148875
603.531	0.0148088
603.609	0.0148125
603.687	0.0149422
603.765	0.0148409
603.843	0.0149055
603.921	0.0148487
603.999	0.0149675
604.078	0.0149284
604.156	0.0148221
604.234	0.0148212
604.312	0.0147871
604.390	0.0146801
604.468	0.0145081
604.546	0.0146091
604.624	0.0147224
604.703	0.0145444
604.781	0.0144659
604.859	0.0146146
604.937	0.0145548
605.015	0.0146387
605.093	0.0146017
605.171	0.0146873
605.249	0.0146741
605.328	0.0147491
605.406	0.0146584
605.484	0.0148070
605.562	0.0149352
605.640	0.0148772
605.718	0.0148106
605.796	0.0148194
605.874	0.0147926
605.953	0.0147787
606.031	0.0148189
606.109	0.0148414
606.187	0.0149171
606.265	0.0149440
606.343	0.0149638
606.421	0.0148280
606.499	0.0149822
606.578	0.0151305
606.656	0.0150017
606.734	0.0150919
606.812	0.0150613
606.890	0.0151743
606.968	0.0151707
607.046	0.0151178
607.124	0.0150505
607.203	0.0151994
607.281	0.0151258
607.359	0.0150130
607.437	0.0149091
607.515	0.0149931
607.593	0.0149780
607.671	0.0148428
607.749	0.0148121
607.828	0.0148383
607.906	0.0148645
607.984	0.0147800
608.062	0.0148936
608.140	0.0147860
608.218	0.0147985
608.296	0.0147739
608.374	0.0147408
608.453	0.0147339
608.531	0.0148693
608.609	0.0148100
608.687	0.0148537
608.765	0.0148703
608.843	0.0147479
608.921	0.0149129
608.999	0.0150980
609.078	0.0152229
609.156	0.0153484
609.234	0.0153007
609.312	0.0155580
609.390	0.0157120
609.468	0.0156895
609.546	0.0156786
609.624	0.0155429
609.703	0.0154631
609.781	0.0155560
609.859	0.0155984
609.937	0.0154425
610.015	0.0152673
610.093	0.0151560
610.171	0.0150289
610.249	0.0150361
610.328	0.0149487
610.406	0.0148090
610.484	0.0147193
610.562	0.0146899
610.640	0.0147440
610.718	0.0145358
610.796	0.0146722
610.874	0.0147884
610.953	0.0146754
611.031	0.0147412
611.109	0.0147540
611.187	0.0149747
611.265	0.0149049
611.343	0.0149252
611.421	0.0151035
611.499	0.0151010
611.578	0.0150619
611.656	0.0152109
611.734	0.0150734
611.812	0.0151395
611.890	0.0151057
611.968	0.0150476
612.046	0.0151615
612.124	0.0150851
612.203	0.0150103
612.281	0.0150498
612.359	0.0150868
612.437	0.0150887
612.515	0.0149659
612.593	0.0148402
612.671	0.0148781
612.749	0.0149452
612.828	0.0149844
612.906	0.0149502
612.984	0.0150417
613.062	0.0147808
613.140	0.0150000
613.218	0.0149989
613.296	0.0148763
613.374	0.0150400
613.453	0.0148809
613.531	0.0151268
613.609	0.0150112
613.687	0.0150528
613.765	0.0148424
613.843	0.0148650
613.921	0.0149764
613.999	0.0148447
614.078	0.0148765
614.156	0.0147520
614.234	0.0146648
614.312	0.0148150
614.390	0.0147157
614.468	0.0148067
614.546	0.0147939
614.624	0.0147097
614.703	0.0145871
614.781	0.0147049
614.859	0.0147285
614.937	0.0147729
615.015	0.0148819
615.093	0.0149037
615.171	0.0149696
615.249	0.0150298
615.328	0.0150101
615.406	0.0150324
615.484	0.0150023
615.562	0.0150896
615.640	0.0150739
615.718	0.0150605
615.796	0.0150050
615.874	0.0150491
615.953	0.0150106
616.031	0.0149913
616.109	0.0150212
616.187	0.0150344
616.265	0.0148112
616.343	0.0149436
616.421	0.0148891
616.499	0.0148582
616.578	0.0147113
616.656	0.0147357
616.734	0.0148395
616.812	0.0146546
616.890	0.0146693
616.968	0.0147931
617.046	0.0146989
617.124	0.0147219
617.203	0.0149168
617.281	0.0149673
617.359	0.0151118
617.437	0.0152982
617.515	0.0153251
617.593	0.0152924
617.671	0.0154902
617.749	0.0155687
617.828	0.0156147
617.906	0.0154893
617.984	0.0156306
618.062	0.0155586
618.140	0.0154758
618.218	0.0155945
618.296	0.0155172
618.374	0.0156406
618.453	0.0155962
618.531	0.0154671
618.609	0.0155293
618.687	0.0155424
618.765	0.0155293
618.843	0.0154372
618.921	0.0153282
618.999	0.0154545
619.078	0.0152872
619.156	0.0152991
619.234	0.0153621
619.312	0.0152427
619.390	0.0153059
619.468	0.0152396
619.546	0.0152435
619.624	0.0153338
619.703	0.0151491
619.781	0.0153078
619.859	0.0154034
619.937	0.0151557
620.015	0.0154206
620.093	0.0153820
620.171	0.0152148
620.249	0.0152691
620.328	0.0153671
620.406	0.0151566
620.484	0.0150925
620.562	0.0151678
620.640	0.0152382
620.718	0.0151288
620.796	0.0150943
620.874	0.0150018
620.953	0.0149016
621.031	0.0149003
621.109	0.0149444
621.187	0.0148225
621.265	0.0147976
621.343	0.0149326
621.421	0.0149422
621.499	0.0147980
621.578	0.0148229
621.656	0.0148025
621.734	0.0148107
621.812	0.0149041
621.890	0.0147520
621.968	0.0147123
622.046	0.0145226
622.124	0.0145547
622.203	0.0142999
622.281	0.0142859
622.359	0.0143005
622.437	0.0143168
622.515	0.0140210
622.593	0.0140170
622.671	0.0138656
622.749	0.0138718
622.828	0.0137809
622.906	0.0139404
622.984	0.0138461
623.062	0.0139063
623.140	0.0139732
623.218	0.0138577
623.296	0.0140247
623.374	0.0140694
623.453	0.0141032
623.531	0.0140842
623.609	0.0142454
623.687	0.0141523
623.765	0.0143481
623.843	0.0143274
623.921	0.0143594
623.999	0.0142712
624.078	0.0141643
624.156	0.0141814
624.234	0.0142767
624.312	0.0141276
624.390	0.0142150
624.468	0.0143047
624.546	0.0141769
624.624	0.0142558
624.703	0.0143967
624.781	0.0143751
624.859	0.0144180
624.937	0.0144458
625.015	0.0146024
625.093	0.0146254
625.171	0.0147327
625.249	0.0148363
625.328	0.0147328
625.406	0.0149448
625.484	0.0149475
625.562	0.0148267
625.640	0.0148440
625.718	0.0150410
625.796	0.0150491
625.874	0.0150169
625.953	0.0149092
626.031	0.0151185
626.109	0.0151283
626.187	0.0149494
626.265	0.0148919
626.343	0.0148215
626.421	0.0148791
626.499	0.0147974
626.578	0.0147872
626.656	0.0147147
626.734	0.0149525
626.812	0.0148872
626.890	0.0148129
626.968	0.0147913
627.046	0.0150445
627.124	0.0150064
627.203	0.0150258
627.281	0.0150815
627.359	0.0151788
627.437	0.0151773
627.515	0.0151205
627.593	0.0152660
627.671	0.0151737
627.749	0.0152262
627.828	0.0150918
627.906	0.0151986
627.984	0.0152263
628.062	0.0154278
628.140	0.0152168
628.218	0.0152696
628.296	0.0151621
628.374	0.0152986
628.453	0.0152840
628.531	0.0151939
628.609	0.0151017
628.687	0.0150836
628.765	0.0150546
628.843	0.0150247
628.921	0.0149385
628.999	0.0147527
629.078	0.0145825
629.156	0.0147745
629.234	0.0147079
629.312	0.0145292
629.390	0.0146951
629.468	0.0145262
629.546	0.0147123
629.624	0.0147065
629.703	0.0146661
629.781	0.0149247
629.859	0.0147883
629.937	0.0147093
630.015	0.0146860
630.093	0.0148020
630.171	0.0146423
630.249	0.0146878
630.328	0.0146609
630.406	0.0145937
630.484	0.0145173
630.562	0.0145516
630.640	0.0145163
630.718	0.0145264
630.796	0.0144740
630.874	0.0145257
630.953	0.0145589
631.031	0.0145448
631.109	0.0145544
631.187	0.0146188
631.265	0.0145488
631.343	0.0143928
631.421	0.0145010
631.499	0.0145390
631.578	0.0146983
631.656	0.0145938
631.734	0.0145130
631.812	0.0145412
631.890	0.0145811
631.968	0.0146363
632.046	0.0146848
632.124	0.0146172
632.203	0.0146129
632.281	0.0145314
632.359	0.0146261
632.437	0.0146088
632.515	0.0147003
632.593	0.0147028
632.671	0.0147916
632.749	0.0146410
632.828	0.0145341
632.906	0.0146314
632.984	0.0147286
633.062	0.0146600
633.140	0.0146667
633.218	0.0147355
633.296	0.0148499
633.374	0.0147317
633.453	0.0146819
633.531	0.0145710
633.609	0.0147140
633.687	0.0147942
633.765	0.0146462
633.843	0.0145464
633.921	0.0146944
633.999	0.0146896
634.078	0.0147358
634.156	0.0148941
634.234	0.0148779
634.312	0.0147890
634.390	0.0147906
634.468	0.0147343
634.546	0.0148347
634.624	0.0148569
634.703	0.0147630
634.781	0.0147387
634.859	0.0147220
634.937	0.0147439
635.015	0.0146346
635.093	0.0148205
635.171	0.0148245
635.249	0.0148738
635.328	0.0149064
635.406	0.0150965
635.484	0.0150716
635.562	0.0152578
635.640	0.0154329
635.718	0.0153133
635.796	0.0153238
635.874	0.0154559
635.953	0.0154137
636.031	0.0152831
636.109	0.0151511
636.187	0.0151632
636.265	0.0151308
636.343	0.0148792
636.421	0.0146130
636.499	0.0144052
636.578	0.0142355
636.656	0.0142546
636.734	0.0142698
636.812	0.0141637
636.890	0.0139902
636.968	0.0142515
637.046	0.0142609
637.124	0.0144288
637.203	0.0145417
637.281	0.0145879
637.359	0.0146278
637.437	0.0147282
637.515	0.0148962
637.593	0.0148344
637.671	0.0149291
637.749	0.0150741
637.828	0.0151022
637.906	0.0152453
637.984	0.0151943
638.062	0.0152668
638.140	0.0154411
638.218	0.0153210
638.296	0.0154527
638.374	0.0153929
638.453	0.0154103
638.531	0.0152956
638.609	0.0153247
638.687	0.0152688
638.765	0.0153283
638.843	0.0151499
638.921	0.0151772
638.999	0.0150042
639.078	0.0149617
639.156	0.0148599
639.234	0.0148914
639.312	0.0148222
639.390	0.0148536
639.468	0.0148001
639.546	0.0146480
639.624	0.0148075
639.703	0.0147545
639.781	0.0147406
639.859	0.0148558
639.937	0.0147692
640.015	0.0148685
640.093	0.0149217
640.171	0.0149963
640.249	0.0149858
640.328	0.0149149
640.406	0.0149527
640.484	0.0147608
640.562	0.0148613
640.640	0.0147715
640.718	0.0148166
640.796	0.0148508
640.874	0.0147316
640.953	0.0147268
641.031	0.0146005
641.109	0.0148233
641.187	0.0148069
641.265	0.0147686
641.343	0.0147063
641.421	0.0148547
641.499	0.0147208
641.578	0.0148693
641.656	0.0149566
641.734	0.0148827
641.812	0.0149227
641.890	0.0152271
641.968	0.0152319
642.046	0.0151680
642.124	0.0151250
642.203	0.0152926
642.281	0.0151907
642.359	0.0152091
642.437	0.0153451
642.515	0.0152358
642.593	0.0151859
642.671	0.0151707
642.749	0.0152348
642.828	0.0150477
642.906	0.0149590
642.984	0.0148306
643.062	0.0148862
643.140	0.0148895
643.218	0.0148611
643.296	0.0147585
643.374	0.0150262
643.453	0.0150607
643.531	0.0151084
643.609	0.0151055
643.687	0.0151543
643.765	0.0151475
643.843	0.0153195
643.921	0.0153141
643.999	0.0151962
644.078	0.0153684
644.156	0.0154082
644.234	0.0151111
644.312	0.0149876
644.390	0.0150272
644.468	0.0148412
644.546	0.0147815
644.624	0.0147002
644.703	0.0147675
644.781	0.0146775
644.859	0.0146285
644.937	0.0144855
645.015	0.0144344
645.093	0.0144627
645.171	0.0145306
645.249	0.0146689
645.328	0.0145465
645.406	0.0144147
645.484	0.0145654
645.562	0.0145932
645.640	0.0145796
645.718	0.0146872
645.796	0.0145047
645.874	0.0145264
645.953	0.0145026
646.031	0.0145145
646.109	0.0143305
646.187	0.0142455
646.265	0.0142666
646.343	0.0142218
646.421	0.0140683
646.499	0.0141731
646.578	0.0141071
646.656	0.0141204
646.734	0.0141173
646.812	0.0141170
646.890	0.0141438
646.968	0.0140752
647.046	0.0142741
647.124	0.0143764
647.203	0.0145266
647.281	0.0147961
647.359	0.0148259
647.437	0.0150436
647.515	0.0151489
647.593	0.0151372
647.671	0.0151321
647.749	0.0152013
647.828	0.0150282
647.906	0.0149805
647.984	0.0150182
648.062	0.0148822
648.140	0.0149220
648.218	0.0149142
648.296	0.0147545
648.374	0.0149411
648.453	0.0149581
648.531	0.0148019
648.609	0.0148080
648.687	0.0150158
648.765	0.0149671
648.843	0.0150523
648.921	0.0148656
648.999	0.0148415
649.078	0.0148878
649.156	0.0149446
649.234	0.0148103
649.312	0.0149287
649.390	0.0148452
649.468	0.0148104
649.546	0.0150527
649.624	0.0148727
649.703	0.0148167
649.781	0.0148697
649.859	0.0148699
649.937	0.0148708
650.015	0.0148458
650.093	0.0149744
650.171	0.0148918
650.249	0.0148962
650.328	0.0147830
650.406	0.0146812
650.484	0.0150108
650.562	0.0149426
650.640	0.0149197
650.718	0.0149741
650.796	0.0150057
650.874	0.0150468
650.953	0.0150969
651.031	0.0151090
651.109	0.0152374
651.187	0.0151889
651.265	0.0153033
651.343	0.0153272
651.421	0.0153092
651.499	0.0154661
651.578	0.0156121
651.656	0.0155333
651.734	0.0156260
651.812	0.0156686
651.890	0.0155698
651.968	0.0155067
652.046	0.0154994
652.124	0.0156457
652.203	0.0154800
652.281	0.0152482
652.359	0.0151961
652.437	0.0151080
652.515	0.0148916
652.593	0.0147854
652.671	0.0148663
652.749	0.0147217
652.828	0.0144746
652.906	0.0144213
652.984	0.0145155
653.062	0.0145966
653.140	0.0145247
653.218	0.0144766
653.296	0.0145435
653.374	0.0145802
653.453	0.0147060
653.531	0.0146674
653.609	0.0147707
653.687	0.0148583
653.765	0.0151038
653.843	0.0150145
653.921	0.0149680
653.999	0.0151099
654.078	0.0150948
654.156	0.0149357
654.234	0.0150905
654.312	0.0148109
654.390	0.0149089
654.468	0.0149905
654.546	0.0148624
654.624	0.0147360
654.703	0.0147971
654.781	0.0147869
654.859	0.0147972
654.937	0.0148323
655.015	0.0149266
655.093	0.0149470
655.171	0.0149709
655.249	0.0149521
655.328	0.0150453
655.406	0.0151138
655.484	0.0149909
655.562	0.0149727
655.640	0.0149809
655.718	0.0149955
655.796	0.0149358
655.874	0.0150021
655.953	0.0150701
656.031	0.0151008
656.109	0.0151034
656.187	0.0150345
656.265	0.0150478
656.343	0.0152165
656.421	0.0152655
656.499	0.0154266
656.578	0.0152913
656.656	0.0151677
656.734	0.0150347
656.812	0.0149906
656.890	0.0148155
656.968	0.0146758
657.046	0.0144475
657.124	0.0143098
657.203	0.0140411
657.281	0.0140856
657.359	0.0138476
657.437	0.0137349
657.515	0.0136159
657.593	0.0134994
657.671	0.0134634
657.749	0.0134854
657.828	0.0134518
657.906	0.0136326
657.984	0.0136783
658.062	0.0137401
658.140	0.0137745
658.218	0.0140271
658.296	0.0141485
658.374	0.0142297
658.453	0.0142130
658.531	0.0143720
658.609	0.0144508
658.687	0.0144881
658.765	0.0146311
658.843	0.0146516
658.921	0.0148582
658.999	0.0148472
659.078	0.0147395
659.156	0.0148328
659.234	0.0150311
659.312	0.0148162
659.390	0.0149458
659.468	0.0150180
659.546	0.0151665
659.624	0.0151283
659.703	0.0151263
659.781	0.0152795
659.859	0.0151535
659.937	0.0152544
660.015	0.0152269
660.093	0.0152302
660.171	0.0151383
660.249	0.0153062
660.328	0.0153764
660.406	0.0154233
660.484	0.0155606
660.562	0.0156542
660.640	0.0156875
660.718	0.0157333
660.796	0.0160061
660.874	0.0160613
660.953	0.0159929
661.031	0.0161850
661.109	0.0161727
661.187	0.0160197
661.265	0.0161087
661.343	0.0162238
661.421	0.0159105
661.499	0.0159723
661.578	0.0158582
661.656	0.0156865
661.734	0.0156252
661.812	0.0153840
661.890	0.0154028
661.968	0.0153699
662.046	0.0152855
662.124	0.0153434
662.203	0.0151824
662.281	0.0152468
662.359	0.0152108
662.437	0.0151547
662.515	0.0150042
662.593	0.0148778
662.671	0.0147098
662.749	0.0147616
662.828	0.0146712
662.906	0.0146845
662.984	0.0145478
663.062	0.0146228
663.140	0.0144986
663.218	0.0147577
663.296	0.0146552
663.374	0.0145688
663.453	0.0147833
663.531	0.0149454
663.609	0.0151560
663.687	0.0152546
663.765	0.0153474
663.843	0.0154105
663.921	0.0154062
663.999	0.0155566
664.078	0.0155655
664.156	0.0155636
664.234	0.0155921
664.312	0.0156886
664.390	0.0156207
664.468	0.0154092
664.546	0.0154657
664.624	0.0154426
664.703	0.0154945
664.781	0.0152914
664.859	0.0152557
664.937	0.0151931
665.015	0.0152508
665.093	0.0151583
665.171	0.0149824
665.249	0.0150533
665.328	0.0149723
665.406	0.0149461
665.484	0.0149067
665.562	0.0149310
665.640	0.0149109
665.718	0.0148721
665.796	0.0148234
665.874	0.0148148
665.953	0.0147735
666.031	0.0146630
666.109	0.0148082
666.187	0.0145994
666.265	0.0145856
666.343	0.0148143
666.421	0.0146307
666.499	0.0147181
666.578	0.0146414
666.656	0.0146419
666.734	0.0145898
666.812	0.0146302
666.890	0.0145666
666.968	0.0146395
667.046	0.0146100
667.124	0.0147346
667.203	0.0145622
667.281	0.0147600
667.359	0.0148115
667.437	0.0147923
667.515	0.0149438
667.593	0.0148585
667.671	0.0148019
667.749	0.0150311
667.828	0.0150362
667.906	0.0150219
667.984	0.0149707
668.062	0.0148197
668.140	0.0147826
668.218	0.0147718
668.296	0.0148705
668.374	0.0148288
668.453	0.0147537
668.531	0.0148325
668.609	0.0148621
668.687	0.0148823
668.765	0.0149667
668.843	0.0149078
668.921	0.0148602
668.999	0.0149962
669.078	0.0148406
669.156	0.0149613
669.234	0.0149789
669.312	0.0149233
669.390	0.0151008
669.468	0.0150828
669.546	0.0151402
669.624	0.0152460
669.703	0.0151599
669.781	0.0149192
669.859	0.0150519
669.937	0.0150140
670.015	0.0151929
670.093	0.0151899
670.171	0.0151607
670.249	0.0151127
670.328	0.0151180
670.406	0.0148681
670.484	0.0148501
670.562	0.0146679
670.640	0.0147201
670.718	0.0144336
670.796	0.0143363
670.874	0.0143672
670.953	0.0143843
671.031	0.0144018
671.109	0.0144660
671.187	0.0145531
671.265	0.0144443
671.343	0.0146179
671.421	0.0147018
671.499	0.0148021
671.578	0.0149818
671.656	0.0150706
671.734	0.0150560
671.812	0.0153004
671.890	0.0153335
671.968	0.0153381
672.046	0.0154862
672.124	0.0157214
672.203	0.0156311
672.281	0.0155315
672.359	0.0157325
672.437	0.0156413
672.515	0.0158104
672.593	0.0156711
672.671	0.0155892
672.749	0.0157375
672.828	0.0156925
672.906	0.0156639
672.984	0.0155586
673.062	0.0155244
673.140	0.0155548
673.218	0.0156615
673.296	0.0156358
673.374	0.0154781
673.453	0.0155241
673.531	0.0153718
673.609	0.0152257
673.687	0.0151955
673.765	0.0150686
673.843	0.0151472
673.921	0.0151793
673.999	0.0150177
674.078	0.0151096
674.156	0.0150410
674.234	0.0148176
674.312	0.0149531
674.390	0.0150241
674.468	0.0149812
674.546	0.0149084
674.624	0.0150230
674.703	0.0151953
674.781	0.0150101
674.859	0.0150925
674.937	0.0152692
675.015	0.0153006
675.093	0.0151887
675.171	0.0153398
675.249	0.0153568
675.328	0.0154342
675.406	0.0154068
675.484	0.0155949
675.562	0.0154563
675.640	0.0155094
675.718	0.0154887
675.796	0.0153510
675.874	0.0153826
675.953	0.0153974
676.031	0.0151974
676.109	0.0151816
676.187	0.0153120
676.265	0.0151115
676.343	0.0151984
676.421	0.0151622
676.499	0.0150587
676.578	0.0149935
676.656	0.0150485
676.734	0.0150629
676.812	0.0150520
676.890	0.0150713
676.968	0.0149757
677.046	0.0150946
677.124	0.0151401
677.203	0.0150558
677.281	0.0150346
677.359	0.0152293
677.437	0.0150874
677.515	0.0150967
677.593	0.0152592
677.671	0.0150227
677.749	0.0150771
677.828	0.0151694
677.906	0.0150226
677.984	0.0149104
678.062	0.0150389
678.140	0.0151542
678.218	0.0148671
678.296	0.0148845
678.374	0.0149306
678.453	0.0150153
678.531	0.0149502
678.609	0.0149160
678.687	0.0150226
678.765	0.0149976
678.843	0.0150301
678.921	0.0149831
678.999	0.0149264
679.078	0.0148136
679.156	0.0150163
679.234	0.0148885
679.312	0.0148999
679.390	0.0150198
679.468	0.0149527
679.546	0.0150165
679.624	0.0149473
679.703	0.0148587
679.781	0.0150002
679.859	0.0152789
679.937	0.0150426
680.015	0.0150609
680.093	0.0150977
680.171	0.0152893
680.249	0.0153181
680.328	0.0153016
680.406	0.0153159
680.484	0.0152937
680.562	0.0152607
680.640	0.0151581
680.718	0.0151112
680.796	0.0151968
680.874	0.0148220
680.953	0.0148005
681.031	0.0146526
681.109	0.0147736
681.187	0.0146092
681.265	0.0146239
681.343	0.0147170
681.421	0.0147010
681.499	0.0147286
681.578	0.0147461
681.656	0.0147843
681.734	0.0149369
681.812	0.0149416
681.890	0.0150791
681.968	0.0151438
682.046	0.0152492
682.124	0.0153055
682.203	0.0153364
682.281	0.0154464
682.359	0.0154467
682.437	0.0155830
682.515	0.0156290
682.593	0.0157095
682.671	0.0156741
682.749	0.0157850
682.828	0.0158250
682.906	0.0159171
682.984	0.0158095
683.062	0.0157249
683.140	0.0159190
683.218	0.0159122
683.296	0.0158604
683.374	0.0157362
683.453	0.0156802
683.531	0.0155971
683.609	0.0154362
683.687	0.0153375
683.765	0.0151510
683.843	0.0149932
683.921	0.0150751
683.999	0.0149373
684.078	0.0148567
684.156	0.0146455
684.234	0.0145798
684.312	0.0147766
684.390	0.0146841
684.468	0.0147578
684.546	0.0145800
684.624	0.0146884
684.703	0.0146500
684.781	0.0148931
684.859	0.0150278
684.937	0.0150996
685.015	0.0151399
685.093	0.0152325
685.171	0.0153209
685.249	0.0154215
685.328	0.0153442
685.406	0.0153375
685.484	0.0153360
685.562	0.0152197
685.640	0.0152946
685.718	0.0152208
685.796	0.0151956
685.874	0.0151469
685.953	0.0150161
686.031	0.0149523
686.109	0.0151067
686.187	0.0150146
686.265	0.0150195
686.343	0.0148069
686.421	0.0148837
686.499	0.0149457
686.578	0.0149889
686.656	0.0148950
686.734	0.0148836
686.812	0.0149284
686.890	0.0147213
686.968	0.0147436
687.046	0.0148071
687.124	0.0146862
687.203	0.0147997
687.281	0.0145535
687.359	0.0145266
687.437	0.0146759
687.515	0.0145401
687.593	0.0146550
687.671	0.0148062
687.749	0.0146660
687.828	0.0148846
687.906	0.0148975
687.984	0.0149686
688.062	0.0151609
688.140	0.0152237
688.218	0.0152280
688.296	0.0152581
688.374	0.0153431
688.453	0.0152601
688.531	0.0153670
688.609	0.0154614
688.687	0.0155543
688.765	0.0155467
688.843	0.0155756
688.921	0.0154307
688.999	0.0155568
689.078	0.0155816
689.156	0.0155308
689.234	0.0156466
689.312	0.0155137
689.390	0.0154878
689.468	0.0153552
689.546	0.0153791
689.624	0.0152981
689.703	0.0154625
689.781	0.0151041
689.859	0.0151001
689.937	0.0151024
690.015	0.0149017
690.093	0.0149908
690.171	0.0147649
690.249	0.0147182
690.328	0.0145915
690.406	0.0147072
690.484	0.0146503
690.562	0.0144206
690.640	0.0144704
690.718	0.0146418
690.796	0.0144299
690.874	0.0146440
690.953	0.0146049
691.031	0.0145577
691.109	0.0146213
691.187	0.0146000
691.265	0.0145058
691.343	0.0146389
691.421	0.0144289
691.499	0.0143392
691.578	0.0143865
691.656	0.0143890
691.734	0.0142992
691.812	0.0142818
691.890	0.0143061
691.968	0.0143796
692.046	0.0144078
692.124	0.0143771
692.203	0.0144489
692.281	0.0145592
692.359	0.0145805
692.437	0.0145507
692.515	0.0145752
692.593	0.0144579
692.671	0.0146397
692.749	0.0147066
692.828	0.0145394
692.906	0.0146955
692.984	0.0146760
693.062	0.0146316
693.140	0.0147742
693.218	0.0146783
693.296	0.0148666
693.374	0.0148365
693.453	0.0147996
693.531	0.0148425
693.609	0.0148731
693.687	0.0149604
693.765	0.0150123
693.843	0.0150904
693.921	0.0150195
693.999	0.0151051
694.078	0.0154227
694.156	0.0153381
694.234	0.0151661
694.312	0.0153292
694.390	0.0154218
694.468	0.0152969
694.546	0.0152640
694.624	0.0151249
694.703	0.0152235
694.781	0.0152363
694.859	0.0150094
694.937	0.0150693
695.015	0.0150624
695.093	0.0150204
695.171	0.0150828
695.249	0.0149871
695.328	0.0150284
695.406	0.0148688
695.484	0.0149451
695.562	0.0150062
695.640	0.0150159
695.718	0.0147099
695.796	0.0148128
695.874	0.0149741
695.953	0.0147577
696.031	0.0145966
696.109	0.0147558
696.187	0.0147784
696.265	0.0149049
696.343	0.0148554
696.421	0.0146990
696.499	0.0148175
696.578	0.0146562
696.656	0.0147344
696.734	0.0146926
696.812	0.0146979
696.890	0.0149236
696.968	0.0148889
697.046	0.0148228
697.124	0.0147567
697.203	0.0149467
697.281	0.0149895
697.359	0.0149511
697.437	0.0151154
697.515	0.0151909
697.593	0.0151268
697.671	0.0152594
697.749	0.0151841
697.828	0.0153075
697.906	0.0153413
697.984	0.0153528
698.062	0.0152711
698.140	0.0152496
698.218	0.0152382
698.296	0.0152896
698.374	0.0152808
698.453	0.0151466
698.531	0.0151060
698.609	0.0149014
698.687	0.0148528
698.765	0.0146290
698.843	0.0146849
698.921	0.0145442
698.999	0.0144476
699.078	0.0142956
699.156	0.0142311
699.234	0.0141754
699.312	0.0142950
699.390	0.0140552
699.468	0.0141113
699.546	0.0142193
699.624	0.0141370
699.703	0.0142302
699.781	0.0142825
699.859	0.0142238
699.937	0.0143829
700.015	0.0143513
700.093	0.0143633
700.171	0.0144859
700.249	0.0144276
700.328	0.0144878
700.406	0.0145112
700.484	0.0145359
700.562	0.0146272
700.640	0.0146820
700.718	0.0148104
700.796	0.0147787
700.874	0.0146738
700.953	0.0147192
701.031	0.0147694
701.109	0.0147970
701.187	0.0146918
701.265	0.0147440
701.343	0.0145753
701.421	0.0145919
701.499	0.0145522
701.578	0.0146057
701.656	0.0145175
701.734	0.0145663
701.812	0.0144516
701.890	0.0146261
701.968	0.0146932
702.046	0.0145038
702.124	0.0146642
702.203	0.0147547
702.281	0.0147041
702.359	0.0148248
702.437	0.0148430
702.515	0.0150104
702.593	0.0151002
702.671	0.0152361
702.749	0.0153922
702.828	0.0155529
702.906	0.0155930
702.984	0.0155648
703.062	0.0157650
703.140	0.0157609
703.218	0.0156190
703.296	0.0157265
703.374	0.0157542
703.453	0.0158154
703.531	0.0157051
703.609	0.0158305
703.687	0.0158230
703.765	0.0158344
703.843	0.0157655
703.921	0.0158991
703.999	0.0159129
704.078	0.0158479
704.156	0.0158709
704.234	0.0158447
704.312	0.0159601
704.390	0.0160581
704.468	0.0159334
704.546	0.0159742
704.624	0.0158257
704.703	0.0156821
704.781	0.0158080
704.859	0.0156399
704.937	0.0155424
705.015	0.0154098
705.093	0.0153387
705.171	0.0155164
705.249	0.0152568
705.328	0.0153951
705.406	0.0152360
705.484	0.0153159
705.562	0.0151212
705.640	0.0150469
705.718	0.0152026
705.796	0.0150583
705.874	0.0150616
705.953	0.0149747
706.031	0.0149229
706.109	0.0149073
706.187	0.0149717
706.265	0.0149342
706.343	0.0146117
706.421	0.0148124
706.499	0.0147457
706.578	0.0145145
706.656	0.0145458
706.734	0.0147082
706.812	0.0146241
706.890	0.0144769
706.968	0.0144350
707.046	0.0145197
707.124	0.0144444
707.203	0.0145071
707.281	0.0144576
707.359	0.0144651
707.437	0.0145583
707.515	0.0145675
707.593	0.0145684
707.671	0.0146880
707.749	0.0148798
707.828	0.0149129
707.906	0.0150521
707.984	0.0149905
708.062	0.0151220
708.140	0.0151408
708.218	0.0152474
708.296	0.0152841
708.374	0.0152605
708.453	0.0152499
708.531	0.0153586
708.609	0.0153606
708.687	0.0153684
708.765	0.0153857
708.843	0.0153235
708.921	0.0153642
708.999	0.0153924
709.078	0.0152524
709.156	0.0151981
709.234	0.0152637
709.312	0.0152660
709.390	0.0152426
709.468	0.0151856
709.546	0.0151807
709.624	0.0151296
709.703	0.0150529
709.781	0.0150510
709.859	0.0150472
709.937	0.0149887
710.015	0.0149582
710.093	0.0150541
710.171	0.0149310
710.249	0.0149142
710.328	0.0147982
710.406	0.0148683
710.484	0.0146723
710.562	0.0146346
710.640	0.0145693
710.718	0.0145862
710.796	0.0145081
710.874	0.0145558
710.953	0.0144720
711.031	0.0143237
711.109	0.0142928
711.187	0.0143888
711.265	0.0145018
711.343	0.0143604
711.421	0.0144983
711.499	0.0144689
711.578	0.0144901
711.656	0.0145279
711.734	0.0144341
711.812	0.0145486
711.890	0.0145120
711.968	0.0144865
712.046	0.0144772
712.124	0.0146462
712.203	0.0145373
712.281	0.0146310
712.359	0.0146336
712.437	0.0146850
712.515	0.0147281
712.593	0.0147513
712.671	0.0148144
712.749	0.0148119
712.828	0.0146815
712.906	0.0147974
712.984	0.0148333
713.062	0.0148814
713.140	0.0147952
713.218	0.0148028
713.296	0.0148138
713.374	0.0148152
713.453	0.0149768
713.531	0.0148781
713.609	0.0149599
713.687	0.0148772
713.765	0.0147950
713.843	0.0148609
713.921	0.0148008
713.999	0.0149430
714.078	0.0148146
714.156	0.0148344
714.234	0.0150040
714.312	0.0149133
714.390	0.0149120
714.468	0.0149000
714.546	0.0148444
714.624	0.0148695
714.703	0.0147935
714.781	0.0148047
714.859	0.0149398
714.937	0.0148241
715.015	0.0148505
715.093	0.0147662
715.171	0.0147252
715.249	0.0147118
715.328	0.0148852
715.406	0.0146752
715.484	0.0148550
715.562	0.0147386
715.640	0.0147373
715.718	0.0146868
715.796	0.0146236
715.874	0.0146130
715.953	0.0148088
716.031	0.0146679
716.109	0.0146029
716.187	0.0147938
716.265	0.0148508
716.343	0.0147575
716.421	0.0148390
716.499	0.0146736
716.578	0.0146836
716.656	0.0148003
716.734	0.0146854
716.812	0.0146908
716.890	0.0148158
716.968	0.0148423
717.046	0.0147031
717.124	0.0146997
717.203	0.0146702
717.281	0.0146648
717.359	0.0146021
717.437	0.0144624
717.515	0.0145282
717.593	0.0144882
717.671	0.0145306
717.749	0.0143369
717.828	0.0144654
717.906	0.0144377
717.984	0.0145917
718.062	0.0147070
718.140	0.0146452
718.218	0.0148264
718.296	0.0148058
718.374	0.0148713
718.453	0.0150573
718.531	0.0150494
718.609	0.0150240
718.687	0.0149638
718.765	0.0151708
718.843	0.0150533
718.921	0.0150401
718.999	0.0148414
719.078	0.0146337
719.156	0.0146160
719.234	0.0146079
719.312	0.0144501
719.390	0.0144460
719.468	0.0143073
719.546	0.0143414
719.624	0.0142765
719.703	0.0143216
719.781	0.0144141
719.859	0.0143554
719.937	0.0144094
720.015	0.0142466
720.093	0.0143687
720.171	0.0144085
720.249	0.0146402
720.328	0.0145020
720.406	0.0145502
720.484	0.0147354
720.562	0.0146414
720.640	0.0145918
720.718	0.0145370
720.796	0.0144902
720.874	0.0145761
720.953	0.0143831
721.031	0.0144284
721.109	0.0145122
721.187	0.0143668
721.265	0.0143568
721.343	0.0142053
721.421	0.0143512
721.499	0.0144669
721.578	0.0143493
721.656	0.0144780
721.734	0.0144778
721.812	0.0145258
721.890	0.0145284
721.968	0.0145759
722.046	0.0146281
722.124	0.0146815
722.203	0.0147301
722.281	0.0146581
722.359	0.0148875
722.437	0.0149244
722.515	0.0149649
722.593	0.0148502
722.671	0.0148964
722.749	0.0149149
722.828	0.0151643
722.906	0.0150772
722.984	0.0150857
723.062	0.0151865
723.140	0.0150713
723.218	0.0152795
723.296	0.0151411
723.374	0.0150909
723.453	0.0152479
723.531	0.0151020
723.609	0.0152651
723.687	0.0152715
723.765	0.0153242
723.843	0.0153400
723.921	0.0153492
723.999	0.0152512
724.078	0.0153870
724.156	0.0154467
724.234	0.0153535
724.312	0.0153531
724.390	0.0154810
724.468	0.0156013
724.546	0.0155177
724.624	0.0156522
724.703	0.0155923
724.781	0.0155318
724.859	0.0154577
724.937	0.0155467
725.015	0.0155974
725.093	0.0157119
725.171	0.0156419
725.249	0.0157273
725.328	0.0158156
725.406	0.0156342
725.484	0.0156448
725.562	0.0153900
725.640	0.0154875
725.718	0.0156059
725.796	0.0156203
725.874	0.0155376
725.953	0.0155070
726.031	0.0154424
726.109	0.0153838
726.187	0.0153799
726.265	0.0153745
726.343	0.0154066
726.421	0.0154171
726.499	0.0153166
726.578	0.0154190
726.656	0.0154324
726.734	0.0152513
726.812	0.0152038
726.890	0.0152075
726.968	0.0151240
727.046	0.0152045
727.124	0.0151334
727.203	0.0150479
727.281	0.0149928
727.359	0.0149586
727.437	0.0149301
727.515	0.0150028
727.593	0.0148045
727.671	0.0147170
727.749	0.0148001
727.828	0.0148676
727.906	0.0149408
727.984	0.0148037
728.062	0.0148116
728.140	0.0149395
728.218	0.0149879
728.296	0.0147530
728.374	0.0148848
728.453	0.0149598
728.531	0.0150859
728.609	0.0149097
728.687	0.0151471
728.765	0.0151785
728.843	0.0150808
728.921	0.0152193
728.999	0.0151287
729.078	0.0151712
729.156	0.0152015
729.234	0.0152866
729.312	0.0150992
729.390	0.0149525
729.468	0.0149805
729.546	0.0149704
729.624	0.0149265
729.703	0.0147956
729.781	0.0148435
729.859	0.0148331
729.937	0.0148002
730.015	0.0148244
730.093	0.0147280
730.171	0.0146719
730.249	0.0148446
730.328	0.0147726
730.406	0.0148083
730.484	0.0148438
730.562	0.0148155
730.640	0.0148500
730.718	0.0149203
730.796	0.0150024
730.874	0.0148580
730.953	0.0147788
731.031	0.0148353
731.109	0.0148882
731.187	0.0149339
731.265	0.0148940
731.343	0.0149357
731.421	0.0148682
731.499	0.0148010
731.578	0.0148911
731.656	0.0148223
731.734	0.0147383
731.812	0.0146208
731.890	0.0148383
731.968	0.0149833
732.046	0.0149946
732.124	0.0148973
732.203	0.0149902
732.281	0.0149809
732.359	0.0149406
732.437	0.0149889
732.515	0.0151251
732.593	0.0150163
732.671	0.0151397
732.749	0.0150461
732.828	0.0149708
732.906	0.0150701
732.984	0.0149699
733.062	0.0148631
733.140	0.0149304
733.218	0.0146729
733.296	0.0147554
733.374	0.0148065
733.453	0.0146468
733.531	0.0146745
733.609	0.0146745
733.687	0.0143998
733.765	0.0144461
733.843	0.0145594
733.921	0.0144495
733.999	0.0146272
734.078	0.0146569
734.156	0.0145863
734.234	0.0144714
734.312	0.0145011
734.390	0.0146188
734.468	0.0145624
734.546	0.0146223
734.624	0.0144389
734.703	0.0145417
734.781	0.0146613
734.859	0.0145638
734.937	0.0144415
735.015	0.0145176
735.093	0.0144316
735.171	0.0143649
735.249	0.0145485
735.328	0.0144905
735.406	0.0144436
735.484	0.0145124
735.562	0.0146326
735.640	0.0145840
735.718	0.0145602
735.796	0.0148705
735.874	0.0146160
735.953	0.0145525
736.031	0.0148217
736.109	0.0147163
736.187	0.0146138
736.265	0.0147534
736.343	0.0147113
736.421	0.0146661
736.499	0.0146398
736.578	0.0144933
736.656	0.0145187
736.734	0.0145779
736.812	0.0144966
736.890	0.0143218
736.968	0.0144417
737.046	0.0144250
737.124	0.0144156
737.203	0.0146439
737.281	0.0146057
737.359	0.0144466
737.437	0.0144757
737.515	0.0143630
737.593	0.0145539
737.671	0.0144382
737.749	0.0143427
737.828	0.0143935
737.906	0.0144530
737.984	0.0145496
738.062	0.0145728
738.140	0.0147782
738.218	0.0147808
738.296	0.0147182
738.374	0.0148730
738.453	0.0148009
738.531	0.0149142
738.609	0.0149628
738.687	0.0149653
738.765	0.0149730
738.843	0.0151234
738.921	0.0151122
738.999	0.0151800
739.078	0.0151385
739.156	0.0152921
739.234	0.0152270
739.312	0.0152843
739.390	0.0152749
739.468	0.0151853
739.546	0.0151371
739.624	0.0151529
739.703	0.0152634
739.781	0.0152162
739.859	0.0152126
739.937	0.0151540
740.015	0.0150864
740.093	0.0152545
740.171	0.0153606
740.249	0.0154136
740.328	0.0153591
740.406	0.0153227
740.484	0.0154550
740.562	0.0154341
740.640	0.0153131
740.718	0.0154456
740.796	0.0154980
740.874	0.0154852
740.953	0.0154041
741.031	0.0155458
741.109	0.0154752
741.187	0.0154603
741.265	0.0155152
741.343	0.0154560
741.421	0.0155405
741.499	0.0155402
741.578	0.0154556
741.656	0.0154155
741.734	0.0153490
741.812	0.0152863
741.890	0.0152425
741.968	0.0151398
742.046	0.0150005
742.124	0.0149681
742.203	0.0147962
742.281	0.0143887
742.359	0.0141399
742.437	0.0140527
742.515	0.0140645
742.593	0.0141000
742.671	0.0140476
742.749	0.0142584
742.828	0.0144736
742.906	0.0145612
742.984	0.0148070
743.062	0.0150627
743.140	0.0151201
743.218	0.0152129
743.296	0.0153177
743.374	0.0153404
743.453	0.0154880
743.531	0.0153149
743.609	0.0152837
743.687	0.0152868
743.765	0.0151436
743.843	0.0148492
743.921	0.0148976
743.999	0.0147754
744.078	0.0147125
744.156	0.0146944
744.234	0.0146978
744.312	0.0144687
744.390	0.0145959
744.468	0.0147778
744.546	0.0147574
744.624	0.0147488
744.703	0.0149360
744.781	0.0150108
744.859	0.0151130
744.937	0.0151963
745.015	0.0152756
745.093	0.0151547
745.171	0.0153421
745.249	0.0151663
745.328	0.0153400
745.406	0.0152992
745.484	0.0152959
745.562	0.0153990
745.640	0.0154149
745.718	0.0153159
745.796	0.0151978
745.874	0.0151534
745.953	0.0152978
746.031	0.0153490
746.109	0.0153429
746.187	0.0154903
746.265	0.0152177
746.343	0.0152697
746.421	0.0151349
746.499	0.0152821
746.578	0.0153814
746.656	0.0155009
746.734	0.0153199
746.812	0.0154221
746.890	0.0155112
746.968	0.0155495
747.046	0.0155266
747.124	0.0155571
747.203	0.0156372
747.281	0.0155138
747.359	0.0154781
747.437	0.0154064
747.515	0.0156493
747.593	0.0154189
747.671	0.0155234
747.749	0.0154831
747.828	0.0154320
747.906	0.0151870
747.984	0.0154012
748.062	0.0154436
748.140	0.0154168
748.218	0.0154562
748.296	0.0153770
748.374	0.0154066
748.453	0.0154823
748.531	0.0154358
748.609	0.0154426
748.687	0.0153085
748.765	0.0153213
748.843	0.0154424
748.921	0.0153289
748.999	0.0152232
749.078	0.0150697
749.156	0.0150545
749.234	0.0149373
749.312	0.0150937
749.390	0.0149380
749.468	0.0147864
749.546	0.0147169
749.624	0.0147622
749.703	0.0148672
749.781	0.0148420
749.859	0.0149177
749.937	0.0147401
750.015	0.0147118
750.093	0.0147121
750.171	0.0146581
750.249	0.0146946
750.328	0.0148087
750.406	0.0147253
750.484	0.0146548
750.562	0.0146021
750.640	0.0146348
750.718	0.0145154
750.796	0.0146247
750.874	0.0144881
750.953	0.0144556
751.031	0.0145189
751.109	0.0145041
751.187	0.0145899
751.265	0.0145015
751.343	0.0144769
751.421	0.0145930
751.499	0.0146288
751.578	0.0144811
751.656	0.0145529
751.734	0.0146811
751.812	0.0147621
751.890	0.0146953
751.968	0.0147607
752.046	0.0148752
752.124	0.0148370
752.203	0.0147520
752.281	0.0149809
752.359	0.0149535
752.437	0.0149976
752.515	0.0150449
752.593	0.0149104
752.671	0.0149561
752.749	0.0148674
752.828	0.0150929
752.906	0.0149744
752.984	0.0151376
753.062	0.0149909
753.140	0.0151684
753.218	0.0151249
753.296	0.0153153
753.374	0.0154601
753.453	0.0153758
753.531	0.0154603
753.609	0.0155338
753.687	0.0154993
753.765	0.0156439
753.843	0.0157447
753.921	0.0156144
753.999	0.0156522
754.078	0.0157969
754.156	0.0158960
754.234	0.0159571
754.312	0.0157559
754.390	0.0158844
754.468	0.0157697
754.546	0.0156512
754.624	0.0156898
754.703	0.0155696
754.781	0.0156017
754.859	0.0153507
754.937	0.0151997
755.015	0.0153493
755.093	0.0152802
755.171	0.0152148
755.249	0.0151566
755.328	0.0152017
755.406	0.0151681
755.484	0.0152490
755.562	0.0150623
755.640	0.0149229
755.718	0.0149377
755.796	0.0150170
755.874	0.0150717
755.953	0.0149815
756.031	0.0148958
756.109	0.0149732
756.187	0.0149837
756.265	0.0149387
756.343	0.0149782
756.421	0.0149681
756.499	0.0147621
756.578	0.0148553
756.656	0.0148242
756.734	0.0146871
756.812	0.0145549
756.890	0.0143665
756.968	0.0145573
757.046	0.0144334
757.124	0.0143371
757.203	0.0143449
757.281	0.0143996
757.359	0.0142578
757.437	0.0142544
757.515	0.0142003
757.593	0.0140931
757.671	0.0141025
757.749	0.0139717
757.828	0.0140087
757.906	0.0139752
757.984	0.0140585
758.062	0.0138790
758.140	0.0136863
758.218	0.0137913
758.296	0.0137973
758.374	0.0136281
758.453	0.0135754
758.531	0.0136039
758.609	0.0135074
758.687	0.0134891
758.765	0.0133887
758.843	0.0133302
758.921	0.0132679
758.999	0.0132456
759.078	0.0132166
759.156	0.0131385
759.234	0.0131557
759.312	0.0131456
759.390	0.0131815
759.468	0.0132043
759.546	0.0132375
759.624	0.0131747
759.703	0.0133701
759.781	0.0134048
759.859	0.0134708
759.937	0.0135316
760.015	0.0137151
760.093	0.0136834
760.171	0.0138855
760.249	0.0138466
760.328	0.0138380
760.406	0.0141485
760.484	0.0141875
760.562	0.0142550
760.640	0.0143318
760.718	0.0142058
760.796	0.0142204
760.874	0.0143489
760.953	0.0142602
761.031	0.0145123
761.109	0.0147830
761.187	0.0148584
761.265	0.0150663
761.343	0.0152779
761.421	0.0156258
761.499	0.0159792
761.578	0.0163831
761.656	0.0166039
761.734	0.0170082
761.812	0.0172646
761.890	0.0174453
761.968	0.0176963
762.046	0.0176580
762.124	0.0176625
762.203	0.0175501
762.281	0.0173455
762.359	0.0171245
762.437	0.0169756
762.515	0.0165800
762.593	0.0163196
762.671	0.0160875
762.749	0.0158156
762.828	0.0153308
762.906	0.0155598
762.984	0.0155409
763.062	0.0153304
763.140	0.0152230
763.218	0.0152297
763.296	0.0151202
763.374	0.0153358
763.453	0.0154324
763.531	0.0153300
763.609	0.0153478
763.687	0.0153316
763.765	0.0154868
763.843	0.0154750
763.921	0.0156989
763.999	0.0155270
764.078	0.0155092
764.156	0.0157214
764.234	0.0156480
764.312	0.0155115
764.390	0.0155317
764.468	0.0152938
764.546	0.0153059
764.624	0.0149142
764.703	0.0149782
764.781	0.0147890
764.859	0.0149268
764.937	0.0149361
765.015	0.0150146
765.093	0.0152641
765.171	0.0154805
765.249	0.0156707
765.328	0.0156075
765.406	0.0158494
765.484	0.0158514
765.562	0.0157834
765.640	0.0157998
765.718	0.0157673
765.796	0.0156466
765.874	0.0155661
765.953	0.0153980
766.031	0.0150153
766.109	0.0149030
766.187	0.0146192
766.265	0.0142565
766.343	0.0141136
766.421	0.0138299
766.499	0.0135189
766.578	0.0132853
766.656	0.0132916
766.734	0.0132540
766.812	0.0132858
766.890	0.0134465
766.968	0.0136042
767.046	0.0136018
767.124	0.0137379
767.203	0.0137091
767.281	0.0139995
767.359	0.0140187
767.437	0.0141165
767.515	0.0141106
767.593	0.0142338
767.671	0.0141920
767.749	0.0140919
767.828	0.0143243
767.906	0.0143835
767.984	0.0146289
768.062	0.0146584
768.140	0.0148405
768.218	0.0148940
768.296	0.0150968
768.374	0.0151696
768.453	0.0153059
768.531	0.0153651
768.609	0.0156322
768.687	0.0156075
768.765	0.0156377
768.843	0.0156566
768.921	0.0157677
768.999	0.0157776
769.078	0.0156947
769.156	0.0156303
769.234	0.0156616
769.312	0.0156538
769.390	0.0156339
769.468	0.0156522
769.546	0.0155740
769.624	0.0156267
769.703	0.0155344
769.781	0.0154771
769.859	0.0154514
769.937	0.0156280
770.015	0.0157438
770.093	0.0157528
770.171	0.0158269
770.249	0.0157914
770.328	0.0158758
770.406	0.0159255
770.484	0.0159295
770.562	0.0160144
770.640	0.0160487
770.718	0.0157990
770.796	0.0158807
770.874	0.0158562
770.953	0.0157612
771.031	0.0158081
771.109	0.0156738
771.187	0.0156644
771.265	0.0156303
771.343	0.0155402
771.421	0.0154839
771.499	0.0155008
771.578	0.0153831
771.656	0.0153153
771.734	0.0151206
771.812	0.0150394
771.890	0.0151240
771.968	0.0149884
772.046	0.0148770
772.124	0.0145705
772.203	0.0144016
772.281	0.0144658
772.359	0.0143445
772.437	0.0142224
772.515	0.0141502
772.593	0.0141200
772.671	0.0141574
772.749	0.0142180
772.828	0.0144332
772.906	0.0146329
772.984	0.0147494
773.062	0.0148724
773.140	0.0150163
773.218	0.0151709
773.296	0.0152407
773.374	0.0152347
773.453	0.0153188
773.531	0.0153745
773.609	0.0152242
773.687	0.0152718
773.765	0.0151979
773.843	0.0150347
773.921	0.0149445
773.999	0.0146461
774.078	0.0146465
774.156	0.0146106
774.234	0.0144685
774.312	0.0142768
774.390	0.0142200
774.468	0.0141727
774.546	0.0140055
774.624	0.0140771
774.703	0.0140229
774.781	0.0140125
774.859	0.0141802
774.937	0.0140805
775.015	0.0141721
775.093	0.0142413
775.171	0.0142151
775.249	0.0141837
775.328	0.0144360
775.406	0.0143744
775.484	0.0143469
775.562	0.0144757
775.640	0.0145740
775.718	0.0147214
775.796	0.0148219
775.874	0.0147186
775.953	0.0148755
776.031	0.0149712
776.109	0.0150072
776.187	0.0151739
776.265	0.0153062
776.343	0.0152063
776.421	0.0151244
776.499	0.0151704
776.578	0.0153429
776.656	0.0153622
776.734	0.0152310
776.812	0.0153905
776.890	0.0151736
776.968	0.0151530
777.046	0.0151986
777.124	0.0152467
777.203	0.0150918
777.281	0.0150887
777.359	0.0150575
777.437	0.0151556
777.515	0.0151869
777.593	0.0151631
777.671	0.0150108
777.749	0.0150543
777.828	0.0150671
777.906	0.0150124
777.984	0.0149915
778.062	0.0148180
778.140	0.0148766
778.218	0.0149685
778.296	0.0149020
778.374	0.0148492
778.453	0.0148666
778.531	0.0147924
778.609	0.0148168
778.687	0.0148520
778.765	0.0146861
778.843	0.0145396
778.921	0.0147128
778.999	0.0146331
779.078	0.0145480
779.156	0.0147243
779.234	0.0147064
779.312	0.0145090
779.390	0.0145708
779.468	0.0144185
779.546	0.0143790
779.624	0.0141939
779.703	0.0141978
779.781	0.0143102
779.859	0.0143708
779.937	0.0142673
780.015	0.0141557
780.093	0.0142020
780.171	0.0142645
780.249	0.0143732
780.328	0.0144006
780.406	0.0143498
780.484	0.0144752
780.562	0.0144865
780.640	0.0146357
780.718	0.0148222
780.796	0.0147849
780.874	0.0149522
780.953	0.0150739
781.031	0.0152293
781.109	0.0152855
781.187	0.0154026
781.265	0.0154837
781.343	0.0152885
781.421	0.0153796
781.499	0.0156418
781.578	0.0157123
781.656	0.0156439
781.734	0.0156364
781.812	0.0156920
781.890	0.0157496
781.968	0.0155640
782.046	0.0153980
782.124	0.0153435
782.203	0.0153906
782.281	0.0150271
782.359	0.0149499
782.437	0.0148351
782.515	0.0148057
782.593	0.0145859
782.671	0.0144260
782.749	0.0144778
782.828	0.0144261
782.906	0.0143559
782.984	0.0144265
783.062	0.0143069
783.140	0.0143902
783.218	0.0145104
783.296	0.0146483
783.374	0.0147417
783.453	0.0147987
783.531	0.0149259
783.609	0.0148912
783.687	0.0152229
783.765	0.0154010
783.843	0.0155087
783.921	0.0155634
783.999	0.0155025
784.078	0.0155917
784.156	0.0153782
784.234	0.0155772
784.312	0.0155176
784.390	0.0155749
784.468	0.0154848
784.546	0.0155398
784.624	0.0154369
784.703	0.0153902
784.781	0.0152296
784.859	0.0154235
784.937	0.0153893
785.015	0.0153352
785.093	0.0152939
785.171	0.0153402
785.249	0.0152779
785.328	0.0151163
785.406	0.0152020
785.484	0.0152054
785.562	0.0151713
785.640	0.0151324
785.718	0.0150570
785.796	0.0149832
785.874	0.0149220
785.953	0.0148602
786.031	0.0148625
786.109	0.0148853
786.187	0.0148242
786.265	0.0146519
786.343	0.0146535
786.421	0.0148029
786.499	0.0146770
786.578	0.0145866
786.656	0.0145226
786.734	0.0146001
786.812	0.0144190
786.890	0.0145560
786.968	0.0143859
787.046	0.0143484
787.124	0.0145535
787.203	0.0146086
787.281	0.0145927
787.359	0.0146363
787.437	0.0146194
787.515	0.0146040
787.593	0.0148193
787.671	0.0147490
787.749	0.0147861
787.828	0.0148103
787.906	0.0147824
787.984	0.0149220
788.062	0.0150174
788.140	0.0149948
788.218	0.0149686
788.296	0.0149173
788.374	0.0148410
788.453	0.0148666
788.531	0.0148684
788.609	0.0149562
788.687	0.0149565
788.765	0.0149646
788.843	0.0148950
788.921	0.0148992
788.999	0.0149974
789.078	0.0149595
789.156	0.0148862
789.234	0.0149130
789.312	0.0149516
789.390	0.0149427
789.468	0.0150311
789.546	0.0148640
789.624	0.0148846
789.703	0.0148651
789.781	0.0149625
789.859	0.0149363
789.937	0.0148562
790.015	0.0146892
790.093	0.0145828
790.171	0.0145327
790.249	0.0145528
790.328	0.0145755
790.406	0.0144653
790.484	0.0145123
790.562	0.0144257
790.640	0.0145135
790.718	0.0145394
790.796	0.0146267
790.874	0.0146136
790.953	0.0145500
791.031	0.0146068
791.109	0.0145745
791.187	0.0147232
791.265	0.0147968
791.343	0.0148212
791.421	0.0148242
791.499	0.0148383
791.578	0.0151466
791.656	0.0151247
791.734	0.0148773
791.812	0.0149384
791.890	0.0150344
791.968	0.0150469
792.046	0.0149891
792.124	0.0148447
792.203	0.0147328
792.281	0.0148206
792.359	0.0147621
792.437	0.0145948
792.515	0.0146395
792.593	0.0147049
792.671	0.0146698
792.749	0.0145533
792.828	0.0145734
792.906	0.0146738
792.984	0.0146522
793.062	0.0146313
793.140	0.0147056
793.218	0.0145663
793.296	0.0145746
793.374	0.0147513
793.453	0.0147292
793.531	0.0146899
793.609	0.0147236
793.687	0.0148058
793.765	0.0146609
793.843	0.0147187
793.921	0.0147609
793.999	0.0148230
794.078	0.0148564
794.156	0.0149209
794.234	0.0148539
794.312	0.0149740
794.390	0.0150354
794.468	0.0150664
794.546	0.0149922
794.624	0.0149435
794.703	0.0150912
794.781	0.0149982
794.859	0.0148267
794.937	0.0148314
795.015	0.0147482
795.093	0.0149004
795.171	0.0148848
795.249	0.0150199
795.328	0.0148128
795.406	0.0149625
795.484	0.0149582
795.562	0.0148889
795.640	0.0149750
795.718	0.0150157
795.796	0.0151260
795.874	0.0150926
795.953	0.0152275
796.031	0.0152551
796.109	0.0152865
796.187	0.0153417
796.265	0.0152280
796.343	0.0153277
796.421	0.0153157
796.499	0.0153933
796.578	0.0151746
796.656	0.0152442
796.734	0.0153841
796.812	0.0152277
796.890	0.0152104
796.968	0.0153319
797.046	0.0152515
797.124	0.0152604
797.203	0.0153854
797.281	0.0154588
797.359	0.0153379
797.437	0.0155960
797.515	0.0155499
797.593	0.0155087
797.671	0.0156623
797.749	0.0155961
797.828	0.0154655
797.906	0.0154546
797.984	0.0152850
798.062	0.0153361
798.140	0.0152248
798.218	0.0149257
798.296	0.0149081
798.374	0.0147784
798.453	0.0146072
798.531	0.0146033
798.609	0.0144472
798.687	0.0143458
798.765	0.0143362
798.843	0.0142188
798.921	0.0142441
798.999	0.0142109
799.078	0.0141738
799.156	0.0141269
799.234	0.0142275
799.312	0.0143551
799.390	0.0143825
799.468	0.0143011
799.546	0.0144289
799.624	0.0144728
799.703	0.0145685
799.781	0.0144601
799.859	0.0145119
799.937	0.0145114
800.015	0.0144093
800.093	0.0144246
800.171	0.0144442
800.249	0.0143636
800.328	0.0140726
800.406	0.0141342
800.484	0.0141743
800.562	0.0142349
800.640	0.0141262
800.718	0.0142430
800.796	0.0143215
800.874	0.0143169
800.953	0.0143922
801.031	0.0144310
801.109	0.0144769
801.187	0.0146584
801.265	0.0146163
801.343	0.0147860
801.421	0.0148538
801.499	0.0148638
801.578	0.0149053
801.656	0.0149960
801.734	0.0150446
801.812	0.0150457
801.890	0.0150139
801.968	0.0149432
802.046	0.0151997
802.124	0.0152036
802.203	0.0152361
802.281	0.0151434
802.359	0.0151721
802.437	0.0150542
802.515	0.0151820
802.593	0.0153255
802.671	0.0150893
802.749	0.0151991
802.828	0.0151929
802.906	0.0153859
802.984	0.0152590
803.062	0.0153177
803.140	0.0153849
803.218	0.0152956
803.296	0.0154344
803.374	0.0154375
803.453	0.0154948
803.531	0.0155370
803.609	0.0156398
803.687	0.0157946
803.765	0.0156811
803.843	0.0155431
803.921	0.0156668
803.999	0.0156786
804.078	0.0157023
804.156	0.0156792
804.234	0.0157096
804.312	0.0157001
804.390	0.0156420
804.468	0.0155460
804.546	0.0153058
804.624	0.0152930
804.703	0.0153867
804.781	0.0152817
804.859	0.0152995
804.937	0.0151308
805.015	0.0150352
805.093	0.0150707
805.171	0.0151666
805.249	0.0150818
805.328	0.0151765
805.406	0.0151156
805.484	0.0151939
805.562	0.0152053
805.640	0.0152187
805.718	0.0150344
805.796	0.0151902
805.874	0.0150343
805.953	0.0149633
806.031	0.0151592
806.109	0.0151661
806.187	0.0151870
806.265	0.0151144
806.343	0.0151769
806.421	0.0150629
806.499	0.0151444
806.578	0.0151734
806.656	0.0150421
806.734	0.0150487
806.812	0.0150998
806.890	0.0150517
806.968	0.0150633
807.046	0.0152070
807.124	0.0151390
807.203	0.0152975
807.281	0.0153500
807.359	0.0152887
807.437	0.0154054
807.515	0.0153141
807.593	0.0152622
807.671	0.0152172
807.749	0.0152647
807.828	0.0154836
807.906	0.0152831
807.984	0.0151629
808.062	0.0150442
808.140	0.0151707
808.218	0.0149722
808.296	0.0150018
808.374	0.0148123
808.453	0.0149823
808.531	0.0148300
808.609	0.0148903
808.687	0.0148719
808.765	0.0149604
808.843	0.0149139
808.921	0.0148232
808.999	0.0150057
809.078	0.0151463
809.156	0.0151898
809.234	0.0152692
809.312	0.0153024
809.390	0.0152833
809.468	0.0154004
809.546	0.0153167
809.624	0.0153821
809.703	0.0154119
809.781	0.0153918
809.859	0.0153887
809.937	0.0154377
810.015	0.0153673
810.093	0.0151862
810.171	0.0152824
810.249	0.0152374
810.328	0.0152539
810.406	0.0152634
810.484	0.0151172
810.562	0.0150954
810.640	0.0149802
810.718	0.0149417
810.796	0.0148686
810.874	0.0149288
810.953	0.0147892
811.031	0.0148023
811.109	0.0146596
811.187	0.0145982
811.265	0.0146405
811.343	0.0146658
811.421	0.0147800
811.499	0.0145422
811.578	0.0144837
811.656	0.0146526
811.734	0.0145519
811.812	0.0144376
811.890	0.0144483
811.968	0.0145761
812.046	0.0145126
812.124	0.0145665
812.203	0.0144278
812.281	0.0144837
812.359	0.0145535
812.437	0.0143591
812.515	0.0143475
812.593	0.0143714
812.671	0.0144421
812.749	0.0142574
812.828	0.0144278
812.906	0.0144036
812.984	0.0145170
813.062	0.0145744
813.140	0.0146728
813.218	0.0146475
813.296	0.0146371
813.374	0.0147717
813.453	0.0147843
813.531	0.0148974
813.609	0.0150217
813.687	0.0150618
813.765	0.0150951
813.843	0.0150977
813.921	0.0152439
813.999	0.0151935
814.078	0.0151277
814.156	0.0152328
814.234	0.0150638
814.312	0.0151483
814.390	0.0150249
814.468	0.0149000
814.546	0.0148632
814.624	0.0150163
814.703	0.0149109
814.781	0.0149361
814.859	0.0149327
814.937	0.0148807
815.015	0.0147787
815.093	0.0149721
815.171	0.0150355
815.249	0.0148400
815.328	0.0148455
815.406	0.0148060
815.484	0.0151111
815.562	0.0151049
815.640	0.0149944
815.718	0.0150030
815.796	0.0151033
815.874	0.0149010
815.953	0.0150578
816.031	0.0151582
816.109	0.0150790
816.187	0.0148927
816.265	0.0150405
816.343	0.0149270
816.421	0.0150216
816.499	0.0149437
816.578	0.0149568
816.656	0.0149673
816.734	0.0148970
816.812	0.0149039
816.890	0.0148124
816.968	0.0148772
817.046	0.0147697
817.124	0.0148073
817.203	0.0147045
817.281	0.0147637
817.359	0.0147838
817.437	0.0145922
817.515	0.0146559
817.593	0.0146262
817.671	0.0146143
817.749	0.0146901
817.828	0.0145494
817.906	0.0146505
817.984	0.0147082
818.062	0.0147772
818.140	0.0148132
818.218	0.0146991
818.296	0.0146374
818.374	0.0146426
818.453	0.0146913
818.531	0.0148964
818.609	0.0146610
818.687	0.0146634
818.765	0.0146281
818.843	0.0146909
818.921	0.0145367
818.999	0.0146696
819.078	0.0148229
819.156	0.0146148
819.234	0.0144362
819.312	0.0145052
819.390	0.0145029
819.468	0.0145514
819.546	0.0145161
819.624	0.0145131
819.703	0.0145304
819.781	0.0146695
819.859	0.0148665
819.937	0.0146499
820.015	0.0144401
820.093	0.0146987
820.171	0.0149133
820.249	0.0147730
820.328	0.0148444
820.406	0.0149221
820.484	0.0149524
820.562	0.0149187
820.640	0.0149871
820.718	0.0150339
820.796	0.0150417
820.874	0.0149354
820.953	0.0149905
821.031	0.0150684
821.109	0.0148981
821.187	0.0150752
821.265	0.0150781
821.343	0.0149918
821.421	0.0150413
821.499	0.0149424
821.578	0.0149950
821.656	0.0148708
821.734	0.0148165
821.812	0.0147559
821.890	0.0148153
821.968	0.0149099
822.046	0.0150461
822.124	0.0150060
822.203	0.0150229
822.281	0.0150092
822.359	0.0150064
822.437	0.0150198
822.515	0.0151138
822.593	0.0149887
822.671	0.0149682
822.749	0.0151310
822.828	0.0151027
822.906	0.0151173
822.984	0.0149365
823.062	0.0150810
823.140	0.0150723
823.218	0.0149140
823.296	0.0148663
823.374	0.0149052
823.453	0.0150362
823.531	0.0149483
823.609	0.0149293
823.687	0.0151561
823.765	0.0151304
823.843	0.0151386
823.921	0.0152359
823.999	0.0152200
824.078	0.0151652
824.156	0.0152824
824.234	0.0153191
824.312	0.0154229
824.390	0.0153099
824.468	0.0153280
824.546	0.0151455
824.624	0.0151347
824.703	0.0151083
824.781	0.0151479
824.859	0.0150676
824.937	0.0151392
825.015	0.0150189
825.093	0.0151022
825.171	0.0151115
825.249	0.0151431
825.328	0.0152351
825.406	0.0151237
825.484	0.0151057
825.562	0.0152487
825.640	0.0151354
825.718	0.0152382
825.796	0.0152666
825.874	0.0151814
825.953	0.0152966
826.031	0.0152108
826.109	0.0151538
826.187	0.0150179
826.265	0.0150308
826.343	0.0150461
826.421	0.0150729
826.499	0.0149063
826.578	0.0150137
826.656	0.0149395
826.734	0.0148287
826.812	0.0149741
826.890	0.0150742
826.968	0.0149767
827.046	0.0149931
827.124	0.0152199
827.203	0.0152376
827.281	0.0153255
827.359	0.0154446
827.437	0.0153828
827.515	0.0152617
827.593	0.0152254
827.671	0.0152944
827.749	0.0153135
827.828	0.0152302
827.906	0.0151511
827.984	0.0151068
828.062	0.0150800
828.140	0.0148815
828.218	0.0150359
828.296	0.0150060
828.374	0.0149250
828.453	0.0148627
828.531	0.0149680
828.609	0.0149720
828.687	0.0148972
828.765	0.0149744
828.843	0.0149766
828.921	0.0150080
828.999	0.0151600
829.078	0.0151670
829.156	0.0151756
829.234	0.0151408
829.312	0.0153088
829.390	0.0152744
829.468	0.0151923
829.546	0.0150011
829.624	0.0150834
829.703	0.0152282
829.781	0.0150267
829.859	0.0150768
829.937	0.0150621
830.015	0.0150735
830.093	0.0149921
830.171	0.0148656
830.249	0.0148194
830.328	0.0146200
830.406	0.0146726
830.484	0.0147134
830.562	0.0147667
830.640	0.0147187
830.718	0.0147015
830.796	0.0147282
830.874	0.0148401
830.953	0.0149146
831.031	0.0147569
831.109	0.0147597
831.187	0.0147410
831.265	0.0147508
831.343	0.0147623
831.421	0.0148045
831.499	0.0147807
831.578	0.0148404
831.656	0.0149511
831.734	0.0147980
831.812	0.0148005
831.890	0.0148062
831.968	0.0148772
832.046	0.0148452
832.124	0.0149525
832.203	0.0149319
832.281	0.0149303
832.359	0.0149098
832.437	0.0150281
832.515	0.0149482
832.593	0.0149280
832.671	0.0149044
832.749	0.0149096
832.828	0.0148839
832.906	0.0151009
832.984	0.0150913
833.062	0.0150108
833.140	0.0151399
833.218	0.0151704
833.296	0.0151250
833.374	0.0151266
833.453	0.0151475
833.531	0.0151120
833.609	0.0151114
833.687	0.0150893
833.765	0.0150942
833.843	0.0150681
833.921	0.0149324
833.999	0.0151423
834.078	0.0150443
834.156	0.0149334
834.234	0.0148445
834.312	0.0148802
834.390	0.0148006
834.468	0.0149981
834.546	0.0149380
834.624	0.0149150
834.703	0.0150546
834.781	0.0149958
834.859	0.0150336
834.937	0.0151129
835.015	0.0150848
835.093	0.0151572
835.171	0.0151914
835.249	0.0150079
835.328	0.0152076
835.406	0.0151922
835.484	0.0152404
835.562	0.0150927
835.640	0.0151141
835.718	0.0150944
835.796	0.0152586
835.874	0.0151823
835.953	0.0149940
836.031	0.0149731
836.109	0.0151623
836.187	0.0150353
836.265	0.0149503
836.343	0.0151016
836.421	0.0149483
836.499	0.0150217
836.578	0.0150370
836.656	0.0150159
836.734	0.0150862
836.812	0.0150233
836.890	0.0150361
836.968	0.0150186
837.046	0.0150536
837.124	0.0151839
837.203	0.0151965
837.281	0.0152950
837.359	0.0152957
837.437	0.0153335
837.515	0.0153795
837.593	0.0153015
837.671	0.0153921
837.749	0.0155350
837.828	0.0154045
837.906	0.0152939
837.984	0.0153723
838.062	0.0151984
838.140	0.0151565
838.218	0.0152148
838.296	0.0150212
838.374	0.0148112
838.453	0.0147992
838.531	0.0147395
838.609	0.0146517
838.687	0.0148067
838.765	0.0146403
838.843	0.0146249
838.921	0.0147488
838.999	0.0146313
839.078	0.0147807
839.156	0.0148795
839.234	0.0149527
839.312	0.0149226
839.390	0.0149763
839.468	0.0149673
839.546	0.0151485
839.624	0.0150779
839.703	0.0151423
839.781	0.0150261
839.859	0.0151620
839.937	0.0151096
840.015	0.0150699
840.093	0.0150922
840.171	0.0152023
840.249	0.0149535
840.328	0.0148886
840.406	0.0148596
840.484	0.0149612
840.562	0.0149007
840.640	0.0148325
840.718	0.0148461
840.796	0.0149362
840.874	0.0149306
840.953	0.0149431
841.031	0.0150325
841.109	0.0149287
841.187	0.0150990
841.265	0.0151031
841.343	0.0151245
841.421	0.0151881
841.499	0.0151994
841.578	0.0154282
841.656	0.0153582
841.734	0.0152571
841.812	0.0152670
841.890	0.0153487
841.968	0.0150858
842.046	0.0151315
842.124	0.0151067
842.203	0.0148831
842.281	0.0149308
842.359	0.0149709
842.437	0.0149681
842.515	0.0149023
842.593	0.0147398
842.671	0.0148657
842.749	0.0146474
842.828	0.0146243
842.906	0.0148013
842.984	0.0148506
843.062	0.0149957
843.140	0.0148876
843.218	0.0151426
843.296	0.0152247
843.374	0.0151129
843.453	0.0153052
843.531	0.0151445
843.609	0.0152641
843.687	0.0153345
843.765	0.0150021
843.843	0.0150776
843.921	0.0149924
843.999	0.0147926
844.078	0.0147026
844.156	0.0146973
844.234	0.0145451
844.312	0.0144514
844.390	0.0145316
844.468	0.0144835
844.546	0.0145687
844.624	0.0145183
844.703	0.0143619
844.781	0.0145016
844.859	0.0146347
844.937	0.0146797
845.015	0.0144904
845.093	0.0145749
845.171	0.0146244
845.249	0.0145849
845.328	0.0146681
845.406	0.0146600
845.484	0.0147182
845.562	0.0147385
845.640	0.0146860
845.718	0.0147736
845.796	0.0148723
845.874	0.0150022
845.953	0.0147990
846.031	0.0147957
846.109	0.0149041
846.187	0.0148902
846.265	0.0149095
846.343	0.0149858
846.421	0.0149406
846.499	0.0149400
846.578	0.0148956
846.656	0.0148970
846.734	0.0149322
846.812	0.0150159
846.890	0.0150541
846.968	0.0151125
847.046	0.0151738
847.124	0.0151350
847.203	0.0152200
847.281	0.0152246
847.359	0.0154564
847.437	0.0154398
847.515	0.0154089
847.593	0.0154154
847.671	0.0156426
847.749	0.0156576
847.828	0.0155891
847.906	0.0157349
847.984	0.0156493
848.062	0.0156730
848.140	0.0157037
848.218	0.0156457
848.296	0.0157707
848.374	0.0155504
848.453	0.0155355
848.531	0.0155190
848.609	0.0156829
848.687	0.0154159
848.765	0.0153936
848.843	0.0155541
848.921	0.0155785
848.999	0.0155840
849.078	0.0154970
849.156	0.0153534
849.234	0.0153616
849.312	0.0154177
849.390	0.0154857
849.468	0.0153554
849.546	0.0154189
849.624	0.0154381
849.703	0.0153834
849.781	0.0152491
849.859	0.0152888
849.937	0.0153066
850.015	0.0151588
850.093	0.0151235
850.171	0.0150497
850.249	0.0148775
850.328	0.0148164
850.406	0.0150921
850.484	0.0148971
850.562	0.0148165
850.640	0.0148752
850.718	0.0149598
850.796	0.0149525
850.874	0.0146691
850.953	0.0149178
851.031	0.0148536
851.109	0.0148946
851.187	0.0147902
851.265	0.0149081
851.343	0.0148154
851.421	0.0149403
851.499	0.0148648
851.578	0.0146547
851.656	0.0146919
851.734	0.0147226
851.812	0.0146351
851.890	0.0145759
851.968	0.0145844
852.046	0.0144710
852.124	0.0143762
852.203	0.0143540
852.281	0.0142989
852.359	0.0142796
852.437	0.0141924
852.515	0.0143186
852.593	0.0142158
852.671	0.0143314
852.749	0.0144045
852.828	0.0144890
852.906	0.0143812
852.984	0.0143891
853.062	0.0144547
853.140	0.0144177
853.218	0.0143369
853.296	0.0143976
853.374	0.0141682
853.453	0.0142977
853.531	0.0143703
853.609	0.0142857
853.687	0.0143870
853.765	0.0143211
853.843	0.0144493
853.921	0.0144095
853.999	0.0144292
854.078	0.0145016
854.156	0.0145559
854.234	0.0145467
854.312	0.0144815
854.390	0.0146312
854.468	0.0146928
854.546	0.0146525
854.624	0.0147378
854.703	0.0145864
854.781	0.0146612
854.859	0.0145259
854.937	0.0147897
855.015	0.0146015
855.093	0.0146413
855.171	0.0148710
855.249	0.0148388
855.328	0.0147025
855.406	0.0147952
855.484	0.0148764
855.562	0.0150335
855.640	0.0148045
855.718	0.0148575
855.796	0.0148951
855.874	0.0148672
855.953	0.0147637
856.031	0.0149795
856.109	0.0150239
856.187	0.0149657
856.265	0.0149182
856.343	0.0151237
856.421	0.0152760
856.499	0.0150904
856.578	0.0151125
856.656	0.0152972
856.734	0.0153321
856.812	0.0154474
856.890	0.0153974
856.968	0.0155247
857.046	0.0155695
857.124	0.0157618
857.203	0.0158257
857.281	0.0157629
857.359	0.0158705
857.437	0.0158213
857.515	0.0157281
857.593	0.0155995
857.671	0.0157937
857.749	0.0158123
857.828	0.0155245
857.906	0.0154096
857.984	0.0154145
858.062	0.0153860
858.140	0.0152607
858.218	0.0152998
858.296	0.0152231
858.374	0.0150021
858.453	0.0149529
858.531	0.0150801
858.609	0.0151644
858.687	0.0151289
858.765	0.0150202
858.843	0.0149751
858.921	0.0150968
858.999	0.0150321
859.078	0.0150756
859.156	0.0149168
859.234	0.0150353
859.312	0.0151268
859.390	0.0148980
859.468	0.0149844
859.546	0.0147152
859.624	0.0147235
859.703	0.0146205
859.781	0.0146812
859.859	0.0147854
859.937	0.0146410
860.015	0.0144939
860.093	0.0146127
860.171	0.0148374
860.249	0.0149443
860.328	0.0148214
860.406	0.0148634
860.484	0.0149908
860.562	0.0153300
860.640	0.0152544
860.718	0.0152055
860.796	0.0153136
860.874	0.0154042
860.953	0.0154856
861.031	0.0153467
861.109	0.0155605
861.187	0.0153311
861.265	0.0152882
861.343	0.0152591
861.421	0.0152214
861.499	0.0151718
861.578	0.0151395
861.656	0.0150671
861.734	0.0151836
861.812	0.0149608
861.890	0.0149077
861.968	0.0151221
862.046	0.0150954
862.124	0.0151913
862.203	0.0152070
862.281	0.0152683
862.359	0.0154021
862.437	0.0155522
862.515	0.0153877
862.593	0.0154303
862.671	0.0156017
862.749	0.0155391
862.828	0.0154401
862.906	0.0156009
862.984	0.0154635
863.062	0.0155505
863.140	0.0154353
863.218	0.0153575
863.296	0.0153986
863.374	0.0153799
863.453	0.0150298
863.531	0.0149867
863.609	0.0148764
863.687	0.0148348
863.765	0.0148167
863.843	0.0147475
863.921	0.0148003
863.999	0.0147232
864.078	0.0145410
864.156	0.0146603
864.234	0.0145599
864.312	0.0146293
864.390	0.0147342
864.468	0.0147520
864.546	0.0147446
864.624	0.0148427
864.703	0.0147620
864.781	0.0147932
864.859	0.0147880
864.937	0.0146669
865.015	0.0148425
865.093	0.0147556
865.171	0.0146509
865.249	0.0147916
865.328	0.0147289
865.406	0.0147965
865.484	0.0147679
865.562	0.0148299
865.640	0.0148486
865.718	0.0148484
865.796	0.0148278
865.874	0.0148917
865.953	0.0148273
866.031	0.0148472
866.109	0.0148495
866.187	0.0148560
866.265	0.0148692
866.343	0.0148566
866.421	0.0149194
866.499	0.0149487
866.578	0.0149030
866.656	0.0149194
866.734	0.0149079
866.812	0.0148839
866.890	0.0148337
866.968	0.0148979
867.046	0.0148306
867.124	0.0147198
867.203	0.0148328
867.281	0.0147279
867.359	0.0146783
867.437	0.0146314
867.515	0.0146088
867.593	0.0144955
867.671	0.0146027
867.749	0.0144682
867.828	0.0143028
867.906	0.0143982
867.984	0.0144793
868.062	0.0143008
868.140	0.0144744
868.218	0.0144093
868.296	0.0144170
868.374	0.0143628
868.453	0.0143679
868.531	0.0144715
868.609	0.0146543
868.687	0.0145107
868.765	0.0146488
868.843	0.0146926
868.921	0.0147403
868.999	0.0146854
869.078	0.0146999
869.156	0.0147375
869.234	0.0148694
869.312	0.0148523
869.390	0.0148856
869.468	0.0150125
869.546	0.0149385
869.624	0.0149277
869.703	0.0149038
869.781	0.0149366
869.859	0.0147948
869.937	0.0147660
870.015	0.0147681
870.093	0.0146372
870.171	0.0146079
870.249	0.0146252
870.328	0.0146051
870.406	0.0146249
870.484	0.0145779
870.562	0.0145711
870.640	0.0146770
870.718	0.0147932
870.796	0.0146557
870.874	0.0146329
870.953	0.0146596
871.031	0.0146527
871.109	0.0148983
871.187	0.0150047
871.265	0.0148702
871.343	0.0148086
871.421	0.0150775
871.499	0.0150990
871.578	0.0150521
871.656	0.0150657
871.734	0.0150748
871.812	0.0152945
871.890	0.0152786
871.968	0.0151921
872.046	0.0152181
872.124	0.0151462
872.203	0.0152068
872.281	0.0151971
872.359	0.0151613
872.437	0.0151596
872.515	0.0150809
872.593	0.0149432
872.671	0.0148720
872.749	0.0149642
872.828	0.0148052
872.906	0.0147576
872.984	0.0148569
873.062	0.0147872
873.140	0.0148204
873.218	0.0148730
873.296	0.0149255
873.374	0.0150240
873.453	0.0150555
873.531	0.0150623
873.609	0.0151693
873.687	0.0152942
873.765	0.0151398
873.843	0.0151115
873.921	0.0152486
873.999	0.0151926
874.078	0.0152060
874.156	0.0152056
874.234	0.0152769
874.312	0.0151043
874.390	0.0150541
874.468	0.0151134
874.546	0.0152205
874.624	0.0150580
874.703	0.0149682
874.781	0.0150088
874.859	0.0149260
874.937	0.0150198
875.015	0.0150304
875.093	0.0150243
875.171	0.0149769
875.249	0.0149250
875.328	0.0149356
875.406	0.0149923
875.484	0.0151437
875.562	0.0151172
875.640	0.0149940
875.718	0.0149532
875.796	0.0149225
875.874	0.0151752
875.953	0.0149885
876.031	0.0150102
876.109	0.0150394
876.187	0.0150240
876.265	0.0150863
876.343	0.0149300
876.421	0.0151739
876.499	0.0152251
876.578	0.0151187
876.656	0.0153920
876.734	0.0153576
876.812	0.0153194
876.890	0.0153368
876.968	0.0152914
877.046	0.0153500
877.124	0.0153323
877.203	0.0153642
877.281	0.0152950
877.359	0.0153035
877.437	0.0154035
877.515	0.0151849
877.593	0.0151645
877.671	0.0151637
877.749	0.0151405
877.828	0.0152374
877.906	0.0151373
877.984	0.0149268
878.062	0.0149102
878.140	0.0149038
878.218	0.0146334
878.296	0.0145981
878.374	0.0145787
878.453	0.0146077
878.531	0.0143679
878.609	0.0144701
878.687	0.0145035
878.765	0.0142825
878.843	0.0143230
878.921	0.0142587
878.999	0.0144276
879.078	0.0143549
879.156	0.0143552
879.234	0.0143399
879.312	0.0144814
879.390	0.0144299
879.468	0.0144547
879.546	0.0144081
879.624	0.0144833
879.703	0.0144997
879.781	0.0143532
879.859	0.0143421
879.937	0.0144287
880.015	0.0144366
880.093	0.0144024
880.171	0.0143399
880.249	0.0143606
880.328	0.0141866
880.406	0.0142886
880.484	0.0144143
880.562	0.0142486
880.640	0.0141436
880.718	0.0143639
880.796	0.0143126
880.874	0.0144849
880.953	0.0144424
881.031	0.0144798
881.109	0.0144164
881.187	0.0144624
881.265	0.0144574
881.343	0.0143649
881.421	0.0144280
881.499	0.0145897
881.578	0.0144691
881.656	0.0141370
881.734	0.0142603
881.812	0.0143875
881.890	0.0144081
881.968	0.0142298
882.046	0.0143998
882.124	0.0142344
882.203	0.0143555
882.281	0.0143751
882.359	0.0143053
882.437	0.0143982
882.515	0.0145124
882.593	0.0145895
882.671	0.0145016
882.749	0.0146138
882.828	0.0145763
882.906	0.0146303
882.984	0.0147108
883.062	0.0146571
883.140	0.0148763
883.218	0.0147018
883.296	0.0147135
883.374	0.0147778
883.453	0.0149872
883.531	0.0148754
883.609	0.0149392
883.687	0.0150053
883.765	0.0150801
883.843	0.0148904
883.921	0.0149928
883.999	0.0151976
884.078	0.0151978
884.156	0.0153136
884.234	0.0151610
884.312	0.0153143
884.390	0.0153683
884.468	0.0154272
884.546	0.0153172
884.624	0.0153452
884.703	0.0155468
884.781	0.0154225
884.859	0.0155454
884.937	0.0153682
885.015	0.0153228
885.093	0.0153916
885.171	0.0154103
885.249	0.0153141
885.328	0.0153590
885.406	0.0153516
885.484	0.0151534
885.562	0.0150586
885.640	0.0150999
885.718	0.0148940
885.796	0.0150289
885.874	0.0149343
885.953	0.0150060
886.031	0.0149063
886.109	0.0148306
886.187	0.0147367
886.265	0.0146527
886.343	0.0148498
886.421	0.0148618
886.499	0.0147977
886.578	0.0146719
886.656	0.0148354
886.734	0.0147155
886.812	0.0145741
886.890	0.0148699
886.968	0.0147203
887.046	0.0146725
887.124	0.0146558
887.203	0.0147719
887.281	0.0149055
887.359	0.0149551
887.437	0.0150145
887.515	0.0150500
887.593	0.0150234
887.671	0.0150052
887.749	0.0151950
887.828	0.0151412
887.906	0.0150980
887.984	0.0151550
888.062	0.0151758
888.140	0.0148634
888.218	0.0148868
888.296	0.0147495
888.374	0.0147918
888.453	0.0146501
888.531	0.0144531
888.609	0.0144540
888.687	0.0143009
888.765	0.0142076
888.843	0.0143103
888.921	0.0142423
888.999	0.0141353
889.078	0.0141508
889.156	0.0141468
889.234	0.0141629
889.312	0.0140721
889.390	0.0141841
889.468	0.0143295
889.546	0.0144299
889.624	0.0144026
889.703	0.0144092
889.781	0.0145332
889.859	0.0148129
889.937	0.0147314
890.015	0.0147803
890.093	0.0148647
890.171	0.0147509
890.249	0.0149528
890.328	0.0150800
890.406	0.0149405
890.484	0.0150920
890.562	0.0150877
890.640	0.0150681
890.718	0.0148598
890.796	0.0150608
890.874	0.0150838
890.953	0.0151250
891.031	0.0150723
891.109	0.0150721
891.187	0.0149213
891.265	0.0150232
891.343	0.0151452
891.421	0.0150171
891.499	0.0151533
891.578	0.0150723
891.656	0.0151522
891.734	0.0150723
891.812	0.0151591
891.890	0.0150773
891.968	0.0150384
892.046	0.0151167
892.124	0.0151260
892.203	0.0150382
892.281	0.0149627
892.359	0.0150153
892.437	0.0150785
892.515	0.0150692
892.593	0.0150815
892.671	0.0150344
892.749	0.0150627
892.828	0.0150101
892.906	0.0150253
892.984	0.0152325
893.062	0.0150758
893.140	0.0151157
893.218	0.0152010
893.296	0.0150763
893.374	0.0150677
893.453	0.0150854
893.531	0.0150224
893.609	0.0149661
893.687	0.0149028
893.765	0.0148722
893.843	0.0148146
893.921	0.0148276
893.999	0.0146926
894.078	0.0144939
894.156	0.0147408
894.234	0.0146949
894.312	0.0146933
894.390	0.0148068
894.468	0.0147550
894.546	0.0147998
894.624	0.0146739
894.703	0.0147055
894.781	0.0146857
894.859	0.0146937
894.937	0.0146922
895.015	0.0147852
895.093	0.0146197
895.171	0.0146721
895.249	0.0146177
895.328	0.0146294
895.406	0.0147231
895.484	0.0147588
895.562	0.0145469
895.640	0.0146709
895.718	0.0144801
895.796	0.0146379
895.874	0.0144503
895.953	0.0144156
896.031	0.0146707
896.109	0.0146246
896.187	0.0144749
896.265	0.0144061
896.343	0.0145589
896.421	0.0145447
896.499	0.0144366
896.578	0.0143912
896.656	0.0144337
896.734	0.0145522
896.812	0.0144253
896.890	0.0144187
896.968	0.0146448
897.046	0.0147069
897.124	0.0145632
897.203	0.0145006
897.281	0.0147244
897.359	0.0148282
897.437	0.0148061
897.515	0.0148606
897.593	0.0148926
897.671	0.0149533
897.749	0.0150594
897.828	0.0151162
897.906	0.0150426
897.984	0.0150076
898.062	0.0150397
898.140	0.0149834
898.218	0.0149930
898.296	0.0151226
898.374	0.0148820
898.453	0.0149214
898.531	0.0149313
898.609	0.0148882
898.687	0.0148112
898.765	0.0149162
898.843	0.0149268
898.921	0.0151153
898.999	0.0150845
899.078	0.0150977
899.156	0.0151153
899.234	0.0152647
899.312	0.0151620
899.390	0.0150161
899.468	0.0150169
899.546	0.0149748
899.624	0.0150457
899.703	0.0149702
899.781	0.0149480
899.859	0.0150932
899.937	0.0150372
900.015	0.0148776
900.093	0.0150032
900.171	0.0150429
900.249	0.0149839
900.328	0.0149666
900.406	0.0148867
900.484	0.0150643
900.562	0.0148757
900.640	0.0148560
900.718	0.0148591
900.796	0.0148579
900.874	0.0147921
900.953	0.0147683
901.031	0.0147238
901.109	0.0147227
901.187	0.0146642
901.265	0.0143844
901.343	0.0145116
901.421	0.0146127
901.499	0.0144102
901.578	0.0144987
901.656	0.0146167
901.734	0.0144510
901.812	0.0146091
901.890	0.0145645
901.968	0.0145711
902.046	0.0148180
902.124	0.0146135
902.203	0.0146685
902.281	0.0146254
902.359	0.0146926
902.437	0.0146973
902.515	0.0148474
902.593	0.0148811
902.671	0.0148802
902.749	0.0148407
902.828	0.0148682
902.906	0.0148600
902.984	0.0149074
903.062	0.0148970
903.140	0.0148766
903.218	0.0149834
903.296	0.0149109
903.374	0.0149525
903.453	0.0147918
903.531	0.0149020
903.609	0.0147955
903.687	0.0148936
903.765	0.0149204
903.843	0.0148600
903.921	0.0146482
903.999	0.0149725
904.078	0.0149805
904.156	0.0149065
904.234	0.0148747
904.312	0.0149770
904.390	0.0151243
904.468	0.0149636
904.546	0.0148701
904.624	0.0150865
904.703	0.0151101
904.781	0.0150963
904.859	0.0149761
904.937	0.0149723
905.015	0.0151582
905.093	0.0151299
905.171	0.0151091
905.249	0.0151999
905.328	0.0153362
905.406	0.0152417
905.484	0.0151163
905.562	0.0151637
905.640	0.0152849
905.718	0.0151337
905.796	0.0151421
905.874	0.0151394
905.953	0.0153004
906.031	0.0152246
906.109	0.0152483
906.187	0.0154095
906.265	0.0152814
906.343	0.0153361
906.421	0.0151311
906.499	0.0152200
906.578	0.0152872
906.656	0.0151978
906.734	0.0153391
906.812	0.0153084
906.890	0.0153311
906.968	0.0153354
907.046	0.0152632
907.124	0.0152782
907.203	0.0152476
907.281	0.0153795
907.359	0.0153152
907.437	0.0153294
907.515	0.0152899
907.593	0.0151946
907.671	0.0153036
907.749	0.0152046
907.828	0.0151835
907.906	0.0151217
907.984	0.0150397
908.062	0.0150033
908.140	0.0150990
908.218	0.0150872
908.296	0.0150596
908.374	0.0150449
908.453	0.0150752
908.531	0.0150087
908.609	0.0151396
908.687	0.0150435
908.765	0.0150268
908.843	0.0150600
908.921	0.0151991
908.999	0.0151013
909.078	0.0149810
909.156	0.0151116
909.234	0.0149756
909.312	0.0150179
909.390	0.0150773
909.468	0.0151400
909.546	0.0151758
909.624	0.0149947
909.703	0.0149577
909.781	0.0150983
909.859	0.0150240
909.937	0.0150599
910.015	0.0149371
910.093	0.0150587
910.171	0.0149166
910.249	0.0148268
910.328	0.0149549
910.406	0.0148334
910.484	0.0149111
910.562	0.0149273
910.640	0.0148737
910.718	0.0150479
910.796	0.0150343
910.874	0.0150570
910.953	0.0151952
911.031	0.0151725
911.109	0.0149874
911.187	0.0152225
911.265	0.0152155
911.343	0.0152197
911.421	0.0151521
911.499	0.0150629
911.578	0.0150773
911.656	0.0152869
911.734	0.0151428
911.812	0.0149977
911.890	0.0151661
911.968	0.0151073
912.046	0.0150468
912.124	0.0151658
912.203	0.0150916
912.281	0.0151423
912.359	0.0149858
912.437	0.0150446
912.515	0.0150970
912.593	0.0149556
912.671	0.0149273
912.749	0.0149464
912.828	0.0148460
912.906	0.0148907
912.984	0.0147968
913.062	0.0148637
913.140	0.0146841
913.218	0.0147655
913.296	0.0147572
913.374	0.0146892
913.453	0.0146524
913.531	0.0145193
913.609	0.0146854
913.687	0.0147359
913.765	0.0147330
913.843	0.0146445
913.921	0.0146366
913.999	0.0146839
914.078	0.0148251
914.156	0.0146049
914.234	0.0147305
914.312	0.0147224
914.390	0.0147697
914.468	0.0149277
914.546	0.0148466
914.624	0.0149000
914.703	0.0149915
914.781	0.0149426
914.859	0.0149881
914.937	0.0150268
915.015	0.0151945
915.093	0.0152390
915.171	0.0153004
915.249	0.0152959
915.328	0.0153574
915.406	0.0153457
915.484	0.0154514
915.562	0.0154874
915.640	0.0154959
915.718	0.0155551
915.796	0.0153053
915.874	0.0152650
915.953	0.0152905
916.031	0.0153750
916.109	0.0153289
916.187	0.0150912
916.265	0.0151379
916.343	0.0152169
916.421	0.0150453
916.499	0.0149810
916.578	0.0151031
916.656	0.0150551
916.734	0.0150431
916.812	0.0150093
916.890	0.0150925
916.968	0.0150968
917.046	0.0152034
917.124	0.0152721
917.203	0.0151368
917.281	0.0151999
917.359	0.0152637
917.437	0.0152121
917.515	0.0153770
917.593	0.0153609
917.671	0.0154134
917.749	0.0152847
917.828	0.0152795
917.906	0.0151876
917.984	0.0151851
918.062	0.0151759
918.140	0.0151471
918.218	0.0150233
918.296	0.0150387
918.374	0.0149666
918.453	0.0151064
918.531	0.0150346
918.609	0.0149657
918.687	0.0152059
918.765	0.0150474
918.843	0.0149129
918.921	0.0150481
918.999	0.0150718
919.078	0.0151278
919.156	0.0151163
919.234	0.0151791
919.312	0.0151237
919.390	0.0150859
919.468	0.0150090
919.546	0.0149229
919.624	0.0149434
919.703	0.0149173
919.781	0.0147936
919.859	0.0148083
919.937	0.0147589
