05/06/2022	18:46:53	Ver.	4.1	UNKNOWN
Optical Delay	600.015094	Delta X		0.078125	Sweeps	1	Scan Rate	0/0
Coordinates	Axis 1	NaN	Axis 2	NaN	Axis 3	NaN	Axis 4	NaN	Axis 5	NaN	Axis 6	0.000000
TX Power	0.000000	RX Power	0.000000

600.015	0.0133584
600.093	0.0133860
600.171	0.0133049
600.249	0.0133023
600.328	0.0133506
600.406	0.0133536
600.484	0.0133442
600.562	0.0133553
600.640	0.0132664
600.718	0.0134640
600.796	0.0133271
600.874	0.0132629
600.953	0.0133611
601.031	0.0133500
601.109	0.0135497
601.187	0.0134669
601.265	0.0133490
601.343	0.0134467
601.421	0.0133997
601.499	0.0132981
601.578	0.0132479
601.656	0.0134303
601.734	0.0134405
601.812	0.0132470
601.890	0.0134369
601.968	0.0133942
602.046	0.0133682
602.124	0.0133415
602.203	0.0132744
602.281	0.0133697
602.359	0.0132776
602.437	0.0133508
602.515	0.0133344
602.593	0.0134499
602.671	0.0133609
602.749	0.0131804
602.828	0.0133417
602.906	0.0133231
602.984	0.0134441
603.062	0.0133783
603.140	0.0133993
603.218	0.0133073
603.296	0.0132349
603.374	0.0133113
603.453	0.0133963
603.531	0.0133682
603.609	0.0132907
603.687	0.0134184
603.765	0.0134209
603.843	0.0133174
603.921	0.0133443
603.999	0.0133373
604.078	0.0133811
604.156	0.0132693
604.234	0.0131801
604.312	0.0133504
604.390	0.0133239
604.468	0.0133668
604.546	0.0133262
604.624	0.0134243
604.703	0.0132790
604.781	0.0132977
604.859	0.0133140
604.937	0.0133960
605.015	0.0133998
605.093	0.0132159
605.171	0.0133064
605.249	0.0133183
605.328	0.0133147
605.406	0.0134055
605.484	0.0133931
605.562	0.0132880
605.640	0.0134461
605.718	0.0134129
605.796	0.0133534
605.874	0.0134063
605.953	0.0132733
606.031	0.0132655
606.109	0.0133006
606.187	0.0134127
606.265	0.0133315
606.343	0.0133131
606.421	0.0134309
606.499	0.0133505
606.578	0.0134068
606.656	0.0133559
606.734	0.0133535
606.812	0.0133476
606.890	0.0133227
606.968	0.0133069
607.046	0.0133086
607.124	0.0131990
607.203	0.0133170
607.281	0.0133471
607.359	0.0134114
607.437	0.0134151
607.515	0.0132845
607.593	0.0133315
607.671	0.0135490
607.749	0.0131919
607.828	0.0132095
607.906	0.0133924
607.984	0.0134110
608.062	0.0133981
608.140	0.0133978
608.218	0.0133946
608.296	0.0131683
608.374	0.0133313
608.453	0.0133923
608.531	0.0131771
608.609	0.0133772
608.687	0.0133912
608.765	0.0134229
608.843	0.0133951
608.921	0.0133856
608.999	0.0134510
609.078	0.0134846
609.156	0.0134825
609.234	0.0133086
609.312	0.0133040
609.390	0.0133688
609.468	0.0133919
609.546	0.0132658
609.624	0.0133475
609.703	0.0133179
609.781	0.0134028
609.859	0.0133707
609.937	0.0133861
610.015	0.0132497
610.093	0.0133396
610.171	0.0134224
610.249	0.0133327
610.328	0.0133609
610.406	0.0132275
610.484	0.0132914
610.562	0.0133090
610.640	0.0133155
610.718	0.0134360
610.796	0.0134340
610.874	0.0132260
610.953	0.0133482
611.031	0.0133698
611.109	0.0133671
611.187	0.0132951
611.265	0.0132983
611.343	0.0134464
611.421	0.0133750
611.499	0.0132733
611.578	0.0132710
611.656	0.0134421
611.734	0.0132409
611.812	0.0133965
611.890	0.0133626
611.968	0.0134920
612.046	0.0133568
612.124	0.0132661
612.203	0.0133810
612.281	0.0133978
612.359	0.0134175
612.437	0.0133237
612.515	0.0132891
612.593	0.0133672
612.671	0.0133826
612.749	0.0134699
612.828	0.0133756
612.906	0.0132835
612.984	0.0132098
613.062	0.0133155
613.140	0.0133859
613.218	0.0133110
613.296	0.0134013
613.374	0.0133372
613.453	0.0132969
613.531	0.0133986
613.609	0.0133347
613.687	0.0134010
613.765	0.0134501
613.843	0.0132384
613.921	0.0133282
613.999	0.0132777
614.078	0.0132330
614.156	0.0133686
614.234	0.0131112
614.312	0.0133061
614.390	0.0134624
614.468	0.0132576
614.546	0.0132988
614.624	0.0134085
614.703	0.0133807
614.781	0.0133356
614.859	0.0132354
614.937	0.0134071
615.015	0.0133574
615.093	0.0133859
615.171	0.0134966
615.249	0.0133408
615.328	0.0133564
615.406	0.0132478
615.484	0.0132819
615.562	0.0133464
615.640	0.0133296
615.718	0.0134525
615.796	0.0133319
615.874	0.0132728
615.953	0.0133163
616.031	0.0132030
616.109	0.0132522
616.187	0.0132641
616.265	0.0133731
616.343	0.0134013
616.421	0.0133425
616.499	0.0134637
616.578	0.0132723
616.656	0.0133307
616.734	0.0132969
616.812	0.0132487
616.890	0.0133227
616.968	0.0133500
617.046	0.0132053
617.124	0.0132407
617.203	0.0134294
617.281	0.0133519
617.359	0.0132850
617.437	0.0132606
617.515	0.0132786
617.593	0.0133900
617.671	0.0134541
617.749	0.0132436
617.828	0.0133952
617.906	0.0133508
617.984	0.0133705
618.062	0.0133038
618.140	0.0133744
618.218	0.0134145
618.296	0.0133176
618.374	0.0133629
618.453	0.0132577
618.531	0.0133826
618.609	0.0134392
618.687	0.0131850
618.765	0.0133171
618.843	0.0134266
618.921	0.0133612
618.999	0.0132964
619.078	0.0133591
619.156	0.0132471
619.234	0.0135117
619.312	0.0134093
619.390	0.0133342
619.468	0.0134316
619.546	0.0134824
619.624	0.0133846
619.703	0.0133573
619.781	0.0133288
619.859	0.0134026
619.937	0.0134247
620.015	0.0133412
620.093	0.0132410
620.171	0.0132089
620.249	0.0133701
620.328	0.0132949
620.406	0.0134349
620.484	0.0132860
620.562	0.0132708
620.640	0.0134022
620.718	0.0132988
620.796	0.0133229
620.874	0.0133298
620.953	0.0134245
621.031	0.0134068
621.109	0.0132908
621.187	0.0132431
621.265	0.0134329
621.343	0.0133446
621.421	0.0133102
621.499	0.0132649
621.578	0.0133470
621.656	0.0132164
621.734	0.0133740
621.812	0.0132968
621.890	0.0133508
621.968	0.0133353
622.046	0.0133062
622.124	0.0134100
622.203	0.0133017
622.281	0.0131936
622.359	0.0133554
622.437	0.0132755
622.515	0.0133189
622.593	0.0132362
622.671	0.0133743
622.749	0.0134747
622.828	0.0132264
622.906	0.0133718
622.984	0.0132676
623.062	0.0132420
623.140	0.0134244
623.218	0.0133333
623.296	0.0134139
623.374	0.0134017
623.453	0.0131931
623.531	0.0132490
623.609	0.0133411
623.687	0.0133256
623.765	0.0134590
623.843	0.0133943
623.921	0.0132669
623.999	0.0132896
624.078	0.0133163
624.156	0.0133028
624.234	0.0133813
624.312	0.0133885
624.390	0.0133525
624.468	0.0133167
624.546	0.0132273
624.624	0.0132117
624.703	0.0133239
624.781	0.0133418
624.859	0.0133585
624.937	0.0133069
625.015	0.0134454
625.093	0.0133720
625.171	0.0134363
625.249	0.0133176
625.328	0.0133772
625.406	0.0133851
625.484	0.0133807
625.562	0.0133695
625.640	0.0134477
625.718	0.0134013
625.796	0.0133256
625.874	0.0132789
625.953	0.0134042
626.031	0.0134888
626.109	0.0134202
626.187	0.0133533
626.265	0.0132646
626.343	0.0131863
626.421	0.0134068
626.499	0.0135764
626.578	0.0134249
626.656	0.0133270
626.734	0.0131824
626.812	0.0134393
626.890	0.0133650
626.968	0.0134184
627.046	0.0134221
627.124	0.0134167
627.203	0.0133737
627.281	0.0133765
627.359	0.0134267
627.437	0.0133582
627.515	0.0134283
627.593	0.0132924
627.671	0.0133464
627.749	0.0134251
627.828	0.0134061
627.906	0.0134136
627.984	0.0133064
628.062	0.0133125
628.140	0.0134233
628.218	0.0133946
628.296	0.0133213
628.374	0.0132930
628.453	0.0134030
628.531	0.0133553
628.609	0.0134013
628.687	0.0134053
628.765	0.0133830
628.843	0.0133701
628.921	0.0133212
628.999	0.0133591
629.078	0.0134618
629.156	0.0133202
629.234	0.0133230
629.312	0.0134115
629.390	0.0133414
629.468	0.0132497
629.546	0.0133142
629.624	0.0133758
629.703	0.0133627
629.781	0.0132253
629.859	0.0132798
629.937	0.0133121
630.015	0.0133516
630.093	0.0133494
630.171	0.0133398
630.249	0.0133789
630.328	0.0133333
630.406	0.0133612
630.484	0.0133640
630.562	0.0134287
630.640	0.0134094
630.718	0.0132243
630.796	0.0133374
630.874	0.0134669
630.953	0.0133324
631.031	0.0132979
631.109	0.0134458
631.187	0.0133096
631.265	0.0133472
631.343	0.0133489
631.421	0.0133060
631.499	0.0134516
631.578	0.0134093
631.656	0.0131692
631.734	0.0132671
631.812	0.0132723
631.890	0.0134574
631.968	0.0133018
632.046	0.0133345
632.124	0.0134658
632.203	0.0133268
632.281	0.0132597
632.359	0.0132830
632.437	0.0132246
632.515	0.0133012
632.593	0.0133561
632.671	0.0133186
632.749	0.0131618
632.828	0.0134547
632.906	0.0133092
632.984	0.0131055
633.062	0.0133302
633.140	0.0131789
633.218	0.0133260
633.296	0.0134039
633.374	0.0133662
633.453	0.0132625
633.531	0.0132793
633.609	0.0134351
633.687	0.0133810
633.765	0.0132979
633.843	0.0132180
633.921	0.0134235
633.999	0.0133034
634.078	0.0133358
634.156	0.0133000
634.234	0.0133339
634.312	0.0133360
634.390	0.0133586
634.468	0.0133263
634.546	0.0133208
634.624	0.0133496
634.703	0.0134216
634.781	0.0133200
634.859	0.0134359
634.937	0.0132159
635.015	0.0133414
635.093	0.0132482
635.171	0.0133390
635.249	0.0134889
635.328	0.0131670
635.406	0.0133164
635.484	0.0132442
635.562	0.0132915
635.640	0.0134052
635.718	0.0133636
635.796	0.0133158
635.874	0.0132320
635.953	0.0131849
636.031	0.0133527
636.109	0.0134163
636.187	0.0133443
636.265	0.0131783
636.343	0.0132771
636.421	0.0132851
636.499	0.0132917
636.578	0.0132417
636.656	0.0134110
636.734	0.0132771
636.812	0.0132425
636.890	0.0133060
636.968	0.0132492
637.046	0.0133767
637.124	0.0134174
637.203	0.0134063
637.281	0.0131577
637.359	0.0133414
637.437	0.0133859
637.515	0.0132573
637.593	0.0132747
637.671	0.0132896
637.749	0.0133624
637.828	0.0134170
637.906	0.0134270
637.984	0.0134189
638.062	0.0133203
638.140	0.0133859
638.218	0.0133982
638.296	0.0132203
638.374	0.0132883
638.453	0.0133028
638.531	0.0133890
638.609	0.0134122
638.687	0.0134532
638.765	0.0132967
638.843	0.0132880
638.921	0.0132265
638.999	0.0133260
639.078	0.0132521
639.156	0.0133742
639.234	0.0132883
639.312	0.0134848
639.390	0.0133978
639.468	0.0133207
639.546	0.0131845
639.624	0.0133281
639.703	0.0132732
639.781	0.0133278
639.859	0.0132343
639.937	0.0132706
640.015	0.0133055
640.093	0.0132953
640.171	0.0133147
640.249	0.0133012
640.328	0.0133769
640.406	0.0133960
640.484	0.0132700
640.562	0.0133167
640.640	0.0134158
640.718	0.0134644
640.796	0.0134322
640.874	0.0134061
640.953	0.0131925
641.031	0.0132496
641.109	0.0132944
641.187	0.0133624
641.265	0.0133548
641.343	0.0132391
641.421	0.0133037
641.499	0.0132753
641.578	0.0133916
641.656	0.0134356
641.734	0.0133405
641.812	0.0134031
641.890	0.0133121
641.968	0.0133409
642.046	0.0134330
642.124	0.0133836
642.203	0.0134667
642.281	0.0134473
642.359	0.0133167
642.437	0.0133212
642.515	0.0132529
642.593	0.0133567
642.671	0.0134161
642.749	0.0132064
642.828	0.0133345
642.906	0.0134737
642.984	0.0132893
643.062	0.0134342
643.140	0.0132777
643.218	0.0132674
643.296	0.0134032
643.374	0.0133868
643.453	0.0133671
643.531	0.0134256
643.609	0.0133663
643.687	0.0133524
643.765	0.0133967
643.843	0.0133025
643.921	0.0133012
643.999	0.0132086
644.078	0.0132985
644.156	0.0133551
644.234	0.0133985
644.312	0.0133985
644.390	0.0134578
644.468	0.0133937
644.546	0.0133000
644.624	0.0133611
644.703	0.0132857
644.781	0.0133924
644.859	0.0133336
644.937	0.0133147
645.015	0.0132192
645.093	0.0133587
645.171	0.0132623
645.249	0.0133051
645.328	0.0132581
645.406	0.0132932
645.484	0.0132474
645.562	0.0132993
645.640	0.0133403
645.718	0.0132963
645.796	0.0132037
645.874	0.0132630
645.953	0.0133918
646.031	0.0133430
646.109	0.0133842
646.187	0.0133550
646.265	0.0133288
646.343	0.0133067
646.421	0.0132657
646.499	0.0133163
646.578	0.0133825
646.656	0.0133326
646.734	0.0132455
646.812	0.0132748
646.890	0.0132848
646.968	0.0132541
647.046	0.0133057
647.124	0.0132417
647.203	0.0133762
647.281	0.0133763
647.359	0.0133988
647.437	0.0133444
647.515	0.0133746
647.593	0.0134366
647.671	0.0132696
647.749	0.0133494
647.828	0.0133031
647.906	0.0133495
647.984	0.0133681
648.062	0.0133846
648.140	0.0132805
648.218	0.0133219
648.296	0.0133665
648.374	0.0134924
648.453	0.0133346
648.531	0.0133081
648.609	0.0132535
648.687	0.0133041
648.765	0.0133264
648.843	0.0133434
648.921	0.0133739
648.999	0.0133789
649.078	0.0133639
649.156	0.0133295
649.234	0.0132327
649.312	0.0132977
649.390	0.0133496
649.468	0.0133673
649.546	0.0134708
649.624	0.0132951
649.703	0.0134767
649.781	0.0133376
649.859	0.0132771
649.937	0.0134294
650.015	0.0134176
650.093	0.0134250
650.171	0.0133417
650.249	0.0131395
650.328	0.0132030
650.406	0.0133152
650.484	0.0133997
650.562	0.0132798
650.640	0.0133104
650.718	0.0133363
650.796	0.0132559
650.874	0.0133721
650.953	0.0133166
651.031	0.0134692
651.109	0.0134016
651.187	0.0132283
651.265	0.0133547
651.343	0.0134041
651.421	0.0133440
651.499	0.0132584
651.578	0.0133608
651.656	0.0133327
651.734	0.0133720
651.812	0.0133992
651.890	0.0132590
651.968	0.0132697
652.046	0.0134164
652.124	0.0133094
652.203	0.0133338
652.281	0.0133377
652.359	0.0132731
652.437	0.0134271
652.515	0.0133757
652.593	0.0134363
652.671	0.0132938
652.749	0.0134358
652.828	0.0133923
652.906	0.0133035
652.984	0.0134157
653.062	0.0133675
653.140	0.0132322
653.218	0.0131759
653.296	0.0133485
653.374	0.0134075
653.453	0.0134625
653.531	0.0134060
653.609	0.0133201
653.687	0.0132585
653.765	0.0131256
653.843	0.0133811
653.921	0.0132865
653.999	0.0133540
654.078	0.0134074
654.156	0.0134333
654.234	0.0132571
654.312	0.0133025
654.390	0.0132993
654.468	0.0131986
654.546	0.0133514
654.624	0.0133128
654.703	0.0132725
654.781	0.0133166
654.859	0.0133248
654.937	0.0133675
655.015	0.0133478
655.093	0.0134146
655.171	0.0133538
655.249	0.0132778
655.328	0.0132539
655.406	0.0134975
655.484	0.0134421
655.562	0.0132710
655.640	0.0134341
655.718	0.0134579
655.796	0.0133146
655.874	0.0132756
655.953	0.0132315
656.031	0.0133785
656.109	0.0133269
656.187	0.0134072
656.265	0.0132353
656.343	0.0132056
656.421	0.0133868
656.499	0.0133855
656.578	0.0133028
656.656	0.0131944
656.734	0.0132555
656.812	0.0134075
656.890	0.0132666
656.968	0.0133911
657.046	0.0132954
657.124	0.0135117
657.203	0.0133497
657.281	0.0132154
657.359	0.0134010
657.437	0.0133462
657.515	0.0132443
657.593	0.0133901
657.671	0.0133055
657.749	0.0132616
657.828	0.0133202
657.906	0.0133286
657.984	0.0133103
658.062	0.0132673
658.140	0.0133194
658.218	0.0132938
658.296	0.0133772
658.374	0.0133562
658.453	0.0134484
658.531	0.0133934
658.609	0.0133403
658.687	0.0132658
658.765	0.0132406
658.843	0.0133813
658.921	0.0133295
658.999	0.0135388
659.078	0.0131937
659.156	0.0132909
659.234	0.0132867
659.312	0.0133716
659.390	0.0133806
659.468	0.0133216
659.546	0.0132547
659.624	0.0133060
659.703	0.0133483
659.781	0.0134183
659.859	0.0133696
659.937	0.0134386
660.015	0.0133875
660.093	0.0132644
660.171	0.0132449
660.249	0.0134006
660.328	0.0133511
660.406	0.0132352
660.484	0.0132967
660.562	0.0134873
660.640	0.0132039
660.718	0.0132018
660.796	0.0134032
660.874	0.0133902
660.953	0.0132960
661.031	0.0134556
661.109	0.0133380
661.187	0.0134209
661.265	0.0132216
661.343	0.0131847
661.421	0.0132009
661.499	0.0133108
661.578	0.0132246
661.656	0.0134113
661.734	0.0134543
661.812	0.0133153
661.890	0.0132431
661.968	0.0133115
662.046	0.0133363
662.124	0.0135006
662.203	0.0133817
662.281	0.0133331
662.359	0.0133449
662.437	0.0133746
662.515	0.0133086
662.593	0.0133588
662.671	0.0133833
662.749	0.0133500
662.828	0.0133517
662.906	0.0132917
662.984	0.0134007
663.062	0.0133282
663.140	0.0134138
663.218	0.0132138
663.296	0.0133966
663.374	0.0132118
663.453	0.0133477
663.531	0.0133578
663.609	0.0134267
663.687	0.0132131
663.765	0.0132535
663.843	0.0133699
663.921	0.0133263
663.999	0.0134246
664.078	0.0133641
664.156	0.0133998
664.234	0.0133197
664.312	0.0132666
664.390	0.0133113
664.468	0.0132977
664.546	0.0132955
664.624	0.0134380
664.703	0.0133918
664.781	0.0132090
664.859	0.0133872
664.937	0.0132952
665.015	0.0132521
665.093	0.0133408
665.171	0.0132904
665.249	0.0135075
665.328	0.0133698
665.406	0.0132920
665.484	0.0133206
665.562	0.0133803
665.640	0.0133505
665.718	0.0133673
665.796	0.0132931
665.874	0.0133401
665.953	0.0133823
666.031	0.0133477
666.109	0.0135193
666.187	0.0133780
666.265	0.0133840
666.343	0.0134668
666.421	0.0132916
666.499	0.0134672
666.578	0.0133733
666.656	0.0133229
666.734	0.0132578
666.812	0.0132780
666.890	0.0133596
666.968	0.0134232
667.046	0.0133711
667.124	0.0132880
667.203	0.0133151
667.281	0.0131380
667.359	0.0133804
667.437	0.0133540
667.515	0.0133328
667.593	0.0133759
667.671	0.0134719
667.749	0.0134225
667.828	0.0133841
667.906	0.0134232
667.984	0.0133516
668.062	0.0133691
668.140	0.0134635
668.218	0.0134007
668.296	0.0133475
668.374	0.0132677
668.453	0.0134338
668.531	0.0134705
668.609	0.0133544
668.687	0.0132597
668.765	0.0133421
668.843	0.0133828
668.921	0.0134609
668.999	0.0134859
669.078	0.0134536
669.156	0.0133445
669.234	0.0134843
669.312	0.0133431
669.390	0.0133350
669.468	0.0133582
669.546	0.0132677
669.624	0.0133453
669.703	0.0132744
669.781	0.0134083
669.859	0.0133829
669.937	0.0134160
670.015	0.0133273
670.093	0.0133616
670.171	0.0133953
670.249	0.0132001
670.328	0.0133474
670.406	0.0134077
670.484	0.0131568
670.562	0.0133404
670.640	0.0134327
670.718	0.0134986
670.796	0.0134222
670.874	0.0132485
670.953	0.0133409
671.031	0.0134411
671.109	0.0134272
671.187	0.0134498
671.265	0.0134177
671.343	0.0133487
671.421	0.0132431
671.499	0.0135220
671.578	0.0133253
671.656	0.0133650
671.734	0.0134511
671.812	0.0132507
671.890	0.0131885
671.968	0.0134714
672.046	0.0134109
672.124	0.0133111
672.203	0.0132867
672.281	0.0134547
672.359	0.0133694
672.437	0.0132164
672.515	0.0133353
672.593	0.0133890
672.671	0.0134049
672.749	0.0133209
672.828	0.0132888
672.906	0.0133084
672.984	0.0133668
673.062	0.0135161
673.140	0.0132944
673.218	0.0132758
673.296	0.0132696
673.374	0.0133579
673.453	0.0132504
673.531	0.0133146
673.609	0.0133566
673.687	0.0133699
673.765	0.0133566
673.843	0.0132159
673.921	0.0132868
673.999	0.0134678
674.078	0.0132329
674.156	0.0133315
674.234	0.0133425
674.312	0.0132871
674.390	0.0132175
674.468	0.0132787
674.546	0.0133759
674.624	0.0132840
674.703	0.0132014
674.781	0.0132865
674.859	0.0133720
674.937	0.0131742
675.015	0.0133329
675.093	0.0134532
675.171	0.0131938
675.249	0.0132469
675.328	0.0132877
675.406	0.0133012
675.484	0.0134036
675.562	0.0132045
675.640	0.0134150
675.718	0.0133527
675.796	0.0132745
675.874	0.0133178
675.953	0.0134137
676.031	0.0132651
676.109	0.0132661
676.187	0.0132291
676.265	0.0133419
676.343	0.0133640
676.421	0.0130473
676.499	0.0132967
676.578	0.0134139
676.656	0.0134008
676.734	0.0133979
676.812	0.0132298
676.890	0.0132067
676.968	0.0132279
677.046	0.0132822
677.124	0.0132134
677.203	0.0133573
677.281	0.0133331
677.359	0.0132997
677.437	0.0132004
677.515	0.0133887
677.593	0.0132775
677.671	0.0131641
677.749	0.0132026
677.828	0.0134042
677.906	0.0133092
677.984	0.0132983
678.062	0.0133440
678.140	0.0134754
678.218	0.0134315
678.296	0.0133495
678.374	0.0132738
678.453	0.0133051
678.531	0.0131178
678.609	0.0131826
678.687	0.0134462
678.765	0.0134103
678.843	0.0132899
678.921	0.0133592
678.999	0.0132980
679.078	0.0134361
679.156	0.0132867
679.234	0.0133630
679.312	0.0131716
679.390	0.0132325
679.468	0.0132534
679.546	0.0133854
679.624	0.0134319
679.703	0.0133708
679.781	0.0132787
679.859	0.0133723
679.937	0.0134247
680.015	0.0132803
680.093	0.0133160
680.171	0.0132730
680.249	0.0134016
680.328	0.0133134
680.406	0.0132920
680.484	0.0134136
680.562	0.0132326
680.640	0.0132368
680.718	0.0132850
680.796	0.0134801
680.874	0.0133634
680.953	0.0134785
681.031	0.0133643
681.109	0.0134281
681.187	0.0132139
681.265	0.0133392
681.343	0.0133791
681.421	0.0133918
681.499	0.0130927
681.578	0.0131856
681.656	0.0131780
681.734	0.0129800
681.812	0.0130672
681.890	0.0132111
681.968	0.0131013
682.046	0.0130162
682.124	0.0131615
682.203	0.0131043
682.281	0.0131106
682.359	0.0130852
682.437	0.0132968
682.515	0.0133477
682.593	0.0133751
682.671	0.0133633
682.749	0.0134159
682.828	0.0136163
682.906	0.0135735
682.984	0.0136164
683.062	0.0138004
683.140	0.0136797
683.218	0.0138118
683.296	0.0136303
683.374	0.0136922
683.453	0.0136916
683.531	0.0137318
683.609	0.0135192
683.687	0.0133560
683.765	0.0133092
683.843	0.0132349
683.921	0.0129991
683.999	0.0129959
684.078	0.0127171
684.156	0.0126151
684.234	0.0127031
684.312	0.0125812
684.390	0.0125726
684.468	0.0126790
684.546	0.0126974
684.624	0.0126042
684.703	0.0127319
684.781	0.0128036
684.859	0.0129636
684.937	0.0128749
685.015	0.0131226
685.093	0.0132732
685.171	0.0133286
685.249	0.0134904
685.328	0.0136020
685.406	0.0137939
685.484	0.0141015
685.562	0.0143022
685.640	0.0144225
685.718	0.0147948
685.796	0.0148766
685.874	0.0150714
685.953	0.0150782
686.031	0.0150202
686.109	0.0148244
686.187	0.0146324
686.265	0.0143368
686.343	0.0140871
686.421	0.0136109
686.499	0.0130429
686.578	0.0127469
686.656	0.0122208
686.734	0.0119028
686.812	0.0113975
686.890	0.0112389
686.968	0.0111510
687.046	0.0109216
687.124	0.0109193
687.203	0.0110909
687.281	0.0112518
687.359	0.0113978
687.437	0.0116862
687.515	0.0119971
687.593	0.0123318
687.671	0.0125736
687.749	0.0131583
687.828	0.0133440
687.906	0.0137264
687.984	0.0139910
688.062	0.0144449
688.140	0.0146483
688.218	0.0149493
688.296	0.0150774
688.374	0.0153708
688.453	0.0156558
688.531	0.0159295
688.609	0.0161342
688.687	0.0161306
688.765	0.0161793
688.843	0.0161089
688.921	0.0157751
688.999	0.0154920
689.078	0.0149966
689.156	0.0144881
689.234	0.0139787
689.312	0.0133865
689.390	0.0127673
689.468	0.0119772
689.546	0.0113766
689.624	0.0110577
689.703	0.0105235
689.781	0.0104232
689.859	0.0102950
689.937	0.0100581
690.015	0.00989105
690.093	0.0101466
690.171	0.0102197
690.249	0.0105193
690.328	0.0108878
690.406	0.0113680
690.484	0.0117138
690.562	0.0121153
690.640	0.0125599
690.718	0.0131514
690.796	0.0135451
690.874	0.0139357
690.953	0.0143063
691.031	0.0146608
691.109	0.0150757
691.187	0.0154307
691.265	0.0157013
691.343	0.0159779
691.421	0.0163788
691.499	0.0166892
691.578	0.0169725
691.656	0.0170699
691.734	0.0170440
691.812	0.0169032
691.890	0.0168748
691.968	0.0165804
692.046	0.0162450
692.124	0.0157613
692.203	0.0150533
692.281	0.0145224
692.359	0.0137606
692.437	0.0130055
692.515	0.0122244
692.593	0.0115899
692.671	0.0108208
692.749	0.0103294
692.828	0.00982468
692.906	0.00951210
692.984	0.00924019
693.062	0.00902763
693.140	0.00915154
693.218	0.00934868
693.296	0.00928246
693.374	0.00978821
693.453	0.00999855
693.531	0.0106953
693.609	0.0113493
693.687	0.0118320
693.765	0.0124303
693.843	0.0132419
693.921	0.0139046
693.999	0.0144732
694.078	0.0151210
694.156	0.0155817
694.234	0.0160537
694.312	0.0164812
694.390	0.0169708
694.468	0.0173969
694.546	0.0174335
694.624	0.0175672
694.703	0.0175608
694.781	0.0173238
694.859	0.0172025
694.937	0.0166228
695.015	0.0159383
695.093	0.0153714
695.171	0.0145396
695.249	0.0140459
695.328	0.0131913
695.406	0.0123685
695.484	0.0116184
695.562	0.0109665
695.640	0.0103784
695.718	0.0100732
695.796	0.00972206
695.874	0.00937263
695.953	0.00938690
696.031	0.00937073
696.109	0.00952347
696.187	0.00997856
696.265	0.0102403
696.343	0.0107846
696.421	0.0112754
696.499	0.0116873
696.578	0.0124407
696.656	0.0131316
696.734	0.0135053
696.812	0.0141830
696.890	0.0147906
696.968	0.0150222
697.046	0.0155834
697.124	0.0160271
697.203	0.0160935
697.281	0.0163838
697.359	0.0164236
697.437	0.0164902
697.515	0.0165652
697.593	0.0163609
697.671	0.0160931
697.749	0.0156541
697.828	0.0154297
697.906	0.0147989
697.984	0.0144788
698.062	0.0141839
698.140	0.0136267
698.218	0.0128741
698.296	0.0125075
698.374	0.0121817
698.453	0.0118967
698.531	0.0115348
698.609	0.0113128
698.687	0.0112359
698.765	0.0111004
698.843	0.0110009
698.921	0.0109527
698.999	0.0112174
699.078	0.0110860
699.156	0.0113377
699.234	0.0114755
699.312	0.0118289
699.390	0.0120782
699.468	0.0122852
699.546	0.0126564
699.624	0.0129757
699.703	0.0133146
699.781	0.0138400
699.859	0.0141628
699.937	0.0143713
700.015	0.0145610
700.093	0.0148153
700.171	0.0150777
700.249	0.0150933
700.328	0.0151326
700.406	0.0152348
700.484	0.0152600
700.562	0.0149856
700.640	0.0148743
700.718	0.0147326
700.796	0.0145227
700.874	0.0142745
700.953	0.0141150
701.031	0.0139227
701.109	0.0137823
701.187	0.0133311
701.265	0.0132146
701.343	0.0129299
701.421	0.0126858
701.499	0.0125002
701.578	0.0123441
701.656	0.0123096
701.734	0.0121139
701.812	0.0118256
701.890	0.0116882
701.968	0.0117442
702.046	0.0117744
702.124	0.0118655
702.203	0.0118316
702.281	0.0119156
702.359	0.0121637
702.437	0.0127019
702.515	0.0126610
702.593	0.0130048
702.671	0.0134709
702.749	0.0136020
702.828	0.0139069
702.906	0.0141528
702.984	0.0143444
703.062	0.0145534
703.140	0.0147523
703.218	0.0145509
703.296	0.0145586
703.374	0.0145198
703.453	0.0145343
703.531	0.0144518
703.609	0.0142168
703.687	0.0141696
703.765	0.0141875
703.843	0.0139737
703.921	0.0137806
703.999	0.0135400
704.078	0.0134882
704.156	0.0132259
704.234	0.0132339
704.312	0.0131535
704.390	0.0129336
704.468	0.0127757
704.546	0.0125284
704.624	0.0125029
704.703	0.0124961
704.781	0.0124959
704.859	0.0122589
704.937	0.0121527
705.015	0.0121982
705.093	0.0123586
705.171	0.0124339
705.249	0.0125627
705.328	0.0125462
705.406	0.0127416
705.484	0.0128837
705.562	0.0130637
705.640	0.0131757
705.718	0.0133622
705.796	0.0133282
705.874	0.0134728
705.953	0.0134207
706.031	0.0136211
706.109	0.0135529
706.187	0.0135469
706.265	0.0135394
706.343	0.0134409
706.421	0.0134338
706.499	0.0135056
706.578	0.0134457
706.656	0.0135576
706.734	0.0136253
706.812	0.0136126
706.890	0.0135610
706.968	0.0138882
707.046	0.0138739
707.124	0.0139465
707.203	0.0139351
707.281	0.0139314
707.359	0.0140794
707.437	0.0139950
707.515	0.0140054
707.593	0.0139806
707.671	0.0138519
707.749	0.0135579
707.828	0.0135321
707.906	0.0133366
707.984	0.0131680
708.062	0.0131168
708.140	0.0129194
708.218	0.0126817
708.296	0.0125018
708.374	0.0125509
708.453	0.0125201
708.531	0.0124667
708.609	0.0123652
708.687	0.0126328
708.765	0.0125303
708.843	0.0127502
708.921	0.0128407
708.999	0.0127901
709.078	0.0130046
709.156	0.0129721
709.234	0.0131216
709.312	0.0133198
709.390	0.0132833
709.468	0.0133720
709.546	0.0133975
709.624	0.0133548
709.703	0.0132762
709.781	0.0132587
709.859	0.0133538
709.937	0.0131762
710.015	0.0131898
710.093	0.0132914
710.171	0.0132677
710.249	0.0133292
710.328	0.0132416
710.406	0.0131428
710.484	0.0132274
710.562	0.0133430
710.640	0.0134655
710.718	0.0134892
710.796	0.0134363
710.874	0.0134901
710.953	0.0135207
711.031	0.0136927
711.109	0.0139215
711.187	0.0136620
711.265	0.0135851
711.343	0.0136821
711.421	0.0137812
711.499	0.0136932
711.578	0.0137504
711.656	0.0137235
711.734	0.0135976
711.812	0.0134810
711.890	0.0134210
711.968	0.0133654
712.046	0.0131966
712.124	0.0132194
712.203	0.0130956
712.281	0.0132350
712.359	0.0132242
712.437	0.0130187
712.515	0.0130429
712.593	0.0129562
712.671	0.0132047
712.749	0.0131990
712.828	0.0132950
712.906	0.0133827
712.984	0.0133542
713.062	0.0134200
713.140	0.0134550
713.218	0.0134988
713.296	0.0134866
713.374	0.0135053
713.453	0.0136222
713.531	0.0136886
713.609	0.0135801
713.687	0.0136046
713.765	0.0135508
713.843	0.0135184
713.921	0.0132960
713.999	0.0134162
714.078	0.0134181
714.156	0.0132766
714.234	0.0132497
714.312	0.0131030
714.390	0.0131169
714.468	0.0132072
714.546	0.0130884
714.624	0.0129373
714.703	0.0132022
714.781	0.0130465
714.859	0.0130702
714.937	0.0130357
715.015	0.0130737
715.093	0.0129845
715.171	0.0128983
715.249	0.0130331
715.328	0.0130859
715.406	0.0129021
715.484	0.0131269
715.562	0.0129598
715.640	0.0131609
715.718	0.0130671
715.796	0.0129339
715.874	0.0131852
715.953	0.0131341
716.031	0.0131622
716.109	0.0132698
716.187	0.0133754
716.265	0.0134439
716.343	0.0134006
716.421	0.0134806
716.499	0.0136914
716.578	0.0135127
716.656	0.0134869
716.734	0.0137423
716.812	0.0135854
716.890	0.0135800
716.968	0.0135573
717.046	0.0136830
717.124	0.0135479
717.203	0.0136136
717.281	0.0137202
717.359	0.0137015
717.437	0.0135891
717.515	0.0136335
717.593	0.0137863
717.671	0.0138406
717.749	0.0135714
717.828	0.0136176
717.906	0.0137569
717.984	0.0137337
718.062	0.0135658
718.140	0.0134778
718.218	0.0134951
718.296	0.0135107
718.374	0.0133405
718.453	0.0132684
718.531	0.0134203
718.609	0.0133132
718.687	0.0133315
718.765	0.0132323
718.843	0.0131670
718.921	0.0132590
718.999	0.0132908
719.078	0.0131840
719.156	0.0131532
719.234	0.0132221
719.312	0.0132225
719.390	0.0133032
719.468	0.0132234
719.546	0.0131994
719.624	0.0132110
719.703	0.0129842
719.781	0.0131938
719.859	0.0131032
719.937	0.0129277
720.015	0.0131352
720.093	0.0130602
720.171	0.0130549
720.249	0.0131355
720.328	0.0131348
720.406	0.0132830
720.484	0.0133138
720.562	0.0133381
720.640	0.0134023
720.718	0.0134020
720.796	0.0134110
720.874	0.0134416
720.953	0.0136755
721.031	0.0136503
721.109	0.0135695
721.187	0.0135865
721.265	0.0136574
721.343	0.0135249
721.421	0.0136309
721.499	0.0134928
721.578	0.0134618
721.656	0.0136916
721.734	0.0135114
721.812	0.0136150
721.890	0.0136267
721.968	0.0134435
722.046	0.0136402
722.124	0.0135861
722.203	0.0136404
722.281	0.0134517
722.359	0.0136042
722.437	0.0134483
722.515	0.0133891
722.593	0.0133202
722.671	0.0134189
722.749	0.0132748
722.828	0.0130637
722.906	0.0129743
722.984	0.0129128
723.062	0.0129919
723.140	0.0129868
723.218	0.0129356
723.296	0.0129712
723.374	0.0129656
723.453	0.0132553
723.531	0.0131662
723.609	0.0133019
723.687	0.0134660
723.765	0.0134145
723.843	0.0136874
723.921	0.0135670
723.999	0.0137884
724.078	0.0136691
724.156	0.0137745
724.234	0.0138668
724.312	0.0138258
724.390	0.0136100
724.468	0.0135165
724.546	0.0136486
724.624	0.0136157
724.703	0.0135140
724.781	0.0135206
724.859	0.0134072
724.937	0.0134222
725.015	0.0132571
725.093	0.0132545
725.171	0.0131574
725.249	0.0131568
725.328	0.0132549
725.406	0.0131444
725.484	0.0130059
725.562	0.0131149
725.640	0.0131845
725.718	0.0131982
725.796	0.0131135
725.874	0.0131698
725.953	0.0132714
726.031	0.0133815
726.109	0.0134025
726.187	0.0133629
726.265	0.0134254
726.343	0.0135880
726.421	0.0136737
726.499	0.0134818
726.578	0.0135624
726.656	0.0135739
726.734	0.0135750
726.812	0.0133865
726.890	0.0136089
726.968	0.0134708
727.046	0.0133893
727.124	0.0133998
727.203	0.0133148
727.281	0.0131049
727.359	0.0131837
727.437	0.0131244
727.515	0.0131218
727.593	0.0130808
727.671	0.0131118
727.749	0.0132088
727.828	0.0131492
727.906	0.0131291
727.984	0.0133673
728.062	0.0134203
728.140	0.0133774
728.218	0.0135305
728.296	0.0134634
728.374	0.0135705
728.453	0.0136217
728.531	0.0136190
728.609	0.0134931
728.687	0.0134868
728.765	0.0135086
728.843	0.0135422
728.921	0.0134532
728.999	0.0135052
729.078	0.0135593
729.156	0.0136137
729.234	0.0134237
729.312	0.0134216
729.390	0.0135411
729.468	0.0134828
729.546	0.0135580
729.624	0.0135355
729.703	0.0135550
729.781	0.0134648
729.859	0.0135635
729.937	0.0133280
730.015	0.0133987
730.093	0.0133611
730.171	0.0132957
730.249	0.0131527
730.328	0.0131331
730.406	0.0131247
730.484	0.0130801
730.562	0.0131524
730.640	0.0129461
730.718	0.0131207
730.796	0.0130190
730.874	0.0130092
730.953	0.0130145
731.031	0.0131750
731.109	0.0131706
731.187	0.0130962
731.265	0.0132845
731.343	0.0133149
731.421	0.0132725
731.499	0.0132650
731.578	0.0132595
731.656	0.0133070
731.734	0.0133484
731.812	0.0132741
731.890	0.0131847
731.968	0.0133133
732.046	0.0132852
732.124	0.0133747
732.203	0.0134158
732.281	0.0133618
732.359	0.0133547
732.437	0.0135668
732.515	0.0134278
732.593	0.0134779
732.671	0.0135606
732.749	0.0135592
732.828	0.0135973
732.906	0.0135851
732.984	0.0136002
733.062	0.0135110
733.140	0.0135527
733.218	0.0134743
733.296	0.0132501
733.374	0.0133721
733.453	0.0133963
733.531	0.0132831
733.609	0.0133167
733.687	0.0132407
733.765	0.0132634
733.843	0.0133810
733.921	0.0134534
733.999	0.0133220
734.078	0.0132326
734.156	0.0133316
734.234	0.0134406
734.312	0.0133495
734.390	0.0132912
734.468	0.0136042
734.546	0.0135055
734.624	0.0135378
734.703	0.0134791
734.781	0.0132880
734.859	0.0134140
734.937	0.0133543
735.015	0.0133351
735.093	0.0133662
735.171	0.0131993
735.249	0.0131815
735.328	0.0132977
735.406	0.0133631
735.484	0.0133041
735.562	0.0132522
735.640	0.0131826
735.718	0.0133367
735.796	0.0132734
735.874	0.0131798
735.953	0.0133305
736.031	0.0132193
736.109	0.0133615
736.187	0.0131739
736.265	0.0132629
736.343	0.0133504
736.421	0.0131596
736.499	0.0131766
736.578	0.0133592
736.656	0.0133830
736.734	0.0135329
736.812	0.0135138
736.890	0.0133907
736.968	0.0134908
737.046	0.0134254
737.124	0.0134988
737.203	0.0135452
737.281	0.0135979
737.359	0.0135499
737.437	0.0133281
737.515	0.0133651
737.593	0.0133528
737.671	0.0133688
737.749	0.0133009
737.828	0.0132062
737.906	0.0131483
737.984	0.0131886
738.062	0.0130835
738.140	0.0130408
738.218	0.0129586
738.296	0.0129768
738.374	0.0130238
738.453	0.0130334
738.531	0.0131185
738.609	0.0132206
738.687	0.0130856
738.765	0.0132070
738.843	0.0133308
738.921	0.0132246
738.999	0.0133355
739.078	0.0132851
739.156	0.0134597
739.234	0.0135083
739.312	0.0135077
739.390	0.0136564
739.468	0.0136822
739.546	0.0135321
739.624	0.0136662
739.703	0.0137122
739.781	0.0136723
739.859	0.0136546
739.937	0.0137268
740.015	0.0137383
740.093	0.0135744
740.171	0.0134779
740.249	0.0135573
740.328	0.0135332
740.406	0.0135603
740.484	0.0134289
740.562	0.0133205
740.640	0.0135031
740.718	0.0133808
740.796	0.0132777
740.874	0.0132784
740.953	0.0133125
741.031	0.0133659
741.109	0.0132629
741.187	0.0131233
741.265	0.0133821
741.343	0.0133748
741.421	0.0133754
741.499	0.0134517
741.578	0.0133154
741.656	0.0133841
741.734	0.0134365
741.812	0.0134379
741.890	0.0134016
741.968	0.0133383
742.046	0.0133723
742.124	0.0133289
742.203	0.0134039
742.281	0.0133154
742.359	0.0130686
742.437	0.0132556
742.515	0.0132902
742.593	0.0133665
742.671	0.0132837
742.749	0.0131575
742.828	0.0131820
742.906	0.0131074
742.984	0.0132336
743.062	0.0132291
743.140	0.0131810
743.218	0.0131873
743.296	0.0133083
743.374	0.0133640
743.453	0.0133808
743.531	0.0134377
743.609	0.0134491
743.687	0.0135116
743.765	0.0135291
743.843	0.0136040
743.921	0.0133501
743.999	0.0135442
744.078	0.0135727
744.156	0.0135329
744.234	0.0135025
744.312	0.0136200
744.390	0.0136138
744.468	0.0135359
744.546	0.0135001
744.624	0.0135907
744.703	0.0135796
744.781	0.0135435
744.859	0.0137133
744.937	0.0137317
745.015	0.0134960
745.093	0.0136885
745.171	0.0136781
745.249	0.0135701
745.328	0.0135651
745.406	0.0134724
745.484	0.0134610
745.562	0.0134859
745.640	0.0134132
745.718	0.0132114
745.796	0.0130530
745.874	0.0131187
745.953	0.0131791
746.031	0.0130995
746.109	0.0131004
746.187	0.0132388
746.265	0.0133035
746.343	0.0132885
746.421	0.0133196
746.499	0.0133339
746.578	0.0134400
746.656	0.0133850
746.734	0.0135333
746.812	0.0135311
746.890	0.0135966
746.968	0.0137023
747.046	0.0136858
747.124	0.0137283
747.203	0.0135883
747.281	0.0136905
747.359	0.0135152
747.437	0.0135204
747.515	0.0135263
747.593	0.0134367
747.671	0.0135058
747.749	0.0134826
747.828	0.0133447
747.906	0.0134002
747.984	0.0133633
748.062	0.0132688
748.140	0.0133829
748.218	0.0132977
748.296	0.0131842
748.374	0.0130669
748.453	0.0131281
748.531	0.0132692
748.609	0.0131273
748.687	0.0132178
748.765	0.0132435
748.843	0.0132686
748.921	0.0133969
748.999	0.0132372
749.078	0.0132539
749.156	0.0132220
749.234	0.0133073
749.312	0.0134786
749.390	0.0133867
749.468	0.0133646
749.546	0.0136118
749.624	0.0135623
749.703	0.0134990
749.781	0.0135490
749.859	0.0134325
749.937	0.0135793
750.015	0.0134864
750.093	0.0135120
750.171	0.0133615
750.249	0.0133878
750.328	0.0135075
750.406	0.0134858
750.484	0.0133608
750.562	0.0130799
750.640	0.0131693
750.718	0.0132941
750.796	0.0134238
750.874	0.0133190
750.953	0.0133882
751.031	0.0133453
751.109	0.0133932
751.187	0.0134698
751.265	0.0133762
751.343	0.0134609
751.421	0.0134662
751.499	0.0135793
751.578	0.0134135
751.656	0.0134406
751.734	0.0135023
751.812	0.0135715
751.890	0.0135349
751.968	0.0134012
752.046	0.0135607
752.124	0.0135049
752.203	0.0134828
752.281	0.0134766
752.359	0.0136375
752.437	0.0134949
752.515	0.0134387
752.593	0.0134322
752.671	0.0135975
752.749	0.0134345
752.828	0.0133382
752.906	0.0133301
752.984	0.0132526
753.062	0.0130331
753.140	0.0132035
753.218	0.0132343
753.296	0.0133638
753.374	0.0131410
753.453	0.0131553
753.531	0.0132126
753.609	0.0131519
753.687	0.0132370
753.765	0.0131434
753.843	0.0132128
753.921	0.0134087
753.999	0.0133383
754.078	0.0132710
754.156	0.0133712
754.234	0.0134498
754.312	0.0134306
754.390	0.0133976
754.468	0.0135291
754.546	0.0134061
754.624	0.0135513
754.703	0.0134273
754.781	0.0134407
754.859	0.0134680
754.937	0.0134842
755.015	0.0134541
755.093	0.0134132
755.171	0.0133186
755.249	0.0133735
755.328	0.0133360
755.406	0.0133794
755.484	0.0132417
755.562	0.0133398
755.640	0.0133464
755.718	0.0133045
755.796	0.0133195
755.874	0.0134712
755.953	0.0132081
756.031	0.0132853
756.109	0.0132325
756.187	0.0131758
756.265	0.0133708
756.343	0.0133730
756.421	0.0132526
756.499	0.0132598
756.578	0.0132405
756.656	0.0134586
756.734	0.0134163
756.812	0.0132407
756.890	0.0133747
756.968	0.0134213
757.046	0.0133766
757.124	0.0134349
757.203	0.0133377
757.281	0.0134245
757.359	0.0134599
757.437	0.0133742
757.515	0.0133504
757.593	0.0132969
757.671	0.0133788
757.749	0.0133738
757.828	0.0132183
757.906	0.0131220
757.984	0.0132242
758.062	0.0132713
758.140	0.0131503
758.218	0.0132015
758.296	0.0131631
758.374	0.0132403
758.453	0.0132457
758.531	0.0132248
758.609	0.0131905
758.687	0.0131870
758.765	0.0133302
758.843	0.0133182
758.921	0.0132562
758.999	0.0132571
759.078	0.0134569
759.156	0.0134781
759.234	0.0133286
759.312	0.0132714
759.390	0.0133883
759.468	0.0135947
759.546	0.0134747
759.624	0.0134879
759.703	0.0134516
759.781	0.0135091
759.859	0.0134866
759.937	0.0133913
760.015	0.0134165
760.093	0.0134944
760.171	0.0134474
760.249	0.0133306
760.328	0.0133369
760.406	0.0134043
760.484	0.0133110
760.562	0.0133560
760.640	0.0132691
760.718	0.0132457
760.796	0.0132275
760.874	0.0132390
760.953	0.0132826
761.031	0.0132853
761.109	0.0132133
761.187	0.0132374
761.265	0.0131467
761.343	0.0131321
761.421	0.0131535
761.499	0.0132458
761.578	0.0132243
761.656	0.0130532
761.734	0.0131927
761.812	0.0133627
761.890	0.0131918
761.968	0.0133092
762.046	0.0133646
762.124	0.0134196
762.203	0.0135153
762.281	0.0135548
762.359	0.0135926
762.437	0.0137106
762.515	0.0137366
762.593	0.0136530
762.671	0.0136124
762.749	0.0137289
762.828	0.0135349
762.906	0.0135707
762.984	0.0135866
763.062	0.0133678
763.140	0.0134438
763.218	0.0133470
763.296	0.0133368
763.374	0.0132378
763.453	0.0132995
763.531	0.0132684
763.609	0.0132682
763.687	0.0133984
763.765	0.0133781
763.843	0.0133614
763.921	0.0133268
763.999	0.0135048
764.078	0.0134794
764.156	0.0134782
764.234	0.0135259
764.312	0.0134223
764.390	0.0133405
764.468	0.0133153
764.546	0.0132802
764.624	0.0131973
764.703	0.0132703
764.781	0.0133031
764.859	0.0132078
764.937	0.0132619
765.015	0.0131425
765.093	0.0133852
765.171	0.0135746
765.249	0.0136591
765.328	0.0135658
765.406	0.0136565
765.484	0.0136159
765.562	0.0136440
765.640	0.0135427
765.718	0.0135834
765.796	0.0134691
765.874	0.0134436
765.953	0.0135175
766.031	0.0133786
766.109	0.0132534
766.187	0.0132004
766.265	0.0131129
766.343	0.0131169
766.421	0.0131339
766.499	0.0130922
766.578	0.0131493
766.656	0.0132395
766.734	0.0132155
766.812	0.0133388
766.890	0.0133125
766.968	0.0133195
767.046	0.0133926
767.124	0.0134228
767.203	0.0133647
767.281	0.0134489
767.359	0.0133331
767.437	0.0132417
767.515	0.0132925
767.593	0.0132735
767.671	0.0131413
767.749	0.0131916
767.828	0.0130783
767.906	0.0132886
767.984	0.0133273
768.062	0.0134821
768.140	0.0136887
768.218	0.0135396
768.296	0.0137249
768.374	0.0138043
768.453	0.0137273
768.531	0.0138946
768.609	0.0139328
768.687	0.0137702
768.765	0.0137250
768.843	0.0136382
768.921	0.0136954
768.999	0.0134372
769.078	0.0132822
769.156	0.0133084
769.234	0.0132496
769.312	0.0130313
769.390	0.0129777
769.468	0.0131731
769.546	0.0129996
769.624	0.0130077
769.703	0.0130354
769.781	0.0132362
769.859	0.0132215
769.937	0.0132298
770.015	0.0133390
770.093	0.0132733
770.171	0.0132372
770.249	0.0131944
770.328	0.0131161
770.406	0.0131149
770.484	0.0130602
770.562	0.0130433
770.640	0.0130473
770.718	0.0132178
770.796	0.0130898
770.874	0.0131817
770.953	0.0131960
771.031	0.0134850
771.109	0.0135810
771.187	0.0136761
771.265	0.0136536
771.343	0.0139395
771.421	0.0139163
771.499	0.0138799
771.578	0.0138774
771.656	0.0139149
771.734	0.0138747
771.812	0.0137042
771.890	0.0135139
771.968	0.0134896
772.046	0.0132313
772.124	0.0134325
772.203	0.0131960
772.281	0.0130692
772.359	0.0130988
772.437	0.0130149
772.515	0.0130202
772.593	0.0129594
772.671	0.0132139
772.749	0.0130978
772.828	0.0131731
772.906	0.0131947
772.984	0.0131658
773.062	0.0131169
773.140	0.0131321
773.218	0.0132686
773.296	0.0131416
773.374	0.0131518
773.453	0.0132522
773.531	0.0132025
773.609	0.0131173
773.687	0.0132840
773.765	0.0134051
773.843	0.0133646
773.921	0.0132905
773.999	0.0135392
774.078	0.0136410
774.156	0.0134774
774.234	0.0136047
774.312	0.0137493
774.390	0.0138241
774.468	0.0137277
774.546	0.0137227
774.624	0.0137340
774.703	0.0138936
774.781	0.0138019
774.859	0.0137866
774.937	0.0135478
775.015	0.0135435
775.093	0.0134814
775.171	0.0134340
775.249	0.0133320
775.328	0.0133524
775.406	0.0132305
775.484	0.0132127
775.562	0.0131897
775.640	0.0130342
775.718	0.0130106
775.796	0.0131062
775.874	0.0131142
775.953	0.0130960
776.031	0.0130297
776.109	0.0130498
776.187	0.0131502
776.265	0.0131403
776.343	0.0131699
776.421	0.0131764
776.499	0.0131817
776.578	0.0131201
776.656	0.0132594
776.734	0.0131580
776.812	0.0134414
776.890	0.0135005
776.968	0.0133215
777.046	0.0134543
777.124	0.0135062
777.203	0.0134887
777.281	0.0136175
777.359	0.0136808
777.437	0.0136221
777.515	0.0135665
777.593	0.0138054
777.671	0.0135812
777.749	0.0136840
777.828	0.0136855
777.906	0.0135601
777.984	0.0135310
778.062	0.0134335
778.140	0.0134654
778.218	0.0133088
778.296	0.0131828
778.374	0.0131746
778.453	0.0131099
778.531	0.0132001
778.609	0.0130033
778.687	0.0131091
778.765	0.0130077
778.843	0.0130624
778.921	0.0131844
778.999	0.0129811
779.078	0.0130910
779.156	0.0131938
779.234	0.0131480
779.312	0.0131552
779.390	0.0131403
779.468	0.0132526
779.546	0.0131519
779.624	0.0131781
779.703	0.0132244
779.781	0.0132034
779.859	0.0133379
779.937	0.0135086
780.015	0.0132928
780.093	0.0134875
780.171	0.0134335
780.249	0.0133223
780.328	0.0134729
780.406	0.0136124
780.484	0.0134983
780.562	0.0134727
780.640	0.0132900
780.718	0.0133101
780.796	0.0134275
780.874	0.0133215
780.953	0.0133237
781.031	0.0132990
781.109	0.0132323
781.187	0.0132040
781.265	0.0131268
781.343	0.0130634
781.421	0.0131980
781.499	0.0130704
781.578	0.0131602
781.656	0.0130508
781.734	0.0131998
781.812	0.0131583
781.890	0.0130241
781.968	0.0131605
782.046	0.0131802
782.124	0.0132743
782.203	0.0132816
782.281	0.0132388
782.359	0.0132823
782.437	0.0131503
782.515	0.0132405
782.593	0.0134736
782.671	0.0133369
782.749	0.0133977
782.828	0.0135097
782.906	0.0135238
782.984	0.0134714
783.062	0.0134756
783.140	0.0134777
783.218	0.0135187
783.296	0.0134217
783.374	0.0134475
783.453	0.0133821
783.531	0.0133828
783.609	0.0133275
783.687	0.0134331
783.765	0.0134386
783.843	0.0133813
783.921	0.0133501
783.999	0.0132901
784.078	0.0131815
784.156	0.0130811
784.234	0.0131178
784.312	0.0132984
784.390	0.0132442
784.468	0.0133246
784.546	0.0131760
784.624	0.0132255
784.703	0.0131763
784.781	0.0132474
784.859	0.0131982
784.937	0.0133636
785.015	0.0133618
785.093	0.0134549
785.171	0.0134267
785.249	0.0134300
785.328	0.0134579
785.406	0.0133933
785.484	0.0134094
785.562	0.0133338
785.640	0.0133186
785.718	0.0133622
785.796	0.0134131
785.874	0.0133345
785.953	0.0133430
786.031	0.0133218
786.109	0.0133508
786.187	0.0133381
786.265	0.0132680
786.343	0.0132966
786.421	0.0132081
786.499	0.0132144
786.578	0.0131179
786.656	0.0130844
786.734	0.0129171
786.812	0.0130566
786.890	0.0129825
786.968	0.0129919
787.046	0.0131869
787.124	0.0130279
787.203	0.0130582
787.281	0.0129958
787.359	0.0130597
787.437	0.0130692
787.515	0.0132377
787.593	0.0133597
787.671	0.0133395
787.749	0.0134453
787.828	0.0133736
787.906	0.0135621
787.984	0.0136348
788.062	0.0136105
788.140	0.0137995
788.218	0.0136953
788.296	0.0136866
788.374	0.0135863
788.453	0.0137197
788.531	0.0135891
788.609	0.0135905
788.687	0.0134241
788.765	0.0133302
788.843	0.0135070
788.921	0.0131966
788.999	0.0132566
789.078	0.0131927
789.156	0.0129214
789.234	0.0130373
789.312	0.0129415
789.390	0.0129404
789.468	0.0128728
789.546	0.0128410
789.624	0.0128624
789.703	0.0129346
789.781	0.0129047
789.859	0.0128664
789.937	0.0128761
790.015	0.0129886
790.093	0.0131245
790.171	0.0129655
790.249	0.0131368
790.328	0.0132567
790.406	0.0132024
790.484	0.0133556
790.562	0.0134872
790.640	0.0134531
790.718	0.0134755
790.796	0.0135844
790.874	0.0135725
790.953	0.0137297
791.031	0.0137698
791.109	0.0137704
791.187	0.0138775
791.265	0.0137557
791.343	0.0136993
791.421	0.0136811
791.499	0.0136668
791.578	0.0134994
791.656	0.0132806
791.734	0.0134164
791.812	0.0131753
791.890	0.0131644
791.968	0.0131886
792.046	0.0130606
792.124	0.0129073
792.203	0.0128712
792.281	0.0127108
792.359	0.0128224
792.437	0.0128082
792.515	0.0127719
792.593	0.0128234
792.671	0.0128873
792.749	0.0130448
792.828	0.0129673
792.906	0.0129601
792.984	0.0130962
793.062	0.0132201
793.140	0.0133544
793.218	0.0133630
793.296	0.0134590
793.374	0.0134953
793.453	0.0135596
793.531	0.0135339
793.609	0.0136201
793.687	0.0137383
793.765	0.0137759
793.843	0.0137693
793.921	0.0137714
793.999	0.0138651
794.078	0.0138074
794.156	0.0137701
794.234	0.0138056
794.312	0.0137463
794.390	0.0136214
794.468	0.0136460
794.546	0.0135596
794.624	0.0134435
794.703	0.0134833
794.781	0.0132711
794.859	0.0132316
794.937	0.0131556
795.015	0.0130138
795.093	0.0130897
795.171	0.0131038
795.249	0.0131142
795.328	0.0131266
795.406	0.0128095
795.484	0.0129332
795.562	0.0129549
795.640	0.0129243
795.718	0.0129650
795.796	0.0131753
795.874	0.0131661
795.953	0.0131229
796.031	0.0132561
796.109	0.0132375
796.187	0.0132922
796.265	0.0133862
796.343	0.0132256
796.421	0.0134756
796.499	0.0133771
796.578	0.0132473
796.656	0.0134401
796.734	0.0134165
796.812	0.0135729
796.890	0.0135004
796.968	0.0134217
797.046	0.0134713
797.124	0.0135467
797.203	0.0134546
797.281	0.0132828
797.359	0.0135070
797.437	0.0134511
797.515	0.0134355
797.593	0.0134598
797.671	0.0133444
797.749	0.0133612
797.828	0.0133623
797.906	0.0132226
797.984	0.0132476
798.062	0.0132773
798.140	0.0132589
798.218	0.0132281
798.296	0.0131230
798.374	0.0131995
798.453	0.0131266
798.531	0.0132751
798.609	0.0131730
798.687	0.0132420
798.765	0.0132860
798.843	0.0132735
798.921	0.0132685
798.999	0.0133672
799.078	0.0131382
799.156	0.0132233
799.234	0.0133333
799.312	0.0132483
799.390	0.0133103
799.468	0.0132008
799.546	0.0131383
799.624	0.0131595
799.703	0.0131105
799.781	0.0133171
799.859	0.0131354
799.937	0.0131992
800.015	0.0134389
800.093	0.0133585
800.171	0.0132764
800.249	0.0133781
800.328	0.0133656
800.406	0.0134872
800.484	0.0132686
800.562	0.0132963
800.640	0.0134356
800.718	0.0134423
800.796	0.0134476
800.874	0.0133739
800.953	0.0133145
801.031	0.0132336
801.109	0.0130758
801.187	0.0134251
801.265	0.0133723
801.343	0.0131743
801.421	0.0132932
801.499	0.0133374
801.578	0.0132268
801.656	0.0131712
801.734	0.0132733
801.812	0.0132838
801.890	0.0132673
801.968	0.0132779
802.046	0.0131527
802.124	0.0132864
802.203	0.0133165
802.281	0.0132807
802.359	0.0131931
802.437	0.0131044
802.515	0.0131401
802.593	0.0132201
802.671	0.0132415
802.749	0.0131095
802.828	0.0132198
802.906	0.0132018
802.984	0.0131244
803.062	0.0133765
803.140	0.0133649
803.218	0.0134135
803.296	0.0133027
803.374	0.0133916
803.453	0.0135315
803.531	0.0135630
803.609	0.0135860
803.687	0.0136074
803.765	0.0136512
803.843	0.0136688
803.921	0.0135690
803.999	0.0134263
804.078	0.0135143
804.156	0.0134756
804.234	0.0132994
804.312	0.0133661
804.390	0.0133958
804.468	0.0132832
804.546	0.0131927
804.624	0.0133041
804.703	0.0132195
804.781	0.0131086
804.859	0.0131980
804.937	0.0132116
805.015	0.0131594
805.093	0.0131123
805.171	0.0132311
805.249	0.0130292
805.328	0.0131158
805.406	0.0131812
805.484	0.0133352
805.562	0.0131325
805.640	0.0130883
805.718	0.0131692
805.796	0.0133056
805.874	0.0133481
805.953	0.0132058
806.031	0.0131290
806.109	0.0132999
806.187	0.0133782
806.265	0.0133508
806.343	0.0133817
806.421	0.0133829
806.499	0.0133999
806.578	0.0134409
806.656	0.0135548
806.734	0.0134286
806.812	0.0134905
806.890	0.0135189
806.968	0.0136134
807.046	0.0135172
807.124	0.0135578
807.203	0.0134803
807.281	0.0133241
807.359	0.0133943
807.437	0.0133497
807.515	0.0133150
807.593	0.0133331
807.671	0.0132206
807.749	0.0133585
807.828	0.0131921
807.906	0.0132959
807.984	0.0132590
808.062	0.0133861
808.140	0.0134513
808.218	0.0132944
808.296	0.0132672
808.374	0.0134492
808.453	0.0134613
808.531	0.0134718
808.609	0.0132822
808.687	0.0134970
808.765	0.0133109
808.843	0.0134469
808.921	0.0134209
808.999	0.0133578
809.078	0.0132957
809.156	0.0133322
809.234	0.0134361
809.312	0.0134238
809.390	0.0133863
809.468	0.0133788
809.546	0.0133596
809.624	0.0132657
809.703	0.0133875
809.781	0.0134377
809.859	0.0134100
809.937	0.0134272
810.015	0.0133192
810.093	0.0134948
810.171	0.0133756
810.249	0.0133672
810.328	0.0134278
810.406	0.0134564
810.484	0.0134615
810.562	0.0131962
810.640	0.0132880
810.718	0.0134113
810.796	0.0131819
810.874	0.0132812
810.953	0.0132598
811.031	0.0131812
811.109	0.0131947
811.187	0.0132136
811.265	0.0132856
811.343	0.0132263
811.421	0.0133892
811.499	0.0135065
811.578	0.0133206
811.656	0.0133739
811.734	0.0134782
811.812	0.0134345
811.890	0.0134036
811.968	0.0134667
812.046	0.0134861
812.124	0.0134223
812.203	0.0133833
812.281	0.0133497
812.359	0.0135178
812.437	0.0135199
812.515	0.0134186
812.593	0.0134390
812.671	0.0134927
812.749	0.0133141
812.828	0.0132841
812.906	0.0134096
812.984	0.0135194
813.062	0.0135052
813.140	0.0134238
813.218	0.0133147
813.296	0.0133052
813.374	0.0133765
813.453	0.0133144
813.531	0.0134256
813.609	0.0132139
813.687	0.0133479
813.765	0.0132695
813.843	0.0132903
813.921	0.0132942
813.999	0.0132366
814.078	0.0133107
814.156	0.0133760
814.234	0.0134037
814.312	0.0133400
814.390	0.0132824
814.468	0.0132232
814.546	0.0133517
814.624	0.0132596
814.703	0.0133920
814.781	0.0133579
814.859	0.0132848
814.937	0.0133647
815.015	0.0132977
815.093	0.0133455
815.171	0.0132787
815.249	0.0132992
815.328	0.0132864
815.406	0.0133047
815.484	0.0132523
815.562	0.0135032
815.640	0.0133698
815.718	0.0133639
815.796	0.0132504
815.874	0.0133685
815.953	0.0133281
816.031	0.0132011
816.109	0.0133443
816.187	0.0133576
816.265	0.0133796
816.343	0.0131873
816.421	0.0132932
816.499	0.0134010
816.578	0.0132333
816.656	0.0132993
816.734	0.0132489
816.812	0.0131972
816.890	0.0132788
816.968	0.0133371
817.046	0.0131529
817.124	0.0132124
817.203	0.0132745
817.281	0.0132237
817.359	0.0133357
817.437	0.0134119
817.515	0.0133640
817.593	0.0133365
817.671	0.0134496
817.749	0.0133116
817.828	0.0134618
817.906	0.0133613
817.984	0.0133794
818.062	0.0133481
818.140	0.0132533
818.218	0.0135791
818.296	0.0134306
818.374	0.0135972
818.453	0.0135767
818.531	0.0133669
818.609	0.0134258
818.687	0.0133654
818.765	0.0132982
818.843	0.0134863
818.921	0.0134251
818.999	0.0133292
819.078	0.0132320
819.156	0.0131466
819.234	0.0131163
819.312	0.0131947
819.390	0.0133310
819.468	0.0132085
819.546	0.0131184
819.624	0.0131798
819.703	0.0132546
819.781	0.0133039
819.859	0.0132687
819.937	0.0131940
820.015	0.0131591
820.093	0.0131633
820.171	0.0131567
820.249	0.0132288
820.328	0.0132729
820.406	0.0132899
820.484	0.0134737
820.562	0.0132592
820.640	0.0134287
820.718	0.0133936
820.796	0.0134864
820.874	0.0135114
820.953	0.0136560
821.031	0.0136787
821.109	0.0134885
821.187	0.0136405
821.265	0.0135622
821.343	0.0136018
821.421	0.0134778
821.499	0.0135979
821.578	0.0135394
821.656	0.0135021
821.734	0.0134641
821.812	0.0135300
821.890	0.0133717
821.968	0.0134180
822.046	0.0133705
822.124	0.0134106
822.203	0.0134425
822.281	0.0133842
822.359	0.0134434
822.437	0.0133549
822.515	0.0133282
822.593	0.0131567
822.671	0.0134051
822.749	0.0133882
822.828	0.0132485
822.906	0.0132810
822.984	0.0131947
823.062	0.0131390
823.140	0.0133004
823.218	0.0133009
823.296	0.0132648
823.374	0.0132598
823.453	0.0133643
823.531	0.0132790
823.609	0.0133146
823.687	0.0133937
823.765	0.0134715
823.843	0.0133444
823.921	0.0133818
823.999	0.0133533
824.078	0.0134241
824.156	0.0135466
824.234	0.0135099
824.312	0.0132987
824.390	0.0134834
824.468	0.0134204
824.546	0.0135167
824.624	0.0134515
824.703	0.0132816
824.781	0.0134380
824.859	0.0134888
824.937	0.0134159
825.015	0.0134016
825.093	0.0133868
825.171	0.0134559
825.249	0.0134094
825.328	0.0134117
825.406	0.0134016
825.484	0.0134135
825.562	0.0132517
825.640	0.0134563
825.718	0.0132890
825.796	0.0132979
825.874	0.0131878
825.953	0.0133385
826.031	0.0133907
826.109	0.0133041
826.187	0.0132323
826.265	0.0133946
826.343	0.0133329
826.421	0.0133724
826.499	0.0132526
826.578	0.0132903
826.656	0.0133835
826.734	0.0133981
826.812	0.0134054
826.890	0.0133262
826.968	0.0135059
827.046	0.0134298
827.124	0.0133888
827.203	0.0134647
827.281	0.0133897
827.359	0.0133468
827.437	0.0132726
827.515	0.0133227
827.593	0.0132927
827.671	0.0131940
827.749	0.0133475
827.828	0.0134735
827.906	0.0134307
827.984	0.0133303
828.062	0.0132547
828.140	0.0134315
828.218	0.0132383
828.296	0.0132487
828.374	0.0133764
828.453	0.0132428
828.531	0.0133154
828.609	0.0132395
828.687	0.0133119
828.765	0.0133880
828.843	0.0132906
828.921	0.0132757
828.999	0.0133974
829.078	0.0133804
829.156	0.0135460
829.234	0.0133029
829.312	0.0133778
829.390	0.0134400
829.468	0.0134744
829.546	0.0135487
829.624	0.0134502
829.703	0.0134548
829.781	0.0136045
829.859	0.0134404
829.937	0.0134277
830.015	0.0134162
830.093	0.0133423
830.171	0.0135122
830.249	0.0135342
830.328	0.0134229
830.406	0.0133669
830.484	0.0134418
830.562	0.0133071
830.640	0.0134097
830.718	0.0133656
830.796	0.0133936
830.874	0.0134822
830.953	0.0134140
831.031	0.0133768
831.109	0.0133930
831.187	0.0133624
831.265	0.0134068
831.343	0.0132649
831.421	0.0133524
831.499	0.0133994
831.578	0.0132961
831.656	0.0131588
831.734	0.0132515
831.812	0.0132871
831.890	0.0133353
831.968	0.0132320
832.046	0.0132460
832.124	0.0133362
832.203	0.0133421
832.281	0.0130801
832.359	0.0131976
832.437	0.0133069
832.515	0.0133735
832.593	0.0133286
832.671	0.0134184
832.749	0.0133920
832.828	0.0135337
832.906	0.0135999
832.984	0.0133819
833.062	0.0134130
833.140	0.0135886
833.218	0.0135459
833.296	0.0134922
833.374	0.0134733
833.453	0.0135057
833.531	0.0135825
833.609	0.0135317
833.687	0.0136262
833.765	0.0135201
833.843	0.0134808
833.921	0.0135315
833.999	0.0134241
834.078	0.0133437
834.156	0.0133789
834.234	0.0133659
834.312	0.0133660
834.390	0.0133273
834.468	0.0132964
834.546	0.0132343
834.624	0.0132985
834.703	0.0132616
834.781	0.0133485
834.859	0.0132853
834.937	0.0131625
835.015	0.0131648
835.093	0.0133101
835.171	0.0133440
835.249	0.0132068
835.328	0.0131665
835.406	0.0132032
835.484	0.0133076
835.562	0.0132936
835.640	0.0133096
835.718	0.0132765
835.796	0.0132849
835.874	0.0134747
835.953	0.0134834
836.031	0.0134335
836.109	0.0134460
836.187	0.0135178
836.265	0.0135387
836.343	0.0135142
836.421	0.0135833
836.499	0.0135471
836.578	0.0136674
836.656	0.0135624
836.734	0.0136255
836.812	0.0135256
836.890	0.0134299
836.968	0.0133698
837.046	0.0134743
837.124	0.0134032
837.203	0.0133366
837.281	0.0133538
837.359	0.0132396
837.437	0.0132983
837.515	0.0131593
837.593	0.0132056
837.671	0.0133384
837.749	0.0133128
837.828	0.0131604
837.906	0.0132271
837.984	0.0132786
838.062	0.0132095
838.140	0.0131934
838.218	0.0132079
838.296	0.0131880
838.374	0.0131105
838.453	0.0134120
838.531	0.0132748
838.609	0.0133547
838.687	0.0134063
838.765	0.0134539
838.843	0.0134611
838.921	0.0135484
838.999	0.0134006
839.078	0.0135004
839.156	0.0135897
839.234	0.0134494
839.312	0.0135239
839.390	0.0135629
839.468	0.0134581
839.546	0.0133958
839.624	0.0135225
839.703	0.0134071
839.781	0.0134091
839.859	0.0134084
839.937	0.0133253
840.015	0.0132730
840.093	0.0134091
840.171	0.0132542
840.249	0.0133958
840.328	0.0134280
840.406	0.0132514
840.484	0.0132400
840.562	0.0131774
840.640	0.0132955
840.718	0.0131493
840.796	0.0130508
840.874	0.0130124
840.953	0.0134051
841.031	0.0133592
841.109	0.0132500
841.187	0.0132700
841.265	0.0132766
841.343	0.0133983
841.421	0.0134473
841.499	0.0133750
841.578	0.0132712
841.656	0.0134336
841.734	0.0133781
841.812	0.0135600
841.890	0.0135500
841.968	0.0135448
842.046	0.0134512
842.124	0.0135671
842.203	0.0136246
842.281	0.0135858
842.359	0.0135188
842.437	0.0134397
842.515	0.0135105
842.593	0.0133549
842.671	0.0134766
842.749	0.0133723
842.828	0.0133977
842.906	0.0131747
842.984	0.0131747
843.062	0.0133191
843.140	0.0131622
843.218	0.0132157
843.296	0.0132847
843.374	0.0132237
843.453	0.0131873
843.531	0.0133054
843.609	0.0132583
843.687	0.0132261
843.765	0.0132814
843.843	0.0133086
843.921	0.0131513
843.999	0.0133096
844.078	0.0134372
844.156	0.0134755
844.234	0.0132821
844.312	0.0135158
844.390	0.0134759
844.468	0.0134971
844.546	0.0136407
844.624	0.0137063
844.703	0.0135391
844.781	0.0136258
844.859	0.0136471
844.937	0.0136575
845.015	0.0136567
845.093	0.0135783
845.171	0.0136576
845.249	0.0136906
845.328	0.0135744
845.406	0.0134068
845.484	0.0135648
845.562	0.0134719
845.640	0.0134588
845.718	0.0133890
845.796	0.0133644
845.874	0.0133070
845.953	0.0133675
846.031	0.0132504
846.109	0.0133144
846.187	0.0132827
846.265	0.0133606
846.343	0.0132464
846.421	0.0134132
846.499	0.0133087
846.578	0.0132506
846.656	0.0133540
846.734	0.0132808
846.812	0.0132487
846.890	0.0133610
846.968	0.0134924
847.046	0.0134527
847.124	0.0133969
847.203	0.0133623
847.281	0.0134840
847.359	0.0134715
847.437	0.0133617
847.515	0.0133885
847.593	0.0134354
847.671	0.0135448
847.749	0.0135541
847.828	0.0136847
847.906	0.0134068
847.984	0.0133865
848.062	0.0135183
848.140	0.0133960
848.218	0.0132794
848.296	0.0133438
848.374	0.0133788
848.453	0.0131698
848.531	0.0132059
848.609	0.0131797
848.687	0.0129997
848.765	0.0131831
848.843	0.0130273
848.921	0.0131485
848.999	0.0132681
849.078	0.0130666
849.156	0.0131167
849.234	0.0132229
849.312	0.0131654
849.390	0.0132342
849.468	0.0132818
849.546	0.0131909
849.624	0.0131963
849.703	0.0132788
849.781	0.0133736
849.859	0.0132987
849.937	0.0136304
850.015	0.0134197
850.093	0.0133891
850.171	0.0135501
850.249	0.0135922
850.328	0.0134750
850.406	0.0133825
850.484	0.0133695
850.562	0.0133225
850.640	0.0134203
850.718	0.0134096
850.796	0.0132722
850.874	0.0133767
850.953	0.0133106
851.031	0.0133649
851.109	0.0133327
851.187	0.0132420
851.265	0.0133470
851.343	0.0132432
851.421	0.0134656
851.499	0.0132584
851.578	0.0133624
851.656	0.0133179
851.734	0.0131525
851.812	0.0132170
851.890	0.0131950
851.968	0.0131505
852.046	0.0132867
852.124	0.0134306
852.203	0.0133030
852.281	0.0132932
852.359	0.0132305
852.437	0.0133299
852.515	0.0133150
852.593	0.0132087
852.671	0.0132655
852.749	0.0134500
852.828	0.0133686
852.906	0.0132641
852.984	0.0132514
853.062	0.0132422
853.140	0.0133318
853.218	0.0132787
853.296	0.0131910
853.374	0.0132092
853.453	0.0133077
853.531	0.0132455
853.609	0.0134367
853.687	0.0132150
853.765	0.0132584
853.843	0.0134184
853.921	0.0132934
853.999	0.0133894
854.078	0.0135104
854.156	0.0133163
854.234	0.0133877
854.312	0.0134330
854.390	0.0134917
854.468	0.0132590
854.546	0.0135340
854.624	0.0132342
854.703	0.0132957
854.781	0.0135294
854.859	0.0134547
854.937	0.0132515
855.015	0.0133672
855.093	0.0132030
855.171	0.0132826
855.249	0.0133184
855.328	0.0133820
855.406	0.0133013
855.484	0.0132330
855.562	0.0133222
855.640	0.0131895
855.718	0.0131895
855.796	0.0132948
855.874	0.0132315
855.953	0.0132027
856.031	0.0132667
856.109	0.0133091
856.187	0.0132523
856.265	0.0132214
856.343	0.0131370
856.421	0.0133540
856.499	0.0134315
856.578	0.0132208
856.656	0.0132864
856.734	0.0135150
856.812	0.0134254
856.890	0.0133739
856.968	0.0133845
857.046	0.0133160
857.124	0.0135469
857.203	0.0134438
857.281	0.0135464
857.359	0.0134187
857.437	0.0134874
857.515	0.0133248
857.593	0.0133587
857.671	0.0134382
857.749	0.0133170
857.828	0.0132923
857.906	0.0133803
857.984	0.0133899
858.062	0.0132278
858.140	0.0133444
858.218	0.0132721
858.296	0.0132168
858.374	0.0131262
858.453	0.0130590
858.531	0.0130714
858.609	0.0131559
858.687	0.0131643
858.765	0.0131585
858.843	0.0132121
858.921	0.0131528
858.999	0.0132117
859.078	0.0131849
859.156	0.0132272
859.234	0.0131905
859.312	0.0131998
859.390	0.0130704
859.468	0.0133909
859.546	0.0134031
859.624	0.0134000
859.703	0.0134322
859.781	0.0135044
859.859	0.0132662
859.937	0.0134672
860.015	0.0133892
860.093	0.0134452
860.171	0.0135012
860.249	0.0133575
860.328	0.0135063
860.406	0.0132964
860.484	0.0133755
860.562	0.0133748
860.640	0.0134193
860.718	0.0133988
860.796	0.0133509
860.874	0.0133880
860.953	0.0132906
861.031	0.0132146
861.109	0.0132330
861.187	0.0132228
861.265	0.0132912
861.343	0.0131667
861.421	0.0132127
861.499	0.0130020
861.578	0.0130255
861.656	0.0130682
861.734	0.0130851
861.812	0.0133318
861.890	0.0132085
861.968	0.0131310
862.046	0.0131426
862.124	0.0131248
862.203	0.0132173
862.281	0.0131931
862.359	0.0133555
862.437	0.0133154
862.515	0.0134399
862.593	0.0133205
862.671	0.0135703
862.749	0.0136456
862.828	0.0135888
862.906	0.0134675
862.984	0.0134608
863.062	0.0135858
863.140	0.0135555
863.218	0.0135482
863.296	0.0134839
863.374	0.0134197
863.453	0.0134086
863.531	0.0134386
863.609	0.0134052
863.687	0.0132912
863.765	0.0132687
863.843	0.0131731
863.921	0.0132314
863.999	0.0132468
864.078	0.0132284
864.156	0.0132090
864.234	0.0131892
864.312	0.0132384
864.390	0.0131677
864.468	0.0133006
864.546	0.0131169
864.624	0.0131946
864.703	0.0133636
864.781	0.0131680
864.859	0.0132203
864.937	0.0132674
865.015	0.0132299
865.093	0.0132773
865.171	0.0132255
865.249	0.0133911
865.328	0.0134609
865.406	0.0134836
865.484	0.0134566
865.562	0.0133558
865.640	0.0134512
865.718	0.0133273
865.796	0.0135104
865.874	0.0134218
865.953	0.0134175
866.031	0.0134248
866.109	0.0133939
866.187	0.0135197
866.265	0.0133853
866.343	0.0133473
866.421	0.0134280
866.499	0.0133922
866.578	0.0132377
866.656	0.0133107
866.734	0.0133092
866.812	0.0133731
866.890	0.0133495
866.968	0.0134247
867.046	0.0132882
867.124	0.0132474
867.203	0.0132291
867.281	0.0133408
867.359	0.0132771
867.437	0.0133169
867.515	0.0133926
867.593	0.0133510
867.671	0.0132424
867.749	0.0132826
867.828	0.0132960
867.906	0.0132430
867.984	0.0134702
868.062	0.0133537
868.140	0.0133741
868.218	0.0134037
868.296	0.0133168
868.374	0.0133517
868.453	0.0134393
868.531	0.0134053
868.609	0.0133710
868.687	0.0134116
868.765	0.0134022
868.843	0.0133948
868.921	0.0133256
868.999	0.0133174
869.078	0.0132737
869.156	0.0133456
869.234	0.0133311
869.312	0.0132126
869.390	0.0131770
869.468	0.0131832
869.546	0.0132225
869.624	0.0133173
869.703	0.0132200
869.781	0.0132889
869.859	0.0132490
869.937	0.0132107
870.015	0.0132846
870.093	0.0132710
870.171	0.0132693
870.249	0.0134582
870.328	0.0132505
870.406	0.0132390
870.484	0.0132303
870.562	0.0132510
870.640	0.0133694
870.718	0.0132713
870.796	0.0133430
870.874	0.0132269
870.953	0.0133048
871.031	0.0133326
871.109	0.0132859
871.187	0.0133553
871.265	0.0133502
871.343	0.0133014
871.421	0.0134212
871.499	0.0133500
871.578	0.0132273
871.656	0.0131509
871.734	0.0134276
871.812	0.0133777
871.890	0.0132274
871.968	0.0134364
872.046	0.0134226
872.124	0.0133838
872.203	0.0133497
872.281	0.0133764
872.359	0.0133881
872.437	0.0133762
872.515	0.0134235
872.593	0.0134148
872.671	0.0134052
872.749	0.0133401
872.828	0.0134409
872.906	0.0132677
872.984	0.0132595
873.062	0.0133632
873.140	0.0133833
873.218	0.0132957
873.296	0.0132489
873.374	0.0131444
873.453	0.0133662
873.531	0.0133646
873.609	0.0133027
873.687	0.0132944
873.765	0.0132973
873.843	0.0132471
873.921	0.0132793
873.999	0.0132728
874.078	0.0132629
874.156	0.0132156
874.234	0.0133366
874.312	0.0132825
874.390	0.0132418
874.468	0.0133534
874.546	0.0134355
874.624	0.0134653
874.703	0.0132225
874.781	0.0133973
874.859	0.0133197
874.937	0.0132781
875.015	0.0133395
875.093	0.0133839
875.171	0.0133875
875.249	0.0133545
875.328	0.0133682
875.406	0.0133942
875.484	0.0132396
875.562	0.0132894
875.640	0.0131952
875.718	0.0133745
875.796	0.0133681
875.874	0.0133076
875.953	0.0131063
876.031	0.0132635
876.109	0.0132238
876.187	0.0132069
876.265	0.0133092
876.343	0.0132623
876.421	0.0132851
876.499	0.0131475
876.578	0.0132330
876.656	0.0131837
876.734	0.0132653
876.812	0.0133867
876.890	0.0132193
876.968	0.0131838
877.046	0.0132471
877.124	0.0131969
877.203	0.0132999
877.281	0.0134473
877.359	0.0134353
877.437	0.0133910
877.515	0.0134267
877.593	0.0134241
877.671	0.0134242
877.749	0.0133839
877.828	0.0132536
877.906	0.0134625
877.984	0.0134249
878.062	0.0133314
878.140	0.0132948
878.218	0.0132867
878.296	0.0132144
878.374	0.0131603
878.453	0.0130709
878.531	0.0130111
878.609	0.0131195
878.687	0.0130976
878.765	0.0130795
878.843	0.0132136
878.921	0.0132161
878.999	0.0132305
879.078	0.0132362
879.156	0.0133476
879.234	0.0131672
879.312	0.0133440
879.390	0.0132854
879.468	0.0135185
879.546	0.0133018
879.624	0.0133780
879.703	0.0133390
879.781	0.0133820
879.859	0.0134441
879.937	0.0132555
880.015	0.0133196
880.093	0.0133559
880.171	0.0133044
880.249	0.0134513
880.328	0.0134745
880.406	0.0135073
880.484	0.0133944
880.562	0.0133165
880.640	0.0134193
880.718	0.0132868
880.796	0.0132713
880.874	0.0131483
880.953	0.0131296
881.031	0.0131355
881.109	0.0131107
881.187	0.0130940
881.265	0.0130576
881.343	0.0130077
881.421	0.0130840
881.499	0.0129887
881.578	0.0130510
881.656	0.0130808
881.734	0.0130444
881.812	0.0131084
881.890	0.0131464
881.968	0.0132188
882.046	0.0133131
882.124	0.0132950
882.203	0.0133516
882.281	0.0136392
882.359	0.0135394
882.437	0.0135320
882.515	0.0135436
882.593	0.0135960
882.671	0.0135436
882.749	0.0135307
882.828	0.0136716
882.906	0.0135316
882.984	0.0136340
883.062	0.0134658
883.140	0.0135072
883.218	0.0134666
883.296	0.0134892
883.374	0.0133021
883.453	0.0131850
883.531	0.0133021
883.609	0.0132985
883.687	0.0131155
883.765	0.0130238
883.843	0.0131656
883.921	0.0130656
883.999	0.0129435
884.078	0.0129300
884.156	0.0130769
884.234	0.0129031
884.312	0.0130498
884.390	0.0129330
884.468	0.0129151
884.546	0.0130313
884.624	0.0130666
884.703	0.0132201
884.781	0.0132044
884.859	0.0133376
884.937	0.0133801
885.015	0.0133926
885.093	0.0135564
885.171	0.0135307
885.249	0.0136078
885.328	0.0136597
885.406	0.0135972
885.484	0.0135456
885.562	0.0136973
885.640	0.0135696
885.718	0.0136191
885.796	0.0135741
885.874	0.0135568
885.953	0.0135818
886.031	0.0135291
886.109	0.0134383
886.187	0.0134206
886.265	0.0135340
886.343	0.0134332
886.421	0.0133073
886.499	0.0132465
886.578	0.0131721
886.656	0.0132163
886.734	0.0131265
886.812	0.0129955
886.890	0.0129685
886.968	0.0129953
887.046	0.0129987
887.124	0.0131316
887.203	0.0130132
887.281	0.0130113
887.359	0.0131085
887.437	0.0131180
887.515	0.0130394
887.593	0.0131350
887.671	0.0131735
887.749	0.0133059
887.828	0.0133913
887.906	0.0134235
887.984	0.0135149
888.062	0.0135709
888.140	0.0136595
888.218	0.0135597
888.296	0.0136964
888.374	0.0135732
888.453	0.0135707
888.531	0.0136118
888.609	0.0137975
888.687	0.0138114
888.765	0.0135447
888.843	0.0135398
888.921	0.0136505
888.999	0.0134607
889.078	0.0134151
889.156	0.0133942
889.234	0.0134486
889.312	0.0133297
889.390	0.0132540
889.468	0.0132540
889.546	0.0131062
889.624	0.0130407
889.703	0.0131517
889.781	0.0129864
889.859	0.0130767
889.937	0.0131080
890.015	0.0131859
890.093	0.0131609
890.171	0.0131043
890.249	0.0131626
890.328	0.0131142
890.406	0.0131239
890.484	0.0132210
890.562	0.0132872
890.640	0.0132481
890.718	0.0134274
890.796	0.0133138
890.874	0.0134059
890.953	0.0135187
891.031	0.0135167
891.109	0.0135558
891.187	0.0135781
891.265	0.0134812
891.343	0.0135032
891.421	0.0133907
891.499	0.0134618
891.578	0.0136485
891.656	0.0134883
891.734	0.0134068
891.812	0.0134515
891.890	0.0133954
891.968	0.0132861
892.046	0.0133030
892.124	0.0133414
892.203	0.0132003
892.281	0.0132403
892.359	0.0131242
892.437	0.0132191
892.515	0.0132327
892.593	0.0132886
892.671	0.0131025
892.749	0.0131996
892.828	0.0131886
892.906	0.0132917
892.984	0.0132257
893.062	0.0133110
893.140	0.0132571
893.218	0.0133710
893.296	0.0132945
893.374	0.0134040
893.453	0.0134352
893.531	0.0132833
893.609	0.0133799
893.687	0.0133525
893.765	0.0133205
893.843	0.0133315
893.921	0.0133069
893.999	0.0131868
894.078	0.0132677
894.156	0.0133247
894.234	0.0132475
894.312	0.0134527
894.390	0.0133895
894.468	0.0134246
894.546	0.0133543
894.624	0.0133690
894.703	0.0135063
894.781	0.0135084
894.859	0.0134087
894.937	0.0134247
895.015	0.0134100
895.093	0.0135060
895.171	0.0133387
895.249	0.0133185
895.328	0.0133322
895.406	0.0133283
895.484	0.0132631
895.562	0.0132712
895.640	0.0134418
895.718	0.0132436
895.796	0.0132588
895.874	0.0132093
895.953	0.0132944
896.031	0.0130782
896.109	0.0132743
896.187	0.0132100
896.265	0.0133432
896.343	0.0132056
896.421	0.0133137
896.499	0.0133311
896.578	0.0132758
896.656	0.0134377
896.734	0.0134090
896.812	0.0133086
896.890	0.0133137
896.968	0.0133263
897.046	0.0134353
897.124	0.0133978
897.203	0.0132707
897.281	0.0133666
897.359	0.0132574
897.437	0.0132844
897.515	0.0132800
897.593	0.0133157
897.671	0.0134222
897.749	0.0133495
897.828	0.0132260
897.906	0.0132757
897.984	0.0133020
898.062	0.0133384
898.140	0.0133572
898.218	0.0133814
898.296	0.0133517
898.374	0.0133060
898.453	0.0134326
898.531	0.0134405
898.609	0.0133347
898.687	0.0134888
898.765	0.0133002
898.843	0.0132925
898.921	0.0132667
898.999	0.0133589
899.078	0.0134139
899.156	0.0133069
899.234	0.0132650
899.312	0.0133808
899.390	0.0133952
899.468	0.0133223
899.546	0.0132420
899.624	0.0132253
899.703	0.0131870
899.781	0.0132253
899.859	0.0132703
899.937	0.0133259
900.015	0.0133164
900.093	0.0131358
900.171	0.0132209
900.249	0.0133466
900.328	0.0132320
900.406	0.0132066
900.484	0.0132177
900.562	0.0133433
900.640	0.0134249
900.718	0.0134677
900.796	0.0134017
900.874	0.0133955
900.953	0.0133849
901.031	0.0134108
901.109	0.0134093
901.187	0.0133981
901.265	0.0134901
901.343	0.0133757
901.421	0.0133825
901.499	0.0134940
901.578	0.0133739
901.656	0.0133690
901.734	0.0134762
901.812	0.0134553
901.890	0.0133453
901.968	0.0132650
902.046	0.0132530
902.124	0.0133428
902.203	0.0134010
902.281	0.0131911
902.359	0.0131911
902.437	0.0131470
902.515	0.0133302
902.593	0.0131151
902.671	0.0130736
902.749	0.0132434
902.828	0.0130984
902.906	0.0131789
902.984	0.0131741
903.062	0.0130740
903.140	0.0132623
903.218	0.0131616
903.296	0.0131256
903.374	0.0131957
903.453	0.0132265
903.531	0.0132826
903.609	0.0133340
903.687	0.0134299
903.765	0.0133054
903.843	0.0134489
903.921	0.0133815
903.999	0.0134701
904.078	0.0134704
904.156	0.0134790
904.234	0.0134450
904.312	0.0134519
904.390	0.0134605
904.468	0.0135274
904.546	0.0135446
904.624	0.0135361
904.703	0.0134928
904.781	0.0133357
904.859	0.0134399
904.937	0.0134582
905.015	0.0134949
905.093	0.0133270
905.171	0.0134492
905.249	0.0133296
905.328	0.0134309
905.406	0.0132739
905.484	0.0132648
905.562	0.0132464
905.640	0.0132306
905.718	0.0132470
905.796	0.0131557
905.874	0.0132016
905.953	0.0132210
906.031	0.0131752
906.109	0.0132943
906.187	0.0132883
906.265	0.0132500
906.343	0.0133006
906.421	0.0133279
906.499	0.0133683
906.578	0.0133408
906.656	0.0131472
906.734	0.0133712
906.812	0.0133501
906.890	0.0133721
906.968	0.0134843
907.046	0.0134785
907.124	0.0134125
907.203	0.0133784
907.281	0.0135217
907.359	0.0133319
907.437	0.0134640
907.515	0.0135471
907.593	0.0132614
907.671	0.0132814
907.749	0.0133581
907.828	0.0133637
907.906	0.0132990
907.984	0.0133817
908.062	0.0132279
908.140	0.0134908
908.218	0.0135075
908.296	0.0134010
908.374	0.0133255
908.453	0.0133446
908.531	0.0133005
908.609	0.0134863
908.687	0.0132809
908.765	0.0133270
908.843	0.0133152
908.921	0.0133611
908.999	0.0134301
909.078	0.0132409
909.156	0.0132661
909.234	0.0132756
909.312	0.0132585
909.390	0.0133310
909.468	0.0132264
909.546	0.0132850
909.624	0.0133481
909.703	0.0133658
909.781	0.0132576
909.859	0.0133746
909.937	0.0133463
910.015	0.0133849
910.093	0.0133623
910.171	0.0134092
910.249	0.0132758
910.328	0.0133568
910.406	0.0133798
910.484	0.0133216
910.562	0.0132649
910.640	0.0133173
910.718	0.0133600
910.796	0.0133115
910.874	0.0133480
910.953	0.0132967
911.031	0.0132706
911.109	0.0132750
911.187	0.0132033
911.265	0.0132558
911.343	0.0133594
911.421	0.0134427
911.499	0.0133980
911.578	0.0132957
911.656	0.0132788
911.734	0.0134879
911.812	0.0134237
911.890	0.0133553
911.968	0.0133078
912.046	0.0134690
912.124	0.0133593
912.203	0.0133382
912.281	0.0134070
912.359	0.0132797
912.437	0.0133102
912.515	0.0133307
912.593	0.0133238
912.671	0.0133656
912.749	0.0132774
912.828	0.0131965
912.906	0.0132483
912.984	0.0132721
913.062	0.0131084
913.140	0.0132401
913.218	0.0132282
913.296	0.0131460
913.374	0.0132739
913.453	0.0132504
913.531	0.0131360
913.609	0.0133025
913.687	0.0133485
913.765	0.0133904
913.843	0.0134956
913.921	0.0135026
913.999	0.0134621
914.078	0.0133751
914.156	0.0133191
914.234	0.0133411
914.312	0.0132341
914.390	0.0133815
914.468	0.0133816
914.546	0.0134289
914.624	0.0134151
914.703	0.0135219
914.781	0.0134021
914.859	0.0132816
914.937	0.0134343
915.015	0.0132336
915.093	0.0133435
915.171	0.0133590
915.249	0.0134149
915.328	0.0133548
915.406	0.0135041
915.484	0.0133038
915.562	0.0133954
915.640	0.0135752
915.718	0.0133729
915.796	0.0133360
915.874	0.0134718
915.953	0.0133714
916.031	0.0133179
916.109	0.0134343
916.187	0.0133838
916.265	0.0133046
916.343	0.0134683
916.421	0.0134165
916.499	0.0134310
916.578	0.0134276
916.656	0.0133727
916.734	0.0133077
916.812	0.0134415
916.890	0.0134100
916.968	0.0134515
917.046	0.0134293
917.124	0.0134339
917.203	0.0133369
917.281	0.0132932
917.359	0.0133603
917.437	0.0134087
917.515	0.0134593
917.593	0.0134802
917.671	0.0133229
917.749	0.0133276
917.828	0.0133967
917.906	0.0133463
917.984	0.0135803
918.062	0.0134216
918.140	0.0134743
918.218	0.0134894
918.296	0.0135162
918.374	0.0132645
918.453	0.0133462
918.531	0.0134608
918.609	0.0134322
918.687	0.0134519
918.765	0.0134869
918.843	0.0134198
918.921	0.0133897
918.999	0.0134122
919.078	0.0134274
919.156	0.0134509
919.234	0.0133072
919.312	0.0133318
919.390	0.0133079
919.468	0.0132790
919.546	0.0133250
919.624	0.0135637
919.703	0.0134531
919.781	0.0134346
919.859	0.0134489
919.937	0.0135086
