05/06/2022	18:47:08	Ver.	4.1	UNKNOWN
Optical Delay	600.015094	Delta X		0.078125	Sweeps	1	Scan Rate	0/0
Coordinates	Axis 1	NaN	Axis 2	NaN	Axis 3	NaN	Axis 4	NaN	Axis 5	NaN	Axis 6	0.000000
TX Power	0.000000	RX Power	0.000000

600.015	0.0135666
600.093	0.0134465
600.171	0.0135567
600.249	0.0136174
600.328	0.0136736
600.406	0.0135454
600.484	0.0135888
600.562	0.0135512
600.640	0.0135658
600.718	0.0134640
600.796	0.0135172
600.874	0.0136501
600.953	0.0135919
601.031	0.0134300
601.109	0.0135633
601.187	0.0136831
601.265	0.0135823
601.343	0.0135071
601.421	0.0135599
601.499	0.0135717
601.578	0.0135020
601.656	0.0135464
601.734	0.0135081
601.812	0.0135853
601.890	0.0136028
601.968	0.0135229
602.046	0.0136304
602.124	0.0135037
602.203	0.0135223
602.281	0.0135118
602.359	0.0135054
602.437	0.0136043
602.515	0.0136988
602.593	0.0135227
602.671	0.0134608
602.749	0.0135055
602.828	0.0136353
602.906	0.0136147
602.984	0.0135271
603.062	0.0135905
603.140	0.0136357
603.218	0.0134912
603.296	0.0135696
603.374	0.0135723
603.453	0.0135882
603.531	0.0135089
603.609	0.0135786
603.687	0.0136343
603.765	0.0135611
603.843	0.0134775
603.921	0.0135195
603.999	0.0135943
604.078	0.0136501
604.156	0.0136152
604.234	0.0134442
604.312	0.0133735
604.390	0.0135634
604.468	0.0137340
604.546	0.0136291
604.624	0.0135655
604.703	0.0135065
604.781	0.0134544
604.859	0.0136203
604.937	0.0133969
605.015	0.0136410
605.093	0.0135127
605.171	0.0135265
605.249	0.0136168
605.328	0.0136893
605.406	0.0136194
605.484	0.0134193
605.562	0.0135637
605.640	0.0136172
605.718	0.0136437
605.796	0.0136250
605.874	0.0135887
605.953	0.0134113
606.031	0.0134223
606.109	0.0136285
606.187	0.0136076
606.265	0.0134619
606.343	0.0135307
606.421	0.0134801
606.499	0.0135463
606.578	0.0137614
606.656	0.0134921
606.734	0.0135013
606.812	0.0134870
606.890	0.0136230
606.968	0.0136114
607.046	0.0135148
607.124	0.0135139
607.203	0.0135873
607.281	0.0135149
607.359	0.0134656
607.437	0.0136213
607.515	0.0136481
607.593	0.0135511
607.671	0.0136284
607.749	0.0136575
607.828	0.0135473
607.906	0.0135854
607.984	0.0134933
608.062	0.0136156
608.140	0.0135116
608.218	0.0136395
608.296	0.0135699
608.374	0.0135275
608.453	0.0134728
608.531	0.0135111
608.609	0.0134330
608.687	0.0135106
608.765	0.0135979
608.843	0.0135447
608.921	0.0134829
608.999	0.0134886
609.078	0.0135307
609.156	0.0134737
609.234	0.0136359
609.312	0.0136274
609.390	0.0135999
609.468	0.0136168
609.546	0.0135608
609.624	0.0135667
609.703	0.0136487
609.781	0.0135394
609.859	0.0135340
609.937	0.0135874
610.015	0.0135371
610.093	0.0136618
610.171	0.0134911
610.249	0.0134278
610.328	0.0135875
610.406	0.0135445
610.484	0.0136229
610.562	0.0135409
610.640	0.0135718
610.718	0.0136038
610.796	0.0136916
610.874	0.0134282
610.953	0.0134464
611.031	0.0134637
611.109	0.0136312
611.187	0.0134824
611.265	0.0135911
611.343	0.0134839
611.421	0.0134540
611.499	0.0136449
611.578	0.0137178
611.656	0.0135852
611.734	0.0135039
611.812	0.0135981
611.890	0.0135177
611.968	0.0136531
612.046	0.0136426
612.124	0.0134908
612.203	0.0134863
612.281	0.0135909
612.359	0.0135509
612.437	0.0136691
612.515	0.0134460
612.593	0.0136631
612.671	0.0136427
612.749	0.0134635
612.828	0.0135899
612.906	0.0136648
612.984	0.0135816
613.062	0.0136449
613.140	0.0135217
613.218	0.0134058
613.296	0.0134492
613.374	0.0135896
613.453	0.0134417
613.531	0.0135345
613.609	0.0135243
613.687	0.0135627
613.765	0.0135857
613.843	0.0134973
613.921	0.0136349
613.999	0.0135310
614.078	0.0135756
614.156	0.0136462
614.234	0.0135760
614.312	0.0135349
614.390	0.0134928
614.468	0.0133891
614.546	0.0135977
614.624	0.0136159
614.703	0.0136163
614.781	0.0135671
614.859	0.0136460
614.937	0.0135712
615.015	0.0136184
615.093	0.0135517
615.171	0.0136974
615.249	0.0134932
615.328	0.0135957
615.406	0.0135997
615.484	0.0134039
615.562	0.0136640
615.640	0.0136730
615.718	0.0134132
615.796	0.0135885
615.874	0.0135849
615.953	0.0134985
616.031	0.0136904
616.109	0.0136449
616.187	0.0134731
616.265	0.0136163
616.343	0.0136337
616.421	0.0134361
616.499	0.0136253
616.578	0.0134734
616.656	0.0135046
616.734	0.0135169
616.812	0.0134010
616.890	0.0136198
616.968	0.0135961
617.046	0.0136146
617.124	0.0134600
617.203	0.0135491
617.281	0.0136293
617.359	0.0136060
617.437	0.0135226
617.515	0.0135833
617.593	0.0135546
617.671	0.0135336
617.749	0.0136220
617.828	0.0136235
617.906	0.0136851
617.984	0.0135910
618.062	0.0135866
618.140	0.0135194
618.218	0.0135758
618.296	0.0136423
618.374	0.0137054
618.453	0.0136081
618.531	0.0135535
618.609	0.0134926
618.687	0.0135680
618.765	0.0136189
618.843	0.0135217
618.921	0.0135448
618.999	0.0135850
619.078	0.0135825
619.156	0.0135689
619.234	0.0135036
619.312	0.0134729
619.390	0.0136610
619.468	0.0135724
619.546	0.0135304
619.624	0.0135410
619.703	0.0135216
619.781	0.0135967
619.859	0.0135294
619.937	0.0135606
620.015	0.0134982
620.093	0.0136396
620.171	0.0137373
620.249	0.0134499
620.328	0.0134748
620.406	0.0134822
620.484	0.0135163
620.562	0.0135548
620.640	0.0136634
620.718	0.0134980
620.796	0.0137066
620.874	0.0134808
620.953	0.0135806
621.031	0.0136926
621.109	0.0136517
621.187	0.0135687
621.265	0.0135753
621.343	0.0135644
621.421	0.0135538
621.499	0.0135065
621.578	0.0135433
621.656	0.0135762
621.734	0.0133429
621.812	0.0135360
621.890	0.0135281
621.968	0.0135306
622.046	0.0134481
622.124	0.0135683
622.203	0.0134938
622.281	0.0135601
622.359	0.0135282
622.437	0.0133858
622.515	0.0134023
622.593	0.0136984
622.671	0.0134685
622.749	0.0136264
622.828	0.0135455
622.906	0.0135361
622.984	0.0136348
623.062	0.0134480
623.140	0.0134316
623.218	0.0135004
623.296	0.0134291
623.374	0.0135686
623.453	0.0136211
623.531	0.0135604
623.609	0.0133837
623.687	0.0134711
623.765	0.0136224
623.843	0.0134731
623.921	0.0135610
623.999	0.0135733
624.078	0.0135243
624.156	0.0136591
624.234	0.0135400
624.312	0.0135173
624.390	0.0135673
624.468	0.0136123
624.546	0.0134151
624.624	0.0135890
624.703	0.0135834
624.781	0.0136050
624.859	0.0134793
624.937	0.0134568
625.015	0.0136707
625.093	0.0136472
625.171	0.0135874
625.249	0.0135974
625.328	0.0136067
625.406	0.0135477
625.484	0.0135075
625.562	0.0134637
625.640	0.0134435
625.718	0.0136292
625.796	0.0134814
625.874	0.0134927
625.953	0.0134419
626.031	0.0135644
626.109	0.0135245
626.187	0.0135767
626.265	0.0135590
626.343	0.0136440
626.421	0.0135422
626.499	0.0135541
626.578	0.0134216
626.656	0.0135597
626.734	0.0135011
626.812	0.0133481
626.890	0.0134650
626.968	0.0136047
627.046	0.0135109
627.124	0.0135505
627.203	0.0135133
627.281	0.0136128
627.359	0.0134525
627.437	0.0134219
627.515	0.0135230
627.593	0.0135475
627.671	0.0134732
627.749	0.0136086
627.828	0.0136012
627.906	0.0136272
627.984	0.0135791
628.062	0.0133803
628.140	0.0135509
628.218	0.0136463
628.296	0.0136249
628.374	0.0134451
628.453	0.0134525
628.531	0.0136308
628.609	0.0136121
628.687	0.0135648
628.765	0.0135777
628.843	0.0135109
628.921	0.0135073
628.999	0.0136095
629.078	0.0134641
629.156	0.0135193
629.234	0.0134766
629.312	0.0135566
629.390	0.0135065
629.468	0.0134749
629.546	0.0136488
629.624	0.0135507
629.703	0.0135610
629.781	0.0137077
629.859	0.0136376
629.937	0.0136128
630.015	0.0136029
630.093	0.0135138
630.171	0.0137232
630.249	0.0136210
630.328	0.0135858
630.406	0.0135310
630.484	0.0135867
630.562	0.0136523
630.640	0.0134709
630.718	0.0135788
630.796	0.0135596
630.874	0.0135746
630.953	0.0134184
631.031	0.0136533
631.109	0.0135884
631.187	0.0135607
631.265	0.0135543
631.343	0.0135004
631.421	0.0135138
631.499	0.0136377
631.578	0.0135968
631.656	0.0136633
631.734	0.0136440
631.812	0.0135921
631.890	0.0136269
631.968	0.0136158
632.046	0.0135212
632.124	0.0136440
632.203	0.0137676
632.281	0.0135646
632.359	0.0135803
632.437	0.0134989
632.515	0.0135674
632.593	0.0135339
632.671	0.0134974
632.749	0.0135948
632.828	0.0134165
632.906	0.0136072
632.984	0.0135358
633.062	0.0136350
633.140	0.0135808
633.218	0.0135058
633.296	0.0135863
633.374	0.0135216
633.453	0.0135297
633.531	0.0134992
633.609	0.0135666
633.687	0.0134910
633.765	0.0134504
633.843	0.0135349
633.921	0.0134643
633.999	0.0134454
634.078	0.0134558
634.156	0.0135562
634.234	0.0134904
634.312	0.0135777
634.390	0.0136066
634.468	0.0134946
634.546	0.0134892
634.624	0.0135842
634.703	0.0135943
634.781	0.0135664
634.859	0.0136374
634.937	0.0134532
635.015	0.0135111
635.093	0.0135136
635.171	0.0135843
635.249	0.0136807
635.328	0.0135371
635.406	0.0135088
635.484	0.0134646
635.562	0.0134837
635.640	0.0133729
635.718	0.0134912
635.796	0.0134944
635.874	0.0135015
635.953	0.0135795
636.031	0.0134336
636.109	0.0134131
636.187	0.0136287
636.265	0.0136221
636.343	0.0136342
636.421	0.0134682
636.499	0.0135597
636.578	0.0136455
636.656	0.0135110
636.734	0.0136110
636.812	0.0135982
636.890	0.0135431
636.968	0.0135699
637.046	0.0134903
637.124	0.0135162
637.203	0.0136092
637.281	0.0135603
637.359	0.0134778
637.437	0.0134722
637.515	0.0136254
637.593	0.0134692
637.671	0.0136572
637.749	0.0136212
637.828	0.0135727
637.906	0.0135347
637.984	0.0136266
638.062	0.0135867
638.140	0.0136373
638.218	0.0135520
638.296	0.0134657
638.374	0.0134486
638.453	0.0135259
638.531	0.0136173
638.609	0.0136334
638.687	0.0135880
638.765	0.0136245
638.843	0.0135245
638.921	0.0135854
638.999	0.0134892
639.078	0.0134985
639.156	0.0135916
639.234	0.0135348
639.312	0.0135977
639.390	0.0136533
639.468	0.0135388
639.546	0.0135770
639.624	0.0136602
639.703	0.0136805
639.781	0.0135808
639.859	0.0135871
639.937	0.0135628
640.015	0.0135596
640.093	0.0135587
640.171	0.0136943
640.249	0.0135592
640.328	0.0136015
640.406	0.0135252
640.484	0.0135900
640.562	0.0135820
640.640	0.0135202
640.718	0.0135609
640.796	0.0135914
640.874	0.0135780
640.953	0.0136009
641.031	0.0135528
641.109	0.0136492
641.187	0.0135392
641.265	0.0136102
641.343	0.0135701
641.421	0.0135081
641.499	0.0135246
641.578	0.0135574
641.656	0.0134768
641.734	0.0136327
641.812	0.0134789
641.890	0.0136348
641.968	0.0136080
642.046	0.0134925
642.124	0.0134778
642.203	0.0135907
642.281	0.0135765
642.359	0.0135336
642.437	0.0135144
642.515	0.0137156
642.593	0.0134994
642.671	0.0136412
642.749	0.0135341
642.828	0.0135805
642.906	0.0135456
642.984	0.0134936
643.062	0.0136123
643.140	0.0135529
643.218	0.0135781
643.296	0.0134997
643.374	0.0134463
643.453	0.0136897
643.531	0.0136670
643.609	0.0135361
643.687	0.0135868
643.765	0.0136296
643.843	0.0135387
643.921	0.0135064
643.999	0.0136175
644.078	0.0135172
644.156	0.0134724
644.234	0.0136270
644.312	0.0135695
644.390	0.0134793
644.468	0.0135356
644.546	0.0135168
644.624	0.0135887
644.703	0.0134936
644.781	0.0135020
644.859	0.0136620
644.937	0.0136301
645.015	0.0134295
645.093	0.0135793
645.171	0.0135903
645.249	0.0135120
645.328	0.0135023
645.406	0.0135661
645.484	0.0135418
645.562	0.0134863
645.640	0.0137700
645.718	0.0134634
645.796	0.0135970
645.874	0.0135699
645.953	0.0134280
646.031	0.0134779
646.109	0.0134228
646.187	0.0135438
646.265	0.0136076
646.343	0.0135220
646.421	0.0134496
646.499	0.0134811
646.578	0.0133736
646.656	0.0134493
646.734	0.0136347
646.812	0.0135371
646.890	0.0135600
646.968	0.0134687
647.046	0.0135714
647.124	0.0134377
647.203	0.0134705
647.281	0.0134937
647.359	0.0137113
647.437	0.0135587
647.515	0.0134448
647.593	0.0135818
647.671	0.0134824
647.749	0.0135408
647.828	0.0135626
647.906	0.0136221
647.984	0.0135384
648.062	0.0134596
648.140	0.0135390
648.218	0.0134885
648.296	0.0133887
648.374	0.0136509
648.453	0.0135745
648.531	0.0135209
648.609	0.0135695
648.687	0.0135134
648.765	0.0135023
648.843	0.0135439
648.921	0.0134563
648.999	0.0133742
649.078	0.0136432
649.156	0.0135658
649.234	0.0134895
649.312	0.0136881
649.390	0.0134393
649.468	0.0135313
649.546	0.0135643
649.624	0.0136803
649.703	0.0135622
649.781	0.0134967
649.859	0.0134428
649.937	0.0135268
650.015	0.0136295
650.093	0.0134329
650.171	0.0135925
650.249	0.0134972
650.328	0.0135801
650.406	0.0135426
650.484	0.0134781
650.562	0.0135243
650.640	0.0136823
650.718	0.0135473
650.796	0.0135532
650.874	0.0136652
650.953	0.0137067
651.031	0.0135664
651.109	0.0135875
651.187	0.0135475
651.265	0.0136090
651.343	0.0137849
651.421	0.0136427
651.499	0.0135722
651.578	0.0135947
651.656	0.0135879
651.734	0.0136213
651.812	0.0134744
651.890	0.0136305
651.968	0.0134574
652.046	0.0135425
652.124	0.0135666
652.203	0.0136739
652.281	0.0134718
652.359	0.0134617
652.437	0.0133993
652.515	0.0136510
652.593	0.0135114
652.671	0.0134314
652.749	0.0135893
652.828	0.0136082
652.906	0.0135081
652.984	0.0134765
653.062	0.0136339
653.140	0.0134928
653.218	0.0135159
653.296	0.0134890
653.374	0.0136389
653.453	0.0135950
653.531	0.0135645
653.609	0.0136288
653.687	0.0134115
653.765	0.0135986
653.843	0.0135603
653.921	0.0136596
653.999	0.0135484
654.078	0.0134812
654.156	0.0135045
654.234	0.0135161
654.312	0.0134995
654.390	0.0135709
654.468	0.0135986
654.546	0.0135901
654.624	0.0134963
654.703	0.0135088
654.781	0.0134129
654.859	0.0135399
654.937	0.0135445
655.015	0.0135126
655.093	0.0135271
655.171	0.0135983
655.249	0.0135579
655.328	0.0136684
655.406	0.0135802
655.484	0.0134786
655.562	0.0135227
655.640	0.0134805
655.718	0.0135549
655.796	0.0134606
655.874	0.0136353
655.953	0.0136230
656.031	0.0137065
656.109	0.0135247
656.187	0.0134674
656.265	0.0136056
656.343	0.0135654
656.421	0.0135179
656.499	0.0135720
656.578	0.0135178
656.656	0.0134707
656.734	0.0136479
656.812	0.0135751
656.890	0.0136034
656.968	0.0136818
657.046	0.0135947
657.124	0.0135092
657.203	0.0135972
657.281	0.0136474
657.359	0.0135944
657.437	0.0135836
657.515	0.0136263
657.593	0.0134822
657.671	0.0135319
657.749	0.0136581
657.828	0.0135250
657.906	0.0136160
657.984	0.0134373
658.062	0.0134595
658.140	0.0134962
658.218	0.0135108
658.296	0.0135437
658.374	0.0135467
658.453	0.0134775
658.531	0.0134607
658.609	0.0134194
658.687	0.0134734
658.765	0.0136131
658.843	0.0134727
658.921	0.0135233
658.999	0.0135381
659.078	0.0134876
659.156	0.0135110
659.234	0.0136303
659.312	0.0135236
659.390	0.0136197
659.468	0.0135613
659.546	0.0135143
659.624	0.0135844
659.703	0.0135525
659.781	0.0135162
659.859	0.0135850
659.937	0.0135622
660.015	0.0136650
660.093	0.0135722
660.171	0.0136011
660.249	0.0134484
660.328	0.0135172
660.406	0.0135042
660.484	0.0136093
660.562	0.0134187
660.640	0.0136260
660.718	0.0136009
660.796	0.0135755
660.874	0.0135628
660.953	0.0135117
661.031	0.0134607
661.109	0.0134812
661.187	0.0135452
661.265	0.0136013
661.343	0.0135021
661.421	0.0135120
661.499	0.0135381
661.578	0.0137681
661.656	0.0134715
661.734	0.0134345
661.812	0.0133992
661.890	0.0135616
661.968	0.0135258
662.046	0.0134056
662.124	0.0134591
662.203	0.0134650
662.281	0.0136151
662.359	0.0136375
662.437	0.0135603
662.515	0.0134682
662.593	0.0134827
662.671	0.0135588
662.749	0.0135782
662.828	0.0134946
662.906	0.0135682
662.984	0.0134801
663.062	0.0135883
663.140	0.0134003
663.218	0.0134489
663.296	0.0135646
663.374	0.0135728
663.453	0.0135677
663.531	0.0136034
663.609	0.0135527
663.687	0.0134718
663.765	0.0137366
663.843	0.0135759
663.921	0.0134350
663.999	0.0134959
664.078	0.0136369
664.156	0.0135174
664.234	0.0135975
664.312	0.0135389
664.390	0.0134711
664.468	0.0135398
664.546	0.0136113
664.624	0.0135478
664.703	0.0136622
664.781	0.0134222
664.859	0.0134310
664.937	0.0134321
665.015	0.0136880
665.093	0.0136666
665.171	0.0136517
665.249	0.0135014
665.328	0.0135129
665.406	0.0136071
665.484	0.0135548
665.562	0.0136285
665.640	0.0136424
665.718	0.0136008
665.796	0.0136189
665.874	0.0135036
665.953	0.0136632
666.031	0.0137029
666.109	0.0135802
666.187	0.0135122
666.265	0.0135159
666.343	0.0135911
666.421	0.0135279
666.499	0.0136742
666.578	0.0136291
666.656	0.0135755
666.734	0.0135735
666.812	0.0136408
666.890	0.0136243
666.968	0.0137333
667.046	0.0135544
667.124	0.0136069
667.203	0.0135806
667.281	0.0136412
667.359	0.0135641
667.437	0.0136679
667.515	0.0136507
667.593	0.0137140
667.671	0.0136717
667.749	0.0137133
667.828	0.0136254
667.906	0.0135724
667.984	0.0135172
668.062	0.0136209
668.140	0.0136333
668.218	0.0136579
668.296	0.0136021
668.374	0.0135982
668.453	0.0134972
668.531	0.0136008
668.609	0.0136275
668.687	0.0136208
668.765	0.0136480
668.843	0.0137405
668.921	0.0136041
668.999	0.0134644
669.078	0.0135680
669.156	0.0136510
669.234	0.0136414
669.312	0.0134818
669.390	0.0136148
669.468	0.0137145
669.546	0.0137022
669.624	0.0135849
669.703	0.0136560
669.781	0.0135826
669.859	0.0135532
669.937	0.0135658
670.015	0.0137244
670.093	0.0135416
670.171	0.0136019
670.249	0.0136739
670.328	0.0135630
670.406	0.0135671
670.484	0.0136028
670.562	0.0136749
670.640	0.0135620
670.718	0.0136693
670.796	0.0136394
670.874	0.0134913
670.953	0.0135547
671.031	0.0136818
671.109	0.0137314
671.187	0.0135537
671.265	0.0136198
671.343	0.0135025
671.421	0.0136705
671.499	0.0135754
671.578	0.0137190
671.656	0.0135497
671.734	0.0135252
671.812	0.0135754
671.890	0.0135503
671.968	0.0135571
672.046	0.0136005
672.124	0.0135309
672.203	0.0133249
672.281	0.0135371
672.359	0.0135976
672.437	0.0135453
672.515	0.0136365
672.593	0.0135128
672.671	0.0135751
672.749	0.0135151
672.828	0.0134129
672.906	0.0135970
672.984	0.0135234
673.062	0.0136320
673.140	0.0135939
673.218	0.0136415
673.296	0.0135416
673.374	0.0136611
673.453	0.0135518
673.531	0.0133797
673.609	0.0134685
673.687	0.0135375
673.765	0.0135433
673.843	0.0135970
673.921	0.0135696
673.999	0.0134760
674.078	0.0135455
674.156	0.0136456
674.234	0.0136153
674.312	0.0135184
674.390	0.0134496
674.468	0.0134438
674.546	0.0135299
674.624	0.0135649
674.703	0.0135385
674.781	0.0135452
674.859	0.0135435
674.937	0.0135989
675.015	0.0134136
675.093	0.0135198
675.171	0.0136494
675.249	0.0134955
675.328	0.0135696
675.406	0.0135626
675.484	0.0134585
675.562	0.0135191
675.640	0.0136011
675.718	0.0135683
675.796	0.0135374
675.874	0.0135253
675.953	0.0135117
676.031	0.0135886
676.109	0.0134561
676.187	0.0135477
676.265	0.0135628
676.343	0.0134156
676.421	0.0135535
676.499	0.0135929
676.578	0.0135046
676.656	0.0135458
676.734	0.0134937
676.812	0.0135323
676.890	0.0134309
676.968	0.0134212
677.046	0.0135069
677.124	0.0135863
677.203	0.0135543
677.281	0.0135848
677.359	0.0134711
677.437	0.0134431
677.515	0.0135864
677.593	0.0134619
677.671	0.0135301
677.749	0.0134827
677.828	0.0133922
677.906	0.0135561
677.984	0.0135280
678.062	0.0135828
678.140	0.0135220
678.218	0.0134721
678.296	0.0135965
678.374	0.0134560
678.453	0.0135577
678.531	0.0135095
678.609	0.0135883
678.687	0.0135751
678.765	0.0135909
678.843	0.0136061
678.921	0.0135594
678.999	0.0134433
679.078	0.0135377
679.156	0.0135590
679.234	0.0135422
679.312	0.0136076
679.390	0.0135149
679.468	0.0134772
679.546	0.0135783
679.624	0.0135944
679.703	0.0136323
679.781	0.0134593
679.859	0.0135819
679.937	0.0135732
680.015	0.0134341
680.093	0.0135172
680.171	0.0135020
680.249	0.0135215
680.328	0.0134312
680.406	0.0136653
680.484	0.0135946
680.562	0.0135849
680.640	0.0136047
680.718	0.0135673
680.796	0.0138102
680.874	0.0137831
680.953	0.0136904
681.031	0.0135928
681.109	0.0136030
681.187	0.0136395
681.265	0.0135808
681.343	0.0135725
681.421	0.0134989
681.499	0.0133180
681.578	0.0133221
681.656	0.0134414
681.734	0.0132643
681.812	0.0131477
681.890	0.0132410
681.968	0.0133012
682.046	0.0132381
682.124	0.0133778
682.203	0.0133367
682.281	0.0133477
682.359	0.0135905
682.437	0.0137010
682.515	0.0135992
682.593	0.0137119
682.671	0.0137476
682.749	0.0136865
682.828	0.0137451
682.906	0.0138073
682.984	0.0139206
683.062	0.0137291
683.140	0.0137653
683.218	0.0137820
683.296	0.0138274
683.374	0.0137827
683.453	0.0137306
683.531	0.0136912
683.609	0.0136354
683.687	0.0135570
683.765	0.0134936
683.843	0.0133997
683.921	0.0132664
683.999	0.0132430
684.078	0.0131721
684.156	0.0130814
684.234	0.0130278
684.312	0.0130080
684.390	0.0129236
684.468	0.0128084
684.546	0.0129446
684.624	0.0129024
684.703	0.0129057
684.781	0.0129907
684.859	0.0130211
684.937	0.0130495
685.015	0.0132807
685.093	0.0133205
685.171	0.0135001
685.249	0.0137430
685.328	0.0137992
685.406	0.0141803
685.484	0.0141444
685.562	0.0142861
685.640	0.0146133
685.718	0.0149095
685.796	0.0149199
685.874	0.0147881
685.953	0.0150381
686.031	0.0150124
686.109	0.0151102
686.187	0.0147427
686.265	0.0147848
686.343	0.0144103
686.421	0.0138449
686.499	0.0136723
686.578	0.0132754
686.656	0.0128918
686.734	0.0124995
686.812	0.0120191
686.890	0.0116767
686.968	0.0114526
687.046	0.0115187
687.124	0.0111985
687.203	0.0113014
687.281	0.0115159
687.359	0.0117616
687.437	0.0118690
687.515	0.0120838
687.593	0.0124671
687.671	0.0127806
687.749	0.0131720
687.828	0.0135574
687.906	0.0138103
687.984	0.0139362
688.062	0.0143430
688.140	0.0148199
688.218	0.0150497
688.296	0.0152623
688.374	0.0156247
688.453	0.0158380
688.531	0.0160120
688.609	0.0160645
688.687	0.0162496
688.765	0.0161866
688.843	0.0161481
688.921	0.0160194
688.999	0.0158311
689.078	0.0153098
689.156	0.0150512
689.234	0.0146035
689.312	0.0138985
689.390	0.0133785
689.468	0.0129686
689.546	0.0122795
689.624	0.0117329
689.703	0.0113096
689.781	0.0108521
689.859	0.0106060
689.937	0.0105083
690.015	0.0104262
690.093	0.0103974
690.171	0.0105385
690.249	0.0108923
690.328	0.0110989
690.406	0.0112708
690.484	0.0116441
690.562	0.0119621
690.640	0.0123627
690.718	0.0128630
690.796	0.0132538
690.874	0.0134430
690.953	0.0138358
691.031	0.0142651
691.109	0.0146056
691.187	0.0149741
691.265	0.0154594
691.343	0.0158361
691.421	0.0160904
691.499	0.0163158
691.578	0.0167056
691.656	0.0169077
691.734	0.0168542
691.812	0.0171152
691.890	0.0170958
691.968	0.0170417
692.046	0.0168610
692.124	0.0164780
692.203	0.0161852
692.281	0.0157873
692.359	0.0153517
692.437	0.0145706
692.515	0.0140279
692.593	0.0132596
692.671	0.0124109
692.749	0.0116843
692.828	0.0109916
692.906	0.0104688
692.984	0.00982147
693.062	0.00948769
693.140	0.00927902
693.218	0.00920334
693.296	0.00919922
693.374	0.00907898
693.453	0.00956367
693.531	0.00993103
693.609	0.0102226
693.687	0.0109706
693.765	0.0114671
693.843	0.0121783
693.921	0.0127704
693.999	0.0133994
694.078	0.0140551
694.156	0.0147778
694.234	0.0153046
694.312	0.0158878
694.390	0.0164008
694.468	0.0168349
694.546	0.0170124
694.624	0.0172928
694.703	0.0174571
694.781	0.0173985
694.859	0.0174105
694.937	0.0171274
695.015	0.0170671
695.093	0.0167222
695.171	0.0163693
695.249	0.0158924
695.328	0.0152747
695.406	0.0147713
695.484	0.0139728
695.562	0.0133344
695.640	0.0128125
695.718	0.0120477
695.796	0.0114155
695.874	0.0108171
695.953	0.0104015
696.031	0.0100723
696.109	0.00973694
696.187	0.00973289
696.265	0.00950714
696.343	0.00970932
696.421	0.0100182
696.499	0.0104636
696.578	0.0109409
696.656	0.0113510
696.734	0.0116742
696.812	0.0124660
696.890	0.0128764
696.968	0.0135448
697.046	0.0140095
697.124	0.0145287
697.203	0.0150780
697.281	0.0154783
697.359	0.0159745
697.437	0.0159339
697.515	0.0163163
697.593	0.0166024
697.671	0.0166348
697.749	0.0165601
697.828	0.0166081
697.906	0.0163540
697.984	0.0161957
698.062	0.0159641
698.140	0.0156138
698.218	0.0152309
698.296	0.0147730
698.374	0.0143079
698.453	0.0138926
698.531	0.0133522
698.609	0.0130019
698.687	0.0124120
698.765	0.0120982
698.843	0.0117022
698.921	0.0115603
698.999	0.0112040
699.078	0.0110273
699.156	0.0109684
699.234	0.0109512
699.312	0.0110793
699.390	0.0110229
699.468	0.0112528
699.546	0.0116266
699.624	0.0117406
699.703	0.0121056
699.781	0.0124251
699.859	0.0128304
699.937	0.0130693
700.015	0.0134198
700.093	0.0138206
700.171	0.0141530
700.249	0.0145500
700.328	0.0148090
700.406	0.0149919
700.484	0.0152220
700.562	0.0153015
700.640	0.0155779
700.718	0.0156568
700.796	0.0156599
700.874	0.0156170
700.953	0.0155833
701.031	0.0153619
701.109	0.0151692
701.187	0.0149991
701.265	0.0147330
701.343	0.0144250
701.421	0.0141810
701.499	0.0138838
701.578	0.0134264
701.656	0.0130647
701.734	0.0128440
701.812	0.0125047
701.890	0.0122883
701.968	0.0120901
702.046	0.0118896
702.124	0.0116842
702.203	0.0115656
702.281	0.0117431
702.359	0.0117554
702.437	0.0117497
702.515	0.0118385
702.593	0.0121474
702.671	0.0125924
702.749	0.0128606
702.828	0.0131174
702.906	0.0133806
702.984	0.0136470
703.062	0.0139809
703.140	0.0142249
703.218	0.0143633
703.296	0.0145380
703.374	0.0145892
703.453	0.0147369
703.531	0.0147830
703.609	0.0146146
703.687	0.0146696
703.765	0.0145228
703.843	0.0146394
703.921	0.0145486
703.999	0.0144051
704.078	0.0143022
704.156	0.0142979
704.234	0.0140659
704.312	0.0138806
704.390	0.0137891
704.468	0.0138235
704.546	0.0135474
704.624	0.0133507
704.703	0.0133356
704.781	0.0131506
704.859	0.0130823
704.937	0.0129611
705.015	0.0125945
705.093	0.0125866
705.171	0.0126380
705.249	0.0124611
705.328	0.0124425
705.406	0.0124462
705.484	0.0125257
705.562	0.0126588
705.640	0.0126067
705.718	0.0127368
705.796	0.0129596
705.874	0.0130314
705.953	0.0131627
706.031	0.0132118
706.109	0.0133181
706.187	0.0134963
706.265	0.0135316
706.343	0.0135390
706.421	0.0138221
706.499	0.0137881
706.578	0.0137863
706.656	0.0138835
706.734	0.0139555
706.812	0.0139735
706.890	0.0141018
706.968	0.0142080
707.046	0.0142857
707.124	0.0142334
707.203	0.0141855
707.281	0.0144518
707.359	0.0144232
707.437	0.0143263
707.515	0.0146691
707.593	0.0144022
707.671	0.0144038
707.749	0.0143768
707.828	0.0141000
707.906	0.0140736
707.984	0.0138804
708.062	0.0136172
708.140	0.0135052
708.218	0.0132730
708.296	0.0130914
708.374	0.0129608
708.453	0.0128145
708.531	0.0126676
708.609	0.0126295
708.687	0.0124603
708.765	0.0125970
708.843	0.0125129
708.921	0.0125771
708.999	0.0125974
709.078	0.0127063
709.156	0.0128439
709.234	0.0129380
709.312	0.0131487
709.390	0.0132960
709.468	0.0134134
709.546	0.0135522
709.624	0.0135838
709.703	0.0135887
709.781	0.0135629
709.859	0.0135421
709.937	0.0135644
710.015	0.0135287
710.093	0.0135421
710.171	0.0136016
710.249	0.0136367
710.328	0.0136015
710.406	0.0135856
710.484	0.0136398
710.562	0.0137189
710.640	0.0137411
710.718	0.0137373
710.796	0.0137897
710.874	0.0137977
710.953	0.0138964
711.031	0.0140599
711.109	0.0140154
711.187	0.0139219
711.265	0.0139478
711.343	0.0139733
711.421	0.0137898
711.499	0.0137997
711.578	0.0138051
711.656	0.0138551
711.734	0.0136899
711.812	0.0136684
711.890	0.0137798
711.968	0.0135935
712.046	0.0134674
712.124	0.0133996
712.203	0.0134071
712.281	0.0134512
712.359	0.0134061
712.437	0.0134492
712.515	0.0133065
712.593	0.0132461
712.671	0.0133328
712.749	0.0134545
712.828	0.0133761
712.906	0.0134196
712.984	0.0134515
713.062	0.0133868
713.140	0.0136497
713.218	0.0136700
713.296	0.0135844
713.374	0.0136923
713.453	0.0138102
713.531	0.0138120
713.609	0.0138448
713.687	0.0137373
713.765	0.0138467
713.843	0.0136653
713.921	0.0137022
713.999	0.0136968
714.078	0.0137201
714.156	0.0135255
714.234	0.0136112
714.312	0.0134799
714.390	0.0135021
714.468	0.0135481
714.546	0.0134417
714.624	0.0134899
714.703	0.0134505
714.781	0.0133952
714.859	0.0133976
714.937	0.0131931
715.015	0.0133347
715.093	0.0132915
715.171	0.0132706
715.249	0.0132342
715.328	0.0133506
715.406	0.0131338
715.484	0.0131850
715.562	0.0133646
715.640	0.0133944
715.718	0.0133205
715.796	0.0134145
715.874	0.0133527
715.953	0.0134283
716.031	0.0135393
716.109	0.0134305
716.187	0.0134320
716.265	0.0134387
716.343	0.0135472
716.421	0.0134677
716.499	0.0135889
716.578	0.0136736
716.656	0.0137100
716.734	0.0136765
716.812	0.0136012
716.890	0.0137881
716.968	0.0138045
717.046	0.0138830
717.124	0.0138197
717.203	0.0138811
717.281	0.0140134
717.359	0.0140465
717.437	0.0140585
717.515	0.0141267
717.593	0.0140574
717.671	0.0139981
717.749	0.0139122
717.828	0.0143063
717.906	0.0141525
717.984	0.0140212
718.062	0.0138631
718.140	0.0139789
718.218	0.0139006
718.296	0.0135991
718.374	0.0136868
718.453	0.0135713
718.531	0.0134831
718.609	0.0133814
718.687	0.0133325
718.765	0.0133661
718.843	0.0134446
718.921	0.0133096
718.999	0.0133260
719.078	0.0132789
719.156	0.0132998
719.234	0.0133167
719.312	0.0133376
719.390	0.0133949
719.468	0.0132917
719.546	0.0134676
719.624	0.0134693
719.703	0.0133990
719.781	0.0134100
719.859	0.0133810
719.937	0.0131918
720.015	0.0132867
720.093	0.0133477
720.171	0.0133045
720.249	0.0131657
720.328	0.0132074
720.406	0.0133193
720.484	0.0133293
720.562	0.0134816
720.640	0.0134867
720.718	0.0134004
720.796	0.0134657
720.874	0.0137492
720.953	0.0136927
721.031	0.0136681
721.109	0.0137998
721.187	0.0139835
721.265	0.0138743
721.343	0.0140489
721.421	0.0140021
721.499	0.0138628
721.578	0.0138239
721.656	0.0140318
721.734	0.0138963
721.812	0.0139037
721.890	0.0138538
721.968	0.0138401
722.046	0.0137981
722.124	0.0138908
722.203	0.0137109
722.281	0.0136169
722.359	0.0135537
722.437	0.0134584
722.515	0.0134476
722.593	0.0135358
722.671	0.0134259
722.749	0.0134042
722.828	0.0133900
722.906	0.0132355
722.984	0.0133705
723.062	0.0133377
723.140	0.0132943
723.218	0.0132288
723.296	0.0132453
723.374	0.0132586
723.453	0.0133447
723.531	0.0134306
723.609	0.0134207
723.687	0.0135045
723.765	0.0137384
723.843	0.0136559
723.921	0.0136977
723.999	0.0136911
724.078	0.0138416
724.156	0.0137443
724.234	0.0137782
724.312	0.0138127
724.390	0.0138511
724.468	0.0138653
724.546	0.0138296
724.624	0.0138220
724.703	0.0137546
724.781	0.0137671
724.859	0.0136891
724.937	0.0137129
725.015	0.0135577
725.093	0.0135738
725.171	0.0134481
725.249	0.0134773
725.328	0.0134892
725.406	0.0134268
725.484	0.0132247
725.562	0.0133292
725.640	0.0133293
725.718	0.0133292
725.796	0.0133478
725.874	0.0133565
725.953	0.0132671
726.031	0.0132050
726.109	0.0132239
726.187	0.0133324
726.265	0.0135268
726.343	0.0135457
726.421	0.0135166
726.499	0.0135942
726.578	0.0136700
726.656	0.0136759
726.734	0.0138296
726.812	0.0136523
726.890	0.0137499
726.968	0.0136296
727.046	0.0136700
727.124	0.0135565
727.203	0.0136244
727.281	0.0135523
727.359	0.0136208
727.437	0.0134884
727.515	0.0134534
727.593	0.0134155
727.671	0.0134717
727.749	0.0134574
727.828	0.0134151
727.906	0.0134571
727.984	0.0134610
728.062	0.0135767
728.140	0.0135129
728.218	0.0136422
728.296	0.0136976
728.374	0.0137245
728.453	0.0137095
728.531	0.0137803
728.609	0.0137800
728.687	0.0138206
728.765	0.0137557
728.843	0.0137209
728.921	0.0137769
728.999	0.0137107
729.078	0.0137392
729.156	0.0137132
729.234	0.0136470
729.312	0.0136720
729.390	0.0137201
729.468	0.0137869
729.546	0.0137558
729.624	0.0136610
729.703	0.0137257
729.781	0.0137684
729.859	0.0136295
729.937	0.0137845
730.015	0.0136272
730.093	0.0134799
730.171	0.0133846
730.249	0.0133981
730.328	0.0134099
730.406	0.0133369
730.484	0.0132288
730.562	0.0132661
730.640	0.0131243
730.718	0.0132682
730.796	0.0131597
730.874	0.0131427
730.953	0.0131409
731.031	0.0133751
731.109	0.0133688
731.187	0.0133997
731.265	0.0135101
731.343	0.0134435
731.421	0.0133699
731.499	0.0135349
731.578	0.0136168
731.656	0.0135695
731.734	0.0135683
731.812	0.0136855
731.890	0.0134737
731.968	0.0134956
732.046	0.0134079
732.124	0.0134383
732.203	0.0134450
732.281	0.0134011
732.359	0.0133829
732.437	0.0135076
732.515	0.0135048
732.593	0.0134431
732.671	0.0135824
732.749	0.0137070
732.828	0.0136028
732.906	0.0137843
732.984	0.0136736
733.062	0.0137218
733.140	0.0138750
733.218	0.0139372
733.296	0.0137142
733.374	0.0136602
733.453	0.0137960
733.531	0.0138210
733.609	0.0135857
733.687	0.0135047
733.765	0.0135002
733.843	0.0133899
733.921	0.0134386
733.999	0.0134077
734.078	0.0133424
734.156	0.0132948
734.234	0.0134290
734.312	0.0133628
734.390	0.0134042
734.468	0.0134210
734.546	0.0135266
734.624	0.0135130
734.703	0.0135281
734.781	0.0134473
734.859	0.0135337
734.937	0.0134530
735.015	0.0135849
735.093	0.0136359
735.171	0.0135260
735.249	0.0135368
735.328	0.0134318
735.406	0.0134406
735.484	0.0133750
735.562	0.0135680
735.640	0.0135344
735.718	0.0134476
735.796	0.0134647
735.874	0.0134140
735.953	0.0136514
736.031	0.0135381
736.109	0.0135258
736.187	0.0134958
736.265	0.0135294
736.343	0.0134681
736.421	0.0135400
736.499	0.0135196
736.578	0.0135573
736.656	0.0135353
736.734	0.0135025
736.812	0.0135834
736.890	0.0135590
736.968	0.0135287
737.046	0.0136900
737.124	0.0136973
737.203	0.0136459
737.281	0.0137198
737.359	0.0136122
737.437	0.0136745
737.515	0.0137035
737.593	0.0136314
737.671	0.0135529
737.749	0.0135613
737.828	0.0134201
737.906	0.0134322
737.984	0.0133697
738.062	0.0132207
738.140	0.0132766
738.218	0.0132809
738.296	0.0132332
738.374	0.0132336
738.453	0.0131486
738.531	0.0132928
738.609	0.0134094
738.687	0.0133031
738.765	0.0133669
738.843	0.0135240
738.921	0.0133882
738.999	0.0135801
739.078	0.0135442
739.156	0.0136668
739.234	0.0134550
739.312	0.0135874
739.390	0.0137357
739.468	0.0136636
739.546	0.0136794
739.624	0.0137605
739.703	0.0137147
739.781	0.0137312
739.859	0.0135983
739.937	0.0137696
740.015	0.0137843
740.093	0.0137911
740.171	0.0138233
740.249	0.0137806
740.328	0.0137294
740.406	0.0136971
740.484	0.0135850
740.562	0.0137443
740.640	0.0136452
740.718	0.0137120
740.796	0.0136440
740.874	0.0136107
740.953	0.0135864
741.031	0.0136390
741.109	0.0135874
741.187	0.0136404
741.265	0.0136346
741.343	0.0134518
741.421	0.0135023
741.499	0.0134294
741.578	0.0134092
741.656	0.0134596
741.734	0.0134750
741.812	0.0136535
741.890	0.0134264
741.968	0.0135199
742.046	0.0133545
742.124	0.0135339
742.203	0.0134739
742.281	0.0136172
742.359	0.0134964
742.437	0.0134776
742.515	0.0134924
742.593	0.0134616
742.671	0.0134761
742.749	0.0134271
742.828	0.0134348
742.906	0.0134843
742.984	0.0133675
743.062	0.0133801
743.140	0.0133477
743.218	0.0133949
743.296	0.0134606
743.374	0.0137203
743.453	0.0135751
743.531	0.0135315
743.609	0.0135304
743.687	0.0135905
743.765	0.0137894
743.843	0.0137464
743.921	0.0136593
743.999	0.0136239
744.078	0.0136740
744.156	0.0137720
744.234	0.0135574
744.312	0.0135171
744.390	0.0136765
744.468	0.0136691
744.546	0.0136089
744.624	0.0137022
744.703	0.0137792
744.781	0.0137846
744.859	0.0137778
744.937	0.0137627
745.015	0.0139285
745.093	0.0138625
745.171	0.0137847
745.249	0.0138547
745.328	0.0139279
745.406	0.0137280
745.484	0.0136875
745.562	0.0136510
745.640	0.0136328
745.718	0.0135674
745.796	0.0136349
745.874	0.0135542
745.953	0.0134645
746.031	0.0133415
746.109	0.0134207
746.187	0.0134106
746.265	0.0132899
746.343	0.0133239
746.421	0.0136036
746.499	0.0134138
746.578	0.0133883
746.656	0.0136753
746.734	0.0136174
746.812	0.0136043
746.890	0.0137331
746.968	0.0136626
747.046	0.0136564
747.124	0.0136614
747.203	0.0138477
747.281	0.0137112
747.359	0.0134995
747.437	0.0135146
747.515	0.0136587
747.593	0.0138298
747.671	0.0134689
747.749	0.0135466
747.828	0.0136143
747.906	0.0136308
747.984	0.0135254
748.062	0.0134592
748.140	0.0135121
748.218	0.0135951
748.296	0.0136800
748.374	0.0136554
748.453	0.0134609
748.531	0.0136082
748.609	0.0133992
748.687	0.0134026
748.765	0.0134466
748.843	0.0134756
748.921	0.0134406
748.999	0.0134488
749.078	0.0135349
749.156	0.0134386
749.234	0.0133750
749.312	0.0134493
749.390	0.0135776
749.468	0.0135718
749.546	0.0134096
749.624	0.0135823
749.703	0.0136217
749.781	0.0135802
749.859	0.0136134
749.937	0.0137515
750.015	0.0137827
750.093	0.0137224
750.171	0.0135757
750.249	0.0136718
750.328	0.0136351
750.406	0.0136578
750.484	0.0135993
750.562	0.0134008
750.640	0.0135693
750.718	0.0135836
750.796	0.0135216
750.874	0.0137034
750.953	0.0135267
751.031	0.0136591
751.109	0.0136613
751.187	0.0137368
751.265	0.0135567
751.343	0.0135679
751.421	0.0137337
751.499	0.0138181
751.578	0.0136104
751.656	0.0136266
751.734	0.0137294
751.812	0.0137045
751.890	0.0136325
751.968	0.0135484
752.046	0.0134978
752.124	0.0136306
752.203	0.0137337
752.281	0.0137070
752.359	0.0134827
752.437	0.0137222
752.515	0.0136499
752.593	0.0135881
752.671	0.0136597
752.749	0.0136825
752.828	0.0135989
752.906	0.0134126
752.984	0.0135233
753.062	0.0136272
753.140	0.0135648
753.218	0.0135569
753.296	0.0135172
753.374	0.0136079
753.453	0.0134997
753.531	0.0133417
753.609	0.0134039
753.687	0.0134356
753.765	0.0135479
753.843	0.0133392
753.921	0.0134055
753.999	0.0134138
754.078	0.0134211
754.156	0.0135577
754.234	0.0135378
754.312	0.0134826
754.390	0.0135580
754.468	0.0136431
754.546	0.0137207
754.624	0.0136253
754.703	0.0136339
754.781	0.0137174
754.859	0.0137225
754.937	0.0136220
755.015	0.0136730
755.093	0.0136422
755.171	0.0134571
755.249	0.0135554
755.328	0.0135464
755.406	0.0135276
755.484	0.0135493
755.562	0.0134115
755.640	0.0134357
755.718	0.0134792
755.796	0.0136237
755.874	0.0135749
755.953	0.0136922
756.031	0.0136269
756.109	0.0136259
756.187	0.0134967
756.265	0.0136401
756.343	0.0135081
756.421	0.0136030
756.499	0.0137324
756.578	0.0135533
756.656	0.0136448
756.734	0.0135971
756.812	0.0134705
756.890	0.0133941
756.968	0.0135101
757.046	0.0135564
757.124	0.0134802
757.203	0.0133982
757.281	0.0136399
757.359	0.0136320
757.437	0.0133409
757.515	0.0134093
757.593	0.0135032
757.671	0.0135843
757.749	0.0136137
757.828	0.0135227
757.906	0.0136167
757.984	0.0133865
758.062	0.0133983
758.140	0.0133879
758.218	0.0133159
758.296	0.0134756
758.374	0.0134605
758.453	0.0132516
758.531	0.0133988
758.609	0.0133039
758.687	0.0132153
758.765	0.0135461
758.843	0.0133567
758.921	0.0135281
758.999	0.0135709
759.078	0.0135516
759.156	0.0135104
759.234	0.0136600
759.312	0.0135532
759.390	0.0135954
759.468	0.0137566
759.546	0.0136201
759.624	0.0137963
759.703	0.0137096
759.781	0.0137232
759.859	0.0137915
759.937	0.0137686
760.015	0.0135947
760.093	0.0136720
760.171	0.0135917
760.249	0.0135945
760.328	0.0134977
760.406	0.0136898
760.484	0.0135209
760.562	0.0135349
760.640	0.0135851
760.718	0.0134263
760.796	0.0134958
760.874	0.0134529
760.953	0.0135524
761.031	0.0134309
761.109	0.0133517
761.187	0.0135020
761.265	0.0133658
761.343	0.0133233
761.421	0.0132359
761.499	0.0134485
761.578	0.0132863
761.656	0.0132813
761.734	0.0133226
761.812	0.0132860
761.890	0.0134647
761.968	0.0134291
762.046	0.0135512
762.124	0.0134374
762.203	0.0136467
762.281	0.0137955
762.359	0.0137312
762.437	0.0138516
762.515	0.0139137
762.593	0.0138406
762.671	0.0139105
762.749	0.0139075
762.828	0.0138531
762.906	0.0138621
762.984	0.0138347
763.062	0.0136598
763.140	0.0139198
763.218	0.0137083
763.296	0.0136375
763.374	0.0135921
763.453	0.0135301
763.531	0.0134447
763.609	0.0134704
763.687	0.0135168
763.765	0.0134132
763.843	0.0136246
763.921	0.0136001
763.999	0.0136303
764.078	0.0135242
764.156	0.0136360
764.234	0.0136465
764.312	0.0136034
764.390	0.0135188
764.468	0.0135135
764.546	0.0134495
764.624	0.0136520
764.703	0.0133820
764.781	0.0133309
764.859	0.0134061
764.937	0.0134540
765.015	0.0134094
765.093	0.0134666
765.171	0.0135075
765.249	0.0136353
765.328	0.0136999
765.406	0.0137569
765.484	0.0137595
765.562	0.0137759
765.640	0.0137244
765.718	0.0138356
765.796	0.0138207
765.874	0.0136568
765.953	0.0137199
766.031	0.0137368
766.109	0.0134990
766.187	0.0134773
766.265	0.0135311
766.343	0.0134351
766.421	0.0133459
766.499	0.0134373
766.578	0.0133827
766.656	0.0133525
766.734	0.0132447
766.812	0.0133313
766.890	0.0135597
766.968	0.0135760
767.046	0.0136076
767.124	0.0135537
767.203	0.0137182
767.281	0.0137132
767.359	0.0136529
767.437	0.0136268
767.515	0.0134445
767.593	0.0134581
767.671	0.0135320
767.749	0.0134386
767.828	0.0132690
767.906	0.0133472
767.984	0.0133345
768.062	0.0134869
768.140	0.0136133
768.218	0.0136418
768.296	0.0137321
768.374	0.0138257
768.453	0.0139691
768.531	0.0139465
768.609	0.0140923
768.687	0.0139570
768.765	0.0139299
768.843	0.0139082
768.921	0.0138561
768.999	0.0138935
769.078	0.0138271
769.156	0.0135905
769.234	0.0135757
769.312	0.0135602
769.390	0.0133452
769.468	0.0132246
769.546	0.0132057
769.624	0.0132597
769.703	0.0133211
769.781	0.0132338
769.859	0.0131082
769.937	0.0132404
770.015	0.0133361
770.093	0.0133986
770.171	0.0135571
770.249	0.0134383
770.328	0.0133339
770.406	0.0134737
770.484	0.0133368
770.562	0.0133633
770.640	0.0134469
770.718	0.0132758
770.796	0.0133116
770.874	0.0131960
770.953	0.0132756
771.031	0.0133423
771.109	0.0135166
771.187	0.0135493
771.265	0.0136034
771.343	0.0136892
771.421	0.0137318
771.499	0.0139121
771.578	0.0140137
771.656	0.0139452
771.734	0.0140924
771.812	0.0140649
771.890	0.0140666
771.968	0.0138441
772.046	0.0139134
772.124	0.0138962
772.203	0.0137865
772.281	0.0134972
772.359	0.0135669
772.437	0.0134750
772.515	0.0133450
772.593	0.0133272
772.671	0.0132979
772.749	0.0132771
772.828	0.0132475
772.906	0.0132163
772.984	0.0131824
773.062	0.0132364
773.140	0.0131261
773.218	0.0133259
773.296	0.0133062
773.374	0.0132043
773.453	0.0133057
773.531	0.0134197
773.609	0.0136261
773.687	0.0133755
773.765	0.0134139
773.843	0.0134187
773.921	0.0136453
773.999	0.0135669
774.078	0.0135271
774.156	0.0135322
774.234	0.0135901
774.312	0.0136655
774.390	0.0138832
774.468	0.0138195
774.546	0.0138084
774.624	0.0139828
774.703	0.0140080
774.781	0.0139400
774.859	0.0139500
774.937	0.0141229
775.015	0.0141531
775.093	0.0140989
775.171	0.0140583
775.249	0.0138557
775.328	0.0137772
775.406	0.0137557
775.484	0.0135817
775.562	0.0135293
775.640	0.0133846
775.718	0.0132718
775.796	0.0131695
775.874	0.0133011
775.953	0.0131245
776.031	0.0132477
776.109	0.0131957
776.187	0.0132045
776.265	0.0131657
776.343	0.0132076
776.421	0.0132159
776.499	0.0132268
776.578	0.0132493
776.656	0.0133289
776.734	0.0134142
776.812	0.0134994
776.890	0.0134100
776.968	0.0134824
777.046	0.0134657
777.124	0.0135801
777.203	0.0135786
777.281	0.0136633
777.359	0.0137817
777.437	0.0138544
777.515	0.0137523
777.593	0.0138861
777.671	0.0139062
777.749	0.0137791
777.828	0.0138916
777.906	0.0138969
777.984	0.0138862
778.062	0.0138972
778.140	0.0136369
778.218	0.0136407
778.296	0.0136527
778.374	0.0135403
778.453	0.0134753
778.531	0.0134845
778.609	0.0135107
778.687	0.0134919
778.765	0.0132510
778.843	0.0132742
778.921	0.0134306
778.999	0.0134116
779.078	0.0132848
779.156	0.0134473
779.234	0.0133926
779.312	0.0133216
779.390	0.0133034
779.468	0.0132397
779.546	0.0132928
779.624	0.0133522
779.703	0.0132674
779.781	0.0132388
779.859	0.0133004
779.937	0.0133977
780.015	0.0133464
780.093	0.0133625
780.171	0.0135101
780.249	0.0135614
780.328	0.0136115
780.406	0.0135984
780.484	0.0136941
780.562	0.0136992
780.640	0.0137159
780.718	0.0136501
780.796	0.0137575
780.874	0.0136720
780.953	0.0136385
781.031	0.0136382
781.109	0.0136518
781.187	0.0134562
781.265	0.0136554
781.343	0.0134859
781.421	0.0135587
781.499	0.0134096
781.578	0.0134538
781.656	0.0135614
781.734	0.0135000
781.812	0.0134621
781.890	0.0135324
781.968	0.0134115
782.046	0.0136127
782.124	0.0135126
782.203	0.0133624
782.281	0.0135783
782.359	0.0136372
782.437	0.0134131
782.515	0.0134565
782.593	0.0134732
782.671	0.0134438
782.749	0.0133342
782.828	0.0134259
782.906	0.0134636
782.984	0.0134419
783.062	0.0134208
783.140	0.0133853
783.218	0.0135082
783.296	0.0135934
783.374	0.0135410
783.453	0.0136658
783.531	0.0135593
783.609	0.0135837
783.687	0.0136889
783.765	0.0136098
783.843	0.0136880
783.921	0.0137137
783.999	0.0135590
784.078	0.0135722
784.156	0.0136015
784.234	0.0135878
784.312	0.0135468
784.390	0.0135336
784.468	0.0135325
784.546	0.0134570
784.624	0.0133263
784.703	0.0133274
784.781	0.0133834
784.859	0.0134073
784.937	0.0133290
785.015	0.0134352
785.093	0.0135159
785.171	0.0135078
785.249	0.0135023
785.328	0.0134615
785.406	0.0134718
785.484	0.0136843
785.562	0.0136572
785.640	0.0135194
785.718	0.0137651
785.796	0.0134864
785.874	0.0135477
785.953	0.0135780
786.031	0.0135438
786.109	0.0135196
786.187	0.0135234
786.265	0.0135029
786.343	0.0133970
786.421	0.0134750
786.499	0.0134753
786.578	0.0133659
786.656	0.0133444
786.734	0.0132365
786.812	0.0133333
786.890	0.0133486
786.968	0.0133439
787.046	0.0133980
787.124	0.0133124
787.203	0.0133086
787.281	0.0134210
787.359	0.0133781
787.437	0.0135077
787.515	0.0134553
787.593	0.0135892
787.671	0.0135638
787.749	0.0136526
787.828	0.0136466
787.906	0.0136651
787.984	0.0136788
788.062	0.0138446
788.140	0.0137920
788.218	0.0139474
788.296	0.0140363
788.374	0.0139246
788.453	0.0139342
788.531	0.0139626
788.609	0.0138660
788.687	0.0137814
788.765	0.0137588
788.843	0.0137495
788.921	0.0136199
788.999	0.0134918
789.078	0.0133221
789.156	0.0132635
789.234	0.0133359
789.312	0.0133007
789.390	0.0132930
789.468	0.0132977
789.546	0.0130589
789.624	0.0130665
789.703	0.0132081
789.781	0.0132240
789.859	0.0131727
789.937	0.0131693
790.015	0.0130773
790.093	0.0131472
790.171	0.0134191
790.249	0.0132912
790.328	0.0133010
790.406	0.0133770
790.484	0.0134120
790.562	0.0135394
790.640	0.0135157
790.718	0.0134425
790.796	0.0136414
790.874	0.0137952
790.953	0.0138432
791.031	0.0139329
791.109	0.0139716
791.187	0.0139257
791.265	0.0139803
791.343	0.0140238
791.421	0.0140560
791.499	0.0139890
791.578	0.0139497
791.656	0.0140037
791.734	0.0138482
791.812	0.0138421
791.890	0.0136945
791.968	0.0135487
792.046	0.0134315
792.124	0.0134575
792.203	0.0134081
792.281	0.0132832
792.359	0.0130807
792.437	0.0132512
792.515	0.0131760
792.593	0.0130549
792.671	0.0131890
792.749	0.0131647
792.828	0.0132372
792.906	0.0132233
792.984	0.0132618
793.062	0.0132967
793.140	0.0132333
793.218	0.0134425
793.296	0.0135226
793.374	0.0134792
793.453	0.0137201
793.531	0.0136684
793.609	0.0138849
793.687	0.0138676
793.765	0.0139370
793.843	0.0139409
793.921	0.0139597
793.999	0.0139738
794.078	0.0140915
794.156	0.0140095
794.234	0.0139163
794.312	0.0139915
794.390	0.0140530
794.468	0.0140826
794.546	0.0139783
794.624	0.0140453
794.703	0.0139101
794.781	0.0137309
794.859	0.0135723
794.937	0.0136189
795.015	0.0134999
795.093	0.0133478
795.171	0.0134201
795.249	0.0133309
795.328	0.0132938
795.406	0.0132982
795.484	0.0131859
795.562	0.0131465
795.640	0.0132726
795.718	0.0133208
795.796	0.0132534
795.874	0.0131836
795.953	0.0132681
796.031	0.0132544
796.109	0.0132352
796.187	0.0134019
796.265	0.0135065
796.343	0.0134725
796.421	0.0134982
796.499	0.0134554
796.578	0.0136629
796.656	0.0135361
796.734	0.0136589
796.812	0.0136395
796.890	0.0137004
796.968	0.0136597
797.046	0.0139188
797.124	0.0138725
797.203	0.0137998
797.281	0.0137156
797.359	0.0138181
797.437	0.0139021
797.515	0.0139096
797.593	0.0138000
797.671	0.0138067
797.749	0.0137768
797.828	0.0136423
797.906	0.0135246
797.984	0.0135769
798.062	0.0134431
798.140	0.0134380
798.218	0.0133755
798.296	0.0135049
798.374	0.0134292
798.453	0.0133260
798.531	0.0133366
798.609	0.0132314
798.687	0.0132333
798.765	0.0132674
798.843	0.0135117
798.921	0.0134142
798.999	0.0135224
799.078	0.0135137
799.156	0.0133887
799.234	0.0134200
799.312	0.0135889
799.390	0.0134953
799.468	0.0136594
799.546	0.0136665
799.624	0.0137403
799.703	0.0135719
799.781	0.0134834
799.859	0.0136195
799.937	0.0135637
800.015	0.0136169
800.093	0.0135316
800.171	0.0133743
800.249	0.0137185
800.328	0.0135756
800.406	0.0135241
800.484	0.0136302
800.562	0.0135921
800.640	0.0136356
800.718	0.0136311
800.796	0.0136738
800.874	0.0137462
800.953	0.0136141
801.031	0.0135258
801.109	0.0136649
801.187	0.0136628
801.265	0.0135843
801.343	0.0134698
801.421	0.0137067
801.499	0.0135212
801.578	0.0135141
801.656	0.0135752
801.734	0.0134140
801.812	0.0136081
801.890	0.0135117
801.968	0.0134435
802.046	0.0133905
802.124	0.0133997
802.203	0.0136417
802.281	0.0134431
802.359	0.0133674
802.437	0.0135455
802.515	0.0133878
802.593	0.0134966
802.671	0.0134345
802.749	0.0133714
802.828	0.0133430
802.906	0.0134682
802.984	0.0135304
803.062	0.0135449
803.140	0.0133383
803.218	0.0134438
803.296	0.0136473
803.374	0.0136160
803.453	0.0136635
803.531	0.0136922
803.609	0.0136979
803.687	0.0136975
803.765	0.0136790
803.843	0.0137883
803.921	0.0137516
803.999	0.0137454
804.078	0.0136923
804.156	0.0137884
804.234	0.0136208
804.312	0.0135935
804.390	0.0136430
804.468	0.0135217
804.546	0.0135715
804.624	0.0135656
804.703	0.0134901
804.781	0.0134389
804.859	0.0135106
804.937	0.0134993
805.015	0.0134000
805.093	0.0133494
805.171	0.0134036
805.249	0.0134149
805.328	0.0134686
805.406	0.0135563
805.484	0.0135233
805.562	0.0135133
805.640	0.0135123
805.718	0.0134685
805.796	0.0135272
805.874	0.0136098
805.953	0.0134650
806.031	0.0135659
806.109	0.0135928
806.187	0.0136588
806.265	0.0135528
806.343	0.0135809
806.421	0.0136514
806.499	0.0136654
806.578	0.0134960
806.656	0.0135870
806.734	0.0135920
806.812	0.0136300
806.890	0.0137120
806.968	0.0137103
807.046	0.0136530
807.124	0.0136115
807.203	0.0136342
807.281	0.0135313
807.359	0.0136546
807.437	0.0136367
807.515	0.0135172
807.593	0.0133683
807.671	0.0136208
807.749	0.0135217
807.828	0.0135227
807.906	0.0133990
807.984	0.0134094
808.062	0.0135622
808.140	0.0135579
808.218	0.0135555
808.296	0.0136469
808.374	0.0135636
808.453	0.0136205
808.531	0.0135345
808.609	0.0136289
808.687	0.0137016
808.765	0.0136488
808.843	0.0137525
808.921	0.0137344
808.999	0.0137836
809.078	0.0135518
809.156	0.0136267
809.234	0.0135465
809.312	0.0135236
809.390	0.0135739
809.468	0.0135732
809.546	0.0135558
809.624	0.0136076
809.703	0.0136903
809.781	0.0136248
809.859	0.0136505
809.937	0.0135341
810.015	0.0137655
810.093	0.0136933
810.171	0.0136379
810.249	0.0136031
810.328	0.0135954
810.406	0.0135669
810.484	0.0136253
810.562	0.0135227
810.640	0.0135502
810.718	0.0136010
810.796	0.0136279
810.874	0.0135575
810.953	0.0135258
811.031	0.0134761
811.109	0.0134903
811.187	0.0134736
811.265	0.0134284
811.343	0.0133167
811.421	0.0134640
811.499	0.0134940
811.578	0.0135146
811.656	0.0135481
811.734	0.0135837
811.812	0.0137749
811.890	0.0136420
811.968	0.0135052
812.046	0.0135499
812.124	0.0136862
812.203	0.0136915
812.281	0.0136080
812.359	0.0136291
812.437	0.0135065
812.515	0.0136975
812.593	0.0136599
812.671	0.0136587
812.749	0.0137218
812.828	0.0136000
812.906	0.0135030
812.984	0.0135835
813.062	0.0137171
813.140	0.0137379
813.218	0.0136749
813.296	0.0136996
813.374	0.0136762
813.453	0.0137131
813.531	0.0135638
813.609	0.0136471
813.687	0.0134335
813.765	0.0135489
813.843	0.0136428
813.921	0.0135860
813.999	0.0133738
814.078	0.0134645
814.156	0.0132824
814.234	0.0135499
814.312	0.0136971
814.390	0.0136797
814.468	0.0136330
814.546	0.0136308
814.624	0.0135090
814.703	0.0138164
814.781	0.0138461
814.859	0.0136160
814.937	0.0135917
815.015	0.0137127
815.093	0.0137630
815.171	0.0135965
815.249	0.0135898
815.328	0.0135326
815.406	0.0136501
815.484	0.0136608
815.562	0.0137123
815.640	0.0135309
815.718	0.0136389
815.796	0.0135838
815.874	0.0134860
815.953	0.0136422
816.031	0.0135999
816.109	0.0134710
816.187	0.0135934
816.265	0.0135315
816.343	0.0135165
816.421	0.0136191
816.499	0.0134600
816.578	0.0134852
816.656	0.0135120
816.734	0.0134052
816.812	0.0133893
816.890	0.0135923
816.968	0.0134065
817.046	0.0134290
817.124	0.0135144
817.203	0.0133817
817.281	0.0135648
817.359	0.0135500
817.437	0.0134724
817.515	0.0134831
817.593	0.0135204
817.671	0.0134594
817.749	0.0135909
817.828	0.0135611
817.906	0.0135427
817.984	0.0135391
818.062	0.0135915
818.140	0.0136229
818.218	0.0137492
818.296	0.0137669
818.374	0.0136390
818.453	0.0136814
818.531	0.0135976
818.609	0.0134815
818.687	0.0136742
818.765	0.0135407
818.843	0.0134958
818.921	0.0135251
818.999	0.0136902
819.078	0.0136395
819.156	0.0134064
819.234	0.0135596
819.312	0.0136215
819.390	0.0135515
819.468	0.0134083
819.546	0.0135602
819.624	0.0135492
819.703	0.0134372
819.781	0.0132778
819.859	0.0133315
819.937	0.0133821
820.015	0.0133025
820.093	0.0134943
820.171	0.0134079
820.249	0.0134205
820.328	0.0135469
820.406	0.0134583
820.484	0.0133585
820.562	0.0134179
820.640	0.0134593
820.718	0.0136052
820.796	0.0136976
820.874	0.0136729
820.953	0.0137267
821.031	0.0136877
821.109	0.0137819
821.187	0.0137191
821.265	0.0138367
821.343	0.0139330
821.421	0.0139420
821.499	0.0140069
821.578	0.0137883
821.656	0.0137534
821.734	0.0136401
821.812	0.0136647
821.890	0.0137391
821.968	0.0136331
822.046	0.0138136
822.124	0.0137453
822.203	0.0135410
822.281	0.0135233
822.359	0.0136807
822.437	0.0136983
822.515	0.0135701
822.593	0.0136497
822.671	0.0136524
822.749	0.0135554
822.828	0.0135651
822.906	0.0135347
822.984	0.0135862
823.062	0.0136311
823.140	0.0134843
823.218	0.0134486
823.296	0.0135781
823.374	0.0135217
823.453	0.0135470
823.531	0.0135542
823.609	0.0134679
823.687	0.0135649
823.765	0.0136107
823.843	0.0135153
823.921	0.0136681
823.999	0.0136957
824.078	0.0136041
824.156	0.0136701
824.234	0.0135659
824.312	0.0137152
824.390	0.0137479
824.468	0.0136580
824.546	0.0138089
824.624	0.0137029
824.703	0.0137876
824.781	0.0137503
824.859	0.0136420
824.937	0.0136159
825.015	0.0136160
825.093	0.0136042
825.171	0.0136255
825.249	0.0137259
825.328	0.0135948
825.406	0.0135775
825.484	0.0137058
825.562	0.0134525
825.640	0.0135889
825.718	0.0135651
825.796	0.0134941
825.874	0.0134434
825.953	0.0134405
826.031	0.0134695
826.109	0.0136018
826.187	0.0134867
826.265	0.0134984
826.343	0.0135558
826.421	0.0136177
826.499	0.0134628
826.578	0.0134046
826.656	0.0136514
826.734	0.0136742
826.812	0.0135091
826.890	0.0136002
826.968	0.0136159
827.046	0.0135936
827.124	0.0137409
827.203	0.0135952
827.281	0.0136720
827.359	0.0135421
827.437	0.0136685
827.515	0.0136842
827.593	0.0136765
827.671	0.0136666
827.749	0.0135320
827.828	0.0136447
827.906	0.0137117
827.984	0.0136022
828.062	0.0135516
828.140	0.0136229
828.218	0.0136340
828.296	0.0134495
828.374	0.0135866
828.453	0.0136310
828.531	0.0135859
828.609	0.0135342
828.687	0.0135504
828.765	0.0135621
828.843	0.0138019
828.921	0.0136143
828.999	0.0136437
829.078	0.0135641
829.156	0.0136954
829.234	0.0136134
829.312	0.0134869
829.390	0.0136552
829.468	0.0136899
829.546	0.0135968
829.624	0.0136238
829.703	0.0136010
829.781	0.0136559
829.859	0.0136652
829.937	0.0135967
830.015	0.0135487
830.093	0.0136443
830.171	0.0135462
830.249	0.0136067
830.328	0.0135867
830.406	0.0136732
830.484	0.0136063
830.562	0.0134657
830.640	0.0136186
830.718	0.0137542
830.796	0.0137325
830.874	0.0135707
830.953	0.0135891
831.031	0.0136883
831.109	0.0138337
831.187	0.0137164
831.265	0.0136807
831.343	0.0136401
831.421	0.0136742
831.499	0.0137106
831.578	0.0135419
831.656	0.0135596
831.734	0.0136071
831.812	0.0136555
831.890	0.0134766
831.968	0.0134904
832.046	0.0134338
832.124	0.0134853
832.203	0.0134316
832.281	0.0134640
832.359	0.0134402
832.437	0.0133784
832.515	0.0134808
832.593	0.0134193
832.671	0.0135622
832.749	0.0135223
832.828	0.0135529
832.906	0.0136745
832.984	0.0136292
833.062	0.0136514
833.140	0.0137368
833.218	0.0137431
833.296	0.0138877
833.374	0.0136914
833.453	0.0136842
833.531	0.0136656
833.609	0.0137270
833.687	0.0138092
833.765	0.0136341
833.843	0.0137299
833.921	0.0138112
833.999	0.0135561
834.078	0.0137683
834.156	0.0137417
834.234	0.0136452
834.312	0.0136309
834.390	0.0135635
834.468	0.0136468
834.546	0.0135673
834.624	0.0135261
834.703	0.0135773
834.781	0.0136322
834.859	0.0136060
834.937	0.0134343
835.015	0.0134683
835.093	0.0133748
835.171	0.0133688
835.249	0.0133838
835.328	0.0134130
835.406	0.0134103
835.484	0.0133215
835.562	0.0134597
835.640	0.0135526
835.718	0.0136329
835.796	0.0134336
835.874	0.0134044
835.953	0.0136352
836.031	0.0135941
836.109	0.0136217
836.187	0.0137283
836.265	0.0136970
836.343	0.0136897
836.421	0.0137316
836.499	0.0138061
836.578	0.0139466
836.656	0.0137942
836.734	0.0138631
836.812	0.0138300
836.890	0.0137239
836.968	0.0136782
837.046	0.0137473
837.124	0.0136371
837.203	0.0136977
837.281	0.0135892
837.359	0.0134943
837.437	0.0135581
837.515	0.0135208
837.593	0.0134937
837.671	0.0135542
837.749	0.0135217
837.828	0.0135307
837.906	0.0135020
837.984	0.0134315
838.062	0.0134717
838.140	0.0133453
838.218	0.0133945
838.296	0.0134177
838.374	0.0134689
838.453	0.0134394
838.531	0.0134740
838.609	0.0134021
838.687	0.0134357
838.765	0.0135083
838.843	0.0135680
838.921	0.0136018
838.999	0.0135900
839.078	0.0136847
839.156	0.0136678
839.234	0.0135999
839.312	0.0137584
839.390	0.0137827
839.468	0.0137316
839.546	0.0138239
839.624	0.0136481
839.703	0.0136949
839.781	0.0137526
839.859	0.0136733
839.937	0.0135752
840.015	0.0135576
840.093	0.0137074
840.171	0.0135400
840.249	0.0136375
840.328	0.0134826
840.406	0.0135291
840.484	0.0135744
840.562	0.0136626
840.640	0.0135817
840.718	0.0135596
840.796	0.0134914
840.874	0.0133919
840.953	0.0135086
841.031	0.0135831
841.109	0.0135345
841.187	0.0134255
841.265	0.0134779
841.343	0.0134013
841.421	0.0134058
841.499	0.0135303
841.578	0.0134956
841.656	0.0135323
841.734	0.0136538
841.812	0.0136267
841.890	0.0136153
841.968	0.0136355
842.046	0.0136963
842.124	0.0136219
842.203	0.0137526
842.281	0.0137280
842.359	0.0138526
842.437	0.0136308
842.515	0.0138046
842.593	0.0137855
842.671	0.0135941
842.749	0.0135298
842.828	0.0136623
842.906	0.0136746
842.984	0.0135484
843.062	0.0135595
843.140	0.0135603
843.218	0.0135500
843.296	0.0133921
843.374	0.0135033
843.453	0.0134167
843.531	0.0134790
843.609	0.0134724
843.687	0.0136095
843.765	0.0134705
843.843	0.0134557
843.921	0.0134576
843.999	0.0135050
844.078	0.0135452
844.156	0.0135075
844.234	0.0134286
844.312	0.0135756
844.390	0.0135261
844.468	0.0135114
844.546	0.0137705
844.624	0.0137217
844.703	0.0135830
844.781	0.0136742
844.859	0.0137773
844.937	0.0139907
845.015	0.0137829
845.093	0.0138331
845.171	0.0139216
845.249	0.0138710
845.328	0.0138375
845.406	0.0137360
845.484	0.0137572
845.562	0.0137443
845.640	0.0136692
845.718	0.0136985
845.796	0.0135491
845.874	0.0137000
845.953	0.0135333
846.031	0.0135973
846.109	0.0135848
846.187	0.0133922
846.265	0.0133881
846.343	0.0134729
846.421	0.0134726
846.499	0.0133892
846.578	0.0134088
846.656	0.0134515
846.734	0.0134973
846.812	0.0136364
846.890	0.0135199
846.968	0.0135829
847.046	0.0135935
847.124	0.0135698
847.203	0.0135945
847.281	0.0135487
847.359	0.0136950
847.437	0.0136827
847.515	0.0136270
847.593	0.0135995
847.671	0.0137784
847.749	0.0136697
847.828	0.0138571
847.906	0.0136796
847.984	0.0137371
848.062	0.0136372
848.140	0.0136204
848.218	0.0136777
848.296	0.0137358
848.374	0.0137097
848.453	0.0136094
848.531	0.0135587
848.609	0.0136024
848.687	0.0136326
848.765	0.0135612
848.843	0.0135102
848.921	0.0134776
848.999	0.0134593
849.078	0.0133187
849.156	0.0134572
849.234	0.0134167
849.312	0.0132822
849.390	0.0133406
849.468	0.0135706
849.546	0.0133466
849.624	0.0134782
849.703	0.0135846
849.781	0.0135307
849.859	0.0135616
849.937	0.0135596
850.015	0.0135569
850.093	0.0136750
850.171	0.0137114
850.249	0.0135854
850.328	0.0136012
850.406	0.0137348
850.484	0.0137019
850.562	0.0137122
850.640	0.0137471
850.718	0.0136043
850.796	0.0135958
850.874	0.0135532
850.953	0.0135179
851.031	0.0135763
851.109	0.0135017
851.187	0.0135603
851.265	0.0136000
851.343	0.0135284
851.421	0.0135762
851.499	0.0135426
851.578	0.0134477
851.656	0.0134283
851.734	0.0135760
851.812	0.0134326
851.890	0.0134163
851.968	0.0137075
852.046	0.0134379
852.124	0.0136510
852.203	0.0136449
852.281	0.0134838
852.359	0.0134164
852.437	0.0135303
852.515	0.0135592
852.593	0.0136155
852.671	0.0134354
852.749	0.0136569
852.828	0.0134497
852.906	0.0134466
852.984	0.0135126
853.062	0.0134434
853.140	0.0134736
853.218	0.0135679
853.296	0.0136025
853.374	0.0136138
853.453	0.0136741
853.531	0.0135942
853.609	0.0136138
853.687	0.0135448
853.765	0.0136340
853.843	0.0136098
853.921	0.0136548
853.999	0.0136741
854.078	0.0135638
854.156	0.0137154
854.234	0.0137730
854.312	0.0137075
854.390	0.0135826
854.468	0.0135629
854.546	0.0137297
854.624	0.0135731
854.703	0.0135712
854.781	0.0136389
854.859	0.0134830
854.937	0.0137101
855.015	0.0136072
855.093	0.0135122
855.171	0.0135348
855.249	0.0136573
855.328	0.0134494
855.406	0.0136396
855.484	0.0135368
855.562	0.0135036
855.640	0.0135743
855.718	0.0137011
855.796	0.0136108
855.874	0.0136279
855.953	0.0134864
856.031	0.0136005
856.109	0.0136079
856.187	0.0136063
856.265	0.0136171
856.343	0.0134757
856.421	0.0135361
856.499	0.0135116
856.578	0.0135775
856.656	0.0135579
856.734	0.0136431
856.812	0.0137060
856.890	0.0136790
856.968	0.0135558
857.046	0.0136195
857.124	0.0135799
857.203	0.0136983
857.281	0.0137433
857.359	0.0135559
857.437	0.0135925
857.515	0.0135731
857.593	0.0136565
857.671	0.0135953
857.749	0.0135770
857.828	0.0135332
857.906	0.0136861
857.984	0.0136740
858.062	0.0134821
858.140	0.0134522
858.218	0.0135580
858.296	0.0134637
858.374	0.0134047
858.453	0.0135235
858.531	0.0132987
858.609	0.0133930
858.687	0.0133698
858.765	0.0133910
858.843	0.0132892
858.921	0.0134464
858.999	0.0134482
859.078	0.0134293
859.156	0.0132937
859.234	0.0134635
859.312	0.0135864
859.390	0.0133844
859.468	0.0135467
859.546	0.0136225
859.624	0.0136464
859.703	0.0137496
859.781	0.0137132
859.859	0.0136003
859.937	0.0136978
860.015	0.0136766
860.093	0.0135793
860.171	0.0136786
860.249	0.0136787
860.328	0.0137519
860.406	0.0137483
860.484	0.0136795
860.562	0.0136601
860.640	0.0135415
860.718	0.0136262
860.796	0.0135926
860.874	0.0135103
860.953	0.0136266
861.031	0.0136854
861.109	0.0135561
861.187	0.0134988
861.265	0.0134880
861.343	0.0135779
861.421	0.0135854
861.499	0.0134232
861.578	0.0134817
861.656	0.0135260
861.734	0.0133804
861.812	0.0133444
861.890	0.0134666
861.968	0.0134735
862.046	0.0133920
862.124	0.0133622
862.203	0.0133676
862.281	0.0134798
862.359	0.0133394
862.437	0.0134853
862.515	0.0136012
862.593	0.0134681
862.671	0.0135841
862.749	0.0136016
862.828	0.0136479
862.906	0.0136208
862.984	0.0135847
863.062	0.0137894
863.140	0.0136549
863.218	0.0136660
863.296	0.0137823
863.374	0.0135437
863.453	0.0134794
863.531	0.0136723
863.609	0.0136337
863.687	0.0135378
863.765	0.0135162
863.843	0.0136922
863.921	0.0135278
863.999	0.0135292
864.078	0.0136441
864.156	0.0135595
864.234	0.0134760
864.312	0.0135149
864.390	0.0134523
864.468	0.0135178
864.546	0.0135722
864.624	0.0135152
864.703	0.0135248
864.781	0.0133946
864.859	0.0135405
864.937	0.0135748
865.015	0.0135426
865.093	0.0134884
865.171	0.0134272
865.249	0.0134559
865.328	0.0134470
865.406	0.0135661
865.484	0.0136030
865.562	0.0135255
865.640	0.0136801
865.718	0.0136071
865.796	0.0136296
865.874	0.0136021
865.953	0.0136275
866.031	0.0136203
866.109	0.0135564
866.187	0.0135997
866.265	0.0138892
866.343	0.0136867
866.421	0.0135958
866.499	0.0134883
866.578	0.0136091
866.656	0.0135968
866.734	0.0136259
866.812	0.0135552
866.890	0.0135207
866.968	0.0135610
867.046	0.0136153
867.124	0.0136472
867.203	0.0136561
867.281	0.0135950
867.359	0.0135767
867.437	0.0134377
867.515	0.0134231
867.593	0.0134783
867.671	0.0135313
867.749	0.0134176
867.828	0.0135040
867.906	0.0135736
867.984	0.0135221
868.062	0.0134939
868.140	0.0135330
868.218	0.0135700
868.296	0.0135710
868.374	0.0135291
868.453	0.0134920
868.531	0.0135390
868.609	0.0135220
868.687	0.0135722
868.765	0.0136342
868.843	0.0135863
868.921	0.0136324
868.999	0.0135982
869.078	0.0136739
869.156	0.0136501
869.234	0.0134708
869.312	0.0135796
869.390	0.0136098
869.468	0.0136344
869.546	0.0134283
869.624	0.0134366
869.703	0.0135551
869.781	0.0135506
869.859	0.0135466
869.937	0.0136479
870.015	0.0135610
870.093	0.0136314
870.171	0.0134355
870.249	0.0134180
870.328	0.0135258
870.406	0.0136236
870.484	0.0134763
870.562	0.0135461
870.640	0.0134906
870.718	0.0135374
870.796	0.0133708
870.874	0.0134413
870.953	0.0134830
871.031	0.0134212
871.109	0.0135104
871.187	0.0134615
871.265	0.0134171
871.343	0.0135599
871.421	0.0135889
871.499	0.0134772
871.578	0.0135033
871.656	0.0135709
871.734	0.0136526
871.812	0.0135114
871.890	0.0134836
871.968	0.0135315
872.046	0.0135574
872.124	0.0136453
872.203	0.0136521
872.281	0.0134134
872.359	0.0135889
872.437	0.0135874
872.515	0.0135092
872.593	0.0136455
872.671	0.0136964
872.749	0.0134853
872.828	0.0134549
872.906	0.0135307
872.984	0.0134975
873.062	0.0135462
873.140	0.0135817
873.218	0.0135004
873.296	0.0133724
873.374	0.0135881
873.453	0.0134138
873.531	0.0134583
873.609	0.0134843
873.687	0.0133727
873.765	0.0133310
873.843	0.0134750
873.921	0.0134948
873.999	0.0135989
874.078	0.0135379
874.156	0.0134288
874.234	0.0134673
874.312	0.0135269
874.390	0.0136095
874.468	0.0135154
874.546	0.0134824
874.624	0.0134932
874.703	0.0135160
874.781	0.0136707
874.859	0.0136330
874.937	0.0135143
875.015	0.0134460
875.093	0.0134692
875.171	0.0136105
875.249	0.0135873
875.328	0.0135255
875.406	0.0135959
875.484	0.0135372
875.562	0.0134698
875.640	0.0134229
875.718	0.0135522
875.796	0.0135825
875.874	0.0135020
875.953	0.0135591
876.031	0.0135367
876.109	0.0135704
876.187	0.0134949
876.265	0.0135342
876.343	0.0134359
876.421	0.0135083
876.499	0.0133943
876.578	0.0134471
876.656	0.0134731
876.734	0.0134316
876.812	0.0134064
876.890	0.0134801
876.968	0.0134946
877.046	0.0134536
877.124	0.0135935
877.203	0.0136512
877.281	0.0134333
877.359	0.0135725
877.437	0.0133723
877.515	0.0135210
877.593	0.0135094
877.671	0.0134405
877.749	0.0136125
877.828	0.0135799
877.906	0.0135274
877.984	0.0134780
878.062	0.0134144
878.140	0.0133781
878.218	0.0134505
878.296	0.0133925
878.374	0.0134647
878.453	0.0132768
878.531	0.0134393
878.609	0.0134037
878.687	0.0135320
878.765	0.0133920
878.843	0.0133541
878.921	0.0132964
878.999	0.0134248
879.078	0.0133680
879.156	0.0134742
879.234	0.0134479
879.312	0.0134407
879.390	0.0133672
879.468	0.0135584
879.546	0.0135345
879.624	0.0134531
879.703	0.0136915
879.781	0.0136628
879.859	0.0135683
879.937	0.0135929
880.015	0.0135345
880.093	0.0135715
880.171	0.0135859
880.249	0.0136338
880.328	0.0135838
880.406	0.0137234
880.484	0.0135503
880.562	0.0135291
880.640	0.0135674
880.718	0.0135459
880.796	0.0136143
880.874	0.0134947
880.953	0.0135152
881.031	0.0133978
881.109	0.0132455
881.187	0.0133205
881.265	0.0133083
881.343	0.0132158
881.421	0.0130890
881.499	0.0132128
881.578	0.0132935
881.656	0.0134075
881.734	0.0132352
881.812	0.0134635
881.890	0.0133127
881.968	0.0133952
882.046	0.0134404
882.124	0.0135539
882.203	0.0135046
882.281	0.0135999
882.359	0.0134967
882.437	0.0136667
882.515	0.0137208
882.593	0.0137494
882.671	0.0137505
882.749	0.0136374
882.828	0.0136764
882.906	0.0138624
882.984	0.0136727
883.062	0.0137473
883.140	0.0136900
883.218	0.0136408
883.296	0.0136552
883.374	0.0136742
883.453	0.0136281
883.531	0.0135439
883.609	0.0135703
883.687	0.0134344
883.765	0.0135471
883.843	0.0134776
883.921	0.0132179
883.999	0.0132341
884.078	0.0132906
884.156	0.0133270
884.234	0.0133815
884.312	0.0132819
884.390	0.0133022
884.468	0.0132230
884.546	0.0132632
884.624	0.0133545
884.703	0.0134482
884.781	0.0133160
884.859	0.0133929
884.937	0.0134230
885.015	0.0134559
885.093	0.0134855
885.171	0.0134554
885.249	0.0137925
885.328	0.0137262
885.406	0.0136744
885.484	0.0138287
885.562	0.0138010
885.640	0.0136709
885.718	0.0136501
885.796	0.0138593
885.874	0.0138123
885.953	0.0136866
886.031	0.0139513
886.109	0.0139103
886.187	0.0137763
886.265	0.0137586
886.343	0.0135575
886.421	0.0135472
886.499	0.0135721
886.578	0.0134431
886.656	0.0134400
886.734	0.0133768
886.812	0.0134097
886.890	0.0133641
886.968	0.0132267
887.046	0.0132531
887.124	0.0134390
887.203	0.0132224
887.281	0.0131624
887.359	0.0131696
887.437	0.0132406
887.515	0.0132101
887.593	0.0132590
887.671	0.0133987
887.749	0.0134238
887.828	0.0133942
887.906	0.0135826
887.984	0.0133984
888.062	0.0135258
888.140	0.0135825
888.218	0.0136950
888.296	0.0135334
888.374	0.0135722
888.453	0.0136929
888.531	0.0138561
888.609	0.0137704
888.687	0.0138043
888.765	0.0138250
888.843	0.0139346
888.921	0.0139137
888.999	0.0137656
889.078	0.0136211
889.156	0.0137479
889.234	0.0137657
889.312	0.0137125
889.390	0.0136785
889.468	0.0135922
889.546	0.0134538
889.624	0.0134689
889.703	0.0134032
889.781	0.0134116
889.859	0.0135153
889.937	0.0133823
890.015	0.0132132
890.093	0.0132894
890.171	0.0134046
890.249	0.0133265
890.328	0.0131594
890.406	0.0133477
890.484	0.0134429
890.562	0.0134669
890.640	0.0134924
890.718	0.0134106
890.796	0.0134245
890.874	0.0135290
890.953	0.0136028
891.031	0.0135172
891.109	0.0136336
891.187	0.0135999
891.265	0.0135735
891.343	0.0136604
891.421	0.0136530
891.499	0.0135991
891.578	0.0134283
891.656	0.0136093
891.734	0.0136492
891.812	0.0135196
891.890	0.0136237
891.968	0.0137053
892.046	0.0136573
892.124	0.0134260
892.203	0.0135422
892.281	0.0136296
892.359	0.0136635
892.437	0.0135023
892.515	0.0134800
892.593	0.0135805
892.671	0.0136989
892.749	0.0134042
892.828	0.0134882
892.906	0.0135287
892.984	0.0135378
893.062	0.0135070
893.140	0.0135106
893.218	0.0135584
893.296	0.0135787
893.374	0.0133649
893.453	0.0135595
893.531	0.0136430
893.609	0.0135532
893.687	0.0134465
893.765	0.0134284
893.843	0.0134660
893.921	0.0135349
893.999	0.0134383
894.078	0.0136195
894.156	0.0135520
894.234	0.0135554
894.312	0.0135292
894.390	0.0133934
894.468	0.0135867
894.546	0.0136214
894.624	0.0135819
894.703	0.0137061
894.781	0.0136479
894.859	0.0137239
894.937	0.0137523
895.015	0.0136932
895.093	0.0135485
895.171	0.0136570
895.249	0.0135998
895.328	0.0134897
895.406	0.0134003
895.484	0.0134711
895.562	0.0134999
895.640	0.0134525
895.718	0.0134051
895.796	0.0133498
895.874	0.0134190
895.953	0.0134368
896.031	0.0134180
896.109	0.0134397
896.187	0.0134675
896.265	0.0136177
896.343	0.0135610
896.421	0.0134235
896.499	0.0135981
896.578	0.0135365
896.656	0.0135040
896.734	0.0135120
896.812	0.0136839
896.890	0.0135443
896.968	0.0136381
897.046	0.0135421
897.124	0.0134972
897.203	0.0134366
897.281	0.0133984
897.359	0.0134752
897.437	0.0134145
897.515	0.0134194
897.593	0.0134582
897.671	0.0135377
897.749	0.0133669
897.828	0.0134624
897.906	0.0135921
897.984	0.0136602
898.062	0.0135550
898.140	0.0135958
898.218	0.0136054
898.296	0.0136642
898.374	0.0135654
898.453	0.0136645
898.531	0.0136788
898.609	0.0137681
898.687	0.0136452
898.765	0.0135418
898.843	0.0135342
898.921	0.0136063
898.999	0.0136225
899.078	0.0136774
899.156	0.0136337
899.234	0.0136332
899.312	0.0135327
899.390	0.0136534
899.468	0.0135775
899.546	0.0135096
899.624	0.0135329
899.703	0.0134654
899.781	0.0134983
899.859	0.0134615
899.937	0.0136513
900.015	0.0134415
900.093	0.0134338
900.171	0.0135754
900.249	0.0135151
900.328	0.0135969
900.406	0.0134291
900.484	0.0135600
900.562	0.0135885
900.640	0.0137117
900.718	0.0137717
900.796	0.0138106
900.874	0.0136539
900.953	0.0136592
901.031	0.0136103
901.109	0.0138062
901.187	0.0138701
901.265	0.0136765
901.343	0.0136907
901.421	0.0137360
901.499	0.0137091
901.578	0.0138127
901.656	0.0137125
901.734	0.0136568
901.812	0.0137789
901.890	0.0135770
901.968	0.0135911
902.046	0.0136100
902.124	0.0135827
902.203	0.0136530
902.281	0.0134422
902.359	0.0133717
902.437	0.0134650
902.515	0.0134161
902.593	0.0134155
902.671	0.0134534
902.749	0.0133865
902.828	0.0134818
902.906	0.0133597
902.984	0.0133450
903.062	0.0132062
903.140	0.0133398
903.218	0.0132655
903.296	0.0134145
903.374	0.0134014
903.453	0.0134361
903.531	0.0133627
903.609	0.0132676
903.687	0.0134980
903.765	0.0136129
903.843	0.0135818
903.921	0.0136383
903.999	0.0135279
904.078	0.0136069
904.156	0.0136034
904.234	0.0137135
904.312	0.0136939
904.390	0.0138185
904.468	0.0138111
904.546	0.0137288
904.624	0.0138314
904.703	0.0136062
904.781	0.0135497
904.859	0.0136139
904.937	0.0137154
905.015	0.0136101
905.093	0.0135335
905.171	0.0138139
905.249	0.0135491
905.328	0.0135649
905.406	0.0135803
905.484	0.0135649
905.562	0.0134988
905.640	0.0135101
905.718	0.0134768
905.796	0.0134053
905.874	0.0134730
905.953	0.0134296
906.031	0.0135139
906.109	0.0135849
906.187	0.0135283
906.265	0.0134508
906.343	0.0135379
906.421	0.0134888
906.499	0.0135207
906.578	0.0135384
906.656	0.0135051
906.734	0.0135591
906.812	0.0134544
906.890	0.0135012
906.968	0.0136089
907.046	0.0136923
907.124	0.0136903
907.203	0.0136923
907.281	0.0135098
907.359	0.0136176
907.437	0.0136271
907.515	0.0136920
907.593	0.0136478
907.671	0.0134653
907.749	0.0135865
907.828	0.0137013
907.906	0.0135842
907.984	0.0136595
908.062	0.0137146
908.140	0.0136330
908.218	0.0135932
908.296	0.0135014
908.374	0.0136948
908.453	0.0136150
908.531	0.0135796
908.609	0.0134725
908.687	0.0135778
908.765	0.0135982
908.843	0.0135122
908.921	0.0135042
908.999	0.0137051
909.078	0.0136417
909.156	0.0135723
909.234	0.0134689
909.312	0.0135062
909.390	0.0135424
909.468	0.0135707
909.546	0.0137151
909.624	0.0137084
909.703	0.0135240
909.781	0.0135252
909.859	0.0136686
909.937	0.0136726
910.015	0.0135787
910.093	0.0136065
910.171	0.0135797
910.249	0.0134386
910.328	0.0135133
910.406	0.0135398
910.484	0.0136214
910.562	0.0136365
910.640	0.0136288
910.718	0.0136637
910.796	0.0135892
910.874	0.0134962
910.953	0.0136720
911.031	0.0134634
911.109	0.0135492
911.187	0.0136153
911.265	0.0136941
911.343	0.0137069
911.421	0.0135551
911.499	0.0136703
911.578	0.0137057
911.656	0.0136781
911.734	0.0136311
911.812	0.0136102
911.890	0.0134727
911.968	0.0136607
912.046	0.0135738
912.124	0.0135143
912.203	0.0135011
912.281	0.0134404
912.359	0.0133809
912.437	0.0135335
912.515	0.0135622
912.593	0.0135495
912.671	0.0134052
912.749	0.0134419
912.828	0.0133852
912.906	0.0133388
912.984	0.0132948
913.062	0.0134205
913.140	0.0134668
913.218	0.0134421
913.296	0.0135422
913.374	0.0134180
913.453	0.0134760
913.531	0.0136116
913.609	0.0134808
913.687	0.0135055
913.765	0.0134914
913.843	0.0136682
913.921	0.0136450
913.999	0.0134378
914.078	0.0134765
914.156	0.0135412
914.234	0.0133163
914.312	0.0136145
914.390	0.0136913
914.468	0.0136589
914.546	0.0135723
914.624	0.0135762
914.703	0.0136341
914.781	0.0134538
914.859	0.0135608
914.937	0.0135998
915.015	0.0134796
915.093	0.0134788
915.171	0.0136201
915.249	0.0135236
915.328	0.0137295
915.406	0.0136882
915.484	0.0136035
915.562	0.0135725
915.640	0.0136456
915.718	0.0135943
915.796	0.0135848
915.874	0.0136009
915.953	0.0135299
916.031	0.0135838
916.109	0.0136841
916.187	0.0136093
916.265	0.0135601
916.343	0.0135968
916.421	0.0136650
916.499	0.0137344
916.578	0.0135560
916.656	0.0136862
916.734	0.0137276
916.812	0.0136565
916.890	0.0135865
916.968	0.0135956
917.046	0.0137190
917.124	0.0135711
917.203	0.0135812
917.281	0.0135339
917.359	0.0136056
917.437	0.0137399
917.515	0.0137498
917.593	0.0136372
917.671	0.0134647
917.749	0.0135110
917.828	0.0136769
917.906	0.0136892
917.984	0.0137090
918.062	0.0137250
918.140	0.0137402
918.218	0.0136974
918.296	0.0137831
918.374	0.0136979
918.453	0.0136935
918.531	0.0137395
918.609	0.0137078
918.687	0.0136213
918.765	0.0137770
918.843	0.0136787
918.921	0.0136925
918.999	0.0135150
919.078	0.0135989
919.156	0.0135876
919.234	0.0135356
919.312	0.0136354
919.390	0.0136174
919.468	0.0135779
919.546	0.0136095
919.624	0.0136658
919.703	0.0135178
919.781	0.0135270
919.859	0.0137643
919.937	0.0136255
