05/06/2022	18:47:43	Ver.	4.1	UNKNOWN
Optical Delay	600.015094	Delta X		0.078125	Sweeps	1	Scan Rate	0/0
Coordinates	Axis 1	NaN	Axis 2	NaN	Axis 3	NaN	Axis 4	NaN	Axis 5	NaN	Axis 6	0.000000
TX Power	0.000000	RX Power	0.000000

600.015	0.0134459
600.093	0.0133162
600.171	0.0135088
600.249	0.0134924
600.328	0.0134541
600.406	0.0134794
600.484	0.0134261
600.562	0.0134461
600.640	0.0132949
600.718	0.0134126
600.796	0.0135686
600.874	0.0134280
600.953	0.0134072
601.031	0.0133589
601.109	0.0135502
601.187	0.0134592
601.265	0.0134229
601.343	0.0133646
601.421	0.0133905
601.499	0.0134510
601.578	0.0133665
601.656	0.0136563
601.734	0.0134863
601.812	0.0133868
601.890	0.0134174
601.968	0.0133932
602.046	0.0133932
602.124	0.0134002
602.203	0.0133694
602.281	0.0135124
602.359	0.0134277
602.437	0.0132724
602.515	0.0133079
602.593	0.0133384
602.671	0.0134593
602.749	0.0134011
602.828	0.0133135
602.906	0.0133866
602.984	0.0133595
603.062	0.0134575
603.140	0.0135359
603.218	0.0134314
603.296	0.0134319
603.374	0.0134042
603.453	0.0134474
603.531	0.0135585
603.609	0.0134264
603.687	0.0135245
603.765	0.0134626
603.843	0.0134095
603.921	0.0135718
603.999	0.0134309
604.078	0.0132862
604.156	0.0133314
604.234	0.0134336
604.312	0.0134494
604.390	0.0134659
604.468	0.0133583
604.546	0.0135590
604.624	0.0134059
604.703	0.0135664
604.781	0.0134551
604.859	0.0134061
604.937	0.0133564
605.015	0.0133942
605.093	0.0133823
605.171	0.0132992
605.249	0.0133826
605.328	0.0134503
605.406	0.0135069
605.484	0.0133982
605.562	0.0135835
605.640	0.0134067
605.718	0.0134251
605.796	0.0134868
605.874	0.0134301
605.953	0.0135303
606.031	0.0134084
606.109	0.0134303
606.187	0.0134423
606.265	0.0135227
606.343	0.0134910
606.421	0.0134711
606.499	0.0135255
606.578	0.0134528
606.656	0.0133172
606.734	0.0134321
606.812	0.0135199
606.890	0.0134589
606.968	0.0133990
607.046	0.0136040
607.124	0.0135406
607.203	0.0133720
607.281	0.0132973
607.359	0.0134082
607.437	0.0135812
607.515	0.0134564
607.593	0.0133469
607.671	0.0134850
607.749	0.0133955
607.828	0.0134274
607.906	0.0135004
607.984	0.0135993
608.062	0.0133954
608.140	0.0134429
608.218	0.0134909
608.296	0.0133622
608.374	0.0136033
608.453	0.0134916
608.531	0.0133960
608.609	0.0134846
608.687	0.0135201
608.765	0.0134994
608.843	0.0134527
608.921	0.0134045
608.999	0.0135452
609.078	0.0135134
609.156	0.0132445
609.234	0.0135226
609.312	0.0133389
609.390	0.0135461
609.468	0.0134563
609.546	0.0134098
609.624	0.0134412
609.703	0.0135921
609.781	0.0132978
609.859	0.0134001
609.937	0.0135372
610.015	0.0133954
610.093	0.0133932
610.171	0.0134654
610.249	0.0134196
610.328	0.0134227
610.406	0.0133760
610.484	0.0134443
610.562	0.0133495
610.640	0.0133315
610.718	0.0134092
610.796	0.0134917
610.874	0.0133273
610.953	0.0132782
611.031	0.0135350
611.109	0.0134637
611.187	0.0134068
611.265	0.0135928
611.343	0.0135831
611.421	0.0133477
611.499	0.0135108
611.578	0.0134854
611.656	0.0134051
611.734	0.0134835
611.812	0.0134354
611.890	0.0133800
611.968	0.0135327
612.046	0.0134547
612.124	0.0135250
612.203	0.0133366
612.281	0.0133765
612.359	0.0133583
612.437	0.0134251
612.515	0.0133546
612.593	0.0134910
612.671	0.0134665
612.749	0.0135192
612.828	0.0134909
612.906	0.0133788
612.984	0.0132752
613.062	0.0133871
613.140	0.0134354
613.218	0.0134309
613.296	0.0135081
613.374	0.0133259
613.453	0.0134208
613.531	0.0134537
613.609	0.0134929
613.687	0.0133295
613.765	0.0133090
613.843	0.0134049
613.921	0.0134844
613.999	0.0134379
614.078	0.0133083
614.156	0.0134625
614.234	0.0133411
614.312	0.0133562
614.390	0.0134829
614.468	0.0134048
614.546	0.0133379
614.624	0.0133860
614.703	0.0135011
614.781	0.0134800
614.859	0.0134180
614.937	0.0134802
615.015	0.0133685
615.093	0.0133417
615.171	0.0135801
615.249	0.0135434
615.328	0.0133470
615.406	0.0133688
615.484	0.0134019
615.562	0.0134449
615.640	0.0134978
615.718	0.0134719
615.796	0.0133180
615.874	0.0133448
615.953	0.0135651
616.031	0.0135504
616.109	0.0133804
616.187	0.0135510
616.265	0.0134076
616.343	0.0135167
616.421	0.0135092
616.499	0.0133603
616.578	0.0134048
616.656	0.0135320
616.734	0.0135184
616.812	0.0132829
616.890	0.0133910
616.968	0.0135000
617.046	0.0133743
617.124	0.0134478
617.203	0.0134530
617.281	0.0134875
617.359	0.0134753
617.437	0.0133790
617.515	0.0135072
617.593	0.0134535
617.671	0.0134832
617.749	0.0134130
617.828	0.0134343
617.906	0.0135175
617.984	0.0134732
618.062	0.0135113
618.140	0.0134448
618.218	0.0135254
618.296	0.0133657
618.374	0.0134834
618.453	0.0134454
618.531	0.0135325
618.609	0.0134122
618.687	0.0133242
618.765	0.0134249
618.843	0.0134947
618.921	0.0135349
618.999	0.0133530
619.078	0.0134224
619.156	0.0134723
619.234	0.0134312
619.312	0.0133311
619.390	0.0133655
619.468	0.0134374
619.546	0.0134122
619.624	0.0134216
619.703	0.0134152
619.781	0.0134021
619.859	0.0134831
619.937	0.0134363
620.015	0.0135151
620.093	0.0133781
620.171	0.0134892
620.249	0.0135008
620.328	0.0134756
620.406	0.0134946
620.484	0.0134790
620.562	0.0133994
620.640	0.0133888
620.718	0.0134231
620.796	0.0134915
620.874	0.0134924
620.953	0.0134197
621.031	0.0133796
621.109	0.0134926
621.187	0.0134787
621.265	0.0134057
621.343	0.0134685
621.421	0.0134447
621.499	0.0134977
621.578	0.0135508
621.656	0.0134251
621.734	0.0133840
621.812	0.0135758
621.890	0.0134144
621.968	0.0134657
622.046	0.0134608
622.124	0.0134388
622.203	0.0133844
622.281	0.0134207
622.359	0.0134834
622.437	0.0134740
622.515	0.0133871
622.593	0.0135478
622.671	0.0134612
622.749	0.0135381
622.828	0.0134997
622.906	0.0135657
622.984	0.0134139
623.062	0.0134462
623.140	0.0135074
623.218	0.0133739
623.296	0.0133966
623.374	0.0135686
623.453	0.0134120
623.531	0.0134694
623.609	0.0133742
623.687	0.0134113
623.765	0.0135009
623.843	0.0134750
623.921	0.0133123
623.999	0.0134973
624.078	0.0134299
624.156	0.0133704
624.234	0.0134259
624.312	0.0135616
624.390	0.0134624
624.468	0.0134516
624.546	0.0133231
624.624	0.0134541
624.703	0.0134818
624.781	0.0133794
624.859	0.0135418
624.937	0.0134746
625.015	0.0134800
625.093	0.0135587
625.171	0.0134051
625.249	0.0134766
625.328	0.0134819
625.406	0.0133213
625.484	0.0133998
625.562	0.0134011
625.640	0.0134785
625.718	0.0133562
625.796	0.0135103
625.874	0.0134222
625.953	0.0134950
626.031	0.0133545
626.109	0.0134613
626.187	0.0133418
626.265	0.0134279
626.343	0.0134315
626.421	0.0134921
626.499	0.0134408
626.578	0.0134168
626.656	0.0134164
626.734	0.0133738
626.812	0.0132992
626.890	0.0134805
626.968	0.0135909
627.046	0.0134983
627.124	0.0133608
627.203	0.0133437
627.281	0.0135141
627.359	0.0134158
627.437	0.0132630
627.515	0.0134393
627.593	0.0134068
627.671	0.0133485
627.749	0.0134628
627.828	0.0133800
627.906	0.0133368
627.984	0.0134642
628.062	0.0135084
628.140	0.0133647
628.218	0.0133894
628.296	0.0135392
628.374	0.0132867
628.453	0.0133929
628.531	0.0134491
628.609	0.0133437
628.687	0.0132718
628.765	0.0132964
628.843	0.0134063
628.921	0.0133910
628.999	0.0134419
629.078	0.0134830
629.156	0.0135214
629.234	0.0133615
629.312	0.0133785
629.390	0.0133794
629.468	0.0132806
629.546	0.0133270
629.624	0.0135186
629.703	0.0134464
629.781	0.0135470
629.859	0.0134220
629.937	0.0134293
630.015	0.0134032
630.093	0.0135014
630.171	0.0134023
630.249	0.0134731
630.328	0.0134690
630.406	0.0134169
630.484	0.0134556
630.562	0.0135566
630.640	0.0134444
630.718	0.0134336
630.796	0.0133761
630.874	0.0134158
630.953	0.0135089
631.031	0.0134797
631.109	0.0134416
631.187	0.0134428
631.265	0.0135310
631.343	0.0134445
631.421	0.0134973
631.499	0.0135101
631.578	0.0134093
631.656	0.0134216
631.734	0.0134589
631.812	0.0134795
631.890	0.0134708
631.968	0.0133896
632.046	0.0133883
632.124	0.0136285
632.203	0.0135058
632.281	0.0132726
632.359	0.0133007
632.437	0.0134376
632.515	0.0134705
632.593	0.0134850
632.671	0.0135265
632.749	0.0136608
632.828	0.0134464
632.906	0.0133946
632.984	0.0132571
633.062	0.0134174
633.140	0.0135244
633.218	0.0134719
633.296	0.0133405
633.374	0.0134235
633.453	0.0134550
633.531	0.0135807
633.609	0.0135509
633.687	0.0134521
633.765	0.0133824
633.843	0.0134518
633.921	0.0135098
633.999	0.0134119
634.078	0.0134833
634.156	0.0135432
634.234	0.0135505
634.312	0.0134184
634.390	0.0134406
634.468	0.0134460
634.546	0.0134611
634.624	0.0136018
634.703	0.0135461
634.781	0.0135634
634.859	0.0133784
634.937	0.0134150
635.015	0.0135067
635.093	0.0134346
635.171	0.0135030
635.249	0.0134480
635.328	0.0133386
635.406	0.0134034
635.484	0.0135551
635.562	0.0135035
635.640	0.0134396
635.718	0.0134907
635.796	0.0135116
635.874	0.0135074
635.953	0.0133949
636.031	0.0134670
636.109	0.0134888
636.187	0.0135580
636.265	0.0134898
636.343	0.0135152
636.421	0.0134146
636.499	0.0133768
636.578	0.0133092
636.656	0.0135359
636.734	0.0133829
636.812	0.0134297
636.890	0.0134821
636.968	0.0135281
637.046	0.0134955
637.124	0.0135557
637.203	0.0134069
637.281	0.0133607
637.359	0.0134915
637.437	0.0133762
637.515	0.0133470
637.593	0.0134301
637.671	0.0135164
637.749	0.0133415
637.828	0.0134019
637.906	0.0134071
637.984	0.0136098
638.062	0.0135120
638.140	0.0135400
638.218	0.0134488
638.296	0.0133894
638.374	0.0134200
638.453	0.0134979
638.531	0.0132679
638.609	0.0135162
638.687	0.0135538
638.765	0.0134554
638.843	0.0134650
638.921	0.0134662
638.999	0.0136025
639.078	0.0133494
639.156	0.0132288
639.234	0.0135004
639.312	0.0134912
639.390	0.0133882
639.468	0.0134628
639.546	0.0134576
639.624	0.0134582
639.703	0.0134528
639.781	0.0134474
639.859	0.0135994
639.937	0.0133945
640.015	0.0135345
640.093	0.0133949
640.171	0.0134320
640.249	0.0136095
640.328	0.0135641
640.406	0.0134493
640.484	0.0135217
640.562	0.0135363
640.640	0.0135072
640.718	0.0136180
640.796	0.0132910
640.874	0.0134173
640.953	0.0134502
641.031	0.0133694
641.109	0.0134982
641.187	0.0133113
641.265	0.0134348
641.343	0.0135645
641.421	0.0133852
641.499	0.0135780
641.578	0.0134225
641.656	0.0134200
641.734	0.0134579
641.812	0.0134543
641.890	0.0134374
641.968	0.0134061
642.046	0.0134748
642.124	0.0134822
642.203	0.0135061
642.281	0.0134716
642.359	0.0133933
642.437	0.0134017
642.515	0.0135479
642.593	0.0134964
642.671	0.0134485
642.749	0.0134328
642.828	0.0135323
642.906	0.0134766
642.984	0.0133723
643.062	0.0133051
643.140	0.0135468
643.218	0.0134630
643.296	0.0135049
643.374	0.0133953
643.453	0.0134394
643.531	0.0134488
643.609	0.0135011
643.687	0.0134460
643.765	0.0133437
643.843	0.0133267
643.921	0.0134050
643.999	0.0134253
644.078	0.0133015
644.156	0.0132909
644.234	0.0134386
644.312	0.0135823
644.390	0.0135209
644.468	0.0133875
644.546	0.0135548
644.624	0.0133218
644.703	0.0133912
644.781	0.0134286
644.859	0.0133266
644.937	0.0134270
645.015	0.0134945
645.093	0.0135112
645.171	0.0135443
645.249	0.0134891
645.328	0.0133555
645.406	0.0134054
645.484	0.0134035
645.562	0.0134533
645.640	0.0133392
645.718	0.0134791
645.796	0.0135950
645.874	0.0134451
645.953	0.0135490
646.031	0.0134154
646.109	0.0134384
646.187	0.0134269
646.265	0.0133980
646.343	0.0133960
646.421	0.0135369
646.499	0.0135767
646.578	0.0134566
646.656	0.0134413
646.734	0.0135318
646.812	0.0135239
646.890	0.0135078
646.968	0.0133511
647.046	0.0134290
647.124	0.0134990
647.203	0.0134377
647.281	0.0134136
647.359	0.0133820
647.437	0.0135056
647.515	0.0134000
647.593	0.0133561
647.671	0.0133966
647.749	0.0134928
647.828	0.0134192
647.906	0.0136078
647.984	0.0133820
648.062	0.0133646
648.140	0.0133904
648.218	0.0134450
648.296	0.0135035
648.374	0.0133958
648.453	0.0134058
648.531	0.0133547
648.609	0.0132847
648.687	0.0134720
648.765	0.0134652
648.843	0.0133593
648.921	0.0134286
648.999	0.0135160
649.078	0.0134108
649.156	0.0134743
649.234	0.0134382
649.312	0.0133532
649.390	0.0135402
649.468	0.0134536
649.546	0.0133815
649.624	0.0134160
649.703	0.0134364
649.781	0.0136504
649.859	0.0134128
649.937	0.0134846
650.015	0.0134345
650.093	0.0135384
650.171	0.0134678
650.249	0.0134334
650.328	0.0134026
650.406	0.0136452
650.484	0.0135709
650.562	0.0135868
650.640	0.0134443
650.718	0.0135298
650.796	0.0135110
650.874	0.0134257
650.953	0.0134706
651.031	0.0134997
651.109	0.0134630
651.187	0.0134742
651.265	0.0134927
651.343	0.0134798
651.421	0.0132996
651.499	0.0134231
651.578	0.0134998
651.656	0.0135333
651.734	0.0136123
651.812	0.0134761
651.890	0.0132974
651.968	0.0132925
652.046	0.0134246
652.124	0.0134492
652.203	0.0134348
652.281	0.0134717
652.359	0.0134338
652.437	0.0134036
652.515	0.0135569
652.593	0.0134373
652.671	0.0133760
652.749	0.0133371
652.828	0.0133402
652.906	0.0133617
652.984	0.0134166
653.062	0.0133788
653.140	0.0133253
653.218	0.0134820
653.296	0.0133632
653.374	0.0133822
653.453	0.0134393
653.531	0.0133781
653.609	0.0134043
653.687	0.0134240
653.765	0.0134635
653.843	0.0135892
653.921	0.0135153
653.999	0.0134634
654.078	0.0135534
654.156	0.0135776
654.234	0.0133480
654.312	0.0134528
654.390	0.0136940
654.468	0.0134437
654.546	0.0135741
654.624	0.0135223
654.703	0.0133752
654.781	0.0135818
654.859	0.0133926
654.937	0.0133878
655.015	0.0134562
655.093	0.0133641
655.171	0.0134814
655.249	0.0134063
655.328	0.0135027
655.406	0.0134430
655.484	0.0135120
655.562	0.0135030
655.640	0.0134541
655.718	0.0134423
655.796	0.0135078
655.874	0.0135840
655.953	0.0133674
656.031	0.0134641
656.109	0.0134543
656.187	0.0134986
656.265	0.0134200
656.343	0.0134432
656.421	0.0134668
656.499	0.0134946
656.578	0.0134372
656.656	0.0135406
656.734	0.0135394
656.812	0.0133799
656.890	0.0135257
656.968	0.0135394
657.046	0.0135331
657.124	0.0134933
657.203	0.0135046
657.281	0.0133611
657.359	0.0133482
657.437	0.0135863
657.515	0.0136382
657.593	0.0134864
657.671	0.0134560
657.749	0.0134974
657.828	0.0133588
657.906	0.0134251
657.984	0.0133811
658.062	0.0135405
658.140	0.0135377
658.218	0.0135770
658.296	0.0134048
658.374	0.0135761
658.453	0.0133255
658.531	0.0135038
658.609	0.0134715
658.687	0.0136330
658.765	0.0135799
658.843	0.0135072
658.921	0.0134480
658.999	0.0135275
659.078	0.0135273
659.156	0.0135224
659.234	0.0132869
659.312	0.0135089
659.390	0.0135182
659.468	0.0134194
659.546	0.0134483
659.624	0.0135446
659.703	0.0135137
659.781	0.0133405
659.859	0.0134098
659.937	0.0135953
660.015	0.0134357
660.093	0.0134428
660.171	0.0133283
660.249	0.0133698
660.328	0.0134130
660.406	0.0135285
660.484	0.0133316
660.562	0.0133236
660.640	0.0135712
660.718	0.0134690
660.796	0.0134531
660.874	0.0134214
660.953	0.0133582
661.031	0.0135283
661.109	0.0135863
661.187	0.0134746
661.265	0.0134280
661.343	0.0134644
661.421	0.0135034
661.499	0.0133273
661.578	0.0133826
661.656	0.0135138
661.734	0.0135222
661.812	0.0134578
661.890	0.0133907
661.968	0.0135165
662.046	0.0136457
662.124	0.0135508
662.203	0.0134119
662.281	0.0135037
662.359	0.0134076
662.437	0.0134524
662.515	0.0135646
662.593	0.0134102
662.671	0.0134329
662.749	0.0134123
662.828	0.0134348
662.906	0.0134264
662.984	0.0134151
663.062	0.0134891
663.140	0.0133975
663.218	0.0135081
663.296	0.0134769
663.374	0.0136751
663.453	0.0134141
663.531	0.0134724
663.609	0.0135760
663.687	0.0134977
663.765	0.0134237
663.843	0.0134345
663.921	0.0135552
663.999	0.0135928
664.078	0.0136204
664.156	0.0135319
664.234	0.0134355
664.312	0.0136299
664.390	0.0135872
664.468	0.0135279
664.546	0.0135677
664.624	0.0134373
664.703	0.0134109
664.781	0.0135843
664.859	0.0135838
664.937	0.0136353
665.015	0.0135389
665.093	0.0134729
665.171	0.0135503
665.249	0.0134919
665.328	0.0135471
665.406	0.0135208
665.484	0.0136121
665.562	0.0135048
665.640	0.0133545
665.718	0.0135989
665.796	0.0134512
665.874	0.0133671
665.953	0.0134293
666.031	0.0134013
666.109	0.0135361
666.187	0.0134602
666.265	0.0134994
666.343	0.0134570
666.421	0.0133973
666.499	0.0134422
666.578	0.0135057
666.656	0.0135162
666.734	0.0134473
666.812	0.0134172
666.890	0.0134632
666.968	0.0134052
667.046	0.0134692
667.124	0.0134345
667.203	0.0133465
667.281	0.0134680
667.359	0.0135093
667.437	0.0135529
667.515	0.0133879
667.593	0.0135932
667.671	0.0133277
667.749	0.0135356
667.828	0.0134831
667.906	0.0135234
667.984	0.0134271
668.062	0.0134924
668.140	0.0135081
668.218	0.0135548
668.296	0.0133728
668.374	0.0133819
668.453	0.0135497
668.531	0.0135485
668.609	0.0134681
668.687	0.0134291
668.765	0.0135883
668.843	0.0134600
668.921	0.0133443
668.999	0.0134538
669.078	0.0135281
669.156	0.0134704
669.234	0.0134650
669.312	0.0135098
669.390	0.0134892
669.468	0.0134882
669.546	0.0133076
669.624	0.0134496
669.703	0.0133923
669.781	0.0135150
669.859	0.0134045
669.937	0.0133565
670.015	0.0135505
670.093	0.0134319
670.171	0.0135340
670.249	0.0134944
670.328	0.0135092
670.406	0.0134795
670.484	0.0135619
670.562	0.0134723
670.640	0.0135308
670.718	0.0134757
670.796	0.0135214
670.874	0.0134380
670.953	0.0134485
671.031	0.0134873
671.109	0.0134914
671.187	0.0134019
671.265	0.0133167
671.343	0.0135538
671.421	0.0135378
671.499	0.0133964
671.578	0.0133543
671.656	0.0134219
671.734	0.0133757
671.812	0.0133856
671.890	0.0135645
671.968	0.0135204
672.046	0.0134010
672.124	0.0134122
672.203	0.0134943
672.281	0.0134439
672.359	0.0133872
672.437	0.0134292
672.515	0.0135124
672.593	0.0133784
672.671	0.0133779
672.749	0.0134151
672.828	0.0134856
672.906	0.0132903
672.984	0.0133590
673.062	0.0135191
673.140	0.0133607
673.218	0.0134652
673.296	0.0134838
673.374	0.0133832
673.453	0.0133182
673.531	0.0133561
673.609	0.0134893
673.687	0.0135485
673.765	0.0133560
673.843	0.0133986
673.921	0.0136140
673.999	0.0134486
674.078	0.0134312
674.156	0.0135770
674.234	0.0133852
674.312	0.0133710
674.390	0.0133978
674.468	0.0134209
674.546	0.0132591
674.624	0.0134315
674.703	0.0133869
674.781	0.0134374
674.859	0.0135147
674.937	0.0135413
675.015	0.0133088
675.093	0.0134332
675.171	0.0135722
675.249	0.0134416
675.328	0.0134066
675.406	0.0133179
675.484	0.0133971
675.562	0.0134677
675.640	0.0134766
675.718	0.0133926
675.796	0.0135435
675.874	0.0134684
675.953	0.0134595
676.031	0.0133025
676.109	0.0133434
676.187	0.0135563
676.265	0.0134590
676.343	0.0134195
676.421	0.0135003
676.499	0.0134811
676.578	0.0133566
676.656	0.0134268
676.734	0.0134384
676.812	0.0134032
676.890	0.0133998
676.968	0.0135379
677.046	0.0135347
677.124	0.0133505
677.203	0.0132867
677.281	0.0133717
677.359	0.0134720
677.437	0.0133832
677.515	0.0134478
677.593	0.0134043
677.671	0.0135057
677.749	0.0134207
677.828	0.0133267
677.906	0.0136031
677.984	0.0134610
678.062	0.0133626
678.140	0.0134648
678.218	0.0134253
678.296	0.0135738
678.374	0.0135114
678.453	0.0135046
678.531	0.0134122
678.609	0.0135033
678.687	0.0134045
678.765	0.0135409
678.843	0.0135840
678.921	0.0133797
678.999	0.0134985
679.078	0.0135212
679.156	0.0134848
679.234	0.0134600
679.312	0.0134599
679.390	0.0134692
679.468	0.0134801
679.546	0.0135757
679.624	0.0135082
679.703	0.0134502
679.781	0.0135507
679.859	0.0135892
679.937	0.0134742
680.015	0.0133123
680.093	0.0133746
680.171	0.0134567
680.249	0.0134728
680.328	0.0134219
680.406	0.0134129
680.484	0.0134406
680.562	0.0133034
680.640	0.0134283
680.718	0.0134470
680.796	0.0133261
680.874	0.0133066
680.953	0.0132667
681.031	0.0132999
681.109	0.0132621
681.187	0.0133955
681.265	0.0134580
681.343	0.0134659
681.421	0.0133886
681.499	0.0135205
681.578	0.0135351
681.656	0.0136031
681.734	0.0135002
681.812	0.0135449
681.890	0.0136209
681.968	0.0136674
682.046	0.0135347
682.124	0.0137328
682.203	0.0135871
682.281	0.0136400
682.359	0.0135651
682.437	0.0134920
682.515	0.0135767
682.593	0.0136221
682.671	0.0134524
682.749	0.0134594
682.828	0.0132860
682.906	0.0133070
682.984	0.0133202
683.062	0.0134242
683.140	0.0132188
683.218	0.0134328
683.296	0.0131564
683.374	0.0132092
683.453	0.0130997
683.531	0.0131026
683.609	0.0129678
683.687	0.0130588
683.765	0.0129865
683.843	0.0130627
683.921	0.0130818
683.999	0.0129412
684.078	0.0130099
684.156	0.0132245
684.234	0.0132901
684.312	0.0135732
684.390	0.0136072
684.468	0.0136520
684.546	0.0138203
684.624	0.0140804
684.703	0.0142535
684.781	0.0143691
684.859	0.0145840
684.937	0.0146082
685.015	0.0145113
685.093	0.0146803
685.171	0.0146908
685.249	0.0144745
685.328	0.0143685
685.406	0.0141171
685.484	0.0138576
685.562	0.0135401
685.640	0.0133298
685.718	0.0128361
685.796	0.0124655
685.874	0.0120897
685.953	0.0119371
686.031	0.0117986
686.109	0.0116740
686.187	0.0116666
686.265	0.0117018
686.343	0.0116193
686.421	0.0119904
686.499	0.0122073
686.578	0.0123631
686.656	0.0127798
686.734	0.0131527
686.812	0.0134349
686.890	0.0136174
686.968	0.0137723
687.046	0.0140216
687.124	0.0143572
687.203	0.0144886
687.281	0.0146359
687.359	0.0147917
687.437	0.0145716
687.515	0.0149642
687.593	0.0148589
687.671	0.0147326
687.749	0.0147174
687.828	0.0147897
687.906	0.0147606
687.984	0.0149044
688.062	0.0147925
688.140	0.0147974
688.218	0.0148047
688.296	0.0148116
688.374	0.0145741
688.453	0.0143981
688.531	0.0141869
688.609	0.0140834
688.687	0.0137376
688.765	0.0132239
688.843	0.0128106
688.921	0.0125529
688.999	0.0120531
689.078	0.0115611
689.156	0.0112627
689.234	0.0109995
689.312	0.0108495
689.390	0.0105054
689.468	0.0106696
689.546	0.0107004
689.624	0.0106498
689.703	0.0109175
689.781	0.0113276
689.859	0.0114062
689.937	0.0118790
690.015	0.0123437
690.093	0.0128246
690.171	0.0132320
690.249	0.0137827
690.328	0.0142674
690.406	0.0147247
690.484	0.0151524
690.562	0.0157949
690.640	0.0161422
690.718	0.0164180
690.796	0.0167528
690.874	0.0166458
690.953	0.0168861
691.031	0.0168276
691.109	0.0165719
691.187	0.0165841
691.265	0.0162407
691.343	0.0159703
691.421	0.0156454
691.499	0.0154161
691.578	0.0149644
691.656	0.0145113
691.734	0.0139841
691.812	0.0134985
691.890	0.0131228
691.968	0.0125821
692.046	0.0120971
692.124	0.0115346
692.203	0.0111560
692.281	0.0108551
692.359	0.0104277
692.437	0.0102806
692.515	0.0102087
692.593	0.0100455
692.671	0.0100337
692.749	0.0101309
692.828	0.0102155
692.906	0.0104676
692.984	0.0105918
693.062	0.0108704
693.140	0.0111763
693.218	0.0117625
693.296	0.0123608
693.374	0.0126694
693.453	0.0131839
693.531	0.0137261
693.609	0.0142644
693.687	0.0146446
693.765	0.0150790
693.843	0.0155681
693.921	0.0157521
693.999	0.0162643
694.078	0.0165098
694.156	0.0166214
694.234	0.0167389
694.312	0.0168755
694.390	0.0168557
694.468	0.0167087
694.546	0.0165499
694.624	0.0164804
694.703	0.0160546
694.781	0.0156313
694.859	0.0152939
694.937	0.0147366
695.015	0.0140559
695.093	0.0136050
695.171	0.0130866
695.249	0.0126257
695.328	0.0120678
695.406	0.0115456
695.484	0.0113737
695.562	0.0108402
695.640	0.0105984
695.718	0.0103997
695.796	0.0102248
695.874	0.0101200
695.953	0.0102145
696.031	0.0102683
696.109	0.0105003
696.187	0.0107246
696.265	0.0110717
696.343	0.0114306
696.421	0.0117573
696.499	0.0121408
696.578	0.0126026
696.656	0.0130616
696.734	0.0135351
696.812	0.0138099
696.890	0.0141952
696.968	0.0146584
697.046	0.0151037
697.124	0.0154413
697.203	0.0156584
697.281	0.0158708
697.359	0.0160164
697.437	0.0161649
697.515	0.0162560
697.593	0.0161122
697.671	0.0161217
697.749	0.0161158
697.828	0.0158279
697.906	0.0155648
697.984	0.0152605
698.062	0.0148943
698.140	0.0145326
698.218	0.0141713
698.296	0.0135343
698.374	0.0131024
698.453	0.0125961
698.531	0.0123354
698.609	0.0119260
698.687	0.0115664
698.765	0.0113364
698.843	0.0111322
698.921	0.0112292
698.999	0.0110890
699.078	0.0109232
699.156	0.0111394
699.234	0.0111599
699.312	0.0114458
699.390	0.0116196
699.468	0.0116368
699.546	0.0118176
699.624	0.0122029
699.703	0.0124898
699.781	0.0126473
699.859	0.0129999
699.937	0.0134284
700.015	0.0136074
700.093	0.0140905
700.171	0.0144938
700.249	0.0148003
700.328	0.0150215
700.406	0.0153377
700.484	0.0154311
700.562	0.0156887
700.640	0.0157157
700.718	0.0157005
700.796	0.0158124
700.874	0.0156580
700.953	0.0156013
701.031	0.0151733
701.109	0.0149264
701.187	0.0145031
701.265	0.0142978
701.343	0.0137980
701.421	0.0132777
701.499	0.0128630
701.578	0.0125684
701.656	0.0122826
701.734	0.0120469
701.812	0.0118648
701.890	0.0119715
701.968	0.0120251
702.046	0.0119616
702.124	0.0121304
702.203	0.0122205
702.281	0.0123296
702.359	0.0126358
702.437	0.0127131
702.515	0.0128968
702.593	0.0129752
702.671	0.0130198
702.749	0.0132823
702.828	0.0133231
702.906	0.0132677
702.984	0.0132784
703.062	0.0132863
703.140	0.0133591
703.218	0.0133905
703.296	0.0134075
703.374	0.0136513
703.453	0.0136646
703.531	0.0138374
703.609	0.0140893
703.687	0.0142385
703.765	0.0143138
703.843	0.0145086
703.921	0.0146240
703.999	0.0145638
704.078	0.0146730
704.156	0.0146841
704.234	0.0145950
704.312	0.0144407
704.390	0.0143571
704.468	0.0141190
704.546	0.0136763
704.624	0.0134187
704.703	0.0130520
704.781	0.0128641
704.859	0.0126535
704.937	0.0127338
705.015	0.0121645
705.093	0.0122352
705.171	0.0120337
705.249	0.0120293
705.328	0.0120754
705.406	0.0121756
705.484	0.0121690
705.562	0.0124902
705.640	0.0127007
705.718	0.0127143
705.796	0.0129227
705.874	0.0130862
705.953	0.0133900
706.031	0.0135996
706.109	0.0135944
706.187	0.0138311
706.265	0.0140688
706.343	0.0139601
706.421	0.0141450
706.499	0.0141414
706.578	0.0140131
706.656	0.0140042
706.734	0.0141604
706.812	0.0142709
706.890	0.0141267
706.968	0.0141952
707.046	0.0140571
707.124	0.0140845
707.203	0.0142252
707.281	0.0142686
707.359	0.0142415
707.437	0.0142094
707.515	0.0140147
707.593	0.0141911
707.671	0.0141038
707.749	0.0139684
707.828	0.0137891
707.906	0.0136426
707.984	0.0134402
708.062	0.0130838
708.140	0.0130386
708.218	0.0129071
708.296	0.0126454
708.374	0.0124634
708.453	0.0122498
708.531	0.0122667
708.609	0.0121780
708.687	0.0122480
708.765	0.0122189
708.843	0.0122964
708.921	0.0124090
708.999	0.0125026
709.078	0.0126140
709.156	0.0129800
709.234	0.0133064
709.312	0.0133282
709.390	0.0136271
709.468	0.0136254
709.546	0.0136904
709.624	0.0138718
709.703	0.0138470
709.781	0.0139452
709.859	0.0138711
709.937	0.0138245
710.015	0.0138752
710.093	0.0136774
710.171	0.0137025
710.249	0.0136916
710.328	0.0136895
710.406	0.0136884
710.484	0.0137431
710.562	0.0136546
710.640	0.0136035
710.718	0.0137330
710.796	0.0137745
710.874	0.0137849
710.953	0.0138691
711.031	0.0139095
711.109	0.0138262
711.187	0.0138248
711.265	0.0139867
711.343	0.0137521
711.421	0.0137438
711.499	0.0136691
711.578	0.0135744
711.656	0.0135761
711.734	0.0134312
711.812	0.0132169
711.890	0.0132453
711.968	0.0131375
712.046	0.0130757
712.124	0.0128167
712.203	0.0128560
712.281	0.0129318
712.359	0.0128214
712.437	0.0128973
712.515	0.0129470
712.593	0.0130932
712.671	0.0132735
712.749	0.0132262
712.828	0.0134545
712.906	0.0135166
712.984	0.0136728
713.062	0.0137941
713.140	0.0136211
713.218	0.0138006
713.296	0.0137483
713.374	0.0136012
713.453	0.0136710
713.531	0.0135434
713.609	0.0134332
713.687	0.0134936
713.765	0.0134299
713.843	0.0134633
713.921	0.0133257
713.999	0.0132863
714.078	0.0133828
714.156	0.0131875
714.234	0.0132529
714.312	0.0132748
714.390	0.0132301
714.468	0.0131692
714.546	0.0131556
714.624	0.0132188
714.703	0.0132021
714.781	0.0130451
714.859	0.0131287
714.937	0.0131532
715.015	0.0132980
715.093	0.0132262
715.171	0.0132764
715.249	0.0132282
715.328	0.0132227
715.406	0.0132318
715.484	0.0132443
715.562	0.0132475
715.640	0.0133566
715.718	0.0133085
715.796	0.0132928
715.874	0.0134277
715.953	0.0136214
716.031	0.0136759
716.109	0.0136460
716.187	0.0136211
716.265	0.0137461
716.343	0.0136053
716.421	0.0137719
716.499	0.0139420
716.578	0.0139313
716.656	0.0137719
716.734	0.0140072
716.812	0.0139624
716.890	0.0138467
716.968	0.0139259
717.046	0.0141301
717.124	0.0140092
717.203	0.0140203
717.281	0.0139896
717.359	0.0139582
717.437	0.0139660
717.515	0.0138306
717.593	0.0138564
717.671	0.0137128
717.749	0.0138045
717.828	0.0135658
717.906	0.0135581
717.984	0.0133745
718.062	0.0132822
718.140	0.0133245
718.218	0.0131786
718.296	0.0130695
718.374	0.0130487
718.453	0.0130601
718.531	0.0130233
718.609	0.0128909
718.687	0.0129922
718.765	0.0128265
718.843	0.0127464
718.921	0.0127673
718.999	0.0127633
719.078	0.0126187
719.156	0.0125787
719.234	0.0129810
719.312	0.0127754
719.390	0.0128250
719.468	0.0129243
719.546	0.0129075
719.624	0.0130437
719.703	0.0132183
719.781	0.0133567
719.859	0.0135285
719.937	0.0135439
720.015	0.0137602
720.093	0.0138137
720.171	0.0139428
720.249	0.0140057
720.328	0.0141197
720.406	0.0141425
720.484	0.0140871
720.562	0.0141801
720.640	0.0141992
720.718	0.0141657
720.796	0.0140398
720.874	0.0140668
720.953	0.0139880
721.031	0.0139036
721.109	0.0137416
721.187	0.0138148
721.265	0.0137614
721.343	0.0136617
721.421	0.0136233
721.499	0.0134225
721.578	0.0132883
721.656	0.0134890
721.734	0.0134330
721.812	0.0131808
721.890	0.0132261
721.968	0.0132227
722.046	0.0131141
722.124	0.0129447
722.203	0.0130415
722.281	0.0127933
722.359	0.0129847
722.437	0.0129588
722.515	0.0131097
722.593	0.0132415
722.671	0.0130563
722.749	0.0132310
722.828	0.0133492
722.906	0.0133570
722.984	0.0135376
723.062	0.0135580
723.140	0.0134930
723.218	0.0136572
723.296	0.0137621
723.374	0.0137761
723.453	0.0136895
723.531	0.0136397
723.609	0.0138171
723.687	0.0137778
723.765	0.0137619
723.843	0.0136968
723.921	0.0136620
723.999	0.0137032
724.078	0.0136231
724.156	0.0136271
724.234	0.0135912
724.312	0.0136993
724.390	0.0135319
724.468	0.0137169
724.546	0.0136708
724.624	0.0134870
724.703	0.0134982
724.781	0.0135984
724.859	0.0135584
724.937	0.0133370
725.015	0.0133995
725.093	0.0133742
725.171	0.0131808
725.249	0.0132684
725.328	0.0131551
725.406	0.0130898
725.484	0.0130386
725.562	0.0129148
725.640	0.0130608
725.718	0.0130662
725.796	0.0129563
725.874	0.0129283
725.953	0.0130322
726.031	0.0130284
726.109	0.0131622
726.187	0.0130847
726.265	0.0131210
726.343	0.0132857
726.421	0.0134180
726.499	0.0134743
726.578	0.0134203
726.656	0.0134337
726.734	0.0137473
726.812	0.0136443
726.890	0.0137916
726.968	0.0136838
727.046	0.0136717
727.124	0.0137573
727.203	0.0138395
727.281	0.0138833
727.359	0.0138911
727.437	0.0138284
727.515	0.0138954
727.593	0.0138770
727.671	0.0139056
727.749	0.0138794
727.828	0.0137601
727.906	0.0136703
727.984	0.0135181
728.062	0.0135818
728.140	0.0137173
728.218	0.0134499
728.296	0.0134322
728.374	0.0134700
728.453	0.0134536
728.531	0.0134617
728.609	0.0134859
728.687	0.0135290
728.765	0.0134300
728.843	0.0133082
728.921	0.0135604
728.999	0.0134645
729.078	0.0134716
729.156	0.0133395
729.234	0.0134271
729.312	0.0133537
729.390	0.0133399
729.468	0.0133063
729.546	0.0132677
729.624	0.0132121
729.703	0.0132335
729.781	0.0132497
729.859	0.0131168
729.937	0.0131166
730.015	0.0130933
730.093	0.0131171
730.171	0.0131467
730.249	0.0130021
730.328	0.0131862
730.406	0.0132330
730.484	0.0132433
730.562	0.0131622
730.640	0.0135168
730.718	0.0134747
730.796	0.0135500
730.874	0.0135616
730.953	0.0134500
731.031	0.0135019
731.109	0.0136607
731.187	0.0136987
731.265	0.0137518
731.343	0.0138148
731.421	0.0137917
731.499	0.0136935
731.578	0.0135748
731.656	0.0135889
731.734	0.0136296
731.812	0.0135249
731.890	0.0135641
731.968	0.0134875
732.046	0.0135213
732.124	0.0134724
732.203	0.0134290
732.281	0.0134527
732.359	0.0134251
732.437	0.0134473
732.515	0.0134372
732.593	0.0134466
732.671	0.0134731
732.749	0.0134351
732.828	0.0132685
732.906	0.0135050
732.984	0.0133324
733.062	0.0133724
733.140	0.0134429
733.218	0.0133913
733.296	0.0133955
733.374	0.0134763
733.453	0.0132716
733.531	0.0134238
733.609	0.0134158
733.687	0.0134135
733.765	0.0134125
733.843	0.0135271
733.921	0.0134757
733.999	0.0133563
734.078	0.0133277
734.156	0.0134409
734.234	0.0133876
734.312	0.0133215
734.390	0.0134065
734.468	0.0133492
734.546	0.0133840
734.624	0.0133527
734.703	0.0132692
734.781	0.0132674
734.859	0.0135149
734.937	0.0135375
735.015	0.0134437
735.093	0.0135168
735.171	0.0136257
735.249	0.0135342
735.328	0.0135506
735.406	0.0137433
735.484	0.0138087
735.562	0.0138503
735.640	0.0138038
735.718	0.0139054
735.796	0.0138002
735.874	0.0136826
735.953	0.0137025
736.031	0.0135638
736.109	0.0135806
736.187	0.0134955
736.265	0.0134615
736.343	0.0135435
736.421	0.0134819
736.499	0.0133732
736.578	0.0131854
736.656	0.0131501
736.734	0.0133625
736.812	0.0133731
736.890	0.0132064
736.968	0.0131898
737.046	0.0131899
737.124	0.0133461
737.203	0.0132800
737.281	0.0131640
737.359	0.0131736
737.437	0.0133475
737.515	0.0133063
737.593	0.0133376
737.671	0.0132963
737.749	0.0132806
737.828	0.0134525
737.906	0.0134667
737.984	0.0133570
738.062	0.0133935
738.140	0.0133630
738.218	0.0134671
738.296	0.0135329
738.374	0.0135114
738.453	0.0136124
738.531	0.0135880
738.609	0.0135088
738.687	0.0134743
738.765	0.0137042
738.843	0.0135800
738.921	0.0136072
738.999	0.0136433
739.078	0.0137483
739.156	0.0138718
739.234	0.0139611
739.312	0.0137705
739.390	0.0136850
739.468	0.0137814
739.546	0.0137599
739.624	0.0138837
739.703	0.0138416
739.781	0.0138288
739.859	0.0136274
739.937	0.0137186
740.015	0.0137492
740.093	0.0136579
740.171	0.0137505
740.249	0.0136786
740.328	0.0134175
740.406	0.0134184
740.484	0.0134431
740.562	0.0134328
740.640	0.0133344
740.718	0.0132467
740.796	0.0131812
740.874	0.0131129
740.953	0.0131194
741.031	0.0132248
741.109	0.0130128
741.187	0.0130825
741.265	0.0131807
741.343	0.0131824
741.421	0.0132581
741.499	0.0133966
741.578	0.0134159
741.656	0.0134162
741.734	0.0133404
741.812	0.0133086
741.890	0.0132928
741.968	0.0133463
742.046	0.0134933
742.124	0.0134772
742.203	0.0134199
742.281	0.0135065
742.359	0.0134922
742.437	0.0132561
742.515	0.0135476
742.593	0.0134098
742.671	0.0135222
742.749	0.0136505
742.828	0.0135385
742.906	0.0136091
742.984	0.0136554
743.062	0.0135944
743.140	0.0135393
743.218	0.0136246
743.296	0.0137209
743.374	0.0136201
743.453	0.0137309
743.531	0.0137804
743.609	0.0136169
743.687	0.0135223
743.765	0.0136443
743.843	0.0135783
743.921	0.0135204
743.999	0.0134829
744.078	0.0137087
744.156	0.0136302
744.234	0.0135385
744.312	0.0133755
744.390	0.0135741
744.468	0.0134363
744.546	0.0136525
744.624	0.0137000
744.703	0.0135729
744.781	0.0136089
744.859	0.0134602
744.937	0.0135034
745.015	0.0135366
745.093	0.0135452
745.171	0.0135835
745.249	0.0134990
745.328	0.0135835
745.406	0.0134887
745.484	0.0135065
745.562	0.0134689
745.640	0.0134523
745.718	0.0133844
745.796	0.0133243
745.874	0.0134148
745.953	0.0135927
746.031	0.0135127
746.109	0.0133796
746.187	0.0133757
746.265	0.0135976
746.343	0.0134657
746.421	0.0134814
746.499	0.0136135
746.578	0.0136239
746.656	0.0133892
746.734	0.0135264
746.812	0.0135314
746.890	0.0136038
746.968	0.0134843
747.046	0.0135622
747.124	0.0135056
747.203	0.0134570
747.281	0.0136140
747.359	0.0136193
747.437	0.0136864
747.515	0.0135673
747.593	0.0136195
747.671	0.0135246
747.749	0.0135405
747.828	0.0134572
747.906	0.0136124
747.984	0.0133035
748.062	0.0133948
748.140	0.0134647
748.218	0.0135908
748.296	0.0133797
748.374	0.0135265
748.453	0.0134467
748.531	0.0133582
748.609	0.0135113
748.687	0.0134058
748.765	0.0132809
748.843	0.0132510
748.921	0.0133202
748.999	0.0133920
749.078	0.0133750
749.156	0.0132468
749.234	0.0134306
749.312	0.0134157
749.390	0.0132694
749.468	0.0132944
749.546	0.0133994
749.624	0.0135760
749.703	0.0135319
749.781	0.0134245
749.859	0.0134782
749.937	0.0136321
750.015	0.0134753
750.093	0.0135860
750.171	0.0135872
750.249	0.0135294
750.328	0.0135780
750.406	0.0136459
750.484	0.0136147
750.562	0.0137743
750.640	0.0137115
750.718	0.0135164
750.796	0.0137370
750.874	0.0136433
750.953	0.0136333
751.031	0.0136320
751.109	0.0136182
751.187	0.0135971
751.265	0.0135836
751.343	0.0134453
751.421	0.0134275
751.499	0.0134117
751.578	0.0134318
751.656	0.0134530
751.734	0.0134843
751.812	0.0133199
751.890	0.0131484
751.968	0.0133923
752.046	0.0134318
752.124	0.0133543
752.203	0.0133083
752.281	0.0133527
752.359	0.0132892
752.437	0.0132190
752.515	0.0133004
752.593	0.0132953
752.671	0.0133572
752.749	0.0134254
752.828	0.0133956
752.906	0.0132075
752.984	0.0132984
753.062	0.0134042
753.140	0.0133875
753.218	0.0134936
753.296	0.0135448
753.374	0.0135152
753.453	0.0135661
753.531	0.0135104
753.609	0.0135088
753.687	0.0136271
753.765	0.0135702
753.843	0.0134408
753.921	0.0135137
753.999	0.0135411
754.078	0.0136090
754.156	0.0135328
754.234	0.0135414
754.312	0.0134850
754.390	0.0135446
754.468	0.0134632
754.546	0.0133237
754.624	0.0135352
754.703	0.0135203
754.781	0.0135545
754.859	0.0133196
754.937	0.0133443
755.015	0.0133921
755.093	0.0134919
755.171	0.0133803
755.249	0.0134435
755.328	0.0134018
755.406	0.0133867
755.484	0.0133824
755.562	0.0134135
755.640	0.0134072
755.718	0.0134499
755.796	0.0133445
755.874	0.0134335
755.953	0.0133344
756.031	0.0133955
756.109	0.0135180
756.187	0.0133910
756.265	0.0134053
756.343	0.0134515
756.421	0.0136251
756.499	0.0134362
756.578	0.0134904
756.656	0.0135597
756.734	0.0134971
756.812	0.0135891
756.890	0.0135110
756.968	0.0135151
757.046	0.0133566
757.124	0.0135080
757.203	0.0134151
757.281	0.0134818
757.359	0.0133105
757.437	0.0132917
757.515	0.0134039
757.593	0.0134550
757.671	0.0132837
757.749	0.0132693
757.828	0.0132953
757.906	0.0133441
757.984	0.0133514
758.062	0.0132095
758.140	0.0133411
758.218	0.0132629
758.296	0.0131847
758.374	0.0132182
758.453	0.0134118
758.531	0.0134793
758.609	0.0134683
758.687	0.0134032
758.765	0.0135820
758.843	0.0134997
758.921	0.0136388
758.999	0.0134692
759.078	0.0135349
759.156	0.0135725
759.234	0.0135914
759.312	0.0136182
759.390	0.0135723
759.468	0.0135805
759.546	0.0135291
759.624	0.0134185
759.703	0.0133781
759.781	0.0133502
759.859	0.0133675
759.937	0.0134860
760.015	0.0136129
760.093	0.0135149
760.171	0.0134820
760.249	0.0134141
760.328	0.0135188
760.406	0.0134063
760.484	0.0134383
760.562	0.0134521
760.640	0.0134300
760.718	0.0134121
760.796	0.0131866
760.874	0.0132365
760.953	0.0131422
761.031	0.0131811
761.109	0.0131098
761.187	0.0130473
761.265	0.0129924
761.343	0.0132298
761.421	0.0130913
761.499	0.0131012
761.578	0.0134271
761.656	0.0133783
761.734	0.0134319
761.812	0.0136424
761.890	0.0136418
761.968	0.0136754
762.046	0.0137524
762.124	0.0137486
762.203	0.0137810
762.281	0.0138436
762.359	0.0138123
762.437	0.0137632
762.515	0.0135822
762.593	0.0136951
762.671	0.0135150
762.749	0.0134526
762.828	0.0135323
762.906	0.0134664
762.984	0.0134672
763.062	0.0134084
763.140	0.0134580
763.218	0.0134025
763.296	0.0132862
763.374	0.0136001
763.453	0.0136066
763.531	0.0135473
763.609	0.0135931
763.687	0.0134763
763.765	0.0134441
763.843	0.0134734
763.921	0.0133939
763.999	0.0133160
764.078	0.0133589
764.156	0.0132867
764.234	0.0131983
764.312	0.0131969
764.390	0.0134330
764.468	0.0133134
764.546	0.0133418
764.624	0.0132514
764.703	0.0135838
764.781	0.0135787
764.859	0.0135775
764.937	0.0136285
765.015	0.0136414
765.093	0.0137765
765.171	0.0136889
765.249	0.0136863
765.328	0.0136884
765.406	0.0135262
765.484	0.0135741
765.562	0.0134798
765.640	0.0133952
765.718	0.0134248
765.796	0.0131120
765.874	0.0131516
765.953	0.0131515
766.031	0.0133065
766.109	0.0133096
766.187	0.0132224
766.265	0.0133463
766.343	0.0135153
766.421	0.0135174
766.499	0.0136195
766.578	0.0136345
766.656	0.0135946
766.734	0.0134820
766.812	0.0135596
766.890	0.0135978
766.968	0.0136154
767.046	0.0133210
767.124	0.0133820
767.203	0.0133630
767.281	0.0132260
767.359	0.0132705
767.437	0.0132690
767.515	0.0132800
767.593	0.0133600
767.671	0.0133736
767.749	0.0135381
767.828	0.0136531
767.906	0.0135396
767.984	0.0135868
768.062	0.0136448
768.140	0.0138633
768.218	0.0138342
768.296	0.0136522
768.374	0.0136761
768.453	0.0136165
768.531	0.0137877
768.609	0.0135838
768.687	0.0135527
768.765	0.0134249
768.843	0.0133364
768.921	0.0134757
768.999	0.0133484
769.078	0.0131899
769.156	0.0131967
769.234	0.0132571
769.312	0.0132166
769.390	0.0131736
769.468	0.0130982
769.546	0.0130626
769.624	0.0132728
769.703	0.0131512
769.781	0.0132807
769.859	0.0131819
769.937	0.0132079
770.015	0.0133771
770.093	0.0133868
770.171	0.0133640
770.249	0.0134365
770.328	0.0134679
770.406	0.0134316
770.484	0.0134749
770.562	0.0134669
770.640	0.0136241
770.718	0.0135341
770.796	0.0135064
770.874	0.0135635
770.953	0.0136364
771.031	0.0136423
771.109	0.0135480
771.187	0.0136396
771.265	0.0136147
771.343	0.0135147
771.421	0.0134998
771.499	0.0135907
771.578	0.0135849
771.656	0.0135708
771.734	0.0135229
771.812	0.0133704
771.890	0.0134540
771.968	0.0134641
772.046	0.0132987
772.124	0.0133595
772.203	0.0133052
772.281	0.0132845
772.359	0.0132600
772.437	0.0129940
772.515	0.0130352
772.593	0.0130561
772.671	0.0129453
772.749	0.0131315
772.828	0.0131060
772.906	0.0130195
772.984	0.0132101
773.062	0.0130907
773.140	0.0131858
773.218	0.0133214
773.296	0.0133522
773.374	0.0134882
773.453	0.0134564
773.531	0.0135158
773.609	0.0135488
773.687	0.0136395
773.765	0.0137791
773.843	0.0135958
773.921	0.0136570
773.999	0.0138048
774.078	0.0137088
774.156	0.0138225
774.234	0.0136821
774.312	0.0137309
774.390	0.0137453
774.468	0.0139075
774.546	0.0137715
774.624	0.0138520
774.703	0.0137125
774.781	0.0137933
774.859	0.0137097
774.937	0.0136850
775.015	0.0135590
775.093	0.0135767
775.171	0.0134644
775.249	0.0135089
775.328	0.0133943
775.406	0.0132677
775.484	0.0130844
775.562	0.0131074
775.640	0.0131137
775.718	0.0130051
775.796	0.0130129
775.874	0.0129003
775.953	0.0130496
776.031	0.0131192
776.109	0.0129328
776.187	0.0130109
776.265	0.0129866
776.343	0.0131136
776.421	0.0132574
776.499	0.0132059
776.578	0.0132328
776.656	0.0132449
776.734	0.0134071
776.812	0.0135111
776.890	0.0136574
776.968	0.0136545
777.046	0.0137756
777.124	0.0137598
777.203	0.0138136
777.281	0.0138332
777.359	0.0137889
777.437	0.0137836
777.515	0.0137520
777.593	0.0137882
777.671	0.0136367
777.749	0.0136202
777.828	0.0135892
777.906	0.0135307
777.984	0.0135182
778.062	0.0134399
778.140	0.0134106
778.218	0.0134669
778.296	0.0134636
778.374	0.0134874
778.453	0.0134218
778.531	0.0132879
778.609	0.0133356
778.687	0.0133268
778.765	0.0131824
778.843	0.0132399
778.921	0.0132648
778.999	0.0132381
779.078	0.0130175
779.156	0.0131680
779.234	0.0130981
779.312	0.0128787
779.390	0.0129610
779.468	0.0129525
779.546	0.0131111
779.624	0.0130609
779.703	0.0131628
779.781	0.0132935
779.859	0.0132346
779.937	0.0134494
780.015	0.0135202
780.093	0.0133939
780.171	0.0134735
780.249	0.0136080
780.328	0.0136679
780.406	0.0136122
780.484	0.0136105
780.562	0.0135529
780.640	0.0135708
780.718	0.0136205
780.796	0.0136524
780.874	0.0136491
780.953	0.0135017
781.031	0.0136363
781.109	0.0136418
781.187	0.0135390
781.265	0.0135704
781.343	0.0135249
781.421	0.0133848
781.499	0.0135379
781.578	0.0134918
781.656	0.0134243
781.734	0.0135930
781.812	0.0133241
781.890	0.0132481
781.968	0.0132599
782.046	0.0133698
782.124	0.0132723
782.203	0.0132469
782.281	0.0131565
782.359	0.0131631
782.437	0.0130678
782.515	0.0131183
782.593	0.0130791
782.671	0.0131350
782.749	0.0130699
782.828	0.0131949
782.906	0.0132298
782.984	0.0132713
783.062	0.0132248
783.140	0.0132034
783.218	0.0131926
783.296	0.0134335
783.374	0.0133810
783.453	0.0133234
783.531	0.0134858
783.609	0.0135101
783.687	0.0134764
783.765	0.0135043
783.843	0.0135452
783.921	0.0136079
783.999	0.0134481
784.078	0.0134464
784.156	0.0136060
784.234	0.0134409
784.312	0.0135259
784.390	0.0135741
784.468	0.0134644
784.546	0.0134883
784.624	0.0135403
784.703	0.0136868
784.781	0.0135431
784.859	0.0133687
784.937	0.0135049
785.015	0.0135707
785.093	0.0134350
785.171	0.0134125
785.249	0.0135086
785.328	0.0134643
785.406	0.0134751
785.484	0.0134675
785.562	0.0132551
785.640	0.0132705
785.718	0.0133074
785.796	0.0131641
785.874	0.0130292
785.953	0.0131459
786.031	0.0131457
786.109	0.0130502
786.187	0.0131938
786.265	0.0131873
786.343	0.0131281
786.421	0.0132633
786.499	0.0132492
786.578	0.0134704
786.656	0.0133936
786.734	0.0133521
786.812	0.0134819
786.890	0.0133978
786.968	0.0136166
787.046	0.0135493
787.124	0.0136872
787.203	0.0135699
787.281	0.0136375
787.359	0.0136359
787.437	0.0135248
787.515	0.0138609
787.593	0.0136364
787.671	0.0137642
787.749	0.0136259
787.828	0.0136304
787.906	0.0136465
787.984	0.0135246
788.062	0.0136477
788.140	0.0134549
788.218	0.0133765
788.296	0.0135696
788.374	0.0134900
788.453	0.0132779
788.531	0.0133070
788.609	0.0132803
788.687	0.0132973
788.765	0.0133970
788.843	0.0131513
788.921	0.0132280
788.999	0.0133064
789.078	0.0132138
789.156	0.0131164
789.234	0.0131470
789.312	0.0131332
789.390	0.0132433
789.468	0.0131100
789.546	0.0131812
789.624	0.0131129
789.703	0.0131188
789.781	0.0131344
789.859	0.0132627
789.937	0.0133570
790.015	0.0133011
790.093	0.0133796
790.171	0.0133412
790.249	0.0135075
790.328	0.0136193
790.406	0.0136127
790.484	0.0136787
790.562	0.0136521
790.640	0.0138218
790.718	0.0138403
790.796	0.0140405
790.874	0.0138849
790.953	0.0138049
791.031	0.0137501
791.109	0.0138112
791.187	0.0136665
791.265	0.0136596
791.343	0.0136012
791.421	0.0135690
791.499	0.0134759
791.578	0.0133924
791.656	0.0133543
791.734	0.0133286
791.812	0.0132465
791.890	0.0133014
791.968	0.0133031
792.046	0.0131546
792.124	0.0132140
792.203	0.0131949
792.281	0.0132231
792.359	0.0131510
792.437	0.0132708
792.515	0.0132846
792.593	0.0132954
792.671	0.0132541
792.749	0.0132977
792.828	0.0132439
792.906	0.0132288
792.984	0.0131727
793.062	0.0133682
793.140	0.0134185
793.218	0.0133594
793.296	0.0135313
793.374	0.0134097
793.453	0.0134529
793.531	0.0136229
793.609	0.0136257
793.687	0.0135956
793.765	0.0137263
793.843	0.0138286
793.921	0.0138418
793.999	0.0138000
794.078	0.0137812
794.156	0.0137360
794.234	0.0136993
794.312	0.0136702
794.390	0.0135740
794.468	0.0134567
794.546	0.0135718
794.624	0.0133370
794.703	0.0133583
794.781	0.0134914
794.859	0.0133485
794.937	0.0133443
795.015	0.0132089
795.093	0.0131165
795.171	0.0131529
795.249	0.0131469
795.328	0.0132442
795.406	0.0132339
795.484	0.0132185
795.562	0.0131821
795.640	0.0132549
795.718	0.0133080
795.796	0.0132465
795.874	0.0132484
795.953	0.0133324
796.031	0.0132719
796.109	0.0132757
796.187	0.0132440
796.265	0.0133541
796.343	0.0133293
796.421	0.0133698
796.499	0.0133092
796.578	0.0132642
796.656	0.0134823
796.734	0.0135155
796.812	0.0133537
796.890	0.0134581
796.968	0.0135325
797.046	0.0135993
797.124	0.0136422
797.203	0.0136644
797.281	0.0138112
797.359	0.0138775
797.437	0.0136884
797.515	0.0137112
797.593	0.0136413
797.671	0.0136576
797.749	0.0137309
797.828	0.0135458
797.906	0.0134238
797.984	0.0133586
798.062	0.0134234
798.140	0.0134705
798.218	0.0134402
798.296	0.0133517
798.374	0.0133688
798.453	0.0133515
798.531	0.0133221
798.609	0.0132278
798.687	0.0131767
798.765	0.0133101
798.843	0.0132881
798.921	0.0131448
798.999	0.0132425
799.078	0.0132019
799.156	0.0132702
799.234	0.0131821
799.312	0.0131509
799.390	0.0131753
799.468	0.0130468
799.546	0.0132372
799.624	0.0132883
799.703	0.0132328
799.781	0.0133321
799.859	0.0132074
799.937	0.0133587
800.015	0.0134073
800.093	0.0133730
800.171	0.0135275
800.249	0.0133558
800.328	0.0133553
800.406	0.0133756
800.484	0.0134416
800.562	0.0134469
800.640	0.0134171
800.718	0.0134536
800.796	0.0134985
800.874	0.0133554
800.953	0.0134518
801.031	0.0134872
801.109	0.0133770
801.187	0.0133044
801.265	0.0132888
801.343	0.0132397
801.421	0.0134334
801.499	0.0133071
801.578	0.0131422
801.656	0.0134243
801.734	0.0134333
801.812	0.0133692
801.890	0.0132686
801.968	0.0132621
802.046	0.0134284
802.124	0.0133678
802.203	0.0131664
802.281	0.0133454
802.359	0.0133717
802.437	0.0133128
802.515	0.0131844
802.593	0.0132262
802.671	0.0131367
802.749	0.0132351
802.828	0.0132309
802.906	0.0132021
802.984	0.0132825
803.062	0.0133147
803.140	0.0133215
803.218	0.0133307
803.296	0.0134916
803.374	0.0135471
803.453	0.0134536
803.531	0.0135300
803.609	0.0135344
803.687	0.0135763
803.765	0.0135950
803.843	0.0134975
803.921	0.0135349
803.999	0.0134515
804.078	0.0134320
804.156	0.0133998
804.234	0.0134798
804.312	0.0134778
804.390	0.0133427
804.468	0.0133347
804.546	0.0132713
804.624	0.0134664
804.703	0.0135019
804.781	0.0132760
804.859	0.0133958
804.937	0.0134463
805.015	0.0133721
805.093	0.0133654
805.171	0.0134035
805.249	0.0135754
805.328	0.0135667
805.406	0.0133549
805.484	0.0133589
805.562	0.0134759
805.640	0.0135726
805.718	0.0135171
805.796	0.0134236
805.874	0.0134624
805.953	0.0135172
806.031	0.0134261
806.109	0.0134576
806.187	0.0133768
806.265	0.0133705
806.343	0.0133279
806.421	0.0133603
806.499	0.0134383
806.578	0.0134749
806.656	0.0133637
806.734	0.0134069
806.812	0.0133273
806.890	0.0133514
806.968	0.0133659
807.046	0.0133904
807.124	0.0134704
807.203	0.0134945
807.281	0.0132724
807.359	0.0133538
807.437	0.0133396
807.515	0.0133659
807.593	0.0134430
807.671	0.0135229
807.749	0.0135291
807.828	0.0135442
807.906	0.0135396
807.984	0.0134747
808.062	0.0134203
808.140	0.0135277
808.218	0.0136629
808.296	0.0135316
808.374	0.0135044
808.453	0.0135201
808.531	0.0133926
808.609	0.0134688
808.687	0.0135682
808.765	0.0135220
808.843	0.0133356
808.921	0.0134138
808.999	0.0136118
809.078	0.0135804
809.156	0.0134831
809.234	0.0134495
809.312	0.0136163
809.390	0.0134825
809.468	0.0135282
809.546	0.0134048
809.624	0.0134962
809.703	0.0135434
809.781	0.0135409
809.859	0.0134227
809.937	0.0135744
810.015	0.0135276
810.093	0.0133764
810.171	0.0134212
810.249	0.0133012
810.328	0.0134215
810.406	0.0133208
810.484	0.0133060
810.562	0.0132829
810.640	0.0133926
810.718	0.0133510
810.796	0.0132724
810.874	0.0133971
810.953	0.0133569
811.031	0.0134756
811.109	0.0132815
811.187	0.0134766
811.265	0.0135785
811.343	0.0134212
811.421	0.0133781
811.499	0.0134855
811.578	0.0134946
811.656	0.0134557
811.734	0.0134065
811.812	0.0134544
811.890	0.0135616
811.968	0.0135443
812.046	0.0134535
812.124	0.0134886
812.203	0.0136235
812.281	0.0135641
812.359	0.0135495
812.437	0.0135535
812.515	0.0136153
812.593	0.0135783
812.671	0.0135863
812.749	0.0135268
812.828	0.0135741
812.906	0.0136152
812.984	0.0136664
813.062	0.0135218
813.140	0.0135188
813.218	0.0134573
813.296	0.0136092
813.374	0.0134032
813.453	0.0135351
813.531	0.0135089
813.609	0.0133978
813.687	0.0134814
813.765	0.0135889
813.843	0.0136281
813.921	0.0135034
813.999	0.0133868
814.078	0.0135419
814.156	0.0134287
814.234	0.0135456
814.312	0.0134789
814.390	0.0134867
814.468	0.0134062
814.546	0.0134281
814.624	0.0133442
814.703	0.0133830
814.781	0.0134866
814.859	0.0134811
814.937	0.0133981
815.015	0.0135168
815.093	0.0134052
815.171	0.0133852
815.249	0.0134867
815.328	0.0132619
815.406	0.0133028
815.484	0.0133614
815.562	0.0133569
815.640	0.0133408
815.718	0.0133823
815.796	0.0132307
815.874	0.0133218
815.953	0.0134418
816.031	0.0135278
816.109	0.0133156
816.187	0.0135311
816.265	0.0134615
816.343	0.0134603
816.421	0.0134656
816.499	0.0133710
816.578	0.0135465
816.656	0.0134076
816.734	0.0135742
816.812	0.0135546
816.890	0.0134719
816.968	0.0135137
817.046	0.0133475
817.124	0.0134891
817.203	0.0135306
817.281	0.0134899
817.359	0.0134014
817.437	0.0136084
817.515	0.0136391
817.593	0.0133640
817.671	0.0134046
817.749	0.0134484
817.828	0.0135881
817.906	0.0135354
817.984	0.0135452
818.062	0.0134253
818.140	0.0134686
818.218	0.0133317
818.296	0.0136001
818.374	0.0135217
818.453	0.0134612
818.531	0.0135241
818.609	0.0135870
818.687	0.0134698
818.765	0.0133973
818.843	0.0133222
818.921	0.0133527
818.999	0.0133705
819.078	0.0134035
819.156	0.0133410
819.234	0.0133836
819.312	0.0134576
819.390	0.0134700
819.468	0.0133884
819.546	0.0133212
819.624	0.0133813
819.703	0.0134447
819.781	0.0134788
819.859	0.0135899
819.937	0.0134322
820.015	0.0135669
820.093	0.0134392
820.171	0.0136211
820.249	0.0135342
820.328	0.0136684
820.406	0.0135741
820.484	0.0137089
820.562	0.0135799
820.640	0.0136166
820.718	0.0136872
820.796	0.0135474
820.874	0.0135307
820.953	0.0135741
821.031	0.0134899
821.109	0.0134190
821.187	0.0136227
821.265	0.0135477
821.343	0.0135286
821.421	0.0134711
821.499	0.0134491
821.578	0.0134837
821.656	0.0135265
821.734	0.0135212
821.812	0.0135171
821.890	0.0134103
821.968	0.0134268
822.046	0.0134056
822.124	0.0133793
822.203	0.0135193
822.281	0.0133983
822.359	0.0132860
822.437	0.0134143
822.515	0.0132986
822.593	0.0132851
822.671	0.0133997
822.749	0.0133104
822.828	0.0134694
822.906	0.0133757
822.984	0.0133656
823.062	0.0133702
823.140	0.0133919
823.218	0.0134771
823.296	0.0133800
823.374	0.0136072
823.453	0.0135486
823.531	0.0135800
823.609	0.0135771
823.687	0.0135215
823.765	0.0133573
823.843	0.0135941
823.921	0.0134779
823.999	0.0137054
824.078	0.0137257
824.156	0.0136208
824.234	0.0135485
824.312	0.0135726
824.390	0.0135103
824.468	0.0137279
824.546	0.0135287
824.624	0.0134109
824.703	0.0135844
824.781	0.0135538
824.859	0.0135126
824.937	0.0134960
825.015	0.0134314
825.093	0.0133502
825.171	0.0135292
825.249	0.0132786
825.328	0.0133215
825.406	0.0134013
825.484	0.0133666
825.562	0.0133484
825.640	0.0133186
825.718	0.0133891
825.796	0.0133350
825.874	0.0132932
825.953	0.0134385
826.031	0.0133420
826.109	0.0133711
826.187	0.0132918
826.265	0.0134196
826.343	0.0134916
826.421	0.0134146
826.499	0.0134958
826.578	0.0132857
826.656	0.0134182
826.734	0.0135006
826.812	0.0132948
826.890	0.0134857
826.968	0.0134453
827.046	0.0134995
827.124	0.0135187
827.203	0.0134343
827.281	0.0136243
827.359	0.0134961
827.437	0.0134774
827.515	0.0136179
827.593	0.0136172
827.671	0.0136454
827.749	0.0135384
827.828	0.0135107
827.906	0.0134780
827.984	0.0134724
828.062	0.0135375
828.140	0.0134623
828.218	0.0133974
828.296	0.0134505
828.374	0.0135193
828.453	0.0133658
828.531	0.0134383
828.609	0.0134222
828.687	0.0135827
828.765	0.0136082
828.843	0.0135220
828.921	0.0134286
828.999	0.0135424
829.078	0.0135326
829.156	0.0134426
829.234	0.0133749
829.312	0.0133398
829.390	0.0135191
829.468	0.0133808
829.546	0.0135069
829.624	0.0134721
829.703	0.0134431
829.781	0.0135581
829.859	0.0135012
829.937	0.0134463
830.015	0.0134167
830.093	0.0135658
830.171	0.0134312
830.249	0.0134568
830.328	0.0136404
830.406	0.0134217
830.484	0.0134682
830.562	0.0134813
830.640	0.0134530
830.718	0.0135322
830.796	0.0134248
830.874	0.0135190
830.953	0.0135493
831.031	0.0135349
831.109	0.0135414
831.187	0.0134296
831.265	0.0134170
831.343	0.0133094
831.421	0.0133359
831.499	0.0133371
831.578	0.0132616
831.656	0.0134187
831.734	0.0133417
831.812	0.0133649
831.890	0.0135537
831.968	0.0134773
832.046	0.0134761
832.124	0.0133960
832.203	0.0134386
832.281	0.0133961
832.359	0.0135106
832.437	0.0135768
832.515	0.0134121
832.593	0.0135815
832.671	0.0135411
832.749	0.0135330
832.828	0.0135324
832.906	0.0136003
832.984	0.0135748
833.062	0.0135861
833.140	0.0136907
833.218	0.0135421
833.296	0.0136938
833.374	0.0135472
833.453	0.0134557
833.531	0.0136582
833.609	0.0136317
833.687	0.0135207
833.765	0.0135182
833.843	0.0135873
833.921	0.0135065
833.999	0.0135045
834.078	0.0134624
834.156	0.0132973
834.234	0.0134756
834.312	0.0135240
834.390	0.0134988
834.468	0.0135467
834.546	0.0133212
834.624	0.0132552
834.703	0.0132084
834.781	0.0133714
834.859	0.0133724
834.937	0.0132681
835.015	0.0133838
835.093	0.0133856
835.171	0.0133249
835.249	0.0132417
835.328	0.0134662
835.406	0.0134232
835.484	0.0133650
835.562	0.0134748
835.640	0.0134401
835.718	0.0135291
835.796	0.0135604
835.874	0.0136392
835.953	0.0134691
836.031	0.0134616
836.109	0.0136746
836.187	0.0136581
836.265	0.0136077
836.343	0.0135662
836.421	0.0135322
836.499	0.0135167
836.578	0.0135102
836.656	0.0134798
836.734	0.0135818
836.812	0.0134962
836.890	0.0136449
836.968	0.0134061
837.046	0.0133775
837.124	0.0135098
837.203	0.0134235
837.281	0.0134030
837.359	0.0133782
837.437	0.0134119
837.515	0.0132688
837.593	0.0133322
837.671	0.0133878
837.749	0.0131876
837.828	0.0132179
837.906	0.0132866
837.984	0.0133144
838.062	0.0133440
838.140	0.0134859
838.218	0.0134241
838.296	0.0133043
838.374	0.0134172
838.453	0.0136432
838.531	0.0134690
838.609	0.0134674
838.687	0.0134020
838.765	0.0134425
838.843	0.0134622
838.921	0.0133933
838.999	0.0134293
839.078	0.0134578
839.156	0.0132990
839.234	0.0135708
839.312	0.0134701
839.390	0.0134167
839.468	0.0135551
839.546	0.0134467
839.624	0.0133706
839.703	0.0135185
839.781	0.0133860
839.859	0.0134319
839.937	0.0133652
840.015	0.0134946
840.093	0.0133237
840.171	0.0133599
840.249	0.0133312
840.328	0.0134801
840.406	0.0134277
840.484	0.0133018
840.562	0.0132192
840.640	0.0132770
840.718	0.0133177
840.796	0.0133007
840.874	0.0133617
840.953	0.0133546
841.031	0.0134058
841.109	0.0134776
841.187	0.0134334
841.265	0.0133886
841.343	0.0133509
841.421	0.0132503
841.499	0.0133904
841.578	0.0134325
841.656	0.0134914
841.734	0.0135878
841.812	0.0134981
841.890	0.0135091
841.968	0.0134538
842.046	0.0135481
842.124	0.0135009
842.203	0.0133902
842.281	0.0134071
842.359	0.0133093
842.437	0.0134142
842.515	0.0133588
842.593	0.0134416
842.671	0.0133538
842.749	0.0133851
842.828	0.0135233
842.906	0.0135028
842.984	0.0133939
843.062	0.0134086
843.140	0.0134800
843.218	0.0134398
843.296	0.0134609
843.374	0.0134590
843.453	0.0135766
843.531	0.0134232
843.609	0.0134146
843.687	0.0135432
843.765	0.0136171
843.843	0.0135234
843.921	0.0133551
843.999	0.0134288
844.078	0.0134605
844.156	0.0135619
844.234	0.0133347
844.312	0.0134895
844.390	0.0134859
844.468	0.0133804
844.546	0.0134918
844.624	0.0136638
844.703	0.0135111
844.781	0.0134107
844.859	0.0135203
844.937	0.0134232
845.015	0.0133614
845.093	0.0135795
845.171	0.0135269
845.249	0.0134074
845.328	0.0133522
845.406	0.0133199
845.484	0.0134026
845.562	0.0133622
845.640	0.0133827
845.718	0.0133687
845.796	0.0133017
845.874	0.0132490
845.953	0.0134396
846.031	0.0133773
846.109	0.0132557
846.187	0.0134207
846.265	0.0132545
846.343	0.0134522
846.421	0.0134853
846.499	0.0134431
846.578	0.0133752
846.656	0.0134817
846.734	0.0136132
846.812	0.0134953
846.890	0.0134423
846.968	0.0135091
847.046	0.0133809
847.124	0.0134689
847.203	0.0135724
847.281	0.0133719
847.359	0.0135931
847.437	0.0135032
847.515	0.0133778
847.593	0.0136939
847.671	0.0135723
847.749	0.0134624
847.828	0.0134132
847.906	0.0134836
847.984	0.0133352
848.062	0.0133099
848.140	0.0134736
848.218	0.0133661
848.296	0.0133316
848.374	0.0133352
848.453	0.0134060
848.531	0.0133763
848.609	0.0134165
848.687	0.0133430
848.765	0.0132014
848.843	0.0133336
848.921	0.0133536
848.999	0.0132478
849.078	0.0132298
849.156	0.0133660
849.234	0.0133615
849.312	0.0133129
849.390	0.0134834
849.468	0.0133701
849.546	0.0135152
849.624	0.0134291
849.703	0.0133729
849.781	0.0134426
849.859	0.0135208
849.937	0.0134900
850.015	0.0134992
850.093	0.0134884
850.171	0.0134618
850.249	0.0134911
850.328	0.0133588
850.406	0.0133881
850.484	0.0134323
850.562	0.0133871
850.640	0.0134409
850.718	0.0134339
850.796	0.0134286
850.874	0.0133064
850.953	0.0134076
851.031	0.0132730
851.109	0.0134128
851.187	0.0133994
851.265	0.0133962
851.343	0.0134406
851.421	0.0133178
851.499	0.0132800
851.578	0.0133448
851.656	0.0131822
851.734	0.0133574
851.812	0.0134238
851.890	0.0132481
851.968	0.0132618
852.046	0.0134435
852.124	0.0133479
852.203	0.0132757
852.281	0.0131833
852.359	0.0133290
852.437	0.0133642
852.515	0.0134009
852.593	0.0132946
852.671	0.0131940
852.749	0.0134309
852.828	0.0134512
852.906	0.0134406
852.984	0.0134061
853.062	0.0134742
853.140	0.0134999
853.218	0.0133309
853.296	0.0134901
853.374	0.0133781
853.453	0.0133941
853.531	0.0135336
853.609	0.0134262
853.687	0.0134499
853.765	0.0135210
853.843	0.0134286
853.921	0.0133734
853.999	0.0134489
854.078	0.0134238
854.156	0.0133957
854.234	0.0133164
854.312	0.0133215
854.390	0.0134306
854.468	0.0134155
854.546	0.0133651
854.624	0.0134486
854.703	0.0132330
854.781	0.0133902
854.859	0.0132432
854.937	0.0133127
855.015	0.0132823
855.093	0.0133429
855.171	0.0133987
855.249	0.0133701
855.328	0.0132591
855.406	0.0132484
855.484	0.0132460
855.562	0.0133934
855.640	0.0131625
855.718	0.0133721
855.796	0.0134245
855.874	0.0134243
855.953	0.0135915
856.031	0.0132944
856.109	0.0134026
856.187	0.0133955
856.265	0.0135056
856.343	0.0134521
856.421	0.0135026
856.499	0.0135281
856.578	0.0133900
856.656	0.0134625
856.734	0.0135384
856.812	0.0135444
856.890	0.0133526
856.968	0.0134531
857.046	0.0133720
857.124	0.0133807
857.203	0.0133957
857.281	0.0133017
857.359	0.0134251
857.437	0.0133526
857.515	0.0132739
857.593	0.0132667
857.671	0.0133341
857.749	0.0133949
857.828	0.0134173
857.906	0.0133717
857.984	0.0134650
858.062	0.0133551
858.140	0.0133491
858.218	0.0134060
858.296	0.0134229
858.374	0.0133828
858.453	0.0133926
858.531	0.0134380
858.609	0.0133167
858.687	0.0133338
858.765	0.0133179
858.843	0.0133244
858.921	0.0133582
858.999	0.0134405
859.078	0.0133766
859.156	0.0134573
859.234	0.0134978
859.312	0.0135494
859.390	0.0136345
859.468	0.0135485
859.546	0.0135694
859.624	0.0136253
859.703	0.0136873
859.781	0.0137627
859.859	0.0134858
859.937	0.0135668
860.015	0.0134420
860.093	0.0135130
860.171	0.0135648
860.249	0.0135960
860.328	0.0133477
860.406	0.0134079
860.484	0.0135075
860.562	0.0135354
860.640	0.0134620
860.718	0.0132446
860.796	0.0133147
860.874	0.0133838
860.953	0.0133658
861.031	0.0133025
861.109	0.0131775
861.187	0.0132429
861.265	0.0132618
861.343	0.0132185
861.421	0.0133254
861.499	0.0134048
861.578	0.0134077
861.656	0.0132623
861.734	0.0132965
861.812	0.0133648
861.890	0.0134104
861.968	0.0134267
862.046	0.0134165
862.124	0.0133248
862.203	0.0134644
862.281	0.0133976
862.359	0.0133395
862.437	0.0133348
862.515	0.0134153
862.593	0.0134962
862.671	0.0133546
862.749	0.0135515
862.828	0.0133681
862.906	0.0134550
862.984	0.0135074
863.062	0.0134878
863.140	0.0133875
863.218	0.0134657
863.296	0.0134900
863.374	0.0133964
863.453	0.0133937
863.531	0.0135133
863.609	0.0135223
863.687	0.0135116
863.765	0.0133114
863.843	0.0134441
863.921	0.0133900
863.999	0.0133772
864.078	0.0134364
864.156	0.0133810
864.234	0.0134519
864.312	0.0132906
864.390	0.0134811
864.468	0.0133363
864.546	0.0132635
864.624	0.0132508
864.703	0.0133221
864.781	0.0131946
864.859	0.0132144
864.937	0.0134029
865.015	0.0134108
865.093	0.0133334
865.171	0.0133931
865.249	0.0134303
865.328	0.0134687
865.406	0.0134539
865.484	0.0134366
865.562	0.0134666
865.640	0.0134113
865.718	0.0135302
865.796	0.0135575
865.874	0.0134255
865.953	0.0134324
866.031	0.0135489
866.109	0.0135653
866.187	0.0134520
866.265	0.0134840
866.343	0.0135260
866.421	0.0134258
866.499	0.0135101
866.578	0.0135378
866.656	0.0132664
866.734	0.0135011
866.812	0.0133613
866.890	0.0134577
866.968	0.0134416
867.046	0.0134436
867.124	0.0135036
867.203	0.0134007
867.281	0.0134321
867.359	0.0135205
867.437	0.0134662
867.515	0.0133973
867.593	0.0133369
867.671	0.0133601
867.749	0.0133772
867.828	0.0134349
867.906	0.0132058
867.984	0.0133729
868.062	0.0132169
868.140	0.0133208
868.218	0.0132774
868.296	0.0134029
868.374	0.0134190
868.453	0.0133614
868.531	0.0133714
868.609	0.0133415
868.687	0.0134940
868.765	0.0134166
868.843	0.0134783
868.921	0.0133506
868.999	0.0134161
869.078	0.0135220
869.156	0.0133561
869.234	0.0133992
869.312	0.0134862
869.390	0.0134325
869.468	0.0134155
869.546	0.0134364
869.624	0.0134586
869.703	0.0136012
869.781	0.0132854
869.859	0.0133195
869.937	0.0133828
870.015	0.0133904
870.093	0.0134902
870.171	0.0134023
870.249	0.0132713
870.328	0.0133799
870.406	0.0135801
870.484	0.0133282
870.562	0.0134359
870.640	0.0133138
870.718	0.0133230
870.796	0.0134548
870.874	0.0133837
870.953	0.0134420
871.031	0.0133690
871.109	0.0133570
871.187	0.0134402
871.265	0.0134204
871.343	0.0133917
871.421	0.0134965
871.499	0.0133579
871.578	0.0134578
871.656	0.0133418
871.734	0.0133937
871.812	0.0134402
871.890	0.0134772
871.968	0.0135548
872.046	0.0134393
872.124	0.0135237
872.203	0.0133971
872.281	0.0132528
872.359	0.0134056
872.437	0.0133350
872.515	0.0132998
872.593	0.0133834
872.671	0.0131131
872.749	0.0133250
872.828	0.0132835
872.906	0.0133286
872.984	0.0133638
873.062	0.0133018
873.140	0.0132888
873.218	0.0134480
873.296	0.0133752
873.374	0.0133295
873.453	0.0132745
873.531	0.0133485
873.609	0.0133503
873.687	0.0133430
873.765	0.0134136
873.843	0.0133128
873.921	0.0134785
873.999	0.0133743
874.078	0.0134212
874.156	0.0133938
874.234	0.0134166
874.312	0.0134131
874.390	0.0134272
874.468	0.0133545
874.546	0.0134224
874.624	0.0134389
874.703	0.0134195
874.781	0.0134074
874.859	0.0134938
874.937	0.0133152
875.015	0.0134452
875.093	0.0133317
875.171	0.0133055
875.249	0.0133912
875.328	0.0133582
875.406	0.0134123
875.484	0.0132948
875.562	0.0133831
875.640	0.0133182
875.718	0.0133633
875.796	0.0132561
875.874	0.0132289
875.953	0.0133010
876.031	0.0132799
876.109	0.0132079
876.187	0.0133315
876.265	0.0132861
876.343	0.0133331
876.421	0.0133320
876.499	0.0133424
876.578	0.0133321
876.656	0.0133932
876.734	0.0132973
876.812	0.0133831
876.890	0.0134866
876.968	0.0133755
877.046	0.0133459
877.124	0.0131775
877.203	0.0132803
877.281	0.0133099
877.359	0.0134695
877.437	0.0132970
877.515	0.0132700
877.593	0.0132687
877.671	0.0133090
877.749	0.0132556
877.828	0.0133121
877.906	0.0134042
877.984	0.0132764
878.062	0.0134630
878.140	0.0135318
878.218	0.0133376
878.296	0.0132925
878.374	0.0136309
878.453	0.0136230
878.531	0.0134528
878.609	0.0134453
878.687	0.0134943
878.765	0.0134528
878.843	0.0134097
878.921	0.0133323
878.999	0.0132559
879.078	0.0133481
879.156	0.0132856
879.234	0.0133598
879.312	0.0133618
879.390	0.0132935
879.468	0.0134569
879.546	0.0134349
879.624	0.0134362
879.703	0.0135032
879.781	0.0134504
879.859	0.0133092
879.937	0.0134042
880.015	0.0134700
880.093	0.0134778
880.171	0.0134681
880.249	0.0132994
880.328	0.0135010
880.406	0.0134288
880.484	0.0132948
880.562	0.0131753
880.640	0.0131959
880.718	0.0131647
880.796	0.0132511
880.874	0.0132358
880.953	0.0132512
881.031	0.0131973
881.109	0.0132405
881.187	0.0132561
881.265	0.0132944
881.343	0.0133078
881.421	0.0134053
881.499	0.0133920
881.578	0.0133768
881.656	0.0136520
881.734	0.0135963
881.812	0.0135740
881.890	0.0137218
881.968	0.0137840
882.046	0.0137602
882.124	0.0137907
882.203	0.0136896
882.281	0.0136474
882.359	0.0136469
882.437	0.0137518
882.515	0.0136929
882.593	0.0135983
882.671	0.0136600
882.749	0.0136004
882.828	0.0135293
882.906	0.0136205
882.984	0.0132711
883.062	0.0133118
883.140	0.0132682
883.218	0.0133146
883.296	0.0132569
883.374	0.0131821
883.453	0.0132124
883.531	0.0132374
883.609	0.0131599
883.687	0.0132748
883.765	0.0131613
883.843	0.0132658
883.921	0.0133245
883.999	0.0131760
884.078	0.0133842
884.156	0.0133968
884.234	0.0133855
884.312	0.0134959
884.390	0.0134691
884.468	0.0134039
884.546	0.0133931
884.624	0.0135194
884.703	0.0135474
884.781	0.0134495
884.859	0.0136304
884.937	0.0136573
885.015	0.0135909
885.093	0.0135429
885.171	0.0137669
885.249	0.0136448
885.328	0.0137422
885.406	0.0134646
885.484	0.0135432
885.562	0.0135891
885.640	0.0135188
885.718	0.0134665
885.796	0.0134217
885.874	0.0135720
885.953	0.0134792
886.031	0.0134153
886.109	0.0133510
886.187	0.0133572
886.265	0.0133177
886.343	0.0133121
886.421	0.0132167
886.499	0.0132500
886.578	0.0132764
886.656	0.0132746
886.734	0.0131483
886.812	0.0131584
886.890	0.0131815
886.968	0.0132915
887.046	0.0133344
887.124	0.0133179
887.203	0.0132905
887.281	0.0132124
887.359	0.0133044
887.437	0.0132227
887.515	0.0133830
887.593	0.0133576
887.671	0.0133086
887.749	0.0134274
887.828	0.0133260
887.906	0.0134645
887.984	0.0135061
888.062	0.0136503
888.140	0.0135593
888.218	0.0135500
888.296	0.0136965
888.374	0.0136397
888.453	0.0135832
888.531	0.0134792
888.609	0.0135619
888.687	0.0136050
888.765	0.0137067
888.843	0.0136026
888.921	0.0135386
888.999	0.0134838
889.078	0.0136176
889.156	0.0135456
889.234	0.0134306
889.312	0.0133817
889.390	0.0134964
889.468	0.0133562
889.546	0.0133112
889.624	0.0133036
889.703	0.0133044
889.781	0.0133043
889.859	0.0133386
889.937	0.0132068
890.015	0.0132100
890.093	0.0131460
890.171	0.0132061
890.249	0.0132662
890.328	0.0133139
890.406	0.0130833
890.484	0.0131921
890.562	0.0131376
890.640	0.0133630
890.718	0.0134473
890.796	0.0133212
890.874	0.0133790
890.953	0.0135151
891.031	0.0134212
891.109	0.0133950
891.187	0.0133440
891.265	0.0134642
891.343	0.0134130
891.421	0.0134319
891.499	0.0135239
891.578	0.0133447
891.656	0.0135567
891.734	0.0136460
891.812	0.0134342
891.890	0.0134672
891.968	0.0136426
892.046	0.0136096
892.124	0.0135963
892.203	0.0134977
892.281	0.0135812
892.359	0.0134686
892.437	0.0135444
892.515	0.0135797
892.593	0.0135826
892.671	0.0134843
892.749	0.0135349
892.828	0.0135412
892.906	0.0134368
892.984	0.0136050
893.062	0.0134000
893.140	0.0134010
893.218	0.0134372
893.296	0.0134991
893.374	0.0133293
893.453	0.0133301
893.531	0.0132644
893.609	0.0133913
893.687	0.0134132
893.765	0.0132763
893.843	0.0133379
893.921	0.0133485
893.999	0.0132379
894.078	0.0133199
894.156	0.0133649
894.234	0.0133341
894.312	0.0133945
894.390	0.0134578
894.468	0.0134632
894.546	0.0133343
894.624	0.0135400
894.703	0.0133388
894.781	0.0134486
894.859	0.0134049
894.937	0.0133969
895.015	0.0134522
895.093	0.0135992
895.171	0.0133304
895.249	0.0134053
895.328	0.0135232
895.406	0.0136182
895.484	0.0135156
895.562	0.0134132
895.640	0.0134370
895.718	0.0135977
895.796	0.0135028
895.874	0.0134659
895.953	0.0133432
896.031	0.0135370
896.109	0.0134328
896.187	0.0134782
896.265	0.0134001
896.343	0.0134350
896.421	0.0134136
896.499	0.0133679
896.578	0.0133314
896.656	0.0132516
896.734	0.0133840
896.812	0.0134218
896.890	0.0133202
896.968	0.0134824
897.046	0.0134712
897.124	0.0133873
897.203	0.0133373
897.281	0.0133743
897.359	0.0135478
897.437	0.0133956
897.515	0.0135371
897.593	0.0134310
897.671	0.0135374
897.749	0.0135867
897.828	0.0135897
897.906	0.0134173
897.984	0.0134162
898.062	0.0133871
898.140	0.0133547
898.218	0.0133952
898.296	0.0134956
898.374	0.0134084
898.453	0.0133383
898.531	0.0134209
898.609	0.0134193
898.687	0.0132742
898.765	0.0132784
898.843	0.0133427
898.921	0.0134302
898.999	0.0134010
899.078	0.0133517
899.156	0.0134429
899.234	0.0133685
899.312	0.0136114
899.390	0.0132626
899.468	0.0135215
899.546	0.0133751
899.624	0.0135841
899.703	0.0135028
899.781	0.0135854
899.859	0.0136032
899.937	0.0137210
900.015	0.0136334
900.093	0.0135651
900.171	0.0136072
900.249	0.0136029
900.328	0.0136575
900.406	0.0135586
900.484	0.0134206
900.562	0.0135865
900.640	0.0134219
900.718	0.0134859
900.796	0.0135995
900.874	0.0134389
900.953	0.0134343
901.031	0.0134531
901.109	0.0134484
901.187	0.0134706
901.265	0.0134508
901.343	0.0134283
901.421	0.0133182
901.499	0.0132343
901.578	0.0135078
901.656	0.0134998
901.734	0.0133996
901.812	0.0135023
901.890	0.0132693
901.968	0.0131483
902.046	0.0132963
902.124	0.0132780
902.203	0.0133278
902.281	0.0132265
902.359	0.0132398
902.437	0.0131786
902.515	0.0132789
902.593	0.0134111
902.671	0.0133029
902.749	0.0133746
902.828	0.0133526
902.906	0.0134852
902.984	0.0134575
903.062	0.0136472
903.140	0.0135738
903.218	0.0135197
903.296	0.0136392
903.374	0.0135390
903.453	0.0135867
903.531	0.0135914
903.609	0.0136348
903.687	0.0137006
903.765	0.0135545
903.843	0.0136118
903.921	0.0136085
903.999	0.0135144
904.078	0.0134716
904.156	0.0134372
904.234	0.0135260
904.312	0.0135220
904.390	0.0136796
904.468	0.0134335
904.546	0.0133752
904.624	0.0134082
904.703	0.0133711
904.781	0.0135505
904.859	0.0133292
904.937	0.0134245
905.015	0.0135834
905.093	0.0134455
905.171	0.0133824
905.249	0.0134543
905.328	0.0132582
905.406	0.0133352
905.484	0.0134302
905.562	0.0135706
905.640	0.0134637
905.718	0.0134373
905.796	0.0133653
905.874	0.0134396
905.953	0.0134240
906.031	0.0133927
906.109	0.0134655
906.187	0.0134743
906.265	0.0132387
906.343	0.0135331
906.421	0.0133761
906.499	0.0135204
906.578	0.0134813
906.656	0.0134750
906.734	0.0134488
906.812	0.0134521
906.890	0.0134449
906.968	0.0136347
907.046	0.0136555
907.124	0.0136179
907.203	0.0134914
907.281	0.0134661
907.359	0.0135033
907.437	0.0135587
907.515	0.0135233
907.593	0.0134645
907.671	0.0135131
907.749	0.0134544
907.828	0.0134481
907.906	0.0134106
907.984	0.0134467
908.062	0.0133761
908.140	0.0134061
908.218	0.0135259
908.296	0.0134752
908.374	0.0134432
908.453	0.0134317
908.531	0.0133608
908.609	0.0133916
908.687	0.0133995
908.765	0.0134354
908.843	0.0135324
908.921	0.0133088
908.999	0.0132180
909.078	0.0133656
909.156	0.0133642
909.234	0.0133956
909.312	0.0132220
909.390	0.0133303
909.468	0.0131512
909.546	0.0132400
909.624	0.0132541
909.703	0.0133547
909.781	0.0134328
909.859	0.0133773
909.937	0.0134476
910.015	0.0133755
910.093	0.0132934
910.171	0.0134499
910.249	0.0136488
910.328	0.0136048
910.406	0.0134382
910.484	0.0135461
910.562	0.0134323
910.640	0.0134904
910.718	0.0135587
910.796	0.0134263
910.874	0.0136303
910.953	0.0135051
911.031	0.0135116
911.109	0.0134464
911.187	0.0134674
911.265	0.0133996
911.343	0.0132484
911.421	0.0135165
911.499	0.0133489
911.578	0.0133687
911.656	0.0132967
911.734	0.0133538
911.812	0.0132265
911.890	0.0133320
911.968	0.0133937
912.046	0.0133190
912.124	0.0132048
912.203	0.0134288
912.281	0.0133824
912.359	0.0133894
912.437	0.0133980
912.515	0.0134616
912.593	0.0133238
912.671	0.0132956
912.749	0.0134877
912.828	0.0134790
912.906	0.0135999
912.984	0.0134164
913.062	0.0134034
913.140	0.0133880
913.218	0.0134987
913.296	0.0135291
913.374	0.0136211
913.453	0.0134885
913.531	0.0136615
913.609	0.0134755
913.687	0.0135522
913.765	0.0135828
913.843	0.0135672
913.921	0.0133907
913.999	0.0135365
914.078	0.0134238
914.156	0.0133752
914.234	0.0135855
914.312	0.0136031
914.390	0.0134405
914.468	0.0135833
914.546	0.0134975
914.624	0.0135325
914.703	0.0136018
914.781	0.0133673
914.859	0.0134570
914.937	0.0135229
915.015	0.0135899
915.093	0.0134295
915.171	0.0135287
915.249	0.0133456
915.328	0.0133556
915.406	0.0134293
915.484	0.0133708
915.562	0.0134338
915.640	0.0134723
915.718	0.0134099
915.796	0.0133698
915.874	0.0133858
915.953	0.0134887
916.031	0.0135112
916.109	0.0134513
916.187	0.0134676
916.265	0.0133691
916.343	0.0135596
916.421	0.0136418
916.499	0.0134663
916.578	0.0135192
916.656	0.0134981
916.734	0.0133817
916.812	0.0134566
916.890	0.0134741
916.968	0.0135745
917.046	0.0134956
917.124	0.0135822
917.203	0.0134007
917.281	0.0136209
917.359	0.0134504
917.437	0.0135600
917.515	0.0134424
917.593	0.0134992
917.671	0.0135693
917.749	0.0134609
917.828	0.0134770
917.906	0.0134600
917.984	0.0135518
918.062	0.0135668
918.140	0.0134236
918.218	0.0134724
918.296	0.0135271
918.374	0.0134228
918.453	0.0135138
918.531	0.0134599
918.609	0.0134973
918.687	0.0134912
918.765	0.0133994
918.843	0.0131776
918.921	0.0133607
918.999	0.0135459
919.078	0.0134779
919.156	0.0133939
919.234	0.0133221
919.312	0.0133705
919.390	0.0134966
919.468	0.0135916
919.546	0.0134745
919.624	0.0134385
919.703	0.0133928
919.781	0.0135710
919.859	0.0134999
919.937	0.0133740
