05/06/2022	18:48:04	Ver.	4.1	UNKNOWN
Optical Delay	600.015094	Delta X		0.078125	Sweeps	1	Scan Rate	0/0
Coordinates	Axis 1	NaN	Axis 2	NaN	Axis 3	NaN	Axis 4	NaN	Axis 5	NaN	Axis 6	0.000000
TX Power	0.000000	RX Power	0.000000

600.015	0.0139025
600.093	0.0139188
600.171	0.0139147
600.249	0.0139915
600.328	0.0138528
600.406	0.0138968
600.484	0.0139575
600.562	0.0139007
600.640	0.0138951
600.718	0.0139195
600.796	0.0139061
600.874	0.0139191
600.953	0.0138548
601.031	0.0139323
601.109	0.0139452
601.187	0.0137640
601.265	0.0138306
601.343	0.0140073
601.421	0.0139742
601.499	0.0137218
601.578	0.0138335
601.656	0.0140426
601.734	0.0139224
601.812	0.0138438
601.890	0.0137930
601.968	0.0138554
602.046	0.0138712
602.124	0.0139887
602.203	0.0138859
602.281	0.0138411
602.359	0.0138316
602.437	0.0138914
602.515	0.0139532
602.593	0.0140031
602.671	0.0138384
602.749	0.0139072
602.828	0.0138773
602.906	0.0138854
602.984	0.0139493
603.062	0.0139890
603.140	0.0139928
603.218	0.0139288
603.296	0.0138608
603.374	0.0140120
603.453	0.0140109
603.531	0.0138709
603.609	0.0138906
603.687	0.0139229
603.765	0.0138537
603.843	0.0139920
603.921	0.0139246
603.999	0.0138484
604.078	0.0138169
604.156	0.0139342
604.234	0.0139185
604.312	0.0139209
604.390	0.0139220
604.468	0.0139480
604.546	0.0138815
604.624	0.0139484
604.703	0.0138647
604.781	0.0138642
604.859	0.0138393
604.937	0.0139568
605.015	0.0139638
605.093	0.0139760
605.171	0.0137849
605.249	0.0137947
605.328	0.0139400
605.406	0.0139179
605.484	0.0139445
605.562	0.0138985
605.640	0.0139712
605.718	0.0139117
605.796	0.0139960
605.874	0.0139114
605.953	0.0139614
606.031	0.0138815
606.109	0.0139423
606.187	0.0140176
606.265	0.0139583
606.343	0.0138616
606.421	0.0138249
606.499	0.0140277
606.578	0.0139925
606.656	0.0139169
606.734	0.0139445
606.812	0.0139403
606.890	0.0138042
606.968	0.0138685
607.046	0.0138570
607.124	0.0138110
607.203	0.0140208
607.281	0.0139562
607.359	0.0137807
607.437	0.0138237
607.515	0.0140057
607.593	0.0140045
607.671	0.0138992
607.749	0.0138258
607.828	0.0139395
607.906	0.0139355
607.984	0.0138435
608.062	0.0139710
608.140	0.0138147
608.218	0.0139014
608.296	0.0139468
608.374	0.0138032
608.453	0.0139365
608.531	0.0139291
608.609	0.0141018
608.687	0.0139598
608.765	0.0139967
608.843	0.0138783
608.921	0.0138776
608.999	0.0138503
609.078	0.0139168
609.156	0.0138489
609.234	0.0140622
609.312	0.0139956
609.390	0.0139650
609.468	0.0139393
609.546	0.0139479
609.624	0.0139702
609.703	0.0139799
609.781	0.0139127
609.859	0.0138238
609.937	0.0138941
610.015	0.0138519
610.093	0.0139714
610.171	0.0138633
610.249	0.0139285
610.328	0.0140449
610.406	0.0140188
610.484	0.0139535
610.562	0.0138935
610.640	0.0139334
610.718	0.0140276
610.796	0.0139371
610.874	0.0138940
610.953	0.0138555
611.031	0.0138918
611.109	0.0141144
611.187	0.0140069
611.265	0.0140078
611.343	0.0139588
611.421	0.0139591
611.499	0.0139366
611.578	0.0138699
611.656	0.0138399
611.734	0.0138579
611.812	0.0139441
611.890	0.0139172
611.968	0.0139910
612.046	0.0139600
612.124	0.0139552
612.203	0.0139884
612.281	0.0138685
612.359	0.0139152
612.437	0.0139552
612.515	0.0138322
612.593	0.0139824
612.671	0.0141348
612.749	0.0140565
612.828	0.0139706
612.906	0.0139833
612.984	0.0139208
613.062	0.0138339
613.140	0.0137404
613.218	0.0138879
613.296	0.0139346
613.374	0.0140154
613.453	0.0138816
613.531	0.0139680
613.609	0.0138895
613.687	0.0138563
613.765	0.0138667
613.843	0.0138721
613.921	0.0139215
613.999	0.0140076
614.078	0.0140908
614.156	0.0138817
614.234	0.0140106
614.312	0.0139424
614.390	0.0139120
614.468	0.0139587
614.546	0.0139848
614.624	0.0140266
614.703	0.0139011
614.781	0.0138464
614.859	0.0138970
614.937	0.0139735
615.015	0.0139787
615.093	0.0139767
615.171	0.0138355
615.249	0.0139847
615.328	0.0140350
615.406	0.0137777
615.484	0.0139691
615.562	0.0139481
615.640	0.0138302
615.718	0.0138270
615.796	0.0139200
615.874	0.0138525
615.953	0.0139022
616.031	0.0139299
616.109	0.0140372
616.187	0.0138878
616.265	0.0139142
616.343	0.0138216
616.421	0.0138775
616.499	0.0138493
616.578	0.0139826
616.656	0.0138868
616.734	0.0138820
616.812	0.0139140
616.890	0.0139160
616.968	0.0139723
617.046	0.0138337
617.124	0.0137987
617.203	0.0138699
617.281	0.0140271
617.359	0.0138419
617.437	0.0139507
617.515	0.0139703
617.593	0.0137859
617.671	0.0139718
617.749	0.0139790
617.828	0.0139687
617.906	0.0140173
617.984	0.0138451
618.062	0.0138439
618.140	0.0139538
618.218	0.0139355
618.296	0.0138466
618.374	0.0138748
618.453	0.0139320
618.531	0.0139416
618.609	0.0137524
618.687	0.0139395
618.765	0.0139465
618.843	0.0139390
618.921	0.0139485
618.999	0.0139275
619.078	0.0140157
619.156	0.0140095
619.234	0.0138350
619.312	0.0139453
619.390	0.0138067
619.468	0.0139477
619.546	0.0140491
619.624	0.0139040
619.703	0.0138003
619.781	0.0139103
619.859	0.0139376
619.937	0.0138702
620.015	0.0138781
620.093	0.0139558
620.171	0.0139650
620.249	0.0139771
620.328	0.0139485
620.406	0.0139993
620.484	0.0139283
620.562	0.0139625
620.640	0.0138684
620.718	0.0139204
620.796	0.0138950
620.874	0.0138692
620.953	0.0139182
621.031	0.0138975
621.109	0.0139621
621.187	0.0137770
621.265	0.0137458
621.343	0.0139161
621.421	0.0139223
621.499	0.0138852
621.578	0.0140076
621.656	0.0139616
621.734	0.0138243
621.812	0.0137637
621.890	0.0138400
621.968	0.0138569
622.046	0.0140742
622.124	0.0140479
622.203	0.0137755
622.281	0.0139149
622.359	0.0139304
622.437	0.0139655
622.515	0.0140104
622.593	0.0138521
622.671	0.0138127
622.749	0.0139043
622.828	0.0140421
622.906	0.0140022
622.984	0.0139687
623.062	0.0140891
623.140	0.0139583
623.218	0.0139251
623.296	0.0139272
623.374	0.0138113
623.453	0.0139597
623.531	0.0138976
623.609	0.0138685
623.687	0.0141063
623.765	0.0139348
623.843	0.0139075
623.921	0.0138918
623.999	0.0139196
624.078	0.0139572
624.156	0.0138946
624.234	0.0139145
624.312	0.0139555
624.390	0.0138191
624.468	0.0139091
624.546	0.0139045
624.624	0.0139921
624.703	0.0139426
624.781	0.0137753
624.859	0.0141863
624.937	0.0138765
625.015	0.0139178
625.093	0.0139425
625.171	0.0139485
625.249	0.0138903
625.328	0.0139342
625.406	0.0138776
625.484	0.0139562
625.562	0.0138320
625.640	0.0139552
625.718	0.0139484
625.796	0.0137908
625.874	0.0139087
625.953	0.0139543
626.031	0.0139729
626.109	0.0139253
626.187	0.0140234
626.265	0.0139250
626.343	0.0140369
626.421	0.0140813
626.499	0.0139911
626.578	0.0138023
626.656	0.0138284
626.734	0.0138929
626.812	0.0139832
626.890	0.0139821
626.968	0.0139755
627.046	0.0138827
627.124	0.0138769
627.203	0.0139484
627.281	0.0139549
627.359	0.0139100
627.437	0.0139650
627.515	0.0139230
627.593	0.0139559
627.671	0.0139115
627.749	0.0138422
627.828	0.0139685
627.906	0.0139873
627.984	0.0138217
628.062	0.0137852
628.140	0.0140132
628.218	0.0139819
628.296	0.0139341
628.374	0.0136974
628.453	0.0139510
628.531	0.0138238
628.609	0.0137836
628.687	0.0138132
628.765	0.0137870
628.843	0.0139639
628.921	0.0139145
628.999	0.0139256
629.078	0.0138748
629.156	0.0139773
629.234	0.0139539
629.312	0.0138035
629.390	0.0140652
629.468	0.0138548
629.546	0.0139038
629.624	0.0138841
629.703	0.0139516
629.781	0.0140799
629.859	0.0140345
629.937	0.0138045
630.015	0.0137457
630.093	0.0139181
630.171	0.0138332
630.249	0.0140342
630.328	0.0141207
630.406	0.0139209
630.484	0.0139529
630.562	0.0138052
630.640	0.0140179
630.718	0.0139954
630.796	0.0139478
630.874	0.0139587
630.953	0.0139089
631.031	0.0140028
631.109	0.0139537
631.187	0.0138118
631.265	0.0138966
631.343	0.0140041
631.421	0.0139046
631.499	0.0139214
631.578	0.0139452
631.656	0.0139761
631.734	0.0138969
631.812	0.0138783
631.890	0.0139233
631.968	0.0139408
632.046	0.0138882
632.124	0.0139499
632.203	0.0138896
632.281	0.0139056
632.359	0.0138911
632.437	0.0138783
632.515	0.0139345
632.593	0.0139314
632.671	0.0139306
632.749	0.0139174
632.828	0.0138456
632.906	0.0138903
632.984	0.0139982
633.062	0.0139603
633.140	0.0138522
633.218	0.0137658
633.296	0.0139327
633.374	0.0138937
633.453	0.0138338
633.531	0.0138992
633.609	0.0136981
633.687	0.0139411
633.765	0.0139317
633.843	0.0140038
633.921	0.0139068
633.999	0.0139059
634.078	0.0140191
634.156	0.0139703
634.234	0.0139777
634.312	0.0139230
634.390	0.0139416
634.468	0.0139739
634.546	0.0139197
634.624	0.0138548
634.703	0.0139743
634.781	0.0139652
634.859	0.0139912
634.937	0.0138078
635.015	0.0138946
635.093	0.0140533
635.171	0.0139809
635.249	0.0139473
635.328	0.0138004
635.406	0.0139938
635.484	0.0139104
635.562	0.0139129
635.640	0.0139968
635.718	0.0138553
635.796	0.0139083
635.874	0.0140799
635.953	0.0139617
636.031	0.0139236
636.109	0.0139872
636.187	0.0139303
636.265	0.0139025
636.343	0.0139358
636.421	0.0138661
636.499	0.0139256
636.578	0.0139428
636.656	0.0138344
636.734	0.0139589
636.812	0.0139552
636.890	0.0139955
636.968	0.0140671
637.046	0.0139287
637.124	0.0140160
637.203	0.0138822
637.281	0.0138965
637.359	0.0138924
637.437	0.0138889
637.515	0.0138905
637.593	0.0140494
637.671	0.0139173
637.749	0.0139357
637.828	0.0140047
637.906	0.0138817
637.984	0.0139327
638.062	0.0138263
638.140	0.0138519
638.218	0.0138651
638.296	0.0139703
638.374	0.0139531
638.453	0.0138493
638.531	0.0139484
638.609	0.0139188
638.687	0.0138919
638.765	0.0139807
638.843	0.0139291
638.921	0.0138830
638.999	0.0138999
639.078	0.0138519
639.156	0.0139254
639.234	0.0139989
639.312	0.0138392
639.390	0.0138894
639.468	0.0138977
639.546	0.0139324
639.624	0.0137650
639.703	0.0138039
639.781	0.0137820
639.859	0.0139342
639.937	0.0139847
640.015	0.0139565
640.093	0.0139145
640.171	0.0138858
640.249	0.0138708
640.328	0.0139819
640.406	0.0139706
640.484	0.0138498
640.562	0.0138966
640.640	0.0139601
640.718	0.0137908
640.796	0.0138861
640.874	0.0138731
640.953	0.0138622
641.031	0.0140038
641.109	0.0139060
641.187	0.0138477
641.265	0.0138611
641.343	0.0139593
641.421	0.0138913
641.499	0.0139079
641.578	0.0138775
641.656	0.0138037
641.734	0.0139027
641.812	0.0139229
641.890	0.0138239
641.968	0.0139626
642.046	0.0140007
642.124	0.0138316
642.203	0.0138110
642.281	0.0139078
642.359	0.0138972
642.437	0.0139450
642.515	0.0139278
642.593	0.0139408
642.671	0.0137975
642.749	0.0138441
642.828	0.0138611
642.906	0.0138594
642.984	0.0138556
643.062	0.0138061
643.140	0.0138918
643.218	0.0138795
643.296	0.0138597
643.374	0.0139116
643.453	0.0138531
643.531	0.0137862
643.609	0.0138633
643.687	0.0139012
643.765	0.0139868
643.843	0.0140442
643.921	0.0138961
643.999	0.0138084
644.078	0.0139301
644.156	0.0139025
644.234	0.0139340
644.312	0.0138566
644.390	0.0139039
644.468	0.0138541
644.546	0.0136491
644.624	0.0138541
644.703	0.0140599
644.781	0.0139244
644.859	0.0138048
644.937	0.0139210
645.015	0.0140881
645.093	0.0138904
645.171	0.0137252
645.249	0.0139668
645.328	0.0140084
645.406	0.0139362
645.484	0.0140244
645.562	0.0138335
645.640	0.0138790
645.718	0.0140242
645.796	0.0140667
645.874	0.0138831
645.953	0.0138826
646.031	0.0140177
646.109	0.0138932
646.187	0.0137827
646.265	0.0139502
646.343	0.0139019
646.421	0.0139272
646.499	0.0139522
646.578	0.0139808
646.656	0.0138696
646.734	0.0139572
646.812	0.0138491
646.890	0.0139627
646.968	0.0138508
647.046	0.0137901
647.124	0.0139187
647.203	0.0138969
647.281	0.0139331
647.359	0.0139320
647.437	0.0138971
647.515	0.0137852
647.593	0.0139140
647.671	0.0137930
647.749	0.0139252
647.828	0.0138707
647.906	0.0138731
647.984	0.0139199
648.062	0.0140368
648.140	0.0139003
648.218	0.0139266
648.296	0.0140318
648.374	0.0139988
648.453	0.0138602
648.531	0.0139029
648.609	0.0138947
648.687	0.0139582
648.765	0.0139419
648.843	0.0138491
648.921	0.0138412
648.999	0.0138419
649.078	0.0138894
649.156	0.0139709
649.234	0.0138268
649.312	0.0139226
649.390	0.0139376
649.468	0.0137700
649.546	0.0139137
649.624	0.0140038
649.703	0.0138887
649.781	0.0139821
649.859	0.0139776
649.937	0.0138917
650.015	0.0138226
650.093	0.0139540
650.171	0.0138326
650.249	0.0138926
650.328	0.0139507
650.406	0.0138649
650.484	0.0137923
650.562	0.0139455
650.640	0.0137960
650.718	0.0139813
650.796	0.0139748
650.874	0.0139673
650.953	0.0138433
651.031	0.0139404
651.109	0.0138925
651.187	0.0139552
651.265	0.0138927
651.343	0.0139500
651.421	0.0138683
651.499	0.0137792
651.578	0.0140205
651.656	0.0139626
651.734	0.0139168
651.812	0.0137810
651.890	0.0140479
651.968	0.0138998
652.046	0.0138380
652.124	0.0138198
652.203	0.0138626
652.281	0.0138897
652.359	0.0138264
652.437	0.0139835
652.515	0.0139517
652.593	0.0138634
652.671	0.0139552
652.749	0.0139884
652.828	0.0138515
652.906	0.0139860
652.984	0.0140059
653.062	0.0137886
653.140	0.0138437
653.218	0.0139377
653.296	0.0141010
653.374	0.0138732
653.453	0.0138879
653.531	0.0138321
653.609	0.0139159
653.687	0.0138899
653.765	0.0140637
653.843	0.0138610
653.921	0.0137547
653.999	0.0138579
654.078	0.0139005
654.156	0.0140049
654.234	0.0139944
654.312	0.0140047
654.390	0.0140302
654.468	0.0137954
654.546	0.0137321
654.624	0.0139293
654.703	0.0140102
654.781	0.0138724
654.859	0.0140389
654.937	0.0140856
655.015	0.0139417
655.093	0.0139030
655.171	0.0137909
655.249	0.0138921
655.328	0.0138764
655.406	0.0139415
655.484	0.0140647
655.562	0.0139630
655.640	0.0138117
655.718	0.0139660
655.796	0.0138036
655.874	0.0138608
655.953	0.0138233
656.031	0.0139063
656.109	0.0138625
656.187	0.0139270
656.265	0.0139957
656.343	0.0138120
656.421	0.0138872
656.499	0.0140312
656.578	0.0138409
656.656	0.0138770
656.734	0.0138442
656.812	0.0139245
656.890	0.0138240
656.968	0.0140292
657.046	0.0138729
657.124	0.0137428
657.203	0.0137867
657.281	0.0138555
657.359	0.0139595
657.437	0.0137997
657.515	0.0138486
657.593	0.0138353
657.671	0.0140261
657.749	0.0138870
657.828	0.0139621
657.906	0.0138786
657.984	0.0139988
658.062	0.0138344
658.140	0.0138129
658.218	0.0139565
658.296	0.0139253
658.374	0.0139555
658.453	0.0139359
658.531	0.0139488
658.609	0.0138978
658.687	0.0139450
658.765	0.0138913
658.843	0.0138294
658.921	0.0138564
658.999	0.0139271
659.078	0.0137576
659.156	0.0137892
659.234	0.0139589
659.312	0.0139926
659.390	0.0140063
659.468	0.0138887
659.546	0.0138377
659.624	0.0140218
659.703	0.0140395
659.781	0.0138037
659.859	0.0139627
659.937	0.0138279
660.015	0.0139181
660.093	0.0138544
660.171	0.0138419
660.249	0.0137873
660.328	0.0139369
660.406	0.0140043
660.484	0.0139310
660.562	0.0138398
660.640	0.0139265
660.718	0.0138799
660.796	0.0138773
660.874	0.0139281
660.953	0.0140605
661.031	0.0137935
661.109	0.0137769
661.187	0.0139250
661.265	0.0139985
661.343	0.0138554
661.421	0.0138521
661.499	0.0138985
661.578	0.0138548
661.656	0.0139746
661.734	0.0139440
661.812	0.0139090
661.890	0.0139440
661.968	0.0138799
662.046	0.0139274
662.124	0.0138990
662.203	0.0139532
662.281	0.0138624
662.359	0.0138591
662.437	0.0139396
662.515	0.0138161
662.593	0.0138150
662.671	0.0138729
662.749	0.0139275
662.828	0.0139397
662.906	0.0138798
662.984	0.0138445
663.062	0.0138394
663.140	0.0138425
663.218	0.0137872
663.296	0.0138708
663.374	0.0138293
663.453	0.0140416
663.531	0.0140041
663.609	0.0139673
663.687	0.0139066
663.765	0.0138782
663.843	0.0140214
663.921	0.0139584
663.999	0.0138790
664.078	0.0139686
664.156	0.0138071
664.234	0.0138857
664.312	0.0140134
664.390	0.0139169
664.468	0.0139346
664.546	0.0138736
664.624	0.0138814
664.703	0.0140100
664.781	0.0139217
664.859	0.0140012
664.937	0.0139460
665.015	0.0140547
665.093	0.0139606
665.171	0.0139069
665.249	0.0139494
665.328	0.0138768
665.406	0.0138586
665.484	0.0138823
665.562	0.0139207
665.640	0.0140231
665.718	0.0138407
665.796	0.0139793
665.874	0.0140528
665.953	0.0140003
666.031	0.0138607
666.109	0.0138248
666.187	0.0138798
666.265	0.0138424
666.343	0.0137981
666.421	0.0140123
666.499	0.0140181
666.578	0.0138750
666.656	0.0138284
666.734	0.0137830
666.812	0.0139262
666.890	0.0140131
666.968	0.0139372
667.046	0.0138168
667.124	0.0140218
667.203	0.0139402
667.281	0.0138721
667.359	0.0138142
667.437	0.0137926
667.515	0.0140691
667.593	0.0138109
667.671	0.0138760
667.749	0.0139463
667.828	0.0140752
667.906	0.0139523
667.984	0.0138647
668.062	0.0139733
668.140	0.0138491
668.218	0.0137700
668.296	0.0139497
668.374	0.0138598
668.453	0.0139368
668.531	0.0138289
668.609	0.0138693
668.687	0.0138342
668.765	0.0139078
668.843	0.0139019
668.921	0.0139019
668.999	0.0139051
669.078	0.0139113
669.156	0.0139063
669.234	0.0140331
669.312	0.0138554
669.390	0.0136752
669.468	0.0137928
669.546	0.0140383
669.624	0.0139407
669.703	0.0139339
669.781	0.0139845
669.859	0.0139476
669.937	0.0138908
670.015	0.0140177
670.093	0.0138209
670.171	0.0138647
670.249	0.0137428
670.328	0.0138712
670.406	0.0139171
670.484	0.0139549
670.562	0.0139977
670.640	0.0137736
670.718	0.0139259
670.796	0.0138520
670.874	0.0138840
670.953	0.0139938
671.031	0.0138146
671.109	0.0138535
671.187	0.0139638
671.265	0.0138596
671.343	0.0138538
671.421	0.0137406
671.499	0.0138024
671.578	0.0136994
671.656	0.0138294
671.734	0.0136641
671.812	0.0136892
671.890	0.0139278
671.968	0.0138464
672.046	0.0137994
672.124	0.0137759
672.203	0.0138261
672.281	0.0139549
672.359	0.0137907
672.437	0.0138349
672.515	0.0139192
672.593	0.0138257
672.671	0.0138008
672.749	0.0136640
672.828	0.0139030
672.906	0.0140224
672.984	0.0137856
673.062	0.0138761
673.140	0.0139903
673.218	0.0139151
673.296	0.0139276
673.374	0.0137749
673.453	0.0138830
673.531	0.0138560
673.609	0.0139956
673.687	0.0140675
673.765	0.0138683
673.843	0.0137363
673.921	0.0138698
673.999	0.0137531
674.078	0.0138264
674.156	0.0138148
674.234	0.0137844
674.312	0.0138338
674.390	0.0139035
674.468	0.0138176
674.546	0.0138364
674.624	0.0139077
674.703	0.0138911
674.781	0.0138666
674.859	0.0139050
674.937	0.0138955
675.015	0.0138424
675.093	0.0138982
675.171	0.0139027
675.249	0.0137629
675.328	0.0138225
675.406	0.0138694
675.484	0.0137676
675.562	0.0138562
675.640	0.0137402
675.718	0.0138435
675.796	0.0139557
675.874	0.0139137
675.953	0.0138792
676.031	0.0138303
676.109	0.0138467
676.187	0.0138763
676.265	0.0138470
676.343	0.0139199
676.421	0.0139174
676.499	0.0138173
676.578	0.0138208
676.656	0.0138912
676.734	0.0138950
676.812	0.0139843
676.890	0.0139948
676.968	0.0138174
677.046	0.0138559
677.124	0.0139645
677.203	0.0138696
677.281	0.0138904
677.359	0.0139215
677.437	0.0139688
677.515	0.0139967
677.593	0.0138853
677.671	0.0139987
677.749	0.0139816
677.828	0.0140506
677.906	0.0138147
677.984	0.0139878
678.062	0.0139296
678.140	0.0140315
678.218	0.0138375
678.296	0.0139626
678.374	0.0139184
678.453	0.0137968
678.531	0.0139363
678.609	0.0139635
678.687	0.0139497
678.765	0.0138994
678.843	0.0139096
678.921	0.0140076
678.999	0.0139447
679.078	0.0138810
679.156	0.0140417
679.234	0.0140068
679.312	0.0140404
679.390	0.0140503
679.468	0.0139385
679.546	0.0139425
679.624	0.0139626
679.703	0.0139186
679.781	0.0138680
679.859	0.0137454
679.937	0.0137619
680.015	0.0137685
680.093	0.0137112
680.171	0.0136490
680.249	0.0135442
680.328	0.0135751
680.406	0.0136505
680.484	0.0137466
680.562	0.0137050
680.640	0.0138645
680.718	0.0139909
680.796	0.0139725
680.874	0.0140598
680.953	0.0141879
681.031	0.0141619
681.109	0.0142239
681.187	0.0142279
681.265	0.0141406
681.343	0.0140302
681.421	0.0140643
681.499	0.0140099
681.578	0.0139441
681.656	0.0137700
681.734	0.0137517
681.812	0.0138669
681.890	0.0137444
681.968	0.0136543
682.046	0.0136861
682.124	0.0137598
682.203	0.0136704
682.281	0.0137463
682.359	0.0139044
682.437	0.0136482
682.515	0.0137988
682.593	0.0137502
682.671	0.0136636
682.749	0.0137527
682.828	0.0137538
682.906	0.0136348
682.984	0.0135049
683.062	0.0136417
683.140	0.0136058
683.218	0.0134754
683.296	0.0134789
683.374	0.0135805
683.453	0.0136884
683.531	0.0138573
683.609	0.0139173
683.687	0.0140317
683.765	0.0139856
683.843	0.0142978
683.921	0.0144381
683.999	0.0145704
684.078	0.0147168
684.156	0.0148500
684.234	0.0148179
684.312	0.0149002
684.390	0.0149538
684.468	0.0149492
684.546	0.0148409
684.624	0.0146319
684.703	0.0142791
684.781	0.0141438
684.859	0.0137711
684.937	0.0135882
685.015	0.0132466
685.093	0.0131229
685.171	0.0129131
685.249	0.0127111
685.328	0.0126546
685.406	0.0126020
685.484	0.0126743
685.562	0.0126976
685.640	0.0126404
685.718	0.0127470
685.796	0.0130839
685.874	0.0132747
685.953	0.0133737
686.031	0.0135723
686.109	0.0137614
686.187	0.0138441
686.265	0.0140601
686.343	0.0142698
686.421	0.0141800
686.499	0.0142931
686.578	0.0144447
686.656	0.0144715
686.734	0.0145647
686.812	0.0146046
686.890	0.0145344
686.968	0.0146585
687.046	0.0148404
687.124	0.0148948
687.203	0.0149302
687.281	0.0150504
687.359	0.0151355
687.437	0.0153481
687.515	0.0153428
687.593	0.0152927
687.671	0.0152773
687.749	0.0152521
687.828	0.0150489
687.906	0.0148343
687.984	0.0144239
688.062	0.0142802
688.140	0.0138040
688.218	0.0135244
688.296	0.0131198
688.374	0.0125674
688.453	0.0121407
688.531	0.0119517
688.609	0.0117712
688.687	0.0113264
688.765	0.0111845
688.843	0.0111086
688.921	0.0112943
688.999	0.0113550
689.078	0.0114225
689.156	0.0116479
689.234	0.0120099
689.312	0.0123655
689.390	0.0129501
689.468	0.0133639
689.546	0.0135803
689.624	0.0141109
689.703	0.0145181
689.781	0.0148423
689.859	0.0150968
689.937	0.0155839
690.015	0.0158570
690.093	0.0160422
690.171	0.0161884
690.249	0.0165174
690.328	0.0165629
690.406	0.0166099
690.484	0.0164827
690.562	0.0164845
690.640	0.0164323
690.718	0.0162159
690.796	0.0159689
690.874	0.0157442
690.953	0.0156006
691.031	0.0152834
691.109	0.0150615
691.187	0.0146867
691.265	0.0143600
691.343	0.0141088
691.421	0.0138194
691.499	0.0132716
691.578	0.0128260
691.656	0.0123708
691.734	0.0119315
691.812	0.0115795
691.890	0.0112812
691.968	0.0108958
692.046	0.0106927
692.124	0.0103761
692.203	0.0104645
692.281	0.0104393
692.359	0.0106647
692.437	0.0108460
692.515	0.0109541
692.593	0.0113032
692.671	0.0118951
692.749	0.0122667
692.828	0.0128501
692.906	0.0133353
692.984	0.0138066
693.062	0.0142905
693.140	0.0147654
693.218	0.0152946
693.296	0.0155731
693.374	0.0159286
693.453	0.0163760
693.531	0.0166568
693.609	0.0167972
693.687	0.0168231
693.765	0.0170096
693.843	0.0170420
693.921	0.0169608
693.999	0.0168782
694.078	0.0165553
694.156	0.0164435
694.234	0.0161705
694.312	0.0158023
694.390	0.0153268
694.468	0.0150732
694.546	0.0148716
694.624	0.0144304
694.703	0.0141154
694.781	0.0136639
694.859	0.0133308
694.937	0.0128979
695.015	0.0128205
695.093	0.0124677
695.171	0.0121877
695.249	0.0118236
695.328	0.0117068
695.406	0.0116159
695.484	0.0113956
695.562	0.0111281
695.640	0.0109489
695.718	0.0109201
695.796	0.0110094
695.874	0.0109326
695.953	0.0109608
696.031	0.0112513
696.109	0.0116200
696.187	0.0120679
696.265	0.0125234
696.343	0.0129258
696.421	0.0136481
696.499	0.0141238
696.578	0.0146535
696.656	0.0151406
696.734	0.0156863
696.812	0.0160652
696.890	0.0165206
696.968	0.0168253
697.046	0.0168554
697.124	0.0169284
697.203	0.0169684
697.281	0.0168557
697.359	0.0165604
697.437	0.0162248
697.515	0.0159604
697.593	0.0157024
697.671	0.0150265
697.749	0.0147666
697.828	0.0146504
697.906	0.0140765
697.984	0.0138210
698.062	0.0134447
698.140	0.0134546
698.218	0.0133187
698.296	0.0131200
698.374	0.0129124
698.453	0.0127226
698.531	0.0126027
698.609	0.0125910
698.687	0.0124951
698.765	0.0123698
698.843	0.0121750
698.921	0.0120934
698.999	0.0121274
699.078	0.0120107
699.156	0.0120264
699.234	0.0117924
699.312	0.0119402
699.390	0.0120371
699.468	0.0121557
699.546	0.0123499
699.624	0.0126490
699.703	0.0130769
699.781	0.0135300
699.859	0.0139204
699.937	0.0143723
700.015	0.0146883
700.093	0.0151289
700.171	0.0154972
700.249	0.0157858
700.328	0.0159238
700.406	0.0161516
700.484	0.0161848
700.562	0.0162694
700.640	0.0160806
700.718	0.0159394
700.796	0.0158696
700.874	0.0153230
700.953	0.0151546
701.031	0.0148607
701.109	0.0144050
701.187	0.0140625
701.265	0.0137315
701.343	0.0134698
701.421	0.0131422
701.499	0.0129869
701.578	0.0129465
701.656	0.0129846
701.734	0.0128910
701.812	0.0128419
701.890	0.0129615
701.968	0.0130659
702.046	0.0131933
702.124	0.0132626
702.203	0.0133833
702.281	0.0134042
702.359	0.0134036
702.437	0.0133313
702.515	0.0133958
702.593	0.0132560
702.671	0.0131910
702.749	0.0130560
702.828	0.0128571
702.906	0.0129657
702.984	0.0131036
703.062	0.0131257
703.140	0.0134162
703.218	0.0136767
703.296	0.0137444
703.374	0.0140205
703.453	0.0141641
703.531	0.0146529
703.609	0.0147711
703.687	0.0148946
703.765	0.0149780
703.843	0.0150650
703.921	0.0153294
703.999	0.0152794
704.078	0.0150507
704.156	0.0150351
704.234	0.0148776
704.312	0.0146179
704.390	0.0143689
704.468	0.0140300
704.546	0.0137677
704.624	0.0135232
704.703	0.0131973
704.781	0.0129224
704.859	0.0126890
704.937	0.0127091
705.015	0.0127056
705.093	0.0125928
705.171	0.0126130
705.249	0.0126688
705.328	0.0128384
705.406	0.0130382
705.484	0.0133820
705.562	0.0136365
705.640	0.0138755
705.718	0.0141322
705.796	0.0142868
705.874	0.0145166
705.953	0.0145434
706.031	0.0145409
706.109	0.0145709
706.187	0.0146099
706.265	0.0144431
706.343	0.0145212
706.421	0.0143040
706.499	0.0143353
706.578	0.0142495
706.656	0.0141206
706.734	0.0140604
706.812	0.0140797
706.890	0.0140257
706.968	0.0139365
707.046	0.0138849
707.124	0.0140451
707.203	0.0140733
707.281	0.0141869
707.359	0.0142102
707.437	0.0142397
707.515	0.0142406
707.593	0.0142217
707.671	0.0140211
707.749	0.0138905
707.828	0.0137523
707.906	0.0138969
707.984	0.0136956
708.062	0.0134750
708.140	0.0134211
708.218	0.0131783
708.296	0.0131094
708.374	0.0129412
708.453	0.0130233
708.531	0.0130289
708.609	0.0130229
708.687	0.0131022
708.765	0.0130827
708.843	0.0133331
708.921	0.0134676
708.999	0.0134474
709.078	0.0137602
709.156	0.0138247
709.234	0.0139004
709.312	0.0141496
709.390	0.0143848
709.468	0.0144540
709.546	0.0142889
709.624	0.0141907
709.703	0.0141640
709.781	0.0141057
709.859	0.0143516
709.937	0.0141541
710.015	0.0140414
710.093	0.0140842
710.171	0.0141155
710.249	0.0140907
710.328	0.0138821
710.406	0.0140929
710.484	0.0139381
710.562	0.0139803
710.640	0.0140455
710.718	0.0139194
710.796	0.0139945
710.874	0.0141001
710.953	0.0142391
711.031	0.0142188
711.109	0.0142274
711.187	0.0141475
711.265	0.0142137
711.343	0.0140748
711.421	0.0139955
711.499	0.0141281
711.578	0.0138306
711.656	0.0136983
711.734	0.0136671
711.812	0.0136016
711.890	0.0135172
711.968	0.0134252
712.046	0.0133684
712.124	0.0134961
712.203	0.0136077
712.281	0.0135100
712.359	0.0135392
712.437	0.0136201
712.515	0.0136625
712.593	0.0137624
712.671	0.0139166
712.749	0.0140224
712.828	0.0140331
712.906	0.0140479
712.984	0.0141689
713.062	0.0140960
713.140	0.0141431
713.218	0.0141536
713.296	0.0141174
713.374	0.0141776
713.453	0.0140503
713.531	0.0140163
713.609	0.0138766
713.687	0.0138151
713.765	0.0138792
713.843	0.0137283
713.921	0.0136907
713.999	0.0137090
714.078	0.0136398
714.156	0.0136096
714.234	0.0135979
714.312	0.0134103
714.390	0.0135080
714.468	0.0135321
714.546	0.0136177
714.624	0.0136967
714.703	0.0137210
714.781	0.0136691
714.859	0.0137910
714.937	0.0137869
715.015	0.0137190
715.093	0.0137611
715.171	0.0139794
715.249	0.0138391
715.328	0.0138275
715.406	0.0140039
715.484	0.0139974
715.562	0.0141475
715.640	0.0142070
715.718	0.0141032
715.796	0.0141381
715.874	0.0141881
715.953	0.0142309
716.031	0.0141676
716.109	0.0142293
716.187	0.0140961
716.265	0.0142175
716.343	0.0142916
716.421	0.0143423
716.499	0.0144841
716.578	0.0144767
716.656	0.0144717
716.734	0.0144631
716.812	0.0144501
716.890	0.0144859
716.968	0.0144395
717.046	0.0143736
717.124	0.0143143
717.203	0.0143450
717.281	0.0142139
717.359	0.0141920
717.437	0.0140329
717.515	0.0139605
717.593	0.0138082
717.671	0.0138173
717.749	0.0135997
717.828	0.0133937
717.906	0.0133202
717.984	0.0132030
718.062	0.0133446
718.140	0.0131760
718.218	0.0130411
718.296	0.0129362
718.374	0.0130890
718.453	0.0129757
718.531	0.0128836
718.609	0.0128639
718.687	0.0129827
718.765	0.0130499
718.843	0.0130058
718.921	0.0131353
718.999	0.0131696
719.078	0.0135709
719.156	0.0135986
719.234	0.0137311
719.312	0.0140477
719.390	0.0141776
719.468	0.0142029
719.546	0.0143428
719.624	0.0144873
719.703	0.0144744
719.781	0.0146842
719.859	0.0146725
719.937	0.0145757
720.015	0.0145454
720.093	0.0146416
720.171	0.0145842
720.249	0.0145424
720.328	0.0145037
720.406	0.0146918
720.484	0.0144915
720.562	0.0143503
720.640	0.0144524
720.718	0.0143735
720.796	0.0142664
720.874	0.0142562
720.953	0.0141306
721.031	0.0141796
721.109	0.0141073
721.187	0.0138820
721.265	0.0138587
721.343	0.0136537
721.421	0.0135685
721.499	0.0135725
721.578	0.0134922
721.656	0.0134350
721.734	0.0133326
721.812	0.0133212
721.890	0.0131727
721.968	0.0132241
722.046	0.0131466
722.124	0.0132053
722.203	0.0132492
722.281	0.0134615
722.359	0.0134032
722.437	0.0135381
722.515	0.0137038
722.593	0.0137341
722.671	0.0139846
722.749	0.0140775
722.828	0.0142004
722.906	0.0142263
722.984	0.0142999
723.062	0.0144051
723.140	0.0143130
723.218	0.0143959
723.296	0.0144630
723.374	0.0143231
723.453	0.0144082
723.531	0.0144145
723.609	0.0142868
723.687	0.0142402
723.765	0.0141436
723.843	0.0140971
723.921	0.0141721
723.999	0.0139870
724.078	0.0139819
724.156	0.0140113
724.234	0.0138567
724.312	0.0138716
724.390	0.0138184
724.468	0.0139532
724.546	0.0137471
724.624	0.0137948
724.703	0.0136438
724.781	0.0136636
724.859	0.0136991
724.937	0.0136214
725.015	0.0135723
725.093	0.0135203
725.171	0.0135580
725.249	0.0136666
725.328	0.0134265
725.406	0.0132514
725.484	0.0133742
725.562	0.0133608
725.640	0.0131371
725.718	0.0131705
725.796	0.0133730
725.874	0.0133131
725.953	0.0133776
726.031	0.0135845
726.109	0.0135886
726.187	0.0136778
726.265	0.0138167
726.343	0.0140852
726.421	0.0142182
726.499	0.0142776
726.578	0.0144009
726.656	0.0144366
726.734	0.0145953
726.812	0.0146648
726.890	0.0145915
726.968	0.0147501
727.046	0.0146985
727.124	0.0146533
727.203	0.0145932
727.281	0.0143839
727.359	0.0143505
727.437	0.0142929
727.515	0.0142586
727.593	0.0141768
727.671	0.0139497
727.749	0.0140661
727.828	0.0140833
727.906	0.0140520
727.984	0.0139728
728.062	0.0138200
728.140	0.0137039
728.218	0.0138177
728.296	0.0137946
728.374	0.0138976
728.453	0.0139182
728.531	0.0138319
728.609	0.0137653
728.687	0.0135825
728.765	0.0137803
728.843	0.0135451
728.921	0.0135457
728.999	0.0135458
729.078	0.0134314
729.156	0.0132954
729.234	0.0132013
729.312	0.0133939
729.390	0.0133158
729.468	0.0132465
729.546	0.0132732
729.624	0.0134366
729.703	0.0134449
729.781	0.0135846
729.859	0.0135774
729.937	0.0136295
730.015	0.0138555
730.093	0.0139308
730.171	0.0140424
730.249	0.0141280
730.328	0.0141590
730.406	0.0140771
730.484	0.0141415
730.562	0.0143181
730.640	0.0142800
730.718	0.0142612
730.796	0.0141761
730.874	0.0141406
730.953	0.0141785
731.031	0.0142421
731.109	0.0142799
731.187	0.0140991
731.265	0.0141563
731.343	0.0142238
731.421	0.0143053
731.499	0.0142575
731.578	0.0141541
731.656	0.0143136
731.734	0.0141930
731.812	0.0141374
731.890	0.0141430
731.968	0.0142899
732.046	0.0141089
732.124	0.0139874
732.203	0.0139146
732.281	0.0139543
732.359	0.0137751
732.437	0.0137822
732.515	0.0136434
732.593	0.0136729
732.671	0.0136832
732.749	0.0136022
732.828	0.0136072
732.906	0.0134081
732.984	0.0133863
733.062	0.0136298
733.140	0.0135526
733.218	0.0134608
733.296	0.0136861
733.374	0.0136444
733.453	0.0136023
733.531	0.0137063
733.609	0.0138584
733.687	0.0137704
733.765	0.0139021
733.843	0.0138825
733.921	0.0140479
733.999	0.0139641
734.078	0.0137974
734.156	0.0140993
734.234	0.0139536
734.312	0.0141369
734.390	0.0141582
734.468	0.0141377
734.546	0.0142273
734.624	0.0141500
734.703	0.0140497
734.781	0.0141719
734.859	0.0140834
734.937	0.0140190
735.015	0.0141667
735.093	0.0140512
735.171	0.0141177
735.249	0.0141491
735.328	0.0141075
735.406	0.0140662
735.484	0.0139898
735.562	0.0141270
735.640	0.0139419
735.718	0.0139214
735.796	0.0139486
735.874	0.0141339
735.953	0.0139419
736.031	0.0137902
736.109	0.0139141
736.187	0.0136874
736.265	0.0136446
736.343	0.0136363
736.421	0.0135693
736.499	0.0136372
736.578	0.0135661
736.656	0.0135092
736.734	0.0135213
736.812	0.0132834
736.890	0.0135117
736.968	0.0134732
737.046	0.0135435
737.124	0.0138808
737.203	0.0134543
737.281	0.0136105
737.359	0.0136462
737.437	0.0137084
737.515	0.0138063
737.593	0.0138524
737.671	0.0138197
737.749	0.0140163
737.828	0.0140825
737.906	0.0140131
737.984	0.0140878
738.062	0.0139931
738.140	0.0140640
738.218	0.0141540
738.296	0.0139552
738.374	0.0140327
738.453	0.0142991
738.531	0.0142196
738.609	0.0140961
738.687	0.0141721
738.765	0.0143288
738.843	0.0142097
738.921	0.0143311
738.999	0.0143279
739.078	0.0142426
739.156	0.0142976
739.234	0.0143784
739.312	0.0144062
739.390	0.0141622
739.468	0.0141521
739.546	0.0141545
739.624	0.0139037
739.703	0.0140705
739.781	0.0140185
739.859	0.0137801
739.937	0.0138377
740.015	0.0138127
740.093	0.0136039
740.171	0.0135714
740.249	0.0136906
740.328	0.0135498
740.406	0.0134331
740.484	0.0136147
740.562	0.0136086
740.640	0.0135489
740.718	0.0135728
740.796	0.0133994
740.874	0.0135356
740.953	0.0136029
741.031	0.0136436
741.109	0.0136879
741.187	0.0136305
741.265	0.0136231
741.343	0.0136860
741.421	0.0137891
741.499	0.0137177
741.578	0.0137457
741.656	0.0139256
741.734	0.0139382
741.812	0.0140390
741.890	0.0141097
741.968	0.0139803
742.046	0.0140609
742.124	0.0141578
742.203	0.0142030
742.281	0.0143822
742.359	0.0142004
742.437	0.0141422
742.515	0.0142517
742.593	0.0143092
742.671	0.0143343
742.749	0.0142256
742.828	0.0141683
742.906	0.0142601
742.984	0.0142647
743.062	0.0140903
743.140	0.0140379
743.218	0.0140280
743.296	0.0140945
743.374	0.0139458
743.453	0.0138715
743.531	0.0138972
743.609	0.0139592
743.687	0.0138916
743.765	0.0137969
743.843	0.0138038
743.921	0.0137680
743.999	0.0138099
744.078	0.0138338
744.156	0.0138591
744.234	0.0139775
744.312	0.0137762
744.390	0.0138300
744.468	0.0137444
744.546	0.0137827
744.624	0.0137495
744.703	0.0136776
744.781	0.0138419
744.859	0.0137997
744.937	0.0138128
745.015	0.0138667
745.093	0.0138300
745.171	0.0138348
745.249	0.0137663
745.328	0.0138882
745.406	0.0138733
745.484	0.0138538
745.562	0.0139163
745.640	0.0139678
745.718	0.0139613
745.796	0.0139168
745.874	0.0140612
745.953	0.0140435
746.031	0.0140865
746.109	0.0140417
746.187	0.0139288
746.265	0.0139461
746.343	0.0139868
746.421	0.0139889
746.499	0.0140517
746.578	0.0141586
746.656	0.0140937
746.734	0.0139773
746.812	0.0139809
746.890	0.0139696
746.968	0.0139915
747.046	0.0140109
747.124	0.0139398
747.203	0.0140623
747.281	0.0139288
747.359	0.0138503
747.437	0.0139199
747.515	0.0138914
747.593	0.0137779
747.671	0.0139120
747.749	0.0138866
747.828	0.0137978
747.906	0.0136594
747.984	0.0137787
748.062	0.0138391
748.140	0.0137229
748.218	0.0137173
748.296	0.0137321
748.374	0.0135986
748.453	0.0137621
748.531	0.0137421
748.609	0.0136964
748.687	0.0136892
748.765	0.0137650
748.843	0.0138001
748.921	0.0137958
748.999	0.0138437
749.078	0.0138676
749.156	0.0138155
749.234	0.0138165
749.312	0.0139651
749.390	0.0139959
749.468	0.0140907
749.546	0.0140660
749.624	0.0141438
749.703	0.0141795
749.781	0.0143674
749.859	0.0141918
749.937	0.0141244
750.015	0.0141309
750.093	0.0141432
750.171	0.0142342
750.249	0.0141601
750.328	0.0140761
750.406	0.0141202
750.484	0.0141150
750.562	0.0140244
750.640	0.0140894
750.718	0.0138937
750.796	0.0138905
750.874	0.0137897
750.953	0.0138277
751.031	0.0137615
751.109	0.0138721
751.187	0.0137064
751.265	0.0138693
751.343	0.0138411
751.421	0.0139164
751.499	0.0136866
751.578	0.0138302
751.656	0.0138607
751.734	0.0136480
751.812	0.0136859
751.890	0.0135438
751.968	0.0136602
752.046	0.0136451
752.124	0.0137205
752.203	0.0137639
752.281	0.0135924
752.359	0.0137096
752.437	0.0137191
752.515	0.0137894
752.593	0.0137398
752.671	0.0137421
752.749	0.0138023
752.828	0.0138609
752.906	0.0139719
752.984	0.0141750
753.062	0.0141393
753.140	0.0140506
753.218	0.0141052
753.296	0.0142451
753.374	0.0141480
753.453	0.0141241
753.531	0.0141129
753.609	0.0139595
753.687	0.0141349
753.765	0.0140501
753.843	0.0142077
753.921	0.0139776
753.999	0.0139677
754.078	0.0140575
754.156	0.0139305
754.234	0.0138995
754.312	0.0138087
754.390	0.0138057
754.468	0.0138465
754.546	0.0139057
754.624	0.0140215
754.703	0.0139359
754.781	0.0137576
754.859	0.0139661
754.937	0.0137695
755.015	0.0138364
755.093	0.0138849
755.171	0.0138648
755.249	0.0136727
755.328	0.0134718
755.406	0.0136440
755.484	0.0137272
755.562	0.0136780
755.640	0.0136003
755.718	0.0136136
755.796	0.0136507
755.874	0.0137504
755.953	0.0136217
756.031	0.0136449
756.109	0.0138092
756.187	0.0137600
756.265	0.0138193
756.343	0.0139388
756.421	0.0139265
756.499	0.0138706
756.578	0.0140532
756.656	0.0139568
756.734	0.0139060
756.812	0.0138998
756.890	0.0139460
756.968	0.0137849
757.046	0.0139278
757.124	0.0140052
757.203	0.0137971
757.281	0.0139183
757.359	0.0139691
757.437	0.0139504
757.515	0.0137439
757.593	0.0138175
757.671	0.0138899
757.749	0.0138280
757.828	0.0137292
757.906	0.0139732
757.984	0.0138259
758.062	0.0138977
758.140	0.0138528
758.218	0.0139752
758.296	0.0139139
758.374	0.0138449
758.453	0.0139409
758.531	0.0139893
758.609	0.0140019
758.687	0.0138051
758.765	0.0138483
758.843	0.0140157
758.921	0.0138432
758.999	0.0137389
759.078	0.0139052
759.156	0.0138171
759.234	0.0137766
759.312	0.0137118
759.390	0.0138358
759.468	0.0138650
759.546	0.0138278
759.624	0.0137831
759.703	0.0138732
759.781	0.0139208
759.859	0.0138688
759.937	0.0137363
760.015	0.0138208
760.093	0.0137509
760.171	0.0137946
760.249	0.0137424
760.328	0.0137051
760.406	0.0137052
760.484	0.0137997
760.562	0.0137323
760.640	0.0137082
760.718	0.0136685
760.796	0.0137219
760.874	0.0136275
760.953	0.0137482
761.031	0.0137215
761.109	0.0138680
761.187	0.0138903
761.265	0.0139697
761.343	0.0139301
761.421	0.0139893
761.499	0.0141117
761.578	0.0140358
761.656	0.0140539
761.734	0.0141518
761.812	0.0142362
761.890	0.0140088
761.968	0.0139279
762.046	0.0140658
762.124	0.0139339
762.203	0.0139658
762.281	0.0138712
762.359	0.0138866
762.437	0.0139388
762.515	0.0138728
762.593	0.0141223
762.671	0.0140561
762.749	0.0140402
762.828	0.0140388
762.906	0.0141324
762.984	0.0139840
763.062	0.0139872
763.140	0.0139797
763.218	0.0138642
763.296	0.0137671
763.374	0.0137823
763.453	0.0136940
763.531	0.0136964
763.609	0.0137070
763.687	0.0136066
763.765	0.0136651
763.843	0.0136761
763.921	0.0137907
763.999	0.0136875
764.078	0.0137695
764.156	0.0140095
764.234	0.0140190
764.312	0.0139526
764.390	0.0139540
764.468	0.0140257
764.546	0.0141630
764.624	0.0140649
764.703	0.0140048
764.781	0.0141671
764.859	0.0139575
764.937	0.0140433
765.015	0.0139215
765.093	0.0138497
765.171	0.0139791
765.249	0.0140431
765.328	0.0139349
765.406	0.0137729
765.484	0.0138036
765.562	0.0138628
765.640	0.0139203
765.718	0.0137585
765.796	0.0138365
765.874	0.0138948
765.953	0.0138559
766.031	0.0139375
766.109	0.0138178
766.187	0.0140501
766.265	0.0140285
766.343	0.0138536
766.421	0.0139033
766.499	0.0139040
766.578	0.0138063
766.656	0.0137604
766.734	0.0138219
766.812	0.0139457
766.890	0.0136604
766.968	0.0137783
767.046	0.0137895
767.124	0.0137080
767.203	0.0138364
767.281	0.0138233
767.359	0.0139043
767.437	0.0139860
767.515	0.0138990
767.593	0.0139307
767.671	0.0139046
767.749	0.0140268
767.828	0.0140394
767.906	0.0140690
767.984	0.0140176
768.062	0.0139000
768.140	0.0139671
768.218	0.0138588
768.296	0.0139553
768.374	0.0138766
768.453	0.0138774
768.531	0.0139104
768.609	0.0139252
768.687	0.0138022
768.765	0.0138557
768.843	0.0137553
768.921	0.0137670
768.999	0.0136787
769.078	0.0136454
769.156	0.0137152
769.234	0.0136461
769.312	0.0135735
769.390	0.0136749
769.468	0.0135502
769.546	0.0136353
769.624	0.0138571
769.703	0.0138026
769.781	0.0138400
769.859	0.0138964
769.937	0.0139925
770.015	0.0139339
770.093	0.0140211
770.171	0.0141029
770.249	0.0139336
770.328	0.0139962
770.406	0.0138850
770.484	0.0139223
770.562	0.0141194
770.640	0.0139770
770.718	0.0138965
770.796	0.0139306
770.874	0.0139647
770.953	0.0139034
771.031	0.0139641
771.109	0.0138434
771.187	0.0137128
771.265	0.0138324
771.343	0.0137593
771.421	0.0139387
771.499	0.0139465
771.578	0.0138052
771.656	0.0138345
771.734	0.0138058
771.812	0.0137402
771.890	0.0136732
771.968	0.0137811
772.046	0.0137242
772.124	0.0136137
772.203	0.0135959
772.281	0.0137065
772.359	0.0137936
772.437	0.0136803
772.515	0.0135164
772.593	0.0137799
772.671	0.0136359
772.749	0.0136904
772.828	0.0138270
772.906	0.0137782
772.984	0.0139833
773.062	0.0140199
773.140	0.0140309
773.218	0.0140111
773.296	0.0141496
773.374	0.0142809
773.453	0.0143472
773.531	0.0143062
773.609	0.0141434
773.687	0.0141734
773.765	0.0141257
773.843	0.0140350
773.921	0.0140573
773.999	0.0139944
774.078	0.0139957
774.156	0.0140014
774.234	0.0139369
774.312	0.0139130
774.390	0.0140257
774.468	0.0139241
774.546	0.0139873
774.624	0.0138626
774.703	0.0139687
774.781	0.0139429
774.859	0.0139291
774.937	0.0138890
775.015	0.0137688
775.093	0.0134771
775.171	0.0135513
775.249	0.0135112
775.328	0.0136021
775.406	0.0136349
775.484	0.0135262
775.562	0.0135160
775.640	0.0134376
775.718	0.0135378
775.796	0.0134805
775.874	0.0134924
775.953	0.0135542
776.031	0.0136448
776.109	0.0137695
776.187	0.0136606
776.265	0.0138136
776.343	0.0138607
776.421	0.0140496
776.499	0.0141041
776.578	0.0140131
776.656	0.0142180
776.734	0.0142587
776.812	0.0142168
776.890	0.0143274
776.968	0.0142514
777.046	0.0142245
777.124	0.0140857
777.203	0.0141806
777.281	0.0141199
777.359	0.0140739
777.437	0.0140558
777.515	0.0141115
777.593	0.0140630
777.671	0.0140680
777.749	0.0141139
777.828	0.0139314
777.906	0.0139803
777.984	0.0139722
778.062	0.0139941
778.140	0.0138896
778.218	0.0138486
778.296	0.0136829
778.374	0.0136442
778.453	0.0136554
778.531	0.0135469
778.609	0.0134721
778.687	0.0134688
778.765	0.0134577
778.843	0.0134003
778.921	0.0133834
778.999	0.0134138
779.078	0.0133607
779.156	0.0134149
779.234	0.0135974
779.312	0.0136393
779.390	0.0137260
779.468	0.0137258
779.546	0.0138264
779.624	0.0138565
779.703	0.0137987
779.781	0.0138735
779.859	0.0139803
779.937	0.0140948
780.015	0.0139828
780.093	0.0141656
780.171	0.0141600
780.249	0.0141022
780.328	0.0140996
780.406	0.0142088
780.484	0.0140897
780.562	0.0141827
780.640	0.0142789
780.718	0.0142764
780.796	0.0141527
780.874	0.0139754
780.953	0.0140201
781.031	0.0139573
781.109	0.0139408
781.187	0.0140095
781.265	0.0139457
781.343	0.0138390
781.421	0.0137053
781.499	0.0137971
781.578	0.0138286
781.656	0.0136839
781.734	0.0136614
781.812	0.0135571
781.890	0.0136243
781.968	0.0134888
782.046	0.0135774
782.124	0.0134399
782.203	0.0134515
782.281	0.0134362
782.359	0.0133748
782.437	0.0134113
782.515	0.0133849
782.593	0.0134953
782.671	0.0135374
782.749	0.0135986
782.828	0.0135756
782.906	0.0137057
782.984	0.0138259
783.062	0.0137108
783.140	0.0137888
783.218	0.0138943
783.296	0.0139569
783.374	0.0139204
783.453	0.0139814
783.531	0.0139995
783.609	0.0140327
783.687	0.0139537
783.765	0.0140221
783.843	0.0141338
783.921	0.0141783
783.999	0.0140985
784.078	0.0139666
784.156	0.0139481
784.234	0.0140555
784.312	0.0138858
784.390	0.0139317
784.468	0.0140257
784.546	0.0140708
784.624	0.0139977
784.703	0.0139172
784.781	0.0140362
784.859	0.0138454
784.937	0.0139663
785.015	0.0138528
785.093	0.0137965
785.171	0.0138237
785.249	0.0137229
785.328	0.0136961
785.406	0.0137508
785.484	0.0135832
785.562	0.0136620
785.640	0.0135503
785.718	0.0135682
785.796	0.0136068
785.874	0.0135046
785.953	0.0135928
786.031	0.0136671
786.109	0.0135507
786.187	0.0136979
786.265	0.0136905
786.343	0.0137456
786.421	0.0138834
786.499	0.0137696
786.578	0.0139857
786.656	0.0140292
786.734	0.0139737
786.812	0.0138361
786.890	0.0142091
786.968	0.0141064
787.046	0.0142699
787.124	0.0141468
787.203	0.0141972
787.281	0.0143951
787.359	0.0142117
787.437	0.0141442
787.515	0.0142089
787.593	0.0140490
787.671	0.0139980
787.749	0.0139894
787.828	0.0139809
787.906	0.0138465
787.984	0.0138956
788.062	0.0137994
788.140	0.0137949
788.218	0.0138081
788.296	0.0136661
788.374	0.0137893
788.453	0.0136455
788.531	0.0136945
788.609	0.0136657
788.687	0.0136552
788.765	0.0136896
788.843	0.0136772
788.921	0.0135814
788.999	0.0137674
789.078	0.0136148
789.156	0.0136427
789.234	0.0136665
789.312	0.0136646
789.390	0.0136905
789.468	0.0137503
789.546	0.0137572
789.624	0.0137947
789.703	0.0138359
789.781	0.0138706
789.859	0.0140716
789.937	0.0140159
790.015	0.0140343
790.093	0.0141402
790.171	0.0140137
790.249	0.0143147
790.328	0.0142574
790.406	0.0142385
790.484	0.0143173
790.562	0.0143263
790.640	0.0140833
790.718	0.0142182
790.796	0.0140137
790.874	0.0141180
790.953	0.0139161
791.031	0.0138853
791.109	0.0139143
791.187	0.0137813
791.265	0.0138827
791.343	0.0138297
791.421	0.0137093
791.499	0.0137879
791.578	0.0136977
791.656	0.0138486
791.734	0.0138270
791.812	0.0137574
791.890	0.0137646
791.968	0.0138195
792.046	0.0138667
792.124	0.0138218
792.203	0.0137037
792.281	0.0138429
792.359	0.0138573
792.437	0.0139063
792.515	0.0139404
792.593	0.0138783
792.671	0.0137464
792.749	0.0138457
792.828	0.0137399
792.906	0.0140255
792.984	0.0140380
793.062	0.0138885
793.140	0.0139114
793.218	0.0140520
793.296	0.0140094
793.374	0.0142202
793.453	0.0142039
793.531	0.0141438
793.609	0.0143072
793.687	0.0142709
793.765	0.0142188
793.843	0.0141301
793.921	0.0141728
793.999	0.0140886
794.078	0.0139877
794.156	0.0139580
794.234	0.0139075
794.312	0.0139559
794.390	0.0139198
794.468	0.0138691
794.546	0.0138914
794.624	0.0138095
794.703	0.0137814
794.781	0.0135906
794.859	0.0138911
794.937	0.0137360
795.015	0.0137521
795.093	0.0137594
795.171	0.0137753
795.249	0.0136422
795.328	0.0135151
795.406	0.0137535
795.484	0.0136802
795.562	0.0135229
795.640	0.0137370
795.718	0.0136916
795.796	0.0136912
795.874	0.0138062
795.953	0.0137596
796.031	0.0137196
796.109	0.0136825
796.187	0.0138914
796.265	0.0139694
796.343	0.0138023
796.421	0.0138449
796.499	0.0139276
796.578	0.0140063
796.656	0.0141014
796.734	0.0140078
796.812	0.0140768
796.890	0.0140137
796.968	0.0141604
797.046	0.0140737
797.124	0.0140049
797.203	0.0140402
797.281	0.0141402
797.359	0.0140501
797.437	0.0140016
797.515	0.0140922
797.593	0.0140836
797.671	0.0141136
797.749	0.0140974
797.828	0.0139679
797.906	0.0138590
797.984	0.0140102
798.062	0.0138094
798.140	0.0137756
798.218	0.0138255
798.296	0.0137469
798.374	0.0137312
798.453	0.0136526
798.531	0.0136301
798.609	0.0135509
798.687	0.0136050
798.765	0.0136093
798.843	0.0137495
798.921	0.0136343
798.999	0.0137113
799.078	0.0136542
799.156	0.0136585
799.234	0.0136572
799.312	0.0138205
799.390	0.0138810
799.468	0.0137065
799.546	0.0136847
799.624	0.0138009
799.703	0.0138783
799.781	0.0139521
799.859	0.0139320
799.937	0.0139178
800.015	0.0139618
800.093	0.0138768
800.171	0.0138653
800.249	0.0138487
800.328	0.0138918
800.406	0.0139040
800.484	0.0138384
800.562	0.0138802
800.640	0.0138415
800.718	0.0138052
800.796	0.0139136
800.874	0.0138997
800.953	0.0139771
801.031	0.0139971
801.109	0.0138230
801.187	0.0138337
801.265	0.0139771
801.343	0.0139309
801.421	0.0138490
801.499	0.0138474
801.578	0.0138852
801.656	0.0138223
801.734	0.0138565
801.812	0.0140318
801.890	0.0138371
801.968	0.0138171
802.046	0.0136795
802.124	0.0136508
802.203	0.0137009
802.281	0.0136772
802.359	0.0136777
802.437	0.0138136
802.515	0.0136153
802.593	0.0136493
802.671	0.0137523
802.749	0.0137765
802.828	0.0137312
802.906	0.0137032
802.984	0.0138116
803.062	0.0138535
803.140	0.0137121
803.218	0.0139153
803.296	0.0139587
803.374	0.0140000
803.453	0.0139248
803.531	0.0138567
803.609	0.0137347
803.687	0.0141544
803.765	0.0141044
803.843	0.0140363
803.921	0.0139716
803.999	0.0140825
804.078	0.0140964
804.156	0.0138544
804.234	0.0138293
804.312	0.0139815
804.390	0.0140101
804.468	0.0139912
804.546	0.0138404
804.624	0.0139133
804.703	0.0139384
804.781	0.0140416
804.859	0.0139984
804.937	0.0139155
805.015	0.0140445
805.093	0.0139385
805.171	0.0139819
805.249	0.0139552
805.328	0.0139052
805.406	0.0140105
805.484	0.0139381
805.562	0.0139137
805.640	0.0137546
805.718	0.0138859
805.796	0.0137250
805.874	0.0137673
805.953	0.0138408
806.031	0.0137526
806.109	0.0137515
806.187	0.0135911
806.265	0.0135153
806.343	0.0136864
806.421	0.0137112
806.499	0.0136327
806.578	0.0136913
806.656	0.0137514
806.734	0.0137525
806.812	0.0138639
806.890	0.0138483
806.968	0.0140309
807.046	0.0138862
807.124	0.0139404
807.203	0.0140013
807.281	0.0138492
807.359	0.0140431
807.437	0.0140759
807.515	0.0138781
807.593	0.0139621
807.671	0.0138650
807.749	0.0139668
807.828	0.0139970
807.906	0.0140794
807.984	0.0139353
808.062	0.0139217
808.140	0.0141325
808.218	0.0141415
808.296	0.0140701
808.374	0.0139737
808.453	0.0140881
808.531	0.0140732
808.609	0.0141824
808.687	0.0141104
808.765	0.0141457
808.843	0.0142342
808.921	0.0141875
808.999	0.0140303
809.078	0.0140698
809.156	0.0140153
809.234	0.0140321
809.312	0.0140178
809.390	0.0140820
809.468	0.0138082
809.546	0.0138282
809.624	0.0138239
809.703	0.0138804
809.781	0.0138601
809.859	0.0137738
809.937	0.0138319
810.015	0.0139597
810.093	0.0138052
810.171	0.0137376
810.249	0.0136916
810.328	0.0137099
810.406	0.0137479
810.484	0.0138030
810.562	0.0138314
810.640	0.0138638
810.718	0.0138519
810.796	0.0139937
810.874	0.0139019
810.953	0.0139275
811.031	0.0139622
811.109	0.0139232
811.187	0.0139828
811.265	0.0139914
811.343	0.0138932
811.421	0.0138460
811.499	0.0139963
811.578	0.0138830
811.656	0.0139331
811.734	0.0138335
811.812	0.0139204
811.890	0.0139303
811.968	0.0139220
812.046	0.0140005
812.124	0.0139236
812.203	0.0140433
812.281	0.0140002
812.359	0.0139162
812.437	0.0141105
812.515	0.0140970
812.593	0.0140838
812.671	0.0140380
812.749	0.0139802
812.828	0.0140475
812.906	0.0140646
812.984	0.0141042
813.062	0.0140517
813.140	0.0140943
813.218	0.0139793
813.296	0.0140044
813.374	0.0139869
813.453	0.0138547
813.531	0.0139790
813.609	0.0139203
813.687	0.0137991
813.765	0.0139072
813.843	0.0136658
813.921	0.0137918
813.999	0.0139099
814.078	0.0137399
814.156	0.0138454
814.234	0.0138087
814.312	0.0139644
814.390	0.0138280
814.468	0.0139126
814.546	0.0138312
814.624	0.0138446
814.703	0.0138716
814.781	0.0138857
814.859	0.0138228
814.937	0.0138044
815.015	0.0138668
815.093	0.0139164
815.171	0.0138354
815.249	0.0137530
815.328	0.0137822
815.406	0.0138541
815.484	0.0138081
815.562	0.0139585
815.640	0.0139415
815.718	0.0139184
815.796	0.0139290
815.874	0.0139875
815.953	0.0139091
816.031	0.0139648
816.109	0.0138951
816.187	0.0140369
816.265	0.0139812
816.343	0.0140485
816.421	0.0140868
816.499	0.0140273
816.578	0.0139416
816.656	0.0140101
816.734	0.0140678
816.812	0.0140594
816.890	0.0141042
816.968	0.0139500
817.046	0.0138355
817.124	0.0140779
817.203	0.0140750
817.281	0.0139471
817.359	0.0139631
817.437	0.0139635
817.515	0.0139395
817.593	0.0140086
817.671	0.0139887
817.749	0.0139061
817.828	0.0139073
817.906	0.0139306
817.984	0.0138643
818.062	0.0138417
818.140	0.0138445
818.218	0.0138653
818.296	0.0139101
818.374	0.0138932
818.453	0.0138467
818.531	0.0137788
818.609	0.0138263
818.687	0.0138560
818.765	0.0139203
818.843	0.0138701
818.921	0.0138271
818.999	0.0138845
819.078	0.0139169
819.156	0.0137797
819.234	0.0138437
819.312	0.0138142
819.390	0.0138675
819.468	0.0138672
819.546	0.0138972
819.624	0.0139288
819.703	0.0139362
819.781	0.0141506
819.859	0.0141536
819.937	0.0140723
820.015	0.0139614
820.093	0.0140575
820.171	0.0141181
820.249	0.0139696
820.328	0.0139950
820.406	0.0139859
820.484	0.0139984
820.562	0.0139832
820.640	0.0139390
820.718	0.0139828
820.796	0.0139349
820.874	0.0138667
820.953	0.0138000
821.031	0.0139391
821.109	0.0139627
821.187	0.0138990
821.265	0.0138667
821.343	0.0139791
821.421	0.0139395
821.499	0.0139079
821.578	0.0138158
821.656	0.0138037
821.734	0.0138261
821.812	0.0137310
821.890	0.0137597
821.968	0.0137765
822.046	0.0137672
822.124	0.0137228
822.203	0.0138058
822.281	0.0137599
822.359	0.0138079
822.437	0.0137188
822.515	0.0137612
822.593	0.0139340
822.671	0.0140314
822.749	0.0138457
822.828	0.0137975
822.906	0.0139592
822.984	0.0140392
823.062	0.0138933
823.140	0.0140106
823.218	0.0140680
823.296	0.0140357
823.374	0.0140848
823.453	0.0141251
823.531	0.0140858
823.609	0.0141829
823.687	0.0140039
823.765	0.0140926
823.843	0.0141151
823.921	0.0141164
823.999	0.0141367
824.078	0.0139024
824.156	0.0139516
824.234	0.0138519
824.312	0.0138500
824.390	0.0138522
824.468	0.0139253
824.546	0.0138509
824.624	0.0138280
824.703	0.0138740
824.781	0.0139423
824.859	0.0138447
824.937	0.0138551
825.015	0.0138158
825.093	0.0138246
825.171	0.0138433
825.249	0.0139297
825.328	0.0138724
825.406	0.0137483
825.484	0.0137350
825.562	0.0138889
825.640	0.0138734
825.718	0.0137951
825.796	0.0138159
825.874	0.0137939
825.953	0.0138152
826.031	0.0138462
826.109	0.0137811
826.187	0.0137672
826.265	0.0138680
826.343	0.0139434
826.421	0.0138058
826.499	0.0139137
826.578	0.0139379
826.656	0.0140600
826.734	0.0139638
826.812	0.0139782
826.890	0.0140078
826.968	0.0140453
827.046	0.0140530
827.124	0.0140096
827.203	0.0140143
827.281	0.0138264
827.359	0.0140578
827.437	0.0139948
827.515	0.0138840
827.593	0.0139294
827.671	0.0140114
827.749	0.0139572
827.828	0.0141272
827.906	0.0139943
827.984	0.0139301
828.062	0.0138114
828.140	0.0138631
828.218	0.0139798
828.296	0.0140129
828.374	0.0139980
828.453	0.0140011
828.531	0.0140635
828.609	0.0139738
828.687	0.0139718
828.765	0.0139588
828.843	0.0138702
828.921	0.0139902
828.999	0.0139261
829.078	0.0140949
829.156	0.0139455
829.234	0.0138715
829.312	0.0138663
829.390	0.0138244
829.468	0.0139301
829.546	0.0138256
829.624	0.0139120
829.703	0.0138837
829.781	0.0139081
829.859	0.0138506
829.937	0.0138166
830.015	0.0138686
830.093	0.0139725
830.171	0.0137923
830.249	0.0138450
830.328	0.0139153
830.406	0.0138990
830.484	0.0139513
830.562	0.0139910
830.640	0.0139256
830.718	0.0139597
830.796	0.0139965
830.874	0.0138495
830.953	0.0138845
831.031	0.0139855
831.109	0.0139536
831.187	0.0139059
831.265	0.0140704
831.343	0.0139301
831.421	0.0139437
831.499	0.0140741
831.578	0.0138664
831.656	0.0140586
831.734	0.0141781
831.812	0.0140811
831.890	0.0138867
831.968	0.0138811
832.046	0.0139758
832.124	0.0138174
832.203	0.0139168
832.281	0.0139981
832.359	0.0139921
832.437	0.0139895
832.515	0.0138537
832.593	0.0138403
832.671	0.0137663
832.749	0.0140059
832.828	0.0139702
832.906	0.0138936
832.984	0.0139948
833.062	0.0139458
833.140	0.0139256
833.218	0.0139545
833.296	0.0138989
833.374	0.0139847
833.453	0.0139111
833.531	0.0138010
833.609	0.0138070
833.687	0.0138544
833.765	0.0137866
833.843	0.0138367
833.921	0.0137373
833.999	0.0137598
834.078	0.0137220
834.156	0.0137737
834.234	0.0137229
834.312	0.0138832
834.390	0.0138867
834.468	0.0139352
834.546	0.0138998
834.624	0.0138843
834.703	0.0139233
834.781	0.0138905
834.859	0.0139245
834.937	0.0139787
835.015	0.0140295
835.093	0.0138934
835.171	0.0140703
835.249	0.0140853
835.328	0.0139537
835.406	0.0140430
835.484	0.0138828
835.562	0.0140404
835.640	0.0139008
835.718	0.0138982
835.796	0.0141138
835.874	0.0140559
835.953	0.0139520
836.031	0.0140317
836.109	0.0140563
836.187	0.0140998
836.265	0.0140328
836.343	0.0138370
836.421	0.0140225
836.499	0.0139081
836.578	0.0139106
836.656	0.0139582
836.734	0.0138943
836.812	0.0138769
836.890	0.0137774
836.968	0.0139089
837.046	0.0138876
837.124	0.0138212
837.203	0.0137801
837.281	0.0136540
837.359	0.0136884
837.437	0.0138998
837.515	0.0137442
837.593	0.0138582
837.671	0.0137612
837.749	0.0136368
837.828	0.0139519
837.906	0.0139254
837.984	0.0140159
838.062	0.0138096
838.140	0.0138696
838.218	0.0139402
838.296	0.0139459
838.374	0.0138856
838.453	0.0140462
838.531	0.0138683
838.609	0.0138936
838.687	0.0139150
838.765	0.0139442
838.843	0.0141517
838.921	0.0139975
838.999	0.0138911
839.078	0.0139478
839.156	0.0140022
839.234	0.0139278
839.312	0.0140579
839.390	0.0138417
839.468	0.0138936
839.546	0.0139332
839.624	0.0138503
839.703	0.0138716
839.781	0.0138810
839.859	0.0140939
839.937	0.0138060
840.015	0.0137343
840.093	0.0137667
840.171	0.0137642
840.249	0.0138103
840.328	0.0138528
840.406	0.0137135
840.484	0.0137574
840.562	0.0138248
840.640	0.0137686
840.718	0.0138342
840.796	0.0138301
840.874	0.0137889
840.953	0.0138283
841.031	0.0139142
841.109	0.0138538
841.187	0.0138148
841.265	0.0138067
841.343	0.0137921
841.421	0.0138396
841.499	0.0140402
841.578	0.0139249
841.656	0.0138937
841.734	0.0137905
841.812	0.0137770
841.890	0.0137966
841.968	0.0139430
842.046	0.0137807
842.124	0.0138051
842.203	0.0138235
842.281	0.0137746
842.359	0.0137685
842.437	0.0139414
842.515	0.0139568
842.593	0.0139375
842.671	0.0139669
842.749	0.0139045
842.828	0.0139057
842.906	0.0138773
842.984	0.0138559
843.062	0.0139684
843.140	0.0139597
843.218	0.0139258
843.296	0.0138715
843.374	0.0139312
843.453	0.0139068
843.531	0.0139487
843.609	0.0138745
843.687	0.0138600
843.765	0.0140282
843.843	0.0139223
843.921	0.0139983
843.999	0.0139552
844.078	0.0139292
844.156	0.0140498
844.234	0.0137632
844.312	0.0138948
844.390	0.0138795
844.468	0.0139256
844.546	0.0139909
844.624	0.0140109
844.703	0.0139162
844.781	0.0137436
844.859	0.0138616
844.937	0.0138171
845.015	0.0138536
845.093	0.0138345
845.171	0.0139854
845.249	0.0138217
845.328	0.0139632
845.406	0.0138327
845.484	0.0138042
845.562	0.0137435
845.640	0.0138052
845.718	0.0139660
845.796	0.0139246
845.874	0.0138779
845.953	0.0139968
846.031	0.0138980
846.109	0.0139307
846.187	0.0139812
846.265	0.0138706
846.343	0.0139565
846.421	0.0140015
846.499	0.0140463
846.578	0.0140041
846.656	0.0139625
846.734	0.0140022
846.812	0.0138004
846.890	0.0137669
846.968	0.0139161
847.046	0.0138270
847.124	0.0137626
847.203	0.0137290
847.281	0.0139145
847.359	0.0138409
847.437	0.0138695
847.515	0.0136879
847.593	0.0138187
847.671	0.0138083
847.749	0.0137248
847.828	0.0136466
847.906	0.0138337
847.984	0.0139209
848.062	0.0137060
848.140	0.0138811
848.218	0.0138262
848.296	0.0136264
848.374	0.0136663
848.453	0.0136517
848.531	0.0136829
848.609	0.0137873
848.687	0.0138481
848.765	0.0139156
848.843	0.0138429
848.921	0.0137742
848.999	0.0137650
849.078	0.0140066
849.156	0.0137769
849.234	0.0138349
849.312	0.0139021
849.390	0.0139937
849.468	0.0139698
849.546	0.0138764
849.624	0.0138496
849.703	0.0139287
849.781	0.0140452
849.859	0.0138640
849.937	0.0139735
850.015	0.0140067
850.093	0.0139402
850.171	0.0138861
850.249	0.0137829
850.328	0.0138039
850.406	0.0138413
850.484	0.0138610
850.562	0.0137540
850.640	0.0139513
850.718	0.0138779
850.796	0.0139120
850.874	0.0138352
850.953	0.0139056
851.031	0.0137984
851.109	0.0139561
851.187	0.0137894
851.265	0.0137304
851.343	0.0137600
851.421	0.0138752
851.499	0.0138217
851.578	0.0139543
851.656	0.0136803
851.734	0.0138156
851.812	0.0138229
851.890	0.0137469
851.968	0.0137385
852.046	0.0138412
852.124	0.0138174
852.203	0.0137772
852.281	0.0138439
852.359	0.0139023
852.437	0.0138866
852.515	0.0139696
852.593	0.0140248
852.671	0.0138615
852.749	0.0139124
852.828	0.0140112
852.906	0.0139534
852.984	0.0138804
853.062	0.0138626
853.140	0.0138693
853.218	0.0138829
853.296	0.0139785
853.374	0.0139423
853.453	0.0138945
853.531	0.0138196
853.609	0.0139359
853.687	0.0139783
853.765	0.0137734
853.843	0.0138315
853.921	0.0139468
853.999	0.0138304
854.078	0.0138023
854.156	0.0139446
854.234	0.0138081
854.312	0.0138124
854.390	0.0137648
854.468	0.0138103
854.546	0.0136607
854.624	0.0137930
854.703	0.0136804
854.781	0.0137909
854.859	0.0138745
854.937	0.0138271
855.015	0.0137448
855.093	0.0138812
855.171	0.0138093
855.249	0.0137624
855.328	0.0138702
855.406	0.0139212
855.484	0.0138589
855.562	0.0137808
855.640	0.0138538
855.718	0.0139389
855.796	0.0140327
855.874	0.0138689
855.953	0.0137753
856.031	0.0138693
856.109	0.0137926
856.187	0.0139793
856.265	0.0139019
856.343	0.0139874
856.421	0.0140247
856.499	0.0139891
856.578	0.0139530
856.656	0.0140947
856.734	0.0140031
856.812	0.0140395
856.890	0.0139889
856.968	0.0138294
857.046	0.0139392
857.124	0.0139408
857.203	0.0139843
857.281	0.0138477
857.359	0.0137849
857.437	0.0138580
857.515	0.0138481
857.593	0.0137966
857.671	0.0139072
857.749	0.0138275
857.828	0.0138145
857.906	0.0137692
857.984	0.0138147
858.062	0.0137658
858.140	0.0139112
858.218	0.0138926
858.296	0.0139208
858.374	0.0138033
858.453	0.0138702
858.531	0.0140384
858.609	0.0137941
858.687	0.0140116
858.765	0.0138733
858.843	0.0138593
858.921	0.0140386
858.999	0.0139375
859.078	0.0139393
859.156	0.0140630
859.234	0.0138259
859.312	0.0139799
859.390	0.0139875
859.468	0.0140709
859.546	0.0139545
859.624	0.0138688
859.703	0.0138780
859.781	0.0139502
859.859	0.0139207
859.937	0.0139220
860.015	0.0137617
860.093	0.0137270
860.171	0.0137714
860.249	0.0136752
860.328	0.0137201
860.406	0.0137215
860.484	0.0138636
860.562	0.0137974
860.640	0.0137734
860.718	0.0138482
860.796	0.0137997
860.874	0.0137631
860.953	0.0136604
861.031	0.0137140
861.109	0.0137177
861.187	0.0138173
861.265	0.0139946
861.343	0.0137915
861.421	0.0138423
861.499	0.0139201
861.578	0.0138860
861.656	0.0137487
861.734	0.0137206
861.812	0.0138688
861.890	0.0138959
861.968	0.0137305
862.046	0.0137093
862.124	0.0138387
862.203	0.0137983
862.281	0.0137521
862.359	0.0137886
862.437	0.0138750
862.515	0.0136360
862.593	0.0138788
862.671	0.0138259
862.749	0.0138921
862.828	0.0138033
862.906	0.0138023
862.984	0.0137853
863.062	0.0138335
863.140	0.0138806
863.218	0.0139433
863.296	0.0139018
863.374	0.0137346
863.453	0.0138504
863.531	0.0139422
863.609	0.0138277
863.687	0.0137936
863.765	0.0138415
863.843	0.0137583
863.921	0.0139864
863.999	0.0137144
864.078	0.0137653
864.156	0.0137565
864.234	0.0135918
864.312	0.0137949
864.390	0.0137741
864.468	0.0136951
864.546	0.0136388
864.624	0.0137584
864.703	0.0136784
864.781	0.0137539
864.859	0.0137690
864.937	0.0138184
865.015	0.0138322
865.093	0.0137975
865.171	0.0139016
865.249	0.0138539
865.328	0.0138524
865.406	0.0139697
865.484	0.0139966
865.562	0.0137442
865.640	0.0139629
865.718	0.0139379
865.796	0.0140343
865.874	0.0139197
865.953	0.0139651
866.031	0.0138779
866.109	0.0139362
866.187	0.0139395
866.265	0.0138699
866.343	0.0139995
866.421	0.0138680
866.499	0.0138068
866.578	0.0139427
866.656	0.0138220
866.734	0.0138982
866.812	0.0139056
866.890	0.0138366
866.968	0.0137231
867.046	0.0138171
867.124	0.0137392
867.203	0.0137882
867.281	0.0136082
867.359	0.0138030
867.437	0.0137460
867.515	0.0136412
867.593	0.0136806
867.671	0.0138062
867.749	0.0137216
867.828	0.0137445
867.906	0.0139149
867.984	0.0137666
868.062	0.0138291
868.140	0.0138486
868.218	0.0138280
868.296	0.0140098
868.374	0.0137783
868.453	0.0137906
868.531	0.0138494
868.609	0.0138525
868.687	0.0137914
868.765	0.0138432
868.843	0.0138268
868.921	0.0138276
868.999	0.0138108
869.078	0.0138275
869.156	0.0140024
869.234	0.0140985
869.312	0.0140648
869.390	0.0138237
869.468	0.0139396
869.546	0.0138824
869.624	0.0141193
869.703	0.0138670
869.781	0.0139088
869.859	0.0139149
869.937	0.0139394
870.015	0.0138575
870.093	0.0139095
870.171	0.0139082
870.249	0.0139832
870.328	0.0137971
870.406	0.0139169
870.484	0.0138239
870.562	0.0138705
870.640	0.0138403
870.718	0.0139402
870.796	0.0139893
870.874	0.0139003
870.953	0.0138609
871.031	0.0139066
871.109	0.0140514
871.187	0.0137396
871.265	0.0137897
871.343	0.0139569
871.421	0.0138065
871.499	0.0138216
871.578	0.0139493
871.656	0.0137564
871.734	0.0137509
871.812	0.0137672
871.890	0.0137495
871.968	0.0138110
872.046	0.0137910
872.124	0.0138021
872.203	0.0137271
872.281	0.0136361
872.359	0.0137801
872.437	0.0137029
872.515	0.0136765
872.593	0.0139053
872.671	0.0137051
872.749	0.0137787
872.828	0.0136603
872.906	0.0138298
872.984	0.0138619
873.062	0.0138279
873.140	0.0139258
873.218	0.0138202
873.296	0.0138253
873.374	0.0138451
873.453	0.0139236
873.531	0.0138184
873.609	0.0138649
873.687	0.0137968
873.765	0.0138644
873.843	0.0137756
873.921	0.0139050
873.999	0.0139512
874.078	0.0140103
874.156	0.0138998
874.234	0.0139066
874.312	0.0139261
874.390	0.0139362
874.468	0.0138654
874.546	0.0139162
874.624	0.0138444
874.703	0.0138474
874.781	0.0139556
874.859	0.0138780
874.937	0.0138253
875.015	0.0139140
875.093	0.0138173
875.171	0.0136877
875.249	0.0138020
875.328	0.0138589
875.406	0.0136897
875.484	0.0137791
875.562	0.0138473
875.640	0.0137278
875.718	0.0137776
875.796	0.0139495
875.874	0.0137038
875.953	0.0137411
876.031	0.0138146
876.109	0.0138023
876.187	0.0138785
876.265	0.0137912
876.343	0.0138255
876.421	0.0139022
876.499	0.0138610
876.578	0.0138113
876.656	0.0138226
876.734	0.0137763
876.812	0.0137334
876.890	0.0137980
876.968	0.0137511
877.046	0.0138841
877.124	0.0138850
877.203	0.0138548
877.281	0.0139016
877.359	0.0139579
877.437	0.0138768
877.515	0.0139459
877.593	0.0137587
877.671	0.0138031
877.749	0.0139712
877.828	0.0139944
877.906	0.0140372
877.984	0.0137569
878.062	0.0138921
878.140	0.0137646
878.218	0.0138530
878.296	0.0138469
878.374	0.0137646
878.453	0.0136928
878.531	0.0137082
878.609	0.0138582
878.687	0.0137009
878.765	0.0138472
878.843	0.0136618
878.921	0.0138396
878.999	0.0139803
879.078	0.0139668
879.156	0.0139208
879.234	0.0139541
879.312	0.0140623
879.390	0.0138845
879.468	0.0139773
879.546	0.0140402
879.624	0.0138680
879.703	0.0139484
879.781	0.0138752
879.859	0.0139433
879.937	0.0137993
880.015	0.0137238
880.093	0.0137135
880.171	0.0137215
880.249	0.0138728
880.328	0.0137820
880.406	0.0137583
880.484	0.0137444
880.562	0.0137504
880.640	0.0137576
880.718	0.0137623
880.796	0.0138111
880.874	0.0139322
880.953	0.0139476
881.031	0.0140179
881.109	0.0139388
881.187	0.0140076
881.265	0.0138640
881.343	0.0140604
881.421	0.0140051
881.499	0.0141985
881.578	0.0140837
881.656	0.0140426
881.734	0.0140604
881.812	0.0140255
881.890	0.0140184
881.968	0.0140549
882.046	0.0141034
882.124	0.0139362
882.203	0.0141389
882.281	0.0138499
882.359	0.0137572
882.437	0.0138130
882.515	0.0138201
882.593	0.0138925
882.671	0.0138338
882.749	0.0137346
882.828	0.0136730
882.906	0.0137862
882.984	0.0138139
883.062	0.0136458
883.140	0.0137146
883.218	0.0137330
883.296	0.0136826
883.374	0.0136135
883.453	0.0136248
883.531	0.0137281
883.609	0.0137405
883.687	0.0138029
883.765	0.0136591
883.843	0.0136452
883.921	0.0138261
883.999	0.0138374
884.078	0.0139301
884.156	0.0139133
884.234	0.0139581
884.312	0.0139149
884.390	0.0140235
884.468	0.0140184
884.546	0.0140632
884.624	0.0140440
884.703	0.0140231
884.781	0.0141071
884.859	0.0141744
884.937	0.0141468
885.015	0.0141294
885.093	0.0140521
885.171	0.0139088
885.249	0.0139551
885.328	0.0139471
885.406	0.0141285
885.484	0.0139019
885.562	0.0139754
885.640	0.0139354
885.718	0.0138830
885.796	0.0139377
885.874	0.0136476
885.953	0.0137901
886.031	0.0136794
886.109	0.0137064
886.187	0.0137262
886.265	0.0136265
886.343	0.0136656
886.421	0.0137045
886.499	0.0136429
886.578	0.0137188
886.656	0.0137488
886.734	0.0137060
886.812	0.0137725
886.890	0.0137155
886.968	0.0138205
887.046	0.0139178
887.124	0.0138213
887.203	0.0138698
887.281	0.0139316
887.359	0.0140672
887.437	0.0138072
887.515	0.0139264
887.593	0.0140469
887.671	0.0140347
887.749	0.0140424
887.828	0.0139868
887.906	0.0140104
887.984	0.0140952
888.062	0.0141817
888.140	0.0141028
888.218	0.0142226
888.296	0.0141699
888.374	0.0141557
888.453	0.0141787
888.531	0.0141039
888.609	0.0141396
888.687	0.0141662
888.765	0.0139635
888.843	0.0139544
888.921	0.0138995
888.999	0.0139175
889.078	0.0138396
889.156	0.0140207
889.234	0.0137685
889.312	0.0138282
889.390	0.0137872
889.468	0.0138438
889.546	0.0137230
889.624	0.0136630
889.703	0.0137843
889.781	0.0136684
889.859	0.0136495
889.937	0.0138016
890.015	0.0136461
890.093	0.0138623
890.171	0.0139659
890.249	0.0136445
890.328	0.0136877
890.406	0.0137630
890.484	0.0138273
890.562	0.0138766
890.640	0.0138896
890.718	0.0138273
890.796	0.0137444
890.874	0.0135775
890.953	0.0137729
891.031	0.0137872
891.109	0.0136049
891.187	0.0137114
891.265	0.0138718
891.343	0.0137547
891.421	0.0139396
891.499	0.0139381
891.578	0.0139831
891.656	0.0141197
891.734	0.0139849
891.812	0.0141394
891.890	0.0141003
891.968	0.0141125
892.046	0.0141154
892.124	0.0141528
892.203	0.0142391
892.281	0.0141091
892.359	0.0140557
892.437	0.0141621
892.515	0.0140968
892.593	0.0139720
892.671	0.0139200
892.749	0.0139678
892.828	0.0139127
892.906	0.0137943
892.984	0.0138786
893.062	0.0137236
893.140	0.0135915
893.218	0.0136652
893.296	0.0136993
893.374	0.0136022
893.453	0.0136823
893.531	0.0136037
893.609	0.0136090
893.687	0.0137724
893.765	0.0137132
893.843	0.0136869
893.921	0.0137358
893.999	0.0137994
894.078	0.0137650
894.156	0.0138280
894.234	0.0139549
894.312	0.0137889
894.390	0.0137971
894.468	0.0138220
894.546	0.0137632
894.624	0.0138579
894.703	0.0138165
894.781	0.0138276
894.859	0.0137780
894.937	0.0140351
895.015	0.0138953
895.093	0.0141029
895.171	0.0140569
895.249	0.0139955
895.328	0.0140413
895.406	0.0140842
895.484	0.0140190
895.562	0.0140094
895.640	0.0141450
895.718	0.0140061
895.796	0.0140306
895.874	0.0140808
895.953	0.0140391
896.031	0.0139934
896.109	0.0139047
896.187	0.0139089
896.265	0.0139506
896.343	0.0140524
896.421	0.0139526
896.499	0.0140218
896.578	0.0138940
896.656	0.0138202
896.734	0.0138492
896.812	0.0138965
896.890	0.0138708
896.968	0.0139959
897.046	0.0137749
897.124	0.0137804
897.203	0.0139454
897.281	0.0137527
897.359	0.0138302
897.437	0.0138546
897.515	0.0138477
897.593	0.0137867
897.671	0.0137883
897.749	0.0137251
897.828	0.0138080
897.906	0.0138046
897.984	0.0137919
898.062	0.0139066
898.140	0.0138236
898.218	0.0138061
898.296	0.0138663
898.374	0.0136859
898.453	0.0138207
898.531	0.0138083
898.609	0.0138955
898.687	0.0137346
898.765	0.0139040
898.843	0.0139169
898.921	0.0139796
898.999	0.0140163
899.078	0.0139424
899.156	0.0140385
899.234	0.0140092
899.312	0.0141343
899.390	0.0140381
899.468	0.0142088
899.546	0.0140984
899.624	0.0141079
899.703	0.0141180
899.781	0.0141541
899.859	0.0141475
899.937	0.0139512
900.015	0.0140211
900.093	0.0139775
900.171	0.0139036
900.249	0.0139210
900.328	0.0139919
900.406	0.0138651
900.484	0.0138058
900.562	0.0138715
900.640	0.0138201
900.718	0.0138738
900.796	0.0137776
900.874	0.0137679
900.953	0.0138035
901.031	0.0137895
901.109	0.0136398
901.187	0.0137537
901.265	0.0136475
901.343	0.0138243
901.421	0.0138679
901.499	0.0137302
901.578	0.0137747
901.656	0.0138009
901.734	0.0137637
901.812	0.0139074
901.890	0.0138006
901.968	0.0137615
902.046	0.0139257
902.124	0.0137917
902.203	0.0138509
902.281	0.0137874
902.359	0.0138075
902.437	0.0138206
902.515	0.0139311
902.593	0.0140276
902.671	0.0140916
902.749	0.0141057
902.828	0.0140311
902.906	0.0140857
902.984	0.0140878
903.062	0.0140307
903.140	0.0141122
903.218	0.0140625
903.296	0.0140731
903.374	0.0141405
903.453	0.0141451
903.531	0.0141301
903.609	0.0141121
903.687	0.0140515
903.765	0.0140527
903.843	0.0140664
903.921	0.0138696
903.999	0.0138924
904.078	0.0138746
904.156	0.0139417
904.234	0.0137735
904.312	0.0138361
904.390	0.0137866
904.468	0.0137821
904.546	0.0137840
904.624	0.0138573
904.703	0.0136916
904.781	0.0137805
904.859	0.0137634
904.937	0.0136919
905.015	0.0139046
905.093	0.0138693
905.171	0.0138265
905.249	0.0136820
905.328	0.0139920
905.406	0.0139510
905.484	0.0138616
905.562	0.0138452
905.640	0.0137298
905.718	0.0139598
905.796	0.0138377
905.874	0.0138683
905.953	0.0139002
906.031	0.0139425
906.109	0.0137543
906.187	0.0138209
906.265	0.0140198
906.343	0.0138849
906.421	0.0140235
906.499	0.0138873
906.578	0.0139843
906.656	0.0140855
906.734	0.0139411
906.812	0.0140405
906.890	0.0139967
906.968	0.0140833
907.046	0.0141972
907.124	0.0142134
907.203	0.0139667
907.281	0.0139571
907.359	0.0139279
907.437	0.0139199
907.515	0.0138521
907.593	0.0138005
907.671	0.0140078
907.749	0.0138564
907.828	0.0137818
907.906	0.0138895
907.984	0.0138046
908.062	0.0138201
908.140	0.0137727
908.218	0.0136691
908.296	0.0138376
908.374	0.0138168
908.453	0.0137383
908.531	0.0138014
908.609	0.0137757
908.687	0.0138593
908.765	0.0139105
908.843	0.0138917
908.921	0.0137395
908.999	0.0137637
909.078	0.0138474
909.156	0.0137226
909.234	0.0137239
909.312	0.0139326
909.390	0.0139142
909.468	0.0139295
909.546	0.0139077
909.624	0.0138995
909.703	0.0139007
909.781	0.0140289
909.859	0.0140459
909.937	0.0138820
910.015	0.0140714
910.093	0.0141156
910.171	0.0138289
910.249	0.0138905
910.328	0.0138956
910.406	0.0139966
910.484	0.0140414
910.562	0.0138766
910.640	0.0139056
910.718	0.0139518
910.796	0.0140399
910.874	0.0139989
910.953	0.0140604
911.031	0.0138679
911.109	0.0138435
911.187	0.0138087
911.265	0.0139256
911.343	0.0137571
911.421	0.0137892
911.499	0.0137429
911.578	0.0138574
911.656	0.0138855
911.734	0.0138726
911.812	0.0137203
911.890	0.0136143
911.968	0.0136935
912.046	0.0137421
912.124	0.0136696
912.203	0.0137769
912.281	0.0139026
912.359	0.0138927
912.437	0.0139513
912.515	0.0139409
912.593	0.0139721
912.671	0.0140483
912.749	0.0139944
912.828	0.0139212
912.906	0.0140342
912.984	0.0140913
913.062	0.0139471
913.140	0.0140067
913.218	0.0139299
913.296	0.0142009
913.374	0.0140767
913.453	0.0139452
913.531	0.0140632
913.609	0.0138748
913.687	0.0139943
913.765	0.0139509
913.843	0.0139813
913.921	0.0138985
913.999	0.0139298
914.078	0.0140176
914.156	0.0140475
914.234	0.0140536
914.312	0.0138760
914.390	0.0138924
914.468	0.0139577
914.546	0.0140386
914.624	0.0138664
914.703	0.0138972
914.781	0.0138638
914.859	0.0138934
914.937	0.0139026
915.015	0.0138821
915.093	0.0137803
915.171	0.0139223
915.249	0.0137611
915.328	0.0137851
915.406	0.0139021
915.484	0.0138695
915.562	0.0138503
915.640	0.0138248
915.718	0.0139809
915.796	0.0139523
915.874	0.0139432
915.953	0.0139531
916.031	0.0138912
916.109	0.0139773
916.187	0.0139196
916.265	0.0139439
916.343	0.0139259
916.421	0.0139722
916.499	0.0139224
916.578	0.0138947
916.656	0.0139852
916.734	0.0139720
916.812	0.0139740
916.890	0.0139871
916.968	0.0140641
917.046	0.0139227
917.124	0.0139529
917.203	0.0140082
917.281	0.0139935
917.359	0.0141315
917.437	0.0139588
917.515	0.0140829
917.593	0.0140383
917.671	0.0139682
917.749	0.0139516
917.828	0.0138949
917.906	0.0139245
917.984	0.0139065
918.062	0.0139886
918.140	0.0138700
918.218	0.0139391
918.296	0.0139607
918.374	0.0140074
918.453	0.0138731
918.531	0.0138889
918.609	0.0138911
918.687	0.0138034
918.765	0.0138855
918.843	0.0140324
918.921	0.0139334
918.999	0.0140594
919.078	0.0139638
919.156	0.0139728
919.234	0.0140598
919.312	0.0139235
919.390	0.0139173
919.468	0.0138450
919.546	0.0138832
919.624	0.0139705
919.703	0.0139326
919.781	0.0138322
919.859	0.0138584
919.937	0.0140138
