05/06/2022	18:48:24	Ver.	4.1	UNKNOWN
Optical Delay	600.015094	Delta X		0.078125	Sweeps	1	Scan Rate	0/0
Coordinates	Axis 1	NaN	Axis 2	NaN	Axis 3	NaN	Axis 4	NaN	Axis 5	NaN	Axis 6	0.000000
TX Power	0.000000	RX Power	0.000000

600.015	0.0134634
600.093	0.0134682
600.171	0.0135636
600.249	0.0134452
600.328	0.0134289
600.406	0.0134704
600.484	0.0135519
600.562	0.0135240
600.640	0.0134292
600.718	0.0133276
600.796	0.0133533
600.874	0.0135861
600.953	0.0134824
601.031	0.0133607
601.109	0.0135490
601.187	0.0135289
601.265	0.0134262
601.343	0.0134944
601.421	0.0135156
601.499	0.0134705
601.578	0.0135056
601.656	0.0136018
601.734	0.0133944
601.812	0.0134235
601.890	0.0134306
601.968	0.0134379
602.046	0.0136049
602.124	0.0135402
602.203	0.0134377
602.281	0.0136028
602.359	0.0135158
602.437	0.0134518
602.515	0.0134454
602.593	0.0134064
602.671	0.0133420
602.749	0.0134888
602.828	0.0136427
602.906	0.0135213
602.984	0.0135285
603.062	0.0134345
603.140	0.0132967
603.218	0.0134255
603.296	0.0134967
603.374	0.0134856
603.453	0.0135400
603.531	0.0134531
603.609	0.0134390
603.687	0.0133958
603.765	0.0134605
603.843	0.0134727
603.921	0.0135163
603.999	0.0135129
604.078	0.0134177
604.156	0.0133730
604.234	0.0134731
604.312	0.0134538
604.390	0.0134258
604.468	0.0133636
604.546	0.0133517
604.624	0.0133752
604.703	0.0134714
604.781	0.0134760
604.859	0.0134550
604.937	0.0134345
605.015	0.0134783
605.093	0.0135031
605.171	0.0134714
605.249	0.0134846
605.328	0.0134698
605.406	0.0135292
605.484	0.0134779
605.562	0.0134543
605.640	0.0135555
605.718	0.0134929
605.796	0.0135328
605.874	0.0134200
605.953	0.0135507
606.031	0.0134237
606.109	0.0134889
606.187	0.0135515
606.265	0.0134746
606.343	0.0134260
606.421	0.0136242
606.499	0.0136362
606.578	0.0135847
606.656	0.0135425
606.734	0.0134815
606.812	0.0134013
606.890	0.0135005
606.968	0.0137122
607.046	0.0135378
607.124	0.0134367
607.203	0.0135577
607.281	0.0135159
607.359	0.0134731
607.437	0.0134712
607.515	0.0134429
607.593	0.0135271
607.671	0.0134783
607.749	0.0134563
607.828	0.0134766
607.906	0.0135614
607.984	0.0134705
608.062	0.0134924
608.140	0.0134381
608.218	0.0133944
608.296	0.0135532
608.374	0.0134061
608.453	0.0133815
608.531	0.0134185
608.609	0.0134862
608.687	0.0133121
608.765	0.0133091
608.843	0.0133539
608.921	0.0133885
608.999	0.0135563
609.078	0.0132920
609.156	0.0133692
609.234	0.0135394
609.312	0.0134075
609.390	0.0134870
609.468	0.0133978
609.546	0.0133856
609.624	0.0135439
609.703	0.0134181
609.781	0.0136534
609.859	0.0134137
609.937	0.0135248
610.015	0.0135521
610.093	0.0134842
610.171	0.0135188
610.249	0.0134444
610.328	0.0135802
610.406	0.0134251
610.484	0.0134725
610.562	0.0134917
610.640	0.0135728
610.718	0.0134607
610.796	0.0134231
610.874	0.0133994
610.953	0.0134436
611.031	0.0133672
611.109	0.0133528
611.187	0.0134739
611.265	0.0135750
611.343	0.0133928
611.421	0.0134553
611.499	0.0135092
611.578	0.0134620
611.656	0.0134231
611.734	0.0135360
611.812	0.0134982
611.890	0.0134206
611.968	0.0135466
612.046	0.0134731
612.124	0.0134255
612.203	0.0134229
612.281	0.0133987
612.359	0.0134153
612.437	0.0134574
612.515	0.0136073
612.593	0.0134513
612.671	0.0132948
612.749	0.0134380
612.828	0.0135229
612.906	0.0134814
612.984	0.0136303
613.062	0.0135729
613.140	0.0133724
613.218	0.0134459
613.296	0.0134357
613.374	0.0135006
613.453	0.0134921
613.531	0.0134541
613.609	0.0134969
613.687	0.0135196
613.765	0.0134581
613.843	0.0134474
613.921	0.0136252
613.999	0.0134309
614.078	0.0134760
614.156	0.0134570
614.234	0.0135260
614.312	0.0135059
614.390	0.0134684
614.468	0.0135629
614.546	0.0136387
614.624	0.0134911
614.703	0.0133403
614.781	0.0134084
614.859	0.0134718
614.937	0.0135322
615.015	0.0135052
615.093	0.0135014
615.171	0.0134847
615.249	0.0135223
615.328	0.0135135
615.406	0.0135796
615.484	0.0134430
615.562	0.0134316
615.640	0.0133984
615.718	0.0134284
615.796	0.0133813
615.874	0.0134130
615.953	0.0134007
616.031	0.0133397
616.109	0.0135477
616.187	0.0135846
616.265	0.0133891
616.343	0.0134988
616.421	0.0134353
616.499	0.0135213
616.578	0.0133456
616.656	0.0134553
616.734	0.0137021
616.812	0.0134055
616.890	0.0134470
616.968	0.0136182
617.046	0.0134528
617.124	0.0135120
617.203	0.0135424
617.281	0.0134245
617.359	0.0135596
617.437	0.0135557
617.515	0.0134405
617.593	0.0133687
617.671	0.0134786
617.749	0.0134135
617.828	0.0135501
617.906	0.0134302
617.984	0.0133897
618.062	0.0134263
618.140	0.0134734
618.218	0.0134280
618.296	0.0135509
618.374	0.0134924
618.453	0.0135351
618.531	0.0135230
618.609	0.0134119
618.687	0.0133781
618.765	0.0135627
618.843	0.0135287
618.921	0.0134766
618.999	0.0134789
619.078	0.0135077
619.156	0.0134599
619.234	0.0134135
619.312	0.0135005
619.390	0.0135828
619.468	0.0135371
619.546	0.0133575
619.624	0.0134296
619.703	0.0135589
619.781	0.0134897
619.859	0.0135571
619.937	0.0133965
620.015	0.0134601
620.093	0.0136035
620.171	0.0134630
620.249	0.0135571
620.328	0.0135191
620.406	0.0135174
620.484	0.0135212
620.562	0.0134232
620.640	0.0135915
620.718	0.0135420
620.796	0.0135434
620.874	0.0134231
620.953	0.0135241
621.031	0.0135295
621.109	0.0135125
621.187	0.0136412
621.265	0.0134098
621.343	0.0136245
621.421	0.0135123
621.499	0.0134104
621.578	0.0134396
621.656	0.0133224
621.734	0.0134660
621.812	0.0134458
621.890	0.0135589
621.968	0.0134892
622.046	0.0134062
622.124	0.0133595
622.203	0.0135033
622.281	0.0135400
622.359	0.0136198
622.437	0.0133686
622.515	0.0133539
622.593	0.0135268
622.671	0.0134103
622.749	0.0134309
622.828	0.0134087
622.906	0.0135937
622.984	0.0135220
623.062	0.0134669
623.140	0.0135397
623.218	0.0133893
623.296	0.0134093
623.374	0.0134122
623.453	0.0134455
623.531	0.0132873
623.609	0.0135570
623.687	0.0135795
623.765	0.0134516
623.843	0.0135271
623.921	0.0134230
623.999	0.0134786
624.078	0.0135543
624.156	0.0133344
624.234	0.0134217
624.312	0.0134680
624.390	0.0135020
624.468	0.0135232
624.546	0.0134547
624.624	0.0134577
624.703	0.0134834
624.781	0.0135103
624.859	0.0135080
624.937	0.0133865
625.015	0.0134483
625.093	0.0134653
625.171	0.0135265
625.249	0.0134183
625.328	0.0132900
625.406	0.0135447
625.484	0.0134570
625.562	0.0135262
625.640	0.0136450
625.718	0.0133190
625.796	0.0133743
625.874	0.0135056
625.953	0.0134886
626.031	0.0133575
626.109	0.0135001
626.187	0.0136325
626.265	0.0134649
626.343	0.0134144
626.421	0.0134763
626.499	0.0135004
626.578	0.0134762
626.656	0.0135003
626.734	0.0135352
626.812	0.0134592
626.890	0.0135452
626.968	0.0134373
627.046	0.0133173
627.124	0.0135239
627.203	0.0134390
627.281	0.0135101
627.359	0.0135251
627.437	0.0135223
627.515	0.0133848
627.593	0.0135427
627.671	0.0135309
627.749	0.0133516
627.828	0.0134593
627.906	0.0135983
627.984	0.0134973
628.062	0.0134355
628.140	0.0134757
628.218	0.0135155
628.296	0.0135443
628.374	0.0135416
628.453	0.0134791
628.531	0.0133535
628.609	0.0133694
628.687	0.0134917
628.765	0.0136189
628.843	0.0134904
628.921	0.0135105
628.999	0.0133546
629.078	0.0135735
629.156	0.0134417
629.234	0.0135088
629.312	0.0134513
629.390	0.0135385
629.468	0.0135380
629.546	0.0134394
629.624	0.0133829
629.703	0.0135444
629.781	0.0134736
629.859	0.0136061
629.937	0.0134095
630.015	0.0135733
630.093	0.0134542
630.171	0.0134379
630.249	0.0134641
630.328	0.0135225
630.406	0.0134308
630.484	0.0134724
630.562	0.0135273
630.640	0.0134051
630.718	0.0134734
630.796	0.0134183
630.874	0.0134844
630.953	0.0134306
631.031	0.0135196
631.109	0.0134750
631.187	0.0135215
631.265	0.0134132
631.343	0.0134097
631.421	0.0134927
631.499	0.0135648
631.578	0.0136088
631.656	0.0135013
631.734	0.0135275
631.812	0.0135517
631.890	0.0134743
631.968	0.0135213
632.046	0.0135808
632.124	0.0135293
632.203	0.0134261
632.281	0.0135181
632.359	0.0134788
632.437	0.0134097
632.515	0.0135983
632.593	0.0135094
632.671	0.0134897
632.749	0.0136259
632.828	0.0134503
632.906	0.0135101
632.984	0.0135711
633.062	0.0135028
633.140	0.0134845
633.218	0.0135040
633.296	0.0135458
633.374	0.0135087
633.453	0.0135790
633.531	0.0135724
633.609	0.0135197
633.687	0.0135544
633.765	0.0134981
633.843	0.0135632
633.921	0.0134773
633.999	0.0135258
634.078	0.0135029
634.156	0.0135353
634.234	0.0134322
634.312	0.0135973
634.390	0.0136162
634.468	0.0134450
634.546	0.0133501
634.624	0.0133147
634.703	0.0135526
634.781	0.0135194
634.859	0.0135494
634.937	0.0134875
635.015	0.0135494
635.093	0.0135594
635.171	0.0135345
635.249	0.0134890
635.328	0.0136646
635.406	0.0136072
635.484	0.0133891
635.562	0.0133946
635.640	0.0134468
635.718	0.0135682
635.796	0.0133720
635.874	0.0133711
635.953	0.0135031
636.031	0.0134809
636.109	0.0134978
636.187	0.0133770
636.265	0.0134888
636.343	0.0135173
636.421	0.0134037
636.499	0.0135822
636.578	0.0134350
636.656	0.0134443
636.734	0.0135571
636.812	0.0135623
636.890	0.0135153
636.968	0.0134341
637.046	0.0134690
637.124	0.0136550
637.203	0.0135223
637.281	0.0134744
637.359	0.0134896
637.437	0.0135078
637.515	0.0135355
637.593	0.0134441
637.671	0.0135084
637.749	0.0135937
637.828	0.0133656
637.906	0.0135454
637.984	0.0135127
638.062	0.0134698
638.140	0.0134096
638.218	0.0135947
638.296	0.0135301
638.374	0.0134518
638.453	0.0134370
638.531	0.0135095
638.609	0.0134259
638.687	0.0134612
638.765	0.0133651
638.843	0.0133232
638.921	0.0136098
638.999	0.0136092
639.078	0.0133569
639.156	0.0135158
639.234	0.0134748
639.312	0.0135233
639.390	0.0134325
639.468	0.0133791
639.546	0.0135088
639.624	0.0134946
639.703	0.0135661
639.781	0.0135445
639.859	0.0134739
639.937	0.0135130
640.015	0.0134602
640.093	0.0135001
640.171	0.0133416
640.249	0.0134360
640.328	0.0135838
640.406	0.0134780
640.484	0.0132086
640.562	0.0136468
640.640	0.0135207
640.718	0.0134557
640.796	0.0134825
640.874	0.0134444
640.953	0.0134663
641.031	0.0135731
641.109	0.0134866
641.187	0.0134550
641.265	0.0135177
641.343	0.0133334
641.421	0.0133491
641.499	0.0135053
641.578	0.0134068
641.656	0.0134464
641.734	0.0135337
641.812	0.0135058
641.890	0.0134909
641.968	0.0134810
642.046	0.0134805
642.124	0.0135835
642.203	0.0135174
642.281	0.0133680
642.359	0.0134628
642.437	0.0135444
642.515	0.0134521
642.593	0.0133282
642.671	0.0134344
642.749	0.0136786
642.828	0.0135995
642.906	0.0135503
642.984	0.0134699
643.062	0.0133969
643.140	0.0134489
643.218	0.0134339
643.296	0.0135094
643.374	0.0134354
643.453	0.0133753
643.531	0.0134716
643.609	0.0135077
643.687	0.0134882
643.765	0.0135237
643.843	0.0135268
643.921	0.0134228
643.999	0.0135437
644.078	0.0135197
644.156	0.0135634
644.234	0.0135272
644.312	0.0134630
644.390	0.0135003
644.468	0.0134708
644.546	0.0134890
644.624	0.0134383
644.703	0.0135591
644.781	0.0134789
644.859	0.0133340
644.937	0.0135205
645.015	0.0135675
645.093	0.0134244
645.171	0.0134070
645.249	0.0135578
645.328	0.0134462
645.406	0.0135521
645.484	0.0135579
645.562	0.0135026
645.640	0.0134959
645.718	0.0134287
645.796	0.0134795
645.874	0.0134538
645.953	0.0135296
646.031	0.0134589
646.109	0.0136255
646.187	0.0136057
646.265	0.0135010
646.343	0.0135727
646.421	0.0135629
646.499	0.0135127
646.578	0.0134328
646.656	0.0133945
646.734	0.0134439
646.812	0.0135725
646.890	0.0135236
646.968	0.0136053
647.046	0.0134747
647.124	0.0136270
647.203	0.0135845
647.281	0.0135088
647.359	0.0136205
647.437	0.0135377
647.515	0.0135459
647.593	0.0135115
647.671	0.0133446
647.749	0.0134785
647.828	0.0135150
647.906	0.0135230
647.984	0.0134869
648.062	0.0134657
648.140	0.0134886
648.218	0.0134753
648.296	0.0135464
648.374	0.0134948
648.453	0.0134856
648.531	0.0135121
648.609	0.0135773
648.687	0.0133447
648.765	0.0134900
648.843	0.0134282
648.921	0.0133827
648.999	0.0133929
649.078	0.0135197
649.156	0.0135248
649.234	0.0134621
649.312	0.0135690
649.390	0.0134572
649.468	0.0135275
649.546	0.0134750
649.624	0.0135590
649.703	0.0134391
649.781	0.0134967
649.859	0.0134268
649.937	0.0135143
650.015	0.0134585
650.093	0.0134385
650.171	0.0134469
650.249	0.0133913
650.328	0.0134682
650.406	0.0137077
650.484	0.0135915
650.562	0.0133981
650.640	0.0135908
650.718	0.0135845
650.796	0.0133743
650.874	0.0132807
650.953	0.0134766
651.031	0.0135797
651.109	0.0135709
651.187	0.0134694
651.265	0.0134557
651.343	0.0135797
651.421	0.0134262
651.499	0.0135090
651.578	0.0135818
651.656	0.0135310
651.734	0.0135187
651.812	0.0135835
651.890	0.0135968
651.968	0.0135532
652.046	0.0135152
652.124	0.0134763
652.203	0.0134285
652.281	0.0134867
652.359	0.0134076
652.437	0.0134801
652.515	0.0135305
652.593	0.0134801
652.671	0.0134496
652.749	0.0134913
652.828	0.0135958
652.906	0.0134750
652.984	0.0135367
653.062	0.0135154
653.140	0.0135859
653.218	0.0135835
653.296	0.0134557
653.374	0.0134331
653.453	0.0136353
653.531	0.0133286
653.609	0.0134331
653.687	0.0134980
653.765	0.0136126
653.843	0.0134349
653.921	0.0133419
653.999	0.0135638
654.078	0.0135072
654.156	0.0134494
654.234	0.0134918
654.312	0.0134225
654.390	0.0134713
654.468	0.0135396
654.546	0.0134242
654.624	0.0135346
654.703	0.0134724
654.781	0.0134416
654.859	0.0134659
654.937	0.0134116
655.015	0.0135957
655.093	0.0136073
655.171	0.0135980
655.249	0.0135818
655.328	0.0135473
655.406	0.0135399
655.484	0.0134335
655.562	0.0133762
655.640	0.0134821
655.718	0.0135149
655.796	0.0134945
655.874	0.0134412
655.953	0.0134459
656.031	0.0135574
656.109	0.0133810
656.187	0.0134711
656.265	0.0135104
656.343	0.0135442
656.421	0.0135030
656.499	0.0134719
656.578	0.0133678
656.656	0.0134241
656.734	0.0135476
656.812	0.0134721
656.890	0.0133710
656.968	0.0135226
657.046	0.0133467
657.124	0.0133860
657.203	0.0134476
657.281	0.0135362
657.359	0.0134765
657.437	0.0133907
657.515	0.0134559
657.593	0.0134512
657.671	0.0135395
657.749	0.0133932
657.828	0.0134402
657.906	0.0133790
657.984	0.0134435
658.062	0.0134169
658.140	0.0135708
658.218	0.0134796
658.296	0.0133334
658.374	0.0134251
658.453	0.0134514
658.531	0.0134205
658.609	0.0135294
658.687	0.0135437
658.765	0.0136460
658.843	0.0133340
658.921	0.0133709
658.999	0.0135268
659.078	0.0134090
659.156	0.0134982
659.234	0.0134179
659.312	0.0134938
659.390	0.0135783
659.468	0.0133302
659.546	0.0133956
659.624	0.0134595
659.703	0.0134862
659.781	0.0135091
659.859	0.0133527
659.937	0.0134544
660.015	0.0134975
660.093	0.0134624
660.171	0.0134233
660.249	0.0133295
660.328	0.0135170
660.406	0.0134474
660.484	0.0133620
660.562	0.0134109
660.640	0.0134679
660.718	0.0135077
660.796	0.0135215
660.874	0.0133224
660.953	0.0133879
661.031	0.0134145
661.109	0.0134811
661.187	0.0134453
661.265	0.0134627
661.343	0.0134497
661.421	0.0133973
661.499	0.0134184
661.578	0.0134987
661.656	0.0134830
661.734	0.0136121
661.812	0.0135219
661.890	0.0132682
661.968	0.0135065
662.046	0.0135094
662.124	0.0133906
662.203	0.0135370
662.281	0.0134795
662.359	0.0133758
662.437	0.0133892
662.515	0.0135822
662.593	0.0136300
662.671	0.0134782
662.749	0.0134304
662.828	0.0135435
662.906	0.0133704
662.984	0.0134637
663.062	0.0135576
663.140	0.0134580
663.218	0.0133649
663.296	0.0135163
663.374	0.0136240
663.453	0.0135081
663.531	0.0133999
663.609	0.0134447
663.687	0.0134939
663.765	0.0136555
663.843	0.0133746
663.921	0.0133706
663.999	0.0135774
664.078	0.0135712
664.156	0.0134897
664.234	0.0133845
664.312	0.0134059
664.390	0.0134315
664.468	0.0135196
664.546	0.0134472
664.624	0.0134435
664.703	0.0135858
664.781	0.0135230
664.859	0.0134166
664.937	0.0134525
665.015	0.0136184
665.093	0.0135957
665.171	0.0134578
665.249	0.0134919
665.328	0.0134312
665.406	0.0135034
665.484	0.0135502
665.562	0.0134900
665.640	0.0134669
665.718	0.0134948
665.796	0.0135463
665.874	0.0134679
665.953	0.0135075
666.031	0.0134779
666.109	0.0134327
666.187	0.0134625
666.265	0.0134641
666.343	0.0134602
666.421	0.0135815
666.499	0.0135647
666.578	0.0135117
666.656	0.0135315
666.734	0.0134721
666.812	0.0133967
666.890	0.0134440
666.968	0.0135463
667.046	0.0134995
667.124	0.0134089
667.203	0.0134958
667.281	0.0133609
667.359	0.0134835
667.437	0.0135645
667.515	0.0134295
667.593	0.0134849
667.671	0.0135440
667.749	0.0134616
667.828	0.0133238
667.906	0.0133767
667.984	0.0135770
668.062	0.0136333
668.140	0.0135572
668.218	0.0134656
668.296	0.0135091
668.374	0.0134768
668.453	0.0136105
668.531	0.0135249
668.609	0.0134048
668.687	0.0135062
668.765	0.0135300
668.843	0.0134659
668.921	0.0133011
668.999	0.0135900
669.078	0.0135316
669.156	0.0134017
669.234	0.0133181
669.312	0.0134727
669.390	0.0135265
669.468	0.0134956
669.546	0.0135291
669.624	0.0134489
669.703	0.0134360
669.781	0.0135463
669.859	0.0134366
669.937	0.0134995
670.015	0.0135279
670.093	0.0134681
670.171	0.0135736
670.249	0.0134250
670.328	0.0135368
670.406	0.0134640
670.484	0.0133806
670.562	0.0134346
670.640	0.0135878
670.718	0.0134766
670.796	0.0134145
670.874	0.0134685
670.953	0.0134202
671.031	0.0132562
671.109	0.0134111
671.187	0.0135537
671.265	0.0134412
671.343	0.0132835
671.421	0.0133163
671.499	0.0135180
671.578	0.0134780
671.656	0.0135247
671.734	0.0134797
671.812	0.0133676
671.890	0.0134163
671.968	0.0134697
672.046	0.0135857
672.124	0.0135679
672.203	0.0135012
672.281	0.0134127
672.359	0.0134412
672.437	0.0136167
672.515	0.0135738
672.593	0.0133836
672.671	0.0134552
672.749	0.0134286
672.828	0.0133720
672.906	0.0134982
672.984	0.0135260
673.062	0.0134626
673.140	0.0134747
673.218	0.0135491
673.296	0.0133881
673.374	0.0134669
673.453	0.0135941
673.531	0.0134722
673.609	0.0135320
673.687	0.0134655
673.765	0.0135095
673.843	0.0133701
673.921	0.0134354
673.999	0.0135346
674.078	0.0134463
674.156	0.0134538
674.234	0.0135823
674.312	0.0134274
674.390	0.0133698
674.468	0.0134908
674.546	0.0135014
674.624	0.0135175
674.703	0.0134344
674.781	0.0134667
674.859	0.0134760
674.937	0.0133373
675.015	0.0134283
675.093	0.0134758
675.171	0.0133672
675.249	0.0133038
675.328	0.0134760
675.406	0.0134718
675.484	0.0133992
675.562	0.0135529
675.640	0.0135018
675.718	0.0132746
675.796	0.0134113
675.874	0.0134273
675.953	0.0134364
676.031	0.0134550
676.109	0.0133752
676.187	0.0134379
676.265	0.0137462
676.343	0.0135606
676.421	0.0135223
676.499	0.0135403
676.578	0.0134296
676.656	0.0135870
676.734	0.0134791
676.812	0.0134642
676.890	0.0134599
676.968	0.0134219
677.046	0.0135043
677.124	0.0135606
677.203	0.0133253
677.281	0.0134402
677.359	0.0135252
677.437	0.0133382
677.515	0.0134988
677.593	0.0135249
677.671	0.0135162
677.749	0.0134547
677.828	0.0134828
677.906	0.0135896
677.984	0.0135958
678.062	0.0137365
678.140	0.0136513
678.218	0.0135088
678.296	0.0135235
678.374	0.0134905
678.453	0.0136139
678.531	0.0135751
678.609	0.0134822
678.687	0.0134158
678.765	0.0132321
678.843	0.0132261
678.921	0.0134144
678.999	0.0132559
679.078	0.0132833
679.156	0.0131508
679.234	0.0131523
679.312	0.0132751
679.390	0.0132890
679.468	0.0134027
679.546	0.0134241
679.624	0.0134995
679.703	0.0135902
679.781	0.0136906
679.859	0.0137905
679.937	0.0136007
680.015	0.0138065
680.093	0.0138422
680.171	0.0138734
680.249	0.0138095
680.328	0.0137305
680.406	0.0136633
680.484	0.0135467
680.562	0.0134036
680.640	0.0134357
680.718	0.0132767
680.796	0.0131826
680.874	0.0131595
680.953	0.0131969
681.031	0.0131185
681.109	0.0131394
681.187	0.0132256
681.265	0.0132706
681.343	0.0133540
681.421	0.0132845
681.499	0.0133496
681.578	0.0133823
681.656	0.0136137
681.734	0.0133273
681.812	0.0133963
681.890	0.0134704
681.968	0.0134726
682.046	0.0131421
682.124	0.0132299
682.203	0.0131826
682.281	0.0133512
682.359	0.0132364
682.437	0.0132657
682.515	0.0133307
682.593	0.0134753
682.671	0.0135592
682.749	0.0134630
682.828	0.0136794
682.906	0.0138072
682.984	0.0140199
683.062	0.0139362
683.140	0.0141345
683.218	0.0143314
683.296	0.0141662
683.374	0.0141971
683.453	0.0142206
683.531	0.0140134
683.609	0.0139744
683.687	0.0138826
683.765	0.0137057
683.843	0.0135313
683.921	0.0132189
683.999	0.0132275
684.078	0.0129858
684.156	0.0129372
684.234	0.0128644
684.312	0.0124724
684.390	0.0124754
684.468	0.0125029
684.546	0.0124921
684.624	0.0123795
684.703	0.0123808
684.781	0.0124601
684.859	0.0126809
684.937	0.0127782
685.015	0.0127334
685.093	0.0129433
685.171	0.0131372
685.249	0.0133283
685.328	0.0135820
685.406	0.0137547
685.484	0.0137305
685.562	0.0139724
685.640	0.0141455
685.718	0.0141495
685.796	0.0141586
685.874	0.0142479
685.953	0.0144337
686.031	0.0144226
686.109	0.0144435
686.187	0.0144070
686.265	0.0143551
686.343	0.0144711
686.421	0.0144006
686.499	0.0144412
686.578	0.0144386
686.656	0.0144397
686.734	0.0145367
686.812	0.0144193
686.890	0.0142271
686.968	0.0141963
687.046	0.0142387
687.124	0.0139063
687.203	0.0135632
687.281	0.0132809
687.359	0.0129440
687.437	0.0124792
687.515	0.0120749
687.593	0.0117921
687.671	0.0113998
687.749	0.0111707
687.828	0.0109953
687.906	0.0108778
687.984	0.0109960
688.062	0.0110592
688.140	0.0111600
688.218	0.0113118
688.296	0.0116035
688.374	0.0119587
688.453	0.0123682
688.531	0.0128764
688.609	0.0131218
688.687	0.0135130
688.765	0.0137550
688.843	0.0141254
688.921	0.0145009
688.999	0.0147789
689.078	0.0150880
689.156	0.0153273
689.234	0.0156155
689.312	0.0155772
689.390	0.0157533
689.468	0.0156334
689.546	0.0156834
689.624	0.0157637
689.703	0.0156646
689.781	0.0154937
689.859	0.0154326
689.937	0.0154108
690.015	0.0151792
690.093	0.0149570
690.171	0.0147408
690.249	0.0146017
690.328	0.0142708
690.406	0.0138767
690.484	0.0135806
690.562	0.0135680
690.640	0.0130780
690.718	0.0126519
690.796	0.0122585
690.874	0.0117744
690.953	0.0114773
691.031	0.0110297
691.109	0.0106751
691.187	0.0104147
691.265	0.0102715
691.343	0.0101687
691.421	0.00995659
691.499	0.0100100
691.578	0.0101774
691.656	0.0105396
691.734	0.0108703
691.812	0.0114003
691.890	0.0117279
691.968	0.0122874
692.046	0.0129427
692.124	0.0135202
692.203	0.0139786
692.281	0.0143854
692.359	0.0147061
692.437	0.0152261
692.515	0.0155695
692.593	0.0158842
692.671	0.0158564
692.749	0.0160928
692.828	0.0162981
692.906	0.0162350
692.984	0.0162723
693.062	0.0161066
693.140	0.0160844
693.218	0.0159164
693.296	0.0157426
693.374	0.0154876
693.453	0.0153518
693.531	0.0150420
693.609	0.0147911
693.687	0.0144598
693.765	0.0142949
693.843	0.0140169
693.921	0.0137959
693.999	0.0137077
694.078	0.0134048
694.156	0.0130306
694.234	0.0127061
694.312	0.0123824
694.390	0.0119189
694.468	0.0117030
694.546	0.0114290
694.624	0.0109726
694.703	0.0106872
694.781	0.0106426
694.859	0.0104020
694.937	0.0102735
695.015	0.00996071
695.093	0.0102961
695.171	0.0102798
695.249	0.0107346
695.328	0.0109447
695.406	0.0113771
695.484	0.0118271
695.562	0.0124989
695.640	0.0129027
695.718	0.0134853
695.796	0.0141636
695.874	0.0149036
695.953	0.0152673
696.031	0.0154343
696.109	0.0158696
696.187	0.0162237
696.265	0.0165646
696.343	0.0165314
696.421	0.0165707
696.499	0.0164134
696.578	0.0162977
696.656	0.0161837
696.734	0.0157809
696.812	0.0154285
696.890	0.0149569
696.968	0.0145500
697.046	0.0140553
697.124	0.0136787
697.203	0.0134452
697.281	0.0131729
697.359	0.0130385
697.437	0.0130249
697.515	0.0128069
697.593	0.0127301
697.671	0.0127638
697.749	0.0128217
697.828	0.0127752
697.906	0.0126809
697.984	0.0127903
698.062	0.0123789
698.140	0.0124273
698.218	0.0122487
698.296	0.0119315
698.374	0.0116196
698.453	0.0114193
698.531	0.0113805
698.609	0.0116376
698.687	0.0114530
698.765	0.0113849
698.843	0.0117436
698.921	0.0118363
698.999	0.0120204
699.078	0.0125230
699.156	0.0128074
699.234	0.0132366
699.312	0.0138378
699.390	0.0141464
699.468	0.0145150
699.546	0.0148006
699.624	0.0150902
699.703	0.0152539
699.781	0.0154515
699.859	0.0155822
699.937	0.0154824
700.015	0.0154418
700.093	0.0154006
700.171	0.0151511
700.249	0.0149702
700.328	0.0148018
700.406	0.0144926
700.484	0.0142440
700.562	0.0140022
700.640	0.0136366
700.718	0.0135864
700.796	0.0133476
700.874	0.0132290
700.953	0.0132040
701.031	0.0130405
701.109	0.0129418
701.187	0.0128964
701.265	0.0129897
701.343	0.0129993
701.421	0.0129160
701.499	0.0127145
701.578	0.0128156
701.656	0.0128381
701.734	0.0127590
701.812	0.0126697
701.890	0.0126949
701.968	0.0125461
702.046	0.0122861
702.124	0.0123552
702.203	0.0123272
702.281	0.0121793
702.359	0.0124045
702.437	0.0125499
702.515	0.0127270
702.593	0.0130339
702.671	0.0132793
702.749	0.0136304
702.828	0.0136936
702.906	0.0140011
702.984	0.0141486
703.062	0.0144434
703.140	0.0146881
703.218	0.0147536
703.296	0.0146535
703.374	0.0144341
703.453	0.0145518
703.531	0.0145022
703.609	0.0143742
703.687	0.0139154
703.765	0.0138277
703.843	0.0135637
703.921	0.0132847
703.999	0.0130571
704.078	0.0129781
704.156	0.0126924
704.234	0.0127404
704.312	0.0126463
704.390	0.0125816
704.468	0.0125623
704.546	0.0124992
704.624	0.0126117
704.703	0.0130043
704.781	0.0131081
704.859	0.0132024
704.937	0.0135336
705.015	0.0137080
705.093	0.0139702
705.171	0.0140533
705.249	0.0141352
705.328	0.0141254
705.406	0.0141953
705.484	0.0143028
705.562	0.0140260
705.640	0.0139745
705.718	0.0138239
705.796	0.0135680
705.874	0.0136179
705.953	0.0132886
706.031	0.0130431
706.109	0.0130257
706.187	0.0130778
706.265	0.0131321
706.343	0.0130585
706.421	0.0130180
706.499	0.0129853
706.578	0.0132712
706.656	0.0132897
706.734	0.0134866
706.812	0.0135950
706.890	0.0136465
706.968	0.0137167
707.046	0.0137419
707.124	0.0137359
707.203	0.0137076
707.281	0.0135942
707.359	0.0135112
707.437	0.0135845
707.515	0.0135722
707.593	0.0133077
707.671	0.0131821
707.749	0.0130735
707.828	0.0127962
707.906	0.0129601
707.984	0.0128506
708.062	0.0128330
708.140	0.0128513
708.218	0.0127413
708.296	0.0129332
708.374	0.0130621
708.453	0.0130560
708.531	0.0133030
708.609	0.0134380
708.687	0.0134820
708.765	0.0137844
708.843	0.0140449
708.921	0.0140525
708.999	0.0140287
709.078	0.0140325
709.156	0.0140909
709.234	0.0141586
709.312	0.0140001
709.390	0.0140289
709.468	0.0138252
709.546	0.0137302
709.624	0.0136148
709.703	0.0136337
709.781	0.0135400
709.859	0.0134488
709.937	0.0133337
710.015	0.0133097
710.093	0.0131300
710.171	0.0133703
710.249	0.0133582
710.328	0.0134073
710.406	0.0133952
710.484	0.0133975
710.562	0.0135034
710.640	0.0134344
710.718	0.0134545
710.796	0.0135978
710.874	0.0136566
710.953	0.0136450
711.031	0.0134810
711.109	0.0134405
711.187	0.0136516
711.265	0.0134660
711.343	0.0134547
711.421	0.0135502
711.499	0.0134309
711.578	0.0134361
711.656	0.0135152
711.734	0.0133798
711.812	0.0133512
711.890	0.0132807
711.968	0.0133499
712.046	0.0133761
712.124	0.0134217
712.203	0.0133580
712.281	0.0134064
712.359	0.0134761
712.437	0.0135533
712.515	0.0135413
712.593	0.0135717
712.671	0.0135595
712.749	0.0136259
712.828	0.0135202
712.906	0.0134593
712.984	0.0135125
713.062	0.0135063
713.140	0.0133762
713.218	0.0133116
713.296	0.0132637
713.374	0.0132687
713.453	0.0132113
713.531	0.0129974
713.609	0.0130795
713.687	0.0131976
713.765	0.0131322
713.843	0.0130922
713.921	0.0132099
713.999	0.0132758
714.078	0.0130949
714.156	0.0132567
714.234	0.0131703
714.312	0.0132079
714.390	0.0132615
714.468	0.0133549
714.546	0.0135085
714.624	0.0135289
714.703	0.0135539
714.781	0.0137287
714.859	0.0138147
714.937	0.0138420
715.015	0.0140236
715.093	0.0141101
715.171	0.0139680
715.249	0.0140401
715.328	0.0140660
715.406	0.0140672
715.484	0.0140161
715.562	0.0140832
715.640	0.0140877
715.718	0.0141337
715.796	0.0140182
715.874	0.0140807
715.953	0.0139809
716.031	0.0140263
716.109	0.0138799
716.187	0.0137906
716.265	0.0137662
716.343	0.0137766
716.421	0.0138327
716.499	0.0136847
716.578	0.0136666
716.656	0.0135797
716.734	0.0133321
716.812	0.0133683
716.890	0.0131299
716.968	0.0130861
717.046	0.0130068
717.124	0.0130620
717.203	0.0128333
717.281	0.0128099
717.359	0.0127824
717.437	0.0126834
717.515	0.0126301
717.593	0.0126800
717.671	0.0124485
717.749	0.0125293
717.828	0.0125615
717.906	0.0123878
717.984	0.0125331
718.062	0.0126434
718.140	0.0127972
718.218	0.0129482
718.296	0.0129990
718.374	0.0131841
718.453	0.0133372
718.531	0.0136726
718.609	0.0137618
718.687	0.0139367
718.765	0.0140513
718.843	0.0142725
718.921	0.0143063
718.999	0.0144604
719.078	0.0144460
719.156	0.0143924
719.234	0.0145124
719.312	0.0145127
719.390	0.0143967
719.468	0.0142233
719.546	0.0142480
719.624	0.0141663
719.703	0.0140151
719.781	0.0140498
719.859	0.0139429
719.937	0.0138913
720.015	0.0139187
720.093	0.0138046
720.171	0.0136132
720.249	0.0135529
720.328	0.0136777
720.406	0.0134111
720.484	0.0134609
720.562	0.0132803
720.640	0.0132098
720.718	0.0130991
720.796	0.0129639
720.874	0.0128790
720.953	0.0129597
721.031	0.0129053
721.109	0.0128877
721.187	0.0127970
721.265	0.0127148
721.343	0.0127047
721.421	0.0127447
721.499	0.0129224
721.578	0.0128713
721.656	0.0129788
721.734	0.0130283
721.812	0.0131709
721.890	0.0132579
721.968	0.0133947
722.046	0.0137083
722.124	0.0136983
722.203	0.0138156
722.281	0.0140152
722.359	0.0139261
722.437	0.0141338
722.515	0.0142441
722.593	0.0142226
722.671	0.0141902
722.749	0.0142085
722.828	0.0140702
722.906	0.0139842
722.984	0.0139523
723.062	0.0137301
723.140	0.0137598
723.218	0.0136840
723.296	0.0135857
723.374	0.0135579
723.453	0.0133859
723.531	0.0133750
723.609	0.0131953
723.687	0.0133842
723.765	0.0132335
723.843	0.0132110
723.921	0.0131360
723.999	0.0131536
724.078	0.0131812
724.156	0.0131449
724.234	0.0130098
724.312	0.0131337
724.390	0.0130431
724.468	0.0131263
724.546	0.0131678
724.624	0.0130934
724.703	0.0129200
724.781	0.0131138
724.859	0.0130246
724.937	0.0129862
725.015	0.0130081
725.093	0.0129520
725.171	0.0129409
725.249	0.0130637
725.328	0.0130709
725.406	0.0131231
725.484	0.0132755
725.562	0.0134496
725.640	0.0136080
725.718	0.0135173
725.796	0.0137697
725.874	0.0139075
725.953	0.0141578
726.031	0.0140800
726.109	0.0141565
726.187	0.0142680
726.265	0.0144408
726.343	0.0144073
726.421	0.0142890
726.499	0.0143687
726.578	0.0144048
726.656	0.0142311
726.734	0.0142928
726.812	0.0140596
726.890	0.0138815
726.968	0.0139980
727.046	0.0139017
727.124	0.0137124
727.203	0.0136414
727.281	0.0133997
727.359	0.0134038
727.437	0.0133746
727.515	0.0132217
727.593	0.0132305
727.671	0.0131788
727.749	0.0131347
727.828	0.0128566
727.906	0.0130960
727.984	0.0131808
728.062	0.0129139
728.140	0.0129614
728.218	0.0128101
728.296	0.0127496
728.374	0.0126995
728.453	0.0128583
728.531	0.0127915
728.609	0.0128557
728.687	0.0130403
728.765	0.0129096
728.843	0.0129870
728.921	0.0130739
728.999	0.0130659
729.078	0.0131575
729.156	0.0132969
729.234	0.0135718
729.312	0.0134325
729.390	0.0134825
729.468	0.0136968
729.546	0.0136673
729.624	0.0137956
729.703	0.0139846
729.781	0.0138297
729.859	0.0138885
729.937	0.0138853
730.015	0.0139620
730.093	0.0139349
730.171	0.0138697
730.249	0.0140273
730.328	0.0139641
730.406	0.0139884
730.484	0.0139550
730.562	0.0139893
730.640	0.0140741
730.718	0.0141908
730.796	0.0139188
730.874	0.0138447
730.953	0.0139513
731.031	0.0138627
731.109	0.0136275
731.187	0.0136931
731.265	0.0137091
731.343	0.0134561
731.421	0.0134276
731.499	0.0133122
731.578	0.0131639
731.656	0.0132184
731.734	0.0130886
731.812	0.0129597
731.890	0.0130276
731.968	0.0129289
732.046	0.0129518
732.124	0.0129929
732.203	0.0129486
732.281	0.0129326
732.359	0.0130296
732.437	0.0129682
732.515	0.0129397
732.593	0.0130167
732.671	0.0131297
732.749	0.0132275
732.828	0.0132378
732.906	0.0133121
732.984	0.0135297
733.062	0.0135745
733.140	0.0135849
733.218	0.0136243
733.296	0.0136840
733.374	0.0137736
733.453	0.0138313
733.531	0.0139033
733.609	0.0138853
733.687	0.0138663
733.765	0.0138229
733.843	0.0137784
733.921	0.0138011
733.999	0.0138048
734.078	0.0138123
734.156	0.0138779
734.234	0.0137634
734.312	0.0136530
734.390	0.0137156
734.468	0.0137115
734.546	0.0135207
734.624	0.0134521
734.703	0.0137434
734.781	0.0134816
734.859	0.0135112
734.937	0.0134641
735.015	0.0134175
735.093	0.0134041
735.171	0.0134598
735.249	0.0133187
735.328	0.0132778
735.406	0.0133115
735.484	0.0131593
735.562	0.0130480
735.640	0.0130766
735.718	0.0131261
735.796	0.0131441
735.874	0.0129501
735.953	0.0130262
736.031	0.0130882
736.109	0.0130386
736.187	0.0129126
736.265	0.0129907
736.343	0.0130064
736.421	0.0131387
736.499	0.0130926
736.578	0.0131935
736.656	0.0131811
736.734	0.0132630
736.812	0.0134360
736.890	0.0135307
736.968	0.0133366
737.046	0.0136881
737.124	0.0136935
737.203	0.0136216
737.281	0.0137820
737.359	0.0138115
737.437	0.0137407
737.515	0.0138216
737.593	0.0139695
737.671	0.0140327
737.749	0.0138821
737.828	0.0139608
737.906	0.0139761
737.984	0.0141328
738.062	0.0139888
738.140	0.0139608
738.218	0.0139840
738.296	0.0139384
738.374	0.0139137
738.453	0.0139491
738.531	0.0137894
738.609	0.0137838
738.687	0.0136573
738.765	0.0137993
738.843	0.0135770
738.921	0.0133966
738.999	0.0134657
739.078	0.0134403
739.156	0.0133050
739.234	0.0132439
739.312	0.0131117
739.390	0.0132013
739.468	0.0129716
739.546	0.0130138
739.624	0.0128400
739.703	0.0129631
739.781	0.0129659
739.859	0.0129305
739.937	0.0128800
740.015	0.0131289
740.093	0.0131152
740.171	0.0130164
740.249	0.0132069
740.328	0.0131768
740.406	0.0132494
740.484	0.0133329
740.562	0.0134033
740.640	0.0133544
740.718	0.0134566
740.796	0.0134657
740.874	0.0136852
740.953	0.0135397
741.031	0.0136051
741.109	0.0138047
741.187	0.0137167
741.265	0.0137988
741.343	0.0138808
741.421	0.0138976
741.499	0.0138493
741.578	0.0140111
741.656	0.0140324
741.734	0.0140697
741.812	0.0139606
741.890	0.0140734
741.968	0.0140191
742.046	0.0137236
742.124	0.0138098
742.203	0.0138918
742.281	0.0137287
742.359	0.0137681
742.437	0.0135522
742.515	0.0135926
742.593	0.0135087
742.671	0.0135291
742.749	0.0134711
742.828	0.0134444
742.906	0.0132642
742.984	0.0132937
743.062	0.0132991
743.140	0.0133538
743.218	0.0132874
743.296	0.0132821
743.374	0.0131882
743.453	0.0131830
743.531	0.0132198
743.609	0.0132507
743.687	0.0133591
743.765	0.0133121
743.843	0.0131230
743.921	0.0132420
743.999	0.0133086
744.078	0.0132056
744.156	0.0132616
744.234	0.0133900
744.312	0.0134736
744.390	0.0134612
744.468	0.0135640
744.546	0.0134704
744.624	0.0135397
744.703	0.0134877
744.781	0.0136292
744.859	0.0136574
744.937	0.0135512
745.015	0.0136993
745.093	0.0138003
745.171	0.0137050
745.249	0.0138158
745.328	0.0136314
745.406	0.0137390
745.484	0.0137100
745.562	0.0137798
745.640	0.0137881
745.718	0.0135672
745.796	0.0136636
745.874	0.0136349
745.953	0.0136857
746.031	0.0138258
746.109	0.0137277
746.187	0.0134876
746.265	0.0135365
746.343	0.0135512
746.421	0.0135525
746.499	0.0135731
746.578	0.0135003
746.656	0.0133454
746.734	0.0133458
746.812	0.0133926
746.890	0.0133298
746.968	0.0133097
747.046	0.0131634
747.124	0.0132844
747.203	0.0132642
747.281	0.0132507
747.359	0.0131396
747.437	0.0131664
747.515	0.0132262
747.593	0.0131367
747.671	0.0131277
747.749	0.0133926
747.828	0.0132615
747.906	0.0131620
747.984	0.0132991
748.062	0.0133686
748.140	0.0133128
748.218	0.0133163
748.296	0.0136072
748.374	0.0135479
748.453	0.0134421
748.531	0.0136744
748.609	0.0136306
748.687	0.0137696
748.765	0.0138130
748.843	0.0138506
748.921	0.0138125
748.999	0.0139251
749.078	0.0139291
749.156	0.0138465
749.234	0.0140071
749.312	0.0139826
749.390	0.0138921
749.468	0.0138210
749.546	0.0137518
749.624	0.0137291
749.703	0.0137823
749.781	0.0135808
749.859	0.0137778
749.937	0.0135394
750.015	0.0135058
750.093	0.0135452
750.171	0.0134669
750.249	0.0134956
750.328	0.0133376
750.406	0.0133723
750.484	0.0132892
750.562	0.0132970
750.640	0.0133258
750.718	0.0133405
750.796	0.0132294
750.874	0.0131950
750.953	0.0131429
751.031	0.0131868
751.109	0.0130720
751.187	0.0130215
751.265	0.0130696
751.343	0.0130885
751.421	0.0130119
751.499	0.0130498
751.578	0.0131921
751.656	0.0130074
751.734	0.0132767
751.812	0.0131246
751.890	0.0132827
751.968	0.0134360
752.046	0.0135043
752.124	0.0136785
752.203	0.0135857
752.281	0.0136947
752.359	0.0137980
752.437	0.0137800
752.515	0.0139121
752.593	0.0138808
752.671	0.0138811
752.749	0.0139434
752.828	0.0137553
752.906	0.0138384
752.984	0.0138521
753.062	0.0136491
753.140	0.0137363
753.218	0.0136487
753.296	0.0135946
753.374	0.0135375
753.453	0.0134560
753.531	0.0135014
753.609	0.0136979
753.687	0.0135222
753.765	0.0133839
753.843	0.0135003
753.921	0.0133025
753.999	0.0135749
754.078	0.0133492
754.156	0.0133144
754.234	0.0134922
754.312	0.0134882
754.390	0.0132700
754.468	0.0132582
754.546	0.0132767
754.624	0.0132411
754.703	0.0131924
754.781	0.0131260
754.859	0.0132454
754.937	0.0133598
755.015	0.0131814
755.093	0.0131047
755.171	0.0131229
755.249	0.0132269
755.328	0.0133237
755.406	0.0132753
755.484	0.0133004
755.562	0.0133791
755.640	0.0133781
755.718	0.0133936
755.796	0.0136143
755.874	0.0137012
755.953	0.0137366
756.031	0.0135461
756.109	0.0137026
756.187	0.0137019
756.265	0.0136583
756.343	0.0136104
756.421	0.0135356
756.499	0.0136536
756.578	0.0137054
756.656	0.0135757
756.734	0.0134929
756.812	0.0135426
756.890	0.0135812
756.968	0.0135054
757.046	0.0135495
757.124	0.0134862
757.203	0.0135552
757.281	0.0135084
757.359	0.0135886
757.437	0.0134724
757.515	0.0134418
757.593	0.0135503
757.671	0.0134009
757.749	0.0135086
757.828	0.0134123
757.906	0.0134064
757.984	0.0134409
758.062	0.0133720
758.140	0.0133339
758.218	0.0134046
758.296	0.0135209
758.374	0.0133698
758.453	0.0132704
758.531	0.0133064
758.609	0.0135125
758.687	0.0134149
758.765	0.0133957
758.843	0.0134681
758.921	0.0133691
758.999	0.0134972
759.078	0.0134554
759.156	0.0132965
759.234	0.0132963
759.312	0.0133834
759.390	0.0134210
759.468	0.0133118
759.546	0.0133634
759.624	0.0133601
759.703	0.0133234
759.781	0.0133071
759.859	0.0133360
759.937	0.0135001
760.015	0.0134045
760.093	0.0135402
760.171	0.0134635
760.249	0.0136109
760.328	0.0135792
760.406	0.0136237
760.484	0.0135092
760.562	0.0136307
760.640	0.0135878
760.718	0.0137518
760.796	0.0136658
760.874	0.0136407
760.953	0.0136190
761.031	0.0135427
761.109	0.0136093
761.187	0.0136175
761.265	0.0135273
761.343	0.0133829
761.421	0.0134950
761.499	0.0135110
761.578	0.0135387
761.656	0.0135704
761.734	0.0136415
761.812	0.0135769
761.890	0.0137280
761.968	0.0138584
762.046	0.0135338
762.124	0.0136472
762.203	0.0137154
762.281	0.0136117
762.359	0.0135707
762.437	0.0135123
762.515	0.0133717
762.593	0.0131508
762.671	0.0132427
762.749	0.0131460
762.828	0.0131851
762.906	0.0131247
762.984	0.0131844
763.062	0.0133380
763.140	0.0133028
763.218	0.0133722
763.296	0.0134071
763.374	0.0133577
763.453	0.0135761
763.531	0.0135875
763.609	0.0135365
763.687	0.0135410
763.765	0.0133670
763.843	0.0134904
763.921	0.0135004
763.999	0.0135320
764.078	0.0136168
764.156	0.0134758
764.234	0.0136521
764.312	0.0136245
764.390	0.0135272
764.468	0.0134398
764.546	0.0133969
764.624	0.0134446
764.703	0.0134997
764.781	0.0134834
764.859	0.0134538
764.937	0.0135633
765.015	0.0135556
765.093	0.0137360
765.171	0.0136682
765.249	0.0136089
765.328	0.0133763
765.406	0.0134941
765.484	0.0136153
765.562	0.0134997
765.640	0.0134149
765.718	0.0133772
765.796	0.0135524
765.874	0.0133128
765.953	0.0134127
766.031	0.0133493
766.109	0.0133295
766.187	0.0133249
766.265	0.0132808
766.343	0.0133253
766.421	0.0133694
766.499	0.0134342
766.578	0.0134470
766.656	0.0135458
766.734	0.0134244
766.812	0.0135982
766.890	0.0135412
766.968	0.0135189
767.046	0.0134462
767.124	0.0135251
767.203	0.0133557
767.281	0.0133355
767.359	0.0134255
767.437	0.0133170
767.515	0.0132501
767.593	0.0134268
767.671	0.0135164
767.749	0.0134602
767.828	0.0134623
767.906	0.0135262
767.984	0.0135505
768.062	0.0134970
768.140	0.0134084
768.218	0.0133754
768.296	0.0134048
768.374	0.0134555
768.453	0.0134910
768.531	0.0133459
768.609	0.0132197
768.687	0.0134778
768.765	0.0133884
768.843	0.0133727
768.921	0.0134602
768.999	0.0137003
769.078	0.0136403
769.156	0.0136364
769.234	0.0136121
769.312	0.0136535
769.390	0.0135680
769.468	0.0136866
769.546	0.0137273
769.624	0.0134936
769.703	0.0135706
769.781	0.0135370
769.859	0.0134527
769.937	0.0133476
770.015	0.0132996
770.093	0.0132964
770.171	0.0133717
770.249	0.0132590
770.328	0.0133131
770.406	0.0132950
770.484	0.0133646
770.562	0.0133502
770.640	0.0134272
770.718	0.0132719
770.796	0.0134560
770.874	0.0132508
770.953	0.0133759
771.031	0.0134041
771.109	0.0133488
771.187	0.0131580
771.265	0.0133565
771.343	0.0133734
771.421	0.0133725
771.499	0.0134151
771.578	0.0135459
771.656	0.0132808
771.734	0.0134229
771.812	0.0133683
771.890	0.0133605
771.968	0.0134166
772.046	0.0133403
772.124	0.0133732
772.203	0.0135788
772.281	0.0135484
772.359	0.0136057
772.437	0.0136977
772.515	0.0137185
772.593	0.0138046
772.671	0.0137901
772.749	0.0136721
772.828	0.0138687
772.906	0.0137520
772.984	0.0137478
773.062	0.0135784
773.140	0.0137315
773.218	0.0136974
773.296	0.0134833
773.374	0.0134542
773.453	0.0135027
773.531	0.0135120
773.609	0.0133976
773.687	0.0133128
773.765	0.0134529
773.843	0.0134028
773.921	0.0134760
773.999	0.0135766
774.078	0.0132672
774.156	0.0134405
774.234	0.0134053
774.312	0.0133424
774.390	0.0132787
774.468	0.0132108
774.546	0.0132498
774.624	0.0130138
774.703	0.0130118
774.781	0.0131076
774.859	0.0130676
774.937	0.0129829
775.015	0.0132844
775.093	0.0132471
775.171	0.0132618
775.249	0.0133147
775.328	0.0133643
775.406	0.0133608
775.484	0.0134311
775.562	0.0135324
775.640	0.0138390
775.718	0.0137106
775.796	0.0136124
775.874	0.0137140
775.953	0.0138585
776.031	0.0137245
776.109	0.0136285
776.187	0.0137094
776.265	0.0135743
776.343	0.0135987
776.421	0.0136308
776.499	0.0135672
776.578	0.0135889
776.656	0.0136138
776.734	0.0136831
776.812	0.0137205
776.890	0.0136003
776.968	0.0135128
777.046	0.0135173
777.124	0.0136286
777.203	0.0136102
777.281	0.0135422
777.359	0.0135027
777.437	0.0134717
777.515	0.0134766
777.593	0.0132388
777.671	0.0132211
777.749	0.0132172
777.828	0.0130357
777.906	0.0128976
777.984	0.0129552
778.062	0.0127590
778.140	0.0129655
778.218	0.0129979
778.296	0.0130472
778.374	0.0130699
778.453	0.0131339
778.531	0.0131844
778.609	0.0131642
778.687	0.0132660
778.765	0.0134241
778.843	0.0134290
778.921	0.0133577
778.999	0.0134327
779.078	0.0135651
779.156	0.0136326
779.234	0.0135758
779.312	0.0137422
779.390	0.0136764
779.468	0.0137307
779.546	0.0137820
779.624	0.0138168
779.703	0.0137922
779.781	0.0137785
779.859	0.0136974
779.937	0.0138158
780.015	0.0138120
780.093	0.0137480
780.171	0.0138065
780.249	0.0136876
780.328	0.0136070
780.406	0.0136027
780.484	0.0135133
780.562	0.0134411
780.640	0.0134605
780.718	0.0132617
780.796	0.0132024
780.874	0.0132598
780.953	0.0132542
781.031	0.0131679
781.109	0.0133586
781.187	0.0131690
781.265	0.0131083
781.343	0.0131974
781.421	0.0131419
781.499	0.0132318
781.578	0.0130108
781.656	0.0129294
781.734	0.0129965
781.812	0.0128983
781.890	0.0129568
781.968	0.0131725
782.046	0.0132011
782.124	0.0131248
782.203	0.0131962
782.281	0.0132909
782.359	0.0133755
782.437	0.0133386
782.515	0.0136030
782.593	0.0136469
782.671	0.0136407
782.749	0.0136850
782.828	0.0138600
782.906	0.0137211
782.984	0.0137772
783.062	0.0137947
783.140	0.0135957
783.218	0.0136850
783.296	0.0137730
783.374	0.0137324
783.453	0.0137466
783.531	0.0137334
783.609	0.0135690
783.687	0.0135775
783.765	0.0136822
783.843	0.0136224
783.921	0.0134663
783.999	0.0136684
784.078	0.0135219
784.156	0.0134120
784.234	0.0133701
784.312	0.0134255
784.390	0.0134283
784.468	0.0133407
784.546	0.0132557
784.624	0.0133537
784.703	0.0133018
784.781	0.0131586
784.859	0.0133028
784.937	0.0131937
785.015	0.0131874
785.093	0.0132266
785.171	0.0132060
785.249	0.0132615
785.328	0.0131700
785.406	0.0132510
785.484	0.0132003
785.562	0.0132193
785.640	0.0132650
785.718	0.0134577
785.796	0.0134721
785.874	0.0135559
785.953	0.0134872
786.031	0.0136306
786.109	0.0137171
786.187	0.0138496
786.265	0.0138857
786.343	0.0137568
786.421	0.0137470
786.499	0.0135686
786.578	0.0137939
786.656	0.0137658
786.734	0.0137137
786.812	0.0137965
786.890	0.0138163
786.968	0.0136434
787.046	0.0135664
787.124	0.0134835
787.203	0.0136222
787.281	0.0134380
787.359	0.0134332
787.437	0.0133535
787.515	0.0133617
787.593	0.0133004
787.671	0.0133199
787.749	0.0134791
787.828	0.0134238
787.906	0.0134734
787.984	0.0133666
788.062	0.0134576
788.140	0.0133615
788.218	0.0133236
788.296	0.0132159
788.374	0.0133303
788.453	0.0132674
788.531	0.0133675
788.609	0.0134854
788.687	0.0133096
788.765	0.0133089
788.843	0.0132344
788.921	0.0133520
788.999	0.0134947
789.078	0.0135369
789.156	0.0136689
789.234	0.0134172
789.312	0.0136669
789.390	0.0136073
789.468	0.0135392
789.546	0.0136182
789.624	0.0135252
789.703	0.0136563
789.781	0.0137214
789.859	0.0135839
789.937	0.0137029
790.015	0.0136802
790.093	0.0136397
790.171	0.0135224
790.249	0.0135997
790.328	0.0135215
790.406	0.0134803
790.484	0.0134771
790.562	0.0133421
790.640	0.0134364
790.718	0.0134308
790.796	0.0134284
790.874	0.0133187
790.953	0.0132493
791.031	0.0133190
791.109	0.0133006
791.187	0.0133112
791.265	0.0133321
791.343	0.0133760
791.421	0.0133429
791.499	0.0133335
791.578	0.0133600
791.656	0.0135673
791.734	0.0135267
791.812	0.0135116
791.890	0.0133954
791.968	0.0135542
792.046	0.0134837
792.124	0.0134908
792.203	0.0136896
792.281	0.0136097
792.359	0.0135181
792.437	0.0136800
792.515	0.0135638
792.593	0.0134859
792.671	0.0135869
792.749	0.0135800
792.828	0.0136234
792.906	0.0135807
792.984	0.0136761
793.062	0.0135917
793.140	0.0135744
793.218	0.0135395
793.296	0.0135463
793.374	0.0136256
793.453	0.0136258
793.531	0.0134650
793.609	0.0133228
793.687	0.0134888
793.765	0.0133455
793.843	0.0134949
793.921	0.0135509
793.999	0.0135325
794.078	0.0134892
794.156	0.0134483
794.234	0.0135736
794.312	0.0134727
794.390	0.0133559
794.468	0.0132463
794.546	0.0133160
794.624	0.0133762
794.703	0.0133015
794.781	0.0133215
794.859	0.0133588
794.937	0.0132766
795.015	0.0133253
795.093	0.0131734
795.171	0.0132027
795.249	0.0132532
795.328	0.0133018
795.406	0.0133149
795.484	0.0133308
795.562	0.0133603
795.640	0.0134303
795.718	0.0135222
795.796	0.0134982
795.874	0.0133440
795.953	0.0134975
796.031	0.0134893
796.109	0.0134736
796.187	0.0135970
796.265	0.0135789
796.343	0.0135813
796.421	0.0136867
796.499	0.0136806
796.578	0.0137688
796.656	0.0136963
796.734	0.0135411
796.812	0.0136409
796.890	0.0136233
796.968	0.0136611
797.046	0.0136161
797.124	0.0136583
797.203	0.0135754
797.281	0.0135758
797.359	0.0133392
797.437	0.0133568
797.515	0.0134116
797.593	0.0133190
797.671	0.0134544
797.749	0.0132362
797.828	0.0132315
797.906	0.0133262
797.984	0.0132600
798.062	0.0131194
798.140	0.0130925
798.218	0.0131659
798.296	0.0132379
798.374	0.0130546
798.453	0.0132662
798.531	0.0133366
798.609	0.0132692
798.687	0.0132439
798.765	0.0133213
798.843	0.0134413
798.921	0.0134488
798.999	0.0134586
799.078	0.0134875
799.156	0.0135056
799.234	0.0135700
799.312	0.0134977
799.390	0.0135483
799.468	0.0133813
799.546	0.0134834
799.624	0.0135200
799.703	0.0135303
799.781	0.0135448
799.859	0.0134544
799.937	0.0134303
800.015	0.0133863
800.093	0.0135461
800.171	0.0135195
800.249	0.0136231
800.328	0.0135863
800.406	0.0135853
800.484	0.0135042
800.562	0.0136158
800.640	0.0135126
800.718	0.0135629
800.796	0.0135300
800.874	0.0137456
800.953	0.0134698
801.031	0.0134459
801.109	0.0136200
801.187	0.0136218
801.265	0.0133181
801.343	0.0134277
801.421	0.0134601
801.499	0.0133770
801.578	0.0133312
801.656	0.0133925
801.734	0.0134444
801.812	0.0134019
801.890	0.0133459
801.968	0.0133892
802.046	0.0133290
802.124	0.0133379
802.203	0.0133826
802.281	0.0133973
802.359	0.0134795
802.437	0.0134281
802.515	0.0133704
802.593	0.0134212
802.671	0.0134471
802.749	0.0134441
802.828	0.0135333
802.906	0.0135867
802.984	0.0135738
803.062	0.0135121
803.140	0.0136835
803.218	0.0136555
803.296	0.0136962
803.374	0.0136921
803.453	0.0137651
803.531	0.0136570
803.609	0.0134708
803.687	0.0134866
803.765	0.0135459
803.843	0.0135606
803.921	0.0135491
803.999	0.0135758
804.078	0.0135405
804.156	0.0137134
804.234	0.0136681
804.312	0.0136708
804.390	0.0136690
804.468	0.0135735
804.546	0.0136160
804.624	0.0136578
804.703	0.0135352
804.781	0.0134360
804.859	0.0133808
804.937	0.0133965
805.015	0.0134956
805.093	0.0134911
805.171	0.0134211
805.249	0.0133488
805.328	0.0132735
805.406	0.0133129
805.484	0.0133791
805.562	0.0133139
805.640	0.0132477
805.718	0.0132567
805.796	0.0134521
805.874	0.0132774
805.953	0.0133229
806.031	0.0132937
806.109	0.0133770
806.187	0.0134130
806.265	0.0135685
806.343	0.0133972
806.421	0.0135033
806.499	0.0135454
806.578	0.0134548
806.656	0.0135052
806.734	0.0136235
806.812	0.0135383
806.890	0.0137718
806.968	0.0135686
807.046	0.0135815
807.124	0.0136037
807.203	0.0136698
807.281	0.0136872
807.359	0.0136185
807.437	0.0136975
807.515	0.0135561
807.593	0.0134351
807.671	0.0136650
807.749	0.0136541
807.828	0.0136453
807.906	0.0136719
807.984	0.0138197
808.062	0.0136139
808.140	0.0137532
808.218	0.0135846
808.296	0.0134360
808.374	0.0134750
808.453	0.0135217
808.531	0.0134322
808.609	0.0134580
808.687	0.0134725
808.765	0.0134096
808.843	0.0134053
808.921	0.0132572
808.999	0.0133086
809.078	0.0132670
809.156	0.0133030
809.234	0.0133366
809.312	0.0133347
809.390	0.0132272
809.468	0.0132478
809.546	0.0133554
809.624	0.0134798
809.703	0.0133699
809.781	0.0133481
809.859	0.0133654
809.937	0.0134227
810.015	0.0134592
810.093	0.0135463
810.171	0.0134940
810.249	0.0135635
810.328	0.0135970
810.406	0.0135900
810.484	0.0135444
810.562	0.0133567
810.640	0.0134727
810.718	0.0134306
810.796	0.0134731
810.874	0.0134689
810.953	0.0134942
811.031	0.0136011
811.109	0.0135511
811.187	0.0134471
811.265	0.0134137
811.343	0.0136600
811.421	0.0135878
811.499	0.0135986
811.578	0.0134929
811.656	0.0134634
811.734	0.0135759
811.812	0.0135734
811.890	0.0135947
811.968	0.0136555
812.046	0.0135546
812.124	0.0136223
812.203	0.0135459
812.281	0.0136163
812.359	0.0135118
812.437	0.0136731
812.515	0.0134739
812.593	0.0135031
812.671	0.0136698
812.749	0.0137418
812.828	0.0135056
812.906	0.0134325
812.984	0.0133571
813.062	0.0134760
813.140	0.0133436
813.218	0.0133465
813.296	0.0134049
813.374	0.0134813
813.453	0.0133906
813.531	0.0134151
813.609	0.0133136
813.687	0.0133550
813.765	0.0133041
813.843	0.0134589
813.921	0.0134928
813.999	0.0133849
814.078	0.0131915
814.156	0.0133316
814.234	0.0135151
814.312	0.0133590
814.390	0.0134215
814.468	0.0133243
814.546	0.0135070
814.624	0.0135749
814.703	0.0135142
814.781	0.0134369
814.859	0.0134146
814.937	0.0135554
815.015	0.0136764
815.093	0.0135596
815.171	0.0136269
815.249	0.0135600
815.328	0.0136114
815.406	0.0136302
815.484	0.0136603
815.562	0.0136361
815.640	0.0135276
815.718	0.0135973
815.796	0.0138125
815.874	0.0135512
815.953	0.0135899
816.031	0.0135863
816.109	0.0135924
816.187	0.0135634
816.265	0.0134912
816.343	0.0135420
816.421	0.0135739
816.499	0.0134296
816.578	0.0136272
816.656	0.0135205
816.734	0.0134389
816.812	0.0133818
816.890	0.0134887
816.968	0.0134410
817.046	0.0135738
817.124	0.0136896
817.203	0.0135852
817.281	0.0133694
817.359	0.0133791
817.437	0.0133451
817.515	0.0134294
817.593	0.0134293
817.671	0.0135452
817.749	0.0134060
817.828	0.0133724
817.906	0.0133400
817.984	0.0133985
818.062	0.0133961
818.140	0.0132838
818.218	0.0134250
818.296	0.0133522
818.374	0.0135247
818.453	0.0135242
818.531	0.0134946
818.609	0.0136293
818.687	0.0136350
818.765	0.0136114
818.843	0.0136445
818.921	0.0136697
818.999	0.0137772
819.078	0.0137833
819.156	0.0137891
819.234	0.0136545
819.312	0.0136190
819.390	0.0137002
819.468	0.0135186
819.546	0.0136063
819.624	0.0135625
819.703	0.0135631
819.781	0.0135268
819.859	0.0135130
819.937	0.0136696
820.015	0.0135937
820.093	0.0133932
820.171	0.0135378
820.249	0.0135508
820.328	0.0134203
820.406	0.0134510
820.484	0.0134711
820.562	0.0134114
820.640	0.0135319
820.718	0.0134289
820.796	0.0132268
820.874	0.0134807
820.953	0.0132577
821.031	0.0132977
821.109	0.0133412
821.187	0.0134061
821.265	0.0133196
821.343	0.0134087
821.421	0.0133183
821.499	0.0133408
821.578	0.0134384
821.656	0.0134453
821.734	0.0135183
821.812	0.0135863
821.890	0.0134930
821.968	0.0134093
822.046	0.0134368
822.124	0.0135329
822.203	0.0135116
822.281	0.0136503
822.359	0.0136245
822.437	0.0137389
822.515	0.0136227
822.593	0.0136207
822.671	0.0136500
822.749	0.0136599
822.828	0.0137238
822.906	0.0136961
822.984	0.0137039
823.062	0.0137830
823.140	0.0136423
823.218	0.0136395
823.296	0.0136707
823.374	0.0136892
823.453	0.0136598
823.531	0.0135542
823.609	0.0135661
823.687	0.0136147
823.765	0.0134957
823.843	0.0134324
823.921	0.0135287
823.999	0.0134778
824.078	0.0133738
824.156	0.0134415
824.234	0.0134898
824.312	0.0133141
824.390	0.0134291
824.468	0.0134383
824.546	0.0133667
824.624	0.0133546
824.703	0.0133419
824.781	0.0134657
824.859	0.0132221
824.937	0.0133191
825.015	0.0134414
825.093	0.0132760
825.171	0.0134074
825.249	0.0134110
825.328	0.0133464
825.406	0.0133009
825.484	0.0134389
825.562	0.0135690
825.640	0.0135801
825.718	0.0135780
825.796	0.0133577
825.874	0.0135382
825.953	0.0135387
826.031	0.0136040
826.109	0.0135077
826.187	0.0136947
826.265	0.0135301
826.343	0.0135841
826.421	0.0137371
826.499	0.0136163
826.578	0.0136014
826.656	0.0136113
826.734	0.0135159
826.812	0.0135736
826.890	0.0136843
826.968	0.0134119
827.046	0.0136435
827.124	0.0135192
827.203	0.0135194
827.281	0.0134639
827.359	0.0136474
827.437	0.0135358
827.515	0.0136207
827.593	0.0134955
827.671	0.0136084
827.749	0.0135315
827.828	0.0134661
827.906	0.0135964
827.984	0.0135612
828.062	0.0135613
828.140	0.0134782
828.218	0.0134914
828.296	0.0135195
828.374	0.0136254
828.453	0.0135410
828.531	0.0134994
828.609	0.0133768
828.687	0.0134684
828.765	0.0134894
828.843	0.0135385
828.921	0.0133919
828.999	0.0134423
829.078	0.0133473
829.156	0.0132940
829.234	0.0134471
829.312	0.0135232
829.390	0.0135748
829.468	0.0134666
829.546	0.0134394
829.624	0.0135780
829.703	0.0136017
829.781	0.0135817
829.859	0.0134507
829.937	0.0134518
830.015	0.0137531
830.093	0.0135809
830.171	0.0135088
830.249	0.0135384
830.328	0.0136828
830.406	0.0136655
830.484	0.0134995
830.562	0.0135918
830.640	0.0137761
830.718	0.0136635
830.796	0.0137306
830.874	0.0136241
830.953	0.0134163
831.031	0.0135362
831.109	0.0135712
831.187	0.0134619
831.265	0.0135742
831.343	0.0135249
831.421	0.0137132
831.499	0.0136708
831.578	0.0135023
831.656	0.0135719
831.734	0.0134402
831.812	0.0135601
831.890	0.0136474
831.968	0.0136264
832.046	0.0135011
832.124	0.0134152
832.203	0.0134477
832.281	0.0135307
832.359	0.0135245
832.437	0.0135009
832.515	0.0134376
832.593	0.0133836
832.671	0.0134547
832.749	0.0133691
832.828	0.0133125
832.906	0.0133060
832.984	0.0133617
833.062	0.0133985
833.140	0.0134621
833.218	0.0133837
833.296	0.0134010
833.374	0.0135126
833.453	0.0133316
833.531	0.0136431
833.609	0.0134889
833.687	0.0134947
833.765	0.0133962
833.843	0.0135121
833.921	0.0135339
833.999	0.0136423
834.078	0.0135521
834.156	0.0135122
834.234	0.0135886
834.312	0.0135227
834.390	0.0135366
834.468	0.0134855
834.546	0.0135204
834.624	0.0135738
834.703	0.0133839
834.781	0.0135287
834.859	0.0135780
834.937	0.0136236
835.015	0.0136525
835.093	0.0136536
835.171	0.0134700
835.249	0.0135743
835.328	0.0135112
835.406	0.0135772
835.484	0.0135847
835.562	0.0135414
835.640	0.0135217
835.718	0.0134229
835.796	0.0134180
835.874	0.0134152
835.953	0.0133334
836.031	0.0133061
836.109	0.0133394
836.187	0.0133597
836.265	0.0133484
836.343	0.0133266
836.421	0.0132434
836.499	0.0133746
836.578	0.0132036
836.656	0.0132603
836.734	0.0132556
836.812	0.0133096
836.890	0.0133798
836.968	0.0133699
837.046	0.0133781
837.124	0.0134974
837.203	0.0136116
837.281	0.0134208
837.359	0.0135951
837.437	0.0136264
837.515	0.0135043
837.593	0.0134905
837.671	0.0135949
837.749	0.0135086
837.828	0.0135112
837.906	0.0134392
837.984	0.0134620
838.062	0.0135507
838.140	0.0135105
838.218	0.0135459
838.296	0.0134990
838.374	0.0134602
838.453	0.0135444
838.531	0.0133955
838.609	0.0134819
838.687	0.0134801
838.765	0.0134911
838.843	0.0134294
838.921	0.0135577
838.999	0.0133779
839.078	0.0133704
839.156	0.0133913
839.234	0.0134048
839.312	0.0134007
839.390	0.0135321
839.468	0.0133557
839.546	0.0132764
839.624	0.0133737
839.703	0.0133488
839.781	0.0133716
839.859	0.0133839
839.937	0.0133864
840.015	0.0133511
840.093	0.0133338
840.171	0.0133950
840.249	0.0134095
840.328	0.0132527
840.406	0.0133825
840.484	0.0134329
840.562	0.0133544
840.640	0.0134525
840.718	0.0134004
840.796	0.0134151
840.874	0.0134727
840.953	0.0134480
841.031	0.0133587
841.109	0.0134953
841.187	0.0134757
841.265	0.0134649
841.343	0.0133974
841.421	0.0135042
841.499	0.0134270
841.578	0.0134249
841.656	0.0135155
841.734	0.0134804
841.812	0.0134335
841.890	0.0134938
841.968	0.0136680
842.046	0.0134628
842.124	0.0135872
842.203	0.0136324
842.281	0.0134940
842.359	0.0134269
842.437	0.0135461
842.515	0.0135417
842.593	0.0136083
842.671	0.0135204
842.749	0.0134666
842.828	0.0135681
842.906	0.0135136
842.984	0.0136310
843.062	0.0135168
843.140	0.0134198
843.218	0.0135406
843.296	0.0135226
843.374	0.0134405
843.453	0.0134448
843.531	0.0135139
843.609	0.0135297
843.687	0.0133855
843.765	0.0134135
843.843	0.0134611
843.921	0.0135123
843.999	0.0135519
844.078	0.0134122
844.156	0.0133857
844.234	0.0133314
844.312	0.0132796
844.390	0.0132199
844.468	0.0135338
844.546	0.0135291
844.624	0.0134671
844.703	0.0132671
844.781	0.0135017
844.859	0.0134595
844.937	0.0133731
845.015	0.0134846
845.093	0.0134549
845.171	0.0135217
845.249	0.0136320
845.328	0.0136024
845.406	0.0136863
845.484	0.0136295
845.562	0.0134863
845.640	0.0136056
845.718	0.0136198
845.796	0.0135528
845.874	0.0136598
845.953	0.0134856
846.031	0.0136559
846.109	0.0134412
846.187	0.0134576
846.265	0.0134805
846.343	0.0135471
846.421	0.0135098
846.499	0.0134937
846.578	0.0134203
846.656	0.0133633
846.734	0.0133890
846.812	0.0133276
846.890	0.0133131
846.968	0.0133441
847.046	0.0134518
847.124	0.0133652
847.203	0.0134091
847.281	0.0133681
847.359	0.0133265
847.437	0.0133801
847.515	0.0134187
847.593	0.0133306
847.671	0.0133911
847.749	0.0133833
847.828	0.0134814
847.906	0.0135071
847.984	0.0133543
848.062	0.0134025
848.140	0.0134125
848.218	0.0134427
848.296	0.0134146
848.374	0.0135710
848.453	0.0135050
848.531	0.0133695
848.609	0.0135384
848.687	0.0135640
848.765	0.0135994
848.843	0.0135548
848.921	0.0134422
848.999	0.0135182
849.078	0.0135953
849.156	0.0135128
849.234	0.0134986
849.312	0.0135162
849.390	0.0135103
849.468	0.0134803
849.546	0.0134658
849.624	0.0135508
849.703	0.0135603
849.781	0.0134921
849.859	0.0134700
849.937	0.0134637
850.015	0.0135990
850.093	0.0133914
850.171	0.0133117
850.249	0.0133508
850.328	0.0134777
850.406	0.0133629
850.484	0.0133089
850.562	0.0133009
850.640	0.0132579
850.718	0.0132785
850.796	0.0134706
850.874	0.0134200
850.953	0.0133607
851.031	0.0134657
851.109	0.0133115
851.187	0.0132785
851.265	0.0133787
851.343	0.0132921
851.421	0.0133238
851.499	0.0135101
851.578	0.0134866
851.656	0.0133988
851.734	0.0134927
851.812	0.0134740
851.890	0.0135832
851.968	0.0134332
852.046	0.0134158
852.124	0.0133286
852.203	0.0134968
852.281	0.0134938
852.359	0.0133244
852.437	0.0134222
852.515	0.0135168
852.593	0.0135700
852.671	0.0135796
852.749	0.0135237
852.828	0.0132398
852.906	0.0133892
852.984	0.0134673
853.062	0.0134939
853.140	0.0133830
853.218	0.0132742
853.296	0.0133862
853.374	0.0132803
853.453	0.0134337
853.531	0.0134283
853.609	0.0134717
853.687	0.0134814
853.765	0.0133949
853.843	0.0133189
853.921	0.0133345
853.999	0.0135732
854.078	0.0134488
854.156	0.0133461
854.234	0.0132697
854.312	0.0133059
854.390	0.0133074
854.468	0.0133311
854.546	0.0134591
854.624	0.0133276
854.703	0.0134169
854.781	0.0133978
854.859	0.0133590
854.937	0.0133277
855.015	0.0135194
855.093	0.0135443
855.171	0.0134579
855.249	0.0134350
855.328	0.0135155
855.406	0.0135918
855.484	0.0135747
855.562	0.0134647
855.640	0.0134633
855.718	0.0134661
855.796	0.0134560
855.874	0.0135726
855.953	0.0135158
856.031	0.0134409
856.109	0.0134786
856.187	0.0135957
856.265	0.0135519
856.343	0.0134020
856.421	0.0133635
856.499	0.0135191
856.578	0.0133443
856.656	0.0133752
856.734	0.0133372
856.812	0.0132856
856.890	0.0133366
856.968	0.0134386
857.046	0.0132917
857.124	0.0134483
857.203	0.0134089
857.281	0.0134355
857.359	0.0134247
857.437	0.0136056
857.515	0.0135674
857.593	0.0134428
857.671	0.0134956
857.749	0.0134767
857.828	0.0134428
857.906	0.0135863
857.984	0.0135258
858.062	0.0136079
858.140	0.0134274
858.218	0.0133996
858.296	0.0134430
858.374	0.0134113
858.453	0.0135210
858.531	0.0133957
858.609	0.0134335
858.687	0.0136107
858.765	0.0134531
858.843	0.0135518
858.921	0.0134843
858.999	0.0133797
859.078	0.0135810
859.156	0.0135056
859.234	0.0135563
859.312	0.0135582
859.390	0.0134347
859.468	0.0134451
859.546	0.0133956
859.624	0.0133002
859.703	0.0134663
859.781	0.0134077
859.859	0.0133838
859.937	0.0133829
860.015	0.0133346
860.093	0.0134620
860.171	0.0134389
860.249	0.0134782
860.328	0.0132948
860.406	0.0134175
860.484	0.0133754
860.562	0.0133607
860.640	0.0133710
860.718	0.0133860
860.796	0.0133187
860.874	0.0134392
860.953	0.0133844
861.031	0.0133186
861.109	0.0134636
861.187	0.0133649
861.265	0.0133569
861.343	0.0133475
861.421	0.0133695
861.499	0.0134641
861.578	0.0134409
861.656	0.0133341
861.734	0.0134028
861.812	0.0134005
861.890	0.0134447
861.968	0.0134228
862.046	0.0133711
862.124	0.0133334
862.203	0.0135453
862.281	0.0135300
862.359	0.0133964
862.437	0.0134678
862.515	0.0134401
862.593	0.0134842
862.671	0.0134442
862.749	0.0134182
862.828	0.0132954
862.906	0.0134785
862.984	0.0134159
863.062	0.0133525
863.140	0.0134089
863.218	0.0133960
863.296	0.0133385
863.374	0.0133643
863.453	0.0134068
863.531	0.0133251
863.609	0.0133722
863.687	0.0133918
863.765	0.0133033
863.843	0.0134157
863.921	0.0133351
863.999	0.0133262
864.078	0.0133962
864.156	0.0135224
864.234	0.0133677
864.312	0.0134964
864.390	0.0135641
864.468	0.0135613
864.546	0.0135430
864.624	0.0134978
864.703	0.0136107
864.781	0.0135287
864.859	0.0134617
864.937	0.0135190
865.015	0.0136253
865.093	0.0135762
865.171	0.0133743
865.249	0.0134988
865.328	0.0136528
865.406	0.0134657
865.484	0.0136686
865.562	0.0134418
865.640	0.0133749
865.718	0.0136240
865.796	0.0135416
865.874	0.0133831
865.953	0.0134924
866.031	0.0134846
866.109	0.0134048
866.187	0.0133755
866.265	0.0133743
866.343	0.0134201
866.421	0.0133176
866.499	0.0133443
866.578	0.0132838
866.656	0.0133071
866.734	0.0133369
866.812	0.0133237
866.890	0.0133720
866.968	0.0133837
867.046	0.0133772
867.124	0.0132771
867.203	0.0134643
867.281	0.0134700
867.359	0.0134676
867.437	0.0133963
867.515	0.0134040
867.593	0.0133011
867.671	0.0133589
867.749	0.0133644
867.828	0.0133453
867.906	0.0133192
867.984	0.0133360
868.062	0.0134135
868.140	0.0134608
868.218	0.0134366
868.296	0.0136176
868.374	0.0136142
868.453	0.0134614
868.531	0.0134950
868.609	0.0134909
868.687	0.0136396
868.765	0.0134660
868.843	0.0136240
868.921	0.0135963
868.999	0.0135670
869.078	0.0135166
869.156	0.0135511
869.234	0.0135786
869.312	0.0134901
869.390	0.0136662
869.468	0.0134097
869.546	0.0134452
869.624	0.0135368
869.703	0.0134490
869.781	0.0135057
869.859	0.0134530
869.937	0.0133749
870.015	0.0134679
870.093	0.0134849
870.171	0.0134813
870.249	0.0134074
870.328	0.0133677
870.406	0.0134594
870.484	0.0134248
870.562	0.0135461
870.640	0.0133231
870.718	0.0131991
870.796	0.0133957
870.874	0.0134349
870.953	0.0133731
871.031	0.0133617
871.109	0.0133116
871.187	0.0133749
871.265	0.0134048
871.343	0.0132557
871.421	0.0132195
871.499	0.0134042
871.578	0.0134135
871.656	0.0134597
871.734	0.0132976
871.812	0.0133173
871.890	0.0132265
871.968	0.0133096
872.046	0.0133977
872.124	0.0133560
872.203	0.0134067
872.281	0.0133898
872.359	0.0135342
872.437	0.0133781
872.515	0.0133501
872.593	0.0134658
872.671	0.0134997
872.749	0.0134373
872.828	0.0133995
872.906	0.0134628
872.984	0.0135921
873.062	0.0135537
873.140	0.0136096
873.218	0.0135371
873.296	0.0134875
873.374	0.0136383
873.453	0.0135641
873.531	0.0136199
873.609	0.0134638
873.687	0.0134189
873.765	0.0134378
873.843	0.0134169
873.921	0.0135749
873.999	0.0133855
874.078	0.0133755
874.156	0.0134219
874.234	0.0134971
874.312	0.0134594
874.390	0.0132483
874.468	0.0133157
874.546	0.0133452
874.624	0.0133106
874.703	0.0133128
874.781	0.0133480
874.859	0.0134131
874.937	0.0133372
875.015	0.0132999
875.093	0.0133704
875.171	0.0132612
875.249	0.0133211
875.328	0.0133809
875.406	0.0133175
875.484	0.0133229
875.562	0.0133047
875.640	0.0132566
875.718	0.0134454
875.796	0.0133080
875.874	0.0134068
875.953	0.0133376
876.031	0.0133522
876.109	0.0135205
876.187	0.0134747
876.265	0.0135139
876.343	0.0133909
876.421	0.0134512
876.499	0.0134644
876.578	0.0134520
876.656	0.0134496
876.734	0.0136272
876.812	0.0134945
876.890	0.0133524
876.968	0.0133748
877.046	0.0134615
877.124	0.0134349
877.203	0.0136551
877.281	0.0134275
877.359	0.0134055
877.437	0.0133564
877.515	0.0134424
877.593	0.0134290
877.671	0.0134267
877.749	0.0133908
877.828	0.0132877
877.906	0.0134515
877.984	0.0135587
878.062	0.0134209
878.140	0.0134528
878.218	0.0134488
878.296	0.0134961
878.374	0.0134405
878.453	0.0135287
878.531	0.0135928
878.609	0.0135677
878.687	0.0133939
878.765	0.0134608
878.843	0.0133776
878.921	0.0133306
878.999	0.0133434
879.078	0.0133240
879.156	0.0133232
879.234	0.0132605
879.312	0.0132391
879.390	0.0132971
879.468	0.0133463
879.546	0.0132203
879.624	0.0134952
879.703	0.0134012
879.781	0.0132961
879.859	0.0133631
879.937	0.0135004
880.015	0.0134566
880.093	0.0134573
880.171	0.0134466
880.249	0.0135863
880.328	0.0136246
880.406	0.0136522
880.484	0.0136624
880.562	0.0136108
880.640	0.0135777
880.718	0.0134761
880.796	0.0135108
880.874	0.0135809
880.953	0.0135578
881.031	0.0135279
881.109	0.0134244
881.187	0.0134274
881.265	0.0135252
881.343	0.0135185
881.421	0.0134551
881.499	0.0135535
881.578	0.0134548
881.656	0.0133392
881.734	0.0132948
881.812	0.0134005
881.890	0.0134025
881.968	0.0133663
882.046	0.0133762
882.124	0.0132990
882.203	0.0133647
882.281	0.0132752
882.359	0.0133837
882.437	0.0132325
882.515	0.0132378
882.593	0.0132954
882.671	0.0131985
882.749	0.0132827
882.828	0.0133089
882.906	0.0132369
882.984	0.0133711
883.062	0.0133276
883.140	0.0132793
883.218	0.0135801
883.296	0.0136572
883.374	0.0135022
883.453	0.0136604
883.531	0.0136246
883.609	0.0135645
883.687	0.0135966
883.765	0.0136883
883.843	0.0137158
883.921	0.0138403
883.999	0.0138951
884.078	0.0137574
884.156	0.0136597
884.234	0.0138564
884.312	0.0136536
884.390	0.0136887
884.468	0.0136681
884.546	0.0134927
884.624	0.0136918
884.703	0.0135652
884.781	0.0134982
884.859	0.0134396
884.937	0.0135063
885.015	0.0132722
885.093	0.0133360
885.171	0.0134144
885.249	0.0132284
885.328	0.0132156
885.406	0.0132655
885.484	0.0134163
885.562	0.0132635
885.640	0.0132634
885.718	0.0134353
885.796	0.0133875
885.874	0.0133274
885.953	0.0133170
886.031	0.0134273
886.109	0.0133662
886.187	0.0133615
886.265	0.0134975
886.343	0.0135493
886.421	0.0134036
886.499	0.0133484
886.578	0.0134165
886.656	0.0134526
886.734	0.0134766
886.812	0.0135533
886.890	0.0135117
886.968	0.0135044
887.046	0.0136454
887.124	0.0136906
887.203	0.0136091
887.281	0.0137334
887.359	0.0137679
887.437	0.0137117
887.515	0.0139065
887.593	0.0138049
887.671	0.0137224
887.749	0.0136293
887.828	0.0137577
887.906	0.0136215
887.984	0.0135862
888.062	0.0136522
888.140	0.0136587
888.218	0.0134689
888.296	0.0134222
888.374	0.0133333
888.453	0.0134464
888.531	0.0134489
888.609	0.0131834
888.687	0.0132527
888.765	0.0131392
888.843	0.0132304
888.921	0.0131988
888.999	0.0132972
889.078	0.0132988
889.156	0.0132478
889.234	0.0132726
889.312	0.0132986
889.390	0.0133427
889.468	0.0133574
889.546	0.0133804
889.624	0.0133572
889.703	0.0132680
889.781	0.0134186
889.859	0.0134829
889.937	0.0132852
890.015	0.0134590
890.093	0.0135265
890.171	0.0132925
890.249	0.0133070
890.328	0.0132552
890.406	0.0133811
890.484	0.0134267
890.562	0.0134576
890.640	0.0135084
890.718	0.0134275
890.796	0.0134791
890.874	0.0136594
890.953	0.0135799
891.031	0.0137038
891.109	0.0136993
891.187	0.0137861
891.265	0.0136652
891.343	0.0137578
891.421	0.0139533
891.499	0.0138179
891.578	0.0138277
891.656	0.0137499
891.734	0.0137691
891.812	0.0137186
891.890	0.0136351
891.968	0.0134514
892.046	0.0134846
892.124	0.0134647
892.203	0.0134353
892.281	0.0133321
892.359	0.0133715
892.437	0.0134611
892.515	0.0133579
892.593	0.0131860
892.671	0.0132253
892.749	0.0131754
892.828	0.0132730
892.906	0.0131743
892.984	0.0131316
893.062	0.0132758
893.140	0.0132531
893.218	0.0133670
893.296	0.0133005
893.374	0.0132907
893.453	0.0133442
893.531	0.0132716
893.609	0.0133329
893.687	0.0134345
893.765	0.0133643
893.843	0.0132950
893.921	0.0133567
893.999	0.0133982
894.078	0.0133739
894.156	0.0134770
894.234	0.0134754
894.312	0.0134521
894.390	0.0134470
894.468	0.0134636
894.546	0.0136057
894.624	0.0136660
894.703	0.0137064
894.781	0.0135996
894.859	0.0137549
894.937	0.0137440
895.015	0.0138150
895.093	0.0137225
895.171	0.0136010
895.249	0.0137507
895.328	0.0137055
895.406	0.0137009
895.484	0.0137363
895.562	0.0137700
895.640	0.0136633
895.718	0.0137186
895.796	0.0135989
895.874	0.0135194
895.953	0.0135552
896.031	0.0133996
896.109	0.0135051
896.187	0.0133646
896.265	0.0133533
896.343	0.0134080
896.421	0.0134265
896.499	0.0132870
896.578	0.0132684
896.656	0.0133050
896.734	0.0133760
896.812	0.0133299
896.890	0.0132522
896.968	0.0133660
897.046	0.0134272
897.124	0.0132568
897.203	0.0134406
897.281	0.0134694
897.359	0.0133425
897.437	0.0133794
897.515	0.0135264
897.593	0.0133707
897.671	0.0134232
897.749	0.0134122
897.828	0.0134319
897.906	0.0135246
897.984	0.0135257
898.062	0.0135827
898.140	0.0135857
898.218	0.0135099
898.296	0.0135114
898.374	0.0135000
898.453	0.0137189
898.531	0.0137658
898.609	0.0137160
898.687	0.0137998
898.765	0.0137276
898.843	0.0138137
898.921	0.0137482
898.999	0.0137215
899.078	0.0137164
899.156	0.0137120
899.234	0.0136362
899.312	0.0136346
899.390	0.0135883
899.468	0.0136103
899.546	0.0136060
899.624	0.0134502
899.703	0.0134509
899.781	0.0135348
899.859	0.0133758
899.937	0.0132216
900.015	0.0133643
900.093	0.0134159
900.171	0.0132091
900.249	0.0131681
900.328	0.0133231
900.406	0.0132277
900.484	0.0133949
900.562	0.0133144
900.640	0.0133745
900.718	0.0132399
900.796	0.0134608
900.874	0.0133562
900.953	0.0133843
901.031	0.0134232
901.109	0.0134573
901.187	0.0134492
901.265	0.0133960
901.343	0.0135155
901.421	0.0134986
901.499	0.0134214
901.578	0.0135719
901.656	0.0134989
901.734	0.0135918
901.812	0.0134786
901.890	0.0134372
901.968	0.0135336
902.046	0.0135375
902.124	0.0136716
902.203	0.0137083
902.281	0.0136722
902.359	0.0137563
902.437	0.0137335
902.515	0.0136868
902.593	0.0137608
902.671	0.0137881
902.749	0.0137556
902.828	0.0137402
902.906	0.0137512
902.984	0.0136079
903.062	0.0135617
903.140	0.0135506
903.218	0.0135365
903.296	0.0134351
903.374	0.0135396
903.453	0.0134141
903.531	0.0135698
903.609	0.0133492
903.687	0.0133400
903.765	0.0135365
903.843	0.0134248
903.921	0.0133324
903.999	0.0131584
904.078	0.0133334
904.156	0.0132774
904.234	0.0132716
904.312	0.0132997
904.390	0.0134009
904.468	0.0134327
904.546	0.0133968
904.624	0.0133595
904.703	0.0132890
904.781	0.0133314
904.859	0.0136028
904.937	0.0134258
905.015	0.0133875
905.093	0.0135564
905.171	0.0135069
905.249	0.0134096
905.328	0.0135035
905.406	0.0135923
905.484	0.0135550
905.562	0.0135645
905.640	0.0136094
905.718	0.0135628
905.796	0.0134508
905.874	0.0135288
905.953	0.0136076
906.031	0.0136819
906.109	0.0135696
906.187	0.0137263
906.265	0.0135500
906.343	0.0135934
906.421	0.0137543
906.499	0.0136699
906.578	0.0135191
906.656	0.0135443
906.734	0.0135677
906.812	0.0134196
906.890	0.0134618
906.968	0.0134856
907.046	0.0134121
907.124	0.0135104
907.203	0.0133566
907.281	0.0133951
907.359	0.0132797
907.437	0.0132945
907.515	0.0133051
907.593	0.0132956
907.671	0.0132836
907.749	0.0133559
907.828	0.0133412
907.906	0.0132558
907.984	0.0134080
908.062	0.0134227
908.140	0.0135033
908.218	0.0135189
908.296	0.0134992
908.374	0.0135294
908.453	0.0134529
908.531	0.0135313
908.609	0.0135403
908.687	0.0134266
908.765	0.0135924
908.843	0.0135464
908.921	0.0135812
908.999	0.0135556
909.078	0.0137573
909.156	0.0137570
909.234	0.0135403
909.312	0.0135301
909.390	0.0134629
909.468	0.0137604
909.546	0.0135802
909.624	0.0134641
909.703	0.0135873
909.781	0.0135286
909.859	0.0135765
909.937	0.0136357
910.015	0.0136005
910.093	0.0136346
910.171	0.0134641
910.249	0.0134897
910.328	0.0136330
910.406	0.0134624
910.484	0.0133379
910.562	0.0133422
910.640	0.0135242
910.718	0.0133657
910.796	0.0133005
910.874	0.0133725
910.953	0.0134638
911.031	0.0133658
911.109	0.0134229
911.187	0.0134275
911.265	0.0133937
911.343	0.0133681
911.421	0.0134007
911.499	0.0134069
911.578	0.0134365
911.656	0.0135463
911.734	0.0133730
911.812	0.0134198
911.890	0.0135307
911.968	0.0135099
912.046	0.0134773
912.124	0.0134763
912.203	0.0135405
912.281	0.0135670
912.359	0.0136153
912.437	0.0136342
912.515	0.0136010
912.593	0.0136807
912.671	0.0137500
912.749	0.0135822
912.828	0.0135436
912.906	0.0137155
912.984	0.0137302
913.062	0.0135830
913.140	0.0136075
913.218	0.0135163
913.296	0.0137054
913.374	0.0134958
913.453	0.0134298
913.531	0.0135091
913.609	0.0133038
913.687	0.0135168
913.765	0.0135644
913.843	0.0135013
913.921	0.0134004
913.999	0.0134196
914.078	0.0133519
914.156	0.0134660
914.234	0.0135083
914.312	0.0133078
914.390	0.0134251
914.468	0.0134705
914.546	0.0133963
914.624	0.0135827
914.703	0.0134772
914.781	0.0134576
914.859	0.0134268
914.937	0.0134321
915.015	0.0134603
915.093	0.0134525
915.171	0.0135019
915.249	0.0134995
915.328	0.0135149
915.406	0.0135497
915.484	0.0135603
915.562	0.0135717
915.640	0.0134970
915.718	0.0133945
915.796	0.0136625
915.874	0.0135575
915.953	0.0136008
916.031	0.0135181
916.109	0.0136825
916.187	0.0136508
916.265	0.0136421
916.343	0.0136521
916.421	0.0136899
916.499	0.0134747
916.578	0.0136458
916.656	0.0135419
916.734	0.0135869
916.812	0.0134609
916.890	0.0134827
916.968	0.0135703
917.046	0.0135146
917.124	0.0135390
917.203	0.0134783
917.281	0.0135166
917.359	0.0134472
917.437	0.0134364
917.515	0.0135504
917.593	0.0134751
917.671	0.0132839
917.749	0.0133562
917.828	0.0134275
917.906	0.0133301
917.984	0.0134454
918.062	0.0135104
918.140	0.0133746
918.218	0.0135056
918.296	0.0134920
918.374	0.0134963
918.453	0.0135107
918.531	0.0135108
918.609	0.0135669
918.687	0.0134893
918.765	0.0134530
918.843	0.0135294
918.921	0.0133414
918.999	0.0134758
919.078	0.0135093
919.156	0.0135126
919.234	0.0136317
919.312	0.0134809
919.390	0.0134294
919.468	0.0134735
919.546	0.0135353
919.624	0.0134864
919.703	0.0134372
919.781	0.0135203
919.859	0.0136385
919.937	0.0136215
