05/06/2022	18:50:29	Ver.	4.1	UNKNOWN
Optical Delay	600.015094	Delta X		0.078125	Sweeps	1	Scan Rate	0/0
Coordinates	Axis 1	NaN	Axis 2	NaN	Axis 3	NaN	Axis 4	NaN	Axis 5	NaN	Axis 6	0.000000
TX Power	0.000000	RX Power	0.000000

600.015	0.0133252
600.093	0.0134488
600.171	0.0131984
600.249	0.0133767
600.328	0.0132236
600.406	0.0134090
600.484	0.0132911
600.562	0.0132559
600.640	0.0132650
600.718	0.0134356
600.796	0.0133852
600.874	0.0133964
600.953	0.0134172
601.031	0.0133550
601.109	0.0134641
601.187	0.0133070
601.265	0.0132458
601.343	0.0133324
601.421	0.0133428
601.499	0.0134155
601.578	0.0133086
601.656	0.0132683
601.734	0.0133749
601.812	0.0134993
601.890	0.0132719
601.968	0.0133057
602.046	0.0133832
602.124	0.0133354
602.203	0.0133875
602.281	0.0132265
602.359	0.0133959
602.437	0.0133202
602.515	0.0133456
602.593	0.0133427
602.671	0.0133976
602.749	0.0132155
602.828	0.0132123
602.906	0.0133994
602.984	0.0132878
603.062	0.0132700
603.140	0.0133424
603.218	0.0133788
603.296	0.0134175
603.374	0.0133236
603.453	0.0134286
603.531	0.0133097
603.609	0.0133434
603.687	0.0133555
603.765	0.0134084
603.843	0.0133612
603.921	0.0133041
603.999	0.0132796
604.078	0.0132641
604.156	0.0133727
604.234	0.0133878
604.312	0.0132828
604.390	0.0133865
604.468	0.0133088
604.546	0.0133384
604.624	0.0132634
604.703	0.0131853
604.781	0.0132835
604.859	0.0133346
604.937	0.0133491
605.015	0.0133881
605.093	0.0132715
605.171	0.0133464
605.249	0.0134164
605.328	0.0133696
605.406	0.0132146
605.484	0.0132185
605.562	0.0132877
605.640	0.0133421
605.718	0.0133387
605.796	0.0131555
605.874	0.0132324
605.953	0.0132070
606.031	0.0134377
606.109	0.0133492
606.187	0.0131560
606.265	0.0132503
606.343	0.0134425
606.421	0.0132220
606.499	0.0131591
606.578	0.0132269
606.656	0.0133118
606.734	0.0133553
606.812	0.0132272
606.890	0.0131599
606.968	0.0134710
607.046	0.0134357
607.124	0.0133092
607.203	0.0133083
607.281	0.0132352
607.359	0.0132735
607.437	0.0133546
607.515	0.0134199
607.593	0.0132075
607.671	0.0132463
607.749	0.0134570
607.828	0.0131513
607.906	0.0131781
607.984	0.0133163
608.062	0.0134030
608.140	0.0133298
608.218	0.0132108
608.296	0.0133291
608.374	0.0133636
608.453	0.0133833
608.531	0.0132748
608.609	0.0132654
608.687	0.0131995
608.765	0.0133704
608.843	0.0133372
608.921	0.0131863
608.999	0.0133487
609.078	0.0134022
609.156	0.0133001
609.234	0.0132230
609.312	0.0133104
609.390	0.0133109
609.468	0.0134003
609.546	0.0133598
609.624	0.0133041
609.703	0.0131917
609.781	0.0133876
609.859	0.0133808
609.937	0.0132360
610.015	0.0132568
610.093	0.0133092
610.171	0.0133158
610.249	0.0132455
610.328	0.0131873
610.406	0.0133076
610.484	0.0133075
610.562	0.0132738
610.640	0.0132941
610.718	0.0132292
610.796	0.0133481
610.874	0.0134872
610.953	0.0133741
611.031	0.0134149
611.109	0.0132617
611.187	0.0132123
611.265	0.0133261
611.343	0.0133936
611.421	0.0133611
611.499	0.0133901
611.578	0.0131100
611.656	0.0133064
611.734	0.0132826
611.812	0.0133158
611.890	0.0131992
611.968	0.0131910
612.046	0.0133939
612.124	0.0132568
612.203	0.0132964
612.281	0.0131825
612.359	0.0133083
612.437	0.0133323
612.515	0.0132763
612.593	0.0132002
612.671	0.0132079
612.749	0.0132570
612.828	0.0134357
612.906	0.0133904
612.984	0.0132520
613.062	0.0133091
613.140	0.0132998
613.218	0.0132375
613.296	0.0132319
613.374	0.0131725
613.453	0.0132454
613.531	0.0135331
613.609	0.0132992
613.687	0.0132352
613.765	0.0132784
613.843	0.0132719
613.921	0.0133118
613.999	0.0132326
614.078	0.0133514
614.156	0.0132920
614.234	0.0132554
614.312	0.0132596
614.390	0.0132414
614.468	0.0133048
614.546	0.0133639
614.624	0.0131713
614.703	0.0133768
614.781	0.0132038
614.859	0.0132234
614.937	0.0132858
615.015	0.0131440
615.093	0.0132890
615.171	0.0133512
615.249	0.0132381
615.328	0.0132674
615.406	0.0131698
615.484	0.0131868
615.562	0.0133553
615.640	0.0132224
615.718	0.0132154
615.796	0.0133959
615.874	0.0132432
615.953	0.0131940
616.031	0.0133038
616.109	0.0133955
616.187	0.0133372
616.265	0.0132745
616.343	0.0133887
616.421	0.0133865
616.499	0.0133105
616.578	0.0132837
616.656	0.0133860
616.734	0.0132091
616.812	0.0132182
616.890	0.0132642
616.968	0.0132683
617.046	0.0132773
617.124	0.0132977
617.203	0.0133203
617.281	0.0132993
617.359	0.0133929
617.437	0.0133405
617.515	0.0133401
617.593	0.0133393
617.671	0.0132969
617.749	0.0132985
617.828	0.0132646
617.906	0.0133079
617.984	0.0133252
618.062	0.0133069
618.140	0.0134026
618.218	0.0134228
618.296	0.0132156
618.374	0.0132336
618.453	0.0132907
618.531	0.0133932
618.609	0.0134097
618.687	0.0133755
618.765	0.0133237
618.843	0.0133290
618.921	0.0133595
618.999	0.0132567
619.078	0.0133655
619.156	0.0132641
619.234	0.0133160
619.312	0.0132536
619.390	0.0131920
619.468	0.0133092
619.546	0.0133773
619.624	0.0133055
619.703	0.0133991
619.781	0.0132748
619.859	0.0132460
619.937	0.0133189
620.015	0.0133946
620.093	0.0133772
620.171	0.0132437
620.249	0.0132611
620.328	0.0132478
620.406	0.0133131
620.484	0.0132371
620.562	0.0133463
620.640	0.0133089
620.718	0.0133886
620.796	0.0132130
620.874	0.0133353
620.953	0.0132125
621.031	0.0133083
621.109	0.0132452
621.187	0.0132767
621.265	0.0133917
621.343	0.0131695
621.421	0.0131309
621.499	0.0132356
621.578	0.0133122
621.656	0.0133234
621.734	0.0133472
621.812	0.0132857
621.890	0.0134082
621.968	0.0132954
622.046	0.0132993
622.124	0.0133543
622.203	0.0132909
622.281	0.0131565
622.359	0.0133978
622.437	0.0133463
622.515	0.0133844
622.593	0.0132587
622.671	0.0131830
622.749	0.0132840
622.828	0.0133151
622.906	0.0133386
622.984	0.0133772
623.062	0.0133073
623.140	0.0133566
623.218	0.0133311
623.296	0.0132798
623.374	0.0131828
623.453	0.0132254
623.531	0.0132049
623.609	0.0132713
623.687	0.0133161
623.765	0.0132829
623.843	0.0133540
623.921	0.0132120
623.999	0.0132317
624.078	0.0132066
624.156	0.0131747
624.234	0.0131469
624.312	0.0132758
624.390	0.0132744
624.468	0.0132949
624.546	0.0131969
624.624	0.0132671
624.703	0.0132977
624.781	0.0133498
624.859	0.0133863
624.937	0.0132602
625.015	0.0133714
625.093	0.0133806
625.171	0.0131902
625.249	0.0132758
625.328	0.0132818
625.406	0.0133202
625.484	0.0132964
625.562	0.0133212
625.640	0.0132186
625.718	0.0132641
625.796	0.0132013
625.874	0.0131974
625.953	0.0132353
626.031	0.0132127
626.109	0.0132050
626.187	0.0132799
626.265	0.0132555
626.343	0.0133243
626.421	0.0134020
626.499	0.0132436
626.578	0.0133269
626.656	0.0132313
626.734	0.0132769
626.812	0.0133028
626.890	0.0133245
626.968	0.0132505
627.046	0.0133298
627.124	0.0132915
627.203	0.0132370
627.281	0.0134051
627.359	0.0133374
627.437	0.0132044
627.515	0.0131892
627.593	0.0133559
627.671	0.0132290
627.749	0.0132310
627.828	0.0134097
627.906	0.0133606
627.984	0.0134133
628.062	0.0132972
628.140	0.0132712
628.218	0.0132149
628.296	0.0131939
628.374	0.0132314
628.453	0.0132869
628.531	0.0133259
628.609	0.0132162
628.687	0.0133472
628.765	0.0131725
628.843	0.0132722
628.921	0.0132809
628.999	0.0133394
629.078	0.0132665
629.156	0.0133473
629.234	0.0132787
629.312	0.0133988
629.390	0.0133624
629.468	0.0131007
629.546	0.0131790
629.624	0.0133320
629.703	0.0132860
629.781	0.0133390
629.859	0.0134576
629.937	0.0133013
630.015	0.0131940
630.093	0.0131978
630.171	0.0132276
630.249	0.0132330
630.328	0.0133369
630.406	0.0134395
630.484	0.0132175
630.562	0.0132995
630.640	0.0132050
630.718	0.0131599
630.796	0.0132245
630.874	0.0132228
630.953	0.0132687
631.031	0.0133120
631.109	0.0131940
631.187	0.0132075
631.265	0.0131849
631.343	0.0132824
631.421	0.0132001
631.499	0.0132509
631.578	0.0133271
631.656	0.0133195
631.734	0.0131635
631.812	0.0132260
631.890	0.0132418
631.968	0.0133244
632.046	0.0131870
632.124	0.0133157
632.203	0.0132652
632.281	0.0132070
632.359	0.0133244
632.437	0.0132771
632.515	0.0132986
632.593	0.0131933
632.671	0.0133299
632.749	0.0132105
632.828	0.0132337
632.906	0.0131955
632.984	0.0131537
633.062	0.0132887
633.140	0.0131832
633.218	0.0132687
633.296	0.0133652
633.374	0.0132053
633.453	0.0132645
633.531	0.0131903
633.609	0.0132233
633.687	0.0132068
633.765	0.0134084
633.843	0.0132861
633.921	0.0132516
633.999	0.0131168
634.078	0.0132159
634.156	0.0134266
634.234	0.0133081
634.312	0.0132512
634.390	0.0131629
634.468	0.0133145
634.546	0.0132790
634.624	0.0133871
634.703	0.0132592
634.781	0.0133775
634.859	0.0132907
634.937	0.0133696
635.015	0.0132448
635.093	0.0133458
635.171	0.0132603
635.249	0.0132763
635.328	0.0133917
635.406	0.0133476
635.484	0.0131778
635.562	0.0132179
635.640	0.0132555
635.718	0.0133678
635.796	0.0134155
635.874	0.0135093
635.953	0.0132133
636.031	0.0133269
636.109	0.0133306
636.187	0.0134088
636.265	0.0133464
636.343	0.0131720
636.421	0.0132812
636.499	0.0134297
636.578	0.0132381
636.656	0.0133257
636.734	0.0132257
636.812	0.0134021
636.890	0.0132976
636.968	0.0132976
637.046	0.0133585
637.124	0.0134364
637.203	0.0132953
637.281	0.0133862
637.359	0.0132443
637.437	0.0132380
637.515	0.0133286
637.593	0.0132357
637.671	0.0133203
637.749	0.0132394
637.828	0.0133105
637.906	0.0133839
637.984	0.0134281
638.062	0.0133275
638.140	0.0132979
638.218	0.0132597
638.296	0.0132787
638.374	0.0132804
638.453	0.0132867
638.531	0.0132919
638.609	0.0132986
638.687	0.0133117
638.765	0.0133937
638.843	0.0133452
638.921	0.0133106
638.999	0.0132983
639.078	0.0134146
639.156	0.0132604
639.234	0.0132912
639.312	0.0132767
639.390	0.0133516
639.468	0.0132883
639.546	0.0132859
639.624	0.0131886
639.703	0.0132261
639.781	0.0131583
639.859	0.0131989
639.937	0.0131721
640.015	0.0133107
640.093	0.0133504
640.171	0.0132424
640.249	0.0133570
640.328	0.0131574
640.406	0.0131813
640.484	0.0133937
640.562	0.0130832
640.640	0.0132236
640.718	0.0133475
640.796	0.0133404
640.874	0.0133212
640.953	0.0132800
641.031	0.0132200
641.109	0.0131522
641.187	0.0132579
641.265	0.0134425
641.343	0.0132116
641.421	0.0132921
641.499	0.0132979
641.578	0.0132693
641.656	0.0133501
641.734	0.0132039
641.812	0.0132272
641.890	0.0132382
641.968	0.0132233
642.046	0.0133619
642.124	0.0132795
642.203	0.0131761
642.281	0.0132026
642.359	0.0131569
642.437	0.0132722
642.515	0.0131615
642.593	0.0131427
642.671	0.0132494
642.749	0.0132883
642.828	0.0133328
642.906	0.0132133
642.984	0.0133211
643.062	0.0133958
643.140	0.0132196
643.218	0.0133605
643.296	0.0133252
643.374	0.0134266
643.453	0.0133088
643.531	0.0133137
643.609	0.0133081
643.687	0.0132182
643.765	0.0131251
643.843	0.0132617
643.921	0.0133491
643.999	0.0133373
644.078	0.0132760
644.156	0.0133820
644.234	0.0133893
644.312	0.0132312
644.390	0.0133546
644.468	0.0132405
644.546	0.0132805
644.624	0.0131805
644.703	0.0133603
644.781	0.0132430
644.859	0.0132297
644.937	0.0131194
645.015	0.0132826
645.093	0.0132793
645.171	0.0132196
645.249	0.0132520
645.328	0.0133367
645.406	0.0132817
645.484	0.0133327
645.562	0.0133744
645.640	0.0133630
645.718	0.0132628
645.796	0.0132056
645.874	0.0132862
645.953	0.0133119
646.031	0.0133834
646.109	0.0133765
646.187	0.0133419
646.265	0.0134312
646.343	0.0132318
646.421	0.0132487
646.499	0.0131320
646.578	0.0132751
646.656	0.0132993
646.734	0.0131099
646.812	0.0131777
646.890	0.0132793
646.968	0.0133479
647.046	0.0133380
647.124	0.0133638
647.203	0.0132187
647.281	0.0133138
647.359	0.0132200
647.437	0.0133463
647.515	0.0133713
647.593	0.0133049
647.671	0.0131892
647.749	0.0133329
647.828	0.0132846
647.906	0.0133704
647.984	0.0132770
648.062	0.0133191
648.140	0.0133401
648.218	0.0133688
648.296	0.0134000
648.374	0.0134185
648.453	0.0132968
648.531	0.0132693
648.609	0.0132341
648.687	0.0133479
648.765	0.0133144
648.843	0.0132894
648.921	0.0132194
648.999	0.0132939
649.078	0.0132676
649.156	0.0133040
649.234	0.0131461
649.312	0.0133481
649.390	0.0132826
649.468	0.0132038
649.546	0.0133672
649.624	0.0132481
649.703	0.0132620
649.781	0.0132790
649.859	0.0131801
649.937	0.0132359
650.015	0.0133584
650.093	0.0133657
650.171	0.0133104
650.249	0.0131598
650.328	0.0132661
650.406	0.0133432
650.484	0.0133179
650.562	0.0132735
650.640	0.0132791
650.718	0.0133424
650.796	0.0133700
650.874	0.0133562
650.953	0.0133035
651.031	0.0133987
651.109	0.0133446
651.187	0.0133330
651.265	0.0134003
651.343	0.0132357
651.421	0.0132658
651.499	0.0132423
651.578	0.0133135
651.656	0.0131918
651.734	0.0131892
651.812	0.0133181
651.890	0.0131836
651.968	0.0133025
652.046	0.0132619
652.124	0.0131945
652.203	0.0132732
652.281	0.0133503
652.359	0.0131362
652.437	0.0131824
652.515	0.0133341
652.593	0.0133176
652.671	0.0132712
652.749	0.0131879
652.828	0.0133004
652.906	0.0132795
652.984	0.0132653
653.062	0.0133012
653.140	0.0133755
653.218	0.0131880
653.296	0.0133185
653.374	0.0133235
653.453	0.0133358
653.531	0.0132780
653.609	0.0131163
653.687	0.0133034
653.765	0.0132141
653.843	0.0133694
653.921	0.0133321
653.999	0.0133580
654.078	0.0133548
654.156	0.0132864
654.234	0.0135139
654.312	0.0133861
654.390	0.0132461
654.468	0.0133584
654.546	0.0132958
654.624	0.0133458
654.703	0.0133733
654.781	0.0132458
654.859	0.0133263
654.937	0.0134944
655.015	0.0132710
655.093	0.0133331
655.171	0.0133253
655.249	0.0133628
655.328	0.0133831
655.406	0.0133797
655.484	0.0132471
655.562	0.0133244
655.640	0.0134502
655.718	0.0133677
655.796	0.0132403
655.874	0.0133681
655.953	0.0133862
656.031	0.0134037
656.109	0.0132174
656.187	0.0133732
656.265	0.0134299
656.343	0.0133913
656.421	0.0133031
656.499	0.0133087
656.578	0.0133604
656.656	0.0132703
656.734	0.0132453
656.812	0.0131911
656.890	0.0133810
656.968	0.0133464
657.046	0.0132976
657.124	0.0133161
657.203	0.0133091
657.281	0.0133343
657.359	0.0133826
657.437	0.0132458
657.515	0.0132661
657.593	0.0133131
657.671	0.0133742
657.749	0.0132732
657.828	0.0134030
657.906	0.0133724
657.984	0.0134518
658.062	0.0133580
658.140	0.0131270
658.218	0.0133832
658.296	0.0134077
658.374	0.0131474
658.453	0.0133936
658.531	0.0133635
658.609	0.0133366
658.687	0.0131835
658.765	0.0132199
658.843	0.0132191
658.921	0.0133669
658.999	0.0132086
659.078	0.0133585
659.156	0.0133485
659.234	0.0133788
659.312	0.0132352
659.390	0.0133801
659.468	0.0132623
659.546	0.0131763
659.624	0.0133165
659.703	0.0133434
659.781	0.0132203
659.859	0.0133700
659.937	0.0133049
660.015	0.0133138
660.093	0.0131835
660.171	0.0133659
660.249	0.0133895
660.328	0.0132065
660.406	0.0133173
660.484	0.0134393
660.562	0.0133226
660.640	0.0132888
660.718	0.0131440
660.796	0.0132477
660.874	0.0132275
660.953	0.0132573
661.031	0.0134177
661.109	0.0132706
661.187	0.0133274
661.265	0.0134034
661.343	0.0131738
661.421	0.0133621
661.499	0.0133353
661.578	0.0133913
661.656	0.0133495
661.734	0.0133037
661.812	0.0133340
661.890	0.0132466
661.968	0.0131915
662.046	0.0134554
662.124	0.0133235
662.203	0.0133064
662.281	0.0131137
662.359	0.0131973
662.437	0.0133484
662.515	0.0133016
662.593	0.0132811
662.671	0.0133321
662.749	0.0133215
662.828	0.0132217
662.906	0.0133870
662.984	0.0132337
663.062	0.0132553
663.140	0.0133482
663.218	0.0133401
663.296	0.0133296
663.374	0.0132678
663.453	0.0131967
663.531	0.0133688
663.609	0.0133720
663.687	0.0132832
663.765	0.0133722
663.843	0.0133070
663.921	0.0133038
663.999	0.0134789
664.078	0.0134439
664.156	0.0133096
664.234	0.0132551
664.312	0.0133957
664.390	0.0132742
664.468	0.0132826
664.546	0.0132928
664.624	0.0133495
664.703	0.0132092
664.781	0.0135316
664.859	0.0132652
664.937	0.0131258
665.015	0.0133249
665.093	0.0133379
665.171	0.0131968
665.249	0.0133333
665.328	0.0135121
665.406	0.0133156
665.484	0.0133445
665.562	0.0132658
665.640	0.0132635
665.718	0.0135235
665.796	0.0133389
665.874	0.0132679
665.953	0.0134418
666.031	0.0133150
666.109	0.0132109
666.187	0.0133273
666.265	0.0132272
666.343	0.0132304
666.421	0.0134096
666.499	0.0133401
666.578	0.0133310
666.656	0.0133136
666.734	0.0133036
666.812	0.0131849
666.890	0.0131866
666.968	0.0132371
667.046	0.0133752
667.124	0.0132512
667.203	0.0133562
667.281	0.0132520
667.359	0.0133299
667.437	0.0133297
667.515	0.0133122
667.593	0.0132866
667.671	0.0131301
667.749	0.0132357
667.828	0.0133303
667.906	0.0133818
667.984	0.0132706
668.062	0.0132013
668.140	0.0132220
668.218	0.0132921
668.296	0.0134194
668.374	0.0133270
668.453	0.0132929
668.531	0.0134328
668.609	0.0133280
668.687	0.0133179
668.765	0.0132115
668.843	0.0132832
668.921	0.0132639
668.999	0.0133308
669.078	0.0133393
669.156	0.0134258
669.234	0.0132561
669.312	0.0132996
669.390	0.0131889
669.468	0.0131829
669.546	0.0132880
669.624	0.0131874
669.703	0.0132349
669.781	0.0130504
669.859	0.0131799
669.937	0.0133836
670.015	0.0132346
670.093	0.0132658
670.171	0.0133416
670.249	0.0133708
670.328	0.0134486
670.406	0.0133421
670.484	0.0133560
670.562	0.0133213
670.640	0.0134387
670.718	0.0135211
670.796	0.0133193
670.874	0.0132620
670.953	0.0131632
671.031	0.0132697
671.109	0.0130859
671.187	0.0131761
671.265	0.0133739
671.343	0.0132452
671.421	0.0133557
671.499	0.0131982
671.578	0.0132581
671.656	0.0133054
671.734	0.0133957
671.812	0.0132828
671.890	0.0132384
671.968	0.0132180
672.046	0.0133712
672.124	0.0133717
672.203	0.0132707
672.281	0.0132368
672.359	0.0133686
672.437	0.0133537
672.515	0.0134707
672.593	0.0133060
672.671	0.0132868
672.749	0.0133331
672.828	0.0133022
672.906	0.0133066
672.984	0.0132585
673.062	0.0133358
673.140	0.0134175
673.218	0.0133430
673.296	0.0132820
673.374	0.0131750
673.453	0.0133104
673.531	0.0131395
673.609	0.0131261
673.687	0.0131368
673.765	0.0131997
673.843	0.0131724
673.921	0.0131689
673.999	0.0132202
674.078	0.0131515
674.156	0.0132287
674.234	0.0133022
674.312	0.0133559
674.390	0.0133444
674.468	0.0133560
674.546	0.0132826
674.624	0.0133740
674.703	0.0134493
674.781	0.0135007
674.859	0.0133340
674.937	0.0135102
675.015	0.0133547
675.093	0.0132534
675.171	0.0133820
675.249	0.0132996
675.328	0.0131992
675.406	0.0130623
675.484	0.0131699
675.562	0.0131152
675.640	0.0130737
675.718	0.0131013
675.796	0.0130943
675.874	0.0131330
675.953	0.0132759
676.031	0.0132944
676.109	0.0132692
676.187	0.0133812
676.265	0.0132713
676.343	0.0132883
676.421	0.0133920
676.499	0.0134995
676.578	0.0133582
676.656	0.0133344
676.734	0.0132462
676.812	0.0131347
676.890	0.0132360
676.968	0.0131279
677.046	0.0130111
677.124	0.0130226
677.203	0.0129047
677.281	0.0130190
677.359	0.0130858
677.437	0.0131620
677.515	0.0131624
677.593	0.0132078
677.671	0.0134200
677.749	0.0135180
677.828	0.0135120
677.906	0.0136504
677.984	0.0135707
678.062	0.0136660
678.140	0.0139485
678.218	0.0137798
678.296	0.0137747
678.374	0.0137714
678.453	0.0135887
678.531	0.0136011
678.609	0.0133871
678.687	0.0134121
678.765	0.0132289
678.843	0.0132868
678.921	0.0132124
678.999	0.0129459
679.078	0.0130640
679.156	0.0130345
679.234	0.0128270
679.312	0.0127228
679.390	0.0126616
679.468	0.0126727
679.546	0.0127639
679.624	0.0126677
679.703	0.0128227
679.781	0.0129718
679.859	0.0131311
679.937	0.0131802
680.015	0.0133139
680.093	0.0134213
680.171	0.0135670
680.249	0.0136044
680.328	0.0135383
680.406	0.0134607
680.484	0.0138063
680.562	0.0135513
680.640	0.0135257
680.718	0.0135664
680.796	0.0136664
680.874	0.0134747
680.953	0.0132899
681.031	0.0132780
681.109	0.0131676
681.187	0.0132645
681.265	0.0131037
681.343	0.0130080
681.421	0.0131400
681.499	0.0132429
681.578	0.0130998
681.656	0.0132961
681.734	0.0133186
681.812	0.0134716
681.890	0.0135606
681.968	0.0135619
682.046	0.0136053
682.124	0.0137138
682.203	0.0139990
682.281	0.0138839
682.359	0.0138598
682.437	0.0139258
682.515	0.0139533
682.593	0.0139309
682.671	0.0138932
682.749	0.0138476
682.828	0.0136572
682.906	0.0134032
682.984	0.0134580
683.062	0.0131815
683.140	0.0129115
683.218	0.0128320
683.296	0.0125932
683.374	0.0126130
683.453	0.0126155
683.531	0.0125049
683.609	0.0125288
683.687	0.0122746
683.765	0.0123766
683.843	0.0125455
683.921	0.0123801
683.999	0.0125955
684.078	0.0128597
684.156	0.0129832
684.234	0.0130466
684.312	0.0131454
684.390	0.0133302
684.468	0.0133518
684.546	0.0133842
684.624	0.0134662
684.703	0.0136192
684.781	0.0135886
684.859	0.0137424
684.937	0.0136654
685.015	0.0137597
685.093	0.0137308
685.171	0.0138970
685.249	0.0138667
685.328	0.0137885
685.406	0.0137788
685.484	0.0136943
685.562	0.0137814
685.640	0.0137892
685.718	0.0138053
685.796	0.0137578
685.874	0.0138502
685.953	0.0139050
686.031	0.0140446
686.109	0.0137975
686.187	0.0138071
686.265	0.0137400
686.343	0.0138496
686.421	0.0137786
686.499	0.0137863
686.578	0.0135663
686.656	0.0137013
686.734	0.0135198
686.812	0.0135303
686.890	0.0133646
686.968	0.0132870
687.046	0.0132249
687.124	0.0130923
687.203	0.0129723
687.281	0.0127930
687.359	0.0126565
687.437	0.0124408
687.515	0.0121500
687.593	0.0120547
687.671	0.0118604
687.749	0.0117554
687.828	0.0115619
687.906	0.0115298
687.984	0.0114743
688.062	0.0115801
688.140	0.0116958
688.218	0.0117036
688.296	0.0120413
688.374	0.0122298
688.453	0.0125036
688.531	0.0128149
688.609	0.0131046
688.687	0.0134011
688.765	0.0137991
688.843	0.0141220
688.921	0.0143386
688.999	0.0146625
689.078	0.0148344
689.156	0.0150864
689.234	0.0151492
689.312	0.0151176
689.390	0.0151723
689.468	0.0151566
689.546	0.0149933
689.624	0.0150174
689.703	0.0147263
689.781	0.0144389
689.859	0.0142726
689.937	0.0141226
690.015	0.0137725
690.093	0.0136264
690.171	0.0135404
690.249	0.0134574
690.328	0.0132502
690.406	0.0134017
690.484	0.0132662
690.562	0.0133573
690.640	0.0134413
690.718	0.0133625
690.796	0.0133892
690.874	0.0132995
690.953	0.0132823
691.031	0.0132549
691.109	0.0132127
691.187	0.0132549
691.265	0.0127760
691.343	0.0126276
691.421	0.0124461
691.499	0.0122538
691.578	0.0120149
691.656	0.0117132
691.734	0.0116278
691.812	0.0115023
691.890	0.0113491
691.968	0.0109591
692.046	0.0110555
692.124	0.0110220
692.203	0.0110648
692.281	0.0111753
692.359	0.0112633
692.437	0.0116978
692.515	0.0118333
692.593	0.0121475
692.671	0.0125933
692.749	0.0127715
692.828	0.0132005
692.906	0.0136366
692.984	0.0140289
693.062	0.0143665
693.140	0.0147549
693.218	0.0149873
693.296	0.0154274
693.374	0.0156573
693.453	0.0156947
693.531	0.0160124
693.609	0.0161290
693.687	0.0160505
693.765	0.0160599
693.843	0.0159683
693.921	0.0157767
693.999	0.0157643
694.078	0.0155867
694.156	0.0151729
694.234	0.0149835
694.312	0.0148307
694.390	0.0143886
694.468	0.0139928
694.546	0.0139112
694.624	0.0135133
694.703	0.0132233
694.781	0.0127975
694.859	0.0125939
694.937	0.0124284
695.015	0.0123741
695.093	0.0122211
695.171	0.0120012
695.249	0.0119987
695.328	0.0119981
695.406	0.0117590
695.484	0.0118965
695.562	0.0117558
695.640	0.0117748
695.718	0.0118674
695.796	0.0119962
695.874	0.0120163
695.953	0.0120184
696.031	0.0118678
696.109	0.0120262
696.187	0.0119121
696.265	0.0116670
696.343	0.0116811
696.421	0.0116863
696.499	0.0115417
696.578	0.0114738
696.656	0.0115830
696.734	0.0115751
696.812	0.0116516
696.890	0.0117011
696.968	0.0120403
697.046	0.0123193
697.124	0.0127131
697.203	0.0130675
697.281	0.0136346
697.359	0.0140096
697.437	0.0144528
697.515	0.0149227
697.593	0.0154465
697.671	0.0157158
697.749	0.0161967
697.828	0.0164678
697.906	0.0166639
697.984	0.0168769
698.062	0.0166557
698.140	0.0167100
698.218	0.0165119
698.296	0.0163153
698.374	0.0159340
698.453	0.0155564
698.531	0.0152492
698.609	0.0148097
698.687	0.0142155
698.765	0.0137843
698.843	0.0133427
698.921	0.0130034
698.999	0.0126814
699.078	0.0124119
699.156	0.0121304
699.234	0.0120169
699.312	0.0119384
699.390	0.0118986
699.468	0.0118201
699.546	0.0117627
699.624	0.0118082
699.703	0.0119382
699.781	0.0119434
699.859	0.0118941
699.937	0.0121280
700.015	0.0122618
700.093	0.0124010
700.171	0.0125307
700.249	0.0125637
700.328	0.0124132
700.406	0.0125018
700.484	0.0124577
700.562	0.0125811
700.640	0.0124321
700.718	0.0123112
700.796	0.0121385
700.874	0.0118819
700.953	0.0117561
701.031	0.0115910
701.109	0.0115772
701.187	0.0113202
701.265	0.0113947
701.343	0.0114384
701.421	0.0117318
701.499	0.0118649
701.578	0.0122002
701.656	0.0125108
701.734	0.0129934
701.812	0.0133014
701.890	0.0140352
701.968	0.0146455
702.046	0.0153166
702.124	0.0157105
702.203	0.0160115
702.281	0.0164930
702.359	0.0167878
702.437	0.0168238
702.515	0.0169555
702.593	0.0169864
702.671	0.0169173
702.749	0.0167554
702.828	0.0162919
702.906	0.0160732
702.984	0.0155202
703.062	0.0149657
703.140	0.0143471
703.218	0.0139010
703.296	0.0133010
703.374	0.0127541
703.453	0.0121527
703.531	0.0118528
703.609	0.0117278
703.687	0.0115602
703.765	0.0113672
703.843	0.0113960
703.921	0.0114866
703.999	0.0115656
704.078	0.0118490
704.156	0.0120598
704.234	0.0123766
704.312	0.0124658
704.390	0.0123980
704.468	0.0127243
704.546	0.0127369
704.624	0.0126994
704.703	0.0126523
704.781	0.0126302
704.859	0.0124236
704.937	0.0122180
705.015	0.0121848
705.093	0.0120306
705.171	0.0119219
705.249	0.0116653
705.328	0.0115568
705.406	0.0115845
705.484	0.0114122
705.562	0.0114926
705.640	0.0115189
705.718	0.0116687
705.796	0.0117139
705.874	0.0119616
705.953	0.0125107
706.031	0.0127890
706.109	0.0133441
706.187	0.0138303
706.265	0.0141678
706.343	0.0147526
706.421	0.0152917
706.499	0.0156780
706.578	0.0161058
706.656	0.0163175
706.734	0.0165512
706.812	0.0167210
706.890	0.0165862
706.968	0.0165069
707.046	0.0165604
707.124	0.0162299
707.203	0.0157709
707.281	0.0154163
707.359	0.0151183
707.437	0.0144944
707.515	0.0140004
707.593	0.0138211
707.671	0.0133283
707.749	0.0128735
707.828	0.0125256
707.906	0.0121183
707.984	0.0117027
708.062	0.0114977
708.140	0.0114118
708.218	0.0114229
708.296	0.0112658
708.374	0.0114307
708.453	0.0116908
708.531	0.0118342
708.609	0.0121333
708.687	0.0123563
708.765	0.0125749
708.843	0.0125784
708.921	0.0128577
708.999	0.0131159
709.078	0.0131345
709.156	0.0131597
709.234	0.0131039
709.312	0.0131056
709.390	0.0129669
709.468	0.0128542
709.546	0.0126920
709.624	0.0125368
709.703	0.0124799
709.781	0.0122608
709.859	0.0120820
709.937	0.0118485
710.015	0.0120051
710.093	0.0118896
710.171	0.0120575
710.249	0.0121457
710.328	0.0122340
710.406	0.0126754
710.484	0.0129083
710.562	0.0131865
710.640	0.0133909
710.718	0.0139587
710.796	0.0143432
710.874	0.0146999
710.953	0.0150636
711.031	0.0153720
711.109	0.0158177
711.187	0.0159186
711.265	0.0159786
711.343	0.0160505
711.421	0.0159716
711.499	0.0158595
711.578	0.0157802
711.656	0.0152670
711.734	0.0150301
711.812	0.0147661
711.890	0.0144357
711.968	0.0138594
712.046	0.0135696
712.124	0.0131754
712.203	0.0127029
712.281	0.0124524
712.359	0.0121550
712.437	0.0120421
712.515	0.0118864
712.593	0.0117502
712.671	0.0117966
712.749	0.0118887
712.828	0.0120069
712.906	0.0120930
712.984	0.0123204
713.062	0.0124596
713.140	0.0127061
713.218	0.0129659
713.296	0.0131351
713.374	0.0132036
713.453	0.0133457
713.531	0.0133360
713.609	0.0133652
713.687	0.0133833
713.765	0.0133022
713.843	0.0131480
713.921	0.0130112
713.999	0.0127475
714.078	0.0125520
714.156	0.0125422
714.234	0.0123067
714.312	0.0121763
714.390	0.0119913
714.468	0.0120364
714.546	0.0120020
714.624	0.0119168
714.703	0.0120248
714.781	0.0121704
714.859	0.0125155
714.937	0.0126929
715.015	0.0130546
715.093	0.0134313
715.171	0.0137783
715.249	0.0140754
715.328	0.0143761
715.406	0.0148270
715.484	0.0150768
715.562	0.0153543
715.640	0.0154573
715.718	0.0154887
715.796	0.0155087
715.874	0.0157233
715.953	0.0154680
716.031	0.0152689
716.109	0.0150962
716.187	0.0147994
716.265	0.0146329
716.343	0.0142686
716.421	0.0138985
716.499	0.0135973
716.578	0.0133173
716.656	0.0127980
716.734	0.0124166
716.812	0.0123001
716.890	0.0121925
716.968	0.0120374
717.046	0.0118661
717.124	0.0118535
717.203	0.0120628
717.281	0.0121041
717.359	0.0122899
717.437	0.0124139
717.515	0.0125021
717.593	0.0127499
717.671	0.0129946
717.749	0.0130135
717.828	0.0133916
717.906	0.0132797
717.984	0.0134193
718.062	0.0135390
718.140	0.0134653
718.218	0.0134133
718.296	0.0135174
718.374	0.0135680
718.453	0.0132127
718.531	0.0131772
718.609	0.0131066
718.687	0.0130138
718.765	0.0129993
718.843	0.0126638
718.921	0.0127102
718.999	0.0126978
719.078	0.0125600
719.156	0.0125853
719.234	0.0126756
719.312	0.0127168
719.390	0.0127769
719.468	0.0130094
719.546	0.0133400
719.624	0.0134576
719.703	0.0136160
719.781	0.0138074
719.859	0.0140879
719.937	0.0142352
720.015	0.0144662
720.093	0.0145096
720.171	0.0146154
720.249	0.0147881
720.328	0.0150154
720.406	0.0147379
720.484	0.0147503
720.562	0.0143436
720.640	0.0142361
720.718	0.0140034
720.796	0.0137614
720.874	0.0134695
720.953	0.0131638
721.031	0.0129745
721.109	0.0128234
721.187	0.0125040
721.265	0.0122266
721.343	0.0121370
721.421	0.0120974
721.499	0.0120807
721.578	0.0120705
721.656	0.0123012
721.734	0.0123544
721.812	0.0125568
721.890	0.0126109
721.968	0.0128133
722.046	0.0130621
722.124	0.0133520
722.203	0.0134151
722.281	0.0136564
722.359	0.0138167
722.437	0.0136822
722.515	0.0137969
722.593	0.0138195
722.671	0.0136839
722.749	0.0138717
722.828	0.0137386
722.906	0.0136696
722.984	0.0135633
723.062	0.0133844
723.140	0.0135596
723.218	0.0132870
723.296	0.0133499
723.374	0.0132372
723.453	0.0131445
723.531	0.0131273
723.609	0.0129779
723.687	0.0130354
723.765	0.0131585
723.843	0.0132902
723.921	0.0133174
723.999	0.0133157
724.078	0.0134161
724.156	0.0133746
724.234	0.0134689
724.312	0.0136282
724.390	0.0138001
724.468	0.0138158
724.546	0.0138776
724.624	0.0139599
724.703	0.0139182
724.781	0.0139126
724.859	0.0137294
724.937	0.0136964
725.015	0.0136304
725.093	0.0136330
725.171	0.0133748
725.249	0.0133176
725.328	0.0131458
725.406	0.0130395
725.484	0.0127647
725.562	0.0127053
725.640	0.0125982
725.718	0.0125983
725.796	0.0124495
725.874	0.0124095
725.953	0.0123799
726.031	0.0125513
726.109	0.0125833
726.187	0.0124918
726.265	0.0126373
726.343	0.0128228
726.421	0.0130181
726.499	0.0132297
726.578	0.0133311
726.656	0.0135493
726.734	0.0136292
726.812	0.0136056
726.890	0.0137161
726.968	0.0138210
727.046	0.0138302
727.124	0.0138072
727.203	0.0139433
727.281	0.0137446
727.359	0.0137099
727.437	0.0136618
727.515	0.0136543
727.593	0.0136266
727.671	0.0135760
727.749	0.0133966
727.828	0.0134532
727.906	0.0132099
727.984	0.0132484
728.062	0.0131809
728.140	0.0132045
728.218	0.0130460
728.296	0.0130904
728.374	0.0132279
728.453	0.0131782
728.531	0.0132852
728.609	0.0133398
728.687	0.0133583
728.765	0.0134241
728.843	0.0135414
728.921	0.0135590
728.999	0.0137463
729.078	0.0136994
729.156	0.0137431
729.234	0.0136517
729.312	0.0138627
729.390	0.0136820
729.468	0.0135903
729.546	0.0135772
729.624	0.0134739
729.703	0.0133057
729.781	0.0132221
729.859	0.0133194
729.937	0.0131117
730.015	0.0130042
730.093	0.0128137
730.171	0.0128267
730.249	0.0128056
730.328	0.0126650
730.406	0.0128598
730.484	0.0127885
730.562	0.0128628
730.640	0.0129507
730.718	0.0130653
730.796	0.0131919
730.874	0.0133601
730.953	0.0134557
731.031	0.0134515
731.109	0.0135883
731.187	0.0135744
731.265	0.0135556
731.343	0.0136475
731.421	0.0137256
731.499	0.0135813
731.578	0.0134910
731.656	0.0134943
731.734	0.0135721
731.812	0.0133687
731.890	0.0133353
731.968	0.0133165
732.046	0.0134109
732.124	0.0132552
732.203	0.0131207
732.281	0.0130165
732.359	0.0131653
732.437	0.0131815
732.515	0.0130025
732.593	0.0131032
732.671	0.0131011
732.749	0.0131984
732.828	0.0131551
732.906	0.0130956
732.984	0.0132021
733.062	0.0133096
733.140	0.0134012
733.218	0.0133414
733.296	0.0133900
733.374	0.0134115
733.453	0.0135182
733.531	0.0135268
733.609	0.0135368
733.687	0.0134860
733.765	0.0135332
733.843	0.0135069
733.921	0.0133759
733.999	0.0133552
734.078	0.0133882
734.156	0.0133990
734.234	0.0134891
734.312	0.0132980
734.390	0.0132123
734.468	0.0132217
734.546	0.0131966
734.624	0.0133585
734.703	0.0132965
734.781	0.0132309
734.859	0.0133012
734.937	0.0133094
735.015	0.0133617
735.093	0.0134787
735.171	0.0133941
735.249	0.0137027
735.328	0.0135564
735.406	0.0137115
735.484	0.0136150
735.562	0.0135087
735.640	0.0135065
735.718	0.0135126
735.796	0.0134326
735.874	0.0134112
735.953	0.0135102
736.031	0.0133361
736.109	0.0131290
736.187	0.0131578
736.265	0.0131134
736.343	0.0131010
736.421	0.0129671
736.499	0.0130638
736.578	0.0131081
736.656	0.0130843
736.734	0.0132551
736.812	0.0131243
736.890	0.0129678
736.968	0.0128712
737.046	0.0130488
737.124	0.0131143
737.203	0.0129012
737.281	0.0129543
737.359	0.0129905
737.437	0.0131026
737.515	0.0129005
737.593	0.0131344
737.671	0.0130365
737.749	0.0129712
737.828	0.0131812
737.906	0.0132946
737.984	0.0133559
738.062	0.0133546
738.140	0.0135020
738.218	0.0135071
738.296	0.0136075
738.374	0.0134885
738.453	0.0136515
738.531	0.0137405
738.609	0.0136470
738.687	0.0136478
738.765	0.0137103
738.843	0.0137525
738.921	0.0136733
738.999	0.0135916
739.078	0.0137283
739.156	0.0135757
739.234	0.0136302
739.312	0.0135549
739.390	0.0136137
739.468	0.0135813
739.546	0.0136109
739.624	0.0135981
739.703	0.0135828
739.781	0.0135660
739.859	0.0134109
739.937	0.0134702
740.015	0.0134650
740.093	0.0133936
740.171	0.0132888
740.249	0.0132420
740.328	0.0131073
740.406	0.0131033
740.484	0.0130500
740.562	0.0129169
740.640	0.0130341
740.718	0.0129681
740.796	0.0129175
740.874	0.0130562
740.953	0.0130771
741.031	0.0130322
741.109	0.0130106
741.187	0.0129955
741.265	0.0130614
741.343	0.0131675
741.421	0.0132309
741.499	0.0132790
741.578	0.0132223
741.656	0.0132207
741.734	0.0132420
741.812	0.0131927
741.890	0.0131062
741.968	0.0132262
742.046	0.0132223
742.124	0.0131295
742.203	0.0131855
742.281	0.0131245
742.359	0.0132761
742.437	0.0131921
742.515	0.0131583
742.593	0.0131955
742.671	0.0133667
742.749	0.0133641
742.828	0.0133425
742.906	0.0134244
742.984	0.0134338
743.062	0.0134877
743.140	0.0135401
743.218	0.0135724
743.296	0.0135321
743.374	0.0136552
743.453	0.0137432
743.531	0.0135712
743.609	0.0137369
743.687	0.0136628
743.765	0.0136958
743.843	0.0136040
743.921	0.0137708
743.999	0.0135686
744.078	0.0135573
744.156	0.0134038
744.234	0.0133666
744.312	0.0132553
744.390	0.0132742
744.468	0.0133171
744.546	0.0130269
744.624	0.0131262
744.703	0.0130627
744.781	0.0129720
744.859	0.0128866
744.937	0.0128342
745.015	0.0128958
745.093	0.0129272
745.171	0.0128016
745.249	0.0129590
745.328	0.0129159
745.406	0.0128744
745.484	0.0130415
745.562	0.0132522
745.640	0.0132238
745.718	0.0132038
745.796	0.0132703
745.874	0.0133817
745.953	0.0133177
746.031	0.0133717
746.109	0.0134476
746.187	0.0134656
746.265	0.0133935
746.343	0.0135262
746.421	0.0134917
746.499	0.0134216
746.578	0.0134026
746.656	0.0133533
746.734	0.0134050
746.812	0.0134256
746.890	0.0132608
746.968	0.0132845
747.046	0.0133585
747.124	0.0133593
747.203	0.0132834
747.281	0.0135030
747.359	0.0134423
747.437	0.0134777
747.515	0.0135783
747.593	0.0136002
747.671	0.0133923
747.749	0.0134359
747.828	0.0134838
747.906	0.0135553
747.984	0.0134201
748.062	0.0134853
748.140	0.0133134
748.218	0.0134021
748.296	0.0132450
748.374	0.0132166
748.453	0.0132363
748.531	0.0131647
748.609	0.0131454
748.687	0.0131904
748.765	0.0130410
748.843	0.0130683
748.921	0.0129504
748.999	0.0130333
749.078	0.0129166
749.156	0.0130189
749.234	0.0128911
749.312	0.0128690
749.390	0.0130918
749.468	0.0130056
749.546	0.0129962
749.624	0.0128357
749.703	0.0129970
749.781	0.0130975
749.859	0.0132249
749.937	0.0131270
750.015	0.0132952
750.093	0.0134099
750.171	0.0132281
750.249	0.0134352
750.328	0.0134854
750.406	0.0135538
750.484	0.0135928
750.562	0.0136388
750.640	0.0135564
750.718	0.0134751
750.796	0.0135703
750.874	0.0135208
750.953	0.0135835
751.031	0.0135514
751.109	0.0135104
751.187	0.0134250
751.265	0.0135299
751.343	0.0134116
751.421	0.0134494
751.499	0.0134411
751.578	0.0133208
751.656	0.0133855
751.734	0.0134188
751.812	0.0133547
751.890	0.0132851
751.968	0.0131952
752.046	0.0133441
752.124	0.0133076
752.203	0.0133087
752.281	0.0133149
752.359	0.0132189
752.437	0.0132391
752.515	0.0132231
752.593	0.0132861
752.671	0.0131736
752.749	0.0130093
752.828	0.0131530
752.906	0.0131651
752.984	0.0131226
753.062	0.0132188
753.140	0.0132762
753.218	0.0132088
753.296	0.0131750
753.374	0.0132320
753.453	0.0133192
753.531	0.0133112
753.609	0.0131822
753.687	0.0132642
753.765	0.0133274
753.843	0.0132704
753.921	0.0132904
753.999	0.0132385
754.078	0.0132229
754.156	0.0133840
754.234	0.0132877
754.312	0.0132890
754.390	0.0132681
754.468	0.0132512
754.546	0.0132629
754.624	0.0134102
754.703	0.0133856
754.781	0.0133101
754.859	0.0133418
754.937	0.0133369
755.015	0.0134097
755.093	0.0134632
755.171	0.0133219
755.249	0.0134193
755.328	0.0134666
755.406	0.0136337
755.484	0.0134600
755.562	0.0133803
755.640	0.0134819
755.718	0.0131966
755.796	0.0133437
755.874	0.0133028
755.953	0.0133015
756.031	0.0133728
756.109	0.0131582
756.187	0.0131422
756.265	0.0132301
756.343	0.0131194
756.421	0.0132858
756.499	0.0132062
756.578	0.0131584
756.656	0.0131671
756.734	0.0133422
756.812	0.0131418
756.890	0.0130833
756.968	0.0131836
757.046	0.0130927
757.124	0.0130586
757.203	0.0130760
757.281	0.0131583
757.359	0.0130445
757.437	0.0131178
757.515	0.0132357
757.593	0.0130756
757.671	0.0132059
757.749	0.0132984
757.828	0.0132027
757.906	0.0133566
757.984	0.0132449
758.062	0.0133219
758.140	0.0133327
758.218	0.0133700
758.296	0.0133038
758.374	0.0132780
758.453	0.0133764
758.531	0.0133954
758.609	0.0134443
758.687	0.0134658
758.765	0.0134737
758.843	0.0134580
758.921	0.0133472
758.999	0.0134046
759.078	0.0133236
759.156	0.0134048
759.234	0.0133608
759.312	0.0134061
759.390	0.0133973
759.468	0.0133102
759.546	0.0134717
759.624	0.0133700
759.703	0.0132609
759.781	0.0134102
759.859	0.0135543
759.937	0.0136419
760.015	0.0134940
760.093	0.0133932
760.171	0.0133366
760.249	0.0131860
760.328	0.0131562
760.406	0.0132319
760.484	0.0132889
760.562	0.0131091
760.640	0.0129185
760.718	0.0129845
760.796	0.0129171
760.874	0.0130781
760.953	0.0130383
761.031	0.0130484
761.109	0.0131976
761.187	0.0131871
761.265	0.0132198
761.343	0.0132413
761.421	0.0132130
761.499	0.0134025
761.578	0.0133678
761.656	0.0131795
761.734	0.0133927
761.812	0.0132761
761.890	0.0134737
761.968	0.0134576
762.046	0.0133858
762.124	0.0134188
762.203	0.0135666
762.281	0.0135666
762.359	0.0135321
762.437	0.0134270
762.515	0.0136262
762.593	0.0135390
762.671	0.0136120
762.749	0.0135287
762.828	0.0133649
762.906	0.0134903
762.984	0.0133234
763.062	0.0132449
763.140	0.0131678
763.218	0.0132039
763.296	0.0132397
763.374	0.0131186
763.453	0.0133031
763.531	0.0131831
763.609	0.0130661
763.687	0.0130457
763.765	0.0132818
763.843	0.0133324
763.921	0.0132904
763.999	0.0132247
764.078	0.0132717
764.156	0.0133226
764.234	0.0135158
764.312	0.0133276
764.390	0.0132597
764.468	0.0133424
764.546	0.0132520
764.624	0.0131870
764.703	0.0132884
764.781	0.0132756
764.859	0.0129881
764.937	0.0129301
765.015	0.0132970
765.093	0.0130599
765.171	0.0129806
765.249	0.0132372
765.328	0.0130701
765.406	0.0131042
765.484	0.0132137
765.562	0.0132131
765.640	0.0132720
765.718	0.0132759
765.796	0.0132130
765.874	0.0132062
765.953	0.0132845
766.031	0.0132449
766.109	0.0133298
766.187	0.0133051
766.265	0.0132833
766.343	0.0132390
766.421	0.0133456
766.499	0.0133681
766.578	0.0135141
766.656	0.0134031
766.734	0.0133837
766.812	0.0133801
766.890	0.0133369
766.968	0.0133400
767.046	0.0131277
767.124	0.0133033
767.203	0.0130521
767.281	0.0131409
767.359	0.0131778
767.437	0.0130682
767.515	0.0128863
767.593	0.0129265
767.671	0.0130148
767.749	0.0130231
767.828	0.0129187
767.906	0.0129245
767.984	0.0131696
768.062	0.0132114
768.140	0.0132410
768.218	0.0132000
768.296	0.0134393
768.374	0.0133762
768.453	0.0134544
768.531	0.0134519
768.609	0.0134820
768.687	0.0135082
768.765	0.0134696
768.843	0.0132790
768.921	0.0132149
768.999	0.0132728
769.078	0.0130611
769.156	0.0131702
769.234	0.0132195
769.312	0.0132666
769.390	0.0131178
769.468	0.0132042
769.546	0.0133685
769.624	0.0133426
769.703	0.0131029
769.781	0.0131995
769.859	0.0131884
769.937	0.0130933
770.015	0.0132533
770.093	0.0133133
770.171	0.0131992
770.249	0.0133031
770.328	0.0132027
770.406	0.0132437
770.484	0.0130003
770.562	0.0132077
770.640	0.0133633
770.718	0.0132975
770.796	0.0133820
770.874	0.0134192
770.953	0.0135421
771.031	0.0133984
771.109	0.0135690
771.187	0.0134753
771.265	0.0135385
771.343	0.0134804
771.421	0.0132955
771.499	0.0132631
771.578	0.0132853
771.656	0.0131367
771.734	0.0129580
771.812	0.0129543
771.890	0.0129977
771.968	0.0128335
772.046	0.0128281
772.124	0.0128624
772.203	0.0130328
772.281	0.0132515
772.359	0.0131703
772.437	0.0131851
772.515	0.0134212
772.593	0.0136510
772.671	0.0135071
772.749	0.0135631
772.828	0.0135250
772.906	0.0136038
772.984	0.0136797
773.062	0.0136679
773.140	0.0133269
773.218	0.0133557
773.296	0.0135320
773.374	0.0133788
773.453	0.0133713
773.531	0.0132449
773.609	0.0134035
773.687	0.0133884
773.765	0.0133111
773.843	0.0134161
773.921	0.0135755
773.999	0.0135381
774.078	0.0134947
774.156	0.0133420
774.234	0.0134202
774.312	0.0132494
774.390	0.0133701
774.468	0.0130738
774.546	0.0131796
774.624	0.0131164
774.703	0.0130006
774.781	0.0129803
774.859	0.0129636
774.937	0.0129467
775.015	0.0131587
775.093	0.0130494
775.171	0.0131833
775.249	0.0132937
775.328	0.0133887
775.406	0.0133287
775.484	0.0133230
775.562	0.0134000
775.640	0.0134765
775.718	0.0134138
775.796	0.0134091
775.874	0.0132140
775.953	0.0132002
776.031	0.0131917
776.109	0.0129697
776.187	0.0128626
776.265	0.0129499
776.343	0.0128979
776.421	0.0130828
776.499	0.0130698
776.578	0.0130486
776.656	0.0132173
776.734	0.0133593
776.812	0.0135996
776.890	0.0134830
776.968	0.0137946
777.046	0.0138426
777.124	0.0137730
777.203	0.0137527
777.281	0.0138121
777.359	0.0136965
777.437	0.0136724
777.515	0.0135592
777.593	0.0134789
777.671	0.0131757
777.749	0.0131803
777.828	0.0131750
777.906	0.0131784
777.984	0.0130644
778.062	0.0129317
778.140	0.0130217
778.218	0.0129939
778.296	0.0131142
778.374	0.0130174
778.453	0.0131126
778.531	0.0133415
778.609	0.0132442
778.687	0.0131987
778.765	0.0132257
778.843	0.0131962
778.921	0.0131873
778.999	0.0132336
779.078	0.0131941
779.156	0.0131849
779.234	0.0132566
779.312	0.0130286
779.390	0.0129945
779.468	0.0132662
779.546	0.0132635
779.624	0.0133151
779.703	0.0132826
779.781	0.0133729
779.859	0.0136175
779.937	0.0134642
780.015	0.0133309
780.093	0.0134274
780.171	0.0134692
780.249	0.0134138
780.328	0.0133571
780.406	0.0133134
780.484	0.0132681
780.562	0.0131902
780.640	0.0131213
780.718	0.0130653
780.796	0.0130661
780.874	0.0130006
780.953	0.0130813
781.031	0.0132317
781.109	0.0132607
781.187	0.0133237
781.265	0.0134365
781.343	0.0136500
781.421	0.0135442
781.499	0.0137337
781.578	0.0135629
781.656	0.0137025
781.734	0.0136473
781.812	0.0135883
781.890	0.0134910
781.968	0.0134509
782.046	0.0133862
782.124	0.0132327
782.203	0.0131377
782.281	0.0131228
782.359	0.0130302
782.437	0.0130143
782.515	0.0130402
782.593	0.0131251
782.671	0.0131833
782.749	0.0131316
782.828	0.0131017
782.906	0.0133018
782.984	0.0133885
783.062	0.0133612
783.140	0.0134582
783.218	0.0134990
783.296	0.0133311
783.374	0.0133135
783.453	0.0133350
783.531	0.0132472
783.609	0.0131773
783.687	0.0130865
783.765	0.0131161
783.843	0.0131619
783.921	0.0132227
783.999	0.0131759
784.078	0.0130613
784.156	0.0130403
784.234	0.0130983
784.312	0.0131782
784.390	0.0132445
784.468	0.0133291
784.546	0.0132520
784.624	0.0133119
784.703	0.0132538
784.781	0.0132732
784.859	0.0133317
784.937	0.0133817
785.015	0.0135709
785.093	0.0132739
785.171	0.0134321
785.249	0.0133511
785.328	0.0134229
785.406	0.0134766
785.484	0.0136443
785.562	0.0135670
785.640	0.0134492
785.718	0.0135823
785.796	0.0138290
785.874	0.0137437
785.953	0.0137508
786.031	0.0135728
786.109	0.0135221
786.187	0.0135255
786.265	0.0134731
786.343	0.0133257
786.421	0.0132913
786.499	0.0131719
786.578	0.0130328
786.656	0.0129163
786.734	0.0129368
786.812	0.0128998
786.890	0.0127591
786.968	0.0128857
787.046	0.0130147
787.124	0.0128990
787.203	0.0130127
787.281	0.0129999
787.359	0.0131884
787.437	0.0131017
787.515	0.0132442
787.593	0.0133093
787.671	0.0132560
787.749	0.0131181
787.828	0.0133372
787.906	0.0133036
787.984	0.0134591
788.062	0.0132291
788.140	0.0132329
788.218	0.0132877
788.296	0.0132557
788.374	0.0133491
788.453	0.0133885
788.531	0.0132307
788.609	0.0134619
788.687	0.0134370
788.765	0.0133066
788.843	0.0132969
788.921	0.0133531
788.999	0.0133823
789.078	0.0133405
789.156	0.0133595
789.234	0.0133327
789.312	0.0134657
789.390	0.0133440
789.468	0.0133517
789.546	0.0133627
789.624	0.0134851
789.703	0.0135044
789.781	0.0134916
789.859	0.0134415
789.937	0.0135674
790.015	0.0136113
790.093	0.0136121
790.171	0.0136691
790.249	0.0134774
790.328	0.0136653
790.406	0.0136575
790.484	0.0135190
790.562	0.0134862
790.640	0.0135593
790.718	0.0134269
790.796	0.0134178
790.874	0.0134439
790.953	0.0133536
791.031	0.0134052
791.109	0.0132570
791.187	0.0130433
791.265	0.0131667
791.343	0.0131564
791.421	0.0131744
791.499	0.0130402
791.578	0.0132462
791.656	0.0132164
791.734	0.0132475
791.812	0.0131260
791.890	0.0132012
791.968	0.0132342
792.046	0.0132162
792.124	0.0131848
792.203	0.0132056
792.281	0.0132633
792.359	0.0132974
792.437	0.0132555
792.515	0.0131623
792.593	0.0134750
792.671	0.0133759
792.749	0.0132775
792.828	0.0133257
792.906	0.0132478
792.984	0.0134058
793.062	0.0131713
793.140	0.0134139
793.218	0.0134021
793.296	0.0131467
793.374	0.0134418
793.453	0.0134242
793.531	0.0134837
793.609	0.0133712
793.687	0.0134450
793.765	0.0134229
793.843	0.0133998
793.921	0.0135741
793.999	0.0135148
794.078	0.0134639
794.156	0.0136820
794.234	0.0136400
794.312	0.0135881
794.390	0.0136436
794.468	0.0135379
794.546	0.0135777
794.624	0.0136127
794.703	0.0135348
794.781	0.0134515
794.859	0.0135290
794.937	0.0133204
795.015	0.0133074
795.093	0.0135039
795.171	0.0133591
795.249	0.0131844
795.328	0.0132688
795.406	0.0131187
795.484	0.0131660
795.562	0.0132314
795.640	0.0130428
795.718	0.0131518
795.796	0.0131874
795.874	0.0130618
795.953	0.0130136
796.031	0.0131612
796.109	0.0130911
796.187	0.0131342
796.265	0.0131194
796.343	0.0131644
796.421	0.0132861
796.499	0.0132618
796.578	0.0133868
796.656	0.0132752
796.734	0.0134034
796.812	0.0134122
796.890	0.0132219
796.968	0.0132089
797.046	0.0133543
797.124	0.0132612
797.203	0.0131829
797.281	0.0132400
797.359	0.0131644
797.437	0.0129842
797.515	0.0129613
797.593	0.0130585
797.671	0.0130154
797.749	0.0131100
797.828	0.0132037
797.906	0.0131089
797.984	0.0131094
798.062	0.0131898
798.140	0.0132059
798.218	0.0133048
798.296	0.0133967
798.374	0.0133604
798.453	0.0132992
798.531	0.0133016
798.609	0.0134577
798.687	0.0134377
798.765	0.0135823
798.843	0.0134924
798.921	0.0135398
798.999	0.0135114
799.078	0.0136716
799.156	0.0135099
799.234	0.0134981
799.312	0.0134361
799.390	0.0134857
799.468	0.0133815
799.546	0.0133887
799.624	0.0133237
799.703	0.0133624
799.781	0.0133457
799.859	0.0132677
799.937	0.0133566
800.015	0.0133508
800.093	0.0133308
800.171	0.0132922
800.249	0.0129594
800.328	0.0132158
800.406	0.0132005
800.484	0.0132835
800.562	0.0132066
800.640	0.0133802
800.718	0.0132815
800.796	0.0131676
800.874	0.0132391
800.953	0.0134164
801.031	0.0133438
801.109	0.0133164
801.187	0.0132301
801.265	0.0131464
801.343	0.0133268
801.421	0.0133353
801.499	0.0132298
801.578	0.0133806
801.656	0.0131116
801.734	0.0130492
801.812	0.0129754
801.890	0.0130157
801.968	0.0129961
802.046	0.0129824
802.124	0.0129227
802.203	0.0131178
802.281	0.0130325
802.359	0.0131032
802.437	0.0131272
802.515	0.0131327
802.593	0.0130897
802.671	0.0131985
802.749	0.0131856
802.828	0.0133852
802.906	0.0133378
802.984	0.0133098
803.062	0.0133805
803.140	0.0134851
803.218	0.0133834
803.296	0.0135363
803.374	0.0136283
803.453	0.0135728
803.531	0.0136086
803.609	0.0135898
803.687	0.0136230
803.765	0.0134834
803.843	0.0134756
803.921	0.0135365
803.999	0.0135261
804.078	0.0135409
804.156	0.0133210
804.234	0.0131818
804.312	0.0133461
804.390	0.0132988
804.468	0.0132111
804.546	0.0131030
804.624	0.0132473
804.703	0.0130587
804.781	0.0131223
804.859	0.0131174
804.937	0.0131580
805.015	0.0131118
805.093	0.0131232
805.171	0.0132937
805.249	0.0132571
805.328	0.0131399
805.406	0.0133062
805.484	0.0132048
805.562	0.0133450
805.640	0.0132719
805.718	0.0131364
805.796	0.0132190
805.874	0.0131979
805.953	0.0132182
806.031	0.0130669
806.109	0.0130622
806.187	0.0130809
806.265	0.0130749
806.343	0.0130009
806.421	0.0128836
806.499	0.0130785
806.578	0.0129659
806.656	0.0129115
806.734	0.0129325
806.812	0.0130235
806.890	0.0130264
806.968	0.0130091
807.046	0.0131663
807.124	0.0130756
807.203	0.0131046
807.281	0.0131695
807.359	0.0132268
807.437	0.0134018
807.515	0.0134780
807.593	0.0136613
807.671	0.0134759
807.749	0.0135268
807.828	0.0137489
807.906	0.0135863
807.984	0.0136047
808.062	0.0136492
808.140	0.0136106
808.218	0.0135496
808.296	0.0135123
808.374	0.0135347
808.453	0.0135551
808.531	0.0135017
808.609	0.0133740
808.687	0.0134421
808.765	0.0133934
808.843	0.0133389
808.921	0.0132681
808.999	0.0131390
809.078	0.0132254
809.156	0.0131614
809.234	0.0130420
809.312	0.0131917
809.390	0.0130731
809.468	0.0130597
809.546	0.0130623
809.624	0.0132397
809.703	0.0132556
809.781	0.0131464
809.859	0.0130612
809.937	0.0131748
810.015	0.0132269
810.093	0.0132954
810.171	0.0131784
810.249	0.0133423
810.328	0.0133144
810.406	0.0132090
810.484	0.0131049
810.562	0.0133965
810.640	0.0131052
810.718	0.0132223
810.796	0.0133974
810.874	0.0132220
810.953	0.0132132
811.031	0.0132566
811.109	0.0132703
811.187	0.0132867
811.265	0.0131727
811.343	0.0133598
811.421	0.0132405
811.499	0.0132706
811.578	0.0132619
811.656	0.0132697
811.734	0.0133095
811.812	0.0132655
811.890	0.0134158
811.968	0.0134427
812.046	0.0134249
812.124	0.0133695
812.203	0.0134898
812.281	0.0134015
812.359	0.0133479
812.437	0.0135709
812.515	0.0134216
812.593	0.0134961
812.671	0.0133789
812.749	0.0133839
812.828	0.0135156
812.906	0.0133749
812.984	0.0134066
813.062	0.0133534
813.140	0.0134332
813.218	0.0133393
813.296	0.0132228
813.374	0.0133112
813.453	0.0132047
813.531	0.0131804
813.609	0.0132063
813.687	0.0133010
813.765	0.0133195
813.843	0.0131876
813.921	0.0132011
813.999	0.0131252
814.078	0.0132233
814.156	0.0133145
814.234	0.0132394
814.312	0.0133011
814.390	0.0133087
814.468	0.0132196
814.546	0.0133434
814.624	0.0133367
814.703	0.0133175
814.781	0.0133543
814.859	0.0133035
814.937	0.0132710
815.015	0.0132381
815.093	0.0133530
815.171	0.0132188
815.249	0.0133508
815.328	0.0132429
815.406	0.0130810
815.484	0.0132423
815.562	0.0132948
815.640	0.0132547
815.718	0.0132673
815.796	0.0133176
815.874	0.0134630
815.953	0.0133105
816.031	0.0134290
816.109	0.0133436
816.187	0.0132759
816.265	0.0135378
816.343	0.0134624
816.421	0.0134107
816.499	0.0133656
816.578	0.0134402
816.656	0.0134505
816.734	0.0135903
816.812	0.0136137
816.890	0.0134857
816.968	0.0134811
817.046	0.0135313
817.124	0.0133815
817.203	0.0132313
817.281	0.0132835
817.359	0.0134631
817.437	0.0133417
817.515	0.0132756
817.593	0.0132134
817.671	0.0130738
817.749	0.0131185
817.828	0.0131202
817.906	0.0131562
817.984	0.0131210
818.062	0.0129872
818.140	0.0133169
818.218	0.0131981
818.296	0.0131758
818.374	0.0133288
818.453	0.0132184
818.531	0.0131625
818.609	0.0132253
818.687	0.0131924
818.765	0.0133366
818.843	0.0133236
818.921	0.0131732
818.999	0.0132751
819.078	0.0133765
819.156	0.0134078
819.234	0.0133135
819.312	0.0133366
819.390	0.0133302
819.468	0.0132110
819.546	0.0133572
819.624	0.0133138
819.703	0.0135023
819.781	0.0133486
819.859	0.0132552
819.937	0.0133053
820.015	0.0134354
820.093	0.0133853
820.171	0.0133131
820.249	0.0133163
820.328	0.0133708
820.406	0.0133337
820.484	0.0133318
820.562	0.0133527
820.640	0.0134750
820.718	0.0133886
820.796	0.0133115
820.874	0.0133527
820.953	0.0134789
821.031	0.0133928
821.109	0.0134264
821.187	0.0133727
821.265	0.0133427
821.343	0.0132526
821.421	0.0131696
821.499	0.0132373
821.578	0.0133293
821.656	0.0131287
821.734	0.0132759
821.812	0.0132169
821.890	0.0132550
821.968	0.0131870
822.046	0.0129268
822.124	0.0130165
822.203	0.0130302
822.281	0.0129424
822.359	0.0131870
822.437	0.0131091
822.515	0.0129980
822.593	0.0129510
822.671	0.0131583
822.749	0.0131947
822.828	0.0133431
822.906	0.0133128
822.984	0.0132529
823.062	0.0132998
823.140	0.0133298
823.218	0.0133114
823.296	0.0132886
823.374	0.0133774
823.453	0.0132612
823.531	0.0133507
823.609	0.0134100
823.687	0.0132722
823.765	0.0134845
823.843	0.0133733
823.921	0.0134391
823.999	0.0134972
824.078	0.0132737
824.156	0.0132977
824.234	0.0132360
824.312	0.0132825
824.390	0.0131757
824.468	0.0133890
824.546	0.0131689
824.624	0.0131101
824.703	0.0133456
824.781	0.0132361
824.859	0.0131924
824.937	0.0130708
825.015	0.0132711
825.093	0.0132787
825.171	0.0133436
825.249	0.0133661
825.328	0.0133060
825.406	0.0133430
825.484	0.0133286
825.562	0.0133820
825.640	0.0132851
825.718	0.0133940
825.796	0.0134195
825.874	0.0133218
825.953	0.0132642
826.031	0.0131528
826.109	0.0133034
826.187	0.0133045
826.265	0.0132185
826.343	0.0132699
826.421	0.0132545
826.499	0.0129907
826.578	0.0129839
826.656	0.0130336
826.734	0.0131632
826.812	0.0130100
826.890	0.0130378
826.968	0.0127638
827.046	0.0130138
827.124	0.0130577
827.203	0.0129233
827.281	0.0129732
827.359	0.0130635
827.437	0.0131295
827.515	0.0132756
827.593	0.0131276
827.671	0.0132270
827.749	0.0132569
827.828	0.0132021
827.906	0.0133368
827.984	0.0133795
828.062	0.0133373
828.140	0.0133458
828.218	0.0132982
828.296	0.0134843
828.374	0.0133299
828.453	0.0132246
828.531	0.0133694
828.609	0.0132913
828.687	0.0133128
828.765	0.0133927
828.843	0.0133513
828.921	0.0132525
828.999	0.0133382
829.078	0.0132526
829.156	0.0132939
829.234	0.0133201
829.312	0.0132794
829.390	0.0132701
829.468	0.0132819
829.546	0.0132767
829.624	0.0132767
829.703	0.0132121
829.781	0.0132166
829.859	0.0131927
829.937	0.0133910
830.015	0.0132775
830.093	0.0132609
830.171	0.0134299
830.249	0.0132569
830.328	0.0132626
830.406	0.0131977
830.484	0.0132556
830.562	0.0132327
830.640	0.0131187
830.718	0.0132064
830.796	0.0132806
830.874	0.0130497
830.953	0.0131343
831.031	0.0132159
831.109	0.0131940
831.187	0.0132247
831.265	0.0131751
831.343	0.0133222
831.421	0.0133138
831.499	0.0133287
831.578	0.0133982
831.656	0.0133369
831.734	0.0133428
831.812	0.0133154
831.890	0.0133894
831.968	0.0132758
832.046	0.0133009
832.124	0.0133724
832.203	0.0131840
832.281	0.0132343
832.359	0.0132553
832.437	0.0133437
832.515	0.0132661
832.593	0.0132280
832.671	0.0132504
832.749	0.0132261
832.828	0.0131824
832.906	0.0132905
832.984	0.0131638
833.062	0.0131064
833.140	0.0131921
833.218	0.0131324
833.296	0.0131445
833.374	0.0133117
833.453	0.0132491
833.531	0.0131611
833.609	0.0132541
833.687	0.0132269
833.765	0.0130219
833.843	0.0131351
833.921	0.0132619
833.999	0.0131251
834.078	0.0131969
834.156	0.0131573
834.234	0.0130397
834.312	0.0131293
834.390	0.0131927
834.468	0.0132346
834.546	0.0130511
834.624	0.0130729
834.703	0.0131483
834.781	0.0130696
834.859	0.0132218
834.937	0.0131877
835.015	0.0131527
835.093	0.0131757
835.171	0.0133552
835.249	0.0132666
835.328	0.0132243
835.406	0.0134286
835.484	0.0133653
835.562	0.0131824
835.640	0.0133039
835.718	0.0133069
835.796	0.0134328
835.874	0.0132276
835.953	0.0134212
836.031	0.0134447
836.109	0.0132973
836.187	0.0134250
836.265	0.0133197
836.343	0.0132771
836.421	0.0133008
836.499	0.0131794
836.578	0.0132231
836.656	0.0134732
836.734	0.0133253
836.812	0.0132757
836.890	0.0132727
836.968	0.0133421
837.046	0.0132831
837.124	0.0132954
837.203	0.0132735
837.281	0.0132053
837.359	0.0132109
837.437	0.0130981
837.515	0.0131595
837.593	0.0132728
837.671	0.0133186
837.749	0.0131480
837.828	0.0130009
837.906	0.0130538
837.984	0.0131425
838.062	0.0131547
838.140	0.0130725
838.218	0.0130854
838.296	0.0131731
838.374	0.0130414
838.453	0.0132297
838.531	0.0131888
838.609	0.0132165
838.687	0.0132705
838.765	0.0132813
838.843	0.0132700
838.921	0.0132883
838.999	0.0132719
839.078	0.0133576
839.156	0.0133021
839.234	0.0132710
839.312	0.0132838
839.390	0.0134087
839.468	0.0132697
839.546	0.0133487
839.624	0.0133978
839.703	0.0132623
839.781	0.0134344
839.859	0.0133749
839.937	0.0132846
840.015	0.0133871
840.093	0.0133233
840.171	0.0133418
840.249	0.0134107
840.328	0.0134370
840.406	0.0135860
840.484	0.0132792
840.562	0.0132755
840.640	0.0136250
840.718	0.0134790
840.796	0.0132690
840.874	0.0133910
840.953	0.0135128
841.031	0.0133549
841.109	0.0132986
841.187	0.0132799
841.265	0.0134487
841.343	0.0134410
841.421	0.0134055
841.499	0.0131732
841.578	0.0132637
841.656	0.0131432
841.734	0.0131538
841.812	0.0132869
841.890	0.0133731
841.968	0.0132632
842.046	0.0131400
842.124	0.0132050
842.203	0.0131673
842.281	0.0132035
842.359	0.0132789
842.437	0.0132048
842.515	0.0132408
842.593	0.0133282
842.671	0.0132024
842.749	0.0132175
842.828	0.0132529
842.906	0.0134007
842.984	0.0132867
843.062	0.0131728
843.140	0.0131084
843.218	0.0133105
843.296	0.0133244
843.374	0.0132315
843.453	0.0131020
843.531	0.0132803
843.609	0.0132788
843.687	0.0131707
843.765	0.0133898
843.843	0.0132747
843.921	0.0132679
843.999	0.0132452
844.078	0.0132948
844.156	0.0133395
844.234	0.0132673
844.312	0.0133771
844.390	0.0133416
844.468	0.0133118
844.546	0.0134048
844.624	0.0133118
844.703	0.0135287
844.781	0.0133568
844.859	0.0133825
844.937	0.0133341
845.015	0.0133628
845.093	0.0133941
845.171	0.0133125
845.249	0.0133228
845.328	0.0133842
845.406	0.0133660
845.484	0.0131962
845.562	0.0132745
845.640	0.0132951
845.718	0.0132601
845.796	0.0133189
845.874	0.0131458
845.953	0.0131256
846.031	0.0130811
846.109	0.0131565
846.187	0.0131257
846.265	0.0131174
846.343	0.0131559
846.421	0.0130081
846.499	0.0130272
846.578	0.0131770
846.656	0.0131355
846.734	0.0130989
846.812	0.0131956
846.890	0.0131927
846.968	0.0131578
847.046	0.0131028
847.124	0.0131524
847.203	0.0132381
847.281	0.0133109
847.359	0.0133221
847.437	0.0131334
847.515	0.0131783
847.593	0.0132952
847.671	0.0133093
847.749	0.0131934
847.828	0.0133504
847.906	0.0132306
847.984	0.0131433
848.062	0.0131877
848.140	0.0132433
848.218	0.0130940
848.296	0.0131236
848.374	0.0132191
848.453	0.0132919
848.531	0.0131411
848.609	0.0132986
848.687	0.0132317
848.765	0.0133497
848.843	0.0132967
848.921	0.0133373
848.999	0.0133313
849.078	0.0132117
849.156	0.0132207
849.234	0.0132381
849.312	0.0133163
849.390	0.0131821
849.468	0.0134161
849.546	0.0133514
849.624	0.0133100
849.703	0.0133262
849.781	0.0132392
849.859	0.0132936
849.937	0.0132462
850.015	0.0131966
850.093	0.0131220
850.171	0.0132202
850.249	0.0131704
850.328	0.0132456
850.406	0.0131666
850.484	0.0131755
850.562	0.0132210
850.640	0.0132113
850.718	0.0131495
850.796	0.0130827
850.874	0.0132085
850.953	0.0131184
851.031	0.0131310
851.109	0.0130367
851.187	0.0132285
851.265	0.0133278
851.343	0.0132487
851.421	0.0131462
851.499	0.0133465
851.578	0.0133793
851.656	0.0134332
851.734	0.0131207
851.812	0.0133129
851.890	0.0133602
851.968	0.0132835
852.046	0.0133585
852.124	0.0133363
852.203	0.0132619
852.281	0.0132523
852.359	0.0134227
852.437	0.0133302
852.515	0.0132677
852.593	0.0132880
852.671	0.0132120
852.749	0.0132706
852.828	0.0132348
852.906	0.0133204
852.984	0.0132574
853.062	0.0132809
853.140	0.0133488
853.218	0.0132177
853.296	0.0131379
853.374	0.0132903
853.453	0.0132979
853.531	0.0132829
853.609	0.0132907
853.687	0.0133357
853.765	0.0133503
853.843	0.0132671
853.921	0.0133449
853.999	0.0133758
854.078	0.0133487
854.156	0.0133857
854.234	0.0134792
854.312	0.0134867
854.390	0.0133675
854.468	0.0134628
854.546	0.0133936
854.624	0.0133414
854.703	0.0133669
854.781	0.0133680
854.859	0.0132212
854.937	0.0132693
855.015	0.0133232
855.093	0.0133170
855.171	0.0132303
855.249	0.0132012
855.328	0.0132737
855.406	0.0132936
855.484	0.0132223
855.562	0.0132182
855.640	0.0132794
855.718	0.0132365
855.796	0.0131299
855.874	0.0133298
855.953	0.0133378
856.031	0.0132396
856.109	0.0132657
856.187	0.0133894
856.265	0.0134106
856.343	0.0132887
856.421	0.0132609
856.499	0.0132922
856.578	0.0133801
856.656	0.0132159
856.734	0.0133195
856.812	0.0133714
856.890	0.0134116
856.968	0.0132793
857.046	0.0132207
857.124	0.0133548
857.203	0.0134694
857.281	0.0132972
857.359	0.0132602
857.437	0.0133304
857.515	0.0132730
857.593	0.0133188
857.671	0.0132735
857.749	0.0132554
857.828	0.0132966
857.906	0.0134071
857.984	0.0132341
858.062	0.0133017
858.140	0.0133183
858.218	0.0133203
858.296	0.0134351
858.374	0.0132730
858.453	0.0133349
858.531	0.0134212
858.609	0.0133853
858.687	0.0133119
858.765	0.0134081
858.843	0.0133093
858.921	0.0133117
858.999	0.0132618
859.078	0.0132615
859.156	0.0132675
859.234	0.0133173
859.312	0.0132935
859.390	0.0133038
859.468	0.0132671
859.546	0.0132507
859.624	0.0131048
859.703	0.0131940
859.781	0.0132146
859.859	0.0132571
859.937	0.0132760
860.015	0.0132671
860.093	0.0132320
860.171	0.0132479
860.249	0.0132466
860.328	0.0132196
860.406	0.0132812
860.484	0.0133494
860.562	0.0133051
860.640	0.0132700
860.718	0.0132494
860.796	0.0132147
860.874	0.0132552
860.953	0.0131689
861.031	0.0131592
861.109	0.0132452
861.187	0.0133526
861.265	0.0133439
861.343	0.0132919
861.421	0.0132041
861.499	0.0132671
861.578	0.0134247
861.656	0.0133052
861.734	0.0133762
861.812	0.0134031
861.890	0.0133405
861.968	0.0134901
862.046	0.0133668
862.124	0.0132929
862.203	0.0134917
862.281	0.0134924
862.359	0.0134386
862.437	0.0133573
862.515	0.0133097
862.593	0.0132140
862.671	0.0133601
862.749	0.0132778
862.828	0.0132103
862.906	0.0133339
862.984	0.0132594
863.062	0.0132461
863.140	0.0132597
863.218	0.0133360
863.296	0.0130741
863.374	0.0131958
863.453	0.0132198
863.531	0.0132719
863.609	0.0131187
863.687	0.0131259
863.765	0.0132246
863.843	0.0131709
863.921	0.0132903
863.999	0.0131546
864.078	0.0132299
864.156	0.0131764
864.234	0.0131895
864.312	0.0132668
864.390	0.0132753
864.468	0.0130901
864.546	0.0131792
864.624	0.0132626
864.703	0.0133351
864.781	0.0132272
864.859	0.0131847
864.937	0.0132343
865.015	0.0131441
865.093	0.0132738
865.171	0.0133260
865.249	0.0132635
865.328	0.0132736
865.406	0.0132220
865.484	0.0134219
865.562	0.0135469
865.640	0.0134628
865.718	0.0133056
865.796	0.0133592
865.874	0.0135197
865.953	0.0134768
866.031	0.0134111
866.109	0.0134237
866.187	0.0134240
866.265	0.0133035
866.343	0.0133722
866.421	0.0134471
866.499	0.0134197
866.578	0.0133582
866.656	0.0132341
866.734	0.0132390
866.812	0.0134003
866.890	0.0134945
866.968	0.0134753
867.046	0.0132760
867.124	0.0133264
867.203	0.0133234
867.281	0.0133726
867.359	0.0133479
867.437	0.0132825
867.515	0.0131392
867.593	0.0133966
867.671	0.0133179
867.749	0.0131821
867.828	0.0132534
867.906	0.0131989
867.984	0.0132439
868.062	0.0132322
868.140	0.0130330
868.218	0.0131434
868.296	0.0131211
868.374	0.0131486
868.453	0.0132346
868.531	0.0132652
868.609	0.0131760
868.687	0.0131436
868.765	0.0131640
868.843	0.0131649
868.921	0.0132220
868.999	0.0133360
869.078	0.0132505
869.156	0.0131836
869.234	0.0133373
869.312	0.0134002
869.390	0.0133686
869.468	0.0133416
869.546	0.0133381
869.624	0.0134099
869.703	0.0134452
869.781	0.0133102
869.859	0.0134850
869.937	0.0133112
870.015	0.0134364
870.093	0.0134139
870.171	0.0133876
870.249	0.0133988
870.328	0.0134184
870.406	0.0133508
870.484	0.0133822
870.562	0.0135432
870.640	0.0134107
870.718	0.0135201
870.796	0.0132195
870.874	0.0133339
870.953	0.0134485
871.031	0.0133560
871.109	0.0132492
871.187	0.0133367
871.265	0.0132226
871.343	0.0132896
871.421	0.0132475
871.499	0.0132018
871.578	0.0133180
871.656	0.0132893
871.734	0.0132491
871.812	0.0132471
871.890	0.0131982
871.968	0.0131816
872.046	0.0132204
872.124	0.0132948
872.203	0.0132358
872.281	0.0131482
872.359	0.0132543
872.437	0.0132954
872.515	0.0131113
872.593	0.0131437
872.671	0.0131431
872.749	0.0132233
872.828	0.0131352
872.906	0.0132318
872.984	0.0130576
873.062	0.0132462
873.140	0.0132436
873.218	0.0131289
873.296	0.0133318
873.374	0.0132805
873.453	0.0132217
873.531	0.0133712
873.609	0.0134203
873.687	0.0133826
873.765	0.0134795
873.843	0.0133105
873.921	0.0134411
873.999	0.0134387
874.078	0.0133725
874.156	0.0134103
874.234	0.0135087
874.312	0.0134060
874.390	0.0134121
874.468	0.0133614
874.546	0.0132989
874.624	0.0133229
874.703	0.0132876
874.781	0.0132597
874.859	0.0131075
874.937	0.0132506
875.015	0.0133014
875.093	0.0131915
875.171	0.0132650
875.249	0.0133214
875.328	0.0132137
875.406	0.0131106
875.484	0.0132267
875.562	0.0131647
875.640	0.0132765
875.718	0.0133913
875.796	0.0132500
875.874	0.0132594
875.953	0.0133302
876.031	0.0134896
876.109	0.0134390
876.187	0.0133577
876.265	0.0132803
876.343	0.0133331
876.421	0.0133932
876.499	0.0133781
876.578	0.0133047
876.656	0.0132346
876.734	0.0132024
876.812	0.0133501
876.890	0.0133568
876.968	0.0132166
877.046	0.0134296
877.124	0.0133734
877.203	0.0132528
877.281	0.0134246
877.359	0.0133663
877.437	0.0134421
877.515	0.0135201
877.593	0.0135386
877.671	0.0136876
877.749	0.0135271
877.828	0.0134922
877.906	0.0134161
877.984	0.0134359
878.062	0.0134827
878.140	0.0135255
878.218	0.0133696
878.296	0.0133997
878.374	0.0134564
878.453	0.0133158
878.531	0.0133413
878.609	0.0134003
878.687	0.0133183
878.765	0.0131685
878.843	0.0133188
878.921	0.0132060
878.999	0.0132061
879.078	0.0130987
879.156	0.0133271
879.234	0.0132379
879.312	0.0131358
879.390	0.0131609
879.468	0.0131269
879.546	0.0131907
879.624	0.0132652
879.703	0.0132932
879.781	0.0132002
879.859	0.0135007
879.937	0.0134467
880.015	0.0134275
880.093	0.0133625
880.171	0.0134908
880.249	0.0135674
880.328	0.0134980
880.406	0.0134083
880.484	0.0135062
880.562	0.0134807
880.640	0.0133131
880.718	0.0133813
880.796	0.0133501
880.874	0.0132372
880.953	0.0132265
881.031	0.0132584
881.109	0.0131651
881.187	0.0132366
881.265	0.0132627
881.343	0.0132455
881.421	0.0132966
881.499	0.0132229
881.578	0.0132108
881.656	0.0131789
881.734	0.0133523
881.812	0.0133967
881.890	0.0135412
881.968	0.0134355
882.046	0.0133624
882.124	0.0134338
882.203	0.0133867
882.281	0.0134588
882.359	0.0134296
882.437	0.0134941
882.515	0.0134097
882.593	0.0133009
882.671	0.0132581
882.749	0.0133297
882.828	0.0133524
882.906	0.0132879
882.984	0.0131136
883.062	0.0132818
883.140	0.0131961
883.218	0.0131556
883.296	0.0133175
883.374	0.0132651
883.453	0.0131538
883.531	0.0132295
883.609	0.0131475
883.687	0.0132377
883.765	0.0132677
883.843	0.0134413
883.921	0.0133026
883.999	0.0132772
884.078	0.0132192
884.156	0.0133662
884.234	0.0133367
884.312	0.0133279
884.390	0.0133952
884.468	0.0133826
884.546	0.0134595
884.624	0.0133486
884.703	0.0133765
884.781	0.0134326
884.859	0.0134795
884.937	0.0134306
885.015	0.0132867
885.093	0.0132784
885.171	0.0132986
885.249	0.0133482
885.328	0.0134933
885.406	0.0133262
885.484	0.0133951
885.562	0.0131859
885.640	0.0131449
885.718	0.0132081
885.796	0.0133783
885.874	0.0133500
885.953	0.0132854
886.031	0.0132230
886.109	0.0132362
886.187	0.0131880
886.265	0.0132893
886.343	0.0132540
886.421	0.0131516
886.499	0.0132780
886.578	0.0132032
886.656	0.0133181
886.734	0.0133862
886.812	0.0133186
886.890	0.0131789
886.968	0.0133113
887.046	0.0132674
887.124	0.0133453
887.203	0.0134238
887.281	0.0133789
887.359	0.0132661
887.437	0.0132779
887.515	0.0132632
887.593	0.0131641
887.671	0.0132487
887.749	0.0131985
887.828	0.0133425
887.906	0.0131844
887.984	0.0132196
888.062	0.0131692
888.140	0.0131535
888.218	0.0132144
888.296	0.0132825
888.374	0.0133552
888.453	0.0132994
888.531	0.0131345
888.609	0.0132873
888.687	0.0133971
888.765	0.0132817
888.843	0.0133720
888.921	0.0133997
888.999	0.0134255
889.078	0.0133620
889.156	0.0132812
889.234	0.0134766
889.312	0.0135172
889.390	0.0134765
889.468	0.0134495
889.546	0.0135340
889.624	0.0133936
889.703	0.0134398
889.781	0.0133401
889.859	0.0132627
889.937	0.0132334
890.015	0.0132494
890.093	0.0133402
890.171	0.0132204
890.249	0.0132846
890.328	0.0132213
890.406	0.0131359
890.484	0.0132375
890.562	0.0130869
890.640	0.0131113
890.718	0.0131463
890.796	0.0130740
890.874	0.0131718
890.953	0.0130286
891.031	0.0132184
891.109	0.0132573
891.187	0.0133107
891.265	0.0133060
891.343	0.0133092
891.421	0.0132253
891.499	0.0132101
891.578	0.0132915
891.656	0.0134530
891.734	0.0133921
891.812	0.0132712
891.890	0.0132937
891.968	0.0133054
892.046	0.0131702
892.124	0.0132091
892.203	0.0133150
892.281	0.0132617
892.359	0.0132313
892.437	0.0134516
892.515	0.0131905
892.593	0.0132823
892.671	0.0132217
892.749	0.0132382
892.828	0.0132500
892.906	0.0132478
892.984	0.0132627
893.062	0.0131640
893.140	0.0131252
893.218	0.0133648
893.296	0.0132754
893.374	0.0132928
893.453	0.0132974
893.531	0.0133789
893.609	0.0133609
893.687	0.0135510
893.765	0.0135014
893.843	0.0132755
893.921	0.0134100
893.999	0.0133534
894.078	0.0134917
894.156	0.0134672
894.234	0.0134351
894.312	0.0133505
894.390	0.0134753
894.468	0.0132404
894.546	0.0132196
894.624	0.0132170
894.703	0.0131610
894.781	0.0131227
894.859	0.0131535
894.937	0.0132121
895.015	0.0131811
895.093	0.0131921
895.171	0.0131720
895.249	0.0132219
895.328	0.0132623
895.406	0.0132963
895.484	0.0132296
895.562	0.0133279
895.640	0.0133340
895.718	0.0133614
895.796	0.0133063
895.874	0.0134760
895.953	0.0134024
896.031	0.0134617
896.109	0.0133807
896.187	0.0134181
896.265	0.0134776
896.343	0.0135033
896.421	0.0133902
896.499	0.0133845
896.578	0.0133932
896.656	0.0131165
896.734	0.0131371
896.812	0.0132077
896.890	0.0133054
896.968	0.0132935
897.046	0.0130598
897.124	0.0131387
897.203	0.0130489
897.281	0.0130926
897.359	0.0132082
897.437	0.0130949
897.515	0.0132555
897.593	0.0131752
897.671	0.0132742
897.749	0.0132894
897.828	0.0134574
897.906	0.0135172
897.984	0.0135475
898.062	0.0134416
898.140	0.0134434
898.218	0.0134365
898.296	0.0135644
898.374	0.0135172
898.453	0.0135849
898.531	0.0135637
898.609	0.0136539
898.687	0.0134886
898.765	0.0133347
898.843	0.0134133
898.921	0.0132381
898.999	0.0134251
899.078	0.0132871
899.156	0.0132951
899.234	0.0132484
899.312	0.0131249
899.390	0.0131577
899.468	0.0131459
899.546	0.0131289
899.624	0.0131104
899.703	0.0131268
899.781	0.0130933
899.859	0.0131219
899.937	0.0131980
900.015	0.0131536
900.093	0.0132148
900.171	0.0132299
900.249	0.0133257
900.328	0.0134532
900.406	0.0132661
900.484	0.0133900
900.562	0.0135279
900.640	0.0135050
900.718	0.0134902
900.796	0.0134204
900.874	0.0134682
900.953	0.0134464
901.031	0.0133938
901.109	0.0133326
901.187	0.0135446
901.265	0.0133229
901.343	0.0132265
901.421	0.0132069
901.499	0.0132616
901.578	0.0133356
901.656	0.0132643
901.734	0.0132864
901.812	0.0133218
901.890	0.0132773
901.968	0.0132549
902.046	0.0133092
902.124	0.0133460
902.203	0.0132207
902.281	0.0132921
902.359	0.0133931
902.437	0.0134003
902.515	0.0134760
902.593	0.0133047
902.671	0.0134997
902.749	0.0135374
902.828	0.0135007
902.906	0.0135449
902.984	0.0135442
903.062	0.0133708
903.140	0.0134484
903.218	0.0134751
903.296	0.0133888
903.374	0.0134084
903.453	0.0132614
903.531	0.0131824
903.609	0.0130858
903.687	0.0131206
903.765	0.0132169
903.843	0.0131302
903.921	0.0131432
903.999	0.0130323
904.078	0.0130824
904.156	0.0130925
904.234	0.0132225
904.312	0.0130663
904.390	0.0131093
904.468	0.0132195
904.546	0.0132372
904.624	0.0132338
904.703	0.0133942
904.781	0.0134354
904.859	0.0134765
904.937	0.0135008
905.015	0.0136287
905.093	0.0135602
905.171	0.0135367
905.249	0.0134616
905.328	0.0134760
905.406	0.0133702
905.484	0.0133887
905.562	0.0134733
905.640	0.0132938
905.718	0.0134961
905.796	0.0132969
905.874	0.0132915
905.953	0.0132641
906.031	0.0132301
906.109	0.0131761
906.187	0.0131631
906.265	0.0133514
906.343	0.0131293
906.421	0.0132974
906.499	0.0132815
906.578	0.0130733
906.656	0.0132659
906.734	0.0132142
906.812	0.0133238
906.890	0.0133822
906.968	0.0134557
907.046	0.0133176
907.124	0.0132945
907.203	0.0131745
907.281	0.0132517
907.359	0.0135381
907.437	0.0134283
907.515	0.0135062
907.593	0.0135672
907.671	0.0134635
907.749	0.0134122
907.828	0.0133740
907.906	0.0132723
907.984	0.0133650
908.062	0.0133170
908.140	0.0132498
908.218	0.0131262
908.296	0.0131415
908.374	0.0131005
908.453	0.0132321
908.531	0.0130434
908.609	0.0131461
908.687	0.0130432
908.765	0.0129457
908.843	0.0132391
908.921	0.0131844
908.999	0.0132475
909.078	0.0133404
909.156	0.0134077
909.234	0.0134396
909.312	0.0135744
909.390	0.0135177
909.468	0.0134286
909.546	0.0134892
909.624	0.0136400
909.703	0.0135085
909.781	0.0134370
909.859	0.0134341
909.937	0.0134029
910.015	0.0134834
910.093	0.0133719
910.171	0.0133323
910.249	0.0132523
910.328	0.0131956
910.406	0.0132720
910.484	0.0132155
910.562	0.0133089
910.640	0.0131726
910.718	0.0132126
910.796	0.0131841
910.874	0.0132584
910.953	0.0132533
911.031	0.0130807
911.109	0.0131149
911.187	0.0131316
911.265	0.0133032
911.343	0.0133906
911.421	0.0132577
911.499	0.0133631
911.578	0.0133315
911.656	0.0133936
911.734	0.0132236
911.812	0.0134316
911.890	0.0133533
911.968	0.0133671
912.046	0.0133735
912.124	0.0133812
912.203	0.0135392
912.281	0.0133576
912.359	0.0133234
912.437	0.0132546
912.515	0.0133018
912.593	0.0131848
912.671	0.0131683
912.749	0.0132542
912.828	0.0130846
912.906	0.0130662
912.984	0.0131000
913.062	0.0129414
913.140	0.0130452
913.218	0.0130446
913.296	0.0129955
913.374	0.0132331
913.453	0.0132098
913.531	0.0131892
913.609	0.0132903
913.687	0.0132894
913.765	0.0132499
913.843	0.0132736
913.921	0.0133047
913.999	0.0134026
914.078	0.0134323
914.156	0.0134601
914.234	0.0133421
914.312	0.0133874
914.390	0.0133559
914.468	0.0133262
914.546	0.0132180
914.624	0.0133276
914.703	0.0132816
914.781	0.0132638
914.859	0.0132463
914.937	0.0130782
915.015	0.0131568
915.093	0.0132014
915.171	0.0131432
915.249	0.0134101
915.328	0.0131813
915.406	0.0132793
915.484	0.0131794
915.562	0.0132637
915.640	0.0132842
915.718	0.0132778
915.796	0.0132043
915.874	0.0132318
915.953	0.0132729
916.031	0.0133083
916.109	0.0133871
916.187	0.0134156
916.265	0.0133981
916.343	0.0133311
916.421	0.0131718
916.499	0.0132308
916.578	0.0132661
916.656	0.0132181
916.734	0.0132648
916.812	0.0133523
916.890	0.0132539
916.968	0.0132560
917.046	0.0132763
917.124	0.0132681
917.203	0.0132458
917.281	0.0132854
917.359	0.0133025
917.437	0.0130029
917.515	0.0132334
917.593	0.0133404
917.671	0.0132457
917.749	0.0132318
917.828	0.0131720
917.906	0.0132249
917.984	0.0132473
918.062	0.0132709
918.140	0.0132178
918.218	0.0133121
918.296	0.0131986
918.374	0.0131803
918.453	0.0133476
918.531	0.0132790
918.609	0.0134904
918.687	0.0133669
918.765	0.0132668
918.843	0.0133014
918.921	0.0132538
918.999	0.0133542
919.078	0.0133083
919.156	0.0132321
919.234	0.0133929
919.312	0.0131535
919.390	0.0131305
919.468	0.0132043
919.546	0.0132149
919.624	0.0132816
919.703	0.0132392
919.781	0.0132136
919.859	0.0133880
919.937	0.0131747
