05/06/2022	18:50:49	Ver.	4.1	UNKNOWN
Optical Delay	600.015094	Delta X		0.078125	Sweeps	1	Scan Rate	0/0
Coordinates	Axis 1	NaN	Axis 2	NaN	Axis 3	NaN	Axis 4	NaN	Axis 5	NaN	Axis 6	0.000000
TX Power	0.000000	RX Power	0.000000

600.015	0.0134585
600.093	0.0134184
600.171	0.0134335
600.249	0.0134464
600.328	0.0134288
600.406	0.0134183
600.484	0.0134768
600.562	0.0133253
600.640	0.0133416
600.718	0.0133148
600.796	0.0134174
600.874	0.0135004
600.953	0.0134683
601.031	0.0134452
601.109	0.0135624
601.187	0.0134690
601.265	0.0134658
601.343	0.0134030
601.421	0.0134209
601.499	0.0134540
601.578	0.0134997
601.656	0.0135139
601.734	0.0135195
601.812	0.0134574
601.890	0.0134581
601.968	0.0133891
602.046	0.0133884
602.124	0.0135914
602.203	0.0135064
602.281	0.0133637
602.359	0.0134042
602.437	0.0134641
602.515	0.0132882
602.593	0.0133834
602.671	0.0133951
602.749	0.0135411
602.828	0.0134409
602.906	0.0134669
602.984	0.0133617
603.062	0.0134515
603.140	0.0134953
603.218	0.0135190
603.296	0.0134663
603.374	0.0133962
603.453	0.0133382
603.531	0.0135135
603.609	0.0134473
603.687	0.0134657
603.765	0.0133824
603.843	0.0134742
603.921	0.0133574
603.999	0.0134035
604.078	0.0133614
604.156	0.0134268
604.234	0.0134441
604.312	0.0135426
604.390	0.0132735
604.468	0.0134378
604.546	0.0134508
604.624	0.0133638
604.703	0.0133853
604.781	0.0134502
604.859	0.0134721
604.937	0.0134155
605.015	0.0134138
605.093	0.0134421
605.171	0.0134439
605.249	0.0133858
605.328	0.0134070
605.406	0.0134445
605.484	0.0133834
605.562	0.0133904
605.640	0.0133266
605.718	0.0134801
605.796	0.0134125
605.874	0.0134118
605.953	0.0135001
606.031	0.0134167
606.109	0.0134920
606.187	0.0133389
606.265	0.0133235
606.343	0.0134268
606.421	0.0135515
606.499	0.0135019
606.578	0.0134218
606.656	0.0133518
606.734	0.0134998
606.812	0.0134659
606.890	0.0133489
606.968	0.0133942
607.046	0.0133857
607.124	0.0134041
607.203	0.0133679
607.281	0.0134328
607.359	0.0134901
607.437	0.0134628
607.515	0.0133874
607.593	0.0134618
607.671	0.0134489
607.749	0.0133624
607.828	0.0133635
607.906	0.0134827
607.984	0.0134180
608.062	0.0134634
608.140	0.0134582
608.218	0.0133688
608.296	0.0133646
608.374	0.0133006
608.453	0.0132892
608.531	0.0134070
608.609	0.0135349
608.687	0.0135134
608.765	0.0134000
608.843	0.0134124
608.921	0.0134297
608.999	0.0134860
609.078	0.0134592
609.156	0.0134016
609.234	0.0135775
609.312	0.0132929
609.390	0.0133147
609.468	0.0133922
609.546	0.0132683
609.624	0.0134734
609.703	0.0134479
609.781	0.0134139
609.859	0.0134606
609.937	0.0134755
610.015	0.0133743
610.093	0.0133642
610.171	0.0135400
610.249	0.0134291
610.328	0.0134115
610.406	0.0134664
610.484	0.0134361
610.562	0.0134327
610.640	0.0133811
610.718	0.0134093
610.796	0.0134585
610.874	0.0135043
610.953	0.0134481
611.031	0.0133542
611.109	0.0134247
611.187	0.0134339
611.265	0.0135407
611.343	0.0133900
611.421	0.0134352
611.499	0.0133257
611.578	0.0132835
611.656	0.0135779
611.734	0.0135319
611.812	0.0135143
611.890	0.0134257
611.968	0.0134264
612.046	0.0134278
612.124	0.0134493
612.203	0.0135833
612.281	0.0133461
612.359	0.0134773
612.437	0.0135322
612.515	0.0134921
612.593	0.0134186
612.671	0.0134680
612.749	0.0135040
612.828	0.0134724
612.906	0.0134811
612.984	0.0133989
613.062	0.0134180
613.140	0.0134402
613.218	0.0134234
613.296	0.0133984
613.374	0.0135510
613.453	0.0135556
613.531	0.0136578
613.609	0.0133911
613.687	0.0134312
613.765	0.0135386
613.843	0.0133809
613.921	0.0134669
613.999	0.0135015
614.078	0.0134636
614.156	0.0136182
614.234	0.0134125
614.312	0.0134502
614.390	0.0134128
614.468	0.0135009
614.546	0.0134699
614.624	0.0133883
614.703	0.0134488
614.781	0.0134125
614.859	0.0133563
614.937	0.0133710
615.015	0.0133545
615.093	0.0134374
615.171	0.0135093
615.249	0.0135367
615.328	0.0134064
615.406	0.0134623
615.484	0.0133414
615.562	0.0133530
615.640	0.0134447
615.718	0.0135424
615.796	0.0133727
615.874	0.0134789
615.953	0.0134392
616.031	0.0135461
616.109	0.0134248
616.187	0.0133922
616.265	0.0133886
616.343	0.0133933
616.421	0.0133624
616.499	0.0132863
616.578	0.0134757
616.656	0.0135380
616.734	0.0135309
616.812	0.0134111
616.890	0.0133738
616.968	0.0133878
617.046	0.0133504
617.124	0.0133924
617.203	0.0135928
617.281	0.0135117
617.359	0.0133528
617.437	0.0133922
617.515	0.0134011
617.593	0.0134294
617.671	0.0133698
617.749	0.0134353
617.828	0.0134238
617.906	0.0134780
617.984	0.0134985
618.062	0.0133956
618.140	0.0134531
618.218	0.0135972
618.296	0.0134744
618.374	0.0134525
618.453	0.0134586
618.531	0.0133592
618.609	0.0134814
618.687	0.0135645
618.765	0.0135683
618.843	0.0135063
618.921	0.0133864
618.999	0.0134144
619.078	0.0134479
619.156	0.0134386
619.234	0.0133274
619.312	0.0133604
619.390	0.0134734
619.468	0.0134873
619.546	0.0132338
619.624	0.0134880
619.703	0.0134187
619.781	0.0134164
619.859	0.0132622
619.937	0.0134921
620.015	0.0133999
620.093	0.0135168
620.171	0.0134672
620.249	0.0133448
620.328	0.0135637
620.406	0.0134716
620.484	0.0135645
620.562	0.0135683
620.640	0.0134340
620.718	0.0134106
620.796	0.0133016
620.874	0.0135567
620.953	0.0133646
621.031	0.0134089
621.109	0.0135143
621.187	0.0135388
621.265	0.0135025
621.343	0.0135440
621.421	0.0135130
621.499	0.0133332
621.578	0.0134079
621.656	0.0134122
621.734	0.0133246
621.812	0.0134775
621.890	0.0133803
621.968	0.0134800
622.046	0.0134323
622.124	0.0134338
622.203	0.0133450
622.281	0.0133400
622.359	0.0134980
622.437	0.0135056
622.515	0.0135041
622.593	0.0134874
622.671	0.0133810
622.749	0.0135786
622.828	0.0135345
622.906	0.0135616
622.984	0.0134561
623.062	0.0134131
623.140	0.0135900
623.218	0.0134631
623.296	0.0135207
623.374	0.0134544
623.453	0.0134546
623.531	0.0135192
623.609	0.0135590
623.687	0.0134892
623.765	0.0134320
623.843	0.0133389
623.921	0.0134434
623.999	0.0134035
624.078	0.0134977
624.156	0.0134216
624.234	0.0134047
624.312	0.0133969
624.390	0.0134931
624.468	0.0133934
624.546	0.0135872
624.624	0.0134230
624.703	0.0134296
624.781	0.0134991
624.859	0.0133839
624.937	0.0133951
625.015	0.0135456
625.093	0.0134156
625.171	0.0135323
625.249	0.0133914
625.328	0.0134956
625.406	0.0134882
625.484	0.0135321
625.562	0.0134554
625.640	0.0134708
625.718	0.0134877
625.796	0.0136022
625.874	0.0135071
625.953	0.0133336
626.031	0.0133708
626.109	0.0134813
626.187	0.0133449
626.265	0.0135617
626.343	0.0134889
626.421	0.0135832
626.499	0.0133717
626.578	0.0135066
626.656	0.0134789
626.734	0.0134763
626.812	0.0135412
626.890	0.0135021
626.968	0.0134005
627.046	0.0134724
627.124	0.0134476
627.203	0.0134039
627.281	0.0134941
627.359	0.0135547
627.437	0.0132186
627.515	0.0134448
627.593	0.0135686
627.671	0.0133562
627.749	0.0134339
627.828	0.0134357
627.906	0.0135817
627.984	0.0135649
628.062	0.0134637
628.140	0.0135655
628.218	0.0133289
628.296	0.0133597
628.374	0.0134966
628.453	0.0134701
628.531	0.0134026
628.609	0.0135872
628.687	0.0133398
628.765	0.0134029
628.843	0.0135303
628.921	0.0134553
628.999	0.0133743
629.078	0.0135474
629.156	0.0135400
629.234	0.0133614
629.312	0.0134336
629.390	0.0134985
629.468	0.0134385
629.546	0.0134489
629.624	0.0134500
629.703	0.0134960
629.781	0.0134630
629.859	0.0135000
629.937	0.0134961
630.015	0.0134737
630.093	0.0133306
630.171	0.0134024
630.249	0.0134898
630.328	0.0134657
630.406	0.0134361
630.484	0.0134357
630.562	0.0133836
630.640	0.0132721
630.718	0.0135207
630.796	0.0134803
630.874	0.0135751
630.953	0.0133992
631.031	0.0133999
631.109	0.0135021
631.187	0.0133801
631.265	0.0134998
631.343	0.0134462
631.421	0.0133923
631.499	0.0134153
631.578	0.0134454
631.656	0.0135933
631.734	0.0134801
631.812	0.0134669
631.890	0.0134124
631.968	0.0136414
632.046	0.0135477
632.124	0.0132625
632.203	0.0134647
632.281	0.0134092
632.359	0.0134251
632.437	0.0134615
632.515	0.0135197
632.593	0.0134462
632.671	0.0134736
632.749	0.0134671
632.828	0.0134682
632.906	0.0134691
632.984	0.0134570
633.062	0.0134587
633.140	0.0134647
633.218	0.0133686
633.296	0.0133943
633.374	0.0134738
633.453	0.0133426
633.531	0.0134464
633.609	0.0134791
633.687	0.0135423
633.765	0.0134236
633.843	0.0134296
633.921	0.0134322
633.999	0.0134370
634.078	0.0133567
634.156	0.0133845
634.234	0.0134802
634.312	0.0133586
634.390	0.0133962
634.468	0.0133261
634.546	0.0135584
634.624	0.0135719
634.703	0.0135899
634.781	0.0133750
634.859	0.0133579
634.937	0.0135016
635.015	0.0135031
635.093	0.0135009
635.171	0.0134792
635.249	0.0134546
635.328	0.0135078
635.406	0.0134835
635.484	0.0134511
635.562	0.0134480
635.640	0.0134964
635.718	0.0134076
635.796	0.0134267
635.874	0.0135211
635.953	0.0133945
636.031	0.0134467
636.109	0.0134366
636.187	0.0134323
636.265	0.0135078
636.343	0.0135272
636.421	0.0134003
636.499	0.0134812
636.578	0.0135658
636.656	0.0135488
636.734	0.0134402
636.812	0.0134313
636.890	0.0134735
636.968	0.0135111
637.046	0.0135864
637.124	0.0133819
637.203	0.0133800
637.281	0.0134042
637.359	0.0135419
637.437	0.0133923
637.515	0.0135480
637.593	0.0135516
637.671	0.0134493
637.749	0.0134435
637.828	0.0135577
637.906	0.0134300
637.984	0.0133447
638.062	0.0135393
638.140	0.0135670
638.218	0.0132814
638.296	0.0134245
638.374	0.0134750
638.453	0.0134743
638.531	0.0135603
638.609	0.0133919
638.687	0.0133375
638.765	0.0134211
638.843	0.0134712
638.921	0.0135712
638.999	0.0134985
639.078	0.0133979
639.156	0.0134296
639.234	0.0134607
639.312	0.0134311
639.390	0.0134800
639.468	0.0134364
639.546	0.0134774
639.624	0.0133210
639.703	0.0134554
639.781	0.0133871
639.859	0.0134339
639.937	0.0134436
640.015	0.0133585
640.093	0.0133334
640.171	0.0135145
640.249	0.0135484
640.328	0.0134255
640.406	0.0134267
640.484	0.0134824
640.562	0.0133733
640.640	0.0135484
640.718	0.0134319
640.796	0.0135400
640.874	0.0134782
640.953	0.0134155
641.031	0.0135020
641.109	0.0135250
641.187	0.0135887
641.265	0.0134875
641.343	0.0135050
641.421	0.0134769
641.499	0.0134694
641.578	0.0133841
641.656	0.0133637
641.734	0.0134679
641.812	0.0135085
641.890	0.0134573
641.968	0.0133148
642.046	0.0135641
642.124	0.0134863
642.203	0.0133042
642.281	0.0136274
642.359	0.0134052
642.437	0.0136060
642.515	0.0134753
642.593	0.0134781
642.671	0.0135385
642.749	0.0135138
642.828	0.0134871
642.906	0.0134165
642.984	0.0134105
643.062	0.0134450
643.140	0.0135194
643.218	0.0135686
643.296	0.0134065
643.374	0.0134955
643.453	0.0134807
643.531	0.0133846
643.609	0.0134383
643.687	0.0135178
643.765	0.0134779
643.843	0.0133493
643.921	0.0133962
643.999	0.0133862
644.078	0.0135178
644.156	0.0133820
644.234	0.0134978
644.312	0.0134421
644.390	0.0135580
644.468	0.0134792
644.546	0.0134495
644.624	0.0135775
644.703	0.0134366
644.781	0.0135277
644.859	0.0135130
644.937	0.0134555
645.015	0.0134263
645.093	0.0133570
645.171	0.0136370
645.249	0.0134893
645.328	0.0134393
645.406	0.0135751
645.484	0.0133888
645.562	0.0134830
645.640	0.0133975
645.718	0.0134226
645.796	0.0135900
645.874	0.0135472
645.953	0.0134907
646.031	0.0135046
646.109	0.0133872
646.187	0.0134530
646.265	0.0134695
646.343	0.0133906
646.421	0.0134329
646.499	0.0134115
646.578	0.0133588
646.656	0.0133665
646.734	0.0133326
646.812	0.0133760
646.890	0.0135510
646.968	0.0133714
647.046	0.0134016
647.124	0.0133676
647.203	0.0134856
647.281	0.0135756
647.359	0.0134610
647.437	0.0134868
647.515	0.0133951
647.593	0.0134222
647.671	0.0133994
647.749	0.0134703
647.828	0.0133701
647.906	0.0133806
647.984	0.0133922
648.062	0.0135758
648.140	0.0133516
648.218	0.0133688
648.296	0.0133231
648.374	0.0134705
648.453	0.0135030
648.531	0.0133791
648.609	0.0136134
648.687	0.0135571
648.765	0.0133359
648.843	0.0134177
648.921	0.0133927
648.999	0.0133984
649.078	0.0134231
649.156	0.0134370
649.234	0.0135313
649.312	0.0134858
649.390	0.0135167
649.468	0.0134017
649.546	0.0133945
649.624	0.0135189
649.703	0.0134740
649.781	0.0133743
649.859	0.0134825
649.937	0.0133531
650.015	0.0134427
650.093	0.0135751
650.171	0.0134936
650.249	0.0134404
650.328	0.0133526
650.406	0.0134291
650.484	0.0134753
650.562	0.0134126
650.640	0.0134575
650.718	0.0134705
650.796	0.0134220
650.874	0.0135998
650.953	0.0134647
651.031	0.0134862
651.109	0.0134149
651.187	0.0133134
651.265	0.0135427
651.343	0.0135028
651.421	0.0134544
651.499	0.0134810
651.578	0.0133662
651.656	0.0134433
651.734	0.0135069
651.812	0.0134181
651.890	0.0135744
651.968	0.0134372
652.046	0.0134863
652.124	0.0135190
652.203	0.0136227
652.281	0.0134679
652.359	0.0133373
652.437	0.0134155
652.515	0.0134526
652.593	0.0134865
652.671	0.0136082
652.749	0.0134717
652.828	0.0134322
652.906	0.0134262
652.984	0.0134460
653.062	0.0134702
653.140	0.0134120
653.218	0.0135719
653.296	0.0134933
653.374	0.0134393
653.453	0.0135509
653.531	0.0135650
653.609	0.0135895
653.687	0.0136303
653.765	0.0133887
653.843	0.0133367
653.921	0.0134296
653.999	0.0134025
654.078	0.0135934
654.156	0.0135538
654.234	0.0134878
654.312	0.0133663
654.390	0.0134605
654.468	0.0134293
654.546	0.0135063
654.624	0.0134908
654.703	0.0133809
654.781	0.0134652
654.859	0.0134152
654.937	0.0134998
655.015	0.0134810
655.093	0.0134812
655.171	0.0134977
655.249	0.0134103
655.328	0.0134385
655.406	0.0134924
655.484	0.0135141
655.562	0.0134062
655.640	0.0134749
655.718	0.0135287
655.796	0.0135476
655.874	0.0135793
655.953	0.0135008
656.031	0.0134915
656.109	0.0134691
656.187	0.0135364
656.265	0.0134383
656.343	0.0134102
656.421	0.0133736
656.499	0.0134237
656.578	0.0135310
656.656	0.0135422
656.734	0.0134236
656.812	0.0134011
656.890	0.0135297
656.968	0.0136063
657.046	0.0134576
657.124	0.0133887
657.203	0.0135179
657.281	0.0134744
657.359	0.0135590
657.437	0.0134275
657.515	0.0134945
657.593	0.0133788
657.671	0.0135093
657.749	0.0134947
657.828	0.0133865
657.906	0.0133427
657.984	0.0132753
658.062	0.0136049
658.140	0.0135458
658.218	0.0133927
658.296	0.0133568
658.374	0.0134760
658.453	0.0134078
658.531	0.0134906
658.609	0.0134789
658.687	0.0135344
658.765	0.0134521
658.843	0.0134888
658.921	0.0135333
658.999	0.0133823
659.078	0.0133533
659.156	0.0134418
659.234	0.0135126
659.312	0.0134167
659.390	0.0134303
659.468	0.0135424
659.546	0.0134068
659.624	0.0133984
659.703	0.0135492
659.781	0.0134991
659.859	0.0133715
659.937	0.0134444
660.015	0.0134791
660.093	0.0134674
660.171	0.0134311
660.249	0.0134534
660.328	0.0133442
660.406	0.0134069
660.484	0.0135168
660.562	0.0134069
660.640	0.0133910
660.718	0.0134269
660.796	0.0135345
660.874	0.0134920
660.953	0.0132790
661.031	0.0132985
661.109	0.0135316
661.187	0.0136071
661.265	0.0134547
661.343	0.0134801
661.421	0.0134140
661.499	0.0135439
661.578	0.0133450
661.656	0.0132661
661.734	0.0134505
661.812	0.0134743
661.890	0.0135193
661.968	0.0134653
662.046	0.0134467
662.124	0.0133871
662.203	0.0133915
662.281	0.0134917
662.359	0.0134947
662.437	0.0133698
662.515	0.0134199
662.593	0.0134756
662.671	0.0135651
662.749	0.0134692
662.828	0.0135786
662.906	0.0134676
662.984	0.0134138
663.062	0.0135496
663.140	0.0133899
663.218	0.0133662
663.296	0.0133212
663.374	0.0133958
663.453	0.0133759
663.531	0.0134649
663.609	0.0134778
663.687	0.0136182
663.765	0.0133804
663.843	0.0133416
663.921	0.0134196
663.999	0.0135433
664.078	0.0133839
664.156	0.0135175
664.234	0.0133878
664.312	0.0133900
664.390	0.0134007
664.468	0.0133146
664.546	0.0135260
664.624	0.0134438
664.703	0.0135134
664.781	0.0134515
664.859	0.0135227
664.937	0.0134925
665.015	0.0134559
665.093	0.0134041
665.171	0.0134864
665.249	0.0134166
665.328	0.0133051
665.406	0.0134495
665.484	0.0135332
665.562	0.0134199
665.640	0.0135857
665.718	0.0135310
665.796	0.0135058
665.874	0.0133755
665.953	0.0134557
666.031	0.0133860
666.109	0.0135640
666.187	0.0135239
666.265	0.0134430
666.343	0.0134665
666.421	0.0133582
666.499	0.0135515
666.578	0.0134139
666.656	0.0135316
666.734	0.0134248
666.812	0.0134830
666.890	0.0134407
666.968	0.0134026
667.046	0.0133495
667.124	0.0133636
667.203	0.0136433
667.281	0.0134854
667.359	0.0134370
667.437	0.0135297
667.515	0.0134843
667.593	0.0135286
667.671	0.0134641
667.749	0.0133745
667.828	0.0135528
667.906	0.0134722
667.984	0.0135576
668.062	0.0134238
668.140	0.0133436
668.218	0.0134691
668.296	0.0134113
668.374	0.0133818
668.453	0.0134245
668.531	0.0134351
668.609	0.0133807
668.687	0.0133583
668.765	0.0134054
668.843	0.0133928
668.921	0.0132275
668.999	0.0132616
669.078	0.0134692
669.156	0.0134682
669.234	0.0135598
669.312	0.0134040
669.390	0.0135738
669.468	0.0135777
669.546	0.0134439
669.624	0.0134040
669.703	0.0135292
669.781	0.0135062
669.859	0.0134337
669.937	0.0133622
670.015	0.0133069
670.093	0.0133318
670.171	0.0133553
670.249	0.0133356
670.328	0.0133590
670.406	0.0133185
670.484	0.0134038
670.562	0.0133109
670.640	0.0134789
670.718	0.0133900
670.796	0.0133588
670.874	0.0135811
670.953	0.0134786
671.031	0.0135327
671.109	0.0134778
671.187	0.0134544
671.265	0.0136095
671.343	0.0134875
671.421	0.0134710
671.499	0.0134998
671.578	0.0135080
671.656	0.0134335
671.734	0.0133773
671.812	0.0133996
671.890	0.0134419
671.968	0.0134061
672.046	0.0135102
672.124	0.0134882
672.203	0.0134388
672.281	0.0133837
672.359	0.0134600
672.437	0.0132519
672.515	0.0133893
672.593	0.0134072
672.671	0.0133233
672.749	0.0133885
672.828	0.0133583
672.906	0.0134966
672.984	0.0133293
673.062	0.0133256
673.140	0.0135132
673.218	0.0133270
673.296	0.0133721
673.374	0.0132033
673.453	0.0134031
673.531	0.0135751
673.609	0.0134064
673.687	0.0133389
673.765	0.0135152
673.843	0.0134855
673.921	0.0135262
673.999	0.0135625
674.078	0.0133727
674.156	0.0134906
674.234	0.0134748
674.312	0.0133363
674.390	0.0134666
674.468	0.0133265
674.546	0.0131890
674.624	0.0131353
674.703	0.0133779
674.781	0.0133472
674.859	0.0132440
674.937	0.0134142
675.015	0.0133815
675.093	0.0135694
675.171	0.0134878
675.249	0.0135619
675.328	0.0135978
675.406	0.0135329
675.484	0.0136057
675.562	0.0136797
675.640	0.0136185
675.718	0.0135637
675.796	0.0135576
675.874	0.0134734
675.953	0.0134509
676.031	0.0132481
676.109	0.0133048
676.187	0.0132773
676.265	0.0129950
676.343	0.0129441
676.421	0.0129491
676.499	0.0129663
676.578	0.0129775
676.656	0.0131133
676.734	0.0131156
676.812	0.0132823
676.890	0.0134007
676.968	0.0134966
677.046	0.0136879
677.124	0.0136893
677.203	0.0138416
677.281	0.0140165
677.359	0.0139230
677.437	0.0140571
677.515	0.0140619
677.593	0.0137637
677.671	0.0138803
677.749	0.0137624
677.828	0.0137009
677.906	0.0135160
677.984	0.0134743
678.062	0.0133736
678.140	0.0133064
678.218	0.0132590
678.296	0.0131815
678.374	0.0132029
678.453	0.0129736
678.531	0.0129692
678.609	0.0130627
678.687	0.0130516
678.765	0.0131245
678.843	0.0129160
678.921	0.0131774
678.999	0.0130611
679.078	0.0132716
679.156	0.0132504
679.234	0.0133229
679.312	0.0134249
679.390	0.0132615
679.468	0.0132648
679.546	0.0135397
679.624	0.0135056
679.703	0.0137759
679.781	0.0136147
679.859	0.0134966
679.937	0.0135574
680.015	0.0137185
680.093	0.0137244
680.171	0.0136321
680.249	0.0137085
680.328	0.0135610
680.406	0.0134547
680.484	0.0135722
680.562	0.0134081
680.640	0.0134460
680.718	0.0135384
680.796	0.0134322
680.874	0.0135104
680.953	0.0134520
681.031	0.0135043
681.109	0.0135224
681.187	0.0135938
681.265	0.0135497
681.343	0.0135857
681.421	0.0136452
681.499	0.0136388
681.578	0.0137812
681.656	0.0136411
681.734	0.0138055
681.812	0.0137476
681.890	0.0140479
681.968	0.0138957
682.046	0.0137402
682.124	0.0139002
682.203	0.0138632
682.281	0.0137254
682.359	0.0136687
682.437	0.0134055
682.515	0.0132643
682.593	0.0131747
682.671	0.0131413
682.749	0.0130077
682.828	0.0129131
682.906	0.0127657
682.984	0.0126473
683.062	0.0126912
683.140	0.0127734
683.218	0.0127629
683.296	0.0125657
683.374	0.0127531
683.453	0.0128803
683.531	0.0128209
683.609	0.0130242
683.687	0.0129755
683.765	0.0130885
683.843	0.0132723
683.921	0.0132343
683.999	0.0134100
684.078	0.0134313
684.156	0.0135835
684.234	0.0135744
684.312	0.0139555
684.390	0.0137920
684.468	0.0139703
684.546	0.0138918
684.624	0.0139191
684.703	0.0140840
684.781	0.0140205
684.859	0.0140407
684.937	0.0138573
685.015	0.0139957
685.093	0.0139956
685.171	0.0139452
685.249	0.0138476
685.328	0.0138946
685.406	0.0138832
685.484	0.0138387
685.562	0.0139153
685.640	0.0138455
685.718	0.0139614
685.796	0.0139529
685.874	0.0139713
685.953	0.0139742
686.031	0.0140228
686.109	0.0138949
686.187	0.0137617
686.265	0.0136813
686.343	0.0136777
686.421	0.0134682
686.499	0.0134237
686.578	0.0134053
686.656	0.0131856
686.734	0.0129503
686.812	0.0128249
686.890	0.0126766
686.968	0.0125832
687.046	0.0122685
687.124	0.0121352
687.203	0.0119305
687.281	0.0119376
687.359	0.0117146
687.437	0.0116303
687.515	0.0116917
687.593	0.0117205
687.671	0.0117799
687.749	0.0121014
687.828	0.0123248
687.906	0.0124654
687.984	0.0127557
688.062	0.0131157
688.140	0.0133675
688.218	0.0138162
688.296	0.0140803
688.374	0.0143905
688.453	0.0145982
688.531	0.0147973
688.609	0.0149456
688.687	0.0151897
688.765	0.0151539
688.843	0.0152151
688.921	0.0152663
688.999	0.0153366
689.078	0.0151988
689.156	0.0149631
689.234	0.0148605
689.312	0.0147323
689.390	0.0144862
689.468	0.0142900
689.546	0.0140553
689.624	0.0138817
689.703	0.0137625
689.781	0.0136605
689.859	0.0134388
689.937	0.0134117
690.015	0.0132044
690.093	0.0133117
690.171	0.0133231
690.249	0.0132350
690.328	0.0132426
690.406	0.0132351
690.484	0.0132353
690.562	0.0132990
690.640	0.0134624
690.718	0.0132234
690.796	0.0132085
690.874	0.0131329
690.953	0.0130393
691.031	0.0128951
691.109	0.0126457
691.187	0.0125842
691.265	0.0124213
691.343	0.0122069
691.421	0.0121255
691.499	0.0118548
691.578	0.0116723
691.656	0.0116781
691.734	0.0115308
691.812	0.0114973
691.890	0.0114026
691.968	0.0115839
692.046	0.0117166
692.124	0.0118478
692.203	0.0121753
692.281	0.0123927
692.359	0.0127937
692.437	0.0131339
692.515	0.0134341
692.593	0.0139706
692.671	0.0142084
692.749	0.0146294
692.828	0.0149688
692.906	0.0153235
692.984	0.0156651
693.062	0.0157261
693.140	0.0159991
693.218	0.0161926
693.296	0.0162285
693.374	0.0162927
693.453	0.0161530
693.531	0.0161116
693.609	0.0161703
693.687	0.0158383
693.765	0.0157108
693.843	0.0153433
693.921	0.0150891
693.999	0.0147751
694.078	0.0143509
694.156	0.0140619
694.234	0.0136288
694.312	0.0132519
694.390	0.0130195
694.468	0.0125881
694.546	0.0123193
694.624	0.0122025
694.703	0.0119874
694.781	0.0118990
694.859	0.0117995
694.937	0.0117772
695.015	0.0119016
695.093	0.0118749
695.171	0.0119609
695.249	0.0120747
695.328	0.0121091
695.406	0.0121931
695.484	0.0123235
695.562	0.0123830
695.640	0.0122888
695.718	0.0124095
695.796	0.0123047
695.874	0.0123672
695.953	0.0121698
696.031	0.0120682
696.109	0.0119018
696.187	0.0118262
696.265	0.0116273
696.343	0.0114137
696.421	0.0114019
696.499	0.0114651
696.578	0.0116787
696.656	0.0119318
696.734	0.0122540
696.812	0.0126028
696.890	0.0131808
696.968	0.0135542
697.046	0.0141988
697.124	0.0147844
697.203	0.0152004
697.281	0.0156211
697.359	0.0160623
697.437	0.0162609
697.515	0.0166697
697.593	0.0168881
697.671	0.0169996
697.749	0.0169529
697.828	0.0169691
697.906	0.0168111
697.984	0.0164839
698.062	0.0162827
698.140	0.0158977
698.218	0.0154173
698.296	0.0151110
698.374	0.0144884
698.453	0.0140331
698.531	0.0136117
698.609	0.0130927
698.687	0.0127777
698.765	0.0124621
698.843	0.0121529
698.921	0.0118905
698.999	0.0119325
699.078	0.0117757
699.156	0.0117172
699.234	0.0115086
699.312	0.0117560
699.390	0.0117639
699.468	0.0119166
699.546	0.0120667
699.624	0.0122317
699.703	0.0123009
699.781	0.0121424
699.859	0.0123357
699.937	0.0125525
700.015	0.0124390
700.093	0.0126208
700.171	0.0125659
700.249	0.0124277
700.328	0.0124421
700.406	0.0123212
700.484	0.0121490
700.562	0.0120445
700.640	0.0118833
700.718	0.0116612
700.796	0.0117229
700.874	0.0115280
700.953	0.0116273
701.031	0.0115871
701.109	0.0117445
701.187	0.0119242
701.265	0.0122954
701.343	0.0125847
701.421	0.0131215
701.499	0.0136145
701.578	0.0140776
701.656	0.0147507
701.734	0.0152389
701.812	0.0156742
701.890	0.0161780
701.968	0.0164418
702.046	0.0167326
702.124	0.0169771
702.203	0.0170188
702.281	0.0170995
702.359	0.0169563
702.437	0.0166985
702.515	0.0164520
702.593	0.0158685
702.671	0.0155981
702.749	0.0150931
702.828	0.0147059
702.906	0.0140702
702.984	0.0134945
703.062	0.0131104
703.140	0.0127142
703.218	0.0123385
703.296	0.0119418
703.374	0.0118327
703.453	0.0114718
703.531	0.0115620
703.609	0.0115971
703.687	0.0117348
703.765	0.0119882
703.843	0.0122354
703.921	0.0122211
703.999	0.0125604
704.078	0.0126341
704.156	0.0127388
704.234	0.0127398
704.312	0.0128880
704.390	0.0128816
704.468	0.0129826
704.546	0.0127055
704.624	0.0126025
704.703	0.0125230
704.781	0.0123081
704.859	0.0122933
704.937	0.0121107
705.015	0.0119900
705.093	0.0117500
705.171	0.0116257
705.249	0.0115545
705.328	0.0116204
705.406	0.0117001
705.484	0.0117068
705.562	0.0117976
705.640	0.0119366
705.718	0.0121086
705.796	0.0125207
705.874	0.0128575
705.953	0.0133456
706.031	0.0140023
706.109	0.0144891
706.187	0.0149808
706.265	0.0154391
706.343	0.0160077
706.421	0.0164160
706.499	0.0166601
706.578	0.0169276
706.656	0.0170845
706.734	0.0173045
706.812	0.0170261
706.890	0.0169958
706.968	0.0167323
707.046	0.0163146
707.124	0.0159905
707.203	0.0154786
707.281	0.0148357
707.359	0.0143832
707.437	0.0138774
707.515	0.0132440
707.593	0.0126608
707.671	0.0125283
707.749	0.0118843
707.828	0.0115340
707.906	0.0114153
707.984	0.0113097
708.062	0.0110863
708.140	0.0112764
708.218	0.0114742
708.296	0.0116769
708.374	0.0119925
708.453	0.0121642
708.531	0.0125875
708.609	0.0128204
708.687	0.0129315
708.765	0.0131720
708.843	0.0134399
708.921	0.0134064
708.999	0.0133784
709.078	0.0133788
709.156	0.0132556
709.234	0.0130067
709.312	0.0127043
709.390	0.0125750
709.468	0.0124255
709.546	0.0121390
709.624	0.0121018
709.703	0.0120615
709.781	0.0119470
709.859	0.0120490
709.937	0.0120113
710.015	0.0121473
710.093	0.0123089
710.171	0.0125442
710.249	0.0127858
710.328	0.0130375
710.406	0.0134421
710.484	0.0139137
710.562	0.0144142
710.640	0.0146064
710.718	0.0151302
710.796	0.0155039
710.874	0.0156967
710.953	0.0159915
711.031	0.0162240
711.109	0.0161865
711.187	0.0163226
711.265	0.0164236
711.343	0.0161967
711.421	0.0159383
711.499	0.0155347
711.578	0.0153304
711.656	0.0149437
711.734	0.0146788
711.812	0.0141150
711.890	0.0137924
711.968	0.0134731
712.046	0.0130795
712.124	0.0127299
712.203	0.0124351
712.281	0.0122273
712.359	0.0119903
712.437	0.0119550
712.515	0.0118086
712.593	0.0118868
712.671	0.0118803
712.749	0.0120260
712.828	0.0121291
712.906	0.0124197
712.984	0.0124858
713.062	0.0128336
713.140	0.0130241
713.218	0.0130159
713.296	0.0133966
713.374	0.0134187
713.453	0.0133121
713.531	0.0133925
713.609	0.0132812
713.687	0.0131865
713.765	0.0132330
713.843	0.0130222
713.921	0.0128696
713.999	0.0126707
714.078	0.0124966
714.156	0.0124940
714.234	0.0124046
714.312	0.0123288
714.390	0.0121946
714.468	0.0122267
714.546	0.0122578
714.624	0.0123846
714.703	0.0127479
714.781	0.0128986
714.859	0.0130941
714.937	0.0135801
715.015	0.0138400
715.093	0.0141013
715.171	0.0145343
715.249	0.0149591
715.328	0.0152599
715.406	0.0154288
715.484	0.0156831
715.562	0.0158306
715.640	0.0159056
715.718	0.0159464
715.796	0.0158233
715.874	0.0157566
715.953	0.0156725
716.031	0.0153979
716.109	0.0150756
716.187	0.0146416
716.265	0.0141145
716.343	0.0139049
716.421	0.0135654
716.499	0.0132572
716.578	0.0128140
716.656	0.0125539
716.734	0.0122553
716.812	0.0119920
716.890	0.0119637
716.968	0.0118291
717.046	0.0116115
717.124	0.0117904
717.203	0.0118546
717.281	0.0119327
717.359	0.0121620
717.437	0.0124920
717.515	0.0125923
717.593	0.0129055
717.671	0.0130078
717.749	0.0132147
717.828	0.0135126
717.906	0.0136588
717.984	0.0137185
718.062	0.0138584
718.140	0.0137824
718.218	0.0138303
718.296	0.0138749
718.374	0.0136510
718.453	0.0136390
718.531	0.0135739
718.609	0.0134563
718.687	0.0131818
718.765	0.0130746
718.843	0.0128377
718.921	0.0126621
718.999	0.0125918
719.078	0.0126122
719.156	0.0124759
719.234	0.0126852
719.312	0.0126718
719.390	0.0127113
719.468	0.0130879
719.546	0.0132736
719.624	0.0135252
719.703	0.0137347
719.781	0.0140599
719.859	0.0143259
719.937	0.0145392
720.015	0.0147170
720.093	0.0149097
720.171	0.0149757
720.249	0.0150529
720.328	0.0151546
720.406	0.0148982
720.484	0.0147055
720.562	0.0145758
720.640	0.0142143
720.718	0.0139304
720.796	0.0136194
720.874	0.0133459
720.953	0.0130833
721.031	0.0127551
721.109	0.0123994
721.187	0.0123691
721.265	0.0123380
721.343	0.0122675
721.421	0.0120393
721.499	0.0121094
721.578	0.0121600
721.656	0.0123559
721.734	0.0126170
721.812	0.0125349
721.890	0.0128091
721.968	0.0129132
722.046	0.0132732
722.124	0.0134348
722.203	0.0136509
722.281	0.0136938
722.359	0.0137373
722.437	0.0140176
722.515	0.0140027
722.593	0.0139472
722.671	0.0139692
722.749	0.0140454
722.828	0.0138641
722.906	0.0138879
722.984	0.0139669
723.062	0.0137489
723.140	0.0135764
723.218	0.0136020
723.296	0.0132069
723.374	0.0131814
723.453	0.0132299
723.531	0.0130968
723.609	0.0131138
723.687	0.0129891
723.765	0.0130161
723.843	0.0130190
723.921	0.0129356
723.999	0.0131502
724.078	0.0131890
724.156	0.0132423
724.234	0.0134239
724.312	0.0135655
724.390	0.0137207
724.468	0.0137452
724.546	0.0138529
724.624	0.0141132
724.703	0.0140051
724.781	0.0140308
724.859	0.0140179
724.937	0.0139280
725.015	0.0138274
725.093	0.0138118
725.171	0.0136227
725.249	0.0135713
725.328	0.0133734
725.406	0.0132244
725.484	0.0131439
725.562	0.0128962
725.640	0.0127256
725.718	0.0127849
725.796	0.0127197
725.874	0.0127660
725.953	0.0128075
726.031	0.0126479
726.109	0.0127122
726.187	0.0127564
726.265	0.0128374
726.343	0.0130376
726.421	0.0132997
726.499	0.0134081
726.578	0.0136182
726.656	0.0136459
726.734	0.0136982
726.812	0.0138521
726.890	0.0140114
726.968	0.0140186
727.046	0.0139815
727.124	0.0139722
727.203	0.0141042
727.281	0.0140353
727.359	0.0138995
727.437	0.0139725
727.515	0.0137972
727.593	0.0135868
727.671	0.0136367
727.749	0.0134802
727.828	0.0132864
727.906	0.0132156
727.984	0.0131546
728.062	0.0131462
728.140	0.0130030
728.218	0.0129691
728.296	0.0130239
728.374	0.0131200
728.453	0.0130503
728.531	0.0129691
728.609	0.0132080
728.687	0.0132323
728.765	0.0133765
728.843	0.0135913
728.921	0.0135979
728.999	0.0136745
729.078	0.0137218
729.156	0.0138872
729.234	0.0138674
729.312	0.0138065
729.390	0.0138358
729.468	0.0137521
729.546	0.0137743
729.624	0.0137924
729.703	0.0136588
729.781	0.0135875
729.859	0.0135554
729.937	0.0134381
730.015	0.0133955
730.093	0.0132762
730.171	0.0132624
730.249	0.0130719
730.328	0.0130736
730.406	0.0131979
730.484	0.0131689
730.562	0.0130006
730.640	0.0130236
730.718	0.0131107
730.796	0.0131490
730.874	0.0131631
730.953	0.0131627
731.031	0.0132117
731.109	0.0133367
731.187	0.0134586
731.265	0.0134381
731.343	0.0133510
731.421	0.0133662
731.499	0.0135730
731.578	0.0134047
731.656	0.0135252
731.734	0.0135291
731.812	0.0133778
731.890	0.0133669
731.968	0.0134367
732.046	0.0134852
732.124	0.0134279
732.203	0.0136307
732.281	0.0135070
732.359	0.0134093
732.437	0.0131409
732.515	0.0132227
732.593	0.0132698
732.671	0.0133056
732.749	0.0130618
732.828	0.0130613
732.906	0.0130239
732.984	0.0131374
733.062	0.0131332
733.140	0.0132200
733.218	0.0133324
733.296	0.0134802
733.374	0.0134826
733.453	0.0135892
733.531	0.0136133
733.609	0.0135989
733.687	0.0137215
733.765	0.0138919
733.843	0.0138692
733.921	0.0138377
733.999	0.0137910
734.078	0.0137602
734.156	0.0139511
734.234	0.0137594
734.312	0.0137364
734.390	0.0138399
734.468	0.0136958
734.546	0.0137894
734.624	0.0137099
734.703	0.0136857
734.781	0.0135130
734.859	0.0136024
734.937	0.0133888
735.015	0.0135709
735.093	0.0133266
735.171	0.0133414
735.249	0.0133913
735.328	0.0134222
735.406	0.0133540
735.484	0.0133905
735.562	0.0133620
735.640	0.0132324
735.718	0.0133178
735.796	0.0131440
735.874	0.0131104
735.953	0.0132486
736.031	0.0133775
736.109	0.0132206
736.187	0.0131206
736.265	0.0132510
736.343	0.0132649
736.421	0.0132402
736.499	0.0132915
736.578	0.0134535
736.656	0.0133423
736.734	0.0133825
736.812	0.0133305
736.890	0.0134261
736.968	0.0133715
737.046	0.0133823
737.124	0.0133120
737.203	0.0133087
737.281	0.0132941
737.359	0.0134052
737.437	0.0135143
737.515	0.0133037
737.593	0.0134483
737.671	0.0134626
737.749	0.0133953
737.828	0.0133617
737.906	0.0134938
737.984	0.0135625
738.062	0.0136446
738.140	0.0135579
738.218	0.0137552
738.296	0.0138419
738.374	0.0137827
738.453	0.0136813
738.531	0.0137794
738.609	0.0138031
738.687	0.0138442
738.765	0.0138346
738.843	0.0140784
738.921	0.0138705
738.999	0.0137177
739.078	0.0138558
739.156	0.0139128
739.234	0.0139286
739.312	0.0138109
739.390	0.0136316
739.468	0.0137341
739.546	0.0136806
739.624	0.0136938
739.703	0.0135258
739.781	0.0135032
739.859	0.0134263
739.937	0.0134135
740.015	0.0133137
740.093	0.0131284
740.171	0.0131409
740.249	0.0130794
740.328	0.0132362
740.406	0.0131432
740.484	0.0131680
740.562	0.0131030
740.640	0.0130263
740.718	0.0131396
740.796	0.0132539
740.874	0.0133395
740.953	0.0134087
741.031	0.0133924
741.109	0.0134704
741.187	0.0135808
741.265	0.0134470
741.343	0.0135275
741.421	0.0136692
741.499	0.0134849
741.578	0.0133805
741.656	0.0134364
741.734	0.0132941
741.812	0.0132727
741.890	0.0132512
741.968	0.0132757
742.046	0.0132702
742.124	0.0132848
742.203	0.0132003
742.281	0.0133269
742.359	0.0133165
742.437	0.0132464
742.515	0.0134923
742.593	0.0133334
742.671	0.0134229
742.749	0.0136231
742.828	0.0136209
742.906	0.0134048
742.984	0.0136324
743.062	0.0135486
743.140	0.0136694
743.218	0.0138255
743.296	0.0137376
743.374	0.0137054
743.453	0.0137103
743.531	0.0137334
743.609	0.0136965
743.687	0.0136888
743.765	0.0135268
743.843	0.0137311
743.921	0.0136282
743.999	0.0136237
744.078	0.0134714
744.156	0.0135069
744.234	0.0133888
744.312	0.0133349
744.390	0.0132179
744.468	0.0131549
744.546	0.0131355
744.624	0.0131853
744.703	0.0131522
744.781	0.0130614
744.859	0.0130804
744.937	0.0130858
745.015	0.0130107
745.093	0.0132126
745.171	0.0131963
745.249	0.0132404
745.328	0.0132375
745.406	0.0134256
745.484	0.0133450
745.562	0.0134991
745.640	0.0135950
745.718	0.0136037
745.796	0.0136240
745.874	0.0135518
745.953	0.0135557
746.031	0.0137078
746.109	0.0135452
746.187	0.0136760
746.265	0.0135724
746.343	0.0134270
746.421	0.0135000
746.499	0.0132977
746.578	0.0133658
746.656	0.0133610
746.734	0.0133543
746.812	0.0132169
746.890	0.0134760
746.968	0.0132151
747.046	0.0132893
747.124	0.0134594
747.203	0.0134946
747.281	0.0135357
747.359	0.0134448
747.437	0.0136208
747.515	0.0134908
747.593	0.0134642
747.671	0.0133040
747.749	0.0135242
747.828	0.0135078
747.906	0.0135463
747.984	0.0134796
748.062	0.0134428
748.140	0.0134331
748.218	0.0134389
748.296	0.0133298
748.374	0.0133954
748.453	0.0134431
748.531	0.0135393
748.609	0.0133669
748.687	0.0134364
748.765	0.0134344
748.843	0.0133961
748.921	0.0132786
748.999	0.0132596
749.078	0.0133656
749.156	0.0132576
749.234	0.0131986
749.312	0.0134176
749.390	0.0132144
749.468	0.0130959
749.546	0.0131282
749.624	0.0132497
749.703	0.0134103
749.781	0.0133124
749.859	0.0132660
749.937	0.0135329
750.015	0.0133487
750.093	0.0135133
750.171	0.0134901
750.249	0.0136199
750.328	0.0136315
750.406	0.0137294
750.484	0.0135920
750.562	0.0137451
750.640	0.0136707
750.718	0.0136328
750.796	0.0137793
750.874	0.0136504
750.953	0.0137428
751.031	0.0136598
751.109	0.0135646
751.187	0.0135096
751.265	0.0135276
751.343	0.0135904
751.421	0.0135864
751.499	0.0134194
751.578	0.0133921
751.656	0.0133295
751.734	0.0134286
751.812	0.0135601
751.890	0.0133877
751.968	0.0132117
752.046	0.0132768
752.124	0.0133544
752.203	0.0133416
752.281	0.0133582
752.359	0.0132384
752.437	0.0132691
752.515	0.0131858
752.593	0.0133430
752.671	0.0134057
752.749	0.0133729
752.828	0.0133556
752.906	0.0132717
752.984	0.0132512
753.062	0.0134032
753.140	0.0134158
753.218	0.0133108
753.296	0.0135131
753.374	0.0133987
753.453	0.0134082
753.531	0.0135204
753.609	0.0134650
753.687	0.0135464
753.765	0.0133344
753.843	0.0133520
753.921	0.0135477
753.999	0.0132014
754.078	0.0132579
754.156	0.0133409
754.234	0.0133269
754.312	0.0134358
754.390	0.0133517
754.468	0.0133537
754.546	0.0134478
754.624	0.0133202
754.703	0.0134268
754.781	0.0135571
754.859	0.0134153
754.937	0.0134546
755.015	0.0135004
755.093	0.0136648
755.171	0.0135130
755.249	0.0136695
755.328	0.0136034
755.406	0.0134814
755.484	0.0134801
755.562	0.0134776
755.640	0.0134104
755.718	0.0132130
755.796	0.0133091
755.874	0.0133932
755.953	0.0132983
756.031	0.0133598
756.109	0.0132671
756.187	0.0132903
756.265	0.0132996
756.343	0.0134247
756.421	0.0133622
756.499	0.0134642
756.578	0.0134489
756.656	0.0135217
756.734	0.0134526
756.812	0.0132752
756.890	0.0134649
756.968	0.0134991
757.046	0.0134380
757.124	0.0133594
757.203	0.0134103
757.281	0.0134645
757.359	0.0135149
757.437	0.0134049
757.515	0.0134524
757.593	0.0134201
757.671	0.0135088
757.749	0.0135810
757.828	0.0136382
757.906	0.0135551
757.984	0.0134898
758.062	0.0135746
758.140	0.0134517
758.218	0.0134697
758.296	0.0134060
758.374	0.0135018
758.453	0.0134765
758.531	0.0133229
758.609	0.0133855
758.687	0.0134175
758.765	0.0132672
758.843	0.0133866
758.921	0.0133121
758.999	0.0134174
759.078	0.0136146
759.156	0.0133999
759.234	0.0135065
759.312	0.0136170
759.390	0.0136483
759.468	0.0136732
759.546	0.0138177
759.624	0.0136832
759.703	0.0137399
759.781	0.0137473
759.859	0.0136572
759.937	0.0135043
760.015	0.0134273
760.093	0.0134250
760.171	0.0132667
760.249	0.0133337
760.328	0.0133303
760.406	0.0131615
760.484	0.0132417
760.562	0.0132731
760.640	0.0132783
760.718	0.0133704
760.796	0.0132984
760.874	0.0132964
760.953	0.0133688
761.031	0.0131112
761.109	0.0132994
761.187	0.0134180
761.265	0.0132971
761.343	0.0134866
761.421	0.0134872
761.499	0.0133575
761.578	0.0134391
761.656	0.0133775
761.734	0.0134667
761.812	0.0136197
761.890	0.0135332
761.968	0.0135017
762.046	0.0135644
762.124	0.0136659
762.203	0.0137553
762.281	0.0136609
762.359	0.0137419
762.437	0.0136973
762.515	0.0135810
762.593	0.0135360
762.671	0.0134708
762.749	0.0134424
762.828	0.0135390
762.906	0.0132490
762.984	0.0133067
763.062	0.0131693
763.140	0.0133477
763.218	0.0132818
763.296	0.0132370
763.374	0.0133562
763.453	0.0134367
763.531	0.0133818
763.609	0.0135116
763.687	0.0134534
763.765	0.0135416
763.843	0.0136124
763.921	0.0136005
763.999	0.0135893
764.078	0.0134418
764.156	0.0134129
764.234	0.0134386
764.312	0.0134269
764.390	0.0134019
764.468	0.0132436
764.546	0.0133549
764.624	0.0133002
764.703	0.0131913
764.781	0.0133514
764.859	0.0132442
764.937	0.0133109
765.015	0.0133670
765.093	0.0133353
765.171	0.0133923
765.249	0.0134225
765.328	0.0132738
765.406	0.0133677
765.484	0.0133741
765.562	0.0132119
765.640	0.0132157
765.718	0.0132849
765.796	0.0132582
765.874	0.0131801
765.953	0.0132652
766.031	0.0134171
766.109	0.0133392
766.187	0.0133437
766.265	0.0134016
766.343	0.0136025
766.421	0.0135275
766.499	0.0134428
766.578	0.0134951
766.656	0.0134512
766.734	0.0134532
766.812	0.0133987
766.890	0.0134663
766.968	0.0132750
767.046	0.0131352
767.124	0.0131105
767.203	0.0132401
767.281	0.0132738
767.359	0.0131306
767.437	0.0130166
767.515	0.0131991
767.593	0.0131224
767.671	0.0131861
767.749	0.0133572
767.828	0.0133839
767.906	0.0135075
767.984	0.0134946
768.062	0.0136384
768.140	0.0137839
768.218	0.0137754
768.296	0.0137054
768.374	0.0136411
768.453	0.0135310
768.531	0.0136106
768.609	0.0135226
768.687	0.0134058
768.765	0.0134187
768.843	0.0133668
768.921	0.0133733
768.999	0.0133791
769.078	0.0133362
769.156	0.0135546
769.234	0.0133987
769.312	0.0132778
769.390	0.0133810
769.468	0.0134853
769.546	0.0134200
769.624	0.0133926
769.703	0.0135198
769.781	0.0133833
769.859	0.0131907
769.937	0.0132375
770.015	0.0133179
770.093	0.0132025
770.171	0.0132555
770.249	0.0133762
770.328	0.0134693
770.406	0.0134028
770.484	0.0134687
770.562	0.0136314
770.640	0.0137223
770.718	0.0136483
770.796	0.0135638
770.874	0.0136720
770.953	0.0135885
771.031	0.0136575
771.109	0.0137098
771.187	0.0135708
771.265	0.0133716
771.343	0.0133405
771.421	0.0133327
771.499	0.0131895
771.578	0.0131571
771.656	0.0132097
771.734	0.0131273
771.812	0.0132191
771.890	0.0133038
771.968	0.0133292
772.046	0.0133578
772.124	0.0134766
772.203	0.0135457
772.281	0.0136576
772.359	0.0135853
772.437	0.0137778
772.515	0.0137977
772.593	0.0137282
772.671	0.0137423
772.749	0.0136259
772.828	0.0135252
772.906	0.0133907
772.984	0.0134618
773.062	0.0135109
773.140	0.0133958
773.218	0.0134631
773.296	0.0133999
773.374	0.0134476
773.453	0.0135173
773.531	0.0135144
773.609	0.0136362
773.687	0.0136782
773.765	0.0136482
773.843	0.0136745
773.921	0.0135969
773.999	0.0137032
774.078	0.0135059
774.156	0.0135743
774.234	0.0135039
774.312	0.0133897
774.390	0.0132722
774.468	0.0131908
774.546	0.0132793
774.624	0.0132042
774.703	0.0132875
774.781	0.0130969
774.859	0.0134019
774.937	0.0134473
775.015	0.0135502
775.093	0.0135349
775.171	0.0136022
775.249	0.0135672
775.328	0.0136579
775.406	0.0135911
775.484	0.0135699
775.562	0.0135792
775.640	0.0133494
775.718	0.0133936
775.796	0.0133696
775.874	0.0132651
775.953	0.0131710
776.031	0.0131339
776.109	0.0131593
776.187	0.0131718
776.265	0.0133493
776.343	0.0134193
776.421	0.0134182
776.499	0.0136023
776.578	0.0136100
776.656	0.0137771
776.734	0.0138593
776.812	0.0138681
776.890	0.0139704
776.968	0.0138200
777.046	0.0138826
777.124	0.0138604
777.203	0.0137677
777.281	0.0137137
777.359	0.0135761
777.437	0.0133560
777.515	0.0133047
777.593	0.0134111
777.671	0.0133598
777.749	0.0133239
777.828	0.0132245
777.906	0.0131901
777.984	0.0132103
778.062	0.0131135
778.140	0.0133118
778.218	0.0133184
778.296	0.0133913
778.374	0.0134074
778.453	0.0132907
778.531	0.0133023
778.609	0.0134483
778.687	0.0133183
778.765	0.0131919
778.843	0.0133909
778.921	0.0133492
778.999	0.0133416
779.078	0.0132549
779.156	0.0132864
779.234	0.0133196
779.312	0.0133112
779.390	0.0134518
779.468	0.0135863
779.546	0.0135735
779.624	0.0135143
779.703	0.0137093
779.781	0.0138828
779.859	0.0137499
779.937	0.0136668
780.015	0.0137321
780.093	0.0135947
780.171	0.0136837
780.249	0.0135263
780.328	0.0134604
780.406	0.0134505
780.484	0.0133317
780.562	0.0132784
780.640	0.0133921
780.718	0.0132890
780.796	0.0133064
780.874	0.0134032
780.953	0.0135099
781.031	0.0136637
781.109	0.0137966
781.187	0.0137189
781.265	0.0137601
781.343	0.0136848
781.421	0.0138564
781.499	0.0137735
781.578	0.0137292
781.656	0.0135841
781.734	0.0136765
781.812	0.0136221
781.890	0.0134952
781.968	0.0135447
782.046	0.0134585
782.124	0.0131924
782.203	0.0131890
782.281	0.0134249
782.359	0.0132761
782.437	0.0134377
782.515	0.0133722
782.593	0.0133405
782.671	0.0134766
782.749	0.0135645
782.828	0.0134979
782.906	0.0134798
782.984	0.0136288
783.062	0.0136790
783.140	0.0136282
783.218	0.0135159
783.296	0.0134981
783.374	0.0134258
783.453	0.0133806
783.531	0.0133184
783.609	0.0133189
783.687	0.0134167
783.765	0.0132489
783.843	0.0132617
783.921	0.0131742
783.999	0.0132099
784.078	0.0132492
784.156	0.0132344
784.234	0.0134586
784.312	0.0134463
784.390	0.0134576
784.468	0.0135317
784.546	0.0134650
784.624	0.0135087
784.703	0.0135385
784.781	0.0135410
784.859	0.0134623
784.937	0.0135070
785.015	0.0135982
785.093	0.0135332
785.171	0.0135104
785.249	0.0135546
785.328	0.0135507
785.406	0.0136045
785.484	0.0135558
785.562	0.0136619
785.640	0.0137611
785.718	0.0136707
785.796	0.0136550
785.874	0.0136497
785.953	0.0137241
786.031	0.0137926
786.109	0.0136399
786.187	0.0135321
786.265	0.0133849
786.343	0.0133144
786.421	0.0134566
786.499	0.0133832
786.578	0.0132479
786.656	0.0131395
786.734	0.0132905
786.812	0.0131780
786.890	0.0130574
786.968	0.0132666
787.046	0.0132832
787.124	0.0133042
787.203	0.0133058
787.281	0.0134914
787.359	0.0133778
787.437	0.0134486
787.515	0.0134909
787.593	0.0134230
787.671	0.0133581
787.749	0.0135960
787.828	0.0134976
787.906	0.0133885
787.984	0.0135394
788.062	0.0135448
788.140	0.0134229
788.218	0.0134137
788.296	0.0134318
788.374	0.0133720
788.453	0.0136238
788.531	0.0135612
788.609	0.0135278
788.687	0.0134921
788.765	0.0137125
788.843	0.0136665
788.921	0.0137236
788.999	0.0136984
789.078	0.0137258
789.156	0.0136970
789.234	0.0137600
789.312	0.0136095
789.390	0.0136977
789.468	0.0135765
789.546	0.0137008
789.624	0.0136829
789.703	0.0137279
789.781	0.0136868
789.859	0.0136475
789.937	0.0137936
790.015	0.0136359
790.093	0.0136707
790.171	0.0136313
790.249	0.0136662
790.328	0.0135341
790.406	0.0137043
790.484	0.0137802
790.562	0.0137112
790.640	0.0135775
790.718	0.0136507
790.796	0.0137093
790.874	0.0134143
790.953	0.0132154
791.031	0.0134599
791.109	0.0133835
791.187	0.0133949
791.265	0.0133822
791.343	0.0133173
791.421	0.0133237
791.499	0.0132584
791.578	0.0132210
791.656	0.0132903
791.734	0.0133374
791.812	0.0133624
791.890	0.0133179
791.968	0.0134200
792.046	0.0135786
792.124	0.0134864
792.203	0.0134048
792.281	0.0133782
792.359	0.0134376
792.437	0.0134873
792.515	0.0133764
792.593	0.0134613
792.671	0.0133785
792.749	0.0134164
792.828	0.0132941
792.906	0.0135056
792.984	0.0134195
793.062	0.0133837
793.140	0.0134212
793.218	0.0135840
793.296	0.0135351
793.374	0.0136099
793.453	0.0136130
793.531	0.0136086
793.609	0.0137133
793.687	0.0136277
793.765	0.0135739
793.843	0.0136578
793.921	0.0137322
793.999	0.0137312
794.078	0.0136408
794.156	0.0137923
794.234	0.0138927
794.312	0.0136749
794.390	0.0137164
794.468	0.0137173
794.546	0.0137802
794.624	0.0136620
794.703	0.0136286
794.781	0.0137166
794.859	0.0135435
794.937	0.0136129
795.015	0.0135029
795.093	0.0134783
795.171	0.0133904
795.249	0.0132368
795.328	0.0133475
795.406	0.0133092
795.484	0.0132387
795.562	0.0131608
795.640	0.0131389
795.718	0.0132144
795.796	0.0132010
795.874	0.0131818
795.953	0.0134898
796.031	0.0133495
796.109	0.0133434
796.187	0.0133040
796.265	0.0133975
796.343	0.0133230
796.421	0.0133402
796.499	0.0134476
796.578	0.0135936
796.656	0.0134425
796.734	0.0133233
796.812	0.0135283
796.890	0.0134113
796.968	0.0133923
797.046	0.0133679
797.124	0.0132903
797.203	0.0132054
797.281	0.0133809
797.359	0.0133294
797.437	0.0132825
797.515	0.0132587
797.593	0.0132435
797.671	0.0133068
797.749	0.0132658
797.828	0.0133859
797.906	0.0135124
797.984	0.0134470
798.062	0.0134598
798.140	0.0136360
798.218	0.0136100
798.296	0.0137093
798.374	0.0138025
798.453	0.0136148
798.531	0.0137218
798.609	0.0139073
798.687	0.0139236
798.765	0.0137970
798.843	0.0138773
798.921	0.0138063
798.999	0.0138490
799.078	0.0138683
799.156	0.0137834
799.234	0.0138219
799.312	0.0136494
799.390	0.0135601
799.468	0.0136407
799.546	0.0136909
799.624	0.0135100
799.703	0.0134263
799.781	0.0133485
799.859	0.0134539
799.937	0.0134912
800.015	0.0134479
800.093	0.0133228
800.171	0.0133388
800.249	0.0132382
800.328	0.0133533
800.406	0.0133775
800.484	0.0133800
800.562	0.0134151
800.640	0.0133637
800.718	0.0134850
800.796	0.0133614
800.874	0.0133834
800.953	0.0134818
801.031	0.0135210
801.109	0.0132967
801.187	0.0134013
801.265	0.0132516
801.343	0.0134035
801.421	0.0132352
801.499	0.0132010
801.578	0.0131042
801.656	0.0133517
801.734	0.0132855
801.812	0.0132856
801.890	0.0132063
801.968	0.0130849
802.046	0.0133081
802.124	0.0132068
802.203	0.0134586
802.281	0.0134504
802.359	0.0133749
802.437	0.0133414
802.515	0.0134102
802.593	0.0135239
802.671	0.0136269
802.749	0.0136189
802.828	0.0137206
802.906	0.0136346
802.984	0.0135967
803.062	0.0137122
803.140	0.0137914
803.218	0.0138029
803.296	0.0138041
803.374	0.0137550
803.453	0.0138175
803.531	0.0138736
803.609	0.0137489
803.687	0.0138449
803.765	0.0137549
803.843	0.0137097
803.921	0.0135834
803.999	0.0137411
804.078	0.0135548
804.156	0.0135677
804.234	0.0135981
804.312	0.0134652
804.390	0.0134254
804.468	0.0133561
804.546	0.0133713
804.624	0.0132872
804.703	0.0132624
804.781	0.0133819
804.859	0.0133351
804.937	0.0132850
805.015	0.0134995
805.093	0.0135225
805.171	0.0133885
805.249	0.0133779
805.328	0.0133640
805.406	0.0134499
805.484	0.0134514
805.562	0.0133572
805.640	0.0133414
805.718	0.0133704
805.796	0.0133089
805.874	0.0134547
805.953	0.0133047
806.031	0.0131487
806.109	0.0132698
806.187	0.0132693
806.265	0.0132787
806.343	0.0133289
806.421	0.0133228
806.499	0.0131749
806.578	0.0132210
806.656	0.0133235
806.734	0.0132884
806.812	0.0134097
806.890	0.0133656
806.968	0.0132758
807.046	0.0134258
807.124	0.0135530
807.203	0.0135098
807.281	0.0134803
807.359	0.0136147
807.437	0.0135736
807.515	0.0136127
807.593	0.0136317
807.671	0.0139209
807.749	0.0138775
807.828	0.0137931
807.906	0.0138145
807.984	0.0139802
808.062	0.0138354
808.140	0.0137795
808.218	0.0138318
808.296	0.0139021
808.374	0.0137975
808.453	0.0138057
808.531	0.0137112
808.609	0.0134492
808.687	0.0135385
808.765	0.0135234
808.843	0.0135351
808.921	0.0133787
808.999	0.0134097
809.078	0.0133694
809.156	0.0133038
809.234	0.0133536
809.312	0.0132462
809.390	0.0133209
809.468	0.0130611
809.546	0.0133559
809.624	0.0132813
809.703	0.0132672
809.781	0.0133836
809.859	0.0133566
809.937	0.0134554
810.015	0.0134552
810.093	0.0133876
810.171	0.0133967
810.249	0.0133596
810.328	0.0135293
810.406	0.0135239
810.484	0.0134995
810.562	0.0134978
810.640	0.0133341
810.718	0.0133698
810.796	0.0134032
810.874	0.0134624
810.953	0.0133821
811.031	0.0133711
811.109	0.0134507
811.187	0.0134299
811.265	0.0133900
811.343	0.0134058
811.421	0.0135123
811.499	0.0135749
811.578	0.0135969
811.656	0.0135268
811.734	0.0137200
811.812	0.0137640
811.890	0.0137624
811.968	0.0137072
812.046	0.0138523
812.124	0.0138570
812.203	0.0138570
812.281	0.0138241
812.359	0.0137935
812.437	0.0138160
812.515	0.0138142
812.593	0.0135830
812.671	0.0136834
812.749	0.0136523
812.828	0.0136218
812.906	0.0136408
812.984	0.0135970
813.062	0.0135271
813.140	0.0135429
813.218	0.0134621
813.296	0.0133624
813.374	0.0134032
813.453	0.0134732
813.531	0.0133784
813.609	0.0133065
813.687	0.0131967
813.765	0.0133275
813.843	0.0133642
813.921	0.0133921
813.999	0.0132875
814.078	0.0133922
814.156	0.0133687
814.234	0.0134917
814.312	0.0136845
814.390	0.0135234
814.468	0.0134976
814.546	0.0135219
814.624	0.0135309
814.703	0.0135448
814.781	0.0136139
814.859	0.0136993
814.937	0.0137419
815.015	0.0136516
815.093	0.0134216
815.171	0.0134765
815.249	0.0135651
815.328	0.0134866
815.406	0.0134139
815.484	0.0134919
815.562	0.0135282
815.640	0.0134296
815.718	0.0134844
815.796	0.0134174
815.874	0.0135339
815.953	0.0134347
816.031	0.0134676
816.109	0.0135659
816.187	0.0136247
816.265	0.0135514
816.343	0.0136272
816.421	0.0136098
816.499	0.0136296
816.578	0.0136656
816.656	0.0136523
816.734	0.0135992
816.812	0.0136505
816.890	0.0137170
816.968	0.0135431
817.046	0.0136634
817.124	0.0137022
817.203	0.0136369
817.281	0.0134350
817.359	0.0135381
817.437	0.0135544
817.515	0.0134870
817.593	0.0134669
817.671	0.0133184
817.749	0.0132931
817.828	0.0134744
817.906	0.0133721
817.984	0.0132785
818.062	0.0134061
818.140	0.0134329
818.218	0.0133740
818.296	0.0134229
818.374	0.0133910
818.453	0.0132510
818.531	0.0133696
818.609	0.0135535
818.687	0.0135223
818.765	0.0134925
818.843	0.0133990
818.921	0.0135296
818.999	0.0135602
819.078	0.0134707
819.156	0.0135068
819.234	0.0135565
819.312	0.0133699
819.390	0.0135372
819.468	0.0134678
819.546	0.0135403
819.624	0.0134673
819.703	0.0134029
819.781	0.0134039
819.859	0.0134741
819.937	0.0136124
820.015	0.0135530
820.093	0.0135005
820.171	0.0133681
820.249	0.0133552
820.328	0.0135715
820.406	0.0135484
820.484	0.0134869
820.562	0.0134583
820.640	0.0133829
820.718	0.0134968
820.796	0.0134737
820.874	0.0134369
820.953	0.0135238
821.031	0.0134423
821.109	0.0133977
821.187	0.0134375
821.265	0.0133526
821.343	0.0133336
821.421	0.0133440
821.499	0.0134118
821.578	0.0133925
821.656	0.0133334
821.734	0.0133502
821.812	0.0133486
821.890	0.0133170
821.968	0.0133480
822.046	0.0132875
822.124	0.0132249
822.203	0.0133085
822.281	0.0134883
822.359	0.0132983
822.437	0.0133972
822.515	0.0134744
822.593	0.0133894
822.671	0.0133891
822.749	0.0136290
822.828	0.0135260
822.906	0.0136428
822.984	0.0135519
823.062	0.0135603
823.140	0.0135101
823.218	0.0136324
823.296	0.0136239
823.374	0.0134608
823.453	0.0135932
823.531	0.0135391
823.609	0.0135358
823.687	0.0135466
823.765	0.0135078
823.843	0.0135937
823.921	0.0133518
823.999	0.0135249
824.078	0.0135320
824.156	0.0133698
824.234	0.0133154
824.312	0.0133886
824.390	0.0134189
824.468	0.0133991
824.546	0.0133817
824.624	0.0133897
824.703	0.0134171
824.781	0.0134830
824.859	0.0133511
824.937	0.0133273
825.015	0.0133181
825.093	0.0135273
825.171	0.0134600
825.249	0.0134539
825.328	0.0135304
825.406	0.0136418
825.484	0.0135449
825.562	0.0135091
825.640	0.0136387
825.718	0.0135032
825.796	0.0135030
825.874	0.0133551
825.953	0.0135702
826.031	0.0134207
826.109	0.0134541
826.187	0.0134053
826.265	0.0132292
826.343	0.0133164
826.421	0.0134178
826.499	0.0133553
826.578	0.0131910
826.656	0.0132805
826.734	0.0132640
826.812	0.0132531
826.890	0.0133271
826.968	0.0131123
827.046	0.0132874
827.124	0.0133341
827.203	0.0134285
827.281	0.0132713
827.359	0.0134035
827.437	0.0133432
827.515	0.0134296
827.593	0.0133296
827.671	0.0135149
827.749	0.0135061
827.828	0.0135420
827.906	0.0134432
827.984	0.0135435
828.062	0.0135255
828.140	0.0135574
828.218	0.0135876
828.296	0.0135899
828.374	0.0133776
828.453	0.0134799
828.531	0.0135789
828.609	0.0134879
828.687	0.0134303
828.765	0.0135336
828.843	0.0134309
828.921	0.0133037
828.999	0.0135396
829.078	0.0134805
829.156	0.0132960
829.234	0.0134587
829.312	0.0135218
829.390	0.0134625
829.468	0.0132420
829.546	0.0134213
829.624	0.0134148
829.703	0.0134671
829.781	0.0133660
829.859	0.0134282
829.937	0.0134563
830.015	0.0133366
830.093	0.0134510
830.171	0.0134940
830.249	0.0134497
830.328	0.0133390
830.406	0.0134413
830.484	0.0134028
830.562	0.0133798
830.640	0.0133707
830.718	0.0133748
830.796	0.0134184
830.874	0.0134258
830.953	0.0134824
831.031	0.0134812
831.109	0.0133558
831.187	0.0134901
831.265	0.0133508
831.343	0.0134747
831.421	0.0134795
831.499	0.0134975
831.578	0.0135834
831.656	0.0135037
831.734	0.0135228
831.812	0.0135621
831.890	0.0134737
831.968	0.0136182
832.046	0.0135692
832.124	0.0134431
832.203	0.0134203
832.281	0.0135646
832.359	0.0134171
832.437	0.0133218
832.515	0.0134237
832.593	0.0134441
832.671	0.0134361
832.749	0.0132446
832.828	0.0131917
832.906	0.0132807
832.984	0.0131754
833.062	0.0131870
833.140	0.0133385
833.218	0.0133441
833.296	0.0133940
833.374	0.0133430
833.453	0.0134415
833.531	0.0132851
833.609	0.0133453
833.687	0.0134471
833.765	0.0133273
833.843	0.0134313
833.921	0.0134378
833.999	0.0134820
834.078	0.0134045
834.156	0.0135875
834.234	0.0134245
834.312	0.0133787
834.390	0.0134091
834.468	0.0133778
834.546	0.0133341
834.624	0.0133588
834.703	0.0134486
834.781	0.0135091
834.859	0.0134230
834.937	0.0133826
835.015	0.0133997
835.093	0.0135220
835.171	0.0134726
835.249	0.0134753
835.328	0.0134870
835.406	0.0135721
835.484	0.0135390
835.562	0.0135707
835.640	0.0135525
835.718	0.0135945
835.796	0.0135728
835.874	0.0134175
835.953	0.0135506
836.031	0.0135761
836.109	0.0136207
836.187	0.0136115
836.265	0.0136539
836.343	0.0135825
836.421	0.0135469
836.499	0.0135704
836.578	0.0133563
836.656	0.0134270
836.734	0.0135396
836.812	0.0134764
836.890	0.0133159
836.968	0.0135434
837.046	0.0133638
837.124	0.0132883
837.203	0.0133158
837.281	0.0134588
837.359	0.0132991
837.437	0.0132177
837.515	0.0133103
837.593	0.0132856
837.671	0.0133392
837.749	0.0132227
837.828	0.0132838
837.906	0.0132568
837.984	0.0133272
838.062	0.0133301
838.140	0.0131468
838.218	0.0134756
838.296	0.0133642
838.374	0.0132968
838.453	0.0133675
838.531	0.0134480
838.609	0.0135273
838.687	0.0134279
838.765	0.0134284
838.843	0.0133897
838.921	0.0135075
838.999	0.0136165
839.078	0.0135113
839.156	0.0136224
839.234	0.0137129
839.312	0.0134913
839.390	0.0136488
839.468	0.0137366
839.546	0.0136147
839.624	0.0137294
839.703	0.0135595
839.781	0.0136227
839.859	0.0136087
839.937	0.0137557
840.015	0.0135920
840.093	0.0136542
840.171	0.0137635
840.249	0.0135642
840.328	0.0136607
840.406	0.0136293
840.484	0.0136991
840.562	0.0136018
840.640	0.0135822
840.718	0.0135991
840.796	0.0135670
840.874	0.0136463
840.953	0.0134452
841.031	0.0135526
841.109	0.0133785
841.187	0.0135004
841.265	0.0134118
841.343	0.0133894
841.421	0.0135066
841.499	0.0134019
841.578	0.0134496
841.656	0.0133376
841.734	0.0132793
841.812	0.0134843
841.890	0.0133723
841.968	0.0134600
842.046	0.0134368
842.124	0.0133815
842.203	0.0134058
842.281	0.0133298
842.359	0.0134162
842.437	0.0135290
842.515	0.0134648
842.593	0.0133140
842.671	0.0133064
842.749	0.0133929
842.828	0.0134786
842.906	0.0134354
842.984	0.0133835
843.062	0.0134366
843.140	0.0134258
843.218	0.0134486
843.296	0.0133103
843.374	0.0133107
843.453	0.0135596
843.531	0.0134340
843.609	0.0134693
843.687	0.0134429
843.765	0.0134589
843.843	0.0134138
843.921	0.0135030
843.999	0.0134887
844.078	0.0132934
844.156	0.0134673
844.234	0.0134780
844.312	0.0134985
844.390	0.0134380
844.468	0.0135078
844.546	0.0134689
844.624	0.0135664
844.703	0.0135564
844.781	0.0134623
844.859	0.0136225
844.937	0.0135924
845.015	0.0134676
845.093	0.0135033
845.171	0.0135395
845.249	0.0133087
845.328	0.0133849
845.406	0.0135149
845.484	0.0134027
845.562	0.0131915
845.640	0.0133534
845.718	0.0133382
845.796	0.0132323
845.874	0.0131856
845.953	0.0132159
846.031	0.0132130
846.109	0.0132274
846.187	0.0133353
846.265	0.0132432
846.343	0.0133061
846.421	0.0131876
846.499	0.0133032
846.578	0.0133166
846.656	0.0133762
846.734	0.0132700
846.812	0.0133222
846.890	0.0135110
846.968	0.0135156
847.046	0.0135248
847.124	0.0134222
847.203	0.0132928
847.281	0.0133977
847.359	0.0133788
847.437	0.0133282
847.515	0.0133163
847.593	0.0133741
847.671	0.0134788
847.749	0.0133042
847.828	0.0133935
847.906	0.0133558
847.984	0.0133952
848.062	0.0133107
848.140	0.0134741
848.218	0.0133706
848.296	0.0134368
848.374	0.0135607
848.453	0.0135735
848.531	0.0134307
848.609	0.0133623
848.687	0.0135152
848.765	0.0135407
848.843	0.0134337
848.921	0.0135970
848.999	0.0134779
849.078	0.0134360
849.156	0.0136120
849.234	0.0134627
849.312	0.0135345
849.390	0.0134603
849.468	0.0134772
849.546	0.0134971
849.624	0.0133612
849.703	0.0135074
849.781	0.0134696
849.859	0.0132983
849.937	0.0134851
850.015	0.0134186
850.093	0.0132687
850.171	0.0134199
850.249	0.0133774
850.328	0.0133389
850.406	0.0132908
850.484	0.0134586
850.562	0.0133353
850.640	0.0134043
850.718	0.0132728
850.796	0.0134497
850.874	0.0134173
850.953	0.0133620
851.031	0.0134711
851.109	0.0137169
851.187	0.0136241
851.265	0.0134917
851.343	0.0134489
851.421	0.0135424
851.499	0.0137204
851.578	0.0135453
851.656	0.0135049
851.734	0.0134426
851.812	0.0135061
851.890	0.0136741
851.968	0.0135909
852.046	0.0135136
852.124	0.0134156
852.203	0.0134583
852.281	0.0135264
852.359	0.0134081
852.437	0.0133636
852.515	0.0134956
852.593	0.0133487
852.671	0.0134134
852.749	0.0133975
852.828	0.0134108
852.906	0.0132861
852.984	0.0134261
853.062	0.0134590
853.140	0.0134007
853.218	0.0134016
853.296	0.0135785
853.374	0.0134225
853.453	0.0134557
853.531	0.0134927
853.609	0.0136047
853.687	0.0134863
853.765	0.0135275
853.843	0.0135254
853.921	0.0136598
853.999	0.0136412
854.078	0.0135987
854.156	0.0135336
854.234	0.0135378
854.312	0.0134538
854.390	0.0135646
854.468	0.0135487
854.546	0.0135825
854.624	0.0135194
854.703	0.0134045
854.781	0.0133897
854.859	0.0135058
854.937	0.0134309
855.015	0.0133741
855.093	0.0135084
855.171	0.0134483
855.249	0.0134439
855.328	0.0133515
855.406	0.0134126
855.484	0.0133727
855.562	0.0134288
855.640	0.0132769
855.718	0.0133550
855.796	0.0134856
855.874	0.0134848
855.953	0.0133759
856.031	0.0132983
856.109	0.0133279
856.187	0.0133006
856.265	0.0133467
856.343	0.0134450
856.421	0.0133710
856.499	0.0134437
856.578	0.0133916
856.656	0.0134311
856.734	0.0134137
856.812	0.0133929
856.890	0.0133762
856.968	0.0135081
857.046	0.0133986
857.124	0.0135391
857.203	0.0135352
857.281	0.0136016
857.359	0.0134805
857.437	0.0132315
857.515	0.0133943
857.593	0.0136554
857.671	0.0134674
857.749	0.0133717
857.828	0.0133916
857.906	0.0134358
857.984	0.0133036
858.062	0.0133346
858.140	0.0135298
858.218	0.0134103
858.296	0.0135038
858.374	0.0133789
858.453	0.0134447
858.531	0.0135263
858.609	0.0135432
858.687	0.0135826
858.765	0.0135313
858.843	0.0134840
858.921	0.0136200
858.999	0.0134287
859.078	0.0134863
859.156	0.0134943
859.234	0.0133945
859.312	0.0135738
859.390	0.0134296
859.468	0.0133601
859.546	0.0134158
859.624	0.0136458
859.703	0.0134656
859.781	0.0133931
859.859	0.0134074
859.937	0.0133498
860.015	0.0135165
860.093	0.0135343
860.171	0.0132958
860.249	0.0134458
860.328	0.0134581
860.406	0.0133488
860.484	0.0133994
860.562	0.0133474
860.640	0.0133870
860.718	0.0134338
860.796	0.0133767
860.874	0.0133890
860.953	0.0133225
861.031	0.0134411
861.109	0.0133096
861.187	0.0134766
861.265	0.0133998
861.343	0.0134989
861.421	0.0134217
861.499	0.0135128
861.578	0.0134863
861.656	0.0134519
861.734	0.0135479
861.812	0.0136068
861.890	0.0134886
861.968	0.0134068
862.046	0.0134504
862.124	0.0135468
862.203	0.0135162
862.281	0.0134953
862.359	0.0133836
862.437	0.0134298
862.515	0.0133974
862.593	0.0134492
862.671	0.0133063
862.749	0.0134872
862.828	0.0134808
862.906	0.0132985
862.984	0.0133121
863.062	0.0135050
863.140	0.0133363
863.218	0.0133800
863.296	0.0133987
863.374	0.0134219
863.453	0.0133781
863.531	0.0133633
863.609	0.0134698
863.687	0.0133323
863.765	0.0133151
863.843	0.0134156
863.921	0.0133247
863.999	0.0133865
864.078	0.0133332
864.156	0.0133772
864.234	0.0134949
864.312	0.0134160
864.390	0.0133448
864.468	0.0135166
864.546	0.0133654
864.624	0.0133598
864.703	0.0134896
864.781	0.0135537
864.859	0.0134311
864.937	0.0134352
865.015	0.0133526
865.093	0.0134425
865.171	0.0136055
865.249	0.0135295
865.328	0.0134216
865.406	0.0135398
865.484	0.0136245
865.562	0.0135882
865.640	0.0136157
865.718	0.0135532
865.796	0.0134480
865.874	0.0135096
865.953	0.0136553
866.031	0.0134274
866.109	0.0134072
866.187	0.0135783
866.265	0.0135731
866.343	0.0134607
866.421	0.0133951
866.499	0.0136258
866.578	0.0134400
866.656	0.0133524
866.734	0.0135413
866.812	0.0134313
866.890	0.0134257
866.968	0.0133295
867.046	0.0133719
867.124	0.0134845
867.203	0.0134170
867.281	0.0132969
867.359	0.0133849
867.437	0.0134013
867.515	0.0135031
867.593	0.0133926
867.671	0.0134435
867.749	0.0133236
867.828	0.0132857
867.906	0.0132180
867.984	0.0132111
868.062	0.0133064
868.140	0.0133321
868.218	0.0133176
868.296	0.0131625
868.374	0.0134068
868.453	0.0132480
868.531	0.0133400
868.609	0.0132153
868.687	0.0133696
868.765	0.0135049
868.843	0.0134335
868.921	0.0133884
868.999	0.0134029
869.078	0.0135315
869.156	0.0134931
869.234	0.0135455
869.312	0.0134896
869.390	0.0134830
869.468	0.0134821
869.546	0.0134977
869.624	0.0134325
869.703	0.0134707
869.781	0.0135676
869.859	0.0135281
869.937	0.0133465
870.015	0.0135094
870.093	0.0134921
870.171	0.0134994
870.249	0.0132742
870.328	0.0135655
870.406	0.0134251
870.484	0.0134058
870.562	0.0134446
870.640	0.0134401
870.718	0.0133681
870.796	0.0133427
870.874	0.0132973
870.953	0.0134725
871.031	0.0135207
871.109	0.0134024
871.187	0.0132522
871.265	0.0133185
871.343	0.0133824
871.421	0.0133958
871.499	0.0132869
871.578	0.0133942
871.656	0.0132741
871.734	0.0132433
871.812	0.0133667
871.890	0.0133194
871.968	0.0133574
872.046	0.0132990
872.124	0.0133391
872.203	0.0133524
872.281	0.0133225
872.359	0.0134465
872.437	0.0133144
872.515	0.0134265
872.593	0.0135779
872.671	0.0134303
872.749	0.0134367
872.828	0.0133262
872.906	0.0135570
872.984	0.0135205
873.062	0.0135522
873.140	0.0135411
873.218	0.0136358
873.296	0.0135030
873.374	0.0135812
873.453	0.0136846
873.531	0.0135829
873.609	0.0134797
873.687	0.0136253
873.765	0.0134411
873.843	0.0135297
873.921	0.0136042
873.999	0.0135654
874.078	0.0135543
874.156	0.0134047
874.234	0.0133721
874.312	0.0134999
874.390	0.0134991
874.468	0.0134704
874.546	0.0133473
874.624	0.0133457
874.703	0.0134388
874.781	0.0132637
874.859	0.0133892
874.937	0.0134096
875.015	0.0133439
875.093	0.0133353
875.171	0.0134773
875.249	0.0133588
875.328	0.0136456
875.406	0.0134424
875.484	0.0134302
875.562	0.0136211
875.640	0.0134100
875.718	0.0133624
875.796	0.0133915
875.874	0.0136217
875.953	0.0135999
876.031	0.0133518
876.109	0.0135004
876.187	0.0135320
876.265	0.0134577
876.343	0.0135307
876.421	0.0135899
876.499	0.0135137
876.578	0.0136247
876.656	0.0135297
876.734	0.0134129
876.812	0.0135246
876.890	0.0136040
876.968	0.0135025
877.046	0.0135436
877.124	0.0136754
877.203	0.0136529
877.281	0.0136134
877.359	0.0135838
877.437	0.0137531
877.515	0.0136481
877.593	0.0135963
877.671	0.0137019
877.749	0.0136172
877.828	0.0135361
877.906	0.0136164
877.984	0.0136430
878.062	0.0134676
878.140	0.0134518
878.218	0.0134342
878.296	0.0133832
878.374	0.0134019
878.453	0.0133997
878.531	0.0133447
878.609	0.0134239
878.687	0.0132460
878.765	0.0133466
878.843	0.0132777
878.921	0.0132211
878.999	0.0134923
879.078	0.0135152
879.156	0.0134496
879.234	0.0133553
879.312	0.0135384
879.390	0.0135419
879.468	0.0135219
879.546	0.0135286
879.624	0.0135049
879.703	0.0137080
879.781	0.0135579
879.859	0.0136427
879.937	0.0135672
880.015	0.0134702
880.093	0.0134952
880.171	0.0135955
880.249	0.0135406
880.328	0.0134119
880.406	0.0134271
880.484	0.0134432
880.562	0.0134229
880.640	0.0134634
880.718	0.0134330
880.796	0.0134101
880.874	0.0134989
880.953	0.0133872
881.031	0.0133589
881.109	0.0134228
881.187	0.0134419
881.265	0.0134779
881.343	0.0135078
881.421	0.0135640
881.499	0.0134788
881.578	0.0134405
881.656	0.0134106
881.734	0.0135741
881.812	0.0135169
881.890	0.0135892
881.968	0.0134528
882.046	0.0134862
882.124	0.0133983
882.203	0.0135057
882.281	0.0135607
882.359	0.0135790
882.437	0.0135599
882.515	0.0135103
882.593	0.0134326
882.671	0.0133953
882.749	0.0135847
882.828	0.0134099
882.906	0.0134365
882.984	0.0134610
883.062	0.0134362
883.140	0.0135246
883.218	0.0134361
883.296	0.0133825
883.374	0.0134474
883.453	0.0135433
883.531	0.0132745
883.609	0.0133797
883.687	0.0134435
883.765	0.0134919
883.843	0.0134226
883.921	0.0134676
883.999	0.0134757
884.078	0.0134722
884.156	0.0136339
884.234	0.0135735
884.312	0.0135343
884.390	0.0137146
884.468	0.0136354
884.546	0.0135983
884.624	0.0137233
884.703	0.0136311
884.781	0.0136752
884.859	0.0136358
884.937	0.0134929
885.015	0.0136546
885.093	0.0136137
885.171	0.0134744
885.249	0.0136153
885.328	0.0135000
885.406	0.0134214
885.484	0.0133552
885.562	0.0134348
885.640	0.0135117
885.718	0.0134412
885.796	0.0132942
885.874	0.0133086
885.953	0.0133388
886.031	0.0134008
886.109	0.0134003
886.187	0.0133239
886.265	0.0134722
886.343	0.0133656
886.421	0.0134592
886.499	0.0132908
886.578	0.0135593
886.656	0.0135858
886.734	0.0135822
886.812	0.0133356
886.890	0.0134705
886.968	0.0134297
887.046	0.0134117
887.124	0.0133955
887.203	0.0135036
887.281	0.0135056
887.359	0.0135491
887.437	0.0134767
887.515	0.0133424
887.593	0.0134614
887.671	0.0134656
887.749	0.0133826
887.828	0.0134948
887.906	0.0134624
887.984	0.0134777
888.062	0.0135172
888.140	0.0133570
888.218	0.0134837
888.296	0.0135674
888.374	0.0135017
888.453	0.0133974
888.531	0.0135390
888.609	0.0134856
888.687	0.0135464
888.765	0.0136060
888.843	0.0135893
888.921	0.0135055
888.999	0.0135853
889.078	0.0135907
889.156	0.0135693
889.234	0.0135139
889.312	0.0135403
889.390	0.0135874
889.468	0.0135438
889.546	0.0133704
889.624	0.0133868
889.703	0.0133321
889.781	0.0134080
889.859	0.0134540
889.937	0.0135581
890.015	0.0133776
890.093	0.0132812
890.171	0.0133675
890.249	0.0133701
890.328	0.0132729
890.406	0.0132095
890.484	0.0133537
890.562	0.0132410
890.640	0.0133907
890.718	0.0132838
890.796	0.0131554
890.874	0.0133128
890.953	0.0134196
891.031	0.0133118
891.109	0.0133965
891.187	0.0134532
891.265	0.0133947
891.343	0.0134361
891.421	0.0135269
891.499	0.0135691
891.578	0.0135253
891.656	0.0135343
891.734	0.0134641
891.812	0.0133497
891.890	0.0134189
891.968	0.0135966
892.046	0.0134555
892.124	0.0135184
892.203	0.0136320
892.281	0.0133839
892.359	0.0133514
892.437	0.0132541
892.515	0.0133598
892.593	0.0133902
892.671	0.0135027
892.749	0.0132502
892.828	0.0134320
892.906	0.0133321
892.984	0.0134428
893.062	0.0132936
893.140	0.0134568
893.218	0.0135214
893.296	0.0134825
893.374	0.0135318
893.453	0.0134306
893.531	0.0135512
893.609	0.0135728
893.687	0.0135480
893.765	0.0135683
893.843	0.0136683
893.921	0.0135205
893.999	0.0134451
894.078	0.0134750
894.156	0.0135392
894.234	0.0134026
894.312	0.0133580
894.390	0.0134756
894.468	0.0133916
894.546	0.0133009
894.624	0.0133885
894.703	0.0133427
894.781	0.0133210
894.859	0.0133127
894.937	0.0133314
895.015	0.0135465
895.093	0.0135136
895.171	0.0134422
895.249	0.0133701
895.328	0.0134522
895.406	0.0135625
895.484	0.0134843
895.562	0.0134716
895.640	0.0135708
895.718	0.0134780
895.796	0.0135075
895.874	0.0136397
895.953	0.0135655
896.031	0.0135626
896.109	0.0134560
896.187	0.0135133
896.265	0.0134464
896.343	0.0133683
896.421	0.0133808
896.499	0.0134074
896.578	0.0134034
896.656	0.0134868
896.734	0.0134243
896.812	0.0132462
896.890	0.0132145
896.968	0.0132533
897.046	0.0132604
897.124	0.0132736
897.203	0.0134077
897.281	0.0133376
897.359	0.0133829
897.437	0.0133845
897.515	0.0134740
897.593	0.0134659
897.671	0.0134399
897.749	0.0135372
897.828	0.0137302
897.906	0.0137119
897.984	0.0136989
898.062	0.0136771
898.140	0.0136826
898.218	0.0137746
898.296	0.0138091
898.374	0.0137464
898.453	0.0136890
898.531	0.0136538
898.609	0.0135696
898.687	0.0136091
898.765	0.0135896
898.843	0.0135514
898.921	0.0134222
898.999	0.0133519
899.078	0.0131952
899.156	0.0133434
899.234	0.0132139
899.312	0.0133852
899.390	0.0132259
899.468	0.0132553
899.546	0.0132541
899.624	0.0133128
899.703	0.0133229
899.781	0.0133333
899.859	0.0134274
899.937	0.0133918
900.015	0.0133457
900.093	0.0136154
900.171	0.0134731
900.249	0.0135851
900.328	0.0135977
900.406	0.0135548
900.484	0.0136049
900.562	0.0137655
900.640	0.0136806
900.718	0.0135494
900.796	0.0135458
900.874	0.0136849
900.953	0.0136404
901.031	0.0133263
901.109	0.0134644
901.187	0.0135260
901.265	0.0136176
901.343	0.0133913
901.421	0.0133380
901.499	0.0132890
901.578	0.0134489
901.656	0.0134751
901.734	0.0134671
901.812	0.0133363
901.890	0.0134830
901.968	0.0136761
902.046	0.0135723
902.124	0.0135477
902.203	0.0136942
902.281	0.0136141
902.359	0.0135654
902.437	0.0137048
902.515	0.0136391
902.593	0.0136872
902.671	0.0135414
902.749	0.0136150
902.828	0.0136480
902.906	0.0136709
902.984	0.0136232
903.062	0.0135966
903.140	0.0136783
903.218	0.0135365
903.296	0.0133463
903.374	0.0133934
903.453	0.0133717
903.531	0.0133476
903.609	0.0133028
903.687	0.0132008
903.765	0.0132579
903.843	0.0133844
903.921	0.0132458
903.999	0.0134351
904.078	0.0133409
904.156	0.0134963
904.234	0.0134270
904.312	0.0133461
904.390	0.0133245
904.468	0.0134546
904.546	0.0134653
904.624	0.0134539
904.703	0.0137179
904.781	0.0135242
904.859	0.0137226
904.937	0.0136793
905.015	0.0137737
905.093	0.0135687
905.171	0.0135812
905.249	0.0136103
905.328	0.0136336
905.406	0.0136095
905.484	0.0136686
905.562	0.0136901
905.640	0.0135703
905.718	0.0136318
905.796	0.0134868
905.874	0.0134449
905.953	0.0135207
906.031	0.0134611
906.109	0.0134396
906.187	0.0133028
906.265	0.0133094
906.343	0.0133594
906.421	0.0132973
906.499	0.0134261
906.578	0.0134692
906.656	0.0133643
906.734	0.0133075
906.812	0.0135109
906.890	0.0134754
906.968	0.0133677
907.046	0.0135212
907.124	0.0135370
907.203	0.0136871
907.281	0.0135746
907.359	0.0135506
907.437	0.0136063
907.515	0.0137804
907.593	0.0134072
907.671	0.0136401
907.749	0.0134624
907.828	0.0134822
907.906	0.0134024
907.984	0.0132920
908.062	0.0134331
908.140	0.0134062
908.218	0.0131531
908.296	0.0132398
908.374	0.0133248
908.453	0.0131797
908.531	0.0132314
908.609	0.0131960
908.687	0.0132724
908.765	0.0133890
908.843	0.0133970
908.921	0.0134956
908.999	0.0135410
909.078	0.0136253
909.156	0.0134318
909.234	0.0136125
909.312	0.0136932
909.390	0.0135442
909.468	0.0136983
909.546	0.0136198
909.624	0.0135738
909.703	0.0137025
909.781	0.0135553
909.859	0.0136374
909.937	0.0136820
910.015	0.0134477
910.093	0.0134675
910.171	0.0134090
910.249	0.0133898
910.328	0.0133971
910.406	0.0132998
910.484	0.0133286
910.562	0.0132908
910.640	0.0135111
910.718	0.0133978
910.796	0.0132724
910.874	0.0133009
910.953	0.0134931
911.031	0.0133019
911.109	0.0131930
911.187	0.0134657
911.265	0.0133948
911.343	0.0135062
911.421	0.0134148
911.499	0.0134490
911.578	0.0136731
911.656	0.0136151
911.734	0.0134209
911.812	0.0136009
911.890	0.0136102
911.968	0.0136120
912.046	0.0136256
912.124	0.0134087
912.203	0.0134764
912.281	0.0134765
912.359	0.0134547
912.437	0.0135546
912.515	0.0133683
912.593	0.0132999
912.671	0.0132903
912.749	0.0131705
912.828	0.0132450
912.906	0.0131632
912.984	0.0133189
913.062	0.0131192
913.140	0.0132948
913.218	0.0132978
913.296	0.0132453
913.374	0.0133496
913.453	0.0134689
913.531	0.0134958
913.609	0.0135854
913.687	0.0134766
913.765	0.0134374
913.843	0.0134428
913.921	0.0135164
913.999	0.0134236
914.078	0.0136426
914.156	0.0136378
914.234	0.0134247
914.312	0.0135554
914.390	0.0134435
914.468	0.0134478
914.546	0.0135872
914.624	0.0134757
914.703	0.0135544
914.781	0.0135262
914.859	0.0133785
914.937	0.0133123
915.015	0.0134698
915.093	0.0133640
915.171	0.0133164
915.249	0.0134139
915.328	0.0132090
915.406	0.0133702
915.484	0.0132516
915.562	0.0132017
915.640	0.0132594
915.718	0.0132607
915.796	0.0134195
915.874	0.0132352
915.953	0.0131940
916.031	0.0133972
916.109	0.0134528
916.187	0.0135528
916.265	0.0135709
916.343	0.0134785
916.421	0.0134750
916.499	0.0134431
916.578	0.0133800
916.656	0.0135178
916.734	0.0135643
916.812	0.0133714
916.890	0.0134634
916.968	0.0134097
917.046	0.0134132
917.124	0.0134623
917.203	0.0133920
917.281	0.0132592
917.359	0.0133662
917.437	0.0133154
917.515	0.0132951
917.593	0.0132932
917.671	0.0134402
917.749	0.0133047
917.828	0.0133408
917.906	0.0133578
917.984	0.0132887
918.062	0.0134720
918.140	0.0135898
918.218	0.0134204
918.296	0.0134734
918.374	0.0134783
918.453	0.0136079
918.531	0.0134211
918.609	0.0135553
918.687	0.0134612
918.765	0.0134644
918.843	0.0134228
918.921	0.0135104
918.999	0.0135372
919.078	0.0134155
919.156	0.0134911
919.234	0.0134364
919.312	0.0135029
919.390	0.0134387
919.468	0.0133556
919.546	0.0133986
919.624	0.0134857
919.703	0.0134222
919.781	0.0134256
919.859	0.0134171
919.937	0.0135888
