05/06/2022	18:51:14	Ver.	4.1	UNKNOWN
Optical Delay	600.015094	Delta X		0.078125	Sweeps	1	Scan Rate	0/0
Coordinates	Axis 1	NaN	Axis 2	NaN	Axis 3	NaN	Axis 4	NaN	Axis 5	NaN	Axis 6	0.000000
TX Power	0.000000	RX Power	0.000000

600.015	0.0133712
600.093	0.0134721
600.171	0.0133795
600.249	0.0133768
600.328	0.0134940
600.406	0.0132635
600.484	0.0134105
600.562	0.0134294
600.640	0.0133080
600.718	0.0132386
600.796	0.0133907
600.874	0.0134202
600.953	0.0134156
601.031	0.0134342
601.109	0.0133283
601.187	0.0133627
601.265	0.0133948
601.343	0.0133212
601.421	0.0134327
601.499	0.0134508
601.578	0.0134833
601.656	0.0133929
601.734	0.0133723
601.812	0.0133782
601.890	0.0133767
601.968	0.0132904
602.046	0.0134698
602.124	0.0134298
602.203	0.0133894
602.281	0.0133063
602.359	0.0134535
602.437	0.0134483
602.515	0.0134529
602.593	0.0135091
602.671	0.0133378
602.749	0.0133282
602.828	0.0134012
602.906	0.0135484
602.984	0.0134226
603.062	0.0132131
603.140	0.0134842
603.218	0.0135114
603.296	0.0133783
603.374	0.0134498
603.453	0.0133846
603.531	0.0133764
603.609	0.0134106
603.687	0.0133618
603.765	0.0133363
603.843	0.0133798
603.921	0.0133003
603.999	0.0133661
604.078	0.0133204
604.156	0.0134657
604.234	0.0135511
604.312	0.0134032
604.390	0.0134488
604.468	0.0134547
604.546	0.0135201
604.624	0.0133905
604.703	0.0133805
604.781	0.0133070
604.859	0.0133678
604.937	0.0134114
605.015	0.0134447
605.093	0.0133998
605.171	0.0133964
605.249	0.0134875
605.328	0.0133267
605.406	0.0133588
605.484	0.0134814
605.562	0.0133999
605.640	0.0133823
605.718	0.0133775
605.796	0.0132838
605.874	0.0132643
605.953	0.0133664
606.031	0.0134901
606.109	0.0134760
606.187	0.0132381
606.265	0.0133988
606.343	0.0134881
606.421	0.0133432
606.499	0.0131915
606.578	0.0135022
606.656	0.0134901
606.734	0.0134332
606.812	0.0133591
606.890	0.0133312
606.968	0.0134769
607.046	0.0134347
607.124	0.0133559
607.203	0.0133318
607.281	0.0134373
607.359	0.0133273
607.437	0.0133580
607.515	0.0135731
607.593	0.0134448
607.671	0.0132624
607.749	0.0134319
607.828	0.0133588
607.906	0.0132898
607.984	0.0134190
608.062	0.0133976
608.140	0.0134808
608.218	0.0132609
608.296	0.0134815
608.374	0.0133070
608.453	0.0133693
608.531	0.0133727
608.609	0.0133727
608.687	0.0133741
608.765	0.0134120
608.843	0.0134504
608.921	0.0133755
608.999	0.0134587
609.078	0.0134984
609.156	0.0133711
609.234	0.0134100
609.312	0.0134023
609.390	0.0134093
609.468	0.0136273
609.546	0.0134265
609.624	0.0133381
609.703	0.0133179
609.781	0.0133027
609.859	0.0133574
609.937	0.0133636
610.015	0.0133237
610.093	0.0133987
610.171	0.0133179
610.249	0.0134167
610.328	0.0133472
610.406	0.0133588
610.484	0.0134438
610.562	0.0134937
610.640	0.0133594
610.718	0.0134519
610.796	0.0133301
610.874	0.0132550
610.953	0.0135239
611.031	0.0134538
611.109	0.0133720
611.187	0.0132961
611.265	0.0134104
611.343	0.0135139
611.421	0.0134343
611.499	0.0133345
611.578	0.0133855
611.656	0.0132924
611.734	0.0134795
611.812	0.0133990
611.890	0.0135001
611.968	0.0132760
612.046	0.0133578
612.124	0.0132885
612.203	0.0133993
612.281	0.0132879
612.359	0.0132955
612.437	0.0133838
612.515	0.0133355
612.593	0.0133510
612.671	0.0133788
612.749	0.0133383
612.828	0.0133994
612.906	0.0133974
612.984	0.0134541
613.062	0.0133447
613.140	0.0133051
613.218	0.0135216
613.296	0.0134904
613.374	0.0133308
613.453	0.0133530
613.531	0.0135684
613.609	0.0135083
613.687	0.0134284
613.765	0.0134260
613.843	0.0133775
613.921	0.0133905
613.999	0.0133714
614.078	0.0133861
614.156	0.0134432
614.234	0.0134642
614.312	0.0134631
614.390	0.0134657
614.468	0.0134001
614.546	0.0133257
614.624	0.0133783
614.703	0.0134584
614.781	0.0134064
614.859	0.0133199
614.937	0.0134241
615.015	0.0133439
615.093	0.0133906
615.171	0.0134634
615.249	0.0134465
615.328	0.0134663
615.406	0.0134230
615.484	0.0134837
615.562	0.0134645
615.640	0.0133636
615.718	0.0132858
615.796	0.0133907
615.874	0.0134418
615.953	0.0134249
616.031	0.0133192
616.109	0.0133530
616.187	0.0134306
616.265	0.0133282
616.343	0.0132661
616.421	0.0133153
616.499	0.0132126
616.578	0.0132803
616.656	0.0134184
616.734	0.0134242
616.812	0.0133115
616.890	0.0134631
616.968	0.0133131
617.046	0.0134190
617.124	0.0133817
617.203	0.0133872
617.281	0.0133849
617.359	0.0133239
617.437	0.0134020
617.515	0.0136346
617.593	0.0133775
617.671	0.0133677
617.749	0.0134712
617.828	0.0133215
617.906	0.0132850
617.984	0.0134306
618.062	0.0135220
618.140	0.0134371
618.218	0.0134212
618.296	0.0132874
618.374	0.0134216
618.453	0.0134634
618.531	0.0133045
618.609	0.0133086
618.687	0.0133018
618.765	0.0134286
618.843	0.0133914
618.921	0.0133424
618.999	0.0134651
619.078	0.0133986
619.156	0.0134859
619.234	0.0133887
619.312	0.0134299
619.390	0.0134418
619.468	0.0135394
619.546	0.0134397
619.624	0.0132360
619.703	0.0132836
619.781	0.0134699
619.859	0.0134449
619.937	0.0134034
620.015	0.0134012
620.093	0.0131878
620.171	0.0133816
620.249	0.0133398
620.328	0.0134421
620.406	0.0133805
620.484	0.0133767
620.562	0.0134256
620.640	0.0133850
620.718	0.0134563
620.796	0.0134910
620.874	0.0133086
620.953	0.0133572
621.031	0.0134410
621.109	0.0133771
621.187	0.0133968
621.265	0.0133988
621.343	0.0134124
621.421	0.0134386
621.499	0.0135125
621.578	0.0134041
621.656	0.0134184
621.734	0.0134151
621.812	0.0133999
621.890	0.0134538
621.968	0.0133541
622.046	0.0133813
622.124	0.0134497
622.203	0.0133372
622.281	0.0133682
622.359	0.0133274
622.437	0.0133754
622.515	0.0133307
622.593	0.0133208
622.671	0.0134058
622.749	0.0133952
622.828	0.0132496
622.906	0.0134264
622.984	0.0133852
623.062	0.0132924
623.140	0.0132637
623.218	0.0133527
623.296	0.0133765
623.374	0.0133175
623.453	0.0133498
623.531	0.0133945
623.609	0.0132928
623.687	0.0133476
623.765	0.0134562
623.843	0.0132975
623.921	0.0133430
623.999	0.0133588
624.078	0.0133323
624.156	0.0133021
624.234	0.0134047
624.312	0.0134509
624.390	0.0134147
624.468	0.0133570
624.546	0.0132697
624.624	0.0135204
624.703	0.0133921
624.781	0.0133790
624.859	0.0132468
624.937	0.0134263
625.015	0.0133057
625.093	0.0134235
625.171	0.0134586
625.249	0.0135027
625.328	0.0133898
625.406	0.0134438
625.484	0.0134055
625.562	0.0134119
625.640	0.0133088
625.718	0.0134348
625.796	0.0134581
625.874	0.0133101
625.953	0.0133167
626.031	0.0134526
626.109	0.0133961
626.187	0.0134272
626.265	0.0135135
626.343	0.0133743
626.421	0.0133770
626.499	0.0134877
626.578	0.0134395
626.656	0.0134437
626.734	0.0133785
626.812	0.0134216
626.890	0.0134280
626.968	0.0133334
627.046	0.0133808
627.124	0.0134303
627.203	0.0134470
627.281	0.0133809
627.359	0.0132032
627.437	0.0135178
627.515	0.0134515
627.593	0.0133691
627.671	0.0133086
627.749	0.0132622
627.828	0.0132963
627.906	0.0134380
627.984	0.0134273
628.062	0.0132808
628.140	0.0134595
628.218	0.0134641
628.296	0.0134071
628.374	0.0133525
628.453	0.0135338
628.531	0.0133436
628.609	0.0132455
628.687	0.0133067
628.765	0.0134609
628.843	0.0133638
628.921	0.0132751
628.999	0.0134732
629.078	0.0133855
629.156	0.0134248
629.234	0.0133940
629.312	0.0133994
629.390	0.0133978
629.468	0.0132864
629.546	0.0133726
629.624	0.0135299
629.703	0.0133404
629.781	0.0132392
629.859	0.0133611
629.937	0.0133266
630.015	0.0134710
630.093	0.0133887
630.171	0.0132532
630.249	0.0133083
630.328	0.0133552
630.406	0.0134744
630.484	0.0136041
630.562	0.0132383
630.640	0.0131808
630.718	0.0134634
630.796	0.0134511
630.874	0.0133126
630.953	0.0133172
631.031	0.0133775
631.109	0.0134036
631.187	0.0133718
631.265	0.0134222
631.343	0.0133508
631.421	0.0133578
631.499	0.0135311
631.578	0.0133922
631.656	0.0133819
631.734	0.0133383
631.812	0.0133266
631.890	0.0134968
631.968	0.0134690
632.046	0.0134932
632.124	0.0134080
632.203	0.0134483
632.281	0.0134756
632.359	0.0132742
632.437	0.0134264
632.515	0.0133993
632.593	0.0133710
632.671	0.0134190
632.749	0.0132424
632.828	0.0134064
632.906	0.0133807
632.984	0.0131977
633.062	0.0133694
633.140	0.0133813
633.218	0.0133299
633.296	0.0134225
633.374	0.0135185
633.453	0.0133865
633.531	0.0132400
633.609	0.0132417
633.687	0.0133669
633.765	0.0133755
633.843	0.0133604
633.921	0.0135150
633.999	0.0132737
634.078	0.0134644
634.156	0.0132966
634.234	0.0132317
634.312	0.0134603
634.390	0.0133524
634.468	0.0133691
634.546	0.0133188
634.624	0.0133022
634.703	0.0135602
634.781	0.0134123
634.859	0.0132977
634.937	0.0133452
635.015	0.0134142
635.093	0.0133097
635.171	0.0135345
635.249	0.0134354
635.328	0.0134708
635.406	0.0133608
635.484	0.0134225
635.562	0.0133804
635.640	0.0133651
635.718	0.0133173
635.796	0.0133320
635.874	0.0134023
635.953	0.0133266
636.031	0.0134118
636.109	0.0135107
636.187	0.0134068
636.265	0.0133248
636.343	0.0132994
636.421	0.0134506
636.499	0.0134077
636.578	0.0132793
636.656	0.0134642
636.734	0.0133860
636.812	0.0132700
636.890	0.0132856
636.968	0.0133791
637.046	0.0133704
637.124	0.0133228
637.203	0.0134215
637.281	0.0134237
637.359	0.0134406
637.437	0.0134676
637.515	0.0133972
637.593	0.0135412
637.671	0.0132529
637.749	0.0133595
637.828	0.0133896
637.906	0.0133979
637.984	0.0134556
638.062	0.0134351
638.140	0.0134303
638.218	0.0133916
638.296	0.0133719
638.374	0.0134961
638.453	0.0134137
638.531	0.0133859
638.609	0.0133247
638.687	0.0134804
638.765	0.0133374
638.843	0.0133830
638.921	0.0133764
638.999	0.0133746
639.078	0.0133853
639.156	0.0134312
639.234	0.0134496
639.312	0.0134815
639.390	0.0134728
639.468	0.0134412
639.546	0.0133314
639.624	0.0132781
639.703	0.0133888
639.781	0.0135126
639.859	0.0134617
639.937	0.0133926
640.015	0.0133778
640.093	0.0134278
640.171	0.0134184
640.249	0.0135435
640.328	0.0135171
640.406	0.0134682
640.484	0.0133927
640.562	0.0133041
640.640	0.0133988
640.718	0.0134536
640.796	0.0133945
640.874	0.0135139
640.953	0.0132469
641.031	0.0133114
641.109	0.0134303
641.187	0.0132964
641.265	0.0134518
641.343	0.0133863
641.421	0.0133354
641.499	0.0133706
641.578	0.0133305
641.656	0.0134203
641.734	0.0133488
641.812	0.0134218
641.890	0.0133598
641.968	0.0132654
642.046	0.0133881
642.124	0.0133385
642.203	0.0133276
642.281	0.0133797
642.359	0.0132691
642.437	0.0133413
642.515	0.0133712
642.593	0.0134020
642.671	0.0133936
642.749	0.0134822
642.828	0.0134925
642.906	0.0133652
642.984	0.0133183
643.062	0.0133785
643.140	0.0134452
643.218	0.0133238
643.296	0.0132887
643.374	0.0134358
643.453	0.0136499
643.531	0.0133260
643.609	0.0132899
643.687	0.0134206
643.765	0.0132125
643.843	0.0132980
643.921	0.0134068
643.999	0.0132858
644.078	0.0134214
644.156	0.0134062
644.234	0.0134036
644.312	0.0133982
644.390	0.0133478
644.468	0.0132938
644.546	0.0134100
644.624	0.0134757
644.703	0.0133131
644.781	0.0133530
644.859	0.0133241
644.937	0.0132639
645.015	0.0133107
645.093	0.0134188
645.171	0.0133318
645.249	0.0133248
645.328	0.0132850
645.406	0.0132277
645.484	0.0133675
645.562	0.0134133
645.640	0.0133490
645.718	0.0134373
645.796	0.0134100
645.874	0.0133366
645.953	0.0132772
646.031	0.0131915
646.109	0.0132506
646.187	0.0134605
646.265	0.0133748
646.343	0.0132700
646.421	0.0133533
646.499	0.0133678
646.578	0.0133970
646.656	0.0133185
646.734	0.0131993
646.812	0.0133104
646.890	0.0133770
646.968	0.0133544
647.046	0.0132971
647.124	0.0133646
647.203	0.0133724
647.281	0.0132223
647.359	0.0133538
647.437	0.0132276
647.515	0.0134864
647.593	0.0133141
647.671	0.0134271
647.749	0.0134827
647.828	0.0133416
647.906	0.0132429
647.984	0.0134371
648.062	0.0133546
648.140	0.0134035
648.218	0.0132576
648.296	0.0134078
648.374	0.0133488
648.453	0.0134724
648.531	0.0133296
648.609	0.0133645
648.687	0.0133282
648.765	0.0132895
648.843	0.0133200
648.921	0.0134196
648.999	0.0135251
649.078	0.0132552
649.156	0.0133077
649.234	0.0133880
649.312	0.0135220
649.390	0.0133955
649.468	0.0132037
649.546	0.0133987
649.624	0.0135162
649.703	0.0134908
649.781	0.0133388
649.859	0.0134866
649.937	0.0134681
650.015	0.0133430
650.093	0.0133632
650.171	0.0134338
650.249	0.0132887
650.328	0.0135757
650.406	0.0134055
650.484	0.0134043
650.562	0.0134011
650.640	0.0135545
650.718	0.0133250
650.796	0.0133483
650.874	0.0133690
650.953	0.0133373
651.031	0.0133803
651.109	0.0132918
651.187	0.0134022
651.265	0.0133930
651.343	0.0133043
651.421	0.0133271
651.499	0.0132915
651.578	0.0132693
651.656	0.0134061
651.734	0.0135815
651.812	0.0133907
651.890	0.0133558
651.968	0.0135664
652.046	0.0133445
652.124	0.0132852
652.203	0.0133019
652.281	0.0134702
652.359	0.0133947
652.437	0.0132621
652.515	0.0134202
652.593	0.0133856
652.671	0.0134556
652.749	0.0133914
652.828	0.0135162
652.906	0.0133068
652.984	0.0133717
653.062	0.0133096
653.140	0.0133069
653.218	0.0134901
653.296	0.0133309
653.374	0.0132708
653.453	0.0134251
653.531	0.0133807
653.609	0.0133472
653.687	0.0133908
653.765	0.0134050
653.843	0.0133837
653.921	0.0132967
653.999	0.0134874
654.078	0.0133429
654.156	0.0133829
654.234	0.0134010
654.312	0.0134200
654.390	0.0133853
654.468	0.0133775
654.546	0.0134229
654.624	0.0132848
654.703	0.0133913
654.781	0.0134345
654.859	0.0134132
654.937	0.0133864
655.015	0.0134238
655.093	0.0134422
655.171	0.0134083
655.249	0.0133728
655.328	0.0133756
655.406	0.0132848
655.484	0.0134081
655.562	0.0133923
655.640	0.0133493
655.718	0.0133053
655.796	0.0134040
655.874	0.0134612
655.953	0.0132707
656.031	0.0131853
656.109	0.0133305
656.187	0.0134879
656.265	0.0133722
656.343	0.0133547
656.421	0.0133185
656.499	0.0134264
656.578	0.0133191
656.656	0.0134099
656.734	0.0134442
656.812	0.0132725
656.890	0.0132909
656.968	0.0134042
657.046	0.0133723
657.124	0.0133836
657.203	0.0133694
657.281	0.0133161
657.359	0.0133006
657.437	0.0133113
657.515	0.0133579
657.593	0.0134387
657.671	0.0134177
657.749	0.0133120
657.828	0.0134045
657.906	0.0133247
657.984	0.0133493
658.062	0.0132261
658.140	0.0133451
658.218	0.0135181
658.296	0.0133395
658.374	0.0133051
658.453	0.0132775
658.531	0.0133588
658.609	0.0133687
658.687	0.0133251
658.765	0.0132997
658.843	0.0133006
658.921	0.0133221
658.999	0.0134286
659.078	0.0134118
659.156	0.0132443
659.234	0.0130949
659.312	0.0133688
659.390	0.0132536
659.468	0.0134231
659.546	0.0133387
659.624	0.0132880
659.703	0.0133575
659.781	0.0133123
659.859	0.0132609
659.937	0.0133476
660.015	0.0133320
660.093	0.0135300
660.171	0.0133700
660.249	0.0132417
660.328	0.0133799
660.406	0.0134492
660.484	0.0133226
660.562	0.0133401
660.640	0.0131902
660.718	0.0133085
660.796	0.0132993
660.874	0.0133468
660.953	0.0134253
661.031	0.0132538
661.109	0.0133401
661.187	0.0133876
661.265	0.0133122
661.343	0.0133015
661.421	0.0135105
661.499	0.0134774
661.578	0.0133885
661.656	0.0133924
661.734	0.0134196
661.812	0.0133992
661.890	0.0133257
661.968	0.0133055
662.046	0.0134853
662.124	0.0134184
662.203	0.0134086
662.281	0.0133669
662.359	0.0132261
662.437	0.0133602
662.515	0.0133440
662.593	0.0132802
662.671	0.0133657
662.749	0.0133284
662.828	0.0134166
662.906	0.0132620
662.984	0.0133450
663.062	0.0132696
663.140	0.0133788
663.218	0.0134399
663.296	0.0134405
663.374	0.0133193
663.453	0.0133289
663.531	0.0133077
663.609	0.0133720
663.687	0.0135573
663.765	0.0133907
663.843	0.0132517
663.921	0.0134270
663.999	0.0134543
664.078	0.0133614
664.156	0.0133062
664.234	0.0133643
664.312	0.0132899
664.390	0.0133888
664.468	0.0131512
664.546	0.0134294
664.624	0.0133157
664.703	0.0134748
664.781	0.0133932
664.859	0.0133971
664.937	0.0132422
665.015	0.0133835
665.093	0.0134024
665.171	0.0134378
665.249	0.0133704
665.328	0.0133202
665.406	0.0133386
665.484	0.0133006
665.562	0.0132747
665.640	0.0134138
665.718	0.0132140
665.796	0.0133474
665.874	0.0134535
665.953	0.0134319
666.031	0.0134967
666.109	0.0132960
666.187	0.0134023
666.265	0.0134182
666.343	0.0133320
666.421	0.0133310
666.499	0.0134113
666.578	0.0134283
666.656	0.0133241
666.734	0.0134281
666.812	0.0132276
666.890	0.0132654
666.968	0.0133583
667.046	0.0133932
667.124	0.0133058
667.203	0.0133510
667.281	0.0133339
667.359	0.0133270
667.437	0.0134849
667.515	0.0133124
667.593	0.0134389
667.671	0.0135173
667.749	0.0133086
667.828	0.0133206
667.906	0.0132784
667.984	0.0133496
668.062	0.0132363
668.140	0.0132892
668.218	0.0131827
668.296	0.0132919
668.374	0.0132362
668.453	0.0133459
668.531	0.0133168
668.609	0.0132918
668.687	0.0132410
668.765	0.0130934
668.843	0.0132162
668.921	0.0132561
668.999	0.0133945
669.078	0.0132355
669.156	0.0132579
669.234	0.0134025
669.312	0.0134163
669.390	0.0134494
669.468	0.0133479
669.546	0.0133895
669.624	0.0134034
669.703	0.0133688
669.781	0.0132848
669.859	0.0132591
669.937	0.0134869
670.015	0.0133549
670.093	0.0134166
670.171	0.0134331
670.249	0.0132693
670.328	0.0132964
670.406	0.0132243
670.484	0.0132544
670.562	0.0133888
670.640	0.0131915
670.718	0.0133923
670.796	0.0133482
670.874	0.0132884
670.953	0.0133069
671.031	0.0133463
671.109	0.0135593
671.187	0.0134667
671.265	0.0134019
671.343	0.0133586
671.421	0.0134040
671.499	0.0132471
671.578	0.0132098
671.656	0.0133308
671.734	0.0133855
671.812	0.0132411
671.890	0.0132903
671.968	0.0132446
672.046	0.0133562
672.124	0.0133289
672.203	0.0133968
672.281	0.0133495
672.359	0.0134389
672.437	0.0132867
672.515	0.0133320
672.593	0.0132529
672.671	0.0132613
672.749	0.0132976
672.828	0.0132630
672.906	0.0132376
672.984	0.0132460
673.062	0.0132255
673.140	0.0133761
673.218	0.0133327
673.296	0.0133396
673.374	0.0134589
673.453	0.0133903
673.531	0.0134835
673.609	0.0134528
673.687	0.0135508
673.765	0.0136991
673.843	0.0133960
673.921	0.0135160
673.999	0.0135657
674.078	0.0134083
674.156	0.0133874
674.234	0.0135162
674.312	0.0133333
674.390	0.0133230
674.468	0.0133511
674.546	0.0131133
674.624	0.0130829
674.703	0.0130258
674.781	0.0128823
674.859	0.0130431
674.937	0.0131697
675.015	0.0131192
675.093	0.0131959
675.171	0.0131970
675.249	0.0132457
675.328	0.0132547
675.406	0.0133915
675.484	0.0134103
675.562	0.0136031
675.640	0.0136493
675.718	0.0135361
675.796	0.0135046
675.874	0.0137046
675.953	0.0135507
676.031	0.0135748
676.109	0.0135772
676.187	0.0135871
676.265	0.0135753
676.343	0.0136112
676.421	0.0134736
676.499	0.0135125
676.578	0.0134561
676.656	0.0133767
676.734	0.0133380
676.812	0.0133326
676.890	0.0134137
676.968	0.0131448
677.046	0.0131661
677.124	0.0133485
677.203	0.0132636
677.281	0.0132481
677.359	0.0133578
677.437	0.0133610
677.515	0.0132116
677.593	0.0131622
677.671	0.0131440
677.749	0.0130935
677.828	0.0131879
677.906	0.0130521
677.984	0.0129196
678.062	0.0131405
678.140	0.0130643
678.218	0.0131219
678.296	0.0130647
678.374	0.0131232
678.453	0.0131928
678.531	0.0133353
678.609	0.0131864
678.687	0.0133512
678.765	0.0133887
678.843	0.0134297
678.921	0.0136188
678.999	0.0135403
679.078	0.0136802
679.156	0.0136473
679.234	0.0136350
679.312	0.0136604
679.390	0.0137511
679.468	0.0136828
679.546	0.0137004
679.624	0.0136487
679.703	0.0134142
679.781	0.0134222
679.859	0.0134464
679.937	0.0133333
680.015	0.0132413
680.093	0.0131934
680.171	0.0132264
680.249	0.0131973
680.328	0.0133387
680.406	0.0132742
680.484	0.0133128
680.562	0.0133764
680.640	0.0136282
680.718	0.0135098
680.796	0.0135214
680.874	0.0136539
680.953	0.0137398
681.031	0.0135838
681.109	0.0136721
681.187	0.0136932
681.265	0.0135648
681.343	0.0135787
681.421	0.0134737
681.499	0.0132485
681.578	0.0131140
681.656	0.0131161
681.734	0.0129454
681.812	0.0127423
681.890	0.0128381
681.968	0.0126743
682.046	0.0125462
682.124	0.0125538
682.203	0.0125518
682.281	0.0125966
682.359	0.0127879
682.437	0.0128658
682.515	0.0128744
682.593	0.0131065
682.671	0.0131411
682.749	0.0131879
682.828	0.0133403
682.906	0.0135337
682.984	0.0136184
683.062	0.0136149
683.140	0.0136141
683.218	0.0137590
683.296	0.0137852
683.374	0.0138273
683.453	0.0138842
683.531	0.0139483
683.609	0.0138466
683.687	0.0139049
683.765	0.0138115
683.843	0.0137523
683.921	0.0135810
683.999	0.0136406
684.078	0.0135488
684.156	0.0135717
684.234	0.0134766
684.312	0.0136282
684.390	0.0135565
684.468	0.0136559
684.546	0.0136053
684.624	0.0136653
684.703	0.0138120
684.781	0.0138435
684.859	0.0139030
684.937	0.0138619
685.015	0.0138694
685.093	0.0138779
685.171	0.0138210
685.249	0.0136938
685.328	0.0136024
685.406	0.0134620
685.484	0.0134002
685.562	0.0132079
685.640	0.0129467
685.718	0.0128445
685.796	0.0126348
685.874	0.0124406
685.953	0.0121094
686.031	0.0121597
686.109	0.0119361
686.187	0.0117482
686.265	0.0115514
686.343	0.0117371
686.421	0.0116756
686.499	0.0117489
686.578	0.0116970
686.656	0.0120176
686.734	0.0123180
686.812	0.0127374
686.890	0.0128889
686.968	0.0132598
687.046	0.0136213
687.124	0.0138210
687.203	0.0141601
687.281	0.0145250
687.359	0.0146995
687.437	0.0148514
687.515	0.0150563
687.593	0.0152759
687.671	0.0150678
687.749	0.0152315
687.828	0.0151589
687.906	0.0151075
687.984	0.0148119
688.062	0.0146465
688.140	0.0146893
688.218	0.0143548
688.296	0.0141221
688.374	0.0138459
688.453	0.0137258
688.531	0.0135442
688.609	0.0132524
688.687	0.0130605
688.765	0.0130450
688.843	0.0130630
688.921	0.0129977
688.999	0.0129958
689.078	0.0129855
689.156	0.0131671
689.234	0.0130799
689.312	0.0131148
689.390	0.0132639
689.468	0.0132529
689.546	0.0132521
689.624	0.0131386
689.703	0.0131162
689.781	0.0131757
689.859	0.0130228
689.937	0.0128973
690.015	0.0128596
690.093	0.0128293
690.171	0.0126048
690.249	0.0125891
690.328	0.0122166
690.406	0.0122862
690.484	0.0120634
690.562	0.0119207
690.640	0.0118123
690.718	0.0117870
690.796	0.0116251
690.874	0.0116557
690.953	0.0116478
691.031	0.0118121
691.109	0.0119184
691.187	0.0121775
691.265	0.0122452
691.343	0.0124610
691.421	0.0129551
691.499	0.0133819
691.578	0.0138440
691.656	0.0141338
691.734	0.0146230
691.812	0.0148167
691.890	0.0151390
691.968	0.0155141
692.046	0.0158898
692.124	0.0159606
692.203	0.0162106
692.281	0.0163139
692.359	0.0162783
692.437	0.0162239
692.515	0.0161376
692.593	0.0158836
692.671	0.0157085
692.749	0.0152740
692.828	0.0149252
692.906	0.0145454
692.984	0.0140638
693.062	0.0137341
693.140	0.0134774
693.218	0.0129318
693.296	0.0127415
693.374	0.0124709
693.453	0.0121576
693.531	0.0120768
693.609	0.0120901
693.687	0.0120348
693.765	0.0121074
693.843	0.0123029
693.921	0.0121495
693.999	0.0121920
694.078	0.0123031
694.156	0.0124326
694.234	0.0124568
694.312	0.0124275
694.390	0.0124286
694.468	0.0125794
694.546	0.0123609
694.624	0.0122865
694.703	0.0121514
694.781	0.0120161
694.859	0.0119093
694.937	0.0118562
695.015	0.0115992
695.093	0.0115908
695.171	0.0112995
695.249	0.0113821
695.328	0.0113179
695.406	0.0115200
695.484	0.0118094
695.562	0.0118733
695.640	0.0122567
695.718	0.0124998
695.796	0.0129408
695.874	0.0133447
695.953	0.0137849
696.031	0.0142039
696.109	0.0146638
696.187	0.0152543
696.265	0.0155869
696.343	0.0160300
696.421	0.0163676
696.499	0.0164809
696.578	0.0166605
696.656	0.0167476
696.734	0.0164301
696.812	0.0164785
696.890	0.0162920
696.968	0.0160325
697.046	0.0159131
697.124	0.0155160
697.203	0.0152113
697.281	0.0148084
697.359	0.0144606
697.437	0.0138432
697.515	0.0137181
697.593	0.0133434
697.671	0.0128756
697.749	0.0124567
697.828	0.0123811
697.906	0.0121975
697.984	0.0120454
698.062	0.0119752
698.140	0.0119210
698.218	0.0121327
698.296	0.0120493
698.374	0.0119589
698.453	0.0120085
698.531	0.0120542
698.609	0.0119346
698.687	0.0120992
698.765	0.0120033
698.843	0.0118736
698.921	0.0121828
698.999	0.0119716
699.078	0.0120174
699.156	0.0121650
699.234	0.0121479
699.312	0.0120710
699.390	0.0121297
699.468	0.0121640
699.546	0.0119254
699.624	0.0119771
699.703	0.0119296
699.781	0.0117595
699.859	0.0118343
699.937	0.0118221
700.015	0.0119353
700.093	0.0120271
700.171	0.0122358
700.249	0.0123788
700.328	0.0127132
700.406	0.0131406
700.484	0.0134443
700.562	0.0139529
700.640	0.0145479
700.718	0.0149210
700.796	0.0154616
700.874	0.0157111
700.953	0.0161933
701.031	0.0166208
701.109	0.0167897
701.187	0.0168811
701.265	0.0169559
701.343	0.0167177
701.421	0.0165816
701.499	0.0163413
701.578	0.0160759
701.656	0.0157824
701.734	0.0151312
701.812	0.0148680
701.890	0.0144029
701.968	0.0137988
702.046	0.0133363
702.124	0.0129571
702.203	0.0124573
702.281	0.0122838
702.359	0.0120270
702.437	0.0117144
702.515	0.0116924
702.593	0.0116548
702.671	0.0116058
702.749	0.0117450
702.828	0.0120068
702.906	0.0123018
702.984	0.0122537
703.062	0.0125192
703.140	0.0126588
703.218	0.0127703
703.296	0.0129498
703.374	0.0128472
703.453	0.0127845
703.531	0.0128932
703.609	0.0127585
703.687	0.0125609
703.765	0.0123427
703.843	0.0124438
703.921	0.0120850
703.999	0.0122268
704.078	0.0121062
704.156	0.0119276
704.234	0.0117920
704.312	0.0117760
704.390	0.0117365
704.468	0.0116848
704.546	0.0117269
704.624	0.0118717
704.703	0.0120094
704.781	0.0121772
704.859	0.0125135
704.937	0.0127373
705.015	0.0130508
705.093	0.0135778
705.171	0.0140150
705.249	0.0145126
705.328	0.0149590
705.406	0.0153503
705.484	0.0156451
705.562	0.0161414
705.640	0.0164433
705.718	0.0166590
705.796	0.0168095
705.874	0.0167876
705.953	0.0167629
706.031	0.0166284
706.109	0.0164613
706.187	0.0161841
706.265	0.0157866
706.343	0.0155013
706.421	0.0148405
706.499	0.0144142
706.578	0.0139056
706.656	0.0134579
706.734	0.0129875
706.812	0.0126223
706.890	0.0121648
706.968	0.0119839
707.046	0.0117889
707.124	0.0115942
707.203	0.0114823
707.281	0.0116111
707.359	0.0115582
707.437	0.0117095
707.515	0.0119322
707.593	0.0121395
707.671	0.0123410
707.749	0.0124847
707.828	0.0126853
707.906	0.0128297
707.984	0.0130592
708.062	0.0128782
708.140	0.0128236
708.218	0.0128825
708.296	0.0128823
708.374	0.0126370
708.453	0.0124955
708.531	0.0124104
708.609	0.0123582
708.687	0.0122736
708.765	0.0122121
708.843	0.0120589
708.921	0.0120789
708.999	0.0122239
709.078	0.0123512
709.156	0.0124535
709.234	0.0124026
709.312	0.0128114
709.390	0.0129771
709.468	0.0130396
709.546	0.0133945
709.624	0.0136415
709.703	0.0138763
709.781	0.0142252
709.859	0.0146129
709.937	0.0150365
710.015	0.0152020
710.093	0.0154556
710.171	0.0157752
710.249	0.0158901
710.328	0.0158649
710.406	0.0160574
710.484	0.0160011
710.562	0.0158270
710.640	0.0158295
710.718	0.0155823
710.796	0.0154034
710.874	0.0151698
710.953	0.0147860
711.031	0.0144737
711.109	0.0141023
711.187	0.0136943
711.265	0.0133444
711.343	0.0129506
711.421	0.0128408
711.499	0.0122788
711.578	0.0122078
711.656	0.0120308
711.734	0.0116789
711.812	0.0115482
711.890	0.0116269
711.968	0.0116536
712.046	0.0118877
712.124	0.0118031
712.203	0.0120085
712.281	0.0123157
712.359	0.0126922
712.437	0.0126911
712.515	0.0129718
712.593	0.0131274
712.671	0.0132321
712.749	0.0132539
712.828	0.0132236
712.906	0.0131599
712.984	0.0131091
713.062	0.0129146
713.140	0.0127245
713.218	0.0127422
713.296	0.0123396
713.374	0.0121400
713.453	0.0122952
713.531	0.0120148
713.609	0.0120227
713.687	0.0121836
713.765	0.0122697
713.843	0.0124512
713.921	0.0126104
713.999	0.0128933
714.078	0.0130816
714.156	0.0134364
714.234	0.0137175
714.312	0.0141061
714.390	0.0145324
714.468	0.0147010
714.546	0.0150956
714.624	0.0152595
714.703	0.0154572
714.781	0.0156778
714.859	0.0157356
714.937	0.0157907
715.015	0.0158246
715.093	0.0157121
715.171	0.0155458
715.249	0.0153113
715.328	0.0150211
715.406	0.0147607
715.484	0.0143368
715.562	0.0139542
715.640	0.0137360
715.718	0.0131908
715.796	0.0130035
715.874	0.0128087
715.953	0.0123263
716.031	0.0122840
716.109	0.0121593
716.187	0.0119049
716.265	0.0117146
716.343	0.0117150
716.421	0.0116713
716.499	0.0117159
716.578	0.0117374
716.656	0.0119511
716.734	0.0121769
716.812	0.0121824
716.890	0.0125865
716.968	0.0128803
717.046	0.0129713
717.124	0.0134123
717.203	0.0134689
717.281	0.0136416
717.359	0.0137670
717.437	0.0138435
717.515	0.0138412
717.593	0.0139028
717.671	0.0137695
717.749	0.0136567
717.828	0.0135798
717.906	0.0133273
717.984	0.0130537
718.062	0.0129598
718.140	0.0127245
718.218	0.0125559
718.296	0.0125217
718.374	0.0125557
718.453	0.0124775
718.531	0.0125246
718.609	0.0125713
718.687	0.0128169
718.765	0.0129462
718.843	0.0131119
718.921	0.0133767
718.999	0.0135452
719.078	0.0137765
719.156	0.0141676
719.234	0.0143931
719.312	0.0145983
719.390	0.0145747
719.468	0.0148920
719.546	0.0150025
719.624	0.0148463
719.703	0.0148238
719.781	0.0146943
719.859	0.0145125
719.937	0.0142923
720.015	0.0141441
720.093	0.0138474
720.171	0.0134233
720.249	0.0133082
720.328	0.0131525
720.406	0.0129364
720.484	0.0125363
720.562	0.0123822
720.640	0.0123152
720.718	0.0124338
720.796	0.0121542
720.874	0.0121082
720.953	0.0121053
721.031	0.0120473
721.109	0.0121944
721.187	0.0124275
721.265	0.0126293
721.343	0.0128423
721.421	0.0129932
721.499	0.0131380
721.578	0.0134251
721.656	0.0137247
721.734	0.0137813
721.812	0.0140277
721.890	0.0140390
721.968	0.0142902
722.046	0.0143093
722.124	0.0142879
722.203	0.0142366
722.281	0.0142147
722.359	0.0141358
722.437	0.0139602
722.515	0.0137019
722.593	0.0134580
722.671	0.0131403
722.749	0.0128706
722.828	0.0128720
722.906	0.0126471
722.984	0.0125191
723.062	0.0124538
723.140	0.0123927
723.218	0.0124558
723.296	0.0123952
723.374	0.0125694
723.453	0.0127083
723.531	0.0129763
723.609	0.0131213
723.687	0.0133631
723.765	0.0136569
723.843	0.0139126
723.921	0.0140478
723.999	0.0142783
724.078	0.0144101
724.156	0.0144382
724.234	0.0145038
724.312	0.0143696
724.390	0.0142436
724.468	0.0142570
724.546	0.0140636
724.624	0.0138383
724.703	0.0136173
724.781	0.0134099
724.859	0.0132648
724.937	0.0130666
725.015	0.0128723
725.093	0.0128500
725.171	0.0126775
725.249	0.0126534
725.328	0.0126347
725.406	0.0125346
725.484	0.0127066
725.562	0.0127579
725.640	0.0125946
725.718	0.0129588
725.796	0.0130338
725.874	0.0131775
725.953	0.0133560
726.031	0.0135793
726.109	0.0136996
726.187	0.0138801
726.265	0.0140354
726.343	0.0140426
726.421	0.0142355
726.499	0.0142079
726.578	0.0141248
726.656	0.0141728
726.734	0.0139795
726.812	0.0139084
726.890	0.0138605
726.968	0.0135588
727.046	0.0135080
727.124	0.0133720
727.203	0.0131788
727.281	0.0128761
727.359	0.0128139
727.437	0.0127899
727.515	0.0126151
727.593	0.0126258
727.671	0.0126710
727.749	0.0126125
727.828	0.0127236
727.906	0.0128133
727.984	0.0129964
728.062	0.0130663
728.140	0.0132467
728.218	0.0134278
728.296	0.0134023
728.374	0.0136359
728.453	0.0138234
728.531	0.0139741
728.609	0.0139262
728.687	0.0140695
728.765	0.0141518
728.843	0.0141454
728.921	0.0141479
728.999	0.0140654
729.078	0.0138944
729.156	0.0140041
729.234	0.0139061
729.312	0.0137897
729.390	0.0135712
729.468	0.0134668
729.546	0.0132985
729.624	0.0133727
729.703	0.0131856
729.781	0.0129347
729.859	0.0130477
729.937	0.0130103
730.015	0.0127785
730.093	0.0128404
730.171	0.0127966
730.249	0.0127556
730.328	0.0127436
730.406	0.0129230
730.484	0.0129997
730.562	0.0130463
730.640	0.0130414
730.718	0.0131985
730.796	0.0131744
730.874	0.0133337
730.953	0.0134910
731.031	0.0136185
731.109	0.0137845
731.187	0.0136434
731.265	0.0138647
731.343	0.0136630
731.421	0.0137626
731.499	0.0137224
731.578	0.0136584
731.656	0.0135847
731.734	0.0134532
731.812	0.0133308
731.890	0.0132671
731.968	0.0131475
732.046	0.0130457
732.124	0.0128628
732.203	0.0129921
732.281	0.0129835
732.359	0.0129584
732.437	0.0129977
732.515	0.0129810
732.593	0.0131818
732.671	0.0132820
732.749	0.0133305
732.828	0.0133706
732.906	0.0135165
732.984	0.0136336
733.062	0.0137630
733.140	0.0139715
733.218	0.0141005
733.296	0.0140511
733.374	0.0141815
733.453	0.0140836
733.531	0.0141859
733.609	0.0140711
733.687	0.0139827
733.765	0.0140671
733.843	0.0139656
733.921	0.0139883
733.999	0.0138238
734.078	0.0136336
734.156	0.0135027
734.234	0.0133750
734.312	0.0133198
734.390	0.0132356
734.468	0.0129552
734.546	0.0129456
734.624	0.0129008
734.703	0.0127252
734.781	0.0126322
734.859	0.0126833
734.937	0.0127670
735.015	0.0126474
735.093	0.0127664
735.171	0.0129000
735.249	0.0129362
735.328	0.0132373
735.406	0.0131350
735.484	0.0131933
735.562	0.0133575
735.640	0.0134293
735.718	0.0135607
735.796	0.0137004
735.874	0.0137495
735.953	0.0136238
736.031	0.0137223
736.109	0.0136382
736.187	0.0135421
736.265	0.0135314
736.343	0.0134660
736.421	0.0133504
736.499	0.0133875
736.578	0.0132613
736.656	0.0132338
736.734	0.0132921
736.812	0.0132550
736.890	0.0132706
736.968	0.0132121
737.046	0.0131764
737.124	0.0133254
737.203	0.0132922
737.281	0.0133253
737.359	0.0134431
737.437	0.0135474
737.515	0.0135529
737.593	0.0136682
737.671	0.0136126
737.749	0.0135814
737.828	0.0137500
737.906	0.0138947
737.984	0.0139537
738.062	0.0139424
738.140	0.0138937
738.218	0.0138813
738.296	0.0138462
738.374	0.0139481
738.453	0.0137867
738.531	0.0137825
738.609	0.0137683
738.687	0.0135281
738.765	0.0134778
738.843	0.0133986
738.921	0.0132206
738.999	0.0131652
739.078	0.0130283
739.156	0.0128723
739.234	0.0130544
739.312	0.0130592
739.390	0.0128939
739.468	0.0128069
739.546	0.0128374
739.624	0.0129568
739.703	0.0128915
739.781	0.0129438
739.859	0.0131432
739.937	0.0131781
740.015	0.0131785
740.093	0.0133573
740.171	0.0134960
740.249	0.0135731
740.328	0.0135762
740.406	0.0135229
740.484	0.0135960
740.562	0.0136496
740.640	0.0136257
740.718	0.0136266
740.796	0.0135263
740.874	0.0135141
740.953	0.0134074
741.031	0.0133733
741.109	0.0132127
741.187	0.0131358
741.265	0.0132536
741.343	0.0133179
741.421	0.0132787
741.499	0.0131783
741.578	0.0132083
741.656	0.0132491
741.734	0.0132856
741.812	0.0132049
741.890	0.0131746
741.968	0.0132873
742.046	0.0133887
742.124	0.0133205
742.203	0.0134143
742.281	0.0133401
742.359	0.0134290
742.437	0.0133969
742.515	0.0134882
742.593	0.0133784
742.671	0.0136095
742.749	0.0134890
742.828	0.0135828
742.906	0.0137352
742.984	0.0137273
743.062	0.0135892
743.140	0.0136393
743.218	0.0133466
743.296	0.0134615
743.374	0.0134177
743.453	0.0133742
743.531	0.0131461
743.609	0.0132050
743.687	0.0131628
743.765	0.0130801
743.843	0.0130366
743.921	0.0129222
743.999	0.0128649
744.078	0.0128065
744.156	0.0128174
744.234	0.0129765
744.312	0.0131924
744.390	0.0131953
744.468	0.0130941
744.546	0.0132479
744.624	0.0132207
744.703	0.0133147
744.781	0.0135402
744.859	0.0135986
744.937	0.0137210
745.015	0.0136627
745.093	0.0135790
745.171	0.0136346
745.249	0.0136416
745.328	0.0136743
745.406	0.0136082
745.484	0.0135464
745.562	0.0135018
745.640	0.0135166
745.718	0.0133819
745.796	0.0131457
745.874	0.0133296
745.953	0.0132354
746.031	0.0131325
746.109	0.0131328
746.187	0.0130935
746.265	0.0131691
746.343	0.0132823
746.421	0.0132561
746.499	0.0131263
746.578	0.0132141
746.656	0.0132524
746.734	0.0133002
746.812	0.0131308
746.890	0.0133113
746.968	0.0132954
747.046	0.0134727
747.124	0.0133778
747.203	0.0135264
747.281	0.0134453
747.359	0.0133535
747.437	0.0134167
747.515	0.0133981
747.593	0.0134927
747.671	0.0135709
747.749	0.0135431
747.828	0.0134522
747.906	0.0135009
747.984	0.0133385
748.062	0.0132870
748.140	0.0132552
748.218	0.0132020
748.296	0.0132162
748.374	0.0131826
748.453	0.0131110
748.531	0.0130589
748.609	0.0130565
748.687	0.0131567
748.765	0.0130933
748.843	0.0130848
748.921	0.0132040
748.999	0.0130360
749.078	0.0131751
749.156	0.0132362
749.234	0.0133156
749.312	0.0133252
749.390	0.0133068
749.468	0.0134996
749.546	0.0135860
749.624	0.0135880
749.703	0.0135885
749.781	0.0135117
749.859	0.0134995
749.937	0.0134770
750.015	0.0135062
750.093	0.0135113
750.171	0.0134342
750.249	0.0133870
750.328	0.0134361
750.406	0.0133801
750.484	0.0134834
750.562	0.0133407
750.640	0.0132938
750.718	0.0133957
750.796	0.0133486
750.874	0.0133565
750.953	0.0132454
751.031	0.0132175
751.109	0.0131932
751.187	0.0133148
751.265	0.0131610
751.343	0.0133295
751.421	0.0133439
751.499	0.0131882
751.578	0.0133311
751.656	0.0133154
751.734	0.0133562
751.812	0.0132523
751.890	0.0132481
751.968	0.0132146
752.046	0.0134449
752.124	0.0134415
752.203	0.0135033
752.281	0.0134036
752.359	0.0134947
752.437	0.0134515
752.515	0.0133493
752.593	0.0135058
752.671	0.0134615
752.749	0.0133437
752.828	0.0134122
752.906	0.0133124
752.984	0.0133210
753.062	0.0132154
753.140	0.0133276
753.218	0.0134260
753.296	0.0131806
753.374	0.0131669
753.453	0.0133051
753.531	0.0132709
753.609	0.0133501
753.687	0.0133247
753.765	0.0133857
753.843	0.0135518
753.921	0.0134964
753.999	0.0134811
754.078	0.0136005
754.156	0.0135300
754.234	0.0134368
754.312	0.0135969
754.390	0.0136139
754.468	0.0134917
754.546	0.0133306
754.624	0.0133082
754.703	0.0134808
754.781	0.0132147
754.859	0.0132790
754.937	0.0131342
755.015	0.0132674
755.093	0.0132937
755.171	0.0131625
755.249	0.0131689
755.328	0.0133454
755.406	0.0133571
755.484	0.0131895
755.562	0.0133004
755.640	0.0133572
755.718	0.0133875
755.796	0.0134306
755.874	0.0133477
755.953	0.0133915
756.031	0.0133775
756.109	0.0134808
756.187	0.0135261
756.265	0.0134040
756.343	0.0136177
756.421	0.0134599
756.499	0.0134854
756.578	0.0134036
756.656	0.0134389
756.734	0.0136926
756.812	0.0136308
756.890	0.0135593
756.968	0.0135001
757.046	0.0135088
757.124	0.0135001
757.203	0.0134030
757.281	0.0133972
757.359	0.0133740
757.437	0.0132812
757.515	0.0131985
757.593	0.0132692
757.671	0.0132102
757.749	0.0132415
757.828	0.0132916
757.906	0.0133045
757.984	0.0132580
758.062	0.0132837
758.140	0.0134958
758.218	0.0133938
758.296	0.0134403
758.374	0.0134417
758.453	0.0136101
758.531	0.0137449
758.609	0.0136701
758.687	0.0135844
758.765	0.0135221
758.843	0.0135413
758.921	0.0135174
758.999	0.0134265
759.078	0.0134223
759.156	0.0135043
759.234	0.0134029
759.312	0.0134579
759.390	0.0134332
759.468	0.0134531
759.546	0.0134760
759.624	0.0134868
759.703	0.0133392
759.781	0.0133956
759.859	0.0135262
759.937	0.0134085
760.015	0.0133191
760.093	0.0133955
760.171	0.0132280
760.249	0.0134684
760.328	0.0133864
760.406	0.0133511
760.484	0.0134114
760.562	0.0131714
760.640	0.0133230
760.718	0.0134460
760.796	0.0133535
760.874	0.0133887
760.953	0.0135026
761.031	0.0136363
761.109	0.0134138
761.187	0.0134621
761.265	0.0134667
761.343	0.0134512
761.421	0.0134727
761.499	0.0134514
761.578	0.0133569
761.656	0.0134010
761.734	0.0132294
761.812	0.0132856
761.890	0.0135209
761.968	0.0133021
762.046	0.0132013
762.124	0.0132773
762.203	0.0132151
762.281	0.0133492
762.359	0.0132546
762.437	0.0133636
762.515	0.0134612
762.593	0.0134452
762.671	0.0134002
762.749	0.0132726
762.828	0.0132856
762.906	0.0133302
762.984	0.0133316
763.062	0.0134445
763.140	0.0132845
763.218	0.0133515
763.296	0.0133276
763.374	0.0132401
763.453	0.0132275
763.531	0.0132994
763.609	0.0132990
763.687	0.0130093
763.765	0.0133370
763.843	0.0134369
763.921	0.0134619
763.999	0.0133909
764.078	0.0134532
764.156	0.0134553
764.234	0.0134763
764.312	0.0134347
764.390	0.0133833
764.468	0.0133219
764.546	0.0133717
764.624	0.0133778
764.703	0.0132269
764.781	0.0132074
764.859	0.0132339
764.937	0.0132467
765.015	0.0133869
765.093	0.0133921
765.171	0.0134716
765.249	0.0134094
765.328	0.0134846
765.406	0.0135541
765.484	0.0135510
765.562	0.0134799
765.640	0.0134695
765.718	0.0132896
765.796	0.0132710
765.874	0.0130956
765.953	0.0131468
766.031	0.0130784
766.109	0.0130582
766.187	0.0130675
766.265	0.0130305
766.343	0.0130944
766.421	0.0132092
766.499	0.0132204
766.578	0.0132738
766.656	0.0133373
766.734	0.0134201
766.812	0.0135308
766.890	0.0134103
766.968	0.0136625
767.046	0.0136066
767.124	0.0136813
767.203	0.0136443
767.281	0.0135699
767.359	0.0136102
767.437	0.0134950
767.515	0.0133968
767.593	0.0134286
767.671	0.0133310
767.749	0.0135608
767.828	0.0134981
767.906	0.0133553
767.984	0.0134335
768.062	0.0133389
768.140	0.0133060
768.218	0.0135039
768.296	0.0134632
768.374	0.0134736
768.453	0.0135181
768.531	0.0135287
768.609	0.0133031
768.687	0.0132162
768.765	0.0132705
768.843	0.0132993
768.921	0.0131123
768.999	0.0130494
769.078	0.0130430
769.156	0.0131065
769.234	0.0131850
769.312	0.0131449
769.390	0.0131503
769.468	0.0132616
769.546	0.0134042
769.624	0.0135214
769.703	0.0133543
769.781	0.0135571
769.859	0.0135494
769.937	0.0136153
770.015	0.0135526
770.093	0.0135020
770.171	0.0135353
770.249	0.0133530
770.328	0.0132864
770.406	0.0133035
770.484	0.0131631
770.562	0.0132819
770.640	0.0133353
770.718	0.0131192
770.796	0.0131741
770.874	0.0133427
770.953	0.0132844
771.031	0.0133612
771.109	0.0133559
771.187	0.0134580
771.265	0.0135625
771.343	0.0135133
771.421	0.0134730
771.499	0.0136192
771.578	0.0135321
771.656	0.0134405
771.734	0.0133958
771.812	0.0133797
771.890	0.0134171
771.968	0.0132453
772.046	0.0132285
772.124	0.0133382
772.203	0.0132358
772.281	0.0131576
772.359	0.0133857
772.437	0.0133060
772.515	0.0133388
772.593	0.0134672
772.671	0.0135212
772.749	0.0134898
772.828	0.0135481
772.906	0.0134799
772.984	0.0136371
773.062	0.0135523
773.140	0.0135615
773.218	0.0134265
773.296	0.0134508
773.374	0.0133736
773.453	0.0133421
773.531	0.0131773
773.609	0.0131703
773.687	0.0130990
773.765	0.0131861
773.843	0.0131934
773.921	0.0131281
773.999	0.0132613
774.078	0.0132962
774.156	0.0133495
774.234	0.0134235
774.312	0.0132748
774.390	0.0135041
774.468	0.0135397
774.546	0.0136068
774.624	0.0134443
774.703	0.0134251
774.781	0.0133334
774.859	0.0132058
774.937	0.0131904
775.015	0.0131572
775.093	0.0131744
775.171	0.0131586
775.249	0.0133675
775.328	0.0132790
775.406	0.0133330
775.484	0.0134472
775.562	0.0134084
775.640	0.0135730
775.718	0.0136125
775.796	0.0137423
775.874	0.0137921
775.953	0.0136871
776.031	0.0136256
776.109	0.0135782
776.187	0.0135256
776.265	0.0135300
776.343	0.0135532
776.421	0.0133871
776.499	0.0132868
776.578	0.0133746
776.656	0.0133018
776.734	0.0131328
776.812	0.0130712
776.890	0.0132665
776.968	0.0131969
777.046	0.0130568
777.124	0.0132598
777.203	0.0131488
777.281	0.0131540
777.359	0.0132102
777.437	0.0133738
777.515	0.0132993
777.593	0.0133568
777.671	0.0131592
777.749	0.0132048
777.828	0.0131927
777.906	0.0131302
777.984	0.0130499
778.062	0.0130348
778.140	0.0129888
778.218	0.0129967
778.296	0.0131131
778.374	0.0131860
778.453	0.0133351
778.531	0.0131239
778.609	0.0134576
778.687	0.0135525
778.765	0.0134332
778.843	0.0136304
778.921	0.0137392
778.999	0.0138512
779.078	0.0137705
779.156	0.0135880
779.234	0.0136758
779.312	0.0135884
779.390	0.0135172
779.468	0.0135275
779.546	0.0134430
779.624	0.0133908
779.703	0.0132076
779.781	0.0133015
779.859	0.0133225
779.937	0.0133286
780.015	0.0132314
780.093	0.0132967
780.171	0.0134404
780.249	0.0134291
780.328	0.0134277
780.406	0.0136059
780.484	0.0134897
780.562	0.0134322
780.640	0.0135178
780.718	0.0135113
780.796	0.0136803
780.874	0.0136326
780.953	0.0134277
781.031	0.0132402
781.109	0.0133929
781.187	0.0133898
781.265	0.0132152
781.343	0.0132224
781.421	0.0133913
781.499	0.0132733
781.578	0.0131956
781.656	0.0132836
781.734	0.0133856
781.812	0.0132617
781.890	0.0130722
781.968	0.0135381
782.046	0.0134230
782.124	0.0132563
782.203	0.0133589
782.281	0.0132981
782.359	0.0133696
782.437	0.0132781
782.515	0.0132526
782.593	0.0131812
782.671	0.0131486
782.749	0.0131986
782.828	0.0131858
782.906	0.0130544
782.984	0.0131506
783.062	0.0131305
783.140	0.0132051
783.218	0.0132073
783.296	0.0132959
783.374	0.0132974
783.453	0.0137002
783.531	0.0135425
783.609	0.0134531
783.687	0.0136064
783.765	0.0134888
783.843	0.0136719
783.921	0.0136930
783.999	0.0135921
784.078	0.0135810
784.156	0.0134981
784.234	0.0136818
784.312	0.0134714
784.390	0.0136046
784.468	0.0134658
784.546	0.0135231
784.624	0.0136303
784.703	0.0135895
784.781	0.0135680
784.859	0.0136138
784.937	0.0134652
785.015	0.0135703
785.093	0.0136289
785.171	0.0135450
785.249	0.0135270
785.328	0.0134388
785.406	0.0134759
785.484	0.0133490
785.562	0.0131898
785.640	0.0133159
785.718	0.0132955
785.796	0.0131790
785.874	0.0130240
785.953	0.0129948
786.031	0.0131487
786.109	0.0131940
786.187	0.0131300
786.265	0.0132381
786.343	0.0132953
786.421	0.0132768
786.499	0.0132890
786.578	0.0133785
786.656	0.0132905
786.734	0.0133968
786.812	0.0133713
786.890	0.0133981
786.968	0.0134978
787.046	0.0133589
787.124	0.0134383
787.203	0.0134214
787.281	0.0134000
787.359	0.0134175
787.437	0.0134116
787.515	0.0133315
787.593	0.0134475
787.671	0.0133306
787.749	0.0133465
787.828	0.0135020
787.906	0.0134518
787.984	0.0134570
788.062	0.0135371
788.140	0.0135970
788.218	0.0136069
788.296	0.0135728
788.374	0.0137128
788.453	0.0137778
788.531	0.0135069
788.609	0.0134959
788.687	0.0135622
788.765	0.0135625
788.843	0.0134295
788.921	0.0134471
788.999	0.0135308
789.078	0.0134017
789.156	0.0133912
789.234	0.0134604
789.312	0.0134478
789.390	0.0134126
789.468	0.0134882
789.546	0.0134658
789.624	0.0133626
789.703	0.0137357
789.781	0.0135277
789.859	0.0135041
789.937	0.0134829
790.015	0.0133310
790.093	0.0133298
790.171	0.0134904
790.249	0.0134510
790.328	0.0132374
790.406	0.0133745
790.484	0.0132253
790.562	0.0132081
790.640	0.0132561
790.718	0.0131954
790.796	0.0131557
790.874	0.0132043
790.953	0.0131341
791.031	0.0132024
791.109	0.0131947
791.187	0.0132715
791.265	0.0133509
791.343	0.0133498
791.421	0.0132650
791.499	0.0132470
791.578	0.0131689
791.656	0.0133344
791.734	0.0131640
791.812	0.0131215
791.890	0.0133665
791.968	0.0131982
792.046	0.0133385
792.124	0.0133916
792.203	0.0134090
792.281	0.0134616
792.359	0.0134325
792.437	0.0135452
792.515	0.0134207
792.593	0.0134501
792.671	0.0134032
792.749	0.0135603
792.828	0.0136457
792.906	0.0135106
792.984	0.0136435
793.062	0.0136185
793.140	0.0136104
793.218	0.0137698
793.296	0.0137877
793.374	0.0136338
793.453	0.0137927
793.531	0.0137314
793.609	0.0135741
793.687	0.0136005
793.765	0.0137154
793.843	0.0137149
793.921	0.0135691
793.999	0.0134801
794.078	0.0135905
794.156	0.0134047
794.234	0.0133668
794.312	0.0133810
794.390	0.0133673
794.468	0.0132407
794.546	0.0131686
794.624	0.0131541
794.703	0.0131459
794.781	0.0131255
794.859	0.0131694
794.937	0.0129727
795.015	0.0130923
795.093	0.0129897
795.171	0.0131506
795.249	0.0131789
795.328	0.0131873
795.406	0.0131640
795.484	0.0132019
795.562	0.0133694
795.640	0.0132732
795.718	0.0134025
795.796	0.0131996
795.874	0.0132640
795.953	0.0132525
796.031	0.0132452
796.109	0.0131614
796.187	0.0133413
796.265	0.0132556
796.343	0.0133097
796.421	0.0133417
796.499	0.0133192
796.578	0.0134013
796.656	0.0132613
796.734	0.0133021
796.812	0.0134619
796.890	0.0132964
796.968	0.0133881
797.046	0.0133862
797.124	0.0135812
797.203	0.0135681
797.281	0.0136165
797.359	0.0136591
797.437	0.0136893
797.515	0.0136730
797.593	0.0137424
797.671	0.0137914
797.749	0.0136897
797.828	0.0137195
797.906	0.0137382
797.984	0.0138135
798.062	0.0137031
798.140	0.0135989
798.218	0.0136774
798.296	0.0136749
798.374	0.0136890
798.453	0.0136935
798.531	0.0135785
798.609	0.0136217
798.687	0.0135389
798.765	0.0135762
798.843	0.0135246
798.921	0.0134699
798.999	0.0133842
799.078	0.0134464
799.156	0.0134957
799.234	0.0134159
799.312	0.0133803
799.390	0.0131609
799.468	0.0132295
799.546	0.0132769
799.624	0.0133136
799.703	0.0132446
799.781	0.0132087
799.859	0.0132879
799.937	0.0133190
800.015	0.0131281
800.093	0.0131010
800.171	0.0131846
800.249	0.0132567
800.328	0.0131947
800.406	0.0131775
800.484	0.0132220
800.562	0.0131692
800.640	0.0131043
800.718	0.0132304
800.796	0.0131782
800.874	0.0132263
800.953	0.0131171
801.031	0.0131505
801.109	0.0132135
801.187	0.0133497
801.265	0.0133374
801.343	0.0132934
801.421	0.0132454
801.499	0.0133862
801.578	0.0132336
801.656	0.0134013
801.734	0.0133658
801.812	0.0133783
801.890	0.0135190
801.968	0.0134908
802.046	0.0135907
802.124	0.0136586
802.203	0.0135799
802.281	0.0137054
802.359	0.0137167
802.437	0.0136154
802.515	0.0137646
802.593	0.0139282
802.671	0.0138506
802.749	0.0138323
802.828	0.0138232
802.906	0.0138019
802.984	0.0138223
803.062	0.0137684
803.140	0.0136610
803.218	0.0135043
803.296	0.0134540
803.374	0.0134780
803.453	0.0134447
803.531	0.0133023
803.609	0.0133080
803.687	0.0132748
803.765	0.0132678
803.843	0.0131413
803.921	0.0131445
803.999	0.0130959
804.078	0.0131103
804.156	0.0132050
804.234	0.0131145
804.312	0.0132355
804.390	0.0130554
804.468	0.0132102
804.546	0.0133118
804.624	0.0133585
804.703	0.0133255
804.781	0.0133517
804.859	0.0133923
804.937	0.0132613
805.015	0.0131878
805.093	0.0133018
805.171	0.0133813
805.249	0.0133847
805.328	0.0132231
805.406	0.0132489
805.484	0.0131869
805.562	0.0131712
805.640	0.0132065
805.718	0.0132484
805.796	0.0131534
805.874	0.0131055
805.953	0.0132964
806.031	0.0133282
806.109	0.0131978
806.187	0.0131970
806.265	0.0134615
806.343	0.0133209
806.421	0.0134945
806.499	0.0134835
806.578	0.0134902
806.656	0.0135358
806.734	0.0138737
806.812	0.0137491
806.890	0.0136816
806.968	0.0138580
807.046	0.0138190
807.124	0.0139369
807.203	0.0140458
807.281	0.0138612
807.359	0.0138917
807.437	0.0139194
807.515	0.0139736
807.593	0.0137223
807.671	0.0136956
807.749	0.0135200
807.828	0.0135482
807.906	0.0135229
807.984	0.0134299
808.062	0.0133105
808.140	0.0134013
808.218	0.0131750
808.296	0.0131344
808.374	0.0130682
808.453	0.0132951
808.531	0.0132234
808.609	0.0131498
808.687	0.0131866
808.765	0.0132629
808.843	0.0132644
808.921	0.0131724
808.999	0.0132286
809.078	0.0131434
809.156	0.0133704
809.234	0.0134184
809.312	0.0132027
809.390	0.0134106
809.468	0.0135108
809.546	0.0134370
809.624	0.0132237
809.703	0.0133415
809.781	0.0133850
809.859	0.0134034
809.937	0.0133923
810.015	0.0134191
810.093	0.0132935
810.171	0.0132575
810.249	0.0132269
810.328	0.0134438
810.406	0.0134377
810.484	0.0135072
810.562	0.0133694
810.640	0.0134315
810.718	0.0135229
810.796	0.0135326
810.874	0.0134853
810.953	0.0135321
811.031	0.0136153
811.109	0.0136684
811.187	0.0137615
811.265	0.0136723
811.343	0.0136069
811.421	0.0137690
811.499	0.0136884
811.578	0.0136227
811.656	0.0136501
811.734	0.0135747
811.812	0.0135889
811.890	0.0136134
811.968	0.0134912
812.046	0.0134925
812.124	0.0135796
812.203	0.0133678
812.281	0.0133389
812.359	0.0133604
812.437	0.0133666
812.515	0.0133384
812.593	0.0132806
812.671	0.0132226
812.749	0.0133536
812.828	0.0132549
812.906	0.0133631
812.984	0.0132891
813.062	0.0132864
813.140	0.0133427
813.218	0.0133793
813.296	0.0132729
813.374	0.0133334
813.453	0.0133562
813.531	0.0132684
813.609	0.0135659
813.687	0.0133757
813.765	0.0133845
813.843	0.0134319
813.921	0.0134586
813.999	0.0133253
814.078	0.0134856
814.156	0.0134668
814.234	0.0133981
814.312	0.0133140
814.390	0.0134561
814.468	0.0131699
814.546	0.0133566
814.624	0.0133525
814.703	0.0133173
814.781	0.0134197
814.859	0.0133231
814.937	0.0133511
815.015	0.0132149
815.093	0.0133595
815.171	0.0132870
815.249	0.0133640
815.328	0.0133597
815.406	0.0133582
815.484	0.0135621
815.562	0.0134397
815.640	0.0134958
815.718	0.0136479
815.796	0.0135611
815.874	0.0135473
815.953	0.0135555
816.031	0.0136335
816.109	0.0136201
816.187	0.0137310
816.265	0.0134351
816.343	0.0136310
816.421	0.0135738
816.499	0.0133962
816.578	0.0132926
816.656	0.0133276
816.734	0.0133907
816.812	0.0134109
816.890	0.0132883
816.968	0.0131593
817.046	0.0132250
817.124	0.0133374
817.203	0.0131512
817.281	0.0132414
817.359	0.0131802
817.437	0.0133997
817.515	0.0134305
817.593	0.0132672
817.671	0.0132073
817.749	0.0134094
817.828	0.0133546
817.906	0.0133234
817.984	0.0134100
818.062	0.0134132
818.140	0.0134544
818.218	0.0133801
818.296	0.0134488
818.374	0.0133715
818.453	0.0134967
818.531	0.0132304
818.609	0.0133386
818.687	0.0134380
818.765	0.0134338
818.843	0.0133614
818.921	0.0133826
818.999	0.0134503
819.078	0.0133266
819.156	0.0133885
819.234	0.0132994
819.312	0.0132706
819.390	0.0132861
819.468	0.0132584
819.546	0.0133012
819.624	0.0133669
819.703	0.0133698
819.781	0.0133852
819.859	0.0133690
819.937	0.0133501
820.015	0.0132816
820.093	0.0132084
820.171	0.0132436
820.249	0.0133192
820.328	0.0132980
820.406	0.0132780
820.484	0.0134829
820.562	0.0132320
820.640	0.0133569
820.718	0.0133307
820.796	0.0132570
820.874	0.0133951
820.953	0.0134542
821.031	0.0132973
821.109	0.0133421
821.187	0.0133987
821.265	0.0133439
821.343	0.0134158
821.421	0.0134522
821.499	0.0133284
821.578	0.0133665
821.656	0.0133472
821.734	0.0134994
821.812	0.0132747
821.890	0.0132591
821.968	0.0133345
822.046	0.0133464
822.124	0.0133006
822.203	0.0134449
822.281	0.0133629
822.359	0.0133986
822.437	0.0135656
822.515	0.0134520
822.593	0.0133998
822.671	0.0133629
822.749	0.0134274
822.828	0.0133784
822.906	0.0134747
822.984	0.0136074
823.062	0.0134321
823.140	0.0134579
823.218	0.0134595
823.296	0.0133445
823.374	0.0132426
823.453	0.0134561
823.531	0.0133771
823.609	0.0132600
823.687	0.0132747
823.765	0.0134239
823.843	0.0133119
823.921	0.0133802
823.999	0.0133785
824.078	0.0133720
824.156	0.0132927
824.234	0.0133634
824.312	0.0133290
824.390	0.0131858
824.468	0.0132878
824.546	0.0133118
824.624	0.0132118
824.703	0.0134203
824.781	0.0134261
824.859	0.0133943
824.937	0.0133821
825.015	0.0133556
825.093	0.0134315
825.171	0.0133759
825.249	0.0134608
825.328	0.0134989
825.406	0.0133321
825.484	0.0132941
825.562	0.0132582
825.640	0.0132529
825.718	0.0132509
825.796	0.0133376
825.874	0.0132999
825.953	0.0132250
826.031	0.0131364
826.109	0.0132256
826.187	0.0131612
826.265	0.0132242
826.343	0.0132001
826.421	0.0132923
826.499	0.0133086
826.578	0.0132133
826.656	0.0131523
826.734	0.0132647
826.812	0.0132973
826.890	0.0133844
826.968	0.0133794
827.046	0.0132627
827.124	0.0133064
827.203	0.0132851
827.281	0.0133289
827.359	0.0133452
827.437	0.0134146
827.515	0.0133742
827.593	0.0133848
827.671	0.0133557
827.749	0.0134151
827.828	0.0134147
827.906	0.0133711
827.984	0.0134356
828.062	0.0133178
828.140	0.0132813
828.218	0.0133475
828.296	0.0135293
828.374	0.0134064
828.453	0.0133422
828.531	0.0133839
828.609	0.0133018
828.687	0.0134610
828.765	0.0132840
828.843	0.0133157
828.921	0.0134623
828.999	0.0133157
829.078	0.0132505
829.156	0.0132918
829.234	0.0131049
829.312	0.0133674
829.390	0.0134272
829.468	0.0132922
829.546	0.0133691
829.624	0.0132658
829.703	0.0133218
829.781	0.0134574
829.859	0.0134143
829.937	0.0133404
830.015	0.0134428
830.093	0.0134312
830.171	0.0134219
830.249	0.0133907
830.328	0.0134290
830.406	0.0134750
830.484	0.0135735
830.562	0.0134666
830.640	0.0134826
830.718	0.0135256
830.796	0.0133125
830.874	0.0134463
830.953	0.0133684
831.031	0.0134590
831.109	0.0133070
831.187	0.0134352
831.265	0.0132963
831.343	0.0131552
831.421	0.0133044
831.499	0.0131818
831.578	0.0132636
831.656	0.0131725
831.734	0.0132427
831.812	0.0131148
831.890	0.0131979
831.968	0.0130731
832.046	0.0132288
832.124	0.0132141
832.203	0.0132323
832.281	0.0131181
832.359	0.0132212
832.437	0.0134591
832.515	0.0132439
832.593	0.0134878
832.671	0.0133771
832.749	0.0133323
832.828	0.0133788
832.906	0.0133852
832.984	0.0135086
833.062	0.0134252
833.140	0.0133643
833.218	0.0136102
833.296	0.0134734
833.374	0.0133622
833.453	0.0134056
833.531	0.0135073
833.609	0.0134930
833.687	0.0134843
833.765	0.0133926
833.843	0.0133515
833.921	0.0132733
833.999	0.0133654
834.078	0.0133093
834.156	0.0133360
834.234	0.0131519
834.312	0.0133010
834.390	0.0134173
834.468	0.0134075
834.546	0.0134133
834.624	0.0134977
834.703	0.0135208
834.781	0.0135476
834.859	0.0133211
834.937	0.0134506
835.015	0.0136638
835.093	0.0136591
835.171	0.0134621
835.249	0.0133766
835.328	0.0134003
835.406	0.0135681
835.484	0.0134698
835.562	0.0134498
835.640	0.0132881
835.718	0.0133301
835.796	0.0133252
835.874	0.0132612
835.953	0.0132030
836.031	0.0131294
836.109	0.0132854
836.187	0.0131899
836.265	0.0133099
836.343	0.0133228
836.421	0.0131870
836.499	0.0132690
836.578	0.0133521
836.656	0.0134103
836.734	0.0132833
836.812	0.0132033
836.890	0.0132931
836.968	0.0134363
837.046	0.0134435
837.124	0.0133070
837.203	0.0133475
837.281	0.0134946
837.359	0.0134299
837.437	0.0133730
837.515	0.0133407
837.593	0.0133809
837.671	0.0134439
837.749	0.0133152
837.828	0.0133647
837.906	0.0132814
837.984	0.0133757
838.062	0.0133607
838.140	0.0133286
838.218	0.0135427
838.296	0.0135990
838.374	0.0135024
838.453	0.0134898
838.531	0.0134716
838.609	0.0135191
838.687	0.0135461
838.765	0.0135838
838.843	0.0135661
838.921	0.0136169
838.999	0.0135168
839.078	0.0135576
839.156	0.0135256
839.234	0.0135368
839.312	0.0137045
839.390	0.0136331
839.468	0.0135627
839.546	0.0134980
839.624	0.0133716
839.703	0.0135110
839.781	0.0133971
839.859	0.0134630
839.937	0.0134278
840.015	0.0133752
840.093	0.0133695
840.171	0.0133161
840.249	0.0133444
840.328	0.0133645
840.406	0.0132719
840.484	0.0132808
840.562	0.0132753
840.640	0.0134021
840.718	0.0133699
840.796	0.0134240
840.874	0.0133138
840.953	0.0131177
841.031	0.0133543
841.109	0.0134834
841.187	0.0133102
841.265	0.0132321
841.343	0.0134113
841.421	0.0134951
841.499	0.0133661
841.578	0.0132621
841.656	0.0133566
841.734	0.0131900
841.812	0.0133418
841.890	0.0132527
841.968	0.0132672
842.046	0.0133297
842.124	0.0132186
842.203	0.0130988
842.281	0.0132098
842.359	0.0132232
842.437	0.0131904
842.515	0.0132789
842.593	0.0133067
842.671	0.0132705
842.749	0.0132462
842.828	0.0133618
842.906	0.0133421
842.984	0.0133569
843.062	0.0134229
843.140	0.0131886
843.218	0.0133376
843.296	0.0132132
843.374	0.0133749
843.453	0.0134508
843.531	0.0135592
843.609	0.0134444
843.687	0.0135229
843.765	0.0134931
843.843	0.0134274
843.921	0.0133862
843.999	0.0132475
844.078	0.0133404
844.156	0.0133055
844.234	0.0133057
844.312	0.0132814
844.390	0.0132871
844.468	0.0133372
844.546	0.0133163
844.624	0.0132570
844.703	0.0131853
844.781	0.0133308
844.859	0.0131971
844.937	0.0132022
845.015	0.0132756
845.093	0.0132928
845.171	0.0133128
845.249	0.0131451
845.328	0.0132078
845.406	0.0131271
845.484	0.0131821
845.562	0.0131792
845.640	0.0132729
845.718	0.0131988
845.796	0.0132880
845.874	0.0131606
845.953	0.0131573
846.031	0.0133073
846.109	0.0133727
846.187	0.0131711
846.265	0.0131051
846.343	0.0131263
846.421	0.0130984
846.499	0.0133482
846.578	0.0133664
846.656	0.0132104
846.734	0.0132819
846.812	0.0133395
846.890	0.0133984
846.968	0.0133165
847.046	0.0134117
847.124	0.0133363
847.203	0.0134175
847.281	0.0135390
847.359	0.0133968
847.437	0.0135222
847.515	0.0134177
847.593	0.0133041
847.671	0.0133364
847.749	0.0134736
847.828	0.0134651
847.906	0.0132878
847.984	0.0133398
848.062	0.0134809
848.140	0.0134780
848.218	0.0134160
848.296	0.0134081
848.374	0.0134122
848.453	0.0134789
848.531	0.0134543
848.609	0.0134682
848.687	0.0134452
848.765	0.0134890
848.843	0.0133823
848.921	0.0134384
848.999	0.0134895
849.078	0.0134577
849.156	0.0135262
849.234	0.0133637
849.312	0.0133354
849.390	0.0133359
849.468	0.0133744
849.546	0.0132848
849.624	0.0132829
849.703	0.0133383
849.781	0.0131615
849.859	0.0132698
849.937	0.0132083
850.015	0.0133077
850.093	0.0132577
850.171	0.0133241
850.249	0.0132492
850.328	0.0132776
850.406	0.0135055
850.484	0.0132981
850.562	0.0133163
850.640	0.0132824
850.718	0.0134184
850.796	0.0132600
850.874	0.0134092
850.953	0.0133463
851.031	0.0133850
851.109	0.0132085
851.187	0.0133681
851.265	0.0133934
851.343	0.0133943
851.421	0.0134057
851.499	0.0134108
851.578	0.0134103
851.656	0.0133830
851.734	0.0133940
851.812	0.0133229
851.890	0.0134431
851.968	0.0132540
852.046	0.0134393
852.124	0.0133660
852.203	0.0134833
852.281	0.0133887
852.359	0.0132378
852.437	0.0133927
852.515	0.0134138
852.593	0.0134392
852.671	0.0134274
852.749	0.0134827
852.828	0.0135603
852.906	0.0134682
852.984	0.0134294
853.062	0.0133954
853.140	0.0135313
853.218	0.0134759
853.296	0.0137013
853.374	0.0135273
853.453	0.0135831
853.531	0.0134351
853.609	0.0134525
853.687	0.0134942
853.765	0.0134538
853.843	0.0135238
853.921	0.0133688
853.999	0.0132796
854.078	0.0134538
854.156	0.0133332
854.234	0.0132726
854.312	0.0133302
854.390	0.0133112
854.468	0.0132784
854.546	0.0130112
854.624	0.0131535
854.703	0.0132673
854.781	0.0133770
854.859	0.0132957
854.937	0.0133032
855.015	0.0133061
855.093	0.0131483
855.171	0.0132285
855.249	0.0130814
855.328	0.0133610
855.406	0.0133295
855.484	0.0132452
855.562	0.0133866
855.640	0.0134863
855.718	0.0133681
855.796	0.0133775
855.874	0.0132645
855.953	0.0134763
856.031	0.0135036
856.109	0.0134621
856.187	0.0134170
856.265	0.0134612
856.343	0.0134813
856.421	0.0134787
856.499	0.0134932
856.578	0.0135444
856.656	0.0135270
856.734	0.0134536
856.812	0.0133717
856.890	0.0135305
856.968	0.0133160
857.046	0.0132851
857.124	0.0132777
857.203	0.0133132
857.281	0.0133472
857.359	0.0132387
857.437	0.0134412
857.515	0.0133248
857.593	0.0133579
857.671	0.0134071
857.749	0.0134032
857.828	0.0133103
857.906	0.0135065
857.984	0.0134013
858.062	0.0135011
858.140	0.0136229
858.218	0.0136147
858.296	0.0135231
858.374	0.0135326
858.453	0.0135547
858.531	0.0136092
858.609	0.0135087
858.687	0.0134560
858.765	0.0134413
858.843	0.0135014
858.921	0.0134807
858.999	0.0133425
859.078	0.0134499
859.156	0.0134048
859.234	0.0133511
859.312	0.0132342
859.390	0.0132868
859.468	0.0132136
859.546	0.0132730
859.624	0.0133674
859.703	0.0133748
859.781	0.0132961
859.859	0.0133409
859.937	0.0133580
860.015	0.0133101
860.093	0.0133404
860.171	0.0134277
860.249	0.0133188
860.328	0.0134781
860.406	0.0134163
860.484	0.0134518
860.562	0.0134497
860.640	0.0135119
860.718	0.0135315
860.796	0.0134416
860.874	0.0135437
860.953	0.0133620
861.031	0.0133946
861.109	0.0133533
861.187	0.0133190
861.265	0.0135397
861.343	0.0134530
861.421	0.0134077
861.499	0.0133780
861.578	0.0132781
861.656	0.0131221
861.734	0.0133119
861.812	0.0133787
861.890	0.0133979
861.968	0.0132503
862.046	0.0133092
862.124	0.0133039
862.203	0.0133342
862.281	0.0133653
862.359	0.0132272
862.437	0.0133290
862.515	0.0133574
862.593	0.0133005
862.671	0.0133356
862.749	0.0134489
862.828	0.0133985
862.906	0.0133428
862.984	0.0133607
863.062	0.0132913
863.140	0.0132846
863.218	0.0134329
863.296	0.0132401
863.374	0.0134279
863.453	0.0133888
863.531	0.0133173
863.609	0.0133710
863.687	0.0133714
863.765	0.0134384
863.843	0.0133533
863.921	0.0134234
863.999	0.0132627
864.078	0.0133058
864.156	0.0133583
864.234	0.0136095
864.312	0.0135010
864.390	0.0132838
864.468	0.0134152
864.546	0.0134884
864.624	0.0134090
864.703	0.0133729
864.781	0.0134164
864.859	0.0133784
864.937	0.0132963
865.015	0.0134362
865.093	0.0134232
865.171	0.0134730
865.249	0.0134512
865.328	0.0133252
865.406	0.0133049
865.484	0.0133442
865.562	0.0134115
865.640	0.0134126
865.718	0.0133772
865.796	0.0134843
865.874	0.0133529
865.953	0.0132404
866.031	0.0134196
866.109	0.0133060
866.187	0.0134906
866.265	0.0132750
866.343	0.0133932
866.421	0.0133514
866.499	0.0132287
866.578	0.0132757
866.656	0.0131986
866.734	0.0132729
866.812	0.0133228
866.890	0.0132719
866.968	0.0133508
867.046	0.0133076
867.124	0.0134358
867.203	0.0132661
867.281	0.0134275
867.359	0.0134619
867.437	0.0132966
867.515	0.0132874
867.593	0.0134242
867.671	0.0133847
867.749	0.0133655
867.828	0.0134273
867.906	0.0133217
867.984	0.0133908
868.062	0.0135736
868.140	0.0133964
868.218	0.0134099
868.296	0.0133144
868.374	0.0134347
868.453	0.0134281
868.531	0.0133501
868.609	0.0132299
868.687	0.0133990
868.765	0.0136074
868.843	0.0135070
868.921	0.0133590
868.999	0.0135522
869.078	0.0135466
869.156	0.0134414
869.234	0.0132976
869.312	0.0134650
869.390	0.0135423
869.468	0.0134048
869.546	0.0134919
869.624	0.0134411
869.703	0.0133065
869.781	0.0133665
869.859	0.0133891
869.937	0.0132983
870.015	0.0132129
870.093	0.0132416
870.171	0.0132453
870.249	0.0133102
870.328	0.0133299
870.406	0.0132097
870.484	0.0132070
870.562	0.0132382
870.640	0.0133394
870.718	0.0133456
870.796	0.0133006
870.874	0.0134306
870.953	0.0133440
871.031	0.0134921
871.109	0.0134294
871.187	0.0133784
871.265	0.0133588
871.343	0.0135477
871.421	0.0134612
871.499	0.0133676
871.578	0.0133967
871.656	0.0134481
871.734	0.0134286
871.812	0.0134296
871.890	0.0134442
871.968	0.0134112
872.046	0.0134768
872.124	0.0134436
872.203	0.0135511
872.281	0.0134664
872.359	0.0134282
872.437	0.0135285
872.515	0.0133197
872.593	0.0133358
872.671	0.0134821
872.749	0.0135099
872.828	0.0134530
872.906	0.0133792
872.984	0.0133417
873.062	0.0134445
873.140	0.0133948
873.218	0.0134261
873.296	0.0133015
873.374	0.0133853
873.453	0.0134470
873.531	0.0133871
873.609	0.0134055
873.687	0.0133755
873.765	0.0133694
873.843	0.0133620
873.921	0.0133327
873.999	0.0133236
874.078	0.0134637
874.156	0.0135374
874.234	0.0133923
874.312	0.0134329
874.390	0.0134612
874.468	0.0133659
874.546	0.0135718
874.624	0.0133455
874.703	0.0134830
874.781	0.0132919
874.859	0.0133984
874.937	0.0133902
875.015	0.0134623
875.093	0.0134815
875.171	0.0134354
875.249	0.0132798
875.328	0.0133350
875.406	0.0134133
875.484	0.0134718
875.562	0.0134997
875.640	0.0135315
875.718	0.0134406
875.796	0.0134451
875.874	0.0134798
875.953	0.0134352
876.031	0.0134158
876.109	0.0135187
876.187	0.0134921
876.265	0.0134830
876.343	0.0134949
876.421	0.0135604
876.499	0.0135117
876.578	0.0133706
876.656	0.0134397
876.734	0.0134542
876.812	0.0135391
876.890	0.0135234
876.968	0.0134164
877.046	0.0133160
877.124	0.0134220
877.203	0.0134018
877.281	0.0133968
877.359	0.0133578
877.437	0.0132488
877.515	0.0132915
877.593	0.0133116
877.671	0.0132925
877.749	0.0132780
877.828	0.0133143
877.906	0.0134451
877.984	0.0132564
878.062	0.0132273
878.140	0.0133461
878.218	0.0134196
878.296	0.0134594
878.374	0.0134884
878.453	0.0134593
878.531	0.0133418
878.609	0.0134521
878.687	0.0134736
878.765	0.0135214
878.843	0.0134814
878.921	0.0135838
878.999	0.0134044
879.078	0.0134249
879.156	0.0134517
879.234	0.0134151
879.312	0.0134239
879.390	0.0133955
879.468	0.0134651
879.546	0.0134580
879.624	0.0134118
879.703	0.0132253
879.781	0.0132690
879.859	0.0133065
879.937	0.0133214
880.015	0.0133224
880.093	0.0134435
880.171	0.0132169
880.249	0.0133786
880.328	0.0133900
880.406	0.0134218
880.484	0.0134980
880.562	0.0133554
880.640	0.0134189
880.718	0.0133730
880.796	0.0133594
880.874	0.0134974
880.953	0.0135138
881.031	0.0133625
881.109	0.0134019
881.187	0.0132867
881.265	0.0133444
881.343	0.0134150
881.421	0.0133611
881.499	0.0132712
881.578	0.0133430
881.656	0.0133403
881.734	0.0134175
881.812	0.0132941
881.890	0.0132797
881.968	0.0133519
882.046	0.0134735
882.124	0.0133431
882.203	0.0133707
882.281	0.0133580
882.359	0.0134007
882.437	0.0134663
882.515	0.0133176
882.593	0.0132955
882.671	0.0134402
882.749	0.0133463
882.828	0.0135728
882.906	0.0136104
882.984	0.0135531
883.062	0.0134571
883.140	0.0133183
883.218	0.0136108
883.296	0.0134753
883.374	0.0134826
883.453	0.0134683
883.531	0.0132926
883.609	0.0135252
883.687	0.0134908
883.765	0.0135040
883.843	0.0134626
883.921	0.0133883
883.999	0.0132998
884.078	0.0134584
884.156	0.0133859
884.234	0.0134913
884.312	0.0134105
884.390	0.0132395
884.468	0.0133933
884.546	0.0132182
884.624	0.0133242
884.703	0.0132789
884.781	0.0133098
884.859	0.0133706
884.937	0.0134109
885.015	0.0133418
885.093	0.0132572
885.171	0.0134164
885.249	0.0135038
885.328	0.0133331
885.406	0.0133217
885.484	0.0134566
885.562	0.0134858
885.640	0.0134135
885.718	0.0133027
885.796	0.0135153
885.874	0.0134501
885.953	0.0134810
886.031	0.0134394
886.109	0.0133053
886.187	0.0133391
886.265	0.0132657
886.343	0.0133428
886.421	0.0133535
886.499	0.0132077
886.578	0.0133197
886.656	0.0133089
886.734	0.0132378
886.812	0.0132790
886.890	0.0133346
886.968	0.0133205
887.046	0.0133765
887.124	0.0132237
887.203	0.0133904
887.281	0.0135380
887.359	0.0133634
887.437	0.0134494
887.515	0.0135030
887.593	0.0134768
887.671	0.0134951
887.749	0.0135320
887.828	0.0136359
887.906	0.0135734
887.984	0.0134030
888.062	0.0134724
888.140	0.0136066
888.218	0.0135014
888.296	0.0135054
888.374	0.0135016
888.453	0.0135080
888.531	0.0134754
888.609	0.0133420
888.687	0.0132645
888.765	0.0133067
888.843	0.0132676
888.921	0.0132964
888.999	0.0133083
889.078	0.0133410
889.156	0.0132406
889.234	0.0132373
889.312	0.0132030
889.390	0.0132437
889.468	0.0132368
889.546	0.0132826
889.624	0.0132681
889.703	0.0132802
889.781	0.0133462
889.859	0.0134190
889.937	0.0132955
890.015	0.0131924
890.093	0.0132455
890.171	0.0133337
890.249	0.0134477
890.328	0.0133841
890.406	0.0132454
890.484	0.0133225
890.562	0.0133882
890.640	0.0134038
890.718	0.0133726
890.796	0.0133472
890.874	0.0132914
890.953	0.0133587
891.031	0.0134573
891.109	0.0133746
891.187	0.0132859
891.265	0.0135326
891.343	0.0133921
891.421	0.0133951
891.499	0.0132845
891.578	0.0134155
891.656	0.0133006
891.734	0.0133974
891.812	0.0134373
891.890	0.0134189
891.968	0.0133223
892.046	0.0131403
892.124	0.0132502
892.203	0.0133393
892.281	0.0135003
892.359	0.0134610
892.437	0.0132990
892.515	0.0134380
892.593	0.0134592
892.671	0.0134143
892.749	0.0135097
892.828	0.0135281
892.906	0.0134746
892.984	0.0136113
893.062	0.0134780
893.140	0.0134324
893.218	0.0133840
893.296	0.0133765
893.374	0.0134000
893.453	0.0133511
893.531	0.0133463
893.609	0.0133428
893.687	0.0133603
893.765	0.0134349
893.843	0.0133701
893.921	0.0133715
893.999	0.0134285
894.078	0.0133606
894.156	0.0133938
894.234	0.0133659
894.312	0.0133338
894.390	0.0133932
894.468	0.0133736
894.546	0.0135858
894.624	0.0133972
894.703	0.0132014
894.781	0.0133344
894.859	0.0134441
894.937	0.0135160
895.015	0.0134667
895.093	0.0134900
895.171	0.0134298
895.249	0.0133221
895.328	0.0133446
895.406	0.0134136
895.484	0.0133923
895.562	0.0133779
895.640	0.0133467
895.718	0.0134628
895.796	0.0133064
895.874	0.0134045
895.953	0.0133394
896.031	0.0133894
896.109	0.0133022
896.187	0.0132620
896.265	0.0132557
896.343	0.0133659
896.421	0.0133001
896.499	0.0133015
896.578	0.0133733
896.656	0.0135606
896.734	0.0135210
896.812	0.0134154
896.890	0.0134947
896.968	0.0134630
897.046	0.0135309
897.124	0.0134874
897.203	0.0135170
897.281	0.0135450
897.359	0.0135795
897.437	0.0135550
897.515	0.0136752
897.593	0.0135801
897.671	0.0137090
897.749	0.0135009
897.828	0.0135017
897.906	0.0134113
897.984	0.0134656
898.062	0.0133822
898.140	0.0133735
898.218	0.0132489
898.296	0.0132989
898.374	0.0133247
898.453	0.0131963
898.531	0.0132917
898.609	0.0130759
898.687	0.0131726
898.765	0.0132101
898.843	0.0133100
898.921	0.0133934
898.999	0.0132394
899.078	0.0134177
899.156	0.0132590
899.234	0.0133997
899.312	0.0134304
899.390	0.0135564
899.468	0.0136151
899.546	0.0134709
899.624	0.0135490
899.703	0.0135159
899.781	0.0135042
899.859	0.0135305
899.937	0.0134528
900.015	0.0134500
900.093	0.0135898
900.171	0.0135823
900.249	0.0135132
900.328	0.0135472
900.406	0.0134546
900.484	0.0133698
900.562	0.0133035
900.640	0.0133413
900.718	0.0134504
900.796	0.0135390
900.874	0.0135396
900.953	0.0134276
901.031	0.0134128
901.109	0.0134464
901.187	0.0134026
901.265	0.0133559
901.343	0.0135249
901.421	0.0134956
901.499	0.0134258
901.578	0.0134336
901.656	0.0135509
901.734	0.0136394
901.812	0.0135807
901.890	0.0135382
901.968	0.0135797
902.046	0.0136228
902.124	0.0135419
902.203	0.0135437
902.281	0.0135098
902.359	0.0135951
902.437	0.0134771
902.515	0.0134206
902.593	0.0134370
902.671	0.0133855
902.749	0.0134230
902.828	0.0133849
902.906	0.0131944
902.984	0.0132624
903.062	0.0132210
903.140	0.0132935
903.218	0.0132206
903.296	0.0132324
903.374	0.0131207
903.453	0.0131329
903.531	0.0132446
903.609	0.0131863
903.687	0.0133393
903.765	0.0133760
903.843	0.0133524
903.921	0.0133833
903.999	0.0134393
904.078	0.0134694
904.156	0.0136111
904.234	0.0135606
904.312	0.0135343
904.390	0.0136317
904.468	0.0136681
904.546	0.0137222
904.624	0.0135855
904.703	0.0135530
904.781	0.0136016
904.859	0.0137679
904.937	0.0135645
905.015	0.0134587
905.093	0.0134348
905.171	0.0133749
905.249	0.0133687
905.328	0.0132796
905.406	0.0130978
905.484	0.0132520
905.562	0.0133820
905.640	0.0132891
905.718	0.0132498
905.796	0.0131991
905.874	0.0132360
905.953	0.0132742
906.031	0.0134282
906.109	0.0135630
906.187	0.0135043
906.265	0.0133165
906.343	0.0135485
906.421	0.0136151
906.499	0.0136281
906.578	0.0135448
906.656	0.0135853
906.734	0.0134488
906.812	0.0136302
906.890	0.0134231
906.968	0.0134292
907.046	0.0133392
907.124	0.0133310
907.203	0.0132145
907.281	0.0131451
907.359	0.0130626
907.437	0.0130225
907.515	0.0133005
907.593	0.0130370
907.671	0.0131405
907.749	0.0131641
907.828	0.0132611
907.906	0.0131068
907.984	0.0132327
908.062	0.0132482
908.140	0.0132586
908.218	0.0134515
908.296	0.0134035
908.374	0.0133009
908.453	0.0133984
908.531	0.0134678
908.609	0.0135787
908.687	0.0135403
908.765	0.0135309
908.843	0.0135081
908.921	0.0135487
908.999	0.0135995
909.078	0.0135807
909.156	0.0134479
909.234	0.0135410
909.312	0.0135343
909.390	0.0134676
909.468	0.0133465
909.546	0.0133297
909.624	0.0132590
909.703	0.0132990
909.781	0.0131906
909.859	0.0131822
909.937	0.0131415
910.015	0.0130960
910.093	0.0130759
910.171	0.0131284
910.249	0.0132209
910.328	0.0132840
910.406	0.0132560
910.484	0.0134019
910.562	0.0133791
910.640	0.0133018
910.718	0.0135236
910.796	0.0133614
910.874	0.0133965
910.953	0.0134295
911.031	0.0135204
911.109	0.0137207
911.187	0.0135390
911.265	0.0134801
911.343	0.0133920
911.421	0.0135389
911.499	0.0135906
911.578	0.0134169
911.656	0.0133727
911.734	0.0131844
911.812	0.0132523
911.890	0.0132520
911.968	0.0131968
912.046	0.0131649
912.124	0.0130966
912.203	0.0132639
912.281	0.0132483
912.359	0.0131262
912.437	0.0132145
912.515	0.0131541
912.593	0.0131525
912.671	0.0132801
912.749	0.0133670
912.828	0.0134241
912.906	0.0133411
912.984	0.0135539
913.062	0.0135219
913.140	0.0134837
913.218	0.0134924
913.296	0.0135587
913.374	0.0135651
913.453	0.0135376
913.531	0.0134731
913.609	0.0134915
913.687	0.0134762
913.765	0.0134924
913.843	0.0134086
913.921	0.0134179
913.999	0.0133615
914.078	0.0133618
914.156	0.0131555
914.234	0.0132865
914.312	0.0133289
914.390	0.0131477
914.468	0.0133267
914.546	0.0133488
914.624	0.0132172
914.703	0.0130560
914.781	0.0131600
914.859	0.0133150
914.937	0.0132040
915.015	0.0131228
915.093	0.0132286
915.171	0.0133971
915.249	0.0133523
915.328	0.0134079
915.406	0.0133092
915.484	0.0133245
915.562	0.0135683
915.640	0.0135385
915.718	0.0133494
915.796	0.0134596
915.874	0.0135003
915.953	0.0135356
916.031	0.0135076
916.109	0.0135473
916.187	0.0137150
916.265	0.0135482
916.343	0.0134361
916.421	0.0133928
916.499	0.0134596
916.578	0.0132469
916.656	0.0133016
916.734	0.0133247
916.812	0.0132538
916.890	0.0132041
916.968	0.0132411
917.046	0.0131755
917.124	0.0132958
917.203	0.0132655
917.281	0.0132608
917.359	0.0132955
917.437	0.0133347
917.515	0.0132776
917.593	0.0133957
917.671	0.0133823
917.749	0.0132911
917.828	0.0135075
917.906	0.0135043
917.984	0.0134669
918.062	0.0134074
918.140	0.0136100
918.218	0.0134813
918.296	0.0134219
918.374	0.0132587
918.453	0.0134652
918.531	0.0133546
918.609	0.0132377
918.687	0.0133883
918.765	0.0133274
918.843	0.0131346
918.921	0.0133382
918.999	0.0132744
919.078	0.0132358
919.156	0.0132013
919.234	0.0132658
919.312	0.0131521
919.390	0.0132280
919.468	0.0132402
919.546	0.0133040
919.624	0.0132346
919.703	0.0131676
919.781	0.0133517
919.859	0.0133207
919.937	0.0133957
