05/06/2022	18:53:09	Ver.	4.1	UNKNOWN
Optical Delay	600.015094	Delta X		0.078125	Sweeps	1	Scan Rate	0/0
Coordinates	Axis 1	NaN	Axis 2	NaN	Axis 3	NaN	Axis 4	NaN	Axis 5	NaN	Axis 6	0.000000
TX Power	0.000000	RX Power	0.000000

600.015	0.0136327
600.093	0.0136283
600.171	0.0136276
600.249	0.0137180
600.328	0.0135645
600.406	0.0136951
600.484	0.0135717
600.562	0.0136946
600.640	0.0134789
600.718	0.0136235
600.796	0.0136420
600.874	0.0137255
600.953	0.0135941
601.031	0.0135537
601.109	0.0136706
601.187	0.0136515
601.265	0.0136533
601.343	0.0135749
601.421	0.0134169
601.499	0.0135046
601.578	0.0136201
601.656	0.0136178
601.734	0.0135251
601.812	0.0136897
601.890	0.0135966
601.968	0.0136821
602.046	0.0137272
602.124	0.0135528
602.203	0.0135386
602.281	0.0136590
602.359	0.0136925
602.437	0.0137344
602.515	0.0136322
602.593	0.0136245
602.671	0.0137125
602.749	0.0135894
602.828	0.0136929
602.906	0.0136954
602.984	0.0136656
603.062	0.0136814
603.140	0.0137067
603.218	0.0137592
603.296	0.0136724
603.374	0.0137125
603.453	0.0137395
603.531	0.0136874
603.609	0.0135734
603.687	0.0135910
603.765	0.0137398
603.843	0.0135307
603.921	0.0137299
603.999	0.0136430
604.078	0.0137631
604.156	0.0137537
604.234	0.0135421
604.312	0.0136260
604.390	0.0136887
604.468	0.0136393
604.546	0.0136684
604.624	0.0136773
604.703	0.0136482
604.781	0.0136503
604.859	0.0137052
604.937	0.0137745
605.015	0.0135905
605.093	0.0134282
605.171	0.0137603
605.249	0.0135925
605.328	0.0136176
605.406	0.0137734
605.484	0.0135343
605.562	0.0136966
605.640	0.0136626
605.718	0.0136201
605.796	0.0136076
605.874	0.0136713
605.953	0.0136469
606.031	0.0137228
606.109	0.0136819
606.187	0.0136800
606.265	0.0136365
606.343	0.0136570
606.421	0.0137783
606.499	0.0135469
606.578	0.0135312
606.656	0.0135751
606.734	0.0136378
606.812	0.0136482
606.890	0.0135863
606.968	0.0137453
607.046	0.0137218
607.124	0.0135278
607.203	0.0136549
607.281	0.0136353
607.359	0.0135714
607.437	0.0136751
607.515	0.0137131
607.593	0.0137616
607.671	0.0136717
607.749	0.0137079
607.828	0.0135951
607.906	0.0136148
607.984	0.0136005
608.062	0.0136547
608.140	0.0135979
608.218	0.0135307
608.296	0.0136752
608.374	0.0135994
608.453	0.0137000
608.531	0.0137595
608.609	0.0138004
608.687	0.0135566
608.765	0.0136335
608.843	0.0135965
608.921	0.0136443
608.999	0.0136620
609.078	0.0136458
609.156	0.0135690
609.234	0.0136593
609.312	0.0136092
609.390	0.0136819
609.468	0.0136540
609.546	0.0135287
609.624	0.0136770
609.703	0.0136524
609.781	0.0135813
609.859	0.0135659
609.937	0.0136502
610.015	0.0135785
610.093	0.0136381
610.171	0.0135997
610.249	0.0135883
610.328	0.0135671
610.406	0.0136490
610.484	0.0136856
610.562	0.0137070
610.640	0.0135261
610.718	0.0136773
610.796	0.0137069
610.874	0.0135458
610.953	0.0135120
611.031	0.0136280
611.109	0.0136391
611.187	0.0136428
611.265	0.0136334
611.343	0.0133878
611.421	0.0136312
611.499	0.0136790
611.578	0.0136757
611.656	0.0136244
611.734	0.0136452
611.812	0.0136398
611.890	0.0136796
611.968	0.0136593
612.046	0.0137473
612.124	0.0136062
612.203	0.0136700
612.281	0.0136525
612.359	0.0137202
612.437	0.0136437
612.515	0.0135768
612.593	0.0136044
612.671	0.0137193
612.749	0.0136853
612.828	0.0135306
612.906	0.0137587
612.984	0.0136199
613.062	0.0135615
613.140	0.0136665
613.218	0.0136816
613.296	0.0136711
613.374	0.0136255
613.453	0.0135450
613.531	0.0136182
613.609	0.0135308
613.687	0.0136063
613.765	0.0136797
613.843	0.0135975
613.921	0.0135571
613.999	0.0136614
614.078	0.0136374
614.156	0.0136198
614.234	0.0135827
614.312	0.0136513
614.390	0.0136451
614.468	0.0136894
614.546	0.0136869
614.624	0.0137071
614.703	0.0136743
614.781	0.0135382
614.859	0.0136255
614.937	0.0135757
615.015	0.0136127
615.093	0.0136514
615.171	0.0135971
615.249	0.0136242
615.328	0.0136169
615.406	0.0134891
615.484	0.0134660
615.562	0.0137731
615.640	0.0136801
615.718	0.0136695
615.796	0.0137092
615.874	0.0135671
615.953	0.0135193
616.031	0.0136515
616.109	0.0136743
616.187	0.0137102
616.265	0.0135203
616.343	0.0135437
616.421	0.0136827
616.499	0.0134550
616.578	0.0136761
616.656	0.0137881
616.734	0.0136295
616.812	0.0135592
616.890	0.0137128
616.968	0.0137977
617.046	0.0137360
617.124	0.0135897
617.203	0.0137109
617.281	0.0137331
617.359	0.0136626
617.437	0.0136627
617.515	0.0136649
617.593	0.0136514
617.671	0.0135778
617.749	0.0136539
617.828	0.0136780
617.906	0.0137520
617.984	0.0136528
618.062	0.0136267
618.140	0.0135780
618.218	0.0135748
618.296	0.0135020
618.374	0.0137690
618.453	0.0136314
618.531	0.0137838
618.609	0.0136404
618.687	0.0135152
618.765	0.0135709
618.843	0.0135875
618.921	0.0135625
618.999	0.0136941
619.078	0.0135854
619.156	0.0135615
619.234	0.0136855
619.312	0.0136208
619.390	0.0135047
619.468	0.0135992
619.546	0.0136280
619.624	0.0136551
619.703	0.0136131
619.781	0.0136824
619.859	0.0137690
619.937	0.0136973
620.015	0.0135753
620.093	0.0134663
620.171	0.0137453
620.249	0.0136954
620.328	0.0135728
620.406	0.0136868
620.484	0.0135860
620.562	0.0135923
620.640	0.0136707
620.718	0.0137593
620.796	0.0137154
620.874	0.0136210
620.953	0.0136245
621.031	0.0136209
621.109	0.0136298
621.187	0.0137062
621.265	0.0136412
621.343	0.0137312
621.421	0.0136138
621.499	0.0135460
621.578	0.0136677
621.656	0.0135358
621.734	0.0135945
621.812	0.0135624
621.890	0.0136868
621.968	0.0136603
622.046	0.0135345
622.124	0.0136237
622.203	0.0136286
622.281	0.0136135
622.359	0.0135814
622.437	0.0136061
622.515	0.0136427
622.593	0.0137891
622.671	0.0137676
622.749	0.0135921
622.828	0.0137076
622.906	0.0136001
622.984	0.0136281
623.062	0.0137008
623.140	0.0136772
623.218	0.0135528
623.296	0.0135394
623.374	0.0136369
623.453	0.0136015
623.531	0.0136189
623.609	0.0136691
623.687	0.0136002
623.765	0.0135715
623.843	0.0137000
623.921	0.0137402
623.999	0.0135997
624.078	0.0135857
624.156	0.0135241
624.234	0.0137324
624.312	0.0136756
624.390	0.0134887
624.468	0.0135459
624.546	0.0137366
624.624	0.0135680
624.703	0.0136210
624.781	0.0136250
624.859	0.0136510
624.937	0.0136883
625.015	0.0136826
625.093	0.0136968
625.171	0.0136457
625.249	0.0136111
625.328	0.0137515
625.406	0.0135993
625.484	0.0136401
625.562	0.0135837
625.640	0.0136526
625.718	0.0135063
625.796	0.0136680
625.874	0.0136008
625.953	0.0135254
626.031	0.0135572
626.109	0.0135109
626.187	0.0136068
626.265	0.0136429
626.343	0.0137020
626.421	0.0136417
626.499	0.0136078
626.578	0.0136351
626.656	0.0136022
626.734	0.0136780
626.812	0.0136968
626.890	0.0137793
626.968	0.0136211
627.046	0.0135506
627.124	0.0136267
627.203	0.0138107
627.281	0.0137038
627.359	0.0135964
627.437	0.0136620
627.515	0.0137434
627.593	0.0135826
627.671	0.0135703
627.749	0.0136200
627.828	0.0135808
627.906	0.0136672
627.984	0.0135601
628.062	0.0136356
628.140	0.0135876
628.218	0.0135309
628.296	0.0136987
628.374	0.0136642
628.453	0.0136923
628.531	0.0136036
628.609	0.0136202
628.687	0.0136264
628.765	0.0136185
628.843	0.0135789
628.921	0.0135939
628.999	0.0135987
629.078	0.0136232
629.156	0.0134712
629.234	0.0136086
629.312	0.0137048
629.390	0.0138218
629.468	0.0136419
629.546	0.0136308
629.624	0.0136175
629.703	0.0136427
629.781	0.0136319
629.859	0.0135975
629.937	0.0136437
630.015	0.0136351
630.093	0.0136234
630.171	0.0137078
630.249	0.0136078
630.328	0.0136787
630.406	0.0137534
630.484	0.0135342
630.562	0.0135194
630.640	0.0136155
630.718	0.0137495
630.796	0.0137037
630.874	0.0137233
630.953	0.0136752
631.031	0.0136046
631.109	0.0136461
631.187	0.0136328
631.265	0.0137234
631.343	0.0138438
631.421	0.0135860
631.499	0.0136994
631.578	0.0135917
631.656	0.0137167
631.734	0.0136090
631.812	0.0135532
631.890	0.0137869
631.968	0.0136470
632.046	0.0137175
632.124	0.0136588
632.203	0.0136634
632.281	0.0136999
632.359	0.0136397
632.437	0.0136436
632.515	0.0136250
632.593	0.0136007
632.671	0.0136419
632.749	0.0137006
632.828	0.0136148
632.906	0.0135520
632.984	0.0135338
633.062	0.0137541
633.140	0.0138166
633.218	0.0136446
633.296	0.0135612
633.374	0.0137134
633.453	0.0136403
633.531	0.0136195
633.609	0.0136894
633.687	0.0136597
633.765	0.0134155
633.843	0.0136167
633.921	0.0135847
633.999	0.0136483
634.078	0.0137038
634.156	0.0135200
634.234	0.0135995
634.312	0.0135658
634.390	0.0135971
634.468	0.0136572
634.546	0.0134978
634.624	0.0136912
634.703	0.0137093
634.781	0.0135712
634.859	0.0134527
634.937	0.0135156
635.015	0.0136385
635.093	0.0137044
635.171	0.0136355
635.249	0.0136551
635.328	0.0135693
635.406	0.0137103
635.484	0.0136224
635.562	0.0136623
635.640	0.0138254
635.718	0.0136889
635.796	0.0135742
635.874	0.0135515
635.953	0.0134817
636.031	0.0136757
636.109	0.0136269
636.187	0.0137221
636.265	0.0137491
636.343	0.0136382
636.421	0.0137102
636.499	0.0136190
636.578	0.0137408
636.656	0.0137646
636.734	0.0136262
636.812	0.0136152
636.890	0.0137018
636.968	0.0137509
637.046	0.0138055
637.124	0.0136560
637.203	0.0136069
637.281	0.0135957
637.359	0.0136366
637.437	0.0136998
637.515	0.0137045
637.593	0.0135960
637.671	0.0135522
637.749	0.0135904
637.828	0.0136574
637.906	0.0136652
637.984	0.0135855
638.062	0.0137541
638.140	0.0135074
638.218	0.0135291
638.296	0.0136675
638.374	0.0136361
638.453	0.0136552
638.531	0.0137479
638.609	0.0137280
638.687	0.0136440
638.765	0.0136145
638.843	0.0137070
638.921	0.0136940
638.999	0.0135743
639.078	0.0136766
639.156	0.0135772
639.234	0.0136691
639.312	0.0136302
639.390	0.0136230
639.468	0.0135466
639.546	0.0136886
639.624	0.0135569
639.703	0.0136842
639.781	0.0137309
639.859	0.0134986
639.937	0.0136349
640.015	0.0135837
640.093	0.0136540
640.171	0.0137769
640.249	0.0136432
640.328	0.0135610
640.406	0.0136811
640.484	0.0137120
640.562	0.0136456
640.640	0.0136433
640.718	0.0136518
640.796	0.0136301
640.874	0.0135638
640.953	0.0136079
641.031	0.0138725
641.109	0.0136752
641.187	0.0136728
641.265	0.0136629
641.343	0.0137288
641.421	0.0135901
641.499	0.0135806
641.578	0.0137651
641.656	0.0137518
641.734	0.0137467
641.812	0.0136079
641.890	0.0136400
641.968	0.0136711
642.046	0.0138119
642.124	0.0135577
642.203	0.0136955
642.281	0.0137185
642.359	0.0135731
642.437	0.0136292
642.515	0.0138502
642.593	0.0136603
642.671	0.0136335
642.749	0.0135812
642.828	0.0135555
642.906	0.0135699
642.984	0.0136309
643.062	0.0137001
643.140	0.0136084
643.218	0.0136900
643.296	0.0137130
643.374	0.0135699
643.453	0.0137592
643.531	0.0136327
643.609	0.0137175
643.687	0.0135961
643.765	0.0136819
643.843	0.0135049
643.921	0.0136797
643.999	0.0137049
644.078	0.0137308
644.156	0.0135662
644.234	0.0136571
644.312	0.0135297
644.390	0.0136269
644.468	0.0137265
644.546	0.0136115
644.624	0.0135078
644.703	0.0135769
644.781	0.0136248
644.859	0.0136087
644.937	0.0136297
645.015	0.0135709
645.093	0.0136147
645.171	0.0135798
645.249	0.0137276
645.328	0.0136882
645.406	0.0137131
645.484	0.0134763
645.562	0.0136206
645.640	0.0136252
645.718	0.0135371
645.796	0.0135415
645.874	0.0137704
645.953	0.0137081
646.031	0.0136086
646.109	0.0137229
646.187	0.0136968
646.265	0.0137805
646.343	0.0135854
646.421	0.0135972
646.499	0.0137236
646.578	0.0137106
646.656	0.0136406
646.734	0.0135881
646.812	0.0136926
646.890	0.0137395
646.968	0.0136969
647.046	0.0137141
647.124	0.0136936
647.203	0.0136272
647.281	0.0137496
647.359	0.0137434
647.437	0.0136504
647.515	0.0135815
647.593	0.0135489
647.671	0.0134727
647.749	0.0136500
647.828	0.0137331
647.906	0.0135065
647.984	0.0135703
648.062	0.0136145
648.140	0.0137112
648.218	0.0135501
648.296	0.0135650
648.374	0.0135973
648.453	0.0136781
648.531	0.0137706
648.609	0.0136778
648.687	0.0135781
648.765	0.0135925
648.843	0.0134973
648.921	0.0135382
648.999	0.0136321
649.078	0.0137019
649.156	0.0135269
649.234	0.0135458
649.312	0.0136216
649.390	0.0137174
649.468	0.0135300
649.546	0.0135677
649.624	0.0136124
649.703	0.0136163
649.781	0.0135921
649.859	0.0137711
649.937	0.0136053
650.015	0.0135974
650.093	0.0136797
650.171	0.0137447
650.249	0.0136491
650.328	0.0137055
650.406	0.0136645
650.484	0.0135478
650.562	0.0137240
650.640	0.0138042
650.718	0.0136867
650.796	0.0135995
650.874	0.0135394
650.953	0.0135194
651.031	0.0137292
651.109	0.0135873
651.187	0.0134524
651.265	0.0136874
651.343	0.0136034
651.421	0.0136381
651.499	0.0136549
651.578	0.0135992
651.656	0.0135571
651.734	0.0137323
651.812	0.0136450
651.890	0.0136379
651.968	0.0137202
652.046	0.0136024
652.124	0.0137113
652.203	0.0137196
652.281	0.0134999
652.359	0.0137054
652.437	0.0136002
652.515	0.0136783
652.593	0.0135619
652.671	0.0136524
652.749	0.0137102
652.828	0.0136543
652.906	0.0136572
652.984	0.0136197
653.062	0.0135989
653.140	0.0136295
653.218	0.0136606
653.296	0.0138095
653.374	0.0137112
653.453	0.0136839
653.531	0.0137911
653.609	0.0137534
653.687	0.0137222
653.765	0.0136880
653.843	0.0135547
653.921	0.0135046
653.999	0.0136723
654.078	0.0137285
654.156	0.0135930
654.234	0.0135523
654.312	0.0135228
654.390	0.0137105
654.468	0.0136343
654.546	0.0137393
654.624	0.0135767
654.703	0.0136518
654.781	0.0136632
654.859	0.0137118
654.937	0.0137904
655.015	0.0137190
655.093	0.0137578
655.171	0.0136572
655.249	0.0135348
655.328	0.0135931
655.406	0.0137533
655.484	0.0137012
655.562	0.0136155
655.640	0.0135698
655.718	0.0135505
655.796	0.0135734
655.874	0.0136218
655.953	0.0136897
656.031	0.0136546
656.109	0.0136190
656.187	0.0137065
656.265	0.0137025
656.343	0.0136527
656.421	0.0136309
656.499	0.0135352
656.578	0.0138302
656.656	0.0135848
656.734	0.0136106
656.812	0.0136640
656.890	0.0137135
656.968	0.0136326
657.046	0.0136086
657.124	0.0136234
657.203	0.0137621
657.281	0.0135329
657.359	0.0135801
657.437	0.0137196
657.515	0.0136189
657.593	0.0134787
657.671	0.0136293
657.749	0.0137045
657.828	0.0136119
657.906	0.0136745
657.984	0.0137092
658.062	0.0136607
658.140	0.0137868
658.218	0.0136116
658.296	0.0136758
658.374	0.0136040
658.453	0.0136686
658.531	0.0137372
658.609	0.0137308
658.687	0.0137856
658.765	0.0136473
658.843	0.0136617
658.921	0.0136221
658.999	0.0136856
659.078	0.0137049
659.156	0.0136129
659.234	0.0136580
659.312	0.0135762
659.390	0.0137896
659.468	0.0137125
659.546	0.0136127
659.624	0.0137101
659.703	0.0135041
659.781	0.0136726
659.859	0.0137165
659.937	0.0138038
660.015	0.0137253
660.093	0.0137111
660.171	0.0137447
660.249	0.0137507
660.328	0.0136764
660.406	0.0136951
660.484	0.0137529
660.562	0.0137537
660.640	0.0136124
660.718	0.0137301
660.796	0.0137048
660.874	0.0136632
660.953	0.0136486
661.031	0.0136684
661.109	0.0137793
661.187	0.0136091
661.265	0.0137458
661.343	0.0136312
661.421	0.0136498
661.499	0.0136732
661.578	0.0137077
661.656	0.0135875
661.734	0.0136098
661.812	0.0135484
661.890	0.0137127
661.968	0.0136340
662.046	0.0136676
662.124	0.0136311
662.203	0.0136533
662.281	0.0136668
662.359	0.0137390
662.437	0.0137805
662.515	0.0138248
662.593	0.0138119
662.671	0.0137537
662.749	0.0137489
662.828	0.0138326
662.906	0.0137489
662.984	0.0137794
663.062	0.0137505
663.140	0.0136734
663.218	0.0136598
663.296	0.0135964
663.374	0.0136652
663.453	0.0137084
663.531	0.0136117
663.609	0.0134372
663.687	0.0135730
663.765	0.0137044
663.843	0.0136149
663.921	0.0136395
663.999	0.0136861
664.078	0.0137805
664.156	0.0138194
664.234	0.0138342
664.312	0.0139181
664.390	0.0139159
664.468	0.0138629
664.546	0.0139271
664.624	0.0139392
664.703	0.0137221
664.781	0.0138581
664.859	0.0137801
664.937	0.0138492
665.015	0.0137634
665.093	0.0136181
665.171	0.0136382
665.249	0.0134887
665.328	0.0133570
665.406	0.0134849
665.484	0.0134486
665.562	0.0135336
665.640	0.0135410
665.718	0.0135345
665.796	0.0134829
665.874	0.0137090
665.953	0.0137121
666.031	0.0136674
666.109	0.0138376
666.187	0.0138806
666.265	0.0138631
666.343	0.0138041
666.421	0.0138126
666.499	0.0138612
666.578	0.0139330
666.656	0.0137135
666.734	0.0137869
666.812	0.0137587
666.890	0.0136214
666.968	0.0137084
667.046	0.0136020
667.124	0.0134801
667.203	0.0135333
667.281	0.0137171
667.359	0.0136406
667.437	0.0135738
667.515	0.0135633
667.593	0.0134935
667.671	0.0135160
667.749	0.0135727
667.828	0.0136107
667.906	0.0136264
667.984	0.0136227
668.062	0.0136661
668.140	0.0138205
668.218	0.0136312
668.296	0.0138226
668.374	0.0137350
668.453	0.0137526
668.531	0.0137449
668.609	0.0137473
668.687	0.0138604
668.765	0.0138409
668.843	0.0136985
668.921	0.0137543
668.999	0.0135846
669.078	0.0135924
669.156	0.0134997
669.234	0.0135740
669.312	0.0134321
669.390	0.0134428
669.468	0.0135632
669.546	0.0134688
669.624	0.0134985
669.703	0.0133546
669.781	0.0134879
669.859	0.0136663
669.937	0.0136037
670.015	0.0136263
670.093	0.0138697
670.171	0.0137757
670.249	0.0137884
670.328	0.0140717
670.406	0.0140115
670.484	0.0139539
670.562	0.0138034
670.640	0.0138264
670.718	0.0137581
670.796	0.0137009
670.874	0.0134983
670.953	0.0134748
671.031	0.0136067
671.109	0.0132854
671.187	0.0133292
671.265	0.0132005
671.343	0.0133596
671.421	0.0133158
671.499	0.0134341
671.578	0.0135771
671.656	0.0134040
671.734	0.0135423
671.812	0.0135383
671.890	0.0134673
671.968	0.0136000
672.046	0.0136761
672.124	0.0136404
672.203	0.0137104
672.281	0.0135609
672.359	0.0136129
672.437	0.0135937
672.515	0.0136403
672.593	0.0137207
672.671	0.0136394
672.749	0.0136776
672.828	0.0136773
672.906	0.0135440
672.984	0.0136069
673.062	0.0135830
673.140	0.0135390
673.218	0.0136345
673.296	0.0135847
673.374	0.0136256
673.453	0.0135739
673.531	0.0136459
673.609	0.0137418
673.687	0.0137908
673.765	0.0137244
673.843	0.0137007
673.921	0.0139424
673.999	0.0138906
674.078	0.0137804
674.156	0.0138189
674.234	0.0138337
674.312	0.0138707
674.390	0.0139433
674.468	0.0139438
674.546	0.0139119
674.624	0.0137881
674.703	0.0138652
674.781	0.0138022
674.859	0.0137769
674.937	0.0137031
675.015	0.0137263
675.093	0.0136941
675.171	0.0136504
675.249	0.0136248
675.328	0.0135966
675.406	0.0133363
675.484	0.0132500
675.562	0.0133507
675.640	0.0132876
675.718	0.0131155
675.796	0.0131515
675.874	0.0131505
675.953	0.0132059
676.031	0.0131044
676.109	0.0131394
676.187	0.0133987
676.265	0.0133485
676.343	0.0133210
676.421	0.0134698
676.499	0.0137261
676.578	0.0136510
676.656	0.0137183
676.734	0.0138008
676.812	0.0138628
676.890	0.0139571
676.968	0.0140923
677.046	0.0140159
677.124	0.0141017
677.203	0.0142376
677.281	0.0141463
677.359	0.0141978
677.437	0.0141742
677.515	0.0140733
677.593	0.0140146
677.671	0.0140501
677.749	0.0139416
677.828	0.0136861
677.906	0.0135513
677.984	0.0136556
678.062	0.0135098
678.140	0.0134985
678.218	0.0134956
678.296	0.0135783
678.374	0.0136414
678.453	0.0135282
678.531	0.0134657
678.609	0.0135997
678.687	0.0137360
678.765	0.0136469
678.843	0.0137755
678.921	0.0137280
678.999	0.0136169
679.078	0.0137505
679.156	0.0137489
679.234	0.0138261
679.312	0.0138037
679.390	0.0137301
679.468	0.0137643
679.546	0.0138660
679.624	0.0136265
679.703	0.0136294
679.781	0.0134666
679.859	0.0134375
679.937	0.0135670
680.015	0.0132744
680.093	0.0134181
680.171	0.0133980
680.249	0.0133635
680.328	0.0131871
680.406	0.0132884
680.484	0.0132774
680.562	0.0131662
680.640	0.0132523
680.718	0.0132191
680.796	0.0133277
680.874	0.0133347
680.953	0.0135325
681.031	0.0136407
681.109	0.0138350
681.187	0.0139664
681.265	0.0138569
681.343	0.0140662
681.421	0.0140343
681.499	0.0140077
681.578	0.0140939
681.656	0.0140631
681.734	0.0139493
681.812	0.0139447
681.890	0.0139595
681.968	0.0138619
682.046	0.0139665
682.124	0.0139008
682.203	0.0137115
682.281	0.0138290
682.359	0.0136693
682.437	0.0135877
682.515	0.0135915
682.593	0.0135958
682.671	0.0137382
682.749	0.0137398
682.828	0.0137387
682.906	0.0137023
682.984	0.0137917
683.062	0.0138028
683.140	0.0139606
683.218	0.0140856
683.296	0.0140172
683.374	0.0140202
683.453	0.0140148
683.531	0.0138940
683.609	0.0138968
683.687	0.0139510
683.765	0.0137785
683.843	0.0137678
683.921	0.0136441
683.999	0.0137774
684.078	0.0136222
684.156	0.0134143
684.234	0.0133144
684.312	0.0132977
684.390	0.0133048
684.468	0.0132742
684.546	0.0133620
684.624	0.0132380
684.703	0.0133102
684.781	0.0132893
684.859	0.0132751
684.937	0.0132623
685.015	0.0131569
685.093	0.0131366
685.171	0.0131458
685.249	0.0131125
685.328	0.0131409
685.406	0.0131805
685.484	0.0132951
685.562	0.0130531
685.640	0.0131906
685.718	0.0132117
685.796	0.0132852
685.874	0.0133967
685.953	0.0133607
686.031	0.0133846
686.109	0.0135480
686.187	0.0137189
686.265	0.0137621
686.343	0.0137974
686.421	0.0140198
686.499	0.0142908
686.578	0.0143623
686.656	0.0143810
686.734	0.0145828
686.812	0.0147759
686.890	0.0147043
686.968	0.0148006
687.046	0.0148570
687.124	0.0146967
687.203	0.0147530
687.281	0.0146765
687.359	0.0145390
687.437	0.0144269
687.515	0.0142908
687.593	0.0141937
687.671	0.0141225
687.749	0.0140276
687.828	0.0138757
687.906	0.0136192
687.984	0.0136420
688.062	0.0136298
688.140	0.0135574
688.218	0.0134851
688.296	0.0133204
688.374	0.0134349
688.453	0.0132590
688.531	0.0131396
688.609	0.0132239
688.687	0.0131707
688.765	0.0131683
688.843	0.0131805
688.921	0.0130824
688.999	0.0129931
689.078	0.0132256
689.156	0.0129660
689.234	0.0127996
689.312	0.0128666
689.390	0.0129362
689.468	0.0129456
689.546	0.0129894
689.624	0.0129100
689.703	0.0130344
689.781	0.0130503
689.859	0.0132668
689.937	0.0133893
690.015	0.0133810
690.093	0.0133836
690.171	0.0135178
690.249	0.0136658
690.328	0.0138128
690.406	0.0139211
690.484	0.0137457
690.562	0.0137031
690.640	0.0137640
690.718	0.0136210
690.796	0.0135486
690.874	0.0134414
690.953	0.0132413
691.031	0.0133173
691.109	0.0131768
691.187	0.0133250
691.265	0.0133491
691.343	0.0134328
691.421	0.0135468
691.499	0.0136313
691.578	0.0139763
691.656	0.0141981
691.734	0.0143894
691.812	0.0145904
691.890	0.0147255
691.968	0.0148370
692.046	0.0148965
692.124	0.0150830
692.203	0.0151230
692.281	0.0150172
692.359	0.0149436
692.437	0.0148925
692.515	0.0148568
692.593	0.0146368
692.671	0.0144060
692.749	0.0142704
692.828	0.0140710
692.906	0.0138707
692.984	0.0135556
693.062	0.0133191
693.140	0.0134544
693.218	0.0131942
693.296	0.0131776
693.374	0.0131091
693.453	0.0128738
693.531	0.0129234
693.609	0.0128158
693.687	0.0127628
693.765	0.0127366
693.843	0.0128513
693.921	0.0127664
693.999	0.0127706
694.078	0.0127734
694.156	0.0128123
694.234	0.0127715
694.312	0.0126815
694.390	0.0125543
694.468	0.0126878
694.546	0.0127393
694.624	0.0128185
694.703	0.0128551
694.781	0.0129870
694.859	0.0128561
694.937	0.0131491
695.015	0.0132320
695.093	0.0130984
695.171	0.0131068
695.249	0.0133611
695.328	0.0134070
695.406	0.0133060
695.484	0.0134679
695.562	0.0134910
695.640	0.0135194
695.718	0.0134791
695.796	0.0133311
695.874	0.0134964
695.953	0.0134425
696.031	0.0134638
696.109	0.0136468
696.187	0.0137378
696.265	0.0137778
696.343	0.0139241
696.421	0.0141445
696.499	0.0143012
696.578	0.0144183
696.656	0.0146842
696.734	0.0149065
696.812	0.0151304
696.890	0.0152858
696.968	0.0154762
697.046	0.0157225
697.124	0.0156551
697.203	0.0157553
697.281	0.0154669
697.359	0.0154212
697.437	0.0154716
697.515	0.0151981
697.593	0.0148775
697.671	0.0145890
697.749	0.0143456
697.828	0.0139969
697.906	0.0137325
697.984	0.0134366
698.062	0.0131279
698.140	0.0128807
698.218	0.0126868
698.296	0.0125645
698.374	0.0124588
698.453	0.0123959
698.531	0.0123901
698.609	0.0124372
698.687	0.0123664
698.765	0.0123923
698.843	0.0123558
698.921	0.0123162
698.999	0.0123538
699.078	0.0123328
699.156	0.0123543
699.234	0.0124366
699.312	0.0124765
699.390	0.0125241
699.468	0.0125287
699.546	0.0126080
699.624	0.0126885
699.703	0.0125348
699.781	0.0128017
699.859	0.0130421
699.937	0.0131554
700.015	0.0131256
700.093	0.0134141
700.171	0.0134301
700.249	0.0136452
700.328	0.0138800
700.406	0.0139016
700.484	0.0139579
700.562	0.0139972
700.640	0.0141440
700.718	0.0141801
700.796	0.0142297
700.874	0.0142677
700.953	0.0140871
701.031	0.0140823
701.109	0.0140894
701.187	0.0140476
701.265	0.0139330
701.343	0.0140725
701.421	0.0139072
701.499	0.0140386
701.578	0.0142130
701.656	0.0143330
701.734	0.0143665
701.812	0.0146397
701.890	0.0147181
701.968	0.0149529
702.046	0.0150954
702.124	0.0151644
702.203	0.0151283
702.281	0.0153134
702.359	0.0153526
702.437	0.0150268
702.515	0.0150055
702.593	0.0149982
702.671	0.0146099
702.749	0.0144035
702.828	0.0143158
702.906	0.0141285
702.984	0.0138134
703.062	0.0136768
703.140	0.0135226
703.218	0.0132762
703.296	0.0130797
703.374	0.0129101
703.453	0.0127240
703.531	0.0126923
703.609	0.0126572
703.687	0.0126350
703.765	0.0125196
703.843	0.0122128
703.921	0.0124398
703.999	0.0122861
704.078	0.0120903
704.156	0.0122624
704.234	0.0120253
704.312	0.0121378
704.390	0.0120811
704.468	0.0121995
704.546	0.0123022
704.624	0.0123716
704.703	0.0125610
704.781	0.0125999
704.859	0.0128475
704.937	0.0130716
705.015	0.0132828
705.093	0.0134808
705.171	0.0137361
705.249	0.0140061
705.328	0.0143075
705.406	0.0144141
705.484	0.0145107
705.562	0.0147035
705.640	0.0148258
705.718	0.0146487
705.796	0.0145176
705.874	0.0143163
705.953	0.0143466
706.031	0.0141920
706.109	0.0139925
706.187	0.0139022
706.265	0.0135774
706.343	0.0136390
706.421	0.0134747
706.499	0.0133876
706.578	0.0134047
706.656	0.0134394
706.734	0.0135173
706.812	0.0136133
706.890	0.0139024
706.968	0.0141991
707.046	0.0145202
707.124	0.0148013
707.203	0.0150826
707.281	0.0151160
707.359	0.0153591
707.437	0.0155692
707.515	0.0155468
707.593	0.0154243
707.671	0.0155621
707.749	0.0153562
707.828	0.0152071
707.906	0.0149085
707.984	0.0146053
708.062	0.0143635
708.140	0.0141705
708.218	0.0137951
708.296	0.0133405
708.374	0.0131950
708.453	0.0131514
708.531	0.0128986
708.609	0.0125935
708.687	0.0123019
708.765	0.0122365
708.843	0.0121576
708.921	0.0120640
708.999	0.0118592
709.078	0.0117968
709.156	0.0119464
709.234	0.0118835
709.312	0.0119514
709.390	0.0120950
709.468	0.0120567
709.546	0.0122753
709.624	0.0125581
709.703	0.0126199
709.781	0.0128828
709.859	0.0131306
709.937	0.0133425
710.015	0.0134811
710.093	0.0136973
710.171	0.0138383
710.249	0.0141377
710.328	0.0142741
710.406	0.0145503
710.484	0.0145219
710.562	0.0145886
710.640	0.0146763
710.718	0.0147420
710.796	0.0145691
710.874	0.0145969
710.953	0.0144391
711.031	0.0143185
711.109	0.0141056
711.187	0.0138545
711.265	0.0137158
711.343	0.0134137
711.421	0.0135077
711.499	0.0133932
711.578	0.0132150
711.656	0.0132616
711.734	0.0131372
711.812	0.0131671
711.890	0.0132409
711.968	0.0133915
712.046	0.0135963
712.124	0.0138251
712.203	0.0140298
712.281	0.0143449
712.359	0.0147460
712.437	0.0147190
712.515	0.0148677
712.593	0.0150344
712.671	0.0150948
712.749	0.0151704
712.828	0.0151489
712.906	0.0151800
712.984	0.0150031
713.062	0.0148900
713.140	0.0146168
713.218	0.0142419
713.296	0.0139885
713.374	0.0138504
713.453	0.0135184
713.531	0.0134245
713.609	0.0130168
713.687	0.0128434
713.765	0.0126764
713.843	0.0126232
713.921	0.0125310
713.999	0.0122326
714.078	0.0122733
714.156	0.0122331
714.234	0.0119819
714.312	0.0121954
714.390	0.0121976
714.468	0.0122018
714.546	0.0123344
714.624	0.0125605
714.703	0.0124844
714.781	0.0127139
714.859	0.0128789
714.937	0.0130948
715.015	0.0133443
715.093	0.0135243
715.171	0.0136234
715.249	0.0136534
715.328	0.0139072
715.406	0.0138819
715.484	0.0138571
715.562	0.0141042
715.640	0.0142285
715.718	0.0140942
715.796	0.0142210
715.874	0.0142485
715.953	0.0144313
716.031	0.0142197
716.109	0.0143790
716.187	0.0143845
716.265	0.0141439
716.343	0.0139697
716.421	0.0138844
716.499	0.0137901
716.578	0.0137301
716.656	0.0135394
716.734	0.0133515
716.812	0.0132628
716.890	0.0132781
716.968	0.0131937
717.046	0.0132007
717.124	0.0132597
717.203	0.0133388
717.281	0.0134126
717.359	0.0135851
717.437	0.0136476
717.515	0.0138058
717.593	0.0139748
717.671	0.0141999
717.749	0.0143666
717.828	0.0143891
717.906	0.0146167
717.984	0.0147719
718.062	0.0146893
718.140	0.0147692
718.218	0.0147688
718.296	0.0148138
718.374	0.0146484
718.453	0.0145746
718.531	0.0145496
718.609	0.0143596
718.687	0.0143456
718.765	0.0139083
718.843	0.0137569
718.921	0.0134798
718.999	0.0132143
719.078	0.0128999
719.156	0.0127975
719.234	0.0125456
719.312	0.0124146
719.390	0.0123346
719.468	0.0122830
719.546	0.0121474
719.624	0.0122260
719.703	0.0121767
719.781	0.0121378
719.859	0.0122591
719.937	0.0124394
720.015	0.0124998
720.093	0.0127679
720.171	0.0129443
720.249	0.0129921
720.328	0.0132936
720.406	0.0134097
720.484	0.0135793
720.562	0.0137966
720.640	0.0139718
720.718	0.0140087
720.796	0.0141806
720.874	0.0141901
720.953	0.0142749
721.031	0.0143061
721.109	0.0143643
721.187	0.0142322
721.265	0.0142493
721.343	0.0142031
721.421	0.0140726
721.499	0.0140668
721.578	0.0139573
721.656	0.0138314
721.734	0.0137182
721.812	0.0136147
721.890	0.0134880
721.968	0.0134040
722.046	0.0132467
722.124	0.0132092
722.203	0.0131282
722.281	0.0130827
722.359	0.0131435
722.437	0.0130385
722.515	0.0133405
722.593	0.0135114
722.671	0.0136858
722.749	0.0136265
722.828	0.0138914
722.906	0.0141144
722.984	0.0143961
723.062	0.0144631
723.140	0.0146205
723.218	0.0148058
723.296	0.0147937
723.374	0.0147495
723.453	0.0146881
723.531	0.0148524
723.609	0.0148404
723.687	0.0147648
723.765	0.0143557
723.843	0.0144000
723.921	0.0142307
723.999	0.0139850
724.078	0.0137934
724.156	0.0134968
724.234	0.0131665
724.312	0.0129758
724.390	0.0127640
724.468	0.0126003
724.546	0.0123136
724.624	0.0123638
724.703	0.0121753
724.781	0.0121850
724.859	0.0122799
724.937	0.0122261
725.015	0.0123561
725.093	0.0125073
725.171	0.0123357
725.249	0.0127612
725.328	0.0129984
725.406	0.0131304
725.484	0.0132355
725.562	0.0134670
725.640	0.0136979
725.718	0.0137854
725.796	0.0139220
725.874	0.0140974
725.953	0.0141820
726.031	0.0143383
726.109	0.0143447
726.187	0.0142796
726.265	0.0142458
726.343	0.0143510
726.421	0.0142572
726.499	0.0142072
726.578	0.0139995
726.656	0.0140500
726.734	0.0138034
726.812	0.0137084
726.890	0.0138781
726.968	0.0137351
727.046	0.0135037
727.124	0.0134361
727.203	0.0133629
727.281	0.0132861
727.359	0.0133744
727.437	0.0131474
727.515	0.0132310
727.593	0.0131258
727.671	0.0131890
727.749	0.0134634
727.828	0.0134702
727.906	0.0136529
727.984	0.0137605
728.062	0.0139919
728.140	0.0142571
728.218	0.0142122
728.296	0.0144460
728.374	0.0144981
728.453	0.0146191
728.531	0.0146555
728.609	0.0146651
728.687	0.0145408
728.765	0.0144765
728.843	0.0143987
728.921	0.0142973
728.999	0.0141889
729.078	0.0138453
729.156	0.0138119
729.234	0.0136060
729.312	0.0135273
729.390	0.0134581
729.468	0.0131628
729.546	0.0130173
729.624	0.0128892
729.703	0.0129214
729.781	0.0129035
729.859	0.0127963
729.937	0.0127744
730.015	0.0128082
730.093	0.0127515
730.171	0.0129271
730.249	0.0129536
730.328	0.0129618
730.406	0.0130753
730.484	0.0133182
730.562	0.0132449
730.640	0.0133840
730.718	0.0135986
730.796	0.0136016
730.874	0.0137684
730.953	0.0138916
731.031	0.0137554
731.109	0.0139611
731.187	0.0139588
731.265	0.0139953
731.343	0.0140005
731.421	0.0140824
731.499	0.0140644
731.578	0.0139220
731.656	0.0138992
731.734	0.0138364
731.812	0.0138148
731.890	0.0137978
731.968	0.0137061
732.046	0.0135718
732.124	0.0134900
732.203	0.0136477
732.281	0.0135296
732.359	0.0135677
732.437	0.0135405
732.515	0.0135424
732.593	0.0134679
732.671	0.0135390
732.749	0.0135023
732.828	0.0133672
732.906	0.0134900
732.984	0.0135007
733.062	0.0137262
733.140	0.0137952
733.218	0.0137747
733.296	0.0137312
733.374	0.0138469
733.453	0.0139740
733.531	0.0141102
733.609	0.0141934
733.687	0.0142718
733.765	0.0142799
733.843	0.0143238
733.921	0.0143343
733.999	0.0141565
734.078	0.0140578
734.156	0.0140336
734.234	0.0139432
734.312	0.0139497
734.390	0.0137567
734.468	0.0136844
734.546	0.0135909
734.624	0.0135007
734.703	0.0134447
734.781	0.0132919
734.859	0.0132240
734.937	0.0130774
735.015	0.0131973
735.093	0.0131078
735.171	0.0131108
735.249	0.0130288
735.328	0.0130317
735.406	0.0131770
735.484	0.0131080
735.562	0.0131451
735.640	0.0133762
735.718	0.0132787
735.796	0.0133098
735.874	0.0134930
735.953	0.0134087
736.031	0.0135153
736.109	0.0136660
736.187	0.0136850
736.265	0.0137843
736.343	0.0137937
736.421	0.0137977
736.499	0.0138440
736.578	0.0137184
736.656	0.0137328
736.734	0.0138293
736.812	0.0137723
736.890	0.0137517
736.968	0.0138354
737.046	0.0137363
737.124	0.0136659
737.203	0.0137457
737.281	0.0137121
737.359	0.0136816
737.437	0.0137730
737.515	0.0135195
737.593	0.0136617
737.671	0.0138168
737.749	0.0137116
737.828	0.0137160
737.906	0.0138360
737.984	0.0136481
738.062	0.0135854
738.140	0.0136436
738.218	0.0138511
738.296	0.0136911
738.374	0.0138896
738.453	0.0138026
738.531	0.0138777
738.609	0.0139429
738.687	0.0138819
738.765	0.0139005
738.843	0.0139454
738.921	0.0140108
738.999	0.0140858
739.078	0.0138383
739.156	0.0139310
739.234	0.0138619
739.312	0.0138062
739.390	0.0137212
739.468	0.0139733
739.546	0.0137149
739.624	0.0133676
739.703	0.0135516
739.781	0.0134988
739.859	0.0134181
739.937	0.0133734
740.015	0.0134670
740.093	0.0133232
740.171	0.0132592
740.249	0.0134035
740.328	0.0133495
740.406	0.0133128
740.484	0.0133906
740.562	0.0134071
740.640	0.0133350
740.718	0.0134593
740.796	0.0134176
740.874	0.0134408
740.953	0.0135828
741.031	0.0137242
741.109	0.0135500
741.187	0.0136901
741.265	0.0137128
741.343	0.0137061
741.421	0.0138577
741.499	0.0137556
741.578	0.0137914
741.656	0.0138496
741.734	0.0137933
741.812	0.0135223
741.890	0.0137043
741.968	0.0136283
742.046	0.0137241
742.124	0.0136694
742.203	0.0136069
742.281	0.0135715
742.359	0.0135042
742.437	0.0136334
742.515	0.0136718
742.593	0.0136444
742.671	0.0135345
742.749	0.0134367
742.828	0.0136064
742.906	0.0136485
742.984	0.0134819
743.062	0.0134549
743.140	0.0134895
743.218	0.0135810
743.296	0.0135589
743.374	0.0136113
743.453	0.0135217
743.531	0.0136810
743.609	0.0135400
743.687	0.0136870
743.765	0.0134958
743.843	0.0135117
743.921	0.0137499
743.999	0.0136592
744.078	0.0137101
744.156	0.0137705
744.234	0.0138102
744.312	0.0136070
744.390	0.0137943
744.468	0.0136404
744.546	0.0137395
744.624	0.0136820
744.703	0.0134943
744.781	0.0135394
744.859	0.0135084
744.937	0.0135870
745.015	0.0135152
745.093	0.0134055
745.171	0.0136585
745.249	0.0134785
745.328	0.0135246
745.406	0.0135989
745.484	0.0135529
745.562	0.0136614
745.640	0.0135883
745.718	0.0136177
745.796	0.0136034
745.874	0.0136741
745.953	0.0135809
746.031	0.0137201
746.109	0.0136857
746.187	0.0136432
746.265	0.0136062
746.343	0.0137490
746.421	0.0137354
746.499	0.0135542
746.578	0.0134888
746.656	0.0134880
746.734	0.0135719
746.812	0.0135128
746.890	0.0134298
746.968	0.0134815
747.046	0.0134861
747.124	0.0133408
747.203	0.0135162
747.281	0.0134394
747.359	0.0134438
747.437	0.0135551
747.515	0.0135295
747.593	0.0134154
747.671	0.0136635
747.749	0.0135444
747.828	0.0135533
747.906	0.0136780
747.984	0.0136116
748.062	0.0137024
748.140	0.0138438
748.218	0.0138148
748.296	0.0137814
748.374	0.0137991
748.453	0.0138377
748.531	0.0138029
748.609	0.0138996
748.687	0.0137878
748.765	0.0137316
748.843	0.0138559
748.921	0.0137254
748.999	0.0137646
749.078	0.0137294
749.156	0.0136720
749.234	0.0135114
749.312	0.0134577
749.390	0.0135597
749.468	0.0135345
749.546	0.0136740
749.624	0.0134724
749.703	0.0134977
749.781	0.0135388
749.859	0.0135394
749.937	0.0136360
750.015	0.0135129
750.093	0.0136443
750.171	0.0135454
750.249	0.0137312
750.328	0.0136392
750.406	0.0137556
750.484	0.0136217
750.562	0.0136785
750.640	0.0138534
750.718	0.0136969
750.796	0.0138039
750.874	0.0137939
750.953	0.0137411
751.031	0.0136323
751.109	0.0136372
751.187	0.0137305
751.265	0.0139354
751.343	0.0138248
751.421	0.0136211
751.499	0.0135108
751.578	0.0137765
751.656	0.0136221
751.734	0.0136202
751.812	0.0135580
751.890	0.0134560
751.968	0.0135825
752.046	0.0133644
752.124	0.0135195
752.203	0.0134084
752.281	0.0135703
752.359	0.0134407
752.437	0.0135727
752.515	0.0136143
752.593	0.0135616
752.671	0.0136583
752.749	0.0136985
752.828	0.0137406
752.906	0.0137443
752.984	0.0136589
753.062	0.0138458
753.140	0.0137469
753.218	0.0138465
753.296	0.0138248
753.374	0.0138292
753.453	0.0140152
753.531	0.0139406
753.609	0.0138571
753.687	0.0137462
753.765	0.0140280
753.843	0.0140183
753.921	0.0137368
753.999	0.0138200
754.078	0.0137255
754.156	0.0136474
754.234	0.0135995
754.312	0.0134633
754.390	0.0135638
754.468	0.0135341
754.546	0.0134722
754.624	0.0134005
754.703	0.0133990
754.781	0.0133210
754.859	0.0134137
754.937	0.0133607
755.015	0.0133743
755.093	0.0134274
755.171	0.0133584
755.249	0.0133232
755.328	0.0135625
755.406	0.0136524
755.484	0.0136479
755.562	0.0135590
755.640	0.0136884
755.718	0.0138239
755.796	0.0137054
755.874	0.0138464
755.953	0.0139293
756.031	0.0139088
756.109	0.0140321
756.187	0.0141039
756.265	0.0139365
756.343	0.0140518
756.421	0.0140096
756.499	0.0138946
756.578	0.0139806
756.656	0.0138372
756.734	0.0138350
756.812	0.0137950
756.890	0.0138393
756.968	0.0136070
757.046	0.0136123
757.124	0.0136175
757.203	0.0135427
757.281	0.0135698
757.359	0.0135912
757.437	0.0135471
757.515	0.0134581
757.593	0.0135142
757.671	0.0135809
757.749	0.0134629
757.828	0.0135812
757.906	0.0136180
757.984	0.0136322
758.062	0.0137177
758.140	0.0137594
758.218	0.0137183
758.296	0.0137540
758.374	0.0138441
758.453	0.0138369
758.531	0.0139158
758.609	0.0139373
758.687	0.0139077
758.765	0.0139256
758.843	0.0138866
758.921	0.0138161
758.999	0.0138451
759.078	0.0137909
759.156	0.0137506
759.234	0.0136147
759.312	0.0135240
759.390	0.0135075
759.468	0.0134321
759.546	0.0135221
759.624	0.0134353
759.703	0.0133501
759.781	0.0133337
759.859	0.0133264
759.937	0.0134157
760.015	0.0134558
760.093	0.0133685
760.171	0.0134112
760.249	0.0135600
760.328	0.0135944
760.406	0.0136118
760.484	0.0136658
760.562	0.0136059
760.640	0.0136398
760.718	0.0138433
760.796	0.0139175
760.874	0.0139986
760.953	0.0138496
761.031	0.0137634
761.109	0.0138766
761.187	0.0138048
761.265	0.0139155
761.343	0.0139228
761.421	0.0139095
761.499	0.0138525
761.578	0.0138592
761.656	0.0137870
761.734	0.0138173
761.812	0.0138442
761.890	0.0137185
761.968	0.0136863
762.046	0.0136501
762.124	0.0134852
762.203	0.0135492
762.281	0.0135332
762.359	0.0135290
762.437	0.0136332
762.515	0.0134902
762.593	0.0133617
762.671	0.0135692
762.749	0.0136664
762.828	0.0135696
762.906	0.0134832
762.984	0.0136243
763.062	0.0136909
763.140	0.0137563
763.218	0.0136832
763.296	0.0136127
763.374	0.0137377
763.453	0.0139091
763.531	0.0136998
763.609	0.0138232
763.687	0.0138846
763.765	0.0137613
763.843	0.0137801
763.921	0.0138675
763.999	0.0138227
764.078	0.0137769
764.156	0.0138369
764.234	0.0137708
764.312	0.0136161
764.390	0.0137521
764.468	0.0136536
764.546	0.0135176
764.624	0.0136651
764.703	0.0136185
764.781	0.0135132
764.859	0.0135324
764.937	0.0136461
765.015	0.0135237
765.093	0.0135128
765.171	0.0136322
765.249	0.0137087
765.328	0.0137340
765.406	0.0136124
765.484	0.0136542
765.562	0.0136880
765.640	0.0136016
765.718	0.0135696
765.796	0.0136578
765.874	0.0136166
765.953	0.0135464
766.031	0.0136948
766.109	0.0136900
766.187	0.0134547
766.265	0.0136012
766.343	0.0136636
766.421	0.0137531
766.499	0.0137625
766.578	0.0137337
766.656	0.0137095
766.734	0.0137134
766.812	0.0136636
766.890	0.0136972
766.968	0.0138387
767.046	0.0138180
767.124	0.0136613
767.203	0.0138277
767.281	0.0137979
767.359	0.0138918
767.437	0.0137333
767.515	0.0136358
767.593	0.0136853
767.671	0.0137036
767.749	0.0137601
767.828	0.0137521
767.906	0.0135402
767.984	0.0134518
768.062	0.0135931
768.140	0.0135246
768.218	0.0136345
768.296	0.0136442
768.374	0.0135954
768.453	0.0136285
768.531	0.0136214
768.609	0.0136450
768.687	0.0136996
768.765	0.0135639
768.843	0.0137450
768.921	0.0135842
768.999	0.0136462
769.078	0.0135693
769.156	0.0135615
769.234	0.0137461
769.312	0.0136351
769.390	0.0135662
769.468	0.0137678
769.546	0.0136662
769.624	0.0136412
769.703	0.0137166
769.781	0.0138094
769.859	0.0138058
769.937	0.0137064
770.015	0.0136590
770.093	0.0137185
770.171	0.0138324
770.249	0.0136378
770.328	0.0137905
770.406	0.0137383
770.484	0.0136101
770.562	0.0137013
770.640	0.0136732
770.718	0.0136175
770.796	0.0136018
770.874	0.0137518
770.953	0.0138232
771.031	0.0137181
771.109	0.0136056
771.187	0.0135905
771.265	0.0135786
771.343	0.0137250
771.421	0.0137636
771.499	0.0137988
771.578	0.0135965
771.656	0.0136897
771.734	0.0137734
771.812	0.0136516
771.890	0.0137038
771.968	0.0135985
772.046	0.0138200
772.124	0.0135054
772.203	0.0135584
772.281	0.0136942
772.359	0.0135562
772.437	0.0134933
772.515	0.0134915
772.593	0.0135813
772.671	0.0135372
772.749	0.0135556
772.828	0.0136886
772.906	0.0136874
772.984	0.0137068
773.062	0.0137495
773.140	0.0137355
773.218	0.0136667
773.296	0.0137499
773.374	0.0136745
773.453	0.0136579
773.531	0.0136449
773.609	0.0137489
773.687	0.0136957
773.765	0.0136002
773.843	0.0135548
773.921	0.0136468
773.999	0.0134866
774.078	0.0136320
774.156	0.0136088
774.234	0.0135173
774.312	0.0135345
774.390	0.0135835
774.468	0.0137006
774.546	0.0137025
774.624	0.0136175
774.703	0.0136915
774.781	0.0137543
774.859	0.0136170
774.937	0.0136858
775.015	0.0137432
775.093	0.0137686
775.171	0.0137820
775.249	0.0136828
775.328	0.0137573
775.406	0.0137446
775.484	0.0137608
775.562	0.0137688
775.640	0.0137164
775.718	0.0138670
775.796	0.0136983
775.874	0.0136033
775.953	0.0137070
776.031	0.0137022
776.109	0.0134299
776.187	0.0135530
776.265	0.0136401
776.343	0.0135591
776.421	0.0135242
776.499	0.0136226
776.578	0.0134774
776.656	0.0135780
776.734	0.0134747
776.812	0.0135905
776.890	0.0136333
776.968	0.0135010
777.046	0.0136610
777.124	0.0135285
777.203	0.0137019
777.281	0.0137688
777.359	0.0136913
777.437	0.0136494
777.515	0.0136440
777.593	0.0136707
777.671	0.0137448
777.749	0.0136525
777.828	0.0137035
777.906	0.0137370
777.984	0.0137212
778.062	0.0137286
778.140	0.0137663
778.218	0.0137058
778.296	0.0137884
778.374	0.0136749
778.453	0.0137432
778.531	0.0137313
778.609	0.0135753
778.687	0.0138206
778.765	0.0137006
778.843	0.0136491
778.921	0.0136637
778.999	0.0135995
779.078	0.0136189
779.156	0.0136726
779.234	0.0137074
779.312	0.0138702
779.390	0.0136981
779.468	0.0136361
779.546	0.0136298
779.624	0.0137563
779.703	0.0136586
779.781	0.0137363
779.859	0.0136891
779.937	0.0137358
780.015	0.0136804
780.093	0.0137733
780.171	0.0137598
780.249	0.0136539
780.328	0.0136781
780.406	0.0137045
780.484	0.0138266
780.562	0.0137954
780.640	0.0136982
780.718	0.0137992
780.796	0.0138416
780.874	0.0138902
780.953	0.0139061
781.031	0.0138561
781.109	0.0137115
781.187	0.0137093
781.265	0.0137584
781.343	0.0136112
781.421	0.0136149
781.499	0.0137541
781.578	0.0135167
781.656	0.0134958
781.734	0.0135636
781.812	0.0136109
781.890	0.0137110
781.968	0.0136050
782.046	0.0134291
782.124	0.0136494
782.203	0.0135038
782.281	0.0137557
782.359	0.0135757
782.437	0.0137175
782.515	0.0136892
782.593	0.0137900
782.671	0.0137322
782.749	0.0137611
782.828	0.0137008
782.906	0.0138581
782.984	0.0138676
783.062	0.0138472
783.140	0.0137647
783.218	0.0136906
783.296	0.0139613
783.374	0.0137822
783.453	0.0137031
783.531	0.0137119
783.609	0.0137641
783.687	0.0137138
783.765	0.0137550
783.843	0.0136855
783.921	0.0138015
783.999	0.0137446
784.078	0.0136427
784.156	0.0137212
784.234	0.0136118
784.312	0.0137598
784.390	0.0136010
784.468	0.0136198
784.546	0.0135680
784.624	0.0135366
784.703	0.0135701
784.781	0.0136060
784.859	0.0134809
784.937	0.0135121
785.015	0.0135515
785.093	0.0136062
785.171	0.0135637
785.249	0.0135111
785.328	0.0135048
785.406	0.0135812
785.484	0.0136090
785.562	0.0137458
785.640	0.0137063
785.718	0.0134963
785.796	0.0135172
785.874	0.0137909
785.953	0.0135771
786.031	0.0135673
786.109	0.0137991
786.187	0.0136466
786.265	0.0135861
786.343	0.0136335
786.421	0.0136243
786.499	0.0135703
786.578	0.0137515
786.656	0.0136806
786.734	0.0135780
786.812	0.0137064
786.890	0.0136312
786.968	0.0135896
787.046	0.0135841
787.124	0.0137478
787.203	0.0135918
787.281	0.0136023
787.359	0.0136063
787.437	0.0135867
787.515	0.0136883
787.593	0.0138196
787.671	0.0137202
787.749	0.0136777
787.828	0.0138442
787.906	0.0138517
787.984	0.0138141
788.062	0.0137663
788.140	0.0137317
788.218	0.0137314
788.296	0.0137682
788.374	0.0138759
788.453	0.0137756
788.531	0.0139261
788.609	0.0137443
788.687	0.0136984
788.765	0.0137670
788.843	0.0136186
788.921	0.0136855
788.999	0.0137123
789.078	0.0137924
789.156	0.0136296
789.234	0.0135709
789.312	0.0136049
789.390	0.0135488
789.468	0.0135600
789.546	0.0137285
789.624	0.0136643
789.703	0.0136502
789.781	0.0135873
789.859	0.0136589
789.937	0.0137141
790.015	0.0136698
790.093	0.0135810
790.171	0.0136084
790.249	0.0136237
790.328	0.0136850
790.406	0.0135400
790.484	0.0135462
790.562	0.0136835
790.640	0.0136151
790.718	0.0136839
790.796	0.0136129
790.874	0.0134001
790.953	0.0135146
791.031	0.0135231
791.109	0.0134689
791.187	0.0134077
791.265	0.0133899
791.343	0.0134896
791.421	0.0135681
791.499	0.0134444
791.578	0.0134743
791.656	0.0134919
791.734	0.0135173
791.812	0.0136196
791.890	0.0135524
791.968	0.0135856
792.046	0.0135433
792.124	0.0135617
792.203	0.0136700
792.281	0.0136126
792.359	0.0136447
792.437	0.0137270
792.515	0.0138108
792.593	0.0136684
792.671	0.0139053
792.749	0.0136729
792.828	0.0136772
792.906	0.0138374
792.984	0.0138007
793.062	0.0136754
793.140	0.0136645
793.218	0.0137241
793.296	0.0136574
793.374	0.0136392
793.453	0.0137163
793.531	0.0138036
793.609	0.0136220
793.687	0.0135049
793.765	0.0136381
793.843	0.0136849
793.921	0.0136634
793.999	0.0136843
794.078	0.0137347
794.156	0.0137206
794.234	0.0137459
794.312	0.0138634
794.390	0.0138446
794.468	0.0136642
794.546	0.0136861
794.624	0.0136735
794.703	0.0137065
794.781	0.0136721
794.859	0.0135015
794.937	0.0135412
795.015	0.0136392
795.093	0.0134605
795.171	0.0134893
795.249	0.0134476
795.328	0.0134889
795.406	0.0135109
795.484	0.0136041
795.562	0.0132893
795.640	0.0133904
795.718	0.0135114
795.796	0.0135056
795.874	0.0134196
795.953	0.0134732
796.031	0.0135014
796.109	0.0134246
796.187	0.0134946
796.265	0.0133731
796.343	0.0135004
796.421	0.0135993
796.499	0.0135001
796.578	0.0135905
796.656	0.0136829
796.734	0.0135088
796.812	0.0135143
796.890	0.0135320
796.968	0.0137623
797.046	0.0137224
797.124	0.0135562
797.203	0.0135726
797.281	0.0135990
797.359	0.0136295
797.437	0.0136411
797.515	0.0137814
797.593	0.0136671
797.671	0.0135924
797.749	0.0137910
797.828	0.0136965
797.906	0.0137345
797.984	0.0137220
798.062	0.0137592
798.140	0.0137106
798.218	0.0136781
798.296	0.0136879
798.374	0.0136713
798.453	0.0137211
798.531	0.0137393
798.609	0.0136170
798.687	0.0136687
798.765	0.0136991
798.843	0.0135732
798.921	0.0137593
798.999	0.0136707
799.078	0.0135907
799.156	0.0137202
799.234	0.0136320
799.312	0.0137285
799.390	0.0136760
799.468	0.0136388
799.546	0.0135897
799.624	0.0137924
799.703	0.0136398
799.781	0.0136431
799.859	0.0136713
799.937	0.0135051
800.015	0.0136816
800.093	0.0134812
800.171	0.0133069
800.249	0.0132703
800.328	0.0135072
800.406	0.0134869
800.484	0.0133763
800.562	0.0133265
800.640	0.0133735
800.718	0.0131670
800.796	0.0133147
800.874	0.0135384
800.953	0.0133630
801.031	0.0133521
801.109	0.0133922
801.187	0.0135571
801.265	0.0134074
801.343	0.0135344
801.421	0.0135365
801.499	0.0135258
801.578	0.0136520
801.656	0.0136743
801.734	0.0136891
801.812	0.0135501
801.890	0.0135724
801.968	0.0135819
802.046	0.0137704
802.124	0.0136316
802.203	0.0137476
802.281	0.0137200
802.359	0.0137011
802.437	0.0137743
802.515	0.0138830
802.593	0.0138438
802.671	0.0138999
802.749	0.0137378
802.828	0.0137938
802.906	0.0137333
802.984	0.0137806
803.062	0.0138530
803.140	0.0138390
803.218	0.0138098
803.296	0.0137783
803.374	0.0137614
803.453	0.0135733
803.531	0.0137629
803.609	0.0136891
803.687	0.0136256
803.765	0.0137038
803.843	0.0137503
803.921	0.0137154
803.999	0.0136067
804.078	0.0136220
804.156	0.0137242
804.234	0.0136876
804.312	0.0135660
804.390	0.0134670
804.468	0.0136116
804.546	0.0136340
804.624	0.0135393
804.703	0.0135470
804.781	0.0135201
804.859	0.0135453
804.937	0.0135401
805.015	0.0134186
805.093	0.0135104
805.171	0.0136169
805.249	0.0134442
805.328	0.0136255
805.406	0.0136372
805.484	0.0134854
805.562	0.0135432
805.640	0.0134480
805.718	0.0136129
805.796	0.0134993
805.874	0.0134879
805.953	0.0136485
806.031	0.0135033
806.109	0.0135535
806.187	0.0136732
806.265	0.0135109
806.343	0.0135333
806.421	0.0134916
806.499	0.0134945
806.578	0.0135665
806.656	0.0134280
806.734	0.0135387
806.812	0.0135299
806.890	0.0134768
806.968	0.0137897
807.046	0.0136216
807.124	0.0136579
807.203	0.0136897
807.281	0.0136053
807.359	0.0135992
807.437	0.0136744
807.515	0.0139109
807.593	0.0138577
807.671	0.0136755
807.749	0.0136932
807.828	0.0136926
807.906	0.0137529
807.984	0.0136750
808.062	0.0137637
808.140	0.0136861
808.218	0.0138508
808.296	0.0137640
808.374	0.0137055
808.453	0.0136890
808.531	0.0136745
808.609	0.0136745
808.687	0.0136050
808.765	0.0135970
808.843	0.0137053
808.921	0.0135780
808.999	0.0136629
809.078	0.0136491
809.156	0.0135114
809.234	0.0136983
809.312	0.0136462
809.390	0.0136089
809.468	0.0136359
809.546	0.0136173
809.624	0.0136344
809.703	0.0136179
809.781	0.0136657
809.859	0.0136552
809.937	0.0135042
810.015	0.0134872
810.093	0.0134934
810.171	0.0136507
810.249	0.0135171
810.328	0.0136912
810.406	0.0135411
810.484	0.0136333
810.562	0.0135345
810.640	0.0135506
810.718	0.0136991
810.796	0.0135341
810.874	0.0135509
810.953	0.0135027
811.031	0.0134985
811.109	0.0136354
811.187	0.0134605
811.265	0.0134924
811.343	0.0135575
811.421	0.0135204
811.499	0.0136179
811.578	0.0135922
811.656	0.0134608
811.734	0.0135823
811.812	0.0135151
811.890	0.0134502
811.968	0.0135660
812.046	0.0136958
812.124	0.0136842
812.203	0.0136313
812.281	0.0136083
812.359	0.0137514
812.437	0.0136111
812.515	0.0136465
812.593	0.0136938
812.671	0.0137859
812.749	0.0135927
812.828	0.0136822
812.906	0.0136304
812.984	0.0136421
813.062	0.0136535
813.140	0.0136089
813.218	0.0136369
813.296	0.0135715
813.374	0.0136410
813.453	0.0135870
813.531	0.0136114
813.609	0.0134908
813.687	0.0135609
813.765	0.0137160
813.843	0.0135362
813.921	0.0136647
813.999	0.0136710
814.078	0.0137005
814.156	0.0137239
814.234	0.0137091
814.312	0.0136848
814.390	0.0137608
814.468	0.0137370
814.546	0.0136862
814.624	0.0137484
814.703	0.0136979
814.781	0.0137481
814.859	0.0136935
814.937	0.0135468
815.015	0.0136109
815.093	0.0137386
815.171	0.0136418
815.249	0.0137651
815.328	0.0135937
815.406	0.0134916
815.484	0.0134783
815.562	0.0134456
815.640	0.0135422
815.718	0.0135214
815.796	0.0133988
815.874	0.0133945
815.953	0.0132391
816.031	0.0133533
816.109	0.0134086
816.187	0.0133887
816.265	0.0134879
816.343	0.0134685
816.421	0.0134596
816.499	0.0133808
816.578	0.0134056
816.656	0.0133720
816.734	0.0135663
816.812	0.0135726
816.890	0.0134907
816.968	0.0133502
817.046	0.0135668
817.124	0.0135102
817.203	0.0135387
817.281	0.0134937
817.359	0.0135936
817.437	0.0135216
817.515	0.0134739
817.593	0.0135352
817.671	0.0136125
817.749	0.0135622
817.828	0.0135154
817.906	0.0134971
817.984	0.0136051
818.062	0.0136926
818.140	0.0134634
818.218	0.0136600
818.296	0.0135894
818.374	0.0137036
818.453	0.0136242
818.531	0.0135114
818.609	0.0136950
818.687	0.0136151
818.765	0.0137904
818.843	0.0137125
818.921	0.0137013
818.999	0.0136740
819.078	0.0135784
819.156	0.0138342
819.234	0.0138615
819.312	0.0137674
819.390	0.0138089
819.468	0.0139745
819.546	0.0138835
819.624	0.0137865
819.703	0.0137728
819.781	0.0139243
819.859	0.0139059
819.937	0.0139299
820.015	0.0139564
820.093	0.0137749
820.171	0.0137317
820.249	0.0138372
820.328	0.0138074
820.406	0.0137272
820.484	0.0135569
820.562	0.0135381
820.640	0.0135431
820.718	0.0134329
820.796	0.0134608
820.874	0.0136398
820.953	0.0134519
821.031	0.0133516
821.109	0.0132528
821.187	0.0134991
821.265	0.0133814
821.343	0.0132673
821.421	0.0133926
821.499	0.0133274
821.578	0.0133315
821.656	0.0134738
821.734	0.0133835
821.812	0.0135583
821.890	0.0134418
821.968	0.0133834
822.046	0.0136055
822.124	0.0135983
822.203	0.0136591
822.281	0.0137015
822.359	0.0136580
822.437	0.0137846
822.515	0.0137470
822.593	0.0137260
822.671	0.0136588
822.749	0.0136752
822.828	0.0137394
822.906	0.0138547
822.984	0.0138989
823.062	0.0136842
823.140	0.0137289
823.218	0.0137173
823.296	0.0137429
823.374	0.0135803
823.453	0.0137719
823.531	0.0137375
823.609	0.0136371
823.687	0.0137000
823.765	0.0137410
823.843	0.0137933
823.921	0.0136896
823.999	0.0136789
824.078	0.0137068
824.156	0.0136819
824.234	0.0137482
824.312	0.0137304
824.390	0.0137697
824.468	0.0136413
824.546	0.0136888
824.624	0.0136712
824.703	0.0137064
824.781	0.0136856
824.859	0.0136265
824.937	0.0137103
825.015	0.0137082
825.093	0.0137022
825.171	0.0137107
825.249	0.0137362
825.328	0.0136274
825.406	0.0137032
825.484	0.0136498
825.562	0.0137381
825.640	0.0135343
825.718	0.0135853
825.796	0.0136111
825.874	0.0137431
825.953	0.0135686
826.031	0.0135229
826.109	0.0135310
826.187	0.0135522
826.265	0.0133163
826.343	0.0134525
826.421	0.0133956
826.499	0.0133116
826.578	0.0134220
826.656	0.0134366
826.734	0.0134428
826.812	0.0134567
826.890	0.0133181
826.968	0.0133741
827.046	0.0133509
827.124	0.0133342
827.203	0.0134751
827.281	0.0135951
827.359	0.0135032
827.437	0.0136026
827.515	0.0136330
827.593	0.0135989
827.671	0.0137004
827.749	0.0136442
827.828	0.0135996
827.906	0.0138313
827.984	0.0137300
828.062	0.0136749
828.140	0.0137058
828.218	0.0137463
828.296	0.0136886
828.374	0.0136517
828.453	0.0137348
828.531	0.0137539
828.609	0.0137602
828.687	0.0138347
828.765	0.0135699
828.843	0.0136323
828.921	0.0137481
828.999	0.0136455
829.078	0.0136370
829.156	0.0138031
829.234	0.0137165
829.312	0.0137962
829.390	0.0137405
829.468	0.0137598
829.546	0.0137011
829.624	0.0137302
829.703	0.0137550
829.781	0.0136887
829.859	0.0137411
829.937	0.0137753
830.015	0.0137020
830.093	0.0138299
830.171	0.0136587
830.249	0.0137135
830.328	0.0137691
830.406	0.0136738
830.484	0.0139481
830.562	0.0137806
830.640	0.0137286
830.718	0.0137344
830.796	0.0136648
830.874	0.0137322
830.953	0.0137675
831.031	0.0137593
831.109	0.0137147
831.187	0.0138166
831.265	0.0137784
831.343	0.0136969
831.421	0.0136977
831.499	0.0136124
831.578	0.0136922
831.656	0.0136084
831.734	0.0135091
831.812	0.0134663
831.890	0.0136637
831.968	0.0136829
832.046	0.0135435
832.124	0.0135429
832.203	0.0134769
832.281	0.0135210
832.359	0.0136243
832.437	0.0136842
832.515	0.0136671
832.593	0.0135887
832.671	0.0137772
832.749	0.0136949
832.828	0.0136157
832.906	0.0135937
832.984	0.0137519
833.062	0.0136916
833.140	0.0135141
833.218	0.0137531
833.296	0.0138483
833.374	0.0137473
833.453	0.0136862
833.531	0.0136822
833.609	0.0137065
833.687	0.0138235
833.765	0.0137386
833.843	0.0137590
833.921	0.0138880
833.999	0.0136964
834.078	0.0135390
834.156	0.0138930
834.234	0.0137072
834.312	0.0136613
834.390	0.0136200
834.468	0.0137331
834.546	0.0137446
834.624	0.0136397
834.703	0.0136652
834.781	0.0136897
834.859	0.0136714
834.937	0.0136485
835.015	0.0135169
835.093	0.0137585
835.171	0.0136994
835.249	0.0136922
835.328	0.0136919
835.406	0.0136664
835.484	0.0138134
835.562	0.0135826
835.640	0.0137942
835.718	0.0137738
835.796	0.0136195
835.874	0.0136295
835.953	0.0136823
836.031	0.0138262
836.109	0.0137512
836.187	0.0137082
836.265	0.0136786
836.343	0.0135799
836.421	0.0136886
836.499	0.0135893
836.578	0.0136577
836.656	0.0137016
836.734	0.0136089
836.812	0.0134566
836.890	0.0135749
836.968	0.0136026
837.046	0.0134489
837.124	0.0133987
837.203	0.0134926
837.281	0.0134673
837.359	0.0134702
837.437	0.0135643
837.515	0.0134399
837.593	0.0133885
837.671	0.0135262
837.749	0.0135535
837.828	0.0133810
837.906	0.0134273
837.984	0.0135659
838.062	0.0135123
838.140	0.0136551
838.218	0.0135270
838.296	0.0135201
838.374	0.0137206
838.453	0.0135966
838.531	0.0136284
838.609	0.0136283
838.687	0.0136786
838.765	0.0137872
838.843	0.0137112
838.921	0.0136819
838.999	0.0137583
839.078	0.0138622
839.156	0.0136721
839.234	0.0135610
839.312	0.0137454
839.390	0.0137156
839.468	0.0137280
839.546	0.0136797
839.624	0.0136996
839.703	0.0136473
839.781	0.0137582
839.859	0.0138499
839.937	0.0136857
840.015	0.0136124
840.093	0.0136641
840.171	0.0136690
840.249	0.0136679
840.328	0.0137139
840.406	0.0135332
840.484	0.0137615
840.562	0.0136717
840.640	0.0135493
840.718	0.0136214
840.796	0.0136399
840.874	0.0136914
840.953	0.0136043
841.031	0.0136044
841.109	0.0135056
841.187	0.0137158
841.265	0.0136615
841.343	0.0135478
841.421	0.0136753
841.499	0.0137103
841.578	0.0136678
841.656	0.0135794
841.734	0.0136357
841.812	0.0136632
841.890	0.0135835
841.968	0.0135686
842.046	0.0136807
842.124	0.0136214
842.203	0.0133218
842.281	0.0136469
842.359	0.0137443
842.437	0.0135674
842.515	0.0135724
842.593	0.0135811
842.671	0.0136983
842.749	0.0136372
842.828	0.0136816
842.906	0.0134640
842.984	0.0136110
843.062	0.0135504
843.140	0.0135445
843.218	0.0135530
843.296	0.0136429
843.374	0.0136553
843.453	0.0135583
843.531	0.0135881
843.609	0.0134336
843.687	0.0137269
843.765	0.0136643
843.843	0.0136240
843.921	0.0136784
843.999	0.0137759
844.078	0.0136752
844.156	0.0136475
844.234	0.0136604
844.312	0.0137926
844.390	0.0137305
844.468	0.0138255
844.546	0.0137864
844.624	0.0138217
844.703	0.0136922
844.781	0.0136781
844.859	0.0137871
844.937	0.0137713
845.015	0.0135522
845.093	0.0136069
845.171	0.0136095
845.249	0.0137105
845.328	0.0137031
845.406	0.0137660
845.484	0.0135929
845.562	0.0136169
845.640	0.0137025
845.718	0.0135637
845.796	0.0134852
845.874	0.0136386
845.953	0.0136438
846.031	0.0135388
846.109	0.0136388
846.187	0.0136015
846.265	0.0137273
846.343	0.0136145
846.421	0.0134566
846.499	0.0134573
846.578	0.0137640
846.656	0.0137255
846.734	0.0136141
846.812	0.0137178
846.890	0.0135724
846.968	0.0136568
847.046	0.0135124
847.124	0.0135699
847.203	0.0136728
847.281	0.0136743
847.359	0.0136035
847.437	0.0136757
847.515	0.0136906
847.593	0.0135873
847.671	0.0136469
847.749	0.0135815
847.828	0.0135423
847.906	0.0134656
847.984	0.0135818
848.062	0.0135670
848.140	0.0135345
848.218	0.0135979
848.296	0.0135705
848.374	0.0134924
848.453	0.0135505
848.531	0.0134248
848.609	0.0134598
848.687	0.0135127
848.765	0.0135689
848.843	0.0135431
848.921	0.0135309
848.999	0.0136092
849.078	0.0136519
849.156	0.0137053
849.234	0.0136301
849.312	0.0137225
849.390	0.0138078
849.468	0.0138161
849.546	0.0138758
849.624	0.0136872
849.703	0.0139236
849.781	0.0136906
849.859	0.0138336
849.937	0.0138346
850.015	0.0137901
850.093	0.0137786
850.171	0.0138430
850.249	0.0138822
850.328	0.0138250
850.406	0.0135573
850.484	0.0137045
850.562	0.0137855
850.640	0.0137643
850.718	0.0136591
850.796	0.0136579
850.874	0.0136239
850.953	0.0135496
851.031	0.0137378
851.109	0.0136953
851.187	0.0135841
851.265	0.0137113
851.343	0.0135138
851.421	0.0136652
851.499	0.0137600
851.578	0.0137444
851.656	0.0136755
851.734	0.0136413
851.812	0.0136403
851.890	0.0137465
851.968	0.0136814
852.046	0.0137283
852.124	0.0137447
852.203	0.0136530
852.281	0.0137141
852.359	0.0136647
852.437	0.0137765
852.515	0.0136379
852.593	0.0136146
852.671	0.0136649
852.749	0.0136170
852.828	0.0137433
852.906	0.0137363
852.984	0.0136186
853.062	0.0135880
853.140	0.0136790
853.218	0.0135941
853.296	0.0135650
853.374	0.0136264
853.453	0.0136787
853.531	0.0136074
853.609	0.0135517
853.687	0.0135680
853.765	0.0137047
853.843	0.0135310
853.921	0.0135741
853.999	0.0135831
854.078	0.0136757
854.156	0.0137460
854.234	0.0138905
854.312	0.0137207
854.390	0.0136720
854.468	0.0136285
854.546	0.0135380
854.624	0.0136033
854.703	0.0136043
854.781	0.0137383
854.859	0.0138291
854.937	0.0138678
855.015	0.0137125
855.093	0.0136997
855.171	0.0137862
855.249	0.0138368
855.328	0.0136097
855.406	0.0136741
855.484	0.0138203
855.562	0.0135876
855.640	0.0137430
855.718	0.0136687
855.796	0.0138156
855.874	0.0135107
855.953	0.0135787
856.031	0.0136065
856.109	0.0135971
856.187	0.0136752
856.265	0.0135130
856.343	0.0135531
856.421	0.0134756
856.499	0.0136789
856.578	0.0136124
856.656	0.0136227
856.734	0.0136795
856.812	0.0136191
856.890	0.0137135
856.968	0.0136191
857.046	0.0135948
857.124	0.0136414
857.203	0.0136790
857.281	0.0136156
857.359	0.0135715
857.437	0.0136385
857.515	0.0137291
857.593	0.0136723
857.671	0.0137749
857.749	0.0136082
857.828	0.0136975
857.906	0.0137405
857.984	0.0137041
858.062	0.0136444
858.140	0.0136840
858.218	0.0137178
858.296	0.0137468
858.374	0.0134713
858.453	0.0136055
858.531	0.0137324
858.609	0.0136362
858.687	0.0136176
858.765	0.0136160
858.843	0.0135313
858.921	0.0137406
858.999	0.0136359
859.078	0.0135590
859.156	0.0135308
859.234	0.0136108
859.312	0.0134988
859.390	0.0136082
859.468	0.0136323
859.546	0.0136282
859.624	0.0135625
859.703	0.0136270
859.781	0.0136053
859.859	0.0137375
859.937	0.0138396
860.015	0.0137832
860.093	0.0136637
860.171	0.0136497
860.249	0.0137758
860.328	0.0138024
860.406	0.0137601
860.484	0.0137910
860.562	0.0137588
860.640	0.0137611
860.718	0.0136417
860.796	0.0138327
860.874	0.0138244
860.953	0.0136237
861.031	0.0135896
861.109	0.0135921
861.187	0.0135927
861.265	0.0135366
861.343	0.0136618
861.421	0.0135827
861.499	0.0135027
861.578	0.0135016
861.656	0.0135728
861.734	0.0135186
861.812	0.0136169
861.890	0.0135982
861.968	0.0135106
862.046	0.0135577
862.124	0.0135707
862.203	0.0135126
862.281	0.0134980
862.359	0.0136332
862.437	0.0136609
862.515	0.0135475
862.593	0.0135094
862.671	0.0135653
862.749	0.0135250
862.828	0.0135435
862.906	0.0136338
862.984	0.0135537
863.062	0.0135581
863.140	0.0135071
863.218	0.0135456
863.296	0.0137907
863.374	0.0136333
863.453	0.0135548
863.531	0.0137528
863.609	0.0136040
863.687	0.0136504
863.765	0.0138803
863.843	0.0136566
863.921	0.0136458
863.999	0.0135204
864.078	0.0136358
864.156	0.0136131
864.234	0.0135614
864.312	0.0136776
864.390	0.0136218
864.468	0.0135928
864.546	0.0135119
864.624	0.0136125
864.703	0.0136671
864.781	0.0135845
864.859	0.0134556
864.937	0.0134758
865.015	0.0138276
865.093	0.0137437
865.171	0.0137099
865.249	0.0136554
865.328	0.0136662
865.406	0.0139660
865.484	0.0138693
865.562	0.0136627
865.640	0.0136903
865.718	0.0138760
865.796	0.0137476
865.874	0.0136876
865.953	0.0137517
866.031	0.0137666
866.109	0.0137386
866.187	0.0136670
866.265	0.0135912
866.343	0.0137067
866.421	0.0136136
866.499	0.0136668
866.578	0.0135274
866.656	0.0136272
866.734	0.0135336
866.812	0.0135315
866.890	0.0135632
866.968	0.0136102
867.046	0.0136146
867.124	0.0135056
867.203	0.0135685
867.281	0.0136141
867.359	0.0135757
867.437	0.0135266
867.515	0.0136031
867.593	0.0136246
867.671	0.0137849
867.749	0.0136559
867.828	0.0136426
867.906	0.0135503
867.984	0.0136391
868.062	0.0137780
868.140	0.0137521
868.218	0.0137194
868.296	0.0137437
868.374	0.0138057
868.453	0.0139033
868.531	0.0138124
868.609	0.0138190
868.687	0.0137676
868.765	0.0137290
868.843	0.0138309
868.921	0.0136565
868.999	0.0137559
869.078	0.0137243
869.156	0.0136095
869.234	0.0136626
869.312	0.0137325
869.390	0.0136213
869.468	0.0136781
869.546	0.0136671
869.624	0.0137773
869.703	0.0137115
869.781	0.0136458
869.859	0.0135773
869.937	0.0136320
870.015	0.0137291
870.093	0.0137333
870.171	0.0136839
870.249	0.0137366
870.328	0.0137379
870.406	0.0135828
870.484	0.0137846
870.562	0.0136122
870.640	0.0135732
870.718	0.0138486
870.796	0.0138342
870.874	0.0136205
870.953	0.0138045
871.031	0.0137181
871.109	0.0137223
871.187	0.0138762
871.265	0.0135740
871.343	0.0135828
871.421	0.0137832
871.499	0.0137645
871.578	0.0136237
871.656	0.0136273
871.734	0.0135153
871.812	0.0136559
871.890	0.0137312
871.968	0.0136430
872.046	0.0136196
872.124	0.0136260
872.203	0.0136215
872.281	0.0136515
872.359	0.0135567
872.437	0.0136713
872.515	0.0137200
872.593	0.0136093
872.671	0.0134989
872.749	0.0137305
872.828	0.0137434
872.906	0.0137088
872.984	0.0136969
873.062	0.0137778
873.140	0.0137610
873.218	0.0137331
873.296	0.0136398
873.374	0.0137548
873.453	0.0136884
873.531	0.0137966
873.609	0.0136399
873.687	0.0137328
873.765	0.0137805
873.843	0.0138470
873.921	0.0138235
873.999	0.0137388
874.078	0.0136939
874.156	0.0136872
874.234	0.0135996
874.312	0.0137359
874.390	0.0136016
874.468	0.0135446
874.546	0.0136903
874.624	0.0138094
874.703	0.0137456
874.781	0.0138229
874.859	0.0137473
874.937	0.0137615
875.015	0.0137402
875.093	0.0137140
875.171	0.0137045
875.249	0.0138612
875.328	0.0136331
875.406	0.0135759
875.484	0.0135207
875.562	0.0135384
875.640	0.0136292
875.718	0.0136941
875.796	0.0136855
875.874	0.0133945
875.953	0.0136709
876.031	0.0136470
876.109	0.0135763
876.187	0.0135262
876.265	0.0134963
876.343	0.0135209
876.421	0.0135922
876.499	0.0135305
876.578	0.0135629
876.656	0.0135495
876.734	0.0135232
876.812	0.0136535
876.890	0.0136648
876.968	0.0136057
877.046	0.0136685
877.124	0.0136084
877.203	0.0136298
877.281	0.0137691
877.359	0.0137788
877.437	0.0137154
877.515	0.0137199
877.593	0.0135493
877.671	0.0137576
877.749	0.0137476
877.828	0.0136736
877.906	0.0136581
877.984	0.0136229
878.062	0.0137148
878.140	0.0137868
878.218	0.0137748
878.296	0.0136345
878.374	0.0137624
878.453	0.0137773
878.531	0.0137067
878.609	0.0136489
878.687	0.0137772
878.765	0.0137032
878.843	0.0137627
878.921	0.0137820
878.999	0.0138052
879.078	0.0137093
879.156	0.0137751
879.234	0.0137764
879.312	0.0138051
879.390	0.0136539
879.468	0.0136462
879.546	0.0137296
879.624	0.0135406
879.703	0.0137180
879.781	0.0136610
879.859	0.0135477
879.937	0.0136942
880.015	0.0136681
880.093	0.0136647
880.171	0.0135590
880.249	0.0134555
880.328	0.0137413
880.406	0.0136144
880.484	0.0136306
880.562	0.0134991
880.640	0.0135697
880.718	0.0135082
880.796	0.0134212
880.874	0.0136013
880.953	0.0135994
881.031	0.0134961
881.109	0.0135746
881.187	0.0135600
881.265	0.0136028
881.343	0.0135464
881.421	0.0135516
881.499	0.0134653
881.578	0.0134528
881.656	0.0134789
881.734	0.0136151
881.812	0.0136131
881.890	0.0135530
881.968	0.0134750
882.046	0.0135708
882.124	0.0136187
882.203	0.0135802
882.281	0.0136501
882.359	0.0137331
882.437	0.0137009
882.515	0.0137123
882.593	0.0136373
882.671	0.0135955
882.749	0.0136916
882.828	0.0137431
882.906	0.0137304
882.984	0.0135101
883.062	0.0135930
883.140	0.0135947
883.218	0.0136223
883.296	0.0136346
883.374	0.0137297
883.453	0.0136305
883.531	0.0136520
883.609	0.0136198
883.687	0.0137410
883.765	0.0136459
883.843	0.0136881
883.921	0.0136823
883.999	0.0136135
884.078	0.0135661
884.156	0.0136508
884.234	0.0137625
884.312	0.0137057
884.390	0.0136038
884.468	0.0136706
884.546	0.0136577
884.624	0.0135308
884.703	0.0136451
884.781	0.0136476
884.859	0.0136958
884.937	0.0135889
885.015	0.0135954
885.093	0.0136943
885.171	0.0135154
885.249	0.0136861
885.328	0.0135204
885.406	0.0134376
885.484	0.0135688
885.562	0.0136565
885.640	0.0136604
885.718	0.0135181
885.796	0.0134257
885.874	0.0135081
885.953	0.0134681
886.031	0.0134953
886.109	0.0135642
886.187	0.0137225
886.265	0.0134946
886.343	0.0133282
886.421	0.0134254
886.499	0.0135529
886.578	0.0136056
886.656	0.0134081
886.734	0.0134011
886.812	0.0135287
886.890	0.0135962
886.968	0.0135480
887.046	0.0135496
887.124	0.0136372
887.203	0.0136483
887.281	0.0136410
887.359	0.0136188
887.437	0.0137250
887.515	0.0136671
887.593	0.0136092
887.671	0.0135124
887.749	0.0136826
887.828	0.0135190
887.906	0.0134529
887.984	0.0136982
888.062	0.0136881
888.140	0.0136327
888.218	0.0137152
888.296	0.0136510
888.374	0.0135798
888.453	0.0137795
888.531	0.0137527
888.609	0.0137962
888.687	0.0138505
888.765	0.0137583
888.843	0.0137682
888.921	0.0137594
888.999	0.0137247
889.078	0.0136639
889.156	0.0137691
889.234	0.0137811
889.312	0.0137640
889.390	0.0137983
889.468	0.0136991
889.546	0.0135615
889.624	0.0136235
889.703	0.0136841
889.781	0.0135277
889.859	0.0136793
889.937	0.0137642
890.015	0.0136768
890.093	0.0137437
890.171	0.0136183
890.249	0.0136886
890.328	0.0136142
890.406	0.0137003
890.484	0.0135993
890.562	0.0136710
890.640	0.0135698
890.718	0.0135772
890.796	0.0135347
890.874	0.0135865
890.953	0.0135065
891.031	0.0136035
891.109	0.0135223
891.187	0.0135352
891.265	0.0136334
891.343	0.0135786
891.421	0.0134798
891.499	0.0135177
891.578	0.0134541
891.656	0.0135654
891.734	0.0137908
891.812	0.0136309
891.890	0.0134460
891.968	0.0135333
892.046	0.0137334
892.124	0.0136973
892.203	0.0136340
892.281	0.0137111
892.359	0.0135849
892.437	0.0136887
892.515	0.0135442
892.593	0.0136793
892.671	0.0136701
892.749	0.0136733
892.828	0.0135949
892.906	0.0135762
892.984	0.0136001
893.062	0.0136880
893.140	0.0136405
893.218	0.0136618
893.296	0.0137732
893.374	0.0138267
893.453	0.0137104
893.531	0.0137687
893.609	0.0137936
893.687	0.0138495
893.765	0.0139321
893.843	0.0139147
893.921	0.0138573
893.999	0.0138451
894.078	0.0137498
894.156	0.0137203
894.234	0.0137671
894.312	0.0137138
894.390	0.0136804
894.468	0.0136665
894.546	0.0137862
894.624	0.0135873
894.703	0.0136162
894.781	0.0136037
894.859	0.0136150
894.937	0.0135013
895.015	0.0135034
895.093	0.0136185
895.171	0.0135926
895.249	0.0136185
895.328	0.0135207
895.406	0.0134677
895.484	0.0135419
895.562	0.0135448
895.640	0.0136150
895.718	0.0134468
895.796	0.0135583
895.874	0.0136073
895.953	0.0136970
896.031	0.0135806
896.109	0.0136152
896.187	0.0134892
896.265	0.0134713
896.343	0.0135558
896.421	0.0136719
896.499	0.0135990
896.578	0.0135649
896.656	0.0137320
896.734	0.0136565
896.812	0.0135980
896.890	0.0136018
896.968	0.0137622
897.046	0.0137389
897.124	0.0137723
897.203	0.0136842
897.281	0.0136067
897.359	0.0136045
897.437	0.0136405
897.515	0.0137026
897.593	0.0135421
897.671	0.0135442
897.749	0.0135371
897.828	0.0136577
897.906	0.0136740
897.984	0.0136095
898.062	0.0136071
898.140	0.0136143
898.218	0.0135973
898.296	0.0135860
898.374	0.0135325
898.453	0.0135410
898.531	0.0137368
898.609	0.0137418
898.687	0.0137692
898.765	0.0136886
898.843	0.0138665
898.921	0.0138564
898.999	0.0138547
899.078	0.0138673
899.156	0.0138484
899.234	0.0138683
899.312	0.0138282
899.390	0.0138393
899.468	0.0137523
899.546	0.0136018
899.624	0.0136632
899.703	0.0135667
899.781	0.0134904
899.859	0.0135075
899.937	0.0135185
900.015	0.0135750
900.093	0.0136617
900.171	0.0135374
900.249	0.0135788
900.328	0.0135562
900.406	0.0135299
900.484	0.0135965
900.562	0.0135921
900.640	0.0136772
900.718	0.0135206
900.796	0.0135252
900.874	0.0136142
900.953	0.0136776
901.031	0.0135963
901.109	0.0135723
901.187	0.0137005
901.265	0.0136349
901.343	0.0136971
901.421	0.0136998
901.499	0.0138663
901.578	0.0137606
901.656	0.0135822
901.734	0.0136005
901.812	0.0137514
901.890	0.0136188
901.968	0.0137788
902.046	0.0137354
902.124	0.0136671
902.203	0.0137637
902.281	0.0136310
902.359	0.0135133
902.437	0.0136715
902.515	0.0136941
902.593	0.0135013
902.671	0.0136071
902.749	0.0136067
902.828	0.0135001
902.906	0.0134365
902.984	0.0134719
903.062	0.0135694
903.140	0.0135004
903.218	0.0135229
903.296	0.0133987
903.374	0.0133844
903.453	0.0134552
903.531	0.0136121
903.609	0.0135602
903.687	0.0136175
903.765	0.0136014
903.843	0.0135464
903.921	0.0136826
903.999	0.0137115
904.078	0.0136808
904.156	0.0136902
904.234	0.0135612
904.312	0.0136919
904.390	0.0137536
904.468	0.0137529
904.546	0.0136589
904.624	0.0136758
904.703	0.0136382
904.781	0.0136383
904.859	0.0136677
904.937	0.0135012
905.015	0.0137043
905.093	0.0135960
905.171	0.0133326
905.249	0.0134440
905.328	0.0135560
905.406	0.0136594
905.484	0.0135322
905.562	0.0136700
905.640	0.0134805
905.718	0.0136202
905.796	0.0133899
905.874	0.0134891
905.953	0.0135748
906.031	0.0136843
906.109	0.0135860
906.187	0.0136130
906.265	0.0137424
906.343	0.0135607
906.421	0.0137679
906.499	0.0137964
906.578	0.0136499
906.656	0.0136795
906.734	0.0137080
906.812	0.0136095
906.890	0.0136407
906.968	0.0137145
907.046	0.0137022
907.124	0.0135349
907.203	0.0136871
907.281	0.0135918
907.359	0.0134696
907.437	0.0135329
907.515	0.0133490
907.593	0.0134180
907.671	0.0135354
907.749	0.0135236
907.828	0.0133649
907.906	0.0133983
907.984	0.0135162
908.062	0.0135114
908.140	0.0135464
908.218	0.0134880
908.296	0.0135851
908.374	0.0134296
908.453	0.0135455
908.531	0.0134217
908.609	0.0134772
908.687	0.0135616
908.765	0.0135281
908.843	0.0135890
908.921	0.0135561
908.999	0.0135472
909.078	0.0135586
909.156	0.0136331
909.234	0.0135889
909.312	0.0136996
909.390	0.0136714
909.468	0.0137189
909.546	0.0137906
909.624	0.0137275
909.703	0.0135725
909.781	0.0135714
909.859	0.0136481
909.937	0.0135882
910.015	0.0136446
910.093	0.0137008
910.171	0.0136095
910.249	0.0137894
910.328	0.0135889
910.406	0.0137711
910.484	0.0136343
910.562	0.0136624
910.640	0.0134915
910.718	0.0134737
910.796	0.0136327
910.874	0.0134952
910.953	0.0134574
911.031	0.0135148
911.109	0.0135327
911.187	0.0135509
911.265	0.0134337
911.343	0.0135733
911.421	0.0135567
911.499	0.0135212
911.578	0.0135815
911.656	0.0135497
911.734	0.0136163
911.812	0.0136369
911.890	0.0136118
911.968	0.0136642
912.046	0.0137071
912.124	0.0136385
912.203	0.0136198
912.281	0.0136780
912.359	0.0135996
912.437	0.0136176
912.515	0.0136614
912.593	0.0136987
912.671	0.0136008
912.749	0.0137476
912.828	0.0135970
912.906	0.0134991
912.984	0.0135970
913.062	0.0135910
913.140	0.0135806
913.218	0.0137003
913.296	0.0134439
913.374	0.0136115
913.453	0.0135952
913.531	0.0135550
913.609	0.0135187
913.687	0.0135867
913.765	0.0134142
913.843	0.0135173
913.921	0.0134455
913.999	0.0136189
914.078	0.0136304
914.156	0.0134846
914.234	0.0136060
914.312	0.0135561
914.390	0.0136845
914.468	0.0137015
914.546	0.0137690
914.624	0.0137484
914.703	0.0137446
914.781	0.0137988
914.859	0.0137928
914.937	0.0137218
915.015	0.0138971
915.093	0.0137162
915.171	0.0137773
915.249	0.0137341
915.328	0.0136958
915.406	0.0136553
915.484	0.0136932
915.562	0.0137137
915.640	0.0135545
915.718	0.0135710
915.796	0.0135456
915.874	0.0135712
915.953	0.0134515
916.031	0.0135341
916.109	0.0134405
916.187	0.0134969
916.265	0.0135244
916.343	0.0134217
916.421	0.0134357
916.499	0.0134160
916.578	0.0134939
916.656	0.0134860
916.734	0.0136160
916.812	0.0136001
916.890	0.0137411
916.968	0.0136770
917.046	0.0136990
917.124	0.0137983
917.203	0.0137075
917.281	0.0138546
917.359	0.0138302
917.437	0.0137884
917.515	0.0137833
917.593	0.0137769
917.671	0.0137765
917.749	0.0136643
917.828	0.0136411
917.906	0.0136793
917.984	0.0137190
918.062	0.0136708
918.140	0.0135990
918.218	0.0137258
918.296	0.0136162
918.374	0.0136050
918.453	0.0134998
918.531	0.0135988
918.609	0.0135937
918.687	0.0134846
918.765	0.0136140
918.843	0.0135249
918.921	0.0135458
918.999	0.0134155
919.078	0.0134932
919.156	0.0136390
919.234	0.0135755
919.312	0.0135762
919.390	0.0136270
919.468	0.0135709
919.546	0.0135326
919.624	0.0134935
919.703	0.0136273
919.781	0.0136675
919.859	0.0135868
919.937	0.0135975
