05/06/2022	18:53:59	Ver.	4.1	UNKNOWN
Optical Delay	600.015094	Delta X		0.078125	Sweeps	1	Scan Rate	0/0
Coordinates	Axis 1	NaN	Axis 2	NaN	Axis 3	NaN	Axis 4	NaN	Axis 5	NaN	Axis 6	0.000000
TX Power	0.000000	RX Power	0.000000

600.015	0.0138569
600.093	0.0139043
600.171	0.0138823
600.249	0.0138357
600.328	0.0138456
600.406	0.0138112
600.484	0.0138626
600.562	0.0137834
600.640	0.0138826
600.718	0.0139156
600.796	0.0138118
600.874	0.0137180
600.953	0.0138636
601.031	0.0138931
601.109	0.0137363
601.187	0.0138727
601.265	0.0138389
601.343	0.0139355
601.421	0.0139098
601.499	0.0139552
601.578	0.0138985
601.656	0.0138671
601.734	0.0139442
601.812	0.0138635
601.890	0.0138667
601.968	0.0138333
602.046	0.0138873
602.124	0.0138892
602.203	0.0139057
602.281	0.0139777
602.359	0.0139172
602.437	0.0139229
602.515	0.0138620
602.593	0.0139845
602.671	0.0138447
602.749	0.0137881
602.828	0.0138821
602.906	0.0137570
602.984	0.0138881
603.062	0.0139185
603.140	0.0137785
603.218	0.0137698
603.296	0.0138966
603.374	0.0138235
603.453	0.0137851
603.531	0.0139128
603.609	0.0139430
603.687	0.0138898
603.765	0.0138743
603.843	0.0138542
603.921	0.0137459
603.999	0.0139146
604.078	0.0139035
604.156	0.0137496
604.234	0.0139359
604.312	0.0138577
604.390	0.0138674
604.468	0.0138354
604.546	0.0138711
604.624	0.0138507
604.703	0.0138605
604.781	0.0139797
604.859	0.0139497
604.937	0.0138601
605.015	0.0138704
605.093	0.0137022
605.171	0.0138551
605.249	0.0139812
605.328	0.0138776
605.406	0.0139486
605.484	0.0138070
605.562	0.0137362
605.640	0.0139563
605.718	0.0138814
605.796	0.0138162
605.874	0.0138313
605.953	0.0137587
606.031	0.0139457
606.109	0.0138719
606.187	0.0138618
606.265	0.0139033
606.343	0.0140163
606.421	0.0137672
606.499	0.0137389
606.578	0.0138701
606.656	0.0137910
606.734	0.0140052
606.812	0.0139080
606.890	0.0139031
606.968	0.0138116
607.046	0.0138579
607.124	0.0137849
607.203	0.0137946
607.281	0.0137775
607.359	0.0138072
607.437	0.0139163
607.515	0.0139613
607.593	0.0139133
607.671	0.0138223
607.749	0.0138338
607.828	0.0137447
607.906	0.0139068
607.984	0.0139507
608.062	0.0138271
608.140	0.0139751
608.218	0.0139039
608.296	0.0137154
608.374	0.0137267
608.453	0.0137740
608.531	0.0138844
608.609	0.0140180
608.687	0.0137487
608.765	0.0136893
608.843	0.0139832
608.921	0.0137933
608.999	0.0139250
609.078	0.0138486
609.156	0.0138229
609.234	0.0137611
609.312	0.0138778
609.390	0.0139430
609.468	0.0137772
609.546	0.0137751
609.624	0.0138177
609.703	0.0137472
609.781	0.0138372
609.859	0.0138846
609.937	0.0138357
610.015	0.0137834
610.093	0.0137794
610.171	0.0137186
610.249	0.0138000
610.328	0.0137611
610.406	0.0137738
610.484	0.0139854
610.562	0.0139257
610.640	0.0138420
610.718	0.0138638
610.796	0.0138199
610.874	0.0136410
610.953	0.0139085
611.031	0.0139240
611.109	0.0138118
611.187	0.0138649
611.265	0.0138931
611.343	0.0138512
611.421	0.0138195
611.499	0.0139549
611.578	0.0138196
611.656	0.0138338
611.734	0.0138773
611.812	0.0138478
611.890	0.0139562
611.968	0.0139268
612.046	0.0138656
612.124	0.0138335
612.203	0.0138500
612.281	0.0137936
612.359	0.0139509
612.437	0.0138084
612.515	0.0138470
612.593	0.0138053
612.671	0.0138394
612.749	0.0137348
612.828	0.0138026
612.906	0.0138873
612.984	0.0138493
613.062	0.0137973
613.140	0.0139358
613.218	0.0139889
613.296	0.0139060
613.374	0.0138369
613.453	0.0138468
613.531	0.0140296
613.609	0.0138874
613.687	0.0139014
613.765	0.0138047
613.843	0.0138496
613.921	0.0138898
613.999	0.0138775
614.078	0.0138094
614.156	0.0137745
614.234	0.0138475
614.312	0.0139498
614.390	0.0138190
614.468	0.0139169
614.546	0.0137644
614.624	0.0138470
614.703	0.0137685
614.781	0.0137955
614.859	0.0139169
614.937	0.0138515
615.015	0.0138610
615.093	0.0137331
615.171	0.0137816
615.249	0.0139011
615.328	0.0139013
615.406	0.0139276
615.484	0.0137940
615.562	0.0138408
615.640	0.0138229
615.718	0.0139189
615.796	0.0138681
615.874	0.0138838
615.953	0.0139452
616.031	0.0140405
616.109	0.0137930
616.187	0.0138182
616.265	0.0139285
616.343	0.0138237
616.421	0.0138235
616.499	0.0138515
616.578	0.0137733
616.656	0.0139138
616.734	0.0139149
616.812	0.0137860
616.890	0.0138538
616.968	0.0138184
617.046	0.0138790
617.124	0.0138641
617.203	0.0139495
617.281	0.0139292
617.359	0.0139046
617.437	0.0138576
617.515	0.0139628
617.593	0.0139415
617.671	0.0139791
617.749	0.0139366
617.828	0.0139529
617.906	0.0139172
617.984	0.0139454
618.062	0.0138459
618.140	0.0138555
618.218	0.0139275
618.296	0.0137592
618.374	0.0138513
618.453	0.0138602
618.531	0.0139521
618.609	0.0137251
618.687	0.0138557
618.765	0.0139137
618.843	0.0138103
618.921	0.0137965
618.999	0.0137991
619.078	0.0137309
619.156	0.0138874
619.234	0.0137845
619.312	0.0139118
619.390	0.0138454
619.468	0.0137558
619.546	0.0137709
619.624	0.0138068
619.703	0.0137987
619.781	0.0138087
619.859	0.0137161
619.937	0.0138044
620.015	0.0137445
620.093	0.0139520
620.171	0.0139055
620.249	0.0137811
620.328	0.0138638
620.406	0.0140019
620.484	0.0138480
620.562	0.0137489
620.640	0.0137628
620.718	0.0138985
620.796	0.0138832
620.874	0.0138579
620.953	0.0138054
621.031	0.0138813
621.109	0.0138714
621.187	0.0139190
621.265	0.0138931
621.343	0.0137601
621.421	0.0138427
621.499	0.0139474
621.578	0.0138396
621.656	0.0138880
621.734	0.0137081
621.812	0.0138166
621.890	0.0138536
621.968	0.0138983
622.046	0.0139472
622.124	0.0138905
622.203	0.0136629
622.281	0.0137513
622.359	0.0137862
622.437	0.0139118
622.515	0.0139857
622.593	0.0136934
622.671	0.0138536
622.749	0.0138367
622.828	0.0138572
622.906	0.0139473
622.984	0.0138697
623.062	0.0138477
623.140	0.0138693
623.218	0.0138554
623.296	0.0138010
623.374	0.0139204
623.453	0.0137609
623.531	0.0137855
623.609	0.0137756
623.687	0.0137929
623.765	0.0138100
623.843	0.0138622
623.921	0.0138905
623.999	0.0138335
624.078	0.0138118
624.156	0.0138622
624.234	0.0138879
624.312	0.0138049
624.390	0.0136238
624.468	0.0137804
624.546	0.0138589
624.624	0.0137606
624.703	0.0138402
624.781	0.0138860
624.859	0.0138657
624.937	0.0138361
625.015	0.0138190
625.093	0.0138448
625.171	0.0138173
625.249	0.0136896
625.328	0.0138393
625.406	0.0138712
625.484	0.0138036
625.562	0.0138129
625.640	0.0138545
625.718	0.0137988
625.796	0.0138011
625.874	0.0139123
625.953	0.0139053
626.031	0.0138943
626.109	0.0138246
626.187	0.0139088
626.265	0.0137715
626.343	0.0138256
626.421	0.0137627
626.499	0.0137758
626.578	0.0139337
626.656	0.0139231
626.734	0.0138821
626.812	0.0137035
626.890	0.0137822
626.968	0.0139046
627.046	0.0138277
627.124	0.0139783
627.203	0.0137999
627.281	0.0138071
627.359	0.0138503
627.437	0.0138889
627.515	0.0139601
627.593	0.0139799
627.671	0.0139019
627.749	0.0138438
627.828	0.0137636
627.906	0.0138498
627.984	0.0138329
628.062	0.0138460
628.140	0.0138825
628.218	0.0139120
628.296	0.0138378
628.374	0.0137727
628.453	0.0138345
628.531	0.0138852
628.609	0.0140243
628.687	0.0137730
628.765	0.0136067
628.843	0.0139030
628.921	0.0139005
628.999	0.0139297
629.078	0.0138095
629.156	0.0138027
629.234	0.0137990
629.312	0.0139050
629.390	0.0139749
629.468	0.0138607
629.546	0.0137948
629.624	0.0139392
629.703	0.0139224
629.781	0.0139727
629.859	0.0138343
629.937	0.0137660
630.015	0.0138333
630.093	0.0137758
630.171	0.0138521
630.249	0.0138876
630.328	0.0137993
630.406	0.0136398
630.484	0.0139187
630.562	0.0139352
630.640	0.0138178
630.718	0.0138667
630.796	0.0138184
630.874	0.0138577
630.953	0.0138564
631.031	0.0139223
631.109	0.0138486
631.187	0.0139365
631.265	0.0138393
631.343	0.0136513
631.421	0.0139091
631.499	0.0140429
631.578	0.0137719
631.656	0.0138347
631.734	0.0138230
631.812	0.0137728
631.890	0.0139493
631.968	0.0137468
632.046	0.0138851
632.124	0.0139398
632.203	0.0140131
632.281	0.0137133
632.359	0.0138944
632.437	0.0138206
632.515	0.0138263
632.593	0.0138623
632.671	0.0139606
632.749	0.0138873
632.828	0.0139115
632.906	0.0138160
632.984	0.0138955
633.062	0.0139188
633.140	0.0139818
633.218	0.0138437
633.296	0.0137672
633.374	0.0138673
633.453	0.0138832
633.531	0.0139531
633.609	0.0137231
633.687	0.0138737
633.765	0.0138788
633.843	0.0137492
633.921	0.0139107
633.999	0.0139186
634.078	0.0136859
634.156	0.0138875
634.234	0.0138332
634.312	0.0139217
634.390	0.0138493
634.468	0.0137385
634.546	0.0137910
634.624	0.0138981
634.703	0.0139244
634.781	0.0139458
634.859	0.0139154
634.937	0.0138696
635.015	0.0138845
635.093	0.0138441
635.171	0.0138229
635.249	0.0139483
635.328	0.0139857
635.406	0.0138827
635.484	0.0138989
635.562	0.0138358
635.640	0.0138815
635.718	0.0137807
635.796	0.0139311
635.874	0.0138816
635.953	0.0138635
636.031	0.0138370
636.109	0.0138892
636.187	0.0139093
636.265	0.0140028
636.343	0.0138499
636.421	0.0138458
636.499	0.0138111
636.578	0.0138454
636.656	0.0139920
636.734	0.0138287
636.812	0.0138498
636.890	0.0138344
636.968	0.0137654
637.046	0.0139263
637.124	0.0138742
637.203	0.0137968
637.281	0.0137806
637.359	0.0137177
637.437	0.0139034
637.515	0.0137728
637.593	0.0139005
637.671	0.0139039
637.749	0.0138215
637.828	0.0139014
637.906	0.0138861
637.984	0.0139104
638.062	0.0137209
638.140	0.0138620
638.218	0.0138354
638.296	0.0136895
638.374	0.0138136
638.453	0.0138296
638.531	0.0137491
638.609	0.0137846
638.687	0.0137355
638.765	0.0138055
638.843	0.0138669
638.921	0.0139234
638.999	0.0139809
639.078	0.0137671
639.156	0.0139320
639.234	0.0139156
639.312	0.0138936
639.390	0.0139628
639.468	0.0138210
639.546	0.0138817
639.624	0.0138801
639.703	0.0139133
639.781	0.0137660
639.859	0.0137850
639.937	0.0138097
640.015	0.0137299
640.093	0.0138794
640.171	0.0138522
640.249	0.0137395
640.328	0.0138094
640.406	0.0136799
640.484	0.0139687
640.562	0.0138671
640.640	0.0138570
640.718	0.0138890
640.796	0.0137774
640.874	0.0138441
640.953	0.0139587
641.031	0.0139147
641.109	0.0138883
641.187	0.0138764
641.265	0.0138311
641.343	0.0138040
641.421	0.0138976
641.499	0.0139899
641.578	0.0138471
641.656	0.0138064
641.734	0.0137693
641.812	0.0140153
641.890	0.0137695
641.968	0.0138947
642.046	0.0138881
642.124	0.0138316
642.203	0.0137048
642.281	0.0138792
642.359	0.0138607
642.437	0.0137817
642.515	0.0137978
642.593	0.0138581
642.671	0.0140154
642.749	0.0139165
642.828	0.0138338
642.906	0.0137758
642.984	0.0139732
643.062	0.0139699
643.140	0.0139080
643.218	0.0138776
643.296	0.0138721
643.374	0.0138943
643.453	0.0137634
643.531	0.0139720
643.609	0.0138342
643.687	0.0139004
643.765	0.0139056
643.843	0.0139090
643.921	0.0138428
643.999	0.0139230
644.078	0.0139465
644.156	0.0138819
644.234	0.0138785
644.312	0.0137051
644.390	0.0139232
644.468	0.0138935
644.546	0.0138149
644.624	0.0138969
644.703	0.0139587
644.781	0.0139791
644.859	0.0139347
644.937	0.0139491
645.015	0.0139440
645.093	0.0139287
645.171	0.0140069
645.249	0.0139543
645.328	0.0139796
645.406	0.0138967
645.484	0.0138309
645.562	0.0137585
645.640	0.0139309
645.718	0.0138569
645.796	0.0138737
645.874	0.0139162
645.953	0.0138670
646.031	0.0139613
646.109	0.0138729
646.187	0.0138709
646.265	0.0138489
646.343	0.0138508
646.421	0.0139505
646.499	0.0139798
646.578	0.0138887
646.656	0.0140219
646.734	0.0138234
646.812	0.0138936
646.890	0.0139283
646.968	0.0140378
647.046	0.0139774
647.124	0.0139784
647.203	0.0139688
647.281	0.0138361
647.359	0.0138541
647.437	0.0139614
647.515	0.0138454
647.593	0.0138888
647.671	0.0137729
647.749	0.0136135
647.828	0.0139336
647.906	0.0140219
647.984	0.0139090
648.062	0.0138953
648.140	0.0138555
648.218	0.0139379
648.296	0.0138473
648.374	0.0139200
648.453	0.0138593
648.531	0.0139026
648.609	0.0141175
648.687	0.0140063
648.765	0.0138624
648.843	0.0139001
648.921	0.0140794
648.999	0.0140321
649.078	0.0139113
649.156	0.0138483
649.234	0.0137683
649.312	0.0138733
649.390	0.0140543
649.468	0.0141892
649.546	0.0139031
649.624	0.0138136
649.703	0.0139993
649.781	0.0139605
649.859	0.0140135
649.937	0.0140275
650.015	0.0139188
650.093	0.0137371
650.171	0.0137756
650.249	0.0138329
650.328	0.0138086
650.406	0.0138372
650.484	0.0138926
650.562	0.0140112
650.640	0.0138061
650.718	0.0139316
650.796	0.0139040
650.874	0.0137763
650.953	0.0138593
651.031	0.0140154
651.109	0.0138875
651.187	0.0139012
651.265	0.0138014
651.343	0.0139175
651.421	0.0138966
651.499	0.0137697
651.578	0.0136767
651.656	0.0139520
651.734	0.0138209
651.812	0.0137840
651.890	0.0139314
651.968	0.0137790
652.046	0.0139938
652.124	0.0138081
652.203	0.0137753
652.281	0.0139248
652.359	0.0137843
652.437	0.0136923
652.515	0.0138658
652.593	0.0139140
652.671	0.0138951
652.749	0.0138141
652.828	0.0139548
652.906	0.0139323
652.984	0.0138549
653.062	0.0138360
653.140	0.0138230
653.218	0.0139344
653.296	0.0137905
653.374	0.0138674
653.453	0.0137532
653.531	0.0138403
653.609	0.0137841
653.687	0.0137888
653.765	0.0139558
653.843	0.0139527
653.921	0.0138058
653.999	0.0137971
654.078	0.0139246
654.156	0.0138372
654.234	0.0137638
654.312	0.0137444
654.390	0.0138721
654.468	0.0140128
654.546	0.0140052
654.624	0.0139149
654.703	0.0138840
654.781	0.0138802
654.859	0.0138007
654.937	0.0139385
655.015	0.0138403
655.093	0.0138078
655.171	0.0138284
655.249	0.0138150
655.328	0.0137963
655.406	0.0138770
655.484	0.0137718
655.562	0.0138377
655.640	0.0138484
655.718	0.0137978
655.796	0.0138457
655.874	0.0138343
655.953	0.0138332
656.031	0.0138802
656.109	0.0139336
656.187	0.0138280
656.265	0.0138209
656.343	0.0140105
656.421	0.0139881
656.499	0.0138152
656.578	0.0139173
656.656	0.0138727
656.734	0.0139421
656.812	0.0138932
656.890	0.0138097
656.968	0.0138546
657.046	0.0137870
657.124	0.0138425
657.203	0.0138292
657.281	0.0137836
657.359	0.0138117
657.437	0.0137241
657.515	0.0137325
657.593	0.0138804
657.671	0.0138918
657.749	0.0137654
657.828	0.0137070
657.906	0.0138422
657.984	0.0137285
658.062	0.0137168
658.140	0.0136696
658.218	0.0137030
658.296	0.0138991
658.374	0.0137843
658.453	0.0138599
658.531	0.0138166
658.609	0.0139565
658.687	0.0138345
658.765	0.0138152
658.843	0.0138968
658.921	0.0139330
658.999	0.0136861
659.078	0.0137516
659.156	0.0139232
659.234	0.0139327
659.312	0.0137996
659.390	0.0138596
659.468	0.0137861
659.546	0.0137350
659.624	0.0137997
659.703	0.0136924
659.781	0.0135768
659.859	0.0137121
659.937	0.0136311
660.015	0.0137043
660.093	0.0136575
660.171	0.0137012
660.249	0.0138189
660.328	0.0137910
660.406	0.0139426
660.484	0.0138828
660.562	0.0138575
660.640	0.0138770
660.718	0.0140470
660.796	0.0140052
660.874	0.0139378
660.953	0.0139884
661.031	0.0138280
661.109	0.0139064
661.187	0.0138081
661.265	0.0137605
661.343	0.0138018
661.421	0.0136178
661.499	0.0136904
661.578	0.0136202
661.656	0.0136382
661.734	0.0136533
661.812	0.0136523
661.890	0.0137032
661.968	0.0138435
662.046	0.0137038
662.124	0.0139290
662.203	0.0138645
662.281	0.0139700
662.359	0.0140192
662.437	0.0139590
662.515	0.0139504
662.593	0.0140891
662.671	0.0140437
662.749	0.0139683
662.828	0.0139102
662.906	0.0138582
662.984	0.0138961
663.062	0.0138950
663.140	0.0138174
663.218	0.0139624
663.296	0.0137968
663.374	0.0137317
663.453	0.0138504
663.531	0.0137690
663.609	0.0137230
663.687	0.0137389
663.765	0.0136396
663.843	0.0138173
663.921	0.0138528
663.999	0.0141423
664.078	0.0138628
664.156	0.0139077
664.234	0.0139296
664.312	0.0139901
664.390	0.0139433
664.468	0.0140092
664.546	0.0140016
664.624	0.0140768
664.703	0.0139988
664.781	0.0140278
664.859	0.0140376
664.937	0.0139097
665.015	0.0139111
665.093	0.0140114
665.171	0.0139582
665.249	0.0138851
665.328	0.0137838
665.406	0.0136439
665.484	0.0136716
665.562	0.0137613
665.640	0.0138314
665.718	0.0137569
665.796	0.0137875
665.874	0.0138747
665.953	0.0138343
666.031	0.0139026
666.109	0.0138154
666.187	0.0138813
666.265	0.0139172
666.343	0.0139290
666.421	0.0140028
666.499	0.0139886
666.578	0.0140882
666.656	0.0138808
666.734	0.0139226
666.812	0.0139941
666.890	0.0138810
666.968	0.0138078
667.046	0.0138673
667.124	0.0139259
667.203	0.0137553
667.281	0.0138375
667.359	0.0137461
667.437	0.0138145
667.515	0.0137962
667.593	0.0137884
667.671	0.0136324
667.749	0.0137751
667.828	0.0136620
667.906	0.0136739
667.984	0.0137293
668.062	0.0139555
668.140	0.0138928
668.218	0.0138465
668.296	0.0139341
668.374	0.0140534
668.453	0.0140947
668.531	0.0139578
668.609	0.0139751
668.687	0.0141383
668.765	0.0140591
668.843	0.0140081
668.921	0.0140032
668.999	0.0140388
669.078	0.0138300
669.156	0.0138550
669.234	0.0138474
669.312	0.0138023
669.390	0.0137587
669.468	0.0136113
669.546	0.0135940
669.624	0.0137503
669.703	0.0137173
669.781	0.0135699
669.859	0.0138591
669.937	0.0139377
670.015	0.0138606
670.093	0.0139095
670.171	0.0140696
670.249	0.0140849
670.328	0.0141629
670.406	0.0141090
670.484	0.0139367
670.562	0.0139200
670.640	0.0139857
670.718	0.0138262
670.796	0.0137827
670.874	0.0137010
670.953	0.0138126
671.031	0.0139786
671.109	0.0137981
671.187	0.0138289
671.265	0.0137644
671.343	0.0140096
671.421	0.0141627
671.499	0.0140423
671.578	0.0137720
671.656	0.0138497
671.734	0.0138458
671.812	0.0138799
671.890	0.0138057
671.968	0.0139088
672.046	0.0138732
672.124	0.0137962
672.203	0.0140067
672.281	0.0140788
672.359	0.0140870
672.437	0.0141949
672.515	0.0141506
672.593	0.0140977
672.671	0.0139182
672.749	0.0139492
672.828	0.0141667
672.906	0.0139423
672.984	0.0138474
673.062	0.0138535
673.140	0.0137631
673.218	0.0136410
673.296	0.0138124
673.374	0.0137683
673.453	0.0136673
673.531	0.0135452
673.609	0.0135706
673.687	0.0134726
673.765	0.0134739
673.843	0.0134937
673.921	0.0135294
673.999	0.0135794
674.078	0.0135414
674.156	0.0137031
674.234	0.0138613
674.312	0.0138473
674.390	0.0138704
674.468	0.0139799
674.546	0.0140930
674.624	0.0142119
674.703	0.0142126
674.781	0.0143124
674.859	0.0143369
674.937	0.0142155
675.015	0.0141414
675.093	0.0141824
675.171	0.0141964
675.249	0.0141365
675.328	0.0141413
675.406	0.0141486
675.484	0.0141048
675.562	0.0141379
675.640	0.0140773
675.718	0.0139993
675.796	0.0140208
675.874	0.0139538
675.953	0.0139435
676.031	0.0139085
676.109	0.0139693
676.187	0.0140295
676.265	0.0139811
676.343	0.0140815
676.421	0.0140717
676.499	0.0140181
676.578	0.0140537
676.656	0.0137634
676.734	0.0137807
676.812	0.0138802
676.890	0.0137758
676.968	0.0138748
677.046	0.0136211
677.124	0.0136336
677.203	0.0136619
677.281	0.0137166
677.359	0.0136000
677.437	0.0135301
677.515	0.0135284
677.593	0.0136102
677.671	0.0135818
677.749	0.0135596
677.828	0.0136754
677.906	0.0136987
677.984	0.0135069
678.062	0.0136050
678.140	0.0136045
678.218	0.0135513
678.296	0.0134884
678.374	0.0136229
678.453	0.0136133
678.531	0.0136479
678.609	0.0136568
678.687	0.0136900
678.765	0.0135665
678.843	0.0138566
678.921	0.0139516
678.999	0.0139892
679.078	0.0140784
679.156	0.0140280
679.234	0.0141940
679.312	0.0142576
679.390	0.0142847
679.468	0.0142196
679.546	0.0142449
679.624	0.0144836
679.703	0.0143401
679.781	0.0142694
679.859	0.0141290
679.937	0.0141039
680.015	0.0139525
680.093	0.0139883
680.171	0.0139245
680.249	0.0137605
680.328	0.0136088
680.406	0.0137312
680.484	0.0136879
680.562	0.0135862
680.640	0.0136683
680.718	0.0136132
680.796	0.0136829
680.874	0.0137325
680.953	0.0137366
681.031	0.0137367
681.109	0.0137919
681.187	0.0137187
681.265	0.0138164
681.343	0.0136652
681.421	0.0138194
681.499	0.0138902
681.578	0.0138641
681.656	0.0138392
681.734	0.0139390
681.812	0.0140782
681.890	0.0139648
681.968	0.0139307
682.046	0.0138110
682.124	0.0138946
682.203	0.0138902
682.281	0.0135297
682.359	0.0136614
682.437	0.0137225
682.515	0.0137180
682.593	0.0136286
682.671	0.0136214
682.749	0.0136543
682.828	0.0135841
682.906	0.0136299
682.984	0.0136000
683.062	0.0136414
683.140	0.0136938
683.218	0.0136152
683.296	0.0136935
683.374	0.0135421
683.453	0.0135921
683.531	0.0136099
683.609	0.0137043
683.687	0.0136838
683.765	0.0138898
683.843	0.0137730
683.921	0.0137049
683.999	0.0139465
684.078	0.0140153
684.156	0.0139445
684.234	0.0140099
684.312	0.0141071
684.390	0.0141579
684.468	0.0141015
684.546	0.0141282
684.624	0.0141862
684.703	0.0141802
684.781	0.0141299
684.859	0.0140684
684.937	0.0138944
685.015	0.0141121
685.093	0.0140822
685.171	0.0141672
685.249	0.0140134
685.328	0.0139543
685.406	0.0141087
685.484	0.0141492
685.562	0.0140543
685.640	0.0139631
685.718	0.0139736
685.796	0.0141960
685.874	0.0141702
685.953	0.0139805
686.031	0.0140607
686.109	0.0142065
686.187	0.0142113
686.265	0.0141241
686.343	0.0140871
686.421	0.0140481
686.499	0.0138274
686.578	0.0137941
686.656	0.0137090
686.734	0.0135808
686.812	0.0134793
686.890	0.0135483
686.968	0.0134435
687.046	0.0132687
687.124	0.0133711
687.203	0.0133070
687.281	0.0132620
687.359	0.0133253
687.437	0.0133238
687.515	0.0133172
687.593	0.0133473
687.671	0.0132344
687.749	0.0134875
687.828	0.0135881
687.906	0.0135870
687.984	0.0135659
688.062	0.0137309
688.140	0.0138717
688.218	0.0137278
688.296	0.0136954
688.374	0.0137523
688.453	0.0138181
688.531	0.0137981
688.609	0.0138170
688.687	0.0137081
688.765	0.0136992
688.843	0.0135390
688.921	0.0137559
688.999	0.0136585
689.078	0.0135786
689.156	0.0138107
689.234	0.0138503
689.312	0.0138605
689.390	0.0140078
689.468	0.0141073
689.546	0.0141497
689.624	0.0142109
689.703	0.0144367
689.781	0.0144530
689.859	0.0144490
689.937	0.0144673
690.015	0.0145002
690.093	0.0144646
690.171	0.0144186
690.249	0.0144257
690.328	0.0144352
690.406	0.0143906
690.484	0.0143021
690.562	0.0144044
690.640	0.0142862
690.718	0.0140853
690.796	0.0143207
690.874	0.0141809
690.953	0.0141107
691.031	0.0140163
691.109	0.0140309
691.187	0.0139685
691.265	0.0138548
691.343	0.0137490
691.421	0.0137627
691.499	0.0135663
691.578	0.0136343
691.656	0.0134751
691.734	0.0133127
691.812	0.0132117
691.890	0.0131137
691.968	0.0133298
692.046	0.0130945
692.124	0.0130329
692.203	0.0129256
692.281	0.0131752
692.359	0.0132733
692.437	0.0131561
692.515	0.0131691
692.593	0.0131998
692.671	0.0133418
692.749	0.0134474
692.828	0.0135545
692.906	0.0136427
692.984	0.0138103
693.062	0.0137720
693.140	0.0138054
693.218	0.0139075
693.296	0.0138404
693.374	0.0137605
693.453	0.0138985
693.531	0.0138181
693.609	0.0138931
693.687	0.0137885
693.765	0.0136076
693.843	0.0136415
693.921	0.0135785
693.999	0.0135833
694.078	0.0135629
694.156	0.0135714
694.234	0.0136623
694.312	0.0136707
694.390	0.0135405
694.468	0.0137544
694.546	0.0136689
694.624	0.0141142
694.703	0.0141952
694.781	0.0144565
694.859	0.0146994
694.937	0.0146951
695.015	0.0149228
695.093	0.0151844
695.171	0.0151947
695.249	0.0152247
695.328	0.0152396
695.406	0.0154262
695.484	0.0151875
695.562	0.0151067
695.640	0.0150958
695.718	0.0149674
695.796	0.0145794
695.874	0.0145519
695.953	0.0142981
696.031	0.0140499
696.109	0.0139680
696.187	0.0137522
696.265	0.0134540
696.343	0.0133826
696.421	0.0131979
696.499	0.0130701
696.578	0.0131143
696.656	0.0130986
696.734	0.0129475
696.812	0.0130566
696.890	0.0131970
696.968	0.0131600
697.046	0.0132117
697.124	0.0132922
697.203	0.0133308
697.281	0.0133054
697.359	0.0133686
697.437	0.0133509
697.515	0.0133141
697.593	0.0132055
697.671	0.0131542
697.749	0.0131406
697.828	0.0131907
697.906	0.0131236
697.984	0.0131402
698.062	0.0132250
698.140	0.0133167
698.218	0.0134322
698.296	0.0133358
698.374	0.0135917
698.453	0.0135886
698.531	0.0137505
698.609	0.0138844
698.687	0.0138577
698.765	0.0138721
698.843	0.0140564
698.921	0.0140644
698.999	0.0139798
699.078	0.0141167
699.156	0.0138972
699.234	0.0139782
699.312	0.0140545
699.390	0.0140797
699.468	0.0139648
699.546	0.0139323
699.624	0.0140856
699.703	0.0138844
699.781	0.0141076
699.859	0.0140430
699.937	0.0141937
700.015	0.0142965
700.093	0.0145140
700.171	0.0145960
700.249	0.0148203
700.328	0.0150101
700.406	0.0150689
700.484	0.0151208
700.562	0.0152526
700.640	0.0152778
700.718	0.0153024
700.796	0.0151931
700.874	0.0150786
700.953	0.0149513
701.031	0.0148904
701.109	0.0146221
701.187	0.0144059
701.265	0.0140695
701.343	0.0139932
701.421	0.0138856
701.499	0.0136578
701.578	0.0134455
701.656	0.0133150
701.734	0.0133613
701.812	0.0131458
701.890	0.0129895
701.968	0.0129414
702.046	0.0129289
702.124	0.0129424
702.203	0.0129110
702.281	0.0128252
702.359	0.0129305
702.437	0.0129014
702.515	0.0128998
702.593	0.0127283
702.671	0.0128095
702.749	0.0129678
702.828	0.0129245
702.906	0.0128342
702.984	0.0128422
703.062	0.0128815
703.140	0.0129613
703.218	0.0130939
703.296	0.0131187
703.374	0.0132620
703.453	0.0133096
703.531	0.0133947
703.609	0.0135725
703.687	0.0136778
703.765	0.0138081
703.843	0.0139214
703.921	0.0141343
703.999	0.0141978
704.078	0.0143133
704.156	0.0143716
704.234	0.0145161
704.312	0.0144019
704.390	0.0144878
704.468	0.0142925
704.546	0.0143265
704.624	0.0142088
704.703	0.0141248
704.781	0.0141610
704.859	0.0140129
704.937	0.0141225
705.015	0.0140848
705.093	0.0139874
705.171	0.0139495
705.249	0.0141853
705.328	0.0139980
705.406	0.0142301
705.484	0.0145985
705.562	0.0145029
705.640	0.0145334
705.718	0.0145694
705.796	0.0148939
705.874	0.0151392
705.953	0.0149566
706.031	0.0149749
706.109	0.0149833
706.187	0.0149387
706.265	0.0149613
706.343	0.0149393
706.421	0.0147245
706.499	0.0144153
706.578	0.0143855
706.656	0.0141319
706.734	0.0138853
706.812	0.0136981
706.890	0.0136126
706.968	0.0134757
707.046	0.0132718
707.124	0.0131387
707.203	0.0130994
707.281	0.0128666
707.359	0.0127621
707.437	0.0126933
707.515	0.0125079
707.593	0.0125752
707.671	0.0125430
707.749	0.0126931
707.828	0.0126051
707.906	0.0125528
707.984	0.0126112
708.062	0.0127713
708.140	0.0128138
708.218	0.0129006
708.296	0.0131577
708.374	0.0132433
708.453	0.0131451
708.531	0.0133463
708.609	0.0133023
708.687	0.0135262
708.765	0.0136040
708.843	0.0137362
708.921	0.0140426
708.999	0.0141708
709.078	0.0143457
709.156	0.0143742
709.234	0.0145526
709.312	0.0146304
709.390	0.0145813
709.468	0.0145929
709.546	0.0145537
709.624	0.0147118
709.703	0.0144885
709.781	0.0143151
709.859	0.0143019
709.937	0.0142413
710.015	0.0140725
710.093	0.0138768
710.171	0.0138846
710.249	0.0137327
710.328	0.0138201
710.406	0.0137043
710.484	0.0136636
710.562	0.0135500
710.640	0.0136655
710.718	0.0136405
710.796	0.0139737
710.874	0.0139399
710.953	0.0141866
711.031	0.0142339
711.109	0.0143968
711.187	0.0146026
711.265	0.0147091
711.343	0.0148668
711.421	0.0150119
711.499	0.0149461
711.578	0.0149528
711.656	0.0150828
711.734	0.0149558
711.812	0.0147626
711.890	0.0148307
711.968	0.0146473
712.046	0.0145277
712.124	0.0142534
712.203	0.0140681
712.281	0.0138605
712.359	0.0135982
712.437	0.0135539
712.515	0.0132543
712.593	0.0131329
712.671	0.0129249
712.749	0.0128778
712.828	0.0125627
712.906	0.0124059
712.984	0.0123753
713.062	0.0124477
713.140	0.0123804
713.218	0.0124880
713.296	0.0125366
713.374	0.0127213
713.453	0.0127834
713.531	0.0130138
713.609	0.0131998
713.687	0.0134518
713.765	0.0136937
713.843	0.0136223
713.921	0.0136703
713.999	0.0139130
714.078	0.0139100
714.156	0.0139716
714.234	0.0141992
714.312	0.0142055
714.390	0.0142056
714.468	0.0143034
714.546	0.0142548
714.624	0.0143527
714.703	0.0143256
714.781	0.0143922
714.859	0.0142393
714.937	0.0141556
715.015	0.0141952
715.093	0.0141060
715.171	0.0140012
715.249	0.0138373
715.328	0.0139408
715.406	0.0137948
715.484	0.0138156
715.562	0.0138376
715.640	0.0137906
715.718	0.0138001
715.796	0.0137613
715.874	0.0138712
715.953	0.0138908
716.031	0.0138548
716.109	0.0138139
716.187	0.0139785
716.265	0.0141209
716.343	0.0141161
716.421	0.0142095
716.499	0.0142989
716.578	0.0145501
716.656	0.0145972
716.734	0.0146979
716.812	0.0147994
716.890	0.0147961
716.968	0.0149162
717.046	0.0149031
717.124	0.0149270
717.203	0.0149937
717.281	0.0147417
717.359	0.0145112
717.437	0.0145012
717.515	0.0144185
717.593	0.0141060
717.671	0.0138814
717.749	0.0137437
717.828	0.0136407
717.906	0.0133886
717.984	0.0131339
718.062	0.0130350
718.140	0.0129303
718.218	0.0126877
718.296	0.0127246
718.374	0.0125546
718.453	0.0125071
718.531	0.0126034
718.609	0.0127746
718.687	0.0127814
718.765	0.0129488
718.843	0.0129272
718.921	0.0130545
718.999	0.0131827
719.078	0.0134769
719.156	0.0137431
719.234	0.0138132
719.312	0.0139499
719.390	0.0140756
719.468	0.0139890
719.546	0.0140648
719.624	0.0141708
719.703	0.0140434
719.781	0.0141408
719.859	0.0142387
719.937	0.0142635
720.015	0.0143017
720.093	0.0140961
720.171	0.0142488
720.249	0.0142342
720.328	0.0142893
720.406	0.0142812
720.484	0.0142773
720.562	0.0142653
720.640	0.0141170
720.718	0.0141281
720.796	0.0139493
720.874	0.0138602
720.953	0.0140182
721.031	0.0137379
721.109	0.0139014
721.187	0.0136510
721.265	0.0138704
721.343	0.0138894
721.421	0.0137740
721.499	0.0137724
721.578	0.0138342
721.656	0.0138495
721.734	0.0139150
721.812	0.0139037
721.890	0.0140595
721.968	0.0141250
722.046	0.0140169
722.124	0.0142986
722.203	0.0144217
722.281	0.0144668
722.359	0.0146729
722.437	0.0146482
722.515	0.0149046
722.593	0.0149622
722.671	0.0149618
722.749	0.0149105
722.828	0.0147861
722.906	0.0145642
722.984	0.0143920
723.062	0.0142512
723.140	0.0142068
723.218	0.0138567
723.296	0.0137957
723.374	0.0136533
723.453	0.0134484
723.531	0.0131044
723.609	0.0130702
723.687	0.0128883
723.765	0.0128551
723.843	0.0127095
723.921	0.0126772
723.999	0.0127026
724.078	0.0126849
724.156	0.0127532
724.234	0.0127143
724.312	0.0127924
724.390	0.0130341
724.468	0.0131507
724.546	0.0132390
724.624	0.0134436
724.703	0.0135387
724.781	0.0137317
724.859	0.0138538
724.937	0.0139158
725.015	0.0139627
725.093	0.0140905
725.171	0.0142119
725.249	0.0141762
725.328	0.0142471
725.406	0.0143116
725.484	0.0142826
725.562	0.0142647
725.640	0.0142834
725.718	0.0143199
725.796	0.0141734
725.874	0.0141530
725.953	0.0143017
726.031	0.0142393
726.109	0.0141675
726.187	0.0140611
726.265	0.0140831
726.343	0.0139981
726.421	0.0138066
726.499	0.0137840
726.578	0.0137922
726.656	0.0138497
726.734	0.0138389
726.812	0.0138354
726.890	0.0138444
726.968	0.0138593
727.046	0.0138885
727.124	0.0139645
727.203	0.0138795
727.281	0.0138889
727.359	0.0141389
727.437	0.0142712
727.515	0.0141113
727.593	0.0141886
727.671	0.0143184
727.749	0.0143811
727.828	0.0146825
727.906	0.0148278
727.984	0.0147304
728.062	0.0145592
728.140	0.0148557
728.218	0.0147041
728.296	0.0145766
728.374	0.0145567
728.453	0.0142291
728.531	0.0139879
728.609	0.0139599
728.687	0.0137163
728.765	0.0136266
728.843	0.0133803
728.921	0.0131403
728.999	0.0130632
729.078	0.0129301
729.156	0.0128394
729.234	0.0128525
729.312	0.0127232
729.390	0.0126599
729.468	0.0127367
729.546	0.0128564
729.624	0.0128216
729.703	0.0131306
729.781	0.0131328
729.859	0.0131894
729.937	0.0133169
730.015	0.0134915
730.093	0.0136809
730.171	0.0137582
730.249	0.0138607
730.328	0.0140343
730.406	0.0140746
730.484	0.0140501
730.562	0.0142673
730.640	0.0142614
730.718	0.0141862
730.796	0.0144894
730.874	0.0143103
730.953	0.0142591
731.031	0.0142587
731.109	0.0142072
731.187	0.0143117
731.265	0.0141164
731.343	0.0141517
731.421	0.0141192
731.499	0.0140346
731.578	0.0141107
731.656	0.0139296
731.734	0.0139171
731.812	0.0139000
731.890	0.0137423
731.968	0.0137826
732.046	0.0139865
732.124	0.0138759
732.203	0.0139192
732.281	0.0138687
732.359	0.0138694
732.437	0.0139010
732.515	0.0139121
732.593	0.0138647
732.671	0.0137992
732.749	0.0139165
732.828	0.0140956
732.906	0.0139015
732.984	0.0140240
733.062	0.0140640
733.140	0.0141838
733.218	0.0142017
733.296	0.0142281
733.374	0.0141734
733.453	0.0142614
733.531	0.0142471
733.609	0.0142951
733.687	0.0144536
733.765	0.0143130
733.843	0.0140352
733.921	0.0140746
733.999	0.0140508
734.078	0.0138783
734.156	0.0138593
734.234	0.0137171
734.312	0.0134887
734.390	0.0134469
734.468	0.0134558
734.546	0.0132687
734.624	0.0132394
734.703	0.0130888
734.781	0.0130921
734.859	0.0131824
734.937	0.0133212
735.015	0.0131608
735.093	0.0132277
735.171	0.0134248
735.249	0.0134859
735.328	0.0134718
735.406	0.0135339
735.484	0.0134060
735.562	0.0135809
735.640	0.0137695
735.718	0.0137672
735.796	0.0138689
735.874	0.0139095
735.953	0.0140407
736.031	0.0139421
736.109	0.0139487
736.187	0.0141160
736.265	0.0141792
736.343	0.0141074
736.421	0.0141791
736.499	0.0141454
736.578	0.0140984
736.656	0.0140765
736.734	0.0142241
736.812	0.0142368
736.890	0.0142833
736.968	0.0140942
737.046	0.0141290
737.124	0.0141270
737.203	0.0140483
737.281	0.0140336
737.359	0.0139426
737.437	0.0139198
737.515	0.0138708
737.593	0.0138060
737.671	0.0138080
737.749	0.0138420
737.828	0.0138686
737.906	0.0138319
737.984	0.0136673
738.062	0.0137733
738.140	0.0137219
738.218	0.0137392
738.296	0.0138170
738.374	0.0139574
738.453	0.0138214
738.531	0.0138925
738.609	0.0139346
738.687	0.0140144
738.765	0.0140146
738.843	0.0140227
738.921	0.0141133
738.999	0.0142261
739.078	0.0142328
739.156	0.0141270
739.234	0.0141148
739.312	0.0140971
739.390	0.0141575
739.468	0.0140894
739.546	0.0140036
739.624	0.0138403
739.703	0.0138639
739.781	0.0137548
739.859	0.0137210
739.937	0.0137122
740.015	0.0134554
740.093	0.0135841
740.171	0.0134969
740.249	0.0133884
740.328	0.0134103
740.406	0.0133442
740.484	0.0131950
740.562	0.0133337
740.640	0.0133244
740.718	0.0134644
740.796	0.0136639
740.874	0.0136662
740.953	0.0135774
741.031	0.0137124
741.109	0.0138149
741.187	0.0138423
741.265	0.0138701
741.343	0.0140868
741.421	0.0140887
741.499	0.0140724
741.578	0.0141891
741.656	0.0142749
741.734	0.0142892
741.812	0.0143235
741.890	0.0143159
741.968	0.0142648
742.046	0.0143062
742.124	0.0140262
742.203	0.0141392
742.281	0.0141128
742.359	0.0140868
742.437	0.0140304
742.515	0.0139914
742.593	0.0138858
742.671	0.0139055
742.749	0.0139339
742.828	0.0138266
742.906	0.0139638
742.984	0.0137201
743.062	0.0138354
743.140	0.0138007
743.218	0.0138181
743.296	0.0138732
743.374	0.0138589
743.453	0.0137753
743.531	0.0138771
743.609	0.0138573
743.687	0.0139300
743.765	0.0137651
743.843	0.0137487
743.921	0.0137337
743.999	0.0138200
744.078	0.0137846
744.156	0.0138464
744.234	0.0139832
744.312	0.0140514
744.390	0.0140746
744.468	0.0141168
744.546	0.0142070
744.624	0.0140788
744.703	0.0141815
744.781	0.0140803
744.859	0.0142273
744.937	0.0140333
745.015	0.0141241
745.093	0.0141454
745.171	0.0139601
745.249	0.0139569
745.328	0.0139529
745.406	0.0137587
745.484	0.0136851
745.562	0.0136932
745.640	0.0137016
745.718	0.0138224
745.796	0.0137563
745.874	0.0136550
745.953	0.0136334
746.031	0.0135812
746.109	0.0137367
746.187	0.0138168
746.265	0.0136785
746.343	0.0138805
746.421	0.0139903
746.499	0.0137895
746.578	0.0139541
746.656	0.0140657
746.734	0.0138551
746.812	0.0138696
746.890	0.0139156
746.968	0.0138736
747.046	0.0139517
747.124	0.0139788
747.203	0.0141695
747.281	0.0142270
747.359	0.0140464
747.437	0.0140024
747.515	0.0140298
747.593	0.0141178
747.671	0.0140533
747.749	0.0140021
747.828	0.0140754
747.906	0.0139918
747.984	0.0139973
748.062	0.0140786
748.140	0.0139383
748.218	0.0140319
748.296	0.0139361
748.374	0.0138779
748.453	0.0139043
748.531	0.0139459
748.609	0.0139113
748.687	0.0139014
748.765	0.0137779
748.843	0.0138296
748.921	0.0137076
748.999	0.0137600
749.078	0.0137603
749.156	0.0138209
749.234	0.0137756
749.312	0.0139071
749.390	0.0138671
749.468	0.0138920
749.546	0.0140804
749.624	0.0140132
749.703	0.0140173
749.781	0.0140199
749.859	0.0141237
749.937	0.0141854
750.015	0.0140427
750.093	0.0140283
750.171	0.0140784
750.249	0.0140386
750.328	0.0140799
750.406	0.0140723
750.484	0.0139518
750.562	0.0139215
750.640	0.0139413
750.718	0.0139436
750.796	0.0138248
750.874	0.0137193
750.953	0.0136620
751.031	0.0137437
751.109	0.0136430
751.187	0.0135955
751.265	0.0135712
751.343	0.0137053
751.421	0.0136355
751.499	0.0136941
751.578	0.0137886
751.656	0.0137772
751.734	0.0138231
751.812	0.0137328
751.890	0.0138094
751.968	0.0139727
752.046	0.0140242
752.124	0.0141120
752.203	0.0139634
752.281	0.0140421
752.359	0.0139116
752.437	0.0140601
752.515	0.0139693
752.593	0.0139460
752.671	0.0139345
752.749	0.0139224
752.828	0.0139542
752.906	0.0140071
752.984	0.0137579
753.062	0.0137623
753.140	0.0137899
753.218	0.0139809
753.296	0.0138708
753.374	0.0138225
753.453	0.0137489
753.531	0.0137598
753.609	0.0139928
753.687	0.0138949
753.765	0.0137172
753.843	0.0137875
753.921	0.0137081
753.999	0.0138444
754.078	0.0137283
754.156	0.0138892
754.234	0.0138689
754.312	0.0138453
754.390	0.0138725
754.468	0.0139622
754.546	0.0138596
754.624	0.0139191
754.703	0.0140073
754.781	0.0138335
754.859	0.0137962
754.937	0.0138574
755.015	0.0139075
755.093	0.0139711
755.171	0.0138256
755.249	0.0138533
755.328	0.0139761
755.406	0.0139623
755.484	0.0138715
755.562	0.0139150
755.640	0.0139586
755.718	0.0139380
755.796	0.0139044
755.874	0.0139077
755.953	0.0139175
756.031	0.0139766
756.109	0.0139945
756.187	0.0138820
756.265	0.0139764
756.343	0.0139873
756.421	0.0138681
756.499	0.0139071
756.578	0.0140031
756.656	0.0138673
756.734	0.0138063
756.812	0.0139799
756.890	0.0139428
756.968	0.0138627
757.046	0.0139307
757.124	0.0138438
757.203	0.0139642
757.281	0.0140041
757.359	0.0138984
757.437	0.0138949
757.515	0.0139106
757.593	0.0138315
757.671	0.0138068
757.749	0.0138887
757.828	0.0138750
757.906	0.0137191
757.984	0.0138282
758.062	0.0137196
758.140	0.0138753
758.218	0.0138147
758.296	0.0136675
758.374	0.0137878
758.453	0.0136639
758.531	0.0137306
758.609	0.0137613
758.687	0.0138483
758.765	0.0138086
758.843	0.0138097
758.921	0.0138620
758.999	0.0139535
759.078	0.0139970
759.156	0.0139634
759.234	0.0138908
759.312	0.0140829
759.390	0.0141618
759.468	0.0140197
759.546	0.0139829
759.624	0.0139917
759.703	0.0140839
759.781	0.0139789
759.859	0.0139471
759.937	0.0138530
760.015	0.0138373
760.093	0.0139139
760.171	0.0138344
760.249	0.0138811
760.328	0.0138802
760.406	0.0138413
760.484	0.0139273
760.562	0.0138902
760.640	0.0138256
760.718	0.0139822
760.796	0.0137439
760.874	0.0137331
760.953	0.0140412
761.031	0.0139960
761.109	0.0138869
761.187	0.0139661
761.265	0.0138848
761.343	0.0141333
761.421	0.0140337
761.499	0.0139119
761.578	0.0140508
761.656	0.0140013
761.734	0.0138903
761.812	0.0139763
761.890	0.0139870
761.968	0.0138902
762.046	0.0138531
762.124	0.0140100
762.203	0.0139500
762.281	0.0138728
762.359	0.0140195
762.437	0.0139085
762.515	0.0139368
762.593	0.0138398
762.671	0.0138063
762.749	0.0139287
762.828	0.0139509
762.906	0.0138257
762.984	0.0137766
763.062	0.0139075
763.140	0.0138377
763.218	0.0138101
763.296	0.0137903
763.374	0.0138396
763.453	0.0138782
763.531	0.0137935
763.609	0.0138278
763.687	0.0139166
763.765	0.0137798
763.843	0.0137439
763.921	0.0138194
763.999	0.0137662
764.078	0.0138108
764.156	0.0138490
764.234	0.0138651
764.312	0.0141177
764.390	0.0138290
764.468	0.0138267
764.546	0.0139556
764.624	0.0139670
764.703	0.0140408
764.781	0.0139043
764.859	0.0139017
764.937	0.0139937
765.015	0.0139823
765.093	0.0138942
765.171	0.0138509
765.249	0.0138281
765.328	0.0140795
765.406	0.0138775
765.484	0.0137457
765.562	0.0137688
765.640	0.0138733
765.718	0.0137093
765.796	0.0138400
765.874	0.0138758
765.953	0.0138034
766.031	0.0137208
766.109	0.0137177
766.187	0.0138392
766.265	0.0137081
766.343	0.0138577
766.421	0.0137983
766.499	0.0138271
766.578	0.0138562
766.656	0.0137412
766.734	0.0139148
766.812	0.0139167
766.890	0.0139889
766.968	0.0139776
767.046	0.0141388
767.124	0.0139897
767.203	0.0140144
767.281	0.0140784
767.359	0.0140352
767.437	0.0138845
767.515	0.0141003
767.593	0.0142687
767.671	0.0140709
767.749	0.0140337
767.828	0.0141431
767.906	0.0141319
767.984	0.0140409
768.062	0.0139777
768.140	0.0139251
768.218	0.0138239
768.296	0.0139333
768.374	0.0138754
768.453	0.0139328
768.531	0.0137334
768.609	0.0137643
768.687	0.0139160
768.765	0.0139391
768.843	0.0138460
768.921	0.0138286
768.999	0.0139030
769.078	0.0139721
769.156	0.0138601
769.234	0.0137637
769.312	0.0139410
769.390	0.0139122
769.468	0.0137645
769.546	0.0138589
769.624	0.0140566
769.703	0.0138039
769.781	0.0139175
769.859	0.0139993
769.937	0.0138345
770.015	0.0140487
770.093	0.0139516
770.171	0.0138941
770.249	0.0140026
770.328	0.0139279
770.406	0.0138908
770.484	0.0139655
770.562	0.0136398
770.640	0.0137844
770.718	0.0136935
770.796	0.0136122
770.874	0.0136846
770.953	0.0135799
771.031	0.0136103
771.109	0.0136469
771.187	0.0136687
771.265	0.0136382
771.343	0.0137118
771.421	0.0137463
771.499	0.0136629
771.578	0.0138104
771.656	0.0138766
771.734	0.0138808
771.812	0.0138990
771.890	0.0138335
771.968	0.0140219
772.046	0.0138321
772.124	0.0138565
772.203	0.0139001
772.281	0.0141029
772.359	0.0140276
772.437	0.0139284
772.515	0.0139470
772.593	0.0140121
772.671	0.0139135
772.749	0.0139575
772.828	0.0139598
772.906	0.0138902
772.984	0.0139574
773.062	0.0139700
773.140	0.0138506
773.218	0.0140096
773.296	0.0138205
773.374	0.0138567
773.453	0.0139828
773.531	0.0138523
773.609	0.0139447
773.687	0.0139219
773.765	0.0138658
773.843	0.0137894
773.921	0.0138673
773.999	0.0139488
774.078	0.0138557
774.156	0.0138652
774.234	0.0137555
774.312	0.0138198
774.390	0.0136905
774.468	0.0137238
774.546	0.0138198
774.624	0.0136654
774.703	0.0136896
774.781	0.0137385
774.859	0.0137678
774.937	0.0138654
775.015	0.0139346
775.093	0.0140473
775.171	0.0140342
775.249	0.0139229
775.328	0.0139184
775.406	0.0139928
775.484	0.0139950
775.562	0.0140506
775.640	0.0140849
775.718	0.0139880
775.796	0.0139491
775.874	0.0141237
775.953	0.0139960
776.031	0.0139319
776.109	0.0138136
776.187	0.0138006
776.265	0.0138239
776.343	0.0138625
776.421	0.0138503
776.499	0.0138680
776.578	0.0138306
776.656	0.0137550
776.734	0.0138179
776.812	0.0139834
776.890	0.0138778
776.968	0.0139037
777.046	0.0137920
777.124	0.0139113
777.203	0.0139178
777.281	0.0138708
777.359	0.0139469
777.437	0.0137351
777.515	0.0138489
777.593	0.0139767
777.671	0.0139229
777.749	0.0141214
777.828	0.0139777
777.906	0.0137673
777.984	0.0137947
778.062	0.0137717
778.140	0.0140416
778.218	0.0139616
778.296	0.0138824
778.374	0.0138860
778.453	0.0139714
778.531	0.0139283
778.609	0.0140763
778.687	0.0139877
778.765	0.0138604
778.843	0.0137218
778.921	0.0138598
778.999	0.0138182
779.078	0.0137698
779.156	0.0138329
779.234	0.0137885
779.312	0.0137749
779.390	0.0137665
779.468	0.0137804
779.546	0.0136797
779.624	0.0137112
779.703	0.0136605
779.781	0.0137749
779.859	0.0137447
779.937	0.0138318
780.015	0.0138031
780.093	0.0137659
780.171	0.0137489
780.249	0.0137097
780.328	0.0138077
780.406	0.0138687
780.484	0.0137009
780.562	0.0138912
780.640	0.0140250
780.718	0.0138130
780.796	0.0138704
780.874	0.0139050
780.953	0.0139458
781.031	0.0139330
781.109	0.0139517
781.187	0.0137862
781.265	0.0138512
781.343	0.0137637
781.421	0.0138403
781.499	0.0138561
781.578	0.0138702
781.656	0.0136617
781.734	0.0138308
781.812	0.0138715
781.890	0.0138401
781.968	0.0138810
782.046	0.0138060
782.124	0.0139099
782.203	0.0139161
782.281	0.0138036
782.359	0.0137991
782.437	0.0138571
782.515	0.0139680
782.593	0.0139709
782.671	0.0138537
782.749	0.0138470
782.828	0.0138287
782.906	0.0137727
782.984	0.0138306
783.062	0.0139881
783.140	0.0137283
783.218	0.0137876
783.296	0.0136801
783.374	0.0137424
783.453	0.0138148
783.531	0.0138976
783.609	0.0136742
783.687	0.0137622
783.765	0.0138281
783.843	0.0139877
783.921	0.0138329
783.999	0.0139293
784.078	0.0138856
784.156	0.0138486
784.234	0.0138678
784.312	0.0138922
784.390	0.0140062
784.468	0.0139404
784.546	0.0137561
784.624	0.0138082
784.703	0.0138601
784.781	0.0137571
784.859	0.0137147
784.937	0.0138145
785.015	0.0136663
785.093	0.0137180
785.171	0.0137778
785.249	0.0137373
785.328	0.0136970
785.406	0.0137180
785.484	0.0138953
785.562	0.0137427
785.640	0.0139208
785.718	0.0138771
785.796	0.0138345
785.874	0.0140366
785.953	0.0138046
786.031	0.0139705
786.109	0.0139909
786.187	0.0141947
786.265	0.0140530
786.343	0.0139549
786.421	0.0139568
786.499	0.0141296
786.578	0.0139281
786.656	0.0141560
786.734	0.0140608
786.812	0.0139771
786.890	0.0139315
786.968	0.0138050
787.046	0.0139139
787.124	0.0138628
787.203	0.0138403
787.281	0.0139291
787.359	0.0136758
787.437	0.0137827
787.515	0.0137206
787.593	0.0137675
787.671	0.0137529
787.749	0.0136674
787.828	0.0137798
787.906	0.0137013
787.984	0.0136594
788.062	0.0138477
788.140	0.0138303
788.218	0.0136332
788.296	0.0137659
788.374	0.0135956
788.453	0.0136861
788.531	0.0138423
788.609	0.0137826
788.687	0.0138475
788.765	0.0137532
788.843	0.0137224
788.921	0.0137149
788.999	0.0138892
789.078	0.0138542
789.156	0.0138303
789.234	0.0138966
789.312	0.0138776
789.390	0.0138084
789.468	0.0137791
789.546	0.0139500
789.624	0.0138593
789.703	0.0139149
789.781	0.0138424
789.859	0.0138731
789.937	0.0137951
790.015	0.0138052
790.093	0.0138983
790.171	0.0137728
790.249	0.0138372
790.328	0.0138103
790.406	0.0138583
790.484	0.0138270
790.562	0.0138854
790.640	0.0138441
790.718	0.0138026
790.796	0.0139126
790.874	0.0139079
790.953	0.0138443
791.031	0.0138223
791.109	0.0138038
791.187	0.0138027
791.265	0.0137244
791.343	0.0138599
791.421	0.0137971
791.499	0.0140080
791.578	0.0139404
791.656	0.0139342
791.734	0.0138859
791.812	0.0139108
791.890	0.0138522
791.968	0.0139183
792.046	0.0138618
792.124	0.0138521
792.203	0.0140095
792.281	0.0138437
792.359	0.0137835
792.437	0.0138241
792.515	0.0138995
792.593	0.0139288
792.671	0.0138589
792.749	0.0138802
792.828	0.0139245
792.906	0.0138758
792.984	0.0138808
793.062	0.0137050
793.140	0.0137156
793.218	0.0138274
793.296	0.0137916
793.374	0.0137655
793.453	0.0136973
793.531	0.0137026
793.609	0.0138107
793.687	0.0140095
793.765	0.0137966
793.843	0.0136768
793.921	0.0136560
793.999	0.0138671
794.078	0.0138530
794.156	0.0137488
794.234	0.0138409
794.312	0.0138074
794.390	0.0139677
794.468	0.0138710
794.546	0.0138477
794.624	0.0137115
794.703	0.0140204
794.781	0.0139081
794.859	0.0137596
794.937	0.0139314
795.015	0.0138411
795.093	0.0138108
795.171	0.0139377
795.249	0.0139315
795.328	0.0138594
795.406	0.0137596
795.484	0.0138971
795.562	0.0138937
795.640	0.0137579
795.718	0.0138352
795.796	0.0138490
795.874	0.0139191
795.953	0.0138327
796.031	0.0138004
796.109	0.0137454
796.187	0.0139718
796.265	0.0139008
796.343	0.0137833
796.421	0.0139900
796.499	0.0138734
796.578	0.0138915
796.656	0.0140296
796.734	0.0141566
796.812	0.0139916
796.890	0.0140520
796.968	0.0139886
797.046	0.0138375
797.124	0.0139426
797.203	0.0140566
797.281	0.0141582
797.359	0.0140514
797.437	0.0140706
797.515	0.0140086
797.593	0.0139256
797.671	0.0138253
797.749	0.0138986
797.828	0.0139767
797.906	0.0138919
797.984	0.0137556
798.062	0.0138638
798.140	0.0137951
798.218	0.0136643
798.296	0.0137029
798.374	0.0138300
798.453	0.0137534
798.531	0.0136243
798.609	0.0137011
798.687	0.0137663
798.765	0.0136401
798.843	0.0136366
798.921	0.0136215
798.999	0.0136828
799.078	0.0138067
799.156	0.0137737
799.234	0.0137076
799.312	0.0136266
799.390	0.0137881
799.468	0.0137509
799.546	0.0137315
799.624	0.0137044
799.703	0.0137578
799.781	0.0138523
799.859	0.0137268
799.937	0.0138430
800.015	0.0137608
800.093	0.0137549
800.171	0.0138351
800.249	0.0138620
800.328	0.0136977
800.406	0.0137966
800.484	0.0138998
800.562	0.0137997
800.640	0.0139101
800.718	0.0139175
800.796	0.0139586
800.874	0.0139291
800.953	0.0139486
801.031	0.0139892
801.109	0.0139339
801.187	0.0138535
801.265	0.0138859
801.343	0.0139639
801.421	0.0139764
801.499	0.0137744
801.578	0.0138200
801.656	0.0140448
801.734	0.0138421
801.812	0.0137836
801.890	0.0139906
801.968	0.0139721
802.046	0.0139119
802.124	0.0138896
802.203	0.0140852
802.281	0.0139168
802.359	0.0140862
802.437	0.0139804
802.515	0.0139996
802.593	0.0139508
802.671	0.0138445
802.749	0.0138842
802.828	0.0139336
802.906	0.0138245
802.984	0.0138769
803.062	0.0138240
803.140	0.0137972
803.218	0.0136809
803.296	0.0138278
803.374	0.0136221
803.453	0.0136608
803.531	0.0136720
803.609	0.0137088
803.687	0.0138099
803.765	0.0137366
803.843	0.0137654
803.921	0.0137038
803.999	0.0136964
804.078	0.0137757
804.156	0.0138261
804.234	0.0138301
804.312	0.0138226
804.390	0.0138237
804.468	0.0138805
804.546	0.0139077
804.624	0.0139021
804.703	0.0137917
804.781	0.0139427
804.859	0.0138512
804.937	0.0140922
805.015	0.0139738
805.093	0.0139904
805.171	0.0139289
805.249	0.0138149
805.328	0.0138208
805.406	0.0138357
805.484	0.0137794
805.562	0.0140188
805.640	0.0139256
805.718	0.0139678
805.796	0.0138104
805.874	0.0138081
805.953	0.0137857
806.031	0.0139233
806.109	0.0138531
806.187	0.0138042
806.265	0.0139187
806.343	0.0139902
806.421	0.0139397
806.499	0.0139506
806.578	0.0139549
806.656	0.0138910
806.734	0.0139053
806.812	0.0139251
806.890	0.0140228
806.968	0.0140346
807.046	0.0139751
807.124	0.0138851
807.203	0.0139259
807.281	0.0137608
807.359	0.0138454
807.437	0.0138535
807.515	0.0139280
807.593	0.0138393
807.671	0.0139005
807.749	0.0139802
807.828	0.0139914
807.906	0.0139458
807.984	0.0139442
808.062	0.0137581
808.140	0.0138387
808.218	0.0137830
808.296	0.0139984
808.374	0.0137955
808.453	0.0138520
808.531	0.0138535
808.609	0.0138748
808.687	0.0138277
808.765	0.0137749
808.843	0.0137940
808.921	0.0139846
808.999	0.0138469
809.078	0.0137946
809.156	0.0137430
809.234	0.0137320
809.312	0.0137424
809.390	0.0137684
809.468	0.0138235
809.546	0.0138241
809.624	0.0136895
809.703	0.0137695
809.781	0.0139507
809.859	0.0137477
809.937	0.0136921
810.015	0.0138145
810.093	0.0137517
810.171	0.0137926
810.249	0.0139534
810.328	0.0139751
810.406	0.0138280
810.484	0.0138599
810.562	0.0137999
810.640	0.0136961
810.718	0.0137945
810.796	0.0137978
810.874	0.0137451
810.953	0.0138264
811.031	0.0137761
811.109	0.0138662
811.187	0.0138195
811.265	0.0139244
811.343	0.0138978
811.421	0.0138922
811.499	0.0137912
811.578	0.0138596
811.656	0.0138206
811.734	0.0139071
811.812	0.0138828
811.890	0.0138849
811.968	0.0136408
812.046	0.0139468
812.124	0.0138386
812.203	0.0138299
812.281	0.0138636
812.359	0.0139347
812.437	0.0136668
812.515	0.0138984
812.593	0.0139450
812.671	0.0138545
812.749	0.0139159
812.828	0.0139159
812.906	0.0138499
812.984	0.0139697
813.062	0.0139661
813.140	0.0139684
813.218	0.0139701
813.296	0.0139651
813.374	0.0140237
813.453	0.0139045
813.531	0.0139888
813.609	0.0138989
813.687	0.0137327
813.765	0.0139318
813.843	0.0139955
813.921	0.0138367
813.999	0.0138126
814.078	0.0137963
814.156	0.0138032
814.234	0.0139003
814.312	0.0135934
814.390	0.0136607
814.468	0.0137675
814.546	0.0134776
814.624	0.0136141
814.703	0.0136079
814.781	0.0136080
814.859	0.0137505
814.937	0.0138429
815.015	0.0137322
815.093	0.0137243
815.171	0.0137171
815.249	0.0137283
815.328	0.0138332
815.406	0.0136935
815.484	0.0138656
815.562	0.0139584
815.640	0.0138310
815.718	0.0137614
815.796	0.0138667
815.874	0.0137863
815.953	0.0139017
816.031	0.0138457
816.109	0.0137730
816.187	0.0138568
816.265	0.0138360
816.343	0.0138846
816.421	0.0138562
816.499	0.0137318
816.578	0.0138860
816.656	0.0139731
816.734	0.0139364
816.812	0.0139140
816.890	0.0138768
816.968	0.0139180
817.046	0.0139404
817.124	0.0138981
817.203	0.0139454
817.281	0.0138546
817.359	0.0138264
817.437	0.0139535
817.515	0.0139069
817.593	0.0137900
817.671	0.0140037
817.749	0.0138169
817.828	0.0139195
817.906	0.0140060
817.984	0.0140006
818.062	0.0138609
818.140	0.0137231
818.218	0.0140516
818.296	0.0140161
818.374	0.0139558
818.453	0.0141197
818.531	0.0139821
818.609	0.0138512
818.687	0.0140017
818.765	0.0140472
818.843	0.0140270
818.921	0.0138349
818.999	0.0140707
819.078	0.0139398
819.156	0.0138472
819.234	0.0138120
819.312	0.0138645
819.390	0.0137883
819.468	0.0137273
819.546	0.0138020
819.624	0.0137833
819.703	0.0137570
819.781	0.0137463
819.859	0.0137405
819.937	0.0137492
820.015	0.0138139
820.093	0.0136005
820.171	0.0137936
820.249	0.0137411
820.328	0.0135822
820.406	0.0139176
820.484	0.0136530
820.562	0.0136868
820.640	0.0138153
820.718	0.0138445
820.796	0.0137003
820.874	0.0138152
820.953	0.0138139
821.031	0.0137299
821.109	0.0137840
821.187	0.0137580
821.265	0.0137716
821.343	0.0139079
821.421	0.0137553
821.499	0.0137849
821.578	0.0140026
821.656	0.0139167
821.734	0.0138676
821.812	0.0137122
821.890	0.0140096
821.968	0.0139016
822.046	0.0139782
822.124	0.0139529
822.203	0.0139209
822.281	0.0138399
822.359	0.0138897
822.437	0.0138970
822.515	0.0138674
822.593	0.0138862
822.671	0.0139677
822.749	0.0137961
822.828	0.0138213
822.906	0.0138081
822.984	0.0138199
823.062	0.0137472
823.140	0.0138771
823.218	0.0139481
823.296	0.0139340
823.374	0.0139549
823.453	0.0139510
823.531	0.0138157
823.609	0.0138896
823.687	0.0139478
823.765	0.0139494
823.843	0.0140520
823.921	0.0139814
823.999	0.0138705
824.078	0.0138717
824.156	0.0139533
824.234	0.0139378
824.312	0.0139468
824.390	0.0139497
824.468	0.0138562
824.546	0.0139384
824.624	0.0139430
824.703	0.0139220
824.781	0.0139693
824.859	0.0138931
824.937	0.0137968
825.015	0.0138889
825.093	0.0139252
825.171	0.0138269
825.249	0.0137031
825.328	0.0137324
825.406	0.0138172
825.484	0.0136956
825.562	0.0137863
825.640	0.0139322
825.718	0.0136259
825.796	0.0137541
825.874	0.0136253
825.953	0.0138203
826.031	0.0138224
826.109	0.0137843
826.187	0.0138249
826.265	0.0138089
826.343	0.0137441
826.421	0.0138277
826.499	0.0138215
826.578	0.0139639
826.656	0.0138701
826.734	0.0138748
826.812	0.0138096
826.890	0.0139605
826.968	0.0138904
827.046	0.0139081
827.124	0.0139747
827.203	0.0138766
827.281	0.0139791
827.359	0.0140950
827.437	0.0138947
827.515	0.0138672
827.593	0.0139499
827.671	0.0138717
827.749	0.0138955
827.828	0.0141124
827.906	0.0138512
827.984	0.0138908
828.062	0.0139438
828.140	0.0139812
828.218	0.0139963
828.296	0.0138955
828.374	0.0139156
828.453	0.0140746
828.531	0.0139515
828.609	0.0139325
828.687	0.0139636
828.765	0.0140763
828.843	0.0141829
828.921	0.0140031
828.999	0.0137607
829.078	0.0139513
829.156	0.0140932
829.234	0.0140312
829.312	0.0140031
829.390	0.0139864
829.468	0.0139714
829.546	0.0139314
829.624	0.0138776
829.703	0.0139552
829.781	0.0139451
829.859	0.0139136
829.937	0.0138929
830.015	0.0139442
830.093	0.0138438
830.171	0.0139215
830.249	0.0139133
830.328	0.0139140
830.406	0.0139463
830.484	0.0139713
830.562	0.0140036
830.640	0.0139204
830.718	0.0139883
830.796	0.0139239
830.874	0.0138975
830.953	0.0137463
831.031	0.0138808
831.109	0.0139636
831.187	0.0138494
831.265	0.0138551
831.343	0.0138926
831.421	0.0137878
831.499	0.0136163
831.578	0.0139319
831.656	0.0139063
831.734	0.0139069
831.812	0.0137788
831.890	0.0138777
831.968	0.0139906
832.046	0.0138189
832.124	0.0138786
832.203	0.0138721
832.281	0.0138434
832.359	0.0139244
832.437	0.0139035
832.515	0.0139539
832.593	0.0139215
832.671	0.0138120
832.749	0.0138866
832.828	0.0139012
832.906	0.0140328
832.984	0.0140370
833.062	0.0138641
833.140	0.0137844
833.218	0.0138631
833.296	0.0138345
833.374	0.0139719
833.453	0.0140675
833.531	0.0138013
833.609	0.0138342
833.687	0.0141221
833.765	0.0138918
833.843	0.0139858
833.921	0.0140315
833.999	0.0140248
834.078	0.0140192
834.156	0.0138653
834.234	0.0139383
834.312	0.0139980
834.390	0.0139301
834.468	0.0139922
834.546	0.0137830
834.624	0.0137458
834.703	0.0138979
834.781	0.0138691
834.859	0.0140854
834.937	0.0139212
835.015	0.0138943
835.093	0.0139515
835.171	0.0139153
835.249	0.0139626
835.328	0.0139428
835.406	0.0140007
835.484	0.0137976
835.562	0.0139514
835.640	0.0141227
835.718	0.0139336
835.796	0.0138022
835.874	0.0138562
835.953	0.0139478
836.031	0.0138107
836.109	0.0138755
836.187	0.0139369
836.265	0.0137730
836.343	0.0139040
836.421	0.0138511
836.499	0.0138049
836.578	0.0137570
836.656	0.0138081
836.734	0.0137877
836.812	0.0137066
836.890	0.0135250
836.968	0.0136803
837.046	0.0137267
837.124	0.0137285
837.203	0.0139362
837.281	0.0137265
837.359	0.0137082
837.437	0.0137710
837.515	0.0139068
837.593	0.0139224
837.671	0.0138223
837.749	0.0137880
837.828	0.0139455
837.906	0.0138517
837.984	0.0139533
838.062	0.0139490
838.140	0.0140026
838.218	0.0139302
838.296	0.0138778
838.374	0.0140455
838.453	0.0140497
838.531	0.0139474
838.609	0.0139568
838.687	0.0139675
838.765	0.0139816
838.843	0.0139670
838.921	0.0139581
838.999	0.0139845
839.078	0.0138403
839.156	0.0139677
839.234	0.0139799
839.312	0.0138548
839.390	0.0141327
839.468	0.0139052
839.546	0.0138917
839.624	0.0138693
839.703	0.0139498
839.781	0.0138468
839.859	0.0138074
839.937	0.0140158
840.015	0.0138086
840.093	0.0138595
840.171	0.0139605
840.249	0.0138804
840.328	0.0138048
840.406	0.0139650
840.484	0.0139671
840.562	0.0139227
840.640	0.0138938
840.718	0.0138392
840.796	0.0140032
840.874	0.0138119
840.953	0.0138160
841.031	0.0139982
841.109	0.0140299
841.187	0.0138885
841.265	0.0139590
841.343	0.0139288
841.421	0.0137759
841.499	0.0139297
841.578	0.0139387
841.656	0.0138284
841.734	0.0137074
841.812	0.0136774
841.890	0.0137830
841.968	0.0137276
842.046	0.0137340
842.124	0.0137274
842.203	0.0139234
842.281	0.0137738
842.359	0.0139124
842.437	0.0140039
842.515	0.0138869
842.593	0.0137800
842.671	0.0137995
842.749	0.0138306
842.828	0.0137610
842.906	0.0137964
842.984	0.0138621
843.062	0.0138805
843.140	0.0138301
843.218	0.0139584
843.296	0.0139933
843.374	0.0138350
843.453	0.0141004
843.531	0.0140074
843.609	0.0139009
843.687	0.0139728
843.765	0.0140398
843.843	0.0138834
843.921	0.0139146
843.999	0.0139548
844.078	0.0139366
844.156	0.0139229
844.234	0.0139428
844.312	0.0139677
844.390	0.0138985
844.468	0.0140486
844.546	0.0139516
844.624	0.0138657
844.703	0.0138051
844.781	0.0137727
844.859	0.0140259
844.937	0.0139392
845.015	0.0139021
845.093	0.0137736
845.171	0.0138623
845.249	0.0137737
845.328	0.0137577
845.406	0.0138760
845.484	0.0138532
845.562	0.0139157
845.640	0.0138375
845.718	0.0138848
845.796	0.0138342
845.874	0.0138628
845.953	0.0138841
846.031	0.0138795
846.109	0.0139955
846.187	0.0140495
846.265	0.0138873
846.343	0.0138105
846.421	0.0137965
846.499	0.0137894
846.578	0.0138293
846.656	0.0138128
846.734	0.0139088
846.812	0.0137093
846.890	0.0137695
846.968	0.0137805
847.046	0.0138689
847.124	0.0136934
847.203	0.0138770
847.281	0.0138169
847.359	0.0138846
847.437	0.0139570
847.515	0.0138750
847.593	0.0139140
847.671	0.0138975
847.749	0.0137187
847.828	0.0139743
847.906	0.0138705
847.984	0.0138227
848.062	0.0138434
848.140	0.0138737
848.218	0.0139658
848.296	0.0137938
848.374	0.0139671
848.453	0.0139487
848.531	0.0138652
848.609	0.0139534
848.687	0.0139288
848.765	0.0139577
848.843	0.0138851
848.921	0.0139002
848.999	0.0138720
849.078	0.0140212
849.156	0.0139674
849.234	0.0140762
849.312	0.0139541
849.390	0.0139603
849.468	0.0139762
849.546	0.0138893
849.624	0.0139102
849.703	0.0139809
849.781	0.0137432
849.859	0.0139229
849.937	0.0139616
850.015	0.0138971
850.093	0.0140575
850.171	0.0139371
850.249	0.0138556
850.328	0.0138393
850.406	0.0140575
850.484	0.0138744
850.562	0.0138887
850.640	0.0138879
850.718	0.0138586
850.796	0.0138341
850.874	0.0139547
850.953	0.0138625
851.031	0.0138788
851.109	0.0138380
851.187	0.0137949
851.265	0.0137963
851.343	0.0139590
851.421	0.0141257
851.499	0.0139313
851.578	0.0138790
851.656	0.0139520
851.734	0.0139881
851.812	0.0139161
851.890	0.0139847
851.968	0.0140382
852.046	0.0140487
852.124	0.0139346
852.203	0.0139420
852.281	0.0138250
852.359	0.0140137
852.437	0.0140346
852.515	0.0140387
852.593	0.0140160
852.671	0.0138594
852.749	0.0139643
852.828	0.0139024
852.906	0.0139390
852.984	0.0139195
853.062	0.0140190
853.140	0.0139473
853.218	0.0140770
853.296	0.0140015
853.374	0.0139584
853.453	0.0139338
853.531	0.0139076
853.609	0.0138710
853.687	0.0140476
853.765	0.0137795
853.843	0.0139029
853.921	0.0138734
853.999	0.0139120
854.078	0.0138580
854.156	0.0138922
854.234	0.0139491
854.312	0.0139931
854.390	0.0139112
854.468	0.0139897
854.546	0.0138721
854.624	0.0138960
854.703	0.0139094
854.781	0.0139341
854.859	0.0139605
854.937	0.0140040
855.015	0.0139255
855.093	0.0139324
855.171	0.0140070
855.249	0.0138829
855.328	0.0139732
855.406	0.0139221
855.484	0.0139073
855.562	0.0138270
855.640	0.0139346
855.718	0.0138161
855.796	0.0137717
855.874	0.0137762
855.953	0.0137086
856.031	0.0137326
856.109	0.0137673
856.187	0.0137849
856.265	0.0138223
856.343	0.0136397
856.421	0.0138430
856.499	0.0138779
856.578	0.0137330
856.656	0.0137072
856.734	0.0137541
856.812	0.0138393
856.890	0.0138485
856.968	0.0137639
857.046	0.0137376
857.124	0.0137818
857.203	0.0138340
857.281	0.0138696
857.359	0.0137785
857.437	0.0138342
857.515	0.0138835
857.593	0.0138595
857.671	0.0138535
857.749	0.0138800
857.828	0.0139067
857.906	0.0139135
857.984	0.0138863
858.062	0.0138900
858.140	0.0138828
858.218	0.0139223
858.296	0.0137849
858.374	0.0138222
858.453	0.0139025
858.531	0.0138718
858.609	0.0139385
858.687	0.0138085
858.765	0.0138324
858.843	0.0137466
858.921	0.0137032
858.999	0.0138242
859.078	0.0139308
859.156	0.0138235
859.234	0.0138188
859.312	0.0137076
859.390	0.0137126
859.468	0.0137965
859.546	0.0138398
859.624	0.0138124
859.703	0.0138245
859.781	0.0138784
859.859	0.0139526
859.937	0.0138737
860.015	0.0138988
860.093	0.0139922
860.171	0.0140752
860.249	0.0140363
860.328	0.0138506
860.406	0.0138934
860.484	0.0139339
860.562	0.0138244
860.640	0.0140511
860.718	0.0137811
860.796	0.0138444
860.874	0.0136433
860.953	0.0138629
861.031	0.0137147
861.109	0.0137460
861.187	0.0137188
861.265	0.0137952
861.343	0.0137179
861.421	0.0137932
861.499	0.0137682
861.578	0.0137237
861.656	0.0137247
861.734	0.0136620
861.812	0.0137457
861.890	0.0137612
861.968	0.0139918
862.046	0.0139731
862.124	0.0138502
862.203	0.0140100
862.281	0.0139536
862.359	0.0138223
862.437	0.0138856
862.515	0.0139681
862.593	0.0138342
862.671	0.0138106
862.749	0.0138898
862.828	0.0138352
862.906	0.0137886
862.984	0.0138422
863.062	0.0139690
863.140	0.0140028
863.218	0.0139326
863.296	0.0138781
863.374	0.0139117
863.453	0.0139002
863.531	0.0138747
863.609	0.0139560
863.687	0.0139153
863.765	0.0139886
863.843	0.0138684
863.921	0.0139011
863.999	0.0139710
864.078	0.0138758
864.156	0.0140357
864.234	0.0138880
864.312	0.0137581
864.390	0.0138432
864.468	0.0139100
864.546	0.0139117
864.624	0.0137712
864.703	0.0138168
864.781	0.0138831
864.859	0.0137485
864.937	0.0138510
865.015	0.0137890
865.093	0.0138759
865.171	0.0138441
865.249	0.0138313
865.328	0.0139032
865.406	0.0137615
865.484	0.0137795
865.562	0.0138655
865.640	0.0138229
865.718	0.0138871
865.796	0.0139509
865.874	0.0137608
865.953	0.0138792
866.031	0.0139989
866.109	0.0138485
866.187	0.0137969
866.265	0.0139939
866.343	0.0138589
866.421	0.0139669
866.499	0.0138943
866.578	0.0139703
866.656	0.0139526
866.734	0.0137312
866.812	0.0137944
866.890	0.0137940
866.968	0.0137302
867.046	0.0137297
867.124	0.0136417
867.203	0.0137432
867.281	0.0137694
867.359	0.0138592
867.437	0.0137471
867.515	0.0138488
867.593	0.0138542
867.671	0.0139839
867.749	0.0139365
867.828	0.0137656
867.906	0.0138466
867.984	0.0138631
868.062	0.0138441
868.140	0.0138968
868.218	0.0139224
868.296	0.0139428
868.374	0.0138383
868.453	0.0139266
868.531	0.0139064
868.609	0.0138740
868.687	0.0138781
868.765	0.0138797
868.843	0.0138740
868.921	0.0139066
868.999	0.0138114
869.078	0.0138295
869.156	0.0137523
869.234	0.0137885
869.312	0.0137892
869.390	0.0137884
869.468	0.0138130
869.546	0.0137595
869.624	0.0138312
869.703	0.0139050
869.781	0.0137424
869.859	0.0137155
869.937	0.0137317
870.015	0.0137869
870.093	0.0138245
870.171	0.0137783
870.249	0.0137846
870.328	0.0137762
870.406	0.0138144
870.484	0.0139246
870.562	0.0138232
870.640	0.0138657
870.718	0.0139357
870.796	0.0138641
870.874	0.0138117
870.953	0.0139060
871.031	0.0139816
871.109	0.0138332
871.187	0.0140147
871.265	0.0140597
871.343	0.0140258
871.421	0.0139888
871.499	0.0138010
871.578	0.0138732
871.656	0.0140086
871.734	0.0139835
871.812	0.0140307
871.890	0.0138374
871.968	0.0139618
872.046	0.0138838
872.124	0.0140463
872.203	0.0140643
872.281	0.0139981
872.359	0.0140481
872.437	0.0140215
872.515	0.0140923
872.593	0.0140129
872.671	0.0139506
872.749	0.0139925
872.828	0.0138599
872.906	0.0139576
872.984	0.0139303
873.062	0.0139464
873.140	0.0139570
873.218	0.0138539
873.296	0.0138316
873.374	0.0138147
873.453	0.0139738
873.531	0.0137379
873.609	0.0138869
873.687	0.0137852
873.765	0.0138081
873.843	0.0137939
873.921	0.0137943
873.999	0.0138465
874.078	0.0138555
874.156	0.0138474
874.234	0.0138018
874.312	0.0137923
874.390	0.0137846
874.468	0.0137238
874.546	0.0137987
874.624	0.0137756
874.703	0.0138369
874.781	0.0139652
874.859	0.0137911
874.937	0.0138255
875.015	0.0138421
875.093	0.0138737
875.171	0.0138791
875.249	0.0138107
875.328	0.0139286
875.406	0.0139192
875.484	0.0139671
875.562	0.0137987
875.640	0.0138091
875.718	0.0137841
875.796	0.0140350
875.874	0.0138267
875.953	0.0137838
876.031	0.0139888
876.109	0.0140611
876.187	0.0138707
876.265	0.0138783
876.343	0.0139396
876.421	0.0137572
876.499	0.0139117
876.578	0.0139118
876.656	0.0139649
876.734	0.0138554
876.812	0.0138776
876.890	0.0139439
876.968	0.0139268
877.046	0.0139556
877.124	0.0139328
877.203	0.0139458
877.281	0.0139780
877.359	0.0141436
877.437	0.0139606
877.515	0.0136817
877.593	0.0139096
877.671	0.0139355
877.749	0.0138629
877.828	0.0138153
877.906	0.0138647
877.984	0.0136764
878.062	0.0138337
878.140	0.0136872
878.218	0.0137495
878.296	0.0136391
878.374	0.0137322
878.453	0.0138596
878.531	0.0136993
878.609	0.0137004
878.687	0.0136673
878.765	0.0136086
878.843	0.0137642
878.921	0.0137628
878.999	0.0136578
879.078	0.0137435
879.156	0.0139251
879.234	0.0137786
879.312	0.0138478
879.390	0.0137355
879.468	0.0138046
879.546	0.0137440
879.624	0.0137323
879.703	0.0138079
879.781	0.0138574
879.859	0.0137949
879.937	0.0136366
880.015	0.0137662
880.093	0.0137570
880.171	0.0137563
880.249	0.0137703
880.328	0.0138771
880.406	0.0139202
880.484	0.0139037
880.562	0.0137226
880.640	0.0136931
880.718	0.0138234
880.796	0.0139769
880.874	0.0138576
880.953	0.0139172
881.031	0.0139375
881.109	0.0138241
881.187	0.0137569
881.265	0.0138303
881.343	0.0138795
881.421	0.0140530
881.499	0.0139289
881.578	0.0139128
881.656	0.0137768
881.734	0.0137537
881.812	0.0138927
881.890	0.0139227
881.968	0.0138303
882.046	0.0138923
882.124	0.0137227
882.203	0.0138953
882.281	0.0138730
882.359	0.0138017
882.437	0.0139006
882.515	0.0137974
882.593	0.0138577
882.671	0.0138953
882.749	0.0139268
882.828	0.0139487
882.906	0.0138084
882.984	0.0138727
883.062	0.0139748
883.140	0.0139127
883.218	0.0137688
883.296	0.0137573
883.374	0.0138050
883.453	0.0137607
883.531	0.0137993
883.609	0.0138120
883.687	0.0137492
883.765	0.0137717
883.843	0.0137925
883.921	0.0136462
883.999	0.0135292
884.078	0.0137907
884.156	0.0136336
884.234	0.0136796
884.312	0.0136507
884.390	0.0136745
884.468	0.0137408
884.546	0.0137480
884.624	0.0136307
884.703	0.0136345
884.781	0.0137707
884.859	0.0137413
884.937	0.0137272
885.015	0.0138691
885.093	0.0139143
885.171	0.0137113
885.249	0.0137641
885.328	0.0137126
885.406	0.0137686
885.484	0.0139240
885.562	0.0138937
885.640	0.0136835
885.718	0.0138429
885.796	0.0138387
885.874	0.0137896
885.953	0.0138085
886.031	0.0138828
886.109	0.0139056
886.187	0.0137464
886.265	0.0140064
886.343	0.0139278
886.421	0.0138649
886.499	0.0139445
886.578	0.0139753
886.656	0.0138161
886.734	0.0140042
886.812	0.0140532
886.890	0.0139703
886.968	0.0140508
887.046	0.0138895
887.124	0.0138985
887.203	0.0138401
887.281	0.0137659
887.359	0.0138578
887.437	0.0137841
887.515	0.0138576
887.593	0.0138611
887.671	0.0138377
887.749	0.0138437
887.828	0.0138350
887.906	0.0138985
887.984	0.0139285
888.062	0.0140022
888.140	0.0139255
888.218	0.0139402
888.296	0.0139195
888.374	0.0139206
888.453	0.0139317
888.531	0.0139150
888.609	0.0139056
888.687	0.0139522
888.765	0.0139527
888.843	0.0139008
888.921	0.0138403
888.999	0.0138783
889.078	0.0138852
889.156	0.0137234
889.234	0.0138128
889.312	0.0137839
889.390	0.0137479
889.468	0.0136826
889.546	0.0137564
889.624	0.0137002
889.703	0.0135486
889.781	0.0135808
889.859	0.0137182
889.937	0.0135714
890.015	0.0136073
890.093	0.0138185
890.171	0.0137938
890.249	0.0136510
890.328	0.0138466
890.406	0.0139011
890.484	0.0138464
890.562	0.0138901
890.640	0.0139191
890.718	0.0140313
890.796	0.0138966
890.874	0.0139433
890.953	0.0138773
891.031	0.0139236
891.109	0.0139408
891.187	0.0138546
891.265	0.0139550
891.343	0.0139838
891.421	0.0140797
891.499	0.0138569
891.578	0.0139404
891.656	0.0140357
891.734	0.0139613
891.812	0.0139889
891.890	0.0141030
891.968	0.0139975
892.046	0.0139013
892.124	0.0140459
892.203	0.0140341
892.281	0.0140667
892.359	0.0139506
892.437	0.0139500
892.515	0.0139146
892.593	0.0139004
892.671	0.0138483
892.749	0.0139799
892.828	0.0138313
892.906	0.0138904
892.984	0.0138707
893.062	0.0139066
893.140	0.0139568
893.218	0.0139465
893.296	0.0139225
893.374	0.0137755
893.453	0.0139223
893.531	0.0139001
893.609	0.0139624
893.687	0.0139698
893.765	0.0138143
893.843	0.0139580
893.921	0.0139751
893.999	0.0137227
894.078	0.0138676
894.156	0.0137624
894.234	0.0138314
894.312	0.0138741
894.390	0.0138142
894.468	0.0136639
894.546	0.0137286
894.624	0.0139230
894.703	0.0136367
894.781	0.0137072
894.859	0.0137923
894.937	0.0137479
895.015	0.0136977
895.093	0.0136783
895.171	0.0137759
895.249	0.0138364
895.328	0.0138620
895.406	0.0139284
895.484	0.0140219
895.562	0.0140012
895.640	0.0139411
895.718	0.0138319
895.796	0.0140538
895.874	0.0140405
895.953	0.0140076
896.031	0.0139180
896.109	0.0140231
896.187	0.0139792
896.265	0.0139768
896.343	0.0138161
896.421	0.0138675
896.499	0.0139225
896.578	0.0138670
896.656	0.0137894
896.734	0.0139340
896.812	0.0139214
896.890	0.0137627
896.968	0.0138820
897.046	0.0139239
897.124	0.0140038
897.203	0.0138742
897.281	0.0140274
897.359	0.0138988
897.437	0.0139175
897.515	0.0140867
897.593	0.0139494
897.671	0.0139388
897.749	0.0139188
897.828	0.0138336
897.906	0.0139434
897.984	0.0139322
898.062	0.0138423
898.140	0.0140086
898.218	0.0138188
898.296	0.0138235
898.374	0.0138302
898.453	0.0138546
898.531	0.0137118
898.609	0.0139156
898.687	0.0138748
898.765	0.0139513
898.843	0.0139000
898.921	0.0139407
898.999	0.0140311
899.078	0.0138844
899.156	0.0138184
899.234	0.0138460
899.312	0.0140118
899.390	0.0137576
899.468	0.0136948
899.546	0.0138326
899.624	0.0138383
899.703	0.0138646
899.781	0.0137914
899.859	0.0138697
899.937	0.0138292
900.015	0.0136649
900.093	0.0138194
900.171	0.0137789
900.249	0.0138011
900.328	0.0138096
900.406	0.0138335
900.484	0.0138576
900.562	0.0137757
900.640	0.0137854
900.718	0.0138612
900.796	0.0137960
900.874	0.0138751
900.953	0.0138412
901.031	0.0138577
901.109	0.0137768
901.187	0.0138834
901.265	0.0138950
901.343	0.0139413
901.421	0.0138311
901.499	0.0138770
901.578	0.0139124
901.656	0.0140207
901.734	0.0139347
901.812	0.0139131
901.890	0.0138257
901.968	0.0138097
902.046	0.0137608
902.124	0.0139497
902.203	0.0138863
902.281	0.0139228
902.359	0.0138868
902.437	0.0138386
902.515	0.0138104
902.593	0.0138555
902.671	0.0138789
902.749	0.0138213
902.828	0.0138649
902.906	0.0138303
902.984	0.0138776
903.062	0.0138232
903.140	0.0138360
903.218	0.0139359
903.296	0.0138399
903.374	0.0138890
903.453	0.0138860
903.531	0.0139895
903.609	0.0138914
903.687	0.0137784
903.765	0.0138577
903.843	0.0139350
903.921	0.0138383
903.999	0.0137990
904.078	0.0139006
904.156	0.0139508
904.234	0.0139346
904.312	0.0137439
904.390	0.0139710
904.468	0.0139053
904.546	0.0136967
904.624	0.0137202
904.703	0.0137893
904.781	0.0137466
904.859	0.0139590
904.937	0.0139447
905.015	0.0137326
905.093	0.0139307
905.171	0.0138404
905.249	0.0138135
905.328	0.0137909
905.406	0.0137959
905.484	0.0139162
905.562	0.0138091
905.640	0.0139778
905.718	0.0138513
905.796	0.0137185
905.874	0.0137823
905.953	0.0138754
906.031	0.0138251
906.109	0.0137294
906.187	0.0138987
906.265	0.0138535
906.343	0.0137112
906.421	0.0138232
906.499	0.0136560
906.578	0.0136956
906.656	0.0137662
906.734	0.0138097
906.812	0.0137549
906.890	0.0138285
906.968	0.0137730
907.046	0.0137199
907.124	0.0137029
907.203	0.0137644
907.281	0.0138526
907.359	0.0138365
907.437	0.0137162
907.515	0.0137868
907.593	0.0138412
907.671	0.0137988
907.749	0.0138306
907.828	0.0139908
907.906	0.0137093
907.984	0.0138628
908.062	0.0138493
908.140	0.0140004
908.218	0.0139709
908.296	0.0139162
908.374	0.0140005
908.453	0.0139359
908.531	0.0138637
908.609	0.0138499
908.687	0.0139037
908.765	0.0138071
908.843	0.0139523
908.921	0.0140395
908.999	0.0139536
909.078	0.0139452
909.156	0.0139120
909.234	0.0138939
909.312	0.0138310
909.390	0.0137982
909.468	0.0138352
909.546	0.0140195
909.624	0.0138871
909.703	0.0138927
909.781	0.0137188
909.859	0.0137314
909.937	0.0137314
910.015	0.0137903
910.093	0.0137215
910.171	0.0136380
910.249	0.0138811
910.328	0.0138655
910.406	0.0138619
910.484	0.0138863
910.562	0.0138152
910.640	0.0138420
910.718	0.0138073
910.796	0.0137568
910.874	0.0137986
910.953	0.0137473
911.031	0.0139368
911.109	0.0138777
911.187	0.0138631
911.265	0.0139270
911.343	0.0139357
911.421	0.0140010
911.499	0.0138094
911.578	0.0137582
911.656	0.0139542
911.734	0.0138461
911.812	0.0138628
911.890	0.0138599
911.968	0.0138492
912.046	0.0139162
912.124	0.0139111
912.203	0.0139928
912.281	0.0138738
912.359	0.0138448
912.437	0.0139166
912.515	0.0139851
912.593	0.0139898
912.671	0.0139045
912.749	0.0138528
912.828	0.0139272
912.906	0.0139372
912.984	0.0140157
913.062	0.0137615
913.140	0.0137794
913.218	0.0138041
913.296	0.0140266
913.374	0.0139410
913.453	0.0140501
913.531	0.0140188
913.609	0.0140323
913.687	0.0140359
913.765	0.0140259
913.843	0.0139278
913.921	0.0139678
913.999	0.0138450
914.078	0.0139370
914.156	0.0139066
914.234	0.0139474
914.312	0.0138200
914.390	0.0138096
914.468	0.0139400
914.546	0.0138578
914.624	0.0137606
914.703	0.0138132
914.781	0.0138989
914.859	0.0138525
914.937	0.0138725
915.015	0.0139317
915.093	0.0137110
915.171	0.0138020
915.249	0.0138672
915.328	0.0138013
915.406	0.0137532
915.484	0.0137180
915.562	0.0137490
915.640	0.0136553
915.718	0.0137684
915.796	0.0137516
915.874	0.0138379
915.953	0.0138812
916.031	0.0138967
916.109	0.0137470
916.187	0.0139628
916.265	0.0138555
916.343	0.0138741
916.421	0.0140417
916.499	0.0137743
916.578	0.0138459
916.656	0.0139270
916.734	0.0138448
916.812	0.0139088
916.890	0.0138727
916.968	0.0138232
917.046	0.0137767
917.124	0.0138904
917.203	0.0138417
917.281	0.0136915
917.359	0.0137839
917.437	0.0137811
917.515	0.0138682
917.593	0.0137951
917.671	0.0138650
917.749	0.0138836
917.828	0.0139236
917.906	0.0137739
917.984	0.0138188
918.062	0.0138895
918.140	0.0137757
918.218	0.0138184
918.296	0.0138747
918.374	0.0138071
918.453	0.0138930
918.531	0.0137970
918.609	0.0138628
918.687	0.0139624
918.765	0.0139326
918.843	0.0138329
918.921	0.0138804
918.999	0.0139499
919.078	0.0140963
919.156	0.0139904
919.234	0.0138691
919.312	0.0140042
919.390	0.0140081
919.468	0.0139414
919.546	0.0139624
919.624	0.0139166
919.703	0.0139434
919.781	0.0138728
919.859	0.0138630
919.937	0.0138361
