05/06/2022	18:54:59	Ver.	4.1	UNKNOWN
Optical Delay	600.015094	Delta X		0.078125	Sweeps	1	Scan Rate	0/0
Coordinates	Axis 1	NaN	Axis 2	NaN	Axis 3	NaN	Axis 4	NaN	Axis 5	NaN	Axis 6	0.000000
TX Power	0.000000	RX Power	0.000000

600.015	0.0135822
600.093	0.0136168
600.171	0.0135641
600.249	0.0134063
600.328	0.0136200
600.406	0.0136189
600.484	0.0135097
600.562	0.0135954
600.640	0.0136757
600.718	0.0135864
600.796	0.0135904
600.874	0.0135608
600.953	0.0134689
601.031	0.0135239
601.109	0.0136481
601.187	0.0136669
601.265	0.0135976
601.343	0.0136608
601.421	0.0136432
601.499	0.0136771
601.578	0.0136216
601.656	0.0135910
601.734	0.0136430
601.812	0.0137191
601.890	0.0135469
601.968	0.0136334
602.046	0.0135726
602.124	0.0136673
602.203	0.0135442
602.281	0.0137032
602.359	0.0137696
602.437	0.0135648
602.515	0.0137037
602.593	0.0136600
602.671	0.0137042
602.749	0.0136856
602.828	0.0136078
602.906	0.0135526
602.984	0.0136932
603.062	0.0135696
603.140	0.0135292
603.218	0.0137058
603.296	0.0136147
603.374	0.0134696
603.453	0.0136440
603.531	0.0136441
603.609	0.0136639
603.687	0.0136528
603.765	0.0135802
603.843	0.0135493
603.921	0.0135783
603.999	0.0135994
604.078	0.0135664
604.156	0.0135503
604.234	0.0135844
604.312	0.0135204
604.390	0.0136289
604.468	0.0136616
604.546	0.0136576
604.624	0.0136140
604.703	0.0135974
604.781	0.0136508
604.859	0.0136455
604.937	0.0136320
605.015	0.0137007
605.093	0.0135025
605.171	0.0134689
605.249	0.0135821
605.328	0.0135631
605.406	0.0135559
605.484	0.0135217
605.562	0.0136246
605.640	0.0136227
605.718	0.0135640
605.796	0.0135358
605.874	0.0136358
605.953	0.0135846
606.031	0.0136255
606.109	0.0135339
606.187	0.0134567
606.265	0.0136559
606.343	0.0136370
606.421	0.0137720
606.499	0.0136628
606.578	0.0137275
606.656	0.0135863
606.734	0.0136504
606.812	0.0136261
606.890	0.0136458
606.968	0.0136096
607.046	0.0135775
607.124	0.0136082
607.203	0.0135656
607.281	0.0136514
607.359	0.0134972
607.437	0.0136391
607.515	0.0136359
607.593	0.0134502
607.671	0.0134826
607.749	0.0135615
607.828	0.0135019
607.906	0.0136737
607.984	0.0136057
608.062	0.0138499
608.140	0.0135719
608.218	0.0135400
608.296	0.0136080
608.374	0.0134766
608.453	0.0136515
608.531	0.0134270
608.609	0.0135076
608.687	0.0136115
608.765	0.0136732
608.843	0.0135709
608.921	0.0135812
608.999	0.0134985
609.078	0.0136143
609.156	0.0136089
609.234	0.0136204
609.312	0.0135185
609.390	0.0136211
609.468	0.0135847
609.546	0.0136994
609.624	0.0136976
609.703	0.0134686
609.781	0.0134388
609.859	0.0135067
609.937	0.0136055
610.015	0.0136749
610.093	0.0134934
610.171	0.0134866
610.249	0.0135439
610.328	0.0135813
610.406	0.0135480
610.484	0.0135442
610.562	0.0136797
610.640	0.0136181
610.718	0.0135998
610.796	0.0136373
610.874	0.0136031
610.953	0.0135052
611.031	0.0136237
611.109	0.0135903
611.187	0.0135843
611.265	0.0136693
611.343	0.0134106
611.421	0.0134993
611.499	0.0135423
611.578	0.0136108
611.656	0.0135498
611.734	0.0135020
611.812	0.0136827
611.890	0.0136378
611.968	0.0136841
612.046	0.0136000
612.124	0.0135999
612.203	0.0135711
612.281	0.0135838
612.359	0.0135506
612.437	0.0136058
612.515	0.0135110
612.593	0.0136604
612.671	0.0136650
612.749	0.0136709
612.828	0.0135815
612.906	0.0135004
612.984	0.0135590
613.062	0.0136275
613.140	0.0135104
613.218	0.0137040
613.296	0.0136768
613.374	0.0136049
613.453	0.0135887
613.531	0.0135647
613.609	0.0135555
613.687	0.0135860
613.765	0.0137817
613.843	0.0136418
613.921	0.0136922
613.999	0.0136717
614.078	0.0135104
614.156	0.0134415
614.234	0.0135850
614.312	0.0136237
614.390	0.0135149
614.468	0.0136153
614.546	0.0136055
614.624	0.0135659
614.703	0.0133943
614.781	0.0134547
614.859	0.0135895
614.937	0.0135486
615.015	0.0135064
615.093	0.0135191
615.171	0.0135831
615.249	0.0136246
615.328	0.0136912
615.406	0.0135768
615.484	0.0134920
615.562	0.0135861
615.640	0.0135856
615.718	0.0135455
615.796	0.0136537
615.874	0.0135953
615.953	0.0135058
616.031	0.0136549
616.109	0.0135897
616.187	0.0135687
616.265	0.0134283
616.343	0.0136264
616.421	0.0136701
616.499	0.0136188
616.578	0.0136253
616.656	0.0136653
616.734	0.0136887
616.812	0.0136719
616.890	0.0135651
616.968	0.0135076
617.046	0.0135652
617.124	0.0137106
617.203	0.0136086
617.281	0.0136749
617.359	0.0133545
617.437	0.0135577
617.515	0.0135603
617.593	0.0135304
617.671	0.0135835
617.749	0.0135998
617.828	0.0135599
617.906	0.0136530
617.984	0.0135944
618.062	0.0136147
618.140	0.0136520
618.218	0.0135677
618.296	0.0136587
618.374	0.0135831
618.453	0.0136329
618.531	0.0134854
618.609	0.0136472
618.687	0.0137391
618.765	0.0136311
618.843	0.0136396
618.921	0.0136057
618.999	0.0135571
619.078	0.0135322
619.156	0.0135817
619.234	0.0136145
619.312	0.0135962
619.390	0.0134687
619.468	0.0136762
619.546	0.0136333
619.624	0.0136732
619.703	0.0137808
619.781	0.0135654
619.859	0.0135069
619.937	0.0136339
620.015	0.0136658
620.093	0.0137305
620.171	0.0134683
620.249	0.0134451
620.328	0.0137233
620.406	0.0135730
620.484	0.0134760
620.562	0.0135593
620.640	0.0138090
620.718	0.0136100
620.796	0.0134876
620.874	0.0136685
620.953	0.0136130
621.031	0.0134684
621.109	0.0135041
621.187	0.0136534
621.265	0.0135143
621.343	0.0134641
621.421	0.0135804
621.499	0.0136304
621.578	0.0135266
621.656	0.0136481
621.734	0.0136269
621.812	0.0136414
621.890	0.0136175
621.968	0.0136710
622.046	0.0135500
622.124	0.0134233
622.203	0.0135563
622.281	0.0136447
622.359	0.0136149
622.437	0.0136202
622.515	0.0135001
622.593	0.0136037
622.671	0.0135770
622.749	0.0134927
622.828	0.0135739
622.906	0.0136167
622.984	0.0135537
623.062	0.0136303
623.140	0.0134783
623.218	0.0135501
623.296	0.0135697
623.374	0.0136729
623.453	0.0135379
623.531	0.0135520
623.609	0.0136610
623.687	0.0136539
623.765	0.0135355
623.843	0.0137375
623.921	0.0136483
623.999	0.0134916
624.078	0.0136220
624.156	0.0136586
624.234	0.0135592
624.312	0.0135501
624.390	0.0136805
624.468	0.0135725
624.546	0.0136266
624.624	0.0136782
624.703	0.0135753
624.781	0.0136018
624.859	0.0137005
624.937	0.0136036
625.015	0.0135417
625.093	0.0136526
625.171	0.0135222
625.249	0.0135554
625.328	0.0133906
625.406	0.0135700
625.484	0.0136226
625.562	0.0135673
625.640	0.0136743
625.718	0.0134638
625.796	0.0136418
625.874	0.0136198
625.953	0.0135516
626.031	0.0134798
626.109	0.0135292
626.187	0.0136584
626.265	0.0136777
626.343	0.0135056
626.421	0.0134704
626.499	0.0134010
626.578	0.0136440
626.656	0.0135785
626.734	0.0137086
626.812	0.0135657
626.890	0.0136057
626.968	0.0136314
627.046	0.0135799
627.124	0.0135892
627.203	0.0135577
627.281	0.0135873
627.359	0.0136681
627.437	0.0136236
627.515	0.0135628
627.593	0.0135372
627.671	0.0134813
627.749	0.0135742
627.828	0.0136339
627.906	0.0135651
627.984	0.0135870
628.062	0.0135792
628.140	0.0135683
628.218	0.0136118
628.296	0.0136310
628.374	0.0134003
628.453	0.0136545
628.531	0.0136480
628.609	0.0135048
628.687	0.0136402
628.765	0.0136370
628.843	0.0134778
628.921	0.0135633
628.999	0.0136639
629.078	0.0136387
629.156	0.0136122
629.234	0.0136780
629.312	0.0136299
629.390	0.0136610
629.468	0.0135835
629.546	0.0136214
629.624	0.0136073
629.703	0.0136230
629.781	0.0136755
629.859	0.0135566
629.937	0.0136233
630.015	0.0137251
630.093	0.0135439
630.171	0.0134256
630.249	0.0135336
630.328	0.0136790
630.406	0.0135783
630.484	0.0136797
630.562	0.0136266
630.640	0.0135532
630.718	0.0135944
630.796	0.0136716
630.874	0.0136971
630.953	0.0135641
631.031	0.0135851
631.109	0.0135797
631.187	0.0135596
631.265	0.0136568
631.343	0.0135344
631.421	0.0135806
631.499	0.0134617
631.578	0.0136885
631.656	0.0137532
631.734	0.0135997
631.812	0.0135906
631.890	0.0137042
631.968	0.0136755
632.046	0.0136953
632.124	0.0136497
632.203	0.0136020
632.281	0.0135364
632.359	0.0135667
632.437	0.0136238
632.515	0.0136608
632.593	0.0134859
632.671	0.0135416
632.749	0.0138072
632.828	0.0135141
632.906	0.0135069
632.984	0.0136010
633.062	0.0135519
633.140	0.0135398
633.218	0.0136089
633.296	0.0136076
633.374	0.0136170
633.453	0.0136221
633.531	0.0136835
633.609	0.0136951
633.687	0.0135522
633.765	0.0136846
633.843	0.0136598
633.921	0.0136107
633.999	0.0136922
634.078	0.0136707
634.156	0.0135548
634.234	0.0136326
634.312	0.0137488
634.390	0.0134747
634.468	0.0136917
634.546	0.0136578
634.624	0.0137651
634.703	0.0136574
634.781	0.0136481
634.859	0.0136378
634.937	0.0135181
635.015	0.0135914
635.093	0.0138093
635.171	0.0135242
635.249	0.0135740
635.328	0.0136401
635.406	0.0136463
635.484	0.0136557
635.562	0.0135285
635.640	0.0135083
635.718	0.0136393
635.796	0.0135281
635.874	0.0136476
635.953	0.0137541
636.031	0.0136732
636.109	0.0135951
636.187	0.0135117
636.265	0.0136641
636.343	0.0137632
636.421	0.0135011
636.499	0.0136270
636.578	0.0135150
636.656	0.0136913
636.734	0.0136311
636.812	0.0136006
636.890	0.0135936
636.968	0.0135126
637.046	0.0136231
637.124	0.0135297
637.203	0.0135427
637.281	0.0135161
637.359	0.0136981
637.437	0.0135190
637.515	0.0136143
637.593	0.0136334
637.671	0.0135959
637.749	0.0136752
637.828	0.0135094
637.906	0.0135227
637.984	0.0136732
638.062	0.0134800
638.140	0.0135751
638.218	0.0135854
638.296	0.0135867
638.374	0.0136570
638.453	0.0137009
638.531	0.0136292
638.609	0.0135272
638.687	0.0135503
638.765	0.0136738
638.843	0.0136094
638.921	0.0136823
638.999	0.0136919
639.078	0.0137035
639.156	0.0136678
639.234	0.0135397
639.312	0.0135165
639.390	0.0136384
639.468	0.0137375
639.546	0.0136330
639.624	0.0136864
639.703	0.0137373
639.781	0.0135723
639.859	0.0136361
639.937	0.0134776
640.015	0.0135773
640.093	0.0136598
640.171	0.0136234
640.249	0.0134685
640.328	0.0136396
640.406	0.0136341
640.484	0.0134990
640.562	0.0135840
640.640	0.0136902
640.718	0.0135857
640.796	0.0135568
640.874	0.0136163
640.953	0.0135381
641.031	0.0135180
641.109	0.0136330
641.187	0.0136331
641.265	0.0136847
641.343	0.0135289
641.421	0.0134815
641.499	0.0135296
641.578	0.0133881
641.656	0.0135772
641.734	0.0136147
641.812	0.0135831
641.890	0.0135706
641.968	0.0136475
642.046	0.0134292
642.124	0.0136931
642.203	0.0136357
642.281	0.0134484
642.359	0.0137269
642.437	0.0135089
642.515	0.0134290
642.593	0.0137480
642.671	0.0136291
642.749	0.0136025
642.828	0.0136020
642.906	0.0136490
642.984	0.0137574
643.062	0.0137026
643.140	0.0136559
643.218	0.0135915
643.296	0.0136639
643.374	0.0135501
643.453	0.0136148
643.531	0.0134969
643.609	0.0136394
643.687	0.0136035
643.765	0.0136529
643.843	0.0136688
643.921	0.0136121
643.999	0.0136473
644.078	0.0136257
644.156	0.0135663
644.234	0.0136871
644.312	0.0136868
644.390	0.0136559
644.468	0.0135774
644.546	0.0137019
644.624	0.0135490
644.703	0.0134998
644.781	0.0134998
644.859	0.0135477
644.937	0.0136720
645.015	0.0136387
645.093	0.0136309
645.171	0.0135960
645.249	0.0136935
645.328	0.0136311
645.406	0.0135287
645.484	0.0135182
645.562	0.0135661
645.640	0.0136113
645.718	0.0137595
645.796	0.0135680
645.874	0.0136997
645.953	0.0137064
646.031	0.0136381
646.109	0.0136702
646.187	0.0137132
646.265	0.0137506
646.343	0.0136242
646.421	0.0136381
646.499	0.0136314
646.578	0.0136252
646.656	0.0136188
646.734	0.0136123
646.812	0.0136054
646.890	0.0135426
646.968	0.0136517
647.046	0.0137029
647.124	0.0137743
647.203	0.0136297
647.281	0.0135455
647.359	0.0137432
647.437	0.0137497
647.515	0.0136288
647.593	0.0134251
647.671	0.0135806
647.749	0.0136157
647.828	0.0135474
647.906	0.0136684
647.984	0.0135491
648.062	0.0136482
648.140	0.0134721
648.218	0.0134655
648.296	0.0136946
648.374	0.0136588
648.453	0.0137156
648.531	0.0136981
648.609	0.0135796
648.687	0.0135858
648.765	0.0135741
648.843	0.0136739
648.921	0.0136153
648.999	0.0136295
649.078	0.0136697
649.156	0.0136722
649.234	0.0135431
649.312	0.0135532
649.390	0.0135999
649.468	0.0136324
649.546	0.0136054
649.624	0.0135443
649.703	0.0136370
649.781	0.0137232
649.859	0.0135732
649.937	0.0136783
650.015	0.0136313
650.093	0.0135690
650.171	0.0135335
650.249	0.0135022
650.328	0.0135355
650.406	0.0136005
650.484	0.0138049
650.562	0.0135684
650.640	0.0136460
650.718	0.0137394
650.796	0.0135787
650.874	0.0137865
650.953	0.0137911
651.031	0.0134911
651.109	0.0136300
651.187	0.0137354
651.265	0.0135962
651.343	0.0136380
651.421	0.0135623
651.499	0.0135432
651.578	0.0133739
651.656	0.0135286
651.734	0.0136275
651.812	0.0137572
651.890	0.0135884
651.968	0.0136488
652.046	0.0136062
652.124	0.0135667
652.203	0.0135114
652.281	0.0135812
652.359	0.0136187
652.437	0.0137073
652.515	0.0135861
652.593	0.0136217
652.671	0.0135493
652.749	0.0136984
652.828	0.0137054
652.906	0.0136572
652.984	0.0135701
653.062	0.0136248
653.140	0.0135899
653.218	0.0134560
653.296	0.0135656
653.374	0.0135966
653.453	0.0135795
653.531	0.0136108
653.609	0.0136643
653.687	0.0137160
653.765	0.0136766
653.843	0.0136646
653.921	0.0136153
653.999	0.0135880
654.078	0.0136468
654.156	0.0136277
654.234	0.0135619
654.312	0.0135380
654.390	0.0135397
654.468	0.0136045
654.546	0.0136121
654.624	0.0136031
654.703	0.0136504
654.781	0.0136064
654.859	0.0135552
654.937	0.0135494
655.015	0.0136917
655.093	0.0136381
655.171	0.0137701
655.249	0.0136872
655.328	0.0136237
655.406	0.0136653
655.484	0.0136124
655.562	0.0136643
655.640	0.0135495
655.718	0.0134397
655.796	0.0136210
655.874	0.0135983
655.953	0.0134163
656.031	0.0135185
656.109	0.0134447
656.187	0.0135387
656.265	0.0135928
656.343	0.0134850
656.421	0.0135902
656.499	0.0136349
656.578	0.0135670
656.656	0.0137375
656.734	0.0137816
656.812	0.0138111
656.890	0.0137733
656.968	0.0137671
657.046	0.0136983
657.124	0.0136764
657.203	0.0138189
657.281	0.0137584
657.359	0.0137122
657.437	0.0136787
657.515	0.0135848
657.593	0.0135444
657.671	0.0135970
657.749	0.0135775
657.828	0.0135630
657.906	0.0134264
657.984	0.0135793
658.062	0.0136726
658.140	0.0136722
658.218	0.0138284
658.296	0.0137545
658.374	0.0139142
658.453	0.0138052
658.531	0.0139001
658.609	0.0138180
658.687	0.0137263
658.765	0.0138853
658.843	0.0137271
658.921	0.0137801
658.999	0.0137930
659.078	0.0137348
659.156	0.0137206
659.234	0.0138293
659.312	0.0136721
659.390	0.0135378
659.468	0.0136217
659.546	0.0136361
659.624	0.0134528
659.703	0.0135850
659.781	0.0134760
659.859	0.0136058
659.937	0.0137294
660.015	0.0136322
660.093	0.0136869
660.171	0.0136730
660.249	0.0136913
660.328	0.0137048
660.406	0.0136743
660.484	0.0138168
660.562	0.0136720
660.640	0.0136714
660.718	0.0135668
660.796	0.0136464
660.874	0.0136552
660.953	0.0136813
661.031	0.0136529
661.109	0.0135775
661.187	0.0136055
661.265	0.0135278
661.343	0.0135596
661.421	0.0137007
661.499	0.0137218
661.578	0.0136479
661.656	0.0135192
661.734	0.0136232
661.812	0.0134555
661.890	0.0135112
661.968	0.0135815
662.046	0.0134690
662.124	0.0135390
662.203	0.0136303
662.281	0.0138670
662.359	0.0135821
662.437	0.0136471
662.515	0.0136450
662.593	0.0137215
662.671	0.0136308
662.749	0.0137416
662.828	0.0134996
662.906	0.0135825
662.984	0.0136123
663.062	0.0137106
663.140	0.0136572
663.218	0.0135172
663.296	0.0136349
663.374	0.0134581
663.453	0.0136460
663.531	0.0137097
663.609	0.0135477
663.687	0.0135696
663.765	0.0135740
663.843	0.0134795
663.921	0.0135103
663.999	0.0136366
664.078	0.0135472
664.156	0.0136842
664.234	0.0136319
664.312	0.0135712
664.390	0.0137013
664.468	0.0135640
664.546	0.0136041
664.624	0.0137006
664.703	0.0137166
664.781	0.0137128
664.859	0.0137672
664.937	0.0137105
665.015	0.0137901
665.093	0.0136855
665.171	0.0137923
665.249	0.0136470
665.328	0.0136168
665.406	0.0135124
665.484	0.0134499
665.562	0.0134814
665.640	0.0134911
665.718	0.0133630
665.796	0.0134238
665.874	0.0134019
665.953	0.0135475
666.031	0.0135099
666.109	0.0136050
666.187	0.0135695
666.265	0.0134747
666.343	0.0136626
666.421	0.0137659
666.499	0.0136211
666.578	0.0136459
666.656	0.0135591
666.734	0.0135915
666.812	0.0136143
666.890	0.0137479
666.968	0.0137238
667.046	0.0136144
667.124	0.0135671
667.203	0.0136920
667.281	0.0135615
667.359	0.0135154
667.437	0.0136346
667.515	0.0135863
667.593	0.0137387
667.671	0.0136335
667.749	0.0137038
667.828	0.0135559
667.906	0.0134460
667.984	0.0134075
668.062	0.0135314
668.140	0.0133518
668.218	0.0132244
668.296	0.0133794
668.374	0.0133927
668.453	0.0135002
668.531	0.0135097
668.609	0.0135992
668.687	0.0138074
668.765	0.0138931
668.843	0.0139683
668.921	0.0137435
668.999	0.0138243
669.078	0.0138683
669.156	0.0137290
669.234	0.0136800
669.312	0.0137928
669.390	0.0137103
669.468	0.0135847
669.546	0.0136195
669.624	0.0135937
669.703	0.0136108
669.781	0.0136026
669.859	0.0137552
669.937	0.0136713
670.015	0.0137023
670.093	0.0137810
670.171	0.0136973
670.249	0.0137098
670.328	0.0136143
670.406	0.0135874
670.484	0.0135918
670.562	0.0135105
670.640	0.0133794
670.718	0.0134432
670.796	0.0136008
670.874	0.0137808
670.953	0.0136554
671.031	0.0136785
671.109	0.0137834
671.187	0.0138004
671.265	0.0137105
671.343	0.0136110
671.421	0.0134251
671.499	0.0132864
671.578	0.0134279
671.656	0.0133136
671.734	0.0133300
671.812	0.0133120
671.890	0.0133258
671.968	0.0132539
672.046	0.0134403
672.124	0.0134866
672.203	0.0135577
672.281	0.0136996
672.359	0.0136813
672.437	0.0138330
672.515	0.0137091
672.593	0.0137371
672.671	0.0137128
672.749	0.0138490
672.828	0.0138225
672.906	0.0137177
672.984	0.0137495
673.062	0.0137447
673.140	0.0138183
673.218	0.0137560
673.296	0.0136825
673.374	0.0138139
673.453	0.0136497
673.531	0.0137227
673.609	0.0136334
673.687	0.0137036
673.765	0.0137334
673.843	0.0135188
673.921	0.0136535
673.999	0.0135072
674.078	0.0134877
674.156	0.0135083
674.234	0.0134346
674.312	0.0134442
674.390	0.0134343
674.468	0.0134944
674.546	0.0136829
674.624	0.0137027
674.703	0.0136075
674.781	0.0137606
674.859	0.0136725
674.937	0.0137741
675.015	0.0138184
675.093	0.0137822
675.171	0.0135399
675.249	0.0135385
675.328	0.0135475
675.406	0.0135177
675.484	0.0133226
675.562	0.0132082
675.640	0.0132889
675.718	0.0131548
675.796	0.0131801
675.874	0.0130543
675.953	0.0131628
676.031	0.0131717
676.109	0.0130677
676.187	0.0130592
676.265	0.0132583
676.343	0.0133284
676.421	0.0135021
676.499	0.0134515
676.578	0.0135088
676.656	0.0135120
676.734	0.0136154
676.812	0.0137798
676.890	0.0137965
676.968	0.0137841
677.046	0.0139040
677.124	0.0140181
677.203	0.0140858
677.281	0.0140646
677.359	0.0139993
677.437	0.0141137
677.515	0.0140905
677.593	0.0140836
677.671	0.0138670
677.749	0.0137290
677.828	0.0136694
677.906	0.0138177
677.984	0.0137631
678.062	0.0136070
678.140	0.0134928
678.218	0.0135966
678.296	0.0137579
678.374	0.0135940
678.453	0.0136803
678.531	0.0136178
678.609	0.0136610
678.687	0.0135069
678.765	0.0135266
678.843	0.0134939
678.921	0.0134829
678.999	0.0133253
679.078	0.0133695
679.156	0.0133662
679.234	0.0132792
679.312	0.0131882
679.390	0.0133549
679.468	0.0133430
679.546	0.0132607
679.624	0.0135709
679.703	0.0134743
679.781	0.0135383
679.859	0.0136318
679.937	0.0135159
680.015	0.0135361
680.093	0.0136963
680.171	0.0136714
680.249	0.0135648
680.328	0.0138140
680.406	0.0136565
680.484	0.0136401
680.562	0.0135606
680.640	0.0136893
680.718	0.0137326
680.796	0.0137599
680.874	0.0135188
680.953	0.0137051
681.031	0.0137713
681.109	0.0136068
681.187	0.0136306
681.265	0.0135833
681.343	0.0135860
681.421	0.0136015
681.499	0.0135361
681.578	0.0135322
681.656	0.0136714
681.734	0.0135334
681.812	0.0136273
681.890	0.0137960
681.968	0.0138889
682.046	0.0139127
682.124	0.0139561
682.203	0.0141241
682.281	0.0141159
682.359	0.0140367
682.437	0.0142688
682.515	0.0139572
682.593	0.0138600
682.671	0.0138390
682.749	0.0137939
682.828	0.0136423
682.906	0.0135558
682.984	0.0135206
683.062	0.0134720
683.140	0.0134415
683.218	0.0133714
683.296	0.0134161
683.374	0.0134504
683.453	0.0135530
683.531	0.0133997
683.609	0.0135019
683.687	0.0137093
683.765	0.0136420
683.843	0.0138667
683.921	0.0137915
683.999	0.0137276
684.078	0.0137054
684.156	0.0138228
684.234	0.0137597
684.312	0.0138181
684.390	0.0136398
684.468	0.0136268
684.546	0.0136443
684.624	0.0136389
684.703	0.0136143
684.781	0.0135960
684.859	0.0136464
684.937	0.0133571
685.015	0.0134986
685.093	0.0135265
685.171	0.0132814
685.249	0.0132446
685.328	0.0134029
685.406	0.0135574
685.484	0.0134992
685.562	0.0135110
685.640	0.0134541
685.718	0.0135261
685.796	0.0136092
685.874	0.0136853
685.953	0.0136059
686.031	0.0136592
686.109	0.0136466
686.187	0.0134697
686.265	0.0134893
686.343	0.0134368
686.421	0.0134051
686.499	0.0133383
686.578	0.0133114
686.656	0.0133440
686.734	0.0132014
686.812	0.0134376
686.890	0.0135193
686.968	0.0135187
687.046	0.0136414
687.124	0.0137373
687.203	0.0137744
687.281	0.0139653
687.359	0.0139167
687.437	0.0140479
687.515	0.0141568
687.593	0.0142275
687.671	0.0142105
687.749	0.0142317
687.828	0.0141228
687.906	0.0141327
687.984	0.0139745
688.062	0.0138720
688.140	0.0137801
688.218	0.0137613
688.296	0.0136473
688.374	0.0135352
688.453	0.0133239
688.531	0.0134602
688.609	0.0133692
688.687	0.0133549
688.765	0.0135043
688.843	0.0133102
688.921	0.0133846
688.999	0.0133389
689.078	0.0134441
689.156	0.0135940
689.234	0.0135428
689.312	0.0136444
689.390	0.0135916
689.468	0.0136800
689.546	0.0136419
689.624	0.0136061
689.703	0.0137392
689.781	0.0137183
689.859	0.0136757
689.937	0.0136395
690.015	0.0136170
690.093	0.0134675
690.171	0.0133888
690.249	0.0133878
690.328	0.0134012
690.406	0.0133637
690.484	0.0133575
690.562	0.0133305
690.640	0.0132344
690.718	0.0131642
690.796	0.0132130
690.874	0.0131234
690.953	0.0133377
691.031	0.0134656
691.109	0.0132327
691.187	0.0133329
691.265	0.0133020
691.343	0.0133105
691.421	0.0134522
691.499	0.0134697
691.578	0.0133769
691.656	0.0133856
691.734	0.0135485
691.812	0.0135271
691.890	0.0134747
691.968	0.0137059
692.046	0.0135915
692.124	0.0135552
692.203	0.0134821
692.281	0.0135861
692.359	0.0134273
692.437	0.0135784
692.515	0.0136962
692.593	0.0138018
692.671	0.0138091
692.749	0.0138471
692.828	0.0139236
692.906	0.0138831
692.984	0.0141002
693.062	0.0143578
693.140	0.0144521
693.218	0.0142361
693.296	0.0143343
693.374	0.0143242
693.453	0.0142810
693.531	0.0142349
693.609	0.0143179
693.687	0.0142130
693.765	0.0141285
693.843	0.0141183
693.921	0.0139127
693.999	0.0139956
694.078	0.0139795
694.156	0.0138908
694.234	0.0135921
694.312	0.0136704
694.390	0.0135934
694.468	0.0134384
694.546	0.0134229
694.624	0.0132523
694.703	0.0132821
694.781	0.0131892
694.859	0.0132253
694.937	0.0131085
695.015	0.0130212
695.093	0.0131014
695.171	0.0131240
695.249	0.0131754
695.328	0.0130470
695.406	0.0131173
695.484	0.0131772
695.562	0.0132304
695.640	0.0131729
695.718	0.0131890
695.796	0.0132528
695.874	0.0132699
695.953	0.0132320
696.031	0.0131982
696.109	0.0133437
696.187	0.0133584
696.265	0.0132413
696.343	0.0132841
696.421	0.0134935
696.499	0.0134718
696.578	0.0136152
696.656	0.0135973
696.734	0.0135164
696.812	0.0136286
696.890	0.0135642
696.968	0.0136674
697.046	0.0137505
697.124	0.0137109
697.203	0.0137354
697.281	0.0138259
697.359	0.0137598
697.437	0.0137334
697.515	0.0138264
697.593	0.0137216
697.671	0.0136882
697.749	0.0136893
697.828	0.0136593
697.906	0.0135286
697.984	0.0136013
698.062	0.0136611
698.140	0.0137863
698.218	0.0136247
698.296	0.0138491
698.374	0.0139229
698.453	0.0140012
698.531	0.0141877
698.609	0.0141374
698.687	0.0141391
698.765	0.0142204
698.843	0.0142467
698.921	0.0141896
698.999	0.0140956
699.078	0.0140214
699.156	0.0139486
699.234	0.0140041
699.312	0.0140539
699.390	0.0137726
699.468	0.0138552
699.546	0.0138473
699.624	0.0136419
699.703	0.0137504
699.781	0.0138031
699.859	0.0135856
699.937	0.0134212
700.015	0.0136104
700.093	0.0134823
700.171	0.0133780
700.249	0.0133716
700.328	0.0132465
700.406	0.0131717
700.484	0.0131301
700.562	0.0132140
700.640	0.0130212
700.718	0.0130595
700.796	0.0131583
700.874	0.0130114
700.953	0.0129961
701.031	0.0128698
701.109	0.0129169
701.187	0.0129361
701.265	0.0128786
701.343	0.0130551
701.421	0.0130606
701.499	0.0130722
701.578	0.0129659
701.656	0.0132004
701.734	0.0132089
701.812	0.0132935
701.890	0.0133698
701.968	0.0135756
702.046	0.0136353
702.124	0.0137957
702.203	0.0136539
702.281	0.0138311
702.359	0.0137292
702.437	0.0137998
702.515	0.0138985
702.593	0.0139511
702.671	0.0139498
702.749	0.0139954
702.828	0.0139258
702.906	0.0139569
702.984	0.0138938
703.062	0.0137852
703.140	0.0137102
703.218	0.0136905
703.296	0.0135492
703.374	0.0137177
703.453	0.0136563
703.531	0.0136308
703.609	0.0137366
703.687	0.0137527
703.765	0.0137100
703.843	0.0136594
703.921	0.0139799
703.999	0.0141155
704.078	0.0142147
704.156	0.0142227
704.234	0.0143478
704.312	0.0144264
704.390	0.0143847
704.468	0.0145307
704.546	0.0146028
704.624	0.0144421
704.703	0.0143634
704.781	0.0142262
704.859	0.0142634
704.937	0.0140728
705.015	0.0139422
705.093	0.0137830
705.171	0.0137305
705.249	0.0135111
705.328	0.0134084
705.406	0.0133186
705.484	0.0132495
705.562	0.0131190
705.640	0.0130897
705.718	0.0130610
705.796	0.0129726
705.874	0.0128728
705.953	0.0129160
706.031	0.0126865
706.109	0.0127126
706.187	0.0127748
706.265	0.0127385
706.343	0.0128957
706.421	0.0128183
706.499	0.0127720
706.578	0.0130342
706.656	0.0128989
706.734	0.0128812
706.812	0.0130252
706.890	0.0131031
706.968	0.0130867
707.046	0.0131175
707.124	0.0131589
707.203	0.0133492
707.281	0.0134373
707.359	0.0134174
707.437	0.0135036
707.515	0.0135773
707.593	0.0138167
707.671	0.0137330
707.749	0.0140464
707.828	0.0138829
707.906	0.0138815
707.984	0.0140511
708.062	0.0141513
708.140	0.0141444
708.218	0.0140328
708.296	0.0139188
708.374	0.0140184
708.453	0.0140710
708.531	0.0139111
708.609	0.0137340
708.687	0.0138783
708.765	0.0138264
708.843	0.0138559
708.921	0.0136517
708.999	0.0136751
709.078	0.0137499
709.156	0.0135124
709.234	0.0137584
709.312	0.0138512
709.390	0.0138161
709.468	0.0139111
709.546	0.0140459
709.624	0.0141001
709.703	0.0142285
709.781	0.0144801
709.859	0.0144262
709.937	0.0143848
710.015	0.0143215
710.093	0.0143280
710.171	0.0143200
710.249	0.0142587
710.328	0.0140234
710.406	0.0139912
710.484	0.0139719
710.562	0.0137312
710.640	0.0135771
710.718	0.0134746
710.796	0.0132640
710.874	0.0131488
710.953	0.0131280
711.031	0.0130763
711.109	0.0131457
711.187	0.0129231
711.265	0.0129600
711.343	0.0128891
711.421	0.0128506
711.499	0.0129467
711.578	0.0129626
711.656	0.0128233
711.734	0.0129645
711.812	0.0129623
711.890	0.0129867
711.968	0.0130648
712.046	0.0131487
712.124	0.0131604
712.203	0.0131170
712.281	0.0131276
712.359	0.0131419
712.437	0.0130955
712.515	0.0132092
712.593	0.0133099
712.671	0.0132165
712.749	0.0133581
712.828	0.0133988
712.906	0.0135514
712.984	0.0136263
713.062	0.0136341
713.140	0.0136646
713.218	0.0137753
713.296	0.0138708
713.374	0.0138631
713.453	0.0140150
713.531	0.0140337
713.609	0.0139758
713.687	0.0139627
713.765	0.0139320
713.843	0.0138123
713.921	0.0137348
713.999	0.0136288
714.078	0.0137337
714.156	0.0136848
714.234	0.0136167
714.312	0.0136877
714.390	0.0136385
714.468	0.0136705
714.546	0.0135888
714.624	0.0136082
714.703	0.0136082
714.781	0.0137325
714.859	0.0138286
714.937	0.0137779
715.015	0.0138227
715.093	0.0139186
715.171	0.0141243
715.249	0.0141204
715.328	0.0142738
715.406	0.0143099
715.484	0.0144061
715.562	0.0144976
715.640	0.0145192
715.718	0.0144338
715.796	0.0143101
715.874	0.0143413
715.953	0.0140873
716.031	0.0138957
716.109	0.0137085
716.187	0.0136481
716.265	0.0135188
716.343	0.0134264
716.421	0.0133139
716.499	0.0130976
716.578	0.0129943
716.656	0.0130164
716.734	0.0129041
716.812	0.0127324
716.890	0.0126225
716.968	0.0127792
717.046	0.0128176
717.124	0.0126801
717.203	0.0127796
717.281	0.0130013
717.359	0.0126997
717.437	0.0127627
717.515	0.0127967
717.593	0.0128892
717.671	0.0129328
717.749	0.0131536
717.828	0.0131370
717.906	0.0131389
717.984	0.0131831
718.062	0.0133119
718.140	0.0132719
718.218	0.0133210
718.296	0.0134580
718.374	0.0135197
718.453	0.0134525
718.531	0.0134519
718.609	0.0136318
718.687	0.0138012
718.765	0.0138229
718.843	0.0139199
718.921	0.0140063
718.999	0.0139525
719.078	0.0138538
719.156	0.0139935
719.234	0.0141366
719.312	0.0140336
719.390	0.0140586
719.468	0.0138977
719.546	0.0139844
719.624	0.0139054
719.703	0.0138461
719.781	0.0137946
719.859	0.0138789
719.937	0.0138378
720.015	0.0135134
720.093	0.0134612
720.171	0.0134950
720.249	0.0135803
720.328	0.0136272
720.406	0.0134779
720.484	0.0134470
720.562	0.0134747
720.640	0.0134992
720.718	0.0135883
720.796	0.0137181
720.874	0.0136965
720.953	0.0138303
721.031	0.0140066
721.109	0.0141729
721.187	0.0142493
721.265	0.0142541
721.343	0.0143190
721.421	0.0142314
721.499	0.0142035
721.578	0.0140446
721.656	0.0139562
721.734	0.0138576
721.812	0.0139732
721.890	0.0137688
721.968	0.0134425
722.046	0.0134569
722.124	0.0134148
722.203	0.0133791
722.281	0.0131527
722.359	0.0131014
722.437	0.0130029
722.515	0.0130347
722.593	0.0129823
722.671	0.0129927
722.749	0.0130116
722.828	0.0131245
722.906	0.0129144
722.984	0.0129631
723.062	0.0129765
723.140	0.0130508
723.218	0.0129707
723.296	0.0129607
723.374	0.0129975
723.453	0.0130577
723.531	0.0130466
723.609	0.0130448
723.687	0.0133070
723.765	0.0134785
723.843	0.0134554
723.921	0.0136198
723.999	0.0136507
724.078	0.0136160
724.156	0.0136800
724.234	0.0138183
724.312	0.0138699
724.390	0.0139363
724.468	0.0139980
724.546	0.0140280
724.624	0.0138977
724.703	0.0140009
724.781	0.0140775
724.859	0.0140360
724.937	0.0140788
725.015	0.0139241
725.093	0.0139797
725.171	0.0138382
725.249	0.0136720
725.328	0.0137886
725.406	0.0137408
725.484	0.0137579
725.562	0.0136143
725.640	0.0134160
725.718	0.0135747
725.796	0.0136668
725.874	0.0134386
725.953	0.0135206
726.031	0.0136810
726.109	0.0135845
726.187	0.0135625
726.265	0.0138152
726.343	0.0138194
726.421	0.0139502
726.499	0.0139550
726.578	0.0141141
726.656	0.0141043
726.734	0.0142567
726.812	0.0142545
726.890	0.0145145
726.968	0.0144164
727.046	0.0142320
727.124	0.0142755
727.203	0.0140524
727.281	0.0139660
727.359	0.0139935
727.437	0.0139921
727.515	0.0137086
727.593	0.0136082
727.671	0.0133667
727.749	0.0135413
727.828	0.0132951
727.906	0.0132221
727.984	0.0131898
728.062	0.0130996
728.140	0.0128120
728.218	0.0128535
728.296	0.0127064
728.374	0.0127172
728.453	0.0127565
728.531	0.0127808
728.609	0.0127386
728.687	0.0129262
728.765	0.0128873
728.843	0.0129658
728.921	0.0131323
728.999	0.0130166
729.078	0.0130627
729.156	0.0132601
729.234	0.0133220
729.312	0.0134296
729.390	0.0134377
729.468	0.0138121
729.546	0.0138637
729.624	0.0138558
729.703	0.0139290
729.781	0.0139964
729.859	0.0140790
729.937	0.0140070
730.015	0.0140850
730.093	0.0141695
730.171	0.0141104
730.249	0.0141742
730.328	0.0140636
730.406	0.0141048
730.484	0.0140141
730.562	0.0139289
730.640	0.0138740
730.718	0.0137947
730.796	0.0137832
730.874	0.0137905
730.953	0.0136272
731.031	0.0136759
731.109	0.0135511
731.187	0.0136637
731.265	0.0135689
731.343	0.0135581
731.421	0.0135564
731.499	0.0137134
731.578	0.0135685
731.656	0.0136526
731.734	0.0137116
731.812	0.0137556
731.890	0.0136459
731.968	0.0136982
732.046	0.0137240
732.124	0.0138628
732.203	0.0139318
732.281	0.0139159
732.359	0.0140021
732.437	0.0138930
732.515	0.0139214
732.593	0.0141232
732.671	0.0139943
732.749	0.0138949
732.828	0.0140036
732.906	0.0139385
732.984	0.0138211
733.062	0.0135561
733.140	0.0135953
733.218	0.0135120
733.296	0.0136395
733.374	0.0135172
733.453	0.0133865
733.531	0.0133366
733.609	0.0132623
733.687	0.0132516
733.765	0.0131225
733.843	0.0131090
733.921	0.0131692
733.999	0.0132392
734.078	0.0130231
734.156	0.0132862
734.234	0.0132860
734.312	0.0133374
734.390	0.0133633
734.468	0.0134922
734.546	0.0132643
734.624	0.0132457
734.703	0.0132953
734.781	0.0135675
734.859	0.0133817
734.937	0.0134858
735.015	0.0135834
735.093	0.0135716
735.171	0.0135275
735.249	0.0138334
735.328	0.0137639
735.406	0.0137502
735.484	0.0137826
735.562	0.0137971
735.640	0.0138663
735.718	0.0138206
735.796	0.0138245
735.874	0.0136622
735.953	0.0138580
736.031	0.0137286
736.109	0.0137281
736.187	0.0137398
736.265	0.0138065
736.343	0.0137003
736.421	0.0138049
736.499	0.0137341
736.578	0.0137481
736.656	0.0136871
736.734	0.0136624
736.812	0.0137186
736.890	0.0136911
736.968	0.0136117
737.046	0.0136507
737.124	0.0135722
737.203	0.0135681
737.281	0.0137436
737.359	0.0137386
737.437	0.0138121
737.515	0.0136944
737.593	0.0136790
737.671	0.0137917
737.749	0.0137109
737.828	0.0137109
737.906	0.0139152
737.984	0.0139024
738.062	0.0138431
738.140	0.0138659
738.218	0.0138046
738.296	0.0138172
738.374	0.0138584
738.453	0.0138416
738.531	0.0138140
738.609	0.0137279
738.687	0.0137440
738.765	0.0135265
738.843	0.0136886
738.921	0.0136356
738.999	0.0134478
739.078	0.0133906
739.156	0.0134053
739.234	0.0133729
739.312	0.0133128
739.390	0.0132785
739.468	0.0132829
739.546	0.0133336
739.624	0.0132462
739.703	0.0131518
739.781	0.0131686
739.859	0.0132874
739.937	0.0132893
740.015	0.0132010
740.093	0.0134248
740.171	0.0132959
740.249	0.0133031
740.328	0.0133510
740.406	0.0133455
740.484	0.0133619
740.562	0.0135792
740.640	0.0135255
740.718	0.0134140
740.796	0.0136455
740.874	0.0137381
740.953	0.0136946
741.031	0.0138292
741.109	0.0138467
741.187	0.0138100
741.265	0.0138046
741.343	0.0139063
741.421	0.0139536
741.499	0.0139683
741.578	0.0139281
741.656	0.0137889
741.734	0.0138713
741.812	0.0137926
741.890	0.0138454
741.968	0.0138149
742.046	0.0138244
742.124	0.0137284
742.203	0.0136451
742.281	0.0137525
742.359	0.0137602
742.437	0.0137620
742.515	0.0136829
742.593	0.0135889
742.671	0.0136078
742.749	0.0135838
742.828	0.0135678
742.906	0.0136314
742.984	0.0134822
743.062	0.0134502
743.140	0.0134695
743.218	0.0133757
743.296	0.0135685
743.374	0.0135297
743.453	0.0135136
743.531	0.0134010
743.609	0.0136543
743.687	0.0136912
743.765	0.0135706
743.843	0.0135616
743.921	0.0136377
743.999	0.0136681
744.078	0.0138441
744.156	0.0138187
744.234	0.0137592
744.312	0.0137137
744.390	0.0137114
744.468	0.0136477
744.546	0.0137553
744.624	0.0136911
744.703	0.0135894
744.781	0.0136094
744.859	0.0136621
744.937	0.0135878
745.015	0.0135985
745.093	0.0134811
745.171	0.0134779
745.249	0.0135791
745.328	0.0133835
745.406	0.0134460
745.484	0.0134992
745.562	0.0134710
745.640	0.0133595
745.718	0.0134695
745.796	0.0135943
745.874	0.0135041
745.953	0.0134813
746.031	0.0136225
746.109	0.0133701
746.187	0.0135307
746.265	0.0136303
746.343	0.0133929
746.421	0.0135945
746.499	0.0137838
746.578	0.0136143
746.656	0.0136983
746.734	0.0136856
746.812	0.0137099
746.890	0.0137343
746.968	0.0138504
747.046	0.0137856
747.124	0.0137692
747.203	0.0138148
747.281	0.0136839
747.359	0.0137825
747.437	0.0138873
747.515	0.0139204
747.593	0.0139127
747.671	0.0137639
747.749	0.0137936
747.828	0.0137694
747.906	0.0137340
747.984	0.0137059
748.062	0.0136234
748.140	0.0135267
748.218	0.0135320
748.296	0.0136664
748.374	0.0135871
748.453	0.0136745
748.531	0.0134382
748.609	0.0135521
748.687	0.0135292
748.765	0.0134521
748.843	0.0135368
748.921	0.0134782
748.999	0.0134595
749.078	0.0136105
749.156	0.0136106
749.234	0.0137376
749.312	0.0137713
749.390	0.0137651
749.468	0.0138289
749.546	0.0138174
749.624	0.0139058
749.703	0.0138169
749.781	0.0138673
749.859	0.0138988
749.937	0.0138242
750.015	0.0139598
750.093	0.0139175
750.171	0.0136649
750.249	0.0136420
750.328	0.0136977
750.406	0.0137157
750.484	0.0135887
750.562	0.0137138
750.640	0.0136617
750.718	0.0135132
750.796	0.0134340
750.874	0.0134608
750.953	0.0133871
751.031	0.0133854
751.109	0.0133580
751.187	0.0133497
751.265	0.0132999
751.343	0.0133302
751.421	0.0135280
751.499	0.0134495
751.578	0.0133668
751.656	0.0133828
751.734	0.0136269
751.812	0.0133875
751.890	0.0133561
751.968	0.0134644
752.046	0.0135274
752.124	0.0135555
752.203	0.0135899
752.281	0.0134685
752.359	0.0136399
752.437	0.0135916
752.515	0.0136292
752.593	0.0137922
752.671	0.0138493
752.749	0.0137280
752.828	0.0138373
752.906	0.0137582
752.984	0.0137772
753.062	0.0138571
753.140	0.0135793
753.218	0.0137341
753.296	0.0137642
753.374	0.0135614
753.453	0.0136371
753.531	0.0136544
753.609	0.0136340
753.687	0.0135827
753.765	0.0134183
753.843	0.0135217
753.921	0.0135086
753.999	0.0136067
754.078	0.0135542
754.156	0.0135168
754.234	0.0135001
754.312	0.0136491
754.390	0.0135600
754.468	0.0136623
754.546	0.0135988
754.624	0.0135740
754.703	0.0135777
754.781	0.0136639
754.859	0.0135593
754.937	0.0136512
755.015	0.0137721
755.093	0.0137649
755.171	0.0135865
755.249	0.0136148
755.328	0.0137667
755.406	0.0135990
755.484	0.0137835
755.562	0.0138873
755.640	0.0137201
755.718	0.0137403
755.796	0.0137508
755.874	0.0137041
755.953	0.0135852
756.031	0.0137488
756.109	0.0136755
756.187	0.0136785
756.265	0.0135444
756.343	0.0133172
756.421	0.0135481
756.499	0.0135457
756.578	0.0134533
756.656	0.0134568
756.734	0.0133961
756.812	0.0134878
756.890	0.0134818
756.968	0.0134385
757.046	0.0135502
757.124	0.0135275
757.203	0.0136541
757.281	0.0136194
757.359	0.0136967
757.437	0.0135368
757.515	0.0136511
757.593	0.0135497
757.671	0.0136613
757.749	0.0136693
757.828	0.0137712
757.906	0.0136530
757.984	0.0136118
758.062	0.0136678
758.140	0.0136157
758.218	0.0135839
758.296	0.0135402
758.374	0.0134878
758.453	0.0135962
758.531	0.0135541
758.609	0.0134980
758.687	0.0135337
758.765	0.0134838
758.843	0.0136952
758.921	0.0136941
758.999	0.0135780
759.078	0.0135869
759.156	0.0135251
759.234	0.0136024
759.312	0.0136125
759.390	0.0135346
759.468	0.0134543
759.546	0.0136302
759.624	0.0135020
759.703	0.0135567
759.781	0.0135564
759.859	0.0135629
759.937	0.0136362
760.015	0.0135059
760.093	0.0134457
760.171	0.0134945
760.249	0.0134624
760.328	0.0136819
760.406	0.0138332
760.484	0.0137446
760.562	0.0136333
760.640	0.0136524
760.718	0.0137337
760.796	0.0136377
760.874	0.0134701
760.953	0.0135693
761.031	0.0135317
761.109	0.0135848
761.187	0.0136098
761.265	0.0134896
761.343	0.0136410
761.421	0.0136350
761.499	0.0136989
761.578	0.0136868
761.656	0.0137602
761.734	0.0136192
761.812	0.0136395
761.890	0.0136691
761.968	0.0138139
762.046	0.0135682
762.124	0.0136312
762.203	0.0135584
762.281	0.0137045
762.359	0.0135690
762.437	0.0135508
762.515	0.0134763
762.593	0.0136111
762.671	0.0134776
762.749	0.0134710
762.828	0.0135248
762.906	0.0133862
762.984	0.0135366
763.062	0.0134423
763.140	0.0135166
763.218	0.0136374
763.296	0.0135508
763.374	0.0136255
763.453	0.0135226
763.531	0.0134657
763.609	0.0135388
763.687	0.0136075
763.765	0.0137014
763.843	0.0136264
763.921	0.0135666
763.999	0.0136280
764.078	0.0136279
764.156	0.0135900
764.234	0.0134677
764.312	0.0135544
764.390	0.0137225
764.468	0.0136165
764.546	0.0136742
764.624	0.0137704
764.703	0.0135950
764.781	0.0137109
764.859	0.0136504
764.937	0.0136261
765.015	0.0137556
765.093	0.0136886
765.171	0.0137108
765.249	0.0137022
765.328	0.0135862
765.406	0.0136488
765.484	0.0136734
765.562	0.0137155
765.640	0.0136282
765.718	0.0136214
765.796	0.0134650
765.874	0.0133955
765.953	0.0137019
766.031	0.0134785
766.109	0.0134000
766.187	0.0135483
766.265	0.0134583
766.343	0.0134756
766.421	0.0134188
766.499	0.0134959
766.578	0.0135771
766.656	0.0133183
766.734	0.0135259
766.812	0.0134991
766.890	0.0135055
766.968	0.0135513
767.046	0.0137019
767.124	0.0137543
767.203	0.0137040
767.281	0.0137432
767.359	0.0138142
767.437	0.0136805
767.515	0.0137073
767.593	0.0136873
767.671	0.0136945
767.749	0.0138293
767.828	0.0137190
767.906	0.0137836
767.984	0.0136386
768.062	0.0136040
768.140	0.0136225
768.218	0.0136172
768.296	0.0134027
768.374	0.0136340
768.453	0.0135616
768.531	0.0135096
768.609	0.0135740
768.687	0.0135767
768.765	0.0136142
768.843	0.0135275
768.921	0.0135245
768.999	0.0136879
769.078	0.0133944
769.156	0.0134592
769.234	0.0135062
769.312	0.0134486
769.390	0.0134324
769.468	0.0135574
769.546	0.0134640
769.624	0.0134566
769.703	0.0134240
769.781	0.0134820
769.859	0.0136172
769.937	0.0135981
770.015	0.0136176
770.093	0.0137560
770.171	0.0136604
770.249	0.0136128
770.328	0.0136941
770.406	0.0135030
770.484	0.0135477
770.562	0.0136785
770.640	0.0134362
770.718	0.0135773
770.796	0.0135469
770.874	0.0134092
770.953	0.0133617
771.031	0.0136535
771.109	0.0134451
771.187	0.0133615
771.265	0.0133910
771.343	0.0134773
771.421	0.0134210
771.499	0.0135011
771.578	0.0134460
771.656	0.0134691
771.734	0.0134817
771.812	0.0135373
771.890	0.0135106
771.968	0.0134937
772.046	0.0135815
772.124	0.0134971
772.203	0.0136456
772.281	0.0137181
772.359	0.0137291
772.437	0.0137089
772.515	0.0137757
772.593	0.0137736
772.671	0.0135830
772.749	0.0136234
772.828	0.0137574
772.906	0.0137309
772.984	0.0135758
773.062	0.0136504
773.140	0.0137188
773.218	0.0137110
773.296	0.0136926
773.374	0.0136603
773.453	0.0137193
773.531	0.0135017
773.609	0.0135625
773.687	0.0135100
773.765	0.0135951
773.843	0.0135601
773.921	0.0135426
773.999	0.0135461
774.078	0.0136705
774.156	0.0134817
774.234	0.0136201
774.312	0.0135703
774.390	0.0134902
774.468	0.0135171
774.546	0.0136235
774.624	0.0136060
774.703	0.0135277
774.781	0.0136165
774.859	0.0136615
774.937	0.0135550
775.015	0.0135358
775.093	0.0136478
775.171	0.0136506
775.249	0.0135703
775.328	0.0136938
775.406	0.0136330
775.484	0.0135890
775.562	0.0135587
775.640	0.0135355
775.718	0.0134818
775.796	0.0135535
775.874	0.0136389
775.953	0.0136452
776.031	0.0135596
776.109	0.0136006
776.187	0.0135921
776.265	0.0136996
776.343	0.0136969
776.421	0.0136255
776.499	0.0136667
776.578	0.0136282
776.656	0.0135754
776.734	0.0135775
776.812	0.0136355
776.890	0.0134660
776.968	0.0136393
777.046	0.0136321
777.124	0.0134516
777.203	0.0136079
777.281	0.0137093
777.359	0.0135770
777.437	0.0135960
777.515	0.0136672
777.593	0.0136554
777.671	0.0134481
777.749	0.0136290
777.828	0.0136155
777.906	0.0137045
777.984	0.0136349
778.062	0.0135108
778.140	0.0136721
778.218	0.0135306
778.296	0.0136256
778.374	0.0136732
778.453	0.0135522
778.531	0.0135336
778.609	0.0136768
778.687	0.0136131
778.765	0.0134515
778.843	0.0134122
778.921	0.0135802
778.999	0.0135827
779.078	0.0136293
779.156	0.0135941
779.234	0.0136757
779.312	0.0135963
779.390	0.0136927
779.468	0.0136124
779.546	0.0135388
779.624	0.0134070
779.703	0.0135957
779.781	0.0135404
779.859	0.0136618
779.937	0.0136524
780.015	0.0136621
780.093	0.0138408
780.171	0.0137827
780.249	0.0136726
780.328	0.0136428
780.406	0.0137932
780.484	0.0136871
780.562	0.0136858
780.640	0.0136746
780.718	0.0137802
780.796	0.0137469
780.874	0.0135130
780.953	0.0137129
781.031	0.0135710
781.109	0.0135120
781.187	0.0136165
781.265	0.0135978
781.343	0.0134522
781.421	0.0134380
781.499	0.0136060
781.578	0.0133162
781.656	0.0133802
781.734	0.0134856
781.812	0.0134187
781.890	0.0134194
781.968	0.0135246
782.046	0.0134355
782.124	0.0135427
782.203	0.0136288
782.281	0.0133881
782.359	0.0135401
782.437	0.0134815
782.515	0.0134877
782.593	0.0135699
782.671	0.0136141
782.749	0.0136012
782.828	0.0134518
782.906	0.0135743
782.984	0.0135661
783.062	0.0135321
783.140	0.0134212
783.218	0.0135268
783.296	0.0136522
783.374	0.0134824
783.453	0.0136422
783.531	0.0135202
783.609	0.0136351
783.687	0.0135633
783.765	0.0136692
783.843	0.0134829
783.921	0.0134839
783.999	0.0135735
784.078	0.0135236
784.156	0.0135685
784.234	0.0135503
784.312	0.0135889
784.390	0.0134841
784.468	0.0134904
784.546	0.0136967
784.624	0.0136617
784.703	0.0136527
784.781	0.0135555
784.859	0.0134877
784.937	0.0135811
785.015	0.0135143
785.093	0.0135360
785.171	0.0135485
785.249	0.0134589
785.328	0.0136057
785.406	0.0136665
785.484	0.0135526
785.562	0.0135825
785.640	0.0137178
785.718	0.0135858
785.796	0.0134472
785.874	0.0136164
785.953	0.0134497
786.031	0.0135349
786.109	0.0136062
786.187	0.0135754
786.265	0.0134949
786.343	0.0134589
786.421	0.0136113
786.499	0.0134767
786.578	0.0135798
786.656	0.0134604
786.734	0.0133337
786.812	0.0135110
786.890	0.0135587
786.968	0.0133312
787.046	0.0134879
787.124	0.0134689
787.203	0.0133861
787.281	0.0134450
787.359	0.0134064
787.437	0.0133222
787.515	0.0134252
787.593	0.0133814
787.671	0.0135369
787.749	0.0135038
787.828	0.0133765
787.906	0.0135656
787.984	0.0134863
788.062	0.0134819
788.140	0.0134862
788.218	0.0136623
788.296	0.0138090
788.374	0.0136273
788.453	0.0136538
788.531	0.0137247
788.609	0.0136861
788.687	0.0137609
788.765	0.0136576
788.843	0.0137298
788.921	0.0138821
788.999	0.0137716
789.078	0.0137650
789.156	0.0137482
789.234	0.0138841
789.312	0.0139133
789.390	0.0137199
789.468	0.0135971
789.546	0.0137886
789.624	0.0136574
789.703	0.0136485
789.781	0.0136839
789.859	0.0136694
789.937	0.0134295
790.015	0.0136217
790.093	0.0134733
790.171	0.0135593
790.249	0.0136415
790.328	0.0134914
790.406	0.0135767
790.484	0.0135587
790.562	0.0135100
790.640	0.0135138
790.718	0.0134923
790.796	0.0136039
790.874	0.0135503
790.953	0.0135600
791.031	0.0135831
791.109	0.0137980
791.187	0.0136098
791.265	0.0137280
791.343	0.0136729
791.421	0.0136115
791.499	0.0136194
791.578	0.0136991
791.656	0.0137383
791.734	0.0135419
791.812	0.0136147
791.890	0.0135537
791.968	0.0135512
792.046	0.0135027
792.124	0.0134490
792.203	0.0133597
792.281	0.0132951
792.359	0.0134808
792.437	0.0134767
792.515	0.0135217
792.593	0.0134009
792.671	0.0134139
792.749	0.0134735
792.828	0.0134894
792.906	0.0135456
792.984	0.0133351
793.062	0.0135098
793.140	0.0136477
793.218	0.0136554
793.296	0.0134942
793.374	0.0135622
793.453	0.0134604
793.531	0.0135401
793.609	0.0137230
793.687	0.0136857
793.765	0.0138161
793.843	0.0137273
793.921	0.0137960
793.999	0.0137511
794.078	0.0138213
794.156	0.0138255
794.234	0.0136592
794.312	0.0137317
794.390	0.0137629
794.468	0.0137756
794.546	0.0135957
794.624	0.0136378
794.703	0.0138548
794.781	0.0136945
794.859	0.0135173
794.937	0.0135730
795.015	0.0135700
795.093	0.0134223
795.171	0.0134935
795.249	0.0134482
795.328	0.0137782
795.406	0.0135023
795.484	0.0134945
795.562	0.0136610
795.640	0.0135325
795.718	0.0134191
795.796	0.0136819
795.874	0.0136184
795.953	0.0135242
796.031	0.0136497
796.109	0.0136124
796.187	0.0134118
796.265	0.0136049
796.343	0.0134836
796.421	0.0135567
796.499	0.0137507
796.578	0.0136353
796.656	0.0136230
796.734	0.0136466
796.812	0.0137292
796.890	0.0136882
796.968	0.0136079
797.046	0.0136387
797.124	0.0135892
797.203	0.0135959
797.281	0.0134564
797.359	0.0134992
797.437	0.0134332
797.515	0.0133726
797.593	0.0135317
797.671	0.0134500
797.749	0.0134280
797.828	0.0134565
797.906	0.0133383
797.984	0.0133450
798.062	0.0134383
798.140	0.0135418
798.218	0.0133350
798.296	0.0134501
798.374	0.0135471
798.453	0.0135583
798.531	0.0134687
798.609	0.0136250
798.687	0.0137855
798.765	0.0137900
798.843	0.0138805
798.921	0.0137209
798.999	0.0136108
799.078	0.0136862
799.156	0.0138293
799.234	0.0137790
799.312	0.0137904
799.390	0.0137154
799.468	0.0137821
799.546	0.0135442
799.624	0.0137004
799.703	0.0136934
799.781	0.0136107
799.859	0.0136122
799.937	0.0136344
800.015	0.0136152
800.093	0.0136407
800.171	0.0135652
800.249	0.0135472
800.328	0.0135690
800.406	0.0135568
800.484	0.0135631
800.562	0.0135479
800.640	0.0135451
800.718	0.0135330
800.796	0.0135648
800.874	0.0135271
800.953	0.0136137
801.031	0.0136304
801.109	0.0134350
801.187	0.0135598
801.265	0.0135830
801.343	0.0136025
801.421	0.0137177
801.499	0.0135983
801.578	0.0136478
801.656	0.0135920
801.734	0.0137208
801.812	0.0136053
801.890	0.0135628
801.968	0.0135261
802.046	0.0137483
802.124	0.0135412
802.203	0.0135064
802.281	0.0134915
802.359	0.0136848
802.437	0.0135318
802.515	0.0134809
802.593	0.0136088
802.671	0.0136319
802.749	0.0135077
802.828	0.0135600
802.906	0.0135679
802.984	0.0135617
803.062	0.0136102
803.140	0.0135612
803.218	0.0136314
803.296	0.0134980
803.374	0.0135355
803.453	0.0135938
803.531	0.0136810
803.609	0.0137106
803.687	0.0136501
803.765	0.0135091
803.843	0.0137061
803.921	0.0136250
803.999	0.0136762
804.078	0.0137117
804.156	0.0135906
804.234	0.0136600
804.312	0.0135822
804.390	0.0137619
804.468	0.0136736
804.546	0.0137251
804.624	0.0136831
804.703	0.0138113
804.781	0.0139265
804.859	0.0136929
804.937	0.0136666
805.015	0.0136118
805.093	0.0136974
805.171	0.0137319
805.249	0.0136924
805.328	0.0136974
805.406	0.0136331
805.484	0.0135619
805.562	0.0136507
805.640	0.0135093
805.718	0.0135642
805.796	0.0136237
805.874	0.0136475
805.953	0.0138097
806.031	0.0136052
806.109	0.0135268
806.187	0.0137021
806.265	0.0136749
806.343	0.0136966
806.421	0.0136947
806.499	0.0136951
806.578	0.0136450
806.656	0.0136255
806.734	0.0137367
806.812	0.0137334
806.890	0.0135590
806.968	0.0138005
807.046	0.0136454
807.124	0.0136081
807.203	0.0137421
807.281	0.0135957
807.359	0.0135731
807.437	0.0136472
807.515	0.0136383
807.593	0.0134851
807.671	0.0135802
807.749	0.0135434
807.828	0.0134705
807.906	0.0134772
807.984	0.0135762
808.062	0.0134323
808.140	0.0134286
808.218	0.0134664
808.296	0.0134207
808.374	0.0132854
808.453	0.0133931
808.531	0.0135384
808.609	0.0134718
808.687	0.0133658
808.765	0.0134280
808.843	0.0134003
808.921	0.0133521
808.999	0.0134187
809.078	0.0135847
809.156	0.0136107
809.234	0.0135695
809.312	0.0136378
809.390	0.0136020
809.468	0.0135181
809.546	0.0136565
809.624	0.0135605
809.703	0.0137666
809.781	0.0136333
809.859	0.0135825
809.937	0.0135683
810.015	0.0136221
810.093	0.0136329
810.171	0.0134806
810.249	0.0135748
810.328	0.0137164
810.406	0.0136279
810.484	0.0136253
810.562	0.0136681
810.640	0.0135900
810.718	0.0135054
810.796	0.0136148
810.874	0.0135889
810.953	0.0136588
811.031	0.0137143
811.109	0.0136724
811.187	0.0137718
811.265	0.0136806
811.343	0.0137186
811.421	0.0136758
811.499	0.0136736
811.578	0.0137949
811.656	0.0136260
811.734	0.0137432
811.812	0.0137342
811.890	0.0138181
811.968	0.0137195
812.046	0.0137084
812.124	0.0136996
812.203	0.0137414
812.281	0.0137482
812.359	0.0136683
812.437	0.0136106
812.515	0.0136282
812.593	0.0136228
812.671	0.0137275
812.749	0.0135514
812.828	0.0136529
812.906	0.0135420
812.984	0.0134695
813.062	0.0136136
813.140	0.0135751
813.218	0.0136056
813.296	0.0135338
813.374	0.0134450
813.453	0.0135778
813.531	0.0134869
813.609	0.0135064
813.687	0.0135766
813.765	0.0134560
813.843	0.0134322
813.921	0.0136453
813.999	0.0135728
814.078	0.0135151
814.156	0.0136510
814.234	0.0135307
814.312	0.0134674
814.390	0.0136646
814.468	0.0135095
814.546	0.0135957
814.624	0.0137286
814.703	0.0136291
814.781	0.0136150
814.859	0.0135604
814.937	0.0137750
815.015	0.0136637
815.093	0.0134289
815.171	0.0135811
815.249	0.0136326
815.328	0.0136463
815.406	0.0136459
815.484	0.0136743
815.562	0.0137381
815.640	0.0136433
815.718	0.0136931
815.796	0.0135877
815.874	0.0136781
815.953	0.0135924
816.031	0.0135584
816.109	0.0135555
816.187	0.0135978
816.265	0.0136591
816.343	0.0134929
816.421	0.0136440
816.499	0.0136206
816.578	0.0137276
816.656	0.0137144
816.734	0.0136597
816.812	0.0137115
816.890	0.0137867
816.968	0.0137482
817.046	0.0137813
817.124	0.0137885
817.203	0.0135925
817.281	0.0137186
817.359	0.0137153
817.437	0.0137485
817.515	0.0136433
817.593	0.0138098
817.671	0.0136945
817.749	0.0137192
817.828	0.0137155
817.906	0.0138017
817.984	0.0137755
818.062	0.0136745
818.140	0.0134620
818.218	0.0135845
818.296	0.0135966
818.374	0.0134441
818.453	0.0133266
818.531	0.0133954
818.609	0.0134930
818.687	0.0133899
818.765	0.0134324
818.843	0.0134586
818.921	0.0134429
818.999	0.0134559
819.078	0.0134463
819.156	0.0135541
819.234	0.0134282
819.312	0.0134163
819.390	0.0135006
819.468	0.0135863
819.546	0.0134807
819.624	0.0135809
819.703	0.0134863
819.781	0.0135502
819.859	0.0135439
819.937	0.0136195
820.015	0.0136781
820.093	0.0136993
820.171	0.0136659
820.249	0.0136247
820.328	0.0136629
820.406	0.0136706
820.484	0.0136328
820.562	0.0136477
820.640	0.0136879
820.718	0.0136369
820.796	0.0136989
820.874	0.0136655
820.953	0.0136150
821.031	0.0136078
821.109	0.0137031
821.187	0.0136503
821.265	0.0135805
821.343	0.0135205
821.421	0.0135960
821.499	0.0136632
821.578	0.0134874
821.656	0.0135734
821.734	0.0135698
821.812	0.0135669
821.890	0.0136484
821.968	0.0136876
822.046	0.0135452
822.124	0.0136192
822.203	0.0135957
822.281	0.0135785
822.359	0.0138262
822.437	0.0136850
822.515	0.0137809
822.593	0.0137744
822.671	0.0136547
822.749	0.0137670
822.828	0.0138974
822.906	0.0137279
822.984	0.0138903
823.062	0.0137328
823.140	0.0137668
823.218	0.0137735
823.296	0.0135091
823.374	0.0137548
823.453	0.0136797
823.531	0.0136636
823.609	0.0137346
823.687	0.0137428
823.765	0.0135949
823.843	0.0136528
823.921	0.0136877
823.999	0.0136923
824.078	0.0136585
824.156	0.0135963
824.234	0.0137045
824.312	0.0136080
824.390	0.0135945
824.468	0.0135770
824.546	0.0136703
824.624	0.0136890
824.703	0.0137280
824.781	0.0137446
824.859	0.0137308
824.937	0.0135852
825.015	0.0137936
825.093	0.0136638
825.171	0.0136208
825.249	0.0137501
825.328	0.0137457
825.406	0.0137235
825.484	0.0138022
825.562	0.0136663
825.640	0.0136471
825.718	0.0136530
825.796	0.0137207
825.874	0.0138320
825.953	0.0136117
826.031	0.0135026
826.109	0.0137198
826.187	0.0138286
826.265	0.0136686
826.343	0.0135367
826.421	0.0135425
826.499	0.0136397
826.578	0.0135626
826.656	0.0135548
826.734	0.0135258
826.812	0.0135589
826.890	0.0137170
826.968	0.0135139
827.046	0.0135384
827.124	0.0136412
827.203	0.0135845
827.281	0.0136228
827.359	0.0135236
827.437	0.0135792
827.515	0.0136322
827.593	0.0136208
827.671	0.0137160
827.749	0.0137082
827.828	0.0136144
827.906	0.0136044
827.984	0.0135995
828.062	0.0136984
828.140	0.0137767
828.218	0.0136797
828.296	0.0136845
828.374	0.0137337
828.453	0.0138681
828.531	0.0137528
828.609	0.0137077
828.687	0.0136955
828.765	0.0137161
828.843	0.0136942
828.921	0.0136800
828.999	0.0135397
829.078	0.0136916
829.156	0.0136418
829.234	0.0136291
829.312	0.0136945
829.390	0.0136594
829.468	0.0135806
829.546	0.0135603
829.624	0.0134999
829.703	0.0134932
829.781	0.0135146
829.859	0.0135513
829.937	0.0134751
830.015	0.0135216
830.093	0.0134680
830.171	0.0136582
830.249	0.0135706
830.328	0.0135751
830.406	0.0134060
830.484	0.0135633
830.562	0.0133716
830.640	0.0135080
830.718	0.0135870
830.796	0.0134594
830.874	0.0135615
830.953	0.0136705
831.031	0.0133759
831.109	0.0133891
831.187	0.0135186
831.265	0.0135900
831.343	0.0136224
831.421	0.0136104
831.499	0.0135265
831.578	0.0135306
831.656	0.0135098
831.734	0.0135545
831.812	0.0134962
831.890	0.0135833
831.968	0.0135545
832.046	0.0135426
832.124	0.0136346
832.203	0.0135571
832.281	0.0136713
832.359	0.0136311
832.437	0.0135706
832.515	0.0135713
832.593	0.0136272
832.671	0.0136169
832.749	0.0136407
832.828	0.0134743
832.906	0.0135321
832.984	0.0135564
833.062	0.0135065
833.140	0.0135606
833.218	0.0134429
833.296	0.0136750
833.374	0.0135667
833.453	0.0135620
833.531	0.0135374
833.609	0.0135741
833.687	0.0135690
833.765	0.0135130
833.843	0.0136925
833.921	0.0137227
833.999	0.0137498
834.078	0.0137767
834.156	0.0137892
834.234	0.0137430
834.312	0.0137234
834.390	0.0136330
834.468	0.0136565
834.546	0.0135537
834.624	0.0137171
834.703	0.0137092
834.781	0.0136021
834.859	0.0136570
834.937	0.0136935
835.015	0.0135369
835.093	0.0136990
835.171	0.0136428
835.249	0.0136217
835.328	0.0136183
835.406	0.0136276
835.484	0.0136015
835.562	0.0136092
835.640	0.0135120
835.718	0.0134229
835.796	0.0135027
835.874	0.0135740
835.953	0.0136568
836.031	0.0134281
836.109	0.0134315
836.187	0.0135168
836.265	0.0135673
836.343	0.0135088
836.421	0.0136200
836.499	0.0136199
836.578	0.0136706
836.656	0.0136812
836.734	0.0136506
836.812	0.0136472
836.890	0.0135937
836.968	0.0136472
837.046	0.0135613
837.124	0.0135859
837.203	0.0136838
837.281	0.0135599
837.359	0.0136108
837.437	0.0136736
837.515	0.0136977
837.593	0.0135494
837.671	0.0135663
837.749	0.0136714
837.828	0.0136404
837.906	0.0135037
837.984	0.0135573
838.062	0.0136124
838.140	0.0136382
838.218	0.0136980
838.296	0.0136651
838.374	0.0135783
838.453	0.0137279
838.531	0.0136423
838.609	0.0135938
838.687	0.0135898
838.765	0.0136343
838.843	0.0137266
838.921	0.0135480
838.999	0.0136217
839.078	0.0135872
839.156	0.0135728
839.234	0.0135555
839.312	0.0137172
839.390	0.0135423
839.468	0.0136430
839.546	0.0136663
839.624	0.0135415
839.703	0.0135033
839.781	0.0135310
839.859	0.0135349
839.937	0.0136806
840.015	0.0137141
840.093	0.0134877
840.171	0.0137180
840.249	0.0135746
840.328	0.0136253
840.406	0.0136037
840.484	0.0137582
840.562	0.0134908
840.640	0.0135316
840.718	0.0135252
840.796	0.0135497
840.874	0.0135873
840.953	0.0135764
841.031	0.0134943
841.109	0.0135534
841.187	0.0134946
841.265	0.0136004
841.343	0.0136108
841.421	0.0135297
841.499	0.0135773
841.578	0.0134533
841.656	0.0134727
841.734	0.0135007
841.812	0.0135825
841.890	0.0134180
841.968	0.0135926
842.046	0.0135519
842.124	0.0135799
842.203	0.0135906
842.281	0.0136758
842.359	0.0134840
842.437	0.0136086
842.515	0.0136212
842.593	0.0136852
842.671	0.0137169
842.749	0.0137057
842.828	0.0136987
842.906	0.0136612
842.984	0.0135260
843.062	0.0136016
843.140	0.0136722
843.218	0.0136253
843.296	0.0136354
843.374	0.0135378
843.453	0.0136725
843.531	0.0135998
843.609	0.0136270
843.687	0.0134769
843.765	0.0134785
843.843	0.0136820
843.921	0.0135357
843.999	0.0135625
844.078	0.0136243
844.156	0.0136111
844.234	0.0134935
844.312	0.0135954
844.390	0.0136640
844.468	0.0137194
844.546	0.0136358
844.624	0.0136029
844.703	0.0136253
844.781	0.0135019
844.859	0.0137075
844.937	0.0136269
845.015	0.0136556
845.093	0.0136105
845.171	0.0137260
845.249	0.0136412
845.328	0.0136210
845.406	0.0136181
845.484	0.0135822
845.562	0.0136311
845.640	0.0136680
845.718	0.0137022
845.796	0.0136698
845.874	0.0136864
845.953	0.0137139
846.031	0.0137137
846.109	0.0137052
846.187	0.0137158
846.265	0.0137366
846.343	0.0136910
846.421	0.0135970
846.499	0.0137411
846.578	0.0136613
846.656	0.0137425
846.734	0.0137686
846.812	0.0136626
846.890	0.0135793
846.968	0.0136268
847.046	0.0135497
847.124	0.0136483
847.203	0.0137057
847.281	0.0138240
847.359	0.0136858
847.437	0.0136713
847.515	0.0136938
847.593	0.0136639
847.671	0.0135280
847.749	0.0135868
847.828	0.0135793
847.906	0.0138048
847.984	0.0137141
848.062	0.0136314
848.140	0.0135971
848.218	0.0137068
848.296	0.0136869
848.374	0.0135536
848.453	0.0136405
848.531	0.0136971
848.609	0.0136635
848.687	0.0135574
848.765	0.0136067
848.843	0.0135403
848.921	0.0134604
848.999	0.0136224
849.078	0.0135610
849.156	0.0135233
849.234	0.0136224
849.312	0.0134608
849.390	0.0134792
849.468	0.0134077
849.546	0.0135500
849.624	0.0136414
849.703	0.0134982
849.781	0.0134301
849.859	0.0136567
849.937	0.0135374
850.015	0.0136909
850.093	0.0136174
850.171	0.0136201
850.249	0.0135568
850.328	0.0135519
850.406	0.0135480
850.484	0.0134818
850.562	0.0137064
850.640	0.0136962
850.718	0.0135245
850.796	0.0135550
850.874	0.0137364
850.953	0.0136803
851.031	0.0135423
851.109	0.0135693
851.187	0.0135621
851.265	0.0136337
851.343	0.0136114
851.421	0.0136283
851.499	0.0135625
851.578	0.0135435
851.656	0.0135016
851.734	0.0135479
851.812	0.0134729
851.890	0.0134641
851.968	0.0135883
852.046	0.0136340
852.124	0.0135577
852.203	0.0135641
852.281	0.0134908
852.359	0.0136765
852.437	0.0135845
852.515	0.0135450
852.593	0.0136481
852.671	0.0135804
852.749	0.0136405
852.828	0.0135732
852.906	0.0135839
852.984	0.0136037
853.062	0.0135103
853.140	0.0136752
853.218	0.0133880
853.296	0.0134161
853.374	0.0136391
853.453	0.0135333
853.531	0.0134627
853.609	0.0135873
853.687	0.0137658
853.765	0.0135496
853.843	0.0133646
853.921	0.0135345
853.999	0.0135737
854.078	0.0135402
854.156	0.0136768
854.234	0.0135625
854.312	0.0134608
854.390	0.0134775
854.468	0.0135349
854.546	0.0135130
854.624	0.0135262
854.703	0.0134389
854.781	0.0134367
854.859	0.0135806
854.937	0.0136288
855.015	0.0134070
855.093	0.0135173
855.171	0.0136578
855.249	0.0135625
855.328	0.0134989
855.406	0.0135428
855.484	0.0136210
855.562	0.0134364
855.640	0.0136469
855.718	0.0135931
855.796	0.0137123
855.874	0.0134897
855.953	0.0134272
856.031	0.0136538
856.109	0.0134279
856.187	0.0135169
856.265	0.0137098
856.343	0.0135538
856.421	0.0135863
856.499	0.0137211
856.578	0.0136363
856.656	0.0135834
856.734	0.0135326
856.812	0.0135876
856.890	0.0136288
856.968	0.0137228
857.046	0.0136322
857.124	0.0136581
857.203	0.0136065
857.281	0.0134595
857.359	0.0135689
857.437	0.0135046
857.515	0.0134430
857.593	0.0135876
857.671	0.0135634
857.749	0.0135286
857.828	0.0135679
857.906	0.0135674
857.984	0.0136197
858.062	0.0135824
858.140	0.0137070
858.218	0.0137279
858.296	0.0136420
858.374	0.0136620
858.453	0.0136681
858.531	0.0135952
858.609	0.0135781
858.687	0.0135673
858.765	0.0134086
858.843	0.0137482
858.921	0.0135179
858.999	0.0135822
859.078	0.0137357
859.156	0.0136854
859.234	0.0136289
859.312	0.0136272
859.390	0.0136014
859.468	0.0135305
859.546	0.0136203
859.624	0.0134333
859.703	0.0135144
859.781	0.0135242
859.859	0.0134519
859.937	0.0135441
860.015	0.0135100
860.093	0.0137004
860.171	0.0136489
860.249	0.0135861
860.328	0.0135721
860.406	0.0136499
860.484	0.0136342
860.562	0.0135397
860.640	0.0136636
860.718	0.0135589
860.796	0.0135706
860.874	0.0138107
860.953	0.0136780
861.031	0.0136273
861.109	0.0133978
861.187	0.0134476
861.265	0.0135731
861.343	0.0135152
861.421	0.0135117
861.499	0.0134440
861.578	0.0135806
861.656	0.0136200
861.734	0.0134641
861.812	0.0134612
861.890	0.0136191
861.968	0.0136732
862.046	0.0135796
862.124	0.0135728
862.203	0.0135204
862.281	0.0136063
862.359	0.0135724
862.437	0.0135976
862.515	0.0136857
862.593	0.0134335
862.671	0.0136392
862.749	0.0136546
862.828	0.0136009
862.906	0.0137211
862.984	0.0135742
863.062	0.0134527
863.140	0.0136423
863.218	0.0136009
863.296	0.0135741
863.374	0.0135981
863.453	0.0135595
863.531	0.0135069
863.609	0.0134300
863.687	0.0133411
863.765	0.0136055
863.843	0.0135538
863.921	0.0136442
863.999	0.0135109
864.078	0.0134283
864.156	0.0137904
864.234	0.0136423
864.312	0.0136713
864.390	0.0136096
864.468	0.0136761
864.546	0.0135876
864.624	0.0135330
864.703	0.0136599
864.781	0.0136401
864.859	0.0135847
864.937	0.0135460
865.015	0.0136930
865.093	0.0135790
865.171	0.0135342
865.249	0.0136424
865.328	0.0136547
865.406	0.0135954
865.484	0.0136265
865.562	0.0136459
865.640	0.0135459
865.718	0.0137041
865.796	0.0136932
865.874	0.0135946
865.953	0.0135561
866.031	0.0135209
866.109	0.0136491
866.187	0.0136572
866.265	0.0135664
866.343	0.0134436
866.421	0.0134740
866.499	0.0135661
866.578	0.0135918
866.656	0.0136768
866.734	0.0136150
866.812	0.0134615
866.890	0.0135320
866.968	0.0135071
867.046	0.0134071
867.124	0.0135929
867.203	0.0134943
867.281	0.0135290
867.359	0.0135209
867.437	0.0134740
867.515	0.0134678
867.593	0.0135548
867.671	0.0135161
867.749	0.0136311
867.828	0.0136103
867.906	0.0134416
867.984	0.0135165
868.062	0.0136118
868.140	0.0135027
868.218	0.0136268
868.296	0.0136917
868.374	0.0137003
868.453	0.0137235
868.531	0.0136295
868.609	0.0136090
868.687	0.0136498
868.765	0.0135439
868.843	0.0135754
868.921	0.0135342
868.999	0.0135696
869.078	0.0136031
869.156	0.0135739
869.234	0.0136110
869.312	0.0136802
869.390	0.0136311
869.468	0.0135890
869.546	0.0134651
869.624	0.0136282
869.703	0.0137154
869.781	0.0134843
869.859	0.0135973
869.937	0.0136745
870.015	0.0136324
870.093	0.0136232
870.171	0.0135775
870.249	0.0136208
870.328	0.0136709
870.406	0.0137312
870.484	0.0137325
870.562	0.0136399
870.640	0.0137090
870.718	0.0136800
870.796	0.0135031
870.874	0.0135352
870.953	0.0135468
871.031	0.0135689
871.109	0.0135793
871.187	0.0134934
871.265	0.0137299
871.343	0.0136510
871.421	0.0136134
871.499	0.0136084
871.578	0.0135432
871.656	0.0136163
871.734	0.0136288
871.812	0.0136362
871.890	0.0135473
871.968	0.0135822
872.046	0.0135267
872.124	0.0133043
872.203	0.0133785
872.281	0.0136644
872.359	0.0135183
872.437	0.0133920
872.515	0.0134091
872.593	0.0135304
872.671	0.0135336
872.749	0.0136362
872.828	0.0136376
872.906	0.0136463
872.984	0.0135941
873.062	0.0135196
873.140	0.0136340
873.218	0.0136861
873.296	0.0136513
873.374	0.0136362
873.453	0.0135392
873.531	0.0135876
873.609	0.0137635
873.687	0.0136708
873.765	0.0135863
873.843	0.0136459
873.921	0.0135420
873.999	0.0135460
874.078	0.0136469
874.156	0.0135818
874.234	0.0135379
874.312	0.0135246
874.390	0.0135561
874.468	0.0136667
874.546	0.0135068
874.624	0.0136147
874.703	0.0134079
874.781	0.0134527
874.859	0.0135068
874.937	0.0134747
875.015	0.0135380
875.093	0.0136142
875.171	0.0135998
875.249	0.0134642
875.328	0.0136418
875.406	0.0137697
875.484	0.0138033
875.562	0.0136529
875.640	0.0135807
875.718	0.0135935
875.796	0.0137285
875.874	0.0136916
875.953	0.0136050
876.031	0.0135715
876.109	0.0135068
876.187	0.0135630
876.265	0.0135420
876.343	0.0135349
876.421	0.0135225
876.499	0.0134068
876.578	0.0134060
876.656	0.0136066
876.734	0.0135833
876.812	0.0134920
876.890	0.0135892
876.968	0.0135606
877.046	0.0135662
877.124	0.0135438
877.203	0.0134670
877.281	0.0133942
877.359	0.0135001
877.437	0.0134678
877.515	0.0135997
877.593	0.0136535
877.671	0.0134953
877.749	0.0135181
877.828	0.0135924
877.906	0.0135796
877.984	0.0135550
878.062	0.0137021
878.140	0.0136122
878.218	0.0135819
878.296	0.0134737
878.374	0.0134834
878.453	0.0135958
878.531	0.0135609
878.609	0.0135372
878.687	0.0135634
878.765	0.0135400
878.843	0.0134848
878.921	0.0135125
878.999	0.0135048
879.078	0.0135927
879.156	0.0135966
879.234	0.0136008
879.312	0.0135569
879.390	0.0135387
879.468	0.0135894
879.546	0.0134041
879.624	0.0135397
879.703	0.0136532
879.781	0.0134359
879.859	0.0135039
879.937	0.0136026
880.015	0.0135255
880.093	0.0136327
880.171	0.0135186
880.249	0.0136140
880.328	0.0135677
880.406	0.0134881
880.484	0.0135783
880.562	0.0136353
880.640	0.0135828
880.718	0.0136238
880.796	0.0137169
880.874	0.0136061
880.953	0.0135046
881.031	0.0136073
881.109	0.0136340
881.187	0.0136488
881.265	0.0136026
881.343	0.0136024
881.421	0.0135947
881.499	0.0133720
881.578	0.0136694
881.656	0.0135285
881.734	0.0134866
881.812	0.0134789
881.890	0.0135854
881.968	0.0134167
882.046	0.0134743
882.124	0.0135339
882.203	0.0134624
882.281	0.0135069
882.359	0.0135098
882.437	0.0136293
882.515	0.0134914
882.593	0.0134038
882.671	0.0134708
882.749	0.0134087
882.828	0.0135625
882.906	0.0135137
882.984	0.0134746
883.062	0.0135426
883.140	0.0133956
883.218	0.0135986
883.296	0.0135793
883.374	0.0133132
883.453	0.0133701
883.531	0.0136859
883.609	0.0135925
883.687	0.0135635
883.765	0.0134930
883.843	0.0134818
883.921	0.0134481
883.999	0.0135621
884.078	0.0135188
884.156	0.0134009
884.234	0.0136283
884.312	0.0136440
884.390	0.0135203
884.468	0.0135591
884.546	0.0136234
884.624	0.0137708
884.703	0.0136888
884.781	0.0136351
884.859	0.0138104
884.937	0.0135598
885.015	0.0137196
885.093	0.0136931
885.171	0.0136281
885.249	0.0134751
885.328	0.0136575
885.406	0.0136637
885.484	0.0135429
885.562	0.0135165
885.640	0.0136255
885.718	0.0135235
885.796	0.0135102
885.874	0.0135805
885.953	0.0134940
886.031	0.0136003
886.109	0.0137731
886.187	0.0136988
886.265	0.0135480
886.343	0.0135221
886.421	0.0136294
886.499	0.0137750
886.578	0.0136382
886.656	0.0135419
886.734	0.0135537
886.812	0.0136009
886.890	0.0135618
886.968	0.0136128
887.046	0.0135676
887.124	0.0136208
887.203	0.0135264
887.281	0.0135881
887.359	0.0136703
887.437	0.0135670
887.515	0.0134389
887.593	0.0134235
887.671	0.0135481
887.749	0.0135244
887.828	0.0135474
887.906	0.0135703
887.984	0.0136054
888.062	0.0135422
888.140	0.0135474
888.218	0.0136409
888.296	0.0136462
888.374	0.0137753
888.453	0.0135622
888.531	0.0136669
888.609	0.0136927
888.687	0.0136167
888.765	0.0137013
888.843	0.0137459
888.921	0.0136824
888.999	0.0136536
889.078	0.0136371
889.156	0.0137198
889.234	0.0137203
889.312	0.0135909
889.390	0.0136797
889.468	0.0136207
889.546	0.0136206
889.624	0.0137048
889.703	0.0136196
889.781	0.0136131
889.859	0.0135558
889.937	0.0138029
890.015	0.0136126
890.093	0.0138166
890.171	0.0138175
890.249	0.0136962
890.328	0.0137627
890.406	0.0138174
890.484	0.0137054
890.562	0.0136780
890.640	0.0137537
890.718	0.0136202
890.796	0.0135609
890.874	0.0136217
890.953	0.0137446
891.031	0.0137039
891.109	0.0135919
891.187	0.0135530
891.265	0.0134622
891.343	0.0135576
891.421	0.0135182
891.499	0.0137343
891.578	0.0136488
891.656	0.0136727
891.734	0.0137184
891.812	0.0137480
891.890	0.0138049
891.968	0.0136118
892.046	0.0136857
892.124	0.0137624
892.203	0.0136650
892.281	0.0137014
892.359	0.0135709
892.437	0.0136450
892.515	0.0135066
892.593	0.0135555
892.671	0.0135801
892.749	0.0134740
892.828	0.0136008
892.906	0.0135639
892.984	0.0135383
893.062	0.0135634
893.140	0.0135590
893.218	0.0135792
893.296	0.0135963
893.374	0.0135537
893.453	0.0135397
893.531	0.0136807
893.609	0.0135782
893.687	0.0136298
893.765	0.0135629
893.843	0.0137645
893.921	0.0137214
893.999	0.0137654
894.078	0.0137349
894.156	0.0137182
894.234	0.0136621
894.312	0.0137268
894.390	0.0136420
894.468	0.0135065
894.546	0.0135750
894.624	0.0136904
894.703	0.0135416
894.781	0.0136475
894.859	0.0137171
894.937	0.0134860
895.015	0.0134881
895.093	0.0135435
895.171	0.0134747
895.249	0.0135374
895.328	0.0136170
895.406	0.0135871
895.484	0.0137753
895.562	0.0137270
895.640	0.0136292
895.718	0.0136938
895.796	0.0135710
895.874	0.0136597
895.953	0.0136671
896.031	0.0135688
896.109	0.0135168
896.187	0.0136373
896.265	0.0134049
896.343	0.0135680
896.421	0.0135828
896.499	0.0135204
896.578	0.0135778
896.656	0.0136653
896.734	0.0135313
896.812	0.0134622
896.890	0.0135421
896.968	0.0135597
897.046	0.0135648
897.124	0.0136128
897.203	0.0136575
897.281	0.0135858
897.359	0.0137149
897.437	0.0136835
897.515	0.0135612
897.593	0.0136337
897.671	0.0136462
897.749	0.0136366
897.828	0.0136611
897.906	0.0136904
897.984	0.0136128
898.062	0.0135194
898.140	0.0136252
898.218	0.0136914
898.296	0.0135171
898.374	0.0135160
898.453	0.0135789
898.531	0.0135008
898.609	0.0135628
898.687	0.0134669
898.765	0.0133489
898.843	0.0136205
898.921	0.0135945
898.999	0.0136500
899.078	0.0136295
899.156	0.0136977
899.234	0.0135985
899.312	0.0136439
899.390	0.0136911
899.468	0.0135312
899.546	0.0136431
899.624	0.0135693
899.703	0.0136160
899.781	0.0135313
899.859	0.0135843
899.937	0.0135786
900.015	0.0136201
900.093	0.0137061
900.171	0.0137733
900.249	0.0136237
900.328	0.0135590
900.406	0.0136333
900.484	0.0135672
900.562	0.0136452
900.640	0.0135538
900.718	0.0135614
900.796	0.0136269
900.874	0.0136183
900.953	0.0135551
901.031	0.0135860
901.109	0.0135892
901.187	0.0136021
901.265	0.0136707
901.343	0.0136514
901.421	0.0135858
901.499	0.0136082
901.578	0.0135795
901.656	0.0135545
901.734	0.0136434
901.812	0.0135137
901.890	0.0135716
901.968	0.0135368
902.046	0.0135110
902.124	0.0135533
902.203	0.0135075
902.281	0.0135100
902.359	0.0134342
902.437	0.0133762
902.515	0.0136079
902.593	0.0136559
902.671	0.0135796
902.749	0.0135387
902.828	0.0136473
902.906	0.0136306
902.984	0.0136867
903.062	0.0137126
903.140	0.0136642
903.218	0.0136454
903.296	0.0136647
903.374	0.0135840
903.453	0.0136362
903.531	0.0136434
903.609	0.0137186
903.687	0.0136587
903.765	0.0134822
903.843	0.0134435
903.921	0.0134974
903.999	0.0136001
904.078	0.0135963
904.156	0.0134467
904.234	0.0135473
904.312	0.0134660
904.390	0.0133836
904.468	0.0134456
904.546	0.0135771
904.624	0.0134550
904.703	0.0135913
904.781	0.0134796
904.859	0.0134781
904.937	0.0135326
905.015	0.0135195
905.093	0.0134672
905.171	0.0136131
905.249	0.0136018
905.328	0.0135720
905.406	0.0135418
905.484	0.0136806
905.562	0.0135786
905.640	0.0134405
905.718	0.0137005
905.796	0.0134988
905.874	0.0134664
905.953	0.0135307
906.031	0.0134180
906.109	0.0134949
906.187	0.0134174
906.265	0.0134785
906.343	0.0136076
906.421	0.0136246
906.499	0.0136525
906.578	0.0137718
906.656	0.0135444
906.734	0.0135409
906.812	0.0136806
906.890	0.0137308
906.968	0.0136558
907.046	0.0137154
907.124	0.0135765
907.203	0.0137625
907.281	0.0138515
907.359	0.0137757
907.437	0.0137381
907.515	0.0137661
907.593	0.0137798
907.671	0.0137537
907.749	0.0135944
907.828	0.0137030
907.906	0.0136250
907.984	0.0135883
908.062	0.0136243
908.140	0.0137102
908.218	0.0135923
908.296	0.0137009
908.374	0.0136922
908.453	0.0136024
908.531	0.0135219
908.609	0.0137520
908.687	0.0136386
908.765	0.0136725
908.843	0.0136765
908.921	0.0136603
908.999	0.0136363
909.078	0.0136356
909.156	0.0134157
909.234	0.0135352
909.312	0.0135687
909.390	0.0135210
909.468	0.0135072
909.546	0.0134110
909.624	0.0133596
909.703	0.0134694
909.781	0.0134539
909.859	0.0134910
909.937	0.0134243
910.015	0.0135059
910.093	0.0134801
910.171	0.0135101
910.249	0.0134855
910.328	0.0133793
910.406	0.0136477
910.484	0.0136893
910.562	0.0136047
910.640	0.0137093
910.718	0.0137403
910.796	0.0137073
910.874	0.0136576
910.953	0.0137765
911.031	0.0137269
911.109	0.0135899
911.187	0.0136655
911.265	0.0135909
911.343	0.0136465
911.421	0.0137868
911.499	0.0136723
911.578	0.0137566
911.656	0.0136289
911.734	0.0136973
911.812	0.0135371
911.890	0.0136119
911.968	0.0135703
912.046	0.0135663
912.124	0.0135912
912.203	0.0135149
912.281	0.0136648
912.359	0.0137609
912.437	0.0137189
912.515	0.0137534
912.593	0.0136046
912.671	0.0137763
912.749	0.0136915
912.828	0.0137048
912.906	0.0138057
912.984	0.0138542
913.062	0.0137263
913.140	0.0137133
913.218	0.0137969
913.296	0.0136796
913.374	0.0136590
913.453	0.0137103
913.531	0.0135793
913.609	0.0136114
913.687	0.0136195
913.765	0.0134730
913.843	0.0136361
913.921	0.0135689
913.999	0.0135204
914.078	0.0133943
914.156	0.0133884
914.234	0.0134953
914.312	0.0135209
914.390	0.0133998
914.468	0.0135296
914.546	0.0135043
914.624	0.0135889
914.703	0.0134960
914.781	0.0134869
914.859	0.0135423
914.937	0.0134293
915.015	0.0135729
915.093	0.0134313
915.171	0.0135682
915.249	0.0135434
915.328	0.0134446
915.406	0.0136354
915.484	0.0135113
915.562	0.0135243
915.640	0.0134251
915.718	0.0134830
915.796	0.0136515
915.874	0.0135766
915.953	0.0135616
916.031	0.0136053
916.109	0.0135651
916.187	0.0135046
916.265	0.0136800
916.343	0.0137191
916.421	0.0136682
916.499	0.0136673
916.578	0.0137540
916.656	0.0136328
916.734	0.0136088
916.812	0.0136238
916.890	0.0137240
916.968	0.0137461
917.046	0.0136292
917.124	0.0137204
917.203	0.0137251
917.281	0.0136327
917.359	0.0137368
917.437	0.0137127
917.515	0.0136168
917.593	0.0135405
917.671	0.0135196
917.749	0.0135673
917.828	0.0137070
917.906	0.0136940
917.984	0.0136047
918.062	0.0135556
918.140	0.0136358
918.218	0.0136592
918.296	0.0136385
918.374	0.0136848
918.453	0.0135959
918.531	0.0135715
918.609	0.0135671
918.687	0.0135160
918.765	0.0136858
918.843	0.0136559
918.921	0.0135352
918.999	0.0134767
919.078	0.0135099
919.156	0.0136138
919.234	0.0136223
919.312	0.0135499
919.390	0.0135019
919.468	0.0135337
919.546	0.0135934
919.624	0.0135724
919.703	0.0134927
919.781	0.0135554
919.859	0.0135564
919.937	0.0134618
