05/06/2022	18:55:14	Ver.	4.1	UNKNOWN
Optical Delay	600.015094	Delta X		0.078125	Sweeps	1	Scan Rate	0/0
Coordinates	Axis 1	NaN	Axis 2	NaN	Axis 3	NaN	Axis 4	NaN	Axis 5	NaN	Axis 6	0.000000
TX Power	0.000000	RX Power	0.000000

600.015	0.0140192
600.093	0.0139487
600.171	0.0139697
600.249	0.0139688
600.328	0.0138916
600.406	0.0138710
600.484	0.0139731
600.562	0.0139677
600.640	0.0139873
600.718	0.0140468
600.796	0.0140048
600.874	0.0139255
600.953	0.0140644
601.031	0.0139005
601.109	0.0138777
601.187	0.0140739
601.265	0.0140577
601.343	0.0139340
601.421	0.0139772
601.499	0.0139741
601.578	0.0139517
601.656	0.0139935
601.734	0.0140025
601.812	0.0139368
601.890	0.0140497
601.968	0.0140525
602.046	0.0139395
602.124	0.0139492
602.203	0.0139301
602.281	0.0139560
602.359	0.0140546
602.437	0.0139628
602.515	0.0140170
602.593	0.0140162
602.671	0.0140698
602.749	0.0140646
602.828	0.0139806
602.906	0.0139629
602.984	0.0140482
603.062	0.0141244
603.140	0.0139449
603.218	0.0138449
603.296	0.0139234
603.374	0.0141045
603.453	0.0140532
603.531	0.0139279
603.609	0.0139663
603.687	0.0140922
603.765	0.0139244
603.843	0.0138863
603.921	0.0139176
603.999	0.0139967
604.078	0.0140166
604.156	0.0139902
604.234	0.0139300
604.312	0.0138708
604.390	0.0140833
604.468	0.0140067
604.546	0.0140260
604.624	0.0138450
604.703	0.0141262
604.781	0.0139754
604.859	0.0139220
604.937	0.0139652
605.015	0.0139826
605.093	0.0141763
605.171	0.0139787
605.249	0.0139938
605.328	0.0139507
605.406	0.0140973
605.484	0.0139369
605.562	0.0139068
605.640	0.0139997
605.718	0.0139247
605.796	0.0140614
605.874	0.0140117
605.953	0.0138850
606.031	0.0139317
606.109	0.0139404
606.187	0.0140847
606.265	0.0139922
606.343	0.0140680
606.421	0.0139228
606.499	0.0139026
606.578	0.0140749
606.656	0.0141159
606.734	0.0139923
606.812	0.0139565
606.890	0.0138167
606.968	0.0139098
607.046	0.0139689
607.124	0.0139845
607.203	0.0139606
607.281	0.0138916
607.359	0.0138809
607.437	0.0139259
607.515	0.0141550
607.593	0.0140091
607.671	0.0140781
607.749	0.0140313
607.828	0.0137642
607.906	0.0139912
607.984	0.0140593
608.062	0.0140479
608.140	0.0141042
608.218	0.0139819
608.296	0.0139661
608.374	0.0140838
608.453	0.0140759
608.531	0.0139749
608.609	0.0140402
608.687	0.0140542
608.765	0.0140298
608.843	0.0140181
608.921	0.0139819
608.999	0.0140553
609.078	0.0139436
609.156	0.0139277
609.234	0.0139807
609.312	0.0139189
609.390	0.0140597
609.468	0.0139486
609.546	0.0139179
609.624	0.0138879
609.703	0.0138630
609.781	0.0140230
609.859	0.0139748
609.937	0.0139626
610.015	0.0140752
610.093	0.0140018
610.171	0.0139837
610.249	0.0139390
610.328	0.0139335
610.406	0.0139743
610.484	0.0139825
610.562	0.0139949
610.640	0.0140734
610.718	0.0140325
610.796	0.0139751
610.874	0.0139331
610.953	0.0139544
611.031	0.0138448
611.109	0.0139823
611.187	0.0139771
611.265	0.0139661
611.343	0.0141145
611.421	0.0139881
611.499	0.0139156
611.578	0.0138782
611.656	0.0140414
611.734	0.0140214
611.812	0.0140702
611.890	0.0139153
611.968	0.0140844
612.046	0.0139883
612.124	0.0139001
612.203	0.0140131
612.281	0.0139524
612.359	0.0139041
612.437	0.0138664
612.515	0.0139899
612.593	0.0139120
612.671	0.0138527
612.749	0.0139437
612.828	0.0139445
612.906	0.0140563
612.984	0.0140638
613.062	0.0139936
613.140	0.0139672
613.218	0.0141058
613.296	0.0140260
613.374	0.0139108
613.453	0.0139740
613.531	0.0140381
613.609	0.0140882
613.687	0.0139841
613.765	0.0141672
613.843	0.0140887
613.921	0.0140113
613.999	0.0139849
614.078	0.0139508
614.156	0.0139162
614.234	0.0139577
614.312	0.0139195
614.390	0.0140814
614.468	0.0139932
614.546	0.0140488
614.624	0.0140105
614.703	0.0139662
614.781	0.0139902
614.859	0.0140508
614.937	0.0138522
615.015	0.0139734
615.093	0.0140710
615.171	0.0140517
615.249	0.0140282
615.328	0.0138710
615.406	0.0140052
615.484	0.0140000
615.562	0.0140924
615.640	0.0139446
615.718	0.0140636
615.796	0.0140295
615.874	0.0140266
615.953	0.0139719
616.031	0.0139492
616.109	0.0139343
616.187	0.0140532
616.265	0.0139618
616.343	0.0139518
616.421	0.0140382
616.499	0.0140853
616.578	0.0140955
616.656	0.0140792
616.734	0.0138833
616.812	0.0139785
616.890	0.0140347
616.968	0.0139307
617.046	0.0139350
617.124	0.0139777
617.203	0.0139340
617.281	0.0140868
617.359	0.0139740
617.437	0.0139732
617.515	0.0140933
617.593	0.0140782
617.671	0.0139443
617.749	0.0140483
617.828	0.0141041
617.906	0.0140144
617.984	0.0139517
618.062	0.0139291
618.140	0.0139696
618.218	0.0141550
618.296	0.0139278
618.374	0.0139191
618.453	0.0139540
618.531	0.0139601
618.609	0.0140326
618.687	0.0140550
618.765	0.0140010
618.843	0.0139457
618.921	0.0140935
618.999	0.0138956
619.078	0.0139838
619.156	0.0140457
619.234	0.0138725
619.312	0.0140249
619.390	0.0140323
619.468	0.0139557
619.546	0.0139154
619.624	0.0139735
619.703	0.0139497
619.781	0.0139887
619.859	0.0137334
619.937	0.0139471
620.015	0.0139510
620.093	0.0140240
620.171	0.0138902
620.249	0.0138457
620.328	0.0139494
620.406	0.0141264
620.484	0.0140862
620.562	0.0138711
620.640	0.0140594
620.718	0.0138692
620.796	0.0140247
620.874	0.0140163
620.953	0.0139191
621.031	0.0139874
621.109	0.0139637
621.187	0.0140189
621.265	0.0139240
621.343	0.0138836
621.421	0.0139188
621.499	0.0140504
621.578	0.0139673
621.656	0.0139598
621.734	0.0140846
621.812	0.0139568
621.890	0.0140055
621.968	0.0140509
622.046	0.0140535
622.124	0.0139759
622.203	0.0138981
622.281	0.0137769
622.359	0.0139614
622.437	0.0140357
622.515	0.0139021
622.593	0.0140721
622.671	0.0139206
622.749	0.0138661
622.828	0.0139364
622.906	0.0139009
622.984	0.0140363
623.062	0.0139434
623.140	0.0141564
623.218	0.0139971
623.296	0.0139854
623.374	0.0139146
623.453	0.0139203
623.531	0.0141308
623.609	0.0139342
623.687	0.0139202
623.765	0.0141411
623.843	0.0138844
623.921	0.0138570
623.999	0.0139952
624.078	0.0140946
624.156	0.0141293
624.234	0.0140337
624.312	0.0139286
624.390	0.0139046
624.468	0.0139376
624.546	0.0140179
624.624	0.0139790
624.703	0.0138933
624.781	0.0139320
624.859	0.0140132
624.937	0.0139810
625.015	0.0139942
625.093	0.0139800
625.171	0.0140595
625.249	0.0140165
625.328	0.0138956
625.406	0.0140321
625.484	0.0140717
625.562	0.0140426
625.640	0.0139102
625.718	0.0140212
625.796	0.0140184
625.874	0.0140538
625.953	0.0139425
626.031	0.0140102
626.109	0.0140571
626.187	0.0140343
626.265	0.0139948
626.343	0.0140379
626.421	0.0141315
626.499	0.0140259
626.578	0.0140672
626.656	0.0140217
626.734	0.0139248
626.812	0.0140287
626.890	0.0139294
626.968	0.0141465
627.046	0.0141436
627.124	0.0140018
627.203	0.0140731
627.281	0.0139703
627.359	0.0139343
627.437	0.0140076
627.515	0.0139762
627.593	0.0140310
627.671	0.0139747
627.749	0.0140160
627.828	0.0140918
627.906	0.0140314
627.984	0.0140825
628.062	0.0139413
628.140	0.0139867
628.218	0.0140434
628.296	0.0140665
628.374	0.0139695
628.453	0.0139204
628.531	0.0141183
628.609	0.0140598
628.687	0.0140226
628.765	0.0139652
628.843	0.0138934
628.921	0.0141410
628.999	0.0140742
629.078	0.0140525
629.156	0.0139838
629.234	0.0139553
629.312	0.0140004
629.390	0.0141093
629.468	0.0140349
629.546	0.0140929
629.624	0.0140408
629.703	0.0140572
629.781	0.0140434
629.859	0.0138532
629.937	0.0140347
630.015	0.0140869
630.093	0.0141231
630.171	0.0140824
630.249	0.0139957
630.328	0.0141058
630.406	0.0142732
630.484	0.0140318
630.562	0.0139743
630.640	0.0139380
630.718	0.0139755
630.796	0.0139587
630.874	0.0141401
630.953	0.0140958
631.031	0.0141428
631.109	0.0139664
631.187	0.0139391
631.265	0.0140356
631.343	0.0139776
631.421	0.0140901
631.499	0.0139597
631.578	0.0139648
631.656	0.0140234
631.734	0.0140301
631.812	0.0140797
631.890	0.0140877
631.968	0.0139742
632.046	0.0139443
632.124	0.0139578
632.203	0.0139617
632.281	0.0140007
632.359	0.0139972
632.437	0.0139384
632.515	0.0140176
632.593	0.0140023
632.671	0.0138624
632.749	0.0138710
632.828	0.0140205
632.906	0.0139548
632.984	0.0139795
633.062	0.0140207
633.140	0.0139665
633.218	0.0138155
633.296	0.0140605
633.374	0.0140484
633.453	0.0140569
633.531	0.0140066
633.609	0.0140091
633.687	0.0138258
633.765	0.0140288
633.843	0.0139165
633.921	0.0139026
633.999	0.0139905
634.078	0.0139896
634.156	0.0140675
634.234	0.0140328
634.312	0.0139527
634.390	0.0138245
634.468	0.0138821
634.546	0.0139765
634.624	0.0139626
634.703	0.0139529
634.781	0.0139563
634.859	0.0139291
634.937	0.0138021
635.015	0.0138950
635.093	0.0141007
635.171	0.0140022
635.249	0.0139415
635.328	0.0138854
635.406	0.0138536
635.484	0.0138300
635.562	0.0141011
635.640	0.0140416
635.718	0.0139911
635.796	0.0140186
635.874	0.0138536
635.953	0.0139284
636.031	0.0140536
636.109	0.0139096
636.187	0.0138260
636.265	0.0140327
636.343	0.0139908
636.421	0.0139130
636.499	0.0139211
636.578	0.0138724
636.656	0.0140599
636.734	0.0139668
636.812	0.0139091
636.890	0.0138621
636.968	0.0137846
637.046	0.0138796
637.124	0.0140625
637.203	0.0139784
637.281	0.0140034
637.359	0.0139046
637.437	0.0138270
637.515	0.0138911
637.593	0.0139133
637.671	0.0138768
637.749	0.0139128
637.828	0.0137873
637.906	0.0139167
637.984	0.0139220
638.062	0.0138312
638.140	0.0139365
638.218	0.0138841
638.296	0.0140178
638.374	0.0140141
638.453	0.0139732
638.531	0.0139365
638.609	0.0139462
638.687	0.0139193
638.765	0.0140104
638.843	0.0139991
638.921	0.0139631
638.999	0.0138848
639.078	0.0139738
639.156	0.0139996
639.234	0.0139916
639.312	0.0140601
639.390	0.0139350
639.468	0.0138959
639.546	0.0138146
639.624	0.0138354
639.703	0.0139725
639.781	0.0139223
639.859	0.0139429
639.937	0.0139595
640.015	0.0140686
640.093	0.0138525
640.171	0.0139373
640.249	0.0138142
640.328	0.0138547
640.406	0.0139743
640.484	0.0139966
640.562	0.0138611
640.640	0.0138919
640.718	0.0139529
640.796	0.0140096
640.874	0.0140232
640.953	0.0140011
641.031	0.0141260
641.109	0.0140237
641.187	0.0139367
641.265	0.0139001
641.343	0.0140325
641.421	0.0139960
641.499	0.0141772
641.578	0.0139400
641.656	0.0138506
641.734	0.0140092
641.812	0.0139745
641.890	0.0138940
641.968	0.0139156
642.046	0.0138952
642.124	0.0137999
642.203	0.0139410
642.281	0.0138689
642.359	0.0140349
642.437	0.0140767
642.515	0.0140121
642.593	0.0138892
642.671	0.0139925
642.749	0.0139303
642.828	0.0139975
642.906	0.0139755
642.984	0.0140941
643.062	0.0140307
643.140	0.0138578
643.218	0.0139624
643.296	0.0140203
643.374	0.0139547
643.453	0.0139308
643.531	0.0139038
643.609	0.0140337
643.687	0.0141355
643.765	0.0138203
643.843	0.0138756
643.921	0.0139149
643.999	0.0137975
644.078	0.0139865
644.156	0.0139202
644.234	0.0139928
644.312	0.0138912
644.390	0.0139242
644.468	0.0138610
644.546	0.0139085
644.624	0.0139028
644.703	0.0138685
644.781	0.0138246
644.859	0.0139615
644.937	0.0138586
645.015	0.0139482
645.093	0.0139438
645.171	0.0140018
645.249	0.0140211
645.328	0.0139651
645.406	0.0141103
645.484	0.0140113
645.562	0.0139332
645.640	0.0140466
645.718	0.0140611
645.796	0.0139179
645.874	0.0139126
645.953	0.0139924
646.031	0.0139239
646.109	0.0138956
646.187	0.0139249
646.265	0.0139725
646.343	0.0139706
646.421	0.0139963
646.499	0.0138425
646.578	0.0138698
646.656	0.0140027
646.734	0.0140236
646.812	0.0140184
646.890	0.0138564
646.968	0.0139314
647.046	0.0140678
647.124	0.0138421
647.203	0.0139813
647.281	0.0140354
647.359	0.0138219
647.437	0.0139081
647.515	0.0139141
647.593	0.0139706
647.671	0.0138246
647.749	0.0140067
647.828	0.0139324
647.906	0.0139222
647.984	0.0137411
648.062	0.0138308
648.140	0.0140703
648.218	0.0138960
648.296	0.0138164
648.374	0.0139816
648.453	0.0139439
648.531	0.0140031
648.609	0.0138258
648.687	0.0140221
648.765	0.0140596
648.843	0.0140871
648.921	0.0140861
648.999	0.0138902
649.078	0.0138636
649.156	0.0140891
649.234	0.0139923
649.312	0.0138744
649.390	0.0139687
649.468	0.0140960
649.546	0.0140301
649.624	0.0139912
649.703	0.0139642
649.781	0.0138298
649.859	0.0139965
649.937	0.0140263
650.015	0.0139091
650.093	0.0140070
650.171	0.0139775
650.249	0.0139763
650.328	0.0139753
650.406	0.0138780
650.484	0.0139892
650.562	0.0141197
650.640	0.0140247
650.718	0.0141319
650.796	0.0138689
650.874	0.0139538
650.953	0.0137877
651.031	0.0140761
651.109	0.0139772
651.187	0.0139825
651.265	0.0139249
651.343	0.0140076
651.421	0.0140741
651.499	0.0140288
651.578	0.0140458
651.656	0.0140785
651.734	0.0139799
651.812	0.0139531
651.890	0.0139651
651.968	0.0139429
652.046	0.0138312
652.124	0.0139569
652.203	0.0138965
652.281	0.0139305
652.359	0.0139733
652.437	0.0139253
652.515	0.0138699
652.593	0.0138271
652.671	0.0137398
652.749	0.0139249
652.828	0.0139632
652.906	0.0140663
652.984	0.0140904
653.062	0.0140759
653.140	0.0138742
653.218	0.0139960
653.296	0.0139732
653.374	0.0140443
653.453	0.0139329
653.531	0.0141776
653.609	0.0141550
653.687	0.0138907
653.765	0.0138144
653.843	0.0139526
653.921	0.0139500
653.999	0.0138136
654.078	0.0138353
654.156	0.0138879
654.234	0.0139413
654.312	0.0137777
654.390	0.0138150
654.468	0.0139057
654.546	0.0141294
654.624	0.0139871
654.703	0.0138997
654.781	0.0142191
654.859	0.0141557
654.937	0.0141181
655.015	0.0140904
655.093	0.0140341
655.171	0.0142316
655.249	0.0141055
655.328	0.0141304
655.406	0.0140312
655.484	0.0137804
655.562	0.0139615
655.640	0.0138937
655.718	0.0138079
655.796	0.0137811
655.874	0.0137558
655.953	0.0138718
656.031	0.0139544
656.109	0.0138889
656.187	0.0139165
656.265	0.0140115
656.343	0.0140055
656.421	0.0140813
656.499	0.0141657
656.578	0.0141769
656.656	0.0140654
656.734	0.0140410
656.812	0.0142207
656.890	0.0140345
656.968	0.0140454
657.046	0.0140454
657.124	0.0140657
657.203	0.0140646
657.281	0.0139468
657.359	0.0140390
657.437	0.0140111
657.515	0.0138305
657.593	0.0138500
657.671	0.0139867
657.749	0.0139587
657.828	0.0138554
657.906	0.0140270
657.984	0.0140995
658.062	0.0140240
658.140	0.0140417
658.218	0.0140141
658.296	0.0140395
658.374	0.0140297
658.453	0.0140146
658.531	0.0139876
658.609	0.0140878
658.687	0.0140646
658.765	0.0140818
658.843	0.0140644
658.921	0.0140790
658.999	0.0139129
659.078	0.0140352
659.156	0.0140720
659.234	0.0139536
659.312	0.0139129
659.390	0.0139188
659.468	0.0140293
659.546	0.0138234
659.624	0.0138998
659.703	0.0138795
659.781	0.0138875
659.859	0.0137933
659.937	0.0137177
660.015	0.0138295
660.093	0.0139107
660.171	0.0139260
660.249	0.0138119
660.328	0.0139821
660.406	0.0139956
660.484	0.0140527
660.562	0.0139026
660.640	0.0140672
660.718	0.0139507
660.796	0.0140289
660.874	0.0142142
660.953	0.0140361
661.031	0.0140040
661.109	0.0140261
661.187	0.0140008
661.265	0.0141183
661.343	0.0139298
661.421	0.0139941
661.499	0.0140097
661.578	0.0140456
661.656	0.0139097
661.734	0.0138540
661.812	0.0139568
661.890	0.0138367
661.968	0.0138601
662.046	0.0137956
662.124	0.0139341
662.203	0.0138651
662.281	0.0139418
662.359	0.0139169
662.437	0.0139123
662.515	0.0140921
662.593	0.0140285
662.671	0.0139687
662.749	0.0140188
662.828	0.0139795
662.906	0.0138692
662.984	0.0140347
663.062	0.0141086
663.140	0.0141101
663.218	0.0139504
663.296	0.0140107
663.374	0.0141477
663.453	0.0139149
663.531	0.0139858
663.609	0.0139401
663.687	0.0139441
663.765	0.0137533
663.843	0.0138485
663.921	0.0139764
663.999	0.0139088
664.078	0.0139143
664.156	0.0138367
664.234	0.0137928
664.312	0.0137008
664.390	0.0138725
664.468	0.0138791
664.546	0.0139309
664.624	0.0139793
664.703	0.0138975
664.781	0.0138529
664.859	0.0139925
664.937	0.0139470
665.015	0.0139832
665.093	0.0138881
665.171	0.0140312
665.249	0.0140425
665.328	0.0141299
665.406	0.0140989
665.484	0.0138805
665.562	0.0139474
665.640	0.0139367
665.718	0.0139618
665.796	0.0139230
665.874	0.0140331
665.953	0.0137450
666.031	0.0138194
666.109	0.0139061
666.187	0.0138877
666.265	0.0140379
666.343	0.0140305
666.421	0.0138151
666.499	0.0138097
666.578	0.0138887
666.656	0.0137749
666.734	0.0138577
666.812	0.0138705
666.890	0.0137692
666.968	0.0139155
667.046	0.0139444
667.124	0.0138651
667.203	0.0139811
667.281	0.0140476
667.359	0.0141693
667.437	0.0140917
667.515	0.0140813
667.593	0.0142387
667.671	0.0142256
667.749	0.0141779
667.828	0.0141571
667.906	0.0142305
667.984	0.0140061
668.062	0.0138686
668.140	0.0139063
668.218	0.0138074
668.296	0.0138950
668.374	0.0138428
668.453	0.0139075
668.531	0.0139336
668.609	0.0139229
668.687	0.0140915
668.765	0.0140643
668.843	0.0141472
668.921	0.0139040
668.999	0.0142474
669.078	0.0142049
669.156	0.0140630
669.234	0.0139841
669.312	0.0138385
669.390	0.0138525
669.468	0.0139908
669.546	0.0139449
669.624	0.0138750
669.703	0.0139136
669.781	0.0139281
669.859	0.0138988
669.937	0.0138931
670.015	0.0138937
670.093	0.0139423
670.171	0.0139115
670.249	0.0138223
670.328	0.0137391
670.406	0.0137244
670.484	0.0136847
670.562	0.0136747
670.640	0.0136665
670.718	0.0137646
670.796	0.0138813
670.874	0.0138800
670.953	0.0138428
671.031	0.0140172
671.109	0.0142666
671.187	0.0142716
671.265	0.0142208
671.343	0.0143309
671.421	0.0142434
671.499	0.0142602
671.578	0.0141969
671.656	0.0141830
671.734	0.0141280
671.812	0.0138811
671.890	0.0138507
671.968	0.0139675
672.046	0.0138271
672.124	0.0137856
672.203	0.0136456
672.281	0.0136871
672.359	0.0137563
672.437	0.0138539
672.515	0.0139198
672.593	0.0140166
672.671	0.0140155
672.749	0.0139899
672.828	0.0140415
672.906	0.0139841
672.984	0.0139376
673.062	0.0140472
673.140	0.0142261
673.218	0.0140961
673.296	0.0138860
673.374	0.0141460
673.453	0.0139910
673.531	0.0139667
673.609	0.0140304
673.687	0.0138835
673.765	0.0139796
673.843	0.0138699
673.921	0.0138277
673.999	0.0138964
674.078	0.0137763
674.156	0.0137738
674.234	0.0136222
674.312	0.0135493
674.390	0.0136443
674.468	0.0134624
674.546	0.0135526
674.624	0.0134913
674.703	0.0135696
674.781	0.0135697
674.859	0.0136791
674.937	0.0134862
675.015	0.0136987
675.093	0.0139076
675.171	0.0140415
675.249	0.0140084
675.328	0.0140408
675.406	0.0142240
675.484	0.0142577
675.562	0.0142187
675.640	0.0143181
675.718	0.0142433
675.796	0.0141777
675.874	0.0143009
675.953	0.0141965
676.031	0.0141702
676.109	0.0142020
676.187	0.0141988
676.265	0.0142091
676.343	0.0141862
676.421	0.0142894
676.499	0.0143845
676.578	0.0142465
676.656	0.0142612
676.734	0.0142578
676.812	0.0142068
676.890	0.0141367
676.968	0.0140705
677.046	0.0141698
677.124	0.0140823
677.203	0.0140014
677.281	0.0140127
677.359	0.0139690
677.437	0.0139861
677.515	0.0138509
677.593	0.0139281
677.671	0.0138493
677.749	0.0138510
677.828	0.0137241
677.906	0.0136547
677.984	0.0137614
678.062	0.0136292
678.140	0.0134753
678.218	0.0136210
678.296	0.0134581
678.374	0.0135501
678.453	0.0136883
678.531	0.0136961
678.609	0.0136794
678.687	0.0137859
678.765	0.0139037
678.843	0.0140309
678.921	0.0140278
678.999	0.0140858
679.078	0.0140472
679.156	0.0142962
679.234	0.0143420
679.312	0.0142130
679.390	0.0141518
679.468	0.0138880
679.546	0.0141045
679.624	0.0140390
679.703	0.0139418
679.781	0.0139190
679.859	0.0138823
679.937	0.0138469
680.015	0.0139809
680.093	0.0140947
680.171	0.0140527
680.249	0.0140461
680.328	0.0140894
680.406	0.0141992
680.484	0.0143282
680.562	0.0143558
680.640	0.0143137
680.718	0.0142461
680.796	0.0142201
680.874	0.0142377
680.953	0.0143777
681.031	0.0141818
681.109	0.0143001
681.187	0.0142410
681.265	0.0141140
681.343	0.0141827
681.421	0.0140924
681.499	0.0139982
681.578	0.0141305
681.656	0.0139516
681.734	0.0138807
681.812	0.0138265
681.890	0.0138850
681.968	0.0137492
682.046	0.0138571
682.124	0.0138319
682.203	0.0137496
682.281	0.0138522
682.359	0.0139099
682.437	0.0138828
682.515	0.0141024
682.593	0.0140789
682.671	0.0141603
682.749	0.0141347
682.828	0.0140488
682.906	0.0140050
682.984	0.0140651
683.062	0.0139702
683.140	0.0140783
683.218	0.0139635
683.296	0.0137012
683.374	0.0137788
683.453	0.0138752
683.531	0.0135583
683.609	0.0137198
683.687	0.0138702
683.765	0.0138060
683.843	0.0140175
683.921	0.0137693
683.999	0.0139981
684.078	0.0139944
684.156	0.0139011
684.234	0.0139597
684.312	0.0139962
684.390	0.0139616
684.468	0.0138321
684.546	0.0139436
684.624	0.0140287
684.703	0.0137703
684.781	0.0137486
684.859	0.0139316
684.937	0.0140463
685.015	0.0138490
685.093	0.0138152
685.171	0.0137990
685.249	0.0137756
685.328	0.0136830
685.406	0.0137981
685.484	0.0138503
685.562	0.0138316
685.640	0.0138170
685.718	0.0139311
685.796	0.0141138
685.874	0.0141930
685.953	0.0143554
686.031	0.0144095
686.109	0.0144633
686.187	0.0144050
686.265	0.0144753
686.343	0.0145060
686.421	0.0144553
686.499	0.0144357
686.578	0.0142412
686.656	0.0140556
686.734	0.0140491
686.812	0.0141043
686.890	0.0139296
686.968	0.0139713
687.046	0.0138602
687.124	0.0138190
687.203	0.0139034
687.281	0.0138219
687.359	0.0136624
687.437	0.0137197
687.515	0.0139017
687.593	0.0139265
687.671	0.0138163
687.749	0.0139270
687.828	0.0140204
687.906	0.0140464
687.984	0.0140278
688.062	0.0139207
688.140	0.0137917
688.218	0.0139283
688.296	0.0140127
688.374	0.0139866
688.453	0.0137631
688.531	0.0137112
688.609	0.0138248
688.687	0.0137074
688.765	0.0136730
688.843	0.0137083
688.921	0.0135818
688.999	0.0136823
689.078	0.0137775
689.156	0.0137135
689.234	0.0137148
689.312	0.0137607
689.390	0.0137332
689.468	0.0138331
689.546	0.0138297
689.624	0.0138604
689.703	0.0138899
689.781	0.0139650
689.859	0.0137346
689.937	0.0138329
690.015	0.0138776
690.093	0.0136913
690.171	0.0138508
690.249	0.0140381
690.328	0.0139227
690.406	0.0138635
690.484	0.0138061
690.562	0.0139802
690.640	0.0139320
690.718	0.0138966
690.796	0.0138271
690.874	0.0140171
690.953	0.0139735
691.031	0.0140170
691.109	0.0139255
691.187	0.0139794
691.265	0.0139875
691.343	0.0141488
691.421	0.0142391
691.499	0.0142123
691.578	0.0143887
691.656	0.0144264
691.734	0.0144196
691.812	0.0143063
691.890	0.0143907
691.968	0.0144568
692.046	0.0144315
692.124	0.0144538
692.203	0.0144783
692.281	0.0143034
692.359	0.0144121
692.437	0.0144620
692.515	0.0144219
692.593	0.0144316
692.671	0.0144254
692.749	0.0143775
692.828	0.0143481
692.906	0.0141580
692.984	0.0140125
693.062	0.0139758
693.140	0.0139531
693.218	0.0139774
693.296	0.0136802
693.374	0.0135735
693.453	0.0137253
693.531	0.0136880
693.609	0.0135912
693.687	0.0137370
693.765	0.0135917
693.843	0.0137180
693.921	0.0136565
693.999	0.0136524
694.078	0.0134793
694.156	0.0134756
694.234	0.0134841
694.312	0.0135090
694.390	0.0134292
694.468	0.0134343
694.546	0.0133833
694.624	0.0133962
694.703	0.0133257
694.781	0.0134703
694.859	0.0134883
694.937	0.0136027
695.015	0.0135529
695.093	0.0136145
695.171	0.0136964
695.249	0.0138069
695.328	0.0138216
695.406	0.0138734
695.484	0.0140320
695.562	0.0140091
695.640	0.0141908
695.718	0.0141427
695.796	0.0142316
695.874	0.0141684
695.953	0.0141414
696.031	0.0141008
696.109	0.0142097
696.187	0.0140829
696.265	0.0141419
696.343	0.0141286
696.421	0.0140710
696.499	0.0141563
696.578	0.0141265
696.656	0.0140265
696.734	0.0141272
696.812	0.0141347
696.890	0.0142393
696.968	0.0141405
697.046	0.0141410
697.124	0.0141955
697.203	0.0143656
697.281	0.0144552
697.359	0.0143285
697.437	0.0144052
697.515	0.0144763
697.593	0.0144534
697.671	0.0142680
697.749	0.0143375
697.828	0.0143965
697.906	0.0143101
697.984	0.0142730
698.062	0.0142271
698.140	0.0139951
698.218	0.0139226
698.296	0.0139723
698.374	0.0138304
698.453	0.0138332
698.531	0.0139627
698.609	0.0139030
698.687	0.0137833
698.765	0.0139196
698.843	0.0137442
698.921	0.0138707
698.999	0.0138305
699.078	0.0140538
699.156	0.0138917
699.234	0.0138875
699.312	0.0139143
699.390	0.0138953
699.468	0.0137069
699.546	0.0135473
699.624	0.0135114
699.703	0.0134177
699.781	0.0136005
699.859	0.0134441
699.937	0.0132621
700.015	0.0133208
700.093	0.0133905
700.171	0.0133808
700.249	0.0133541
700.328	0.0134289
700.406	0.0134260
700.484	0.0135182
700.562	0.0135446
700.640	0.0136109
700.718	0.0138663
700.796	0.0139854
700.874	0.0139350
700.953	0.0139419
701.031	0.0141537
701.109	0.0142822
701.187	0.0143993
701.265	0.0142976
701.343	0.0142561
701.421	0.0142982
701.499	0.0143042
701.578	0.0143641
701.656	0.0142607
701.734	0.0141758
701.812	0.0140997
701.890	0.0141161
701.968	0.0140735
702.046	0.0138435
702.124	0.0139056
702.203	0.0138485
702.281	0.0139955
702.359	0.0138866
702.437	0.0140336
702.515	0.0141742
702.593	0.0142331
702.671	0.0143441
702.749	0.0143777
702.828	0.0144953
702.906	0.0145591
702.984	0.0147211
703.062	0.0147415
703.140	0.0148261
703.218	0.0147695
703.296	0.0148312
703.374	0.0147263
703.453	0.0146780
703.531	0.0145205
703.609	0.0143825
703.687	0.0142990
703.765	0.0142734
703.843	0.0140130
703.921	0.0139849
703.999	0.0139697
704.078	0.0137180
704.156	0.0137652
704.234	0.0137771
704.312	0.0136823
704.390	0.0135026
704.468	0.0134901
704.546	0.0136237
704.624	0.0134977
704.703	0.0135107
704.781	0.0135338
704.859	0.0134603
704.937	0.0136070
705.015	0.0135229
705.093	0.0134322
705.171	0.0135232
705.249	0.0135409
705.328	0.0134421
705.406	0.0134464
705.484	0.0135890
705.562	0.0134857
705.640	0.0136120
705.718	0.0135768
705.796	0.0136899
705.874	0.0136621
705.953	0.0137428
706.031	0.0138088
706.109	0.0140582
706.187	0.0138746
706.265	0.0138687
706.343	0.0139928
706.421	0.0141345
706.499	0.0141785
706.578	0.0142457
706.656	0.0142171
706.734	0.0141721
706.812	0.0142722
706.890	0.0143922
706.968	0.0142099
707.046	0.0142523
707.124	0.0141447
707.203	0.0141801
707.281	0.0142179
707.359	0.0141549
707.437	0.0141693
707.515	0.0142103
707.593	0.0141213
707.671	0.0141952
707.749	0.0141096
707.828	0.0141756
707.906	0.0144980
707.984	0.0143530
708.062	0.0142146
708.140	0.0142423
708.218	0.0142286
708.296	0.0146025
708.374	0.0145277
708.453	0.0146023
708.531	0.0145582
708.609	0.0147816
708.687	0.0147088
708.765	0.0148298
708.843	0.0148896
708.921	0.0147807
708.999	0.0147205
709.078	0.0145693
709.156	0.0143370
709.234	0.0141779
709.312	0.0142177
709.390	0.0140866
709.468	0.0138950
709.546	0.0136574
709.624	0.0135133
709.703	0.0134321
709.781	0.0135090
709.859	0.0134623
709.937	0.0134709
710.015	0.0134325
710.093	0.0133859
710.171	0.0134434
710.249	0.0133506
710.328	0.0134029
710.406	0.0132774
710.484	0.0134856
710.562	0.0133516
710.640	0.0133440
710.718	0.0133872
710.796	0.0134787
710.874	0.0132294
710.953	0.0133538
711.031	0.0133530
711.109	0.0134529
711.187	0.0136241
711.265	0.0135648
711.343	0.0135003
711.421	0.0137357
711.499	0.0137973
711.578	0.0139040
711.656	0.0140060
711.734	0.0138519
711.812	0.0140431
711.890	0.0140990
711.968	0.0142610
712.046	0.0141467
712.124	0.0141694
712.203	0.0142989
712.281	0.0142783
712.359	0.0141650
712.437	0.0142049
712.515	0.0141221
712.593	0.0139283
712.671	0.0140611
712.749	0.0140189
712.828	0.0140304
712.906	0.0141483
712.984	0.0141738
713.062	0.0138753
713.140	0.0140828
713.218	0.0139980
713.296	0.0140134
713.374	0.0140864
713.453	0.0140736
713.531	0.0142351
713.609	0.0142504
713.687	0.0143002
713.765	0.0142799
713.843	0.0144672
713.921	0.0145065
713.999	0.0145344
714.078	0.0146518
714.156	0.0147645
714.234	0.0148322
714.312	0.0146970
714.390	0.0148197
714.468	0.0146508
714.546	0.0145534
714.624	0.0144458
714.703	0.0144386
714.781	0.0143488
714.859	0.0141788
714.937	0.0141241
715.015	0.0140280
715.093	0.0138391
715.171	0.0138632
715.249	0.0138189
715.328	0.0136694
715.406	0.0135571
715.484	0.0134290
715.562	0.0135015
715.640	0.0135609
715.718	0.0134424
715.796	0.0133598
715.874	0.0133019
715.953	0.0133589
716.031	0.0133185
716.109	0.0133697
716.187	0.0133363
716.265	0.0133088
716.343	0.0133260
716.421	0.0133288
716.499	0.0132127
716.578	0.0133022
716.656	0.0132552
716.734	0.0133595
716.812	0.0135329
716.890	0.0135044
716.968	0.0134006
717.046	0.0137341
717.124	0.0136756
717.203	0.0138964
717.281	0.0138811
717.359	0.0140345
717.437	0.0141006
717.515	0.0141497
717.593	0.0142793
717.671	0.0143466
717.749	0.0143336
717.828	0.0143117
717.906	0.0143765
717.984	0.0142191
718.062	0.0144834
718.140	0.0143613
718.218	0.0141940
718.296	0.0143188
718.374	0.0143476
718.453	0.0142384
718.531	0.0142669
718.609	0.0143673
718.687	0.0141667
718.765	0.0142497
718.843	0.0142290
718.921	0.0140417
718.999	0.0140417
719.078	0.0141418
719.156	0.0140757
719.234	0.0141775
719.312	0.0140391
719.390	0.0139064
719.468	0.0141017
719.546	0.0139501
719.624	0.0141111
719.703	0.0141935
719.781	0.0141381
719.859	0.0142106
719.937	0.0143170
720.015	0.0143195
720.093	0.0143452
720.171	0.0144451
720.249	0.0143600
720.328	0.0144201
720.406	0.0142703
720.484	0.0142152
720.562	0.0142566
720.640	0.0140954
720.718	0.0141331
720.796	0.0141136
720.874	0.0139802
720.953	0.0140406
721.031	0.0137593
721.109	0.0137400
721.187	0.0138964
721.265	0.0136217
721.343	0.0136017
721.421	0.0136684
721.499	0.0134521
721.578	0.0136704
721.656	0.0135855
721.734	0.0133875
721.812	0.0134611
721.890	0.0134296
721.968	0.0132648
722.046	0.0131640
722.124	0.0131707
722.203	0.0133060
722.281	0.0132877
722.359	0.0133405
722.437	0.0134186
722.515	0.0133597
722.593	0.0135871
722.671	0.0137258
722.749	0.0137961
722.828	0.0139238
722.906	0.0139777
722.984	0.0142581
723.062	0.0141681
723.140	0.0141962
723.218	0.0141530
723.296	0.0143611
723.374	0.0143458
723.453	0.0143932
723.531	0.0143938
723.609	0.0143291
723.687	0.0143428
723.765	0.0144315
723.843	0.0143714
723.921	0.0142970
723.999	0.0143110
724.078	0.0141677
724.156	0.0141630
724.234	0.0141562
724.312	0.0141164
724.390	0.0139766
724.468	0.0139844
724.546	0.0140258
724.624	0.0138833
724.703	0.0138341
724.781	0.0138467
724.859	0.0139879
724.937	0.0139049
725.015	0.0138226
725.093	0.0139780
725.171	0.0141633
725.249	0.0141615
725.328	0.0142393
725.406	0.0142027
725.484	0.0144798
725.562	0.0145233
725.640	0.0147152
725.718	0.0146293
725.796	0.0146200
725.874	0.0147117
725.953	0.0146214
726.031	0.0144715
726.109	0.0143443
726.187	0.0144410
726.265	0.0143349
726.343	0.0141537
726.421	0.0140401
726.499	0.0140466
726.578	0.0139728
726.656	0.0139240
726.734	0.0136644
726.812	0.0137786
726.890	0.0135742
726.968	0.0133244
727.046	0.0135986
727.124	0.0134558
727.203	0.0134872
727.281	0.0132796
727.359	0.0133594
727.437	0.0133884
727.515	0.0134148
727.593	0.0133320
727.671	0.0133112
727.749	0.0131808
727.828	0.0133511
727.906	0.0133517
727.984	0.0134210
728.062	0.0134335
728.140	0.0135089
728.218	0.0135227
728.296	0.0138251
728.374	0.0138519
728.453	0.0140000
728.531	0.0141457
728.609	0.0142444
728.687	0.0144966
728.765	0.0143562
728.843	0.0145226
728.921	0.0144530
728.999	0.0145542
729.078	0.0144827
729.156	0.0145216
729.234	0.0145239
729.312	0.0143687
729.390	0.0144073
729.468	0.0143785
729.546	0.0141853
729.624	0.0143324
729.703	0.0141908
729.781	0.0141338
729.859	0.0141927
729.937	0.0141542
730.015	0.0140565
730.093	0.0139675
730.171	0.0139845
730.249	0.0140096
730.328	0.0139234
730.406	0.0139260
730.484	0.0138766
730.562	0.0138948
730.640	0.0139005
730.718	0.0139725
730.796	0.0140576
730.874	0.0140788
730.953	0.0140340
731.031	0.0139761
731.109	0.0142186
731.187	0.0144056
731.265	0.0143559
731.343	0.0144055
731.421	0.0144875
731.499	0.0144146
731.578	0.0143925
731.656	0.0144031
731.734	0.0144285
731.812	0.0143736
731.890	0.0141404
731.968	0.0141505
732.046	0.0140937
732.124	0.0141139
732.203	0.0139789
732.281	0.0139167
732.359	0.0138409
732.437	0.0137424
732.515	0.0136991
732.593	0.0135936
732.671	0.0135246
732.749	0.0136746
732.828	0.0136726
732.906	0.0134670
732.984	0.0134837
733.062	0.0136095
733.140	0.0136481
733.218	0.0136066
733.296	0.0136584
733.374	0.0136455
733.453	0.0137494
733.531	0.0136484
733.609	0.0137115
733.687	0.0138988
733.765	0.0139494
733.843	0.0138702
733.921	0.0140871
733.999	0.0140029
734.078	0.0141390
734.156	0.0141639
734.234	0.0142516
734.312	0.0143341
734.390	0.0142937
734.468	0.0143039
734.546	0.0143102
734.624	0.0143073
734.703	0.0143532
734.781	0.0141857
734.859	0.0141574
734.937	0.0140084
735.015	0.0139780
735.093	0.0139406
735.171	0.0140103
735.249	0.0140056
735.328	0.0141180
735.406	0.0141080
735.484	0.0140164
735.562	0.0141547
735.640	0.0139905
735.718	0.0140237
735.796	0.0141081
735.874	0.0139452
735.953	0.0141742
736.031	0.0141360
736.109	0.0139952
736.187	0.0140710
736.265	0.0141040
736.343	0.0140688
736.421	0.0140280
736.499	0.0140098
736.578	0.0141949
736.656	0.0141948
736.734	0.0140631
736.812	0.0141556
736.890	0.0142475
736.968	0.0143466
737.046	0.0141639
737.124	0.0141616
737.203	0.0142435
737.281	0.0141682
737.359	0.0140806
737.437	0.0141451
737.515	0.0140966
737.593	0.0141141
737.671	0.0140158
737.749	0.0140022
737.828	0.0139049
737.906	0.0141097
737.984	0.0140423
738.062	0.0138084
738.140	0.0139458
738.218	0.0138446
738.296	0.0136714
738.374	0.0136778
738.453	0.0137032
738.531	0.0136909
738.609	0.0137758
738.687	0.0136951
738.765	0.0135232
738.843	0.0137016
738.921	0.0136805
738.999	0.0137365
739.078	0.0135104
739.156	0.0136247
739.234	0.0137623
739.312	0.0137985
739.390	0.0138052
739.468	0.0138251
739.546	0.0138858
739.624	0.0139518
739.703	0.0140185
739.781	0.0141173
739.859	0.0140289
739.937	0.0140952
740.015	0.0142149
740.093	0.0142964
740.171	0.0142677
740.249	0.0142681
740.328	0.0144041
740.406	0.0141623
740.484	0.0141905
740.562	0.0141218
740.640	0.0141417
740.718	0.0141470
740.796	0.0141589
740.874	0.0139827
740.953	0.0140509
741.031	0.0141975
741.109	0.0140866
741.187	0.0141599
741.265	0.0141576
741.343	0.0140591
741.421	0.0140548
741.499	0.0140087
741.578	0.0141541
741.656	0.0140267
741.734	0.0140558
741.812	0.0139158
741.890	0.0140434
741.968	0.0140764
742.046	0.0141234
742.124	0.0140131
742.203	0.0140610
742.281	0.0141609
742.359	0.0140224
742.437	0.0139677
742.515	0.0140921
742.593	0.0140021
742.671	0.0141621
742.749	0.0140836
742.828	0.0139606
742.906	0.0139892
742.984	0.0140806
743.062	0.0140082
743.140	0.0140381
743.218	0.0141023
743.296	0.0141557
743.374	0.0141026
743.453	0.0139671
743.531	0.0140051
743.609	0.0141652
743.687	0.0140676
743.765	0.0140802
743.843	0.0140414
743.921	0.0140915
743.999	0.0141100
744.078	0.0141087
744.156	0.0141174
744.234	0.0138631
744.312	0.0139865
744.390	0.0140045
744.468	0.0137811
744.546	0.0138197
744.624	0.0139351
744.703	0.0139260
744.781	0.0138873
744.859	0.0137786
744.937	0.0137003
745.015	0.0138533
745.093	0.0138179
745.171	0.0137402
745.249	0.0138280
745.328	0.0137670
745.406	0.0138049
745.484	0.0137851
745.562	0.0138257
745.640	0.0139665
745.718	0.0140509
745.796	0.0140931
745.874	0.0140917
745.953	0.0142308
746.031	0.0142464
746.109	0.0142046
746.187	0.0142238
746.265	0.0140788
746.343	0.0143575
746.421	0.0142101
746.499	0.0141965
746.578	0.0142193
746.656	0.0141075
746.734	0.0142326
746.812	0.0140301
746.890	0.0141286
746.968	0.0141084
747.046	0.0138840
747.124	0.0140099
747.203	0.0141064
747.281	0.0139004
747.359	0.0140451
747.437	0.0140546
747.515	0.0139979
747.593	0.0139200
747.671	0.0140380
747.749	0.0139056
747.828	0.0139087
747.906	0.0139319
747.984	0.0138898
748.062	0.0139841
748.140	0.0140951
748.218	0.0138395
748.296	0.0141312
748.374	0.0141066
748.453	0.0142341
748.531	0.0140187
748.609	0.0140497
748.687	0.0140102
748.765	0.0140513
748.843	0.0141095
748.921	0.0141502
748.999	0.0141303
749.078	0.0141499
749.156	0.0141581
749.234	0.0141360
749.312	0.0140204
749.390	0.0141351
749.468	0.0140952
749.546	0.0140201
749.624	0.0140611
749.703	0.0139938
749.781	0.0139713
749.859	0.0139697
749.937	0.0137673
750.015	0.0137666
750.093	0.0139401
750.171	0.0137730
750.249	0.0137945
750.328	0.0137237
750.406	0.0136407
750.484	0.0139056
750.562	0.0138266
750.640	0.0138727
750.718	0.0137869
750.796	0.0137876
750.874	0.0138975
750.953	0.0139485
751.031	0.0139477
751.109	0.0139022
751.187	0.0138964
751.265	0.0140687
751.343	0.0139816
751.421	0.0139329
751.499	0.0138605
751.578	0.0140286
751.656	0.0140986
751.734	0.0141180
751.812	0.0142026
751.890	0.0142048
751.968	0.0141602
752.046	0.0141621
752.124	0.0141509
752.203	0.0142993
752.281	0.0141225
752.359	0.0141240
752.437	0.0141203
752.515	0.0142059
752.593	0.0141019
752.671	0.0141673
752.749	0.0140543
752.828	0.0139574
752.906	0.0140584
752.984	0.0138803
753.062	0.0138995
753.140	0.0138549
753.218	0.0138766
753.296	0.0137272
753.374	0.0137460
753.453	0.0137340
753.531	0.0137900
753.609	0.0138465
753.687	0.0139305
753.765	0.0137784
753.843	0.0138681
753.921	0.0140240
753.999	0.0139041
754.078	0.0140774
754.156	0.0140247
754.234	0.0140974
754.312	0.0140571
754.390	0.0140294
754.468	0.0141705
754.546	0.0141545
754.624	0.0140804
754.703	0.0139426
754.781	0.0140446
754.859	0.0141220
754.937	0.0140534
755.015	0.0139844
755.093	0.0140679
755.171	0.0138818
755.249	0.0139999
755.328	0.0138949
755.406	0.0139412
755.484	0.0140080
755.562	0.0138119
755.640	0.0138465
755.718	0.0139891
755.796	0.0138864
755.874	0.0139053
755.953	0.0138627
756.031	0.0139023
756.109	0.0139170
756.187	0.0138484
756.265	0.0139702
756.343	0.0139847
756.421	0.0139292
756.499	0.0139733
756.578	0.0139231
756.656	0.0139459
756.734	0.0138942
756.812	0.0138986
756.890	0.0138248
756.968	0.0138378
757.046	0.0139600
757.124	0.0139856
757.203	0.0139738
757.281	0.0140915
757.359	0.0140445
757.437	0.0138002
757.515	0.0139560
757.593	0.0139256
757.671	0.0139530
757.749	0.0139668
757.828	0.0139913
757.906	0.0140255
757.984	0.0140639
758.062	0.0138638
758.140	0.0140108
758.218	0.0138877
758.296	0.0140833
758.374	0.0140173
758.453	0.0140159
758.531	0.0139045
758.609	0.0137815
758.687	0.0139041
758.765	0.0139000
758.843	0.0138679
758.921	0.0138015
758.999	0.0138954
759.078	0.0138477
759.156	0.0139262
759.234	0.0140331
759.312	0.0139506
759.390	0.0138846
759.468	0.0140144
759.546	0.0139796
759.624	0.0139703
759.703	0.0138763
759.781	0.0140860
759.859	0.0139568
759.937	0.0140213
760.015	0.0139291
760.093	0.0140530
760.171	0.0138549
760.249	0.0139643
760.328	0.0139036
760.406	0.0138191
760.484	0.0139635
760.562	0.0139406
760.640	0.0139347
760.718	0.0138622
760.796	0.0138490
760.874	0.0139353
760.953	0.0139661
761.031	0.0140027
761.109	0.0139490
761.187	0.0139387
761.265	0.0140327
761.343	0.0139091
761.421	0.0139542
761.499	0.0138463
761.578	0.0139245
761.656	0.0140905
761.734	0.0141128
761.812	0.0139536
761.890	0.0138374
761.968	0.0139552
762.046	0.0141116
762.124	0.0138575
762.203	0.0138382
762.281	0.0139398
762.359	0.0137911
762.437	0.0137407
762.515	0.0138376
762.593	0.0138254
762.671	0.0139771
762.749	0.0138129
762.828	0.0139383
762.906	0.0138986
762.984	0.0139291
763.062	0.0139024
763.140	0.0139885
763.218	0.0140678
763.296	0.0141130
763.374	0.0140070
763.453	0.0139998
763.531	0.0140398
763.609	0.0141564
763.687	0.0141161
763.765	0.0138686
763.843	0.0139416
763.921	0.0141393
763.999	0.0140688
764.078	0.0140745
764.156	0.0139641
764.234	0.0138858
764.312	0.0139766
764.390	0.0139401
764.468	0.0138992
764.546	0.0140057
764.624	0.0139825
764.703	0.0140150
764.781	0.0138022
764.859	0.0137685
764.937	0.0138007
765.015	0.0139061
765.093	0.0139862
765.171	0.0139506
765.249	0.0137625
765.328	0.0138161
765.406	0.0138532
765.484	0.0138502
765.562	0.0137812
765.640	0.0137365
765.718	0.0138136
765.796	0.0138534
765.874	0.0138591
765.953	0.0138116
766.031	0.0138573
766.109	0.0139706
766.187	0.0140614
766.265	0.0138184
766.343	0.0138933
766.421	0.0139747
766.499	0.0139890
766.578	0.0139141
766.656	0.0140884
766.734	0.0140054
766.812	0.0139656
766.890	0.0141214
766.968	0.0140527
767.046	0.0139447
767.124	0.0140663
767.203	0.0141704
767.281	0.0141182
767.359	0.0140597
767.437	0.0140498
767.515	0.0139447
767.593	0.0140004
767.671	0.0139853
767.749	0.0140316
767.828	0.0140010
767.906	0.0140129
767.984	0.0140181
768.062	0.0140106
768.140	0.0140318
768.218	0.0139172
768.296	0.0139479
768.374	0.0137993
768.453	0.0138503
768.531	0.0138341
768.609	0.0137378
768.687	0.0137765
768.765	0.0139547
768.843	0.0137958
768.921	0.0137970
768.999	0.0138149
769.078	0.0139438
769.156	0.0139194
769.234	0.0140318
769.312	0.0139388
769.390	0.0140040
769.468	0.0139172
769.546	0.0139510
769.624	0.0139960
769.703	0.0139826
769.781	0.0138544
769.859	0.0140212
769.937	0.0140543
770.015	0.0139403
770.093	0.0139285
770.171	0.0139142
770.249	0.0139600
770.328	0.0139783
770.406	0.0139090
770.484	0.0137704
770.562	0.0139697
770.640	0.0139439
770.718	0.0139160
770.796	0.0137795
770.874	0.0139717
770.953	0.0140265
771.031	0.0140757
771.109	0.0139754
771.187	0.0138876
771.265	0.0139616
771.343	0.0140682
771.421	0.0139251
771.499	0.0140900
771.578	0.0139241
771.656	0.0140380
771.734	0.0140842
771.812	0.0140076
771.890	0.0139994
771.968	0.0140923
772.046	0.0140167
772.124	0.0140096
772.203	0.0141376
772.281	0.0143013
772.359	0.0140599
772.437	0.0140610
772.515	0.0141230
772.593	0.0141120
772.671	0.0140713
772.749	0.0141412
772.828	0.0140721
772.906	0.0140883
772.984	0.0140958
773.062	0.0140332
773.140	0.0139810
773.218	0.0138871
773.296	0.0139296
773.374	0.0139246
773.453	0.0137865
773.531	0.0138781
773.609	0.0138667
773.687	0.0139276
773.765	0.0140275
773.843	0.0138428
773.921	0.0137205
773.999	0.0139509
774.078	0.0137699
774.156	0.0139335
774.234	0.0140270
774.312	0.0138326
774.390	0.0139565
774.468	0.0139573
774.546	0.0140104
774.624	0.0138749
774.703	0.0140019
774.781	0.0140312
774.859	0.0140947
774.937	0.0140567
775.015	0.0139251
775.093	0.0141277
775.171	0.0140018
775.249	0.0138339
775.328	0.0139678
775.406	0.0140694
775.484	0.0139994
775.562	0.0139460
775.640	0.0140263
775.718	0.0139999
775.796	0.0139980
775.874	0.0140164
775.953	0.0140160
776.031	0.0139660
776.109	0.0138901
776.187	0.0140053
776.265	0.0141130
776.343	0.0139893
776.421	0.0138955
776.499	0.0139948
776.578	0.0139884
776.656	0.0140560
776.734	0.0139433
776.812	0.0139211
776.890	0.0139570
776.968	0.0139221
777.046	0.0138583
777.124	0.0139180
777.203	0.0140464
777.281	0.0139734
777.359	0.0138802
777.437	0.0138731
777.515	0.0139034
777.593	0.0139953
777.671	0.0138271
777.749	0.0139185
777.828	0.0138879
777.906	0.0139802
777.984	0.0139505
778.062	0.0139520
778.140	0.0140706
778.218	0.0138770
778.296	0.0139674
778.374	0.0141027
778.453	0.0140241
778.531	0.0141204
778.609	0.0139968
778.687	0.0139486
778.765	0.0139418
778.843	0.0139413
778.921	0.0139742
778.999	0.0140364
779.078	0.0139550
779.156	0.0138391
779.234	0.0138222
779.312	0.0137767
779.390	0.0138122
779.468	0.0138881
779.546	0.0138146
779.624	0.0137490
779.703	0.0138196
779.781	0.0138676
779.859	0.0139038
779.937	0.0137811
780.015	0.0138628
780.093	0.0137159
780.171	0.0139536
780.249	0.0140851
780.328	0.0139533
780.406	0.0139497
780.484	0.0139841
780.562	0.0139924
780.640	0.0140013
780.718	0.0138851
780.796	0.0139107
780.874	0.0139573
780.953	0.0139599
781.031	0.0138080
781.109	0.0138209
781.187	0.0138487
781.265	0.0138761
781.343	0.0137726
781.421	0.0137228
781.499	0.0137384
781.578	0.0137508
781.656	0.0138967
781.734	0.0138887
781.812	0.0138522
781.890	0.0137906
781.968	0.0139109
782.046	0.0139523
782.124	0.0139352
782.203	0.0139628
782.281	0.0140215
782.359	0.0138411
782.437	0.0139594
782.515	0.0139948
782.593	0.0139550
782.671	0.0141453
782.749	0.0139601
782.828	0.0141164
782.906	0.0141272
782.984	0.0138113
783.062	0.0139464
783.140	0.0139776
783.218	0.0139597
783.296	0.0141016
783.374	0.0139963
783.453	0.0140363
783.531	0.0140560
783.609	0.0139763
783.687	0.0140777
783.765	0.0137645
783.843	0.0139031
783.921	0.0139472
783.999	0.0139745
784.078	0.0138314
784.156	0.0137900
784.234	0.0138737
784.312	0.0139170
784.390	0.0139913
784.468	0.0139712
784.546	0.0139765
784.624	0.0140032
784.703	0.0138818
784.781	0.0139297
784.859	0.0138162
784.937	0.0139513
785.015	0.0138840
785.093	0.0139056
785.171	0.0141159
785.249	0.0140112
785.328	0.0139359
785.406	0.0138487
785.484	0.0139034
785.562	0.0138293
785.640	0.0137224
785.718	0.0138071
785.796	0.0139191
785.874	0.0139230
785.953	0.0139153
786.031	0.0139480
786.109	0.0139087
786.187	0.0138618
786.265	0.0138963
786.343	0.0140047
786.421	0.0138457
786.499	0.0139047
786.578	0.0140093
786.656	0.0139333
786.734	0.0137726
786.812	0.0140537
786.890	0.0139286
786.968	0.0139378
787.046	0.0140736
787.124	0.0140069
787.203	0.0140928
787.281	0.0140240
787.359	0.0140521
787.437	0.0139178
787.515	0.0139160
787.593	0.0140373
787.671	0.0140514
787.749	0.0140778
787.828	0.0140258
787.906	0.0140762
787.984	0.0142694
788.062	0.0141032
788.140	0.0139899
788.218	0.0139719
788.296	0.0140945
788.374	0.0141042
788.453	0.0140401
788.531	0.0140766
788.609	0.0140830
788.687	0.0141224
788.765	0.0139738
788.843	0.0139335
788.921	0.0138139
788.999	0.0139292
789.078	0.0138374
789.156	0.0137098
789.234	0.0139334
789.312	0.0138606
789.390	0.0138414
789.468	0.0139226
789.546	0.0138946
789.624	0.0138519
789.703	0.0139707
789.781	0.0139625
789.859	0.0139625
789.937	0.0138725
790.015	0.0138955
790.093	0.0140345
790.171	0.0138818
790.249	0.0138744
790.328	0.0139202
790.406	0.0140502
790.484	0.0140199
790.562	0.0139159
790.640	0.0140424
790.718	0.0139342
790.796	0.0139942
790.874	0.0137971
790.953	0.0138774
791.031	0.0138303
791.109	0.0138580
791.187	0.0138903
791.265	0.0138993
791.343	0.0139113
791.421	0.0137829
791.499	0.0138057
791.578	0.0138613
791.656	0.0138732
791.734	0.0137346
791.812	0.0138177
791.890	0.0138979
791.968	0.0138241
792.046	0.0138259
792.124	0.0136969
792.203	0.0139233
792.281	0.0138783
792.359	0.0139867
792.437	0.0140628
792.515	0.0140431
792.593	0.0139391
792.671	0.0140639
792.749	0.0140680
792.828	0.0140484
792.906	0.0140033
792.984	0.0142565
793.062	0.0142041
793.140	0.0140301
793.218	0.0141029
793.296	0.0142623
793.374	0.0140298
793.453	0.0140547
793.531	0.0140984
793.609	0.0139823
793.687	0.0140336
793.765	0.0139526
793.843	0.0139641
793.921	0.0139900
793.999	0.0139021
794.078	0.0138720
794.156	0.0138982
794.234	0.0138236
794.312	0.0137737
794.390	0.0140097
794.468	0.0138163
794.546	0.0137312
794.624	0.0136937
794.703	0.0139616
794.781	0.0139127
794.859	0.0139017
794.937	0.0139880
795.015	0.0139219
795.093	0.0140437
795.171	0.0139923
795.249	0.0139360
795.328	0.0140540
795.406	0.0140762
795.484	0.0140686
795.562	0.0138461
795.640	0.0140324
795.718	0.0140296
795.796	0.0138907
795.874	0.0139021
795.953	0.0139051
796.031	0.0139699
796.109	0.0137994
796.187	0.0139272
796.265	0.0138603
796.343	0.0137238
796.421	0.0136845
796.499	0.0138195
796.578	0.0137455
796.656	0.0137165
796.734	0.0136751
796.812	0.0137392
796.890	0.0137099
796.968	0.0137144
797.046	0.0136823
797.124	0.0139634
797.203	0.0139137
797.281	0.0137743
797.359	0.0138023
797.437	0.0139263
797.515	0.0139391
797.593	0.0138361
797.671	0.0139459
797.749	0.0139214
797.828	0.0140475
797.906	0.0139681
797.984	0.0140322
798.062	0.0141351
798.140	0.0142046
798.218	0.0141808
798.296	0.0141554
798.374	0.0140641
798.453	0.0140898
798.531	0.0141374
798.609	0.0141308
798.687	0.0141163
798.765	0.0140822
798.843	0.0142020
798.921	0.0140427
798.999	0.0139397
799.078	0.0140446
799.156	0.0140908
799.234	0.0140395
799.312	0.0141448
799.390	0.0140222
799.468	0.0138982
799.546	0.0139425
799.624	0.0139736
799.703	0.0137727
799.781	0.0139251
799.859	0.0138643
799.937	0.0139019
800.015	0.0139165
800.093	0.0137569
800.171	0.0139168
800.249	0.0138518
800.328	0.0139179
800.406	0.0140894
800.484	0.0140053
800.562	0.0137914
800.640	0.0140926
800.718	0.0139727
800.796	0.0139607
800.874	0.0139613
800.953	0.0139609
801.031	0.0139583
801.109	0.0137590
801.187	0.0139503
801.265	0.0140407
801.343	0.0140815
801.421	0.0137732
801.499	0.0138367
801.578	0.0140084
801.656	0.0137844
801.734	0.0139476
801.812	0.0139445
801.890	0.0138455
801.968	0.0138921
802.046	0.0138186
802.124	0.0138799
802.203	0.0138770
802.281	0.0138739
802.359	0.0138950
802.437	0.0139516
802.515	0.0138927
802.593	0.0139548
802.671	0.0139049
802.749	0.0139725
802.828	0.0139252
802.906	0.0140483
802.984	0.0140856
803.062	0.0141113
803.140	0.0140384
803.218	0.0140742
803.296	0.0141635
803.374	0.0140300
803.453	0.0140887
803.531	0.0140679
803.609	0.0141423
803.687	0.0141878
803.765	0.0142464
803.843	0.0142747
803.921	0.0139720
803.999	0.0140936
804.078	0.0141091
804.156	0.0138914
804.234	0.0140185
804.312	0.0140522
804.390	0.0140708
804.468	0.0138292
804.546	0.0139365
804.624	0.0139433
804.703	0.0138066
804.781	0.0139223
804.859	0.0140126
804.937	0.0139146
805.015	0.0139033
805.093	0.0138387
805.171	0.0138245
805.249	0.0138806
805.328	0.0140161
805.406	0.0139874
805.484	0.0138774
805.562	0.0138847
805.640	0.0139850
805.718	0.0139967
805.796	0.0139927
805.874	0.0139079
805.953	0.0139624
806.031	0.0139776
806.109	0.0138905
806.187	0.0140831
806.265	0.0141075
806.343	0.0140500
806.421	0.0139175
806.499	0.0137990
806.578	0.0139179
806.656	0.0139744
806.734	0.0138615
806.812	0.0138696
806.890	0.0140205
806.968	0.0138010
807.046	0.0138730
807.124	0.0139130
807.203	0.0138514
807.281	0.0138384
807.359	0.0139234
807.437	0.0139444
807.515	0.0138715
807.593	0.0139834
807.671	0.0139541
807.749	0.0138113
807.828	0.0140174
807.906	0.0139864
807.984	0.0139803
808.062	0.0139284
808.140	0.0139967
808.218	0.0139641
808.296	0.0139418
808.374	0.0140546
808.453	0.0140265
808.531	0.0138567
808.609	0.0141317
808.687	0.0141150
808.765	0.0140245
808.843	0.0140694
808.921	0.0141413
808.999	0.0140275
809.078	0.0140439
809.156	0.0140426
809.234	0.0141517
809.312	0.0139002
809.390	0.0140384
809.468	0.0140530
809.546	0.0140307
809.624	0.0139855
809.703	0.0139967
809.781	0.0139580
809.859	0.0139934
809.937	0.0139697
810.015	0.0140459
810.093	0.0140211
810.171	0.0139616
810.249	0.0139786
810.328	0.0140479
810.406	0.0140051
810.484	0.0139658
810.562	0.0141291
810.640	0.0141555
810.718	0.0141168
810.796	0.0141109
810.874	0.0141503
810.953	0.0140807
811.031	0.0140778
811.109	0.0140891
811.187	0.0141025
811.265	0.0140678
811.343	0.0140475
811.421	0.0140679
811.499	0.0139812
811.578	0.0140112
811.656	0.0141747
811.734	0.0141400
811.812	0.0139526
811.890	0.0137973
811.968	0.0140289
812.046	0.0140382
812.124	0.0139304
812.203	0.0139654
812.281	0.0139621
812.359	0.0140421
812.437	0.0139398
812.515	0.0140317
812.593	0.0139582
812.671	0.0139553
812.749	0.0138719
812.828	0.0137632
812.906	0.0140121
812.984	0.0138821
813.062	0.0140269
813.140	0.0138429
813.218	0.0140401
813.296	0.0139262
813.374	0.0139870
813.453	0.0140006
813.531	0.0139867
813.609	0.0140174
813.687	0.0139929
813.765	0.0139899
813.843	0.0141590
813.921	0.0139055
813.999	0.0139137
814.078	0.0139210
814.156	0.0139507
814.234	0.0138206
814.312	0.0138211
814.390	0.0140035
814.468	0.0138172
814.546	0.0139473
814.624	0.0139622
814.703	0.0138686
814.781	0.0138287
814.859	0.0138284
814.937	0.0139085
815.015	0.0139153
815.093	0.0139676
815.171	0.0139436
815.249	0.0139319
815.328	0.0138850
815.406	0.0138982
815.484	0.0140628
815.562	0.0139867
815.640	0.0139938
815.718	0.0140954
815.796	0.0140603
815.874	0.0140363
815.953	0.0140291
816.031	0.0141002
816.109	0.0140823
816.187	0.0140349
816.265	0.0142514
816.343	0.0140353
816.421	0.0140092
816.499	0.0140958
816.578	0.0140691
816.656	0.0141699
816.734	0.0141069
816.812	0.0141804
816.890	0.0139673
816.968	0.0138642
817.046	0.0141528
817.124	0.0139880
817.203	0.0140504
817.281	0.0139999
817.359	0.0138333
817.437	0.0137897
817.515	0.0137911
817.593	0.0137856
817.671	0.0137578
817.749	0.0138190
817.828	0.0139082
817.906	0.0138667
817.984	0.0139220
818.062	0.0138435
818.140	0.0138319
818.218	0.0141238
818.296	0.0137699
818.374	0.0139131
818.453	0.0139371
818.531	0.0139421
818.609	0.0140361
818.687	0.0139651
818.765	0.0139578
818.843	0.0139522
818.921	0.0140513
818.999	0.0138781
819.078	0.0139438
819.156	0.0139931
819.234	0.0139359
819.312	0.0140221
819.390	0.0139013
819.468	0.0139366
819.546	0.0139227
819.624	0.0138467
819.703	0.0139880
819.781	0.0139878
819.859	0.0140405
819.937	0.0139288
820.015	0.0141390
820.093	0.0141282
820.171	0.0139779
820.249	0.0139852
820.328	0.0140685
820.406	0.0140228
820.484	0.0140369
820.562	0.0139952
820.640	0.0139658
820.718	0.0140319
820.796	0.0140492
820.874	0.0141792
820.953	0.0141288
821.031	0.0138763
821.109	0.0140062
821.187	0.0141686
821.265	0.0139442
821.343	0.0140543
821.421	0.0140592
821.499	0.0140717
821.578	0.0140989
821.656	0.0141805
821.734	0.0139981
821.812	0.0141140
821.890	0.0142983
821.968	0.0141593
822.046	0.0140910
822.124	0.0143075
822.203	0.0140464
822.281	0.0141326
822.359	0.0140963
822.437	0.0140604
822.515	0.0142432
822.593	0.0141280
822.671	0.0141151
822.749	0.0139565
822.828	0.0139333
822.906	0.0140015
822.984	0.0139111
823.062	0.0140304
823.140	0.0139356
823.218	0.0139012
823.296	0.0139821
823.374	0.0140395
823.453	0.0139414
823.531	0.0140018
823.609	0.0139454
823.687	0.0139084
823.765	0.0140631
823.843	0.0140649
823.921	0.0140158
823.999	0.0138958
824.078	0.0140306
824.156	0.0141244
824.234	0.0140221
824.312	0.0141347
824.390	0.0140688
824.468	0.0141450
824.546	0.0139929
824.624	0.0140903
824.703	0.0141666
824.781	0.0140106
824.859	0.0140639
824.937	0.0138994
825.015	0.0140363
825.093	0.0139571
825.171	0.0139621
825.249	0.0138942
825.328	0.0139010
825.406	0.0139803
825.484	0.0138969
825.562	0.0137254
825.640	0.0139944
825.718	0.0140356
825.796	0.0140853
825.874	0.0139683
825.953	0.0140726
826.031	0.0138339
826.109	0.0140437
826.187	0.0141180
826.265	0.0141063
826.343	0.0140767
826.421	0.0140197
826.499	0.0140186
826.578	0.0140544
826.656	0.0139807
826.734	0.0139893
826.812	0.0140508
826.890	0.0140417
826.968	0.0141027
827.046	0.0140310
827.124	0.0139815
827.203	0.0140113
827.281	0.0140115
827.359	0.0140118
827.437	0.0139982
827.515	0.0140570
827.593	0.0140939
827.671	0.0140837
827.749	0.0141214
827.828	0.0140220
827.906	0.0138844
827.984	0.0139383
828.062	0.0138830
828.140	0.0139991
828.218	0.0139909
828.296	0.0140055
828.374	0.0138796
828.453	0.0138345
828.531	0.0138527
828.609	0.0139582
828.687	0.0139553
828.765	0.0139054
828.843	0.0139791
828.921	0.0139771
828.999	0.0138526
829.078	0.0138317
829.156	0.0138467
829.234	0.0137708
829.312	0.0138802
829.390	0.0138448
829.468	0.0139261
829.546	0.0139612
829.624	0.0139106
829.703	0.0138401
829.781	0.0139290
829.859	0.0139164
829.937	0.0138327
830.015	0.0139378
830.093	0.0139178
830.171	0.0138519
830.249	0.0138966
830.328	0.0139046
830.406	0.0138387
830.484	0.0138800
830.562	0.0139599
830.640	0.0139486
830.718	0.0138111
830.796	0.0139156
830.874	0.0139699
830.953	0.0139285
831.031	0.0139814
831.109	0.0139940
831.187	0.0138702
831.265	0.0139594
831.343	0.0140889
831.421	0.0138906
831.499	0.0140459
831.578	0.0140220
831.656	0.0139614
831.734	0.0140706
831.812	0.0140210
831.890	0.0139006
831.968	0.0139999
832.046	0.0138349
832.124	0.0138695
832.203	0.0139015
832.281	0.0138744
832.359	0.0139487
832.437	0.0139960
832.515	0.0139274
832.593	0.0138461
832.671	0.0138526
832.749	0.0139993
832.828	0.0140798
832.906	0.0138724
832.984	0.0138347
833.062	0.0139146
833.140	0.0139629
833.218	0.0139645
833.296	0.0138940
833.374	0.0140893
833.453	0.0140668
833.531	0.0140269
833.609	0.0139843
833.687	0.0140296
833.765	0.0140514
833.843	0.0141457
833.921	0.0138873
833.999	0.0139165
834.078	0.0140062
834.156	0.0140205
834.234	0.0140147
834.312	0.0139974
834.390	0.0138560
834.468	0.0139458
834.546	0.0140157
834.624	0.0138999
834.703	0.0139151
834.781	0.0140075
834.859	0.0140186
834.937	0.0139294
835.015	0.0139165
835.093	0.0140536
835.171	0.0140781
835.249	0.0139651
835.328	0.0140443
835.406	0.0139318
835.484	0.0140228
835.562	0.0139156
835.640	0.0139532
835.718	0.0139309
835.796	0.0139300
835.874	0.0139472
835.953	0.0141595
836.031	0.0140560
836.109	0.0140878
836.187	0.0139701
836.265	0.0139824
836.343	0.0139317
836.421	0.0139213
836.499	0.0138180
836.578	0.0139773
836.656	0.0139845
836.734	0.0139063
836.812	0.0138831
836.890	0.0138374
836.968	0.0140157
837.046	0.0139079
837.124	0.0139547
837.203	0.0139385
837.281	0.0137109
837.359	0.0140083
837.437	0.0140710
837.515	0.0139677
837.593	0.0138836
837.671	0.0138629
837.749	0.0139808
837.828	0.0138789
837.906	0.0139675
837.984	0.0139233
838.062	0.0139791
838.140	0.0139153
838.218	0.0140090
838.296	0.0141026
838.374	0.0140250
838.453	0.0140358
838.531	0.0140885
838.609	0.0139590
838.687	0.0138781
838.765	0.0138603
838.843	0.0141099
838.921	0.0140194
838.999	0.0139106
839.078	0.0139393
839.156	0.0139750
839.234	0.0140416
839.312	0.0140160
839.390	0.0138798
839.468	0.0141270
839.546	0.0138912
839.624	0.0140575
839.703	0.0139200
839.781	0.0141017
839.859	0.0139670
839.937	0.0139634
840.015	0.0139335
840.093	0.0139561
840.171	0.0140240
840.249	0.0139532
840.328	0.0140161
840.406	0.0139468
840.484	0.0140748
840.562	0.0140551
840.640	0.0140067
840.718	0.0140385
840.796	0.0139436
840.874	0.0140935
840.953	0.0141294
841.031	0.0140799
841.109	0.0140292
841.187	0.0140289
841.265	0.0140499
841.343	0.0139906
841.421	0.0138966
841.499	0.0139283
841.578	0.0141944
841.656	0.0139469
841.734	0.0138857
841.812	0.0140615
841.890	0.0141537
841.968	0.0140892
842.046	0.0140784
842.124	0.0139865
842.203	0.0139295
842.281	0.0138858
842.359	0.0139831
842.437	0.0138911
842.515	0.0140369
842.593	0.0140304
842.671	0.0138934
842.749	0.0138127
842.828	0.0140586
842.906	0.0141297
842.984	0.0139089
843.062	0.0139196
843.140	0.0140478
843.218	0.0141157
843.296	0.0138374
843.374	0.0139284
843.453	0.0140602
843.531	0.0139985
843.609	0.0138721
843.687	0.0138589
843.765	0.0141115
843.843	0.0139252
843.921	0.0138683
843.999	0.0139611
844.078	0.0139861
844.156	0.0140653
844.234	0.0139051
844.312	0.0140547
844.390	0.0139497
844.468	0.0140195
844.546	0.0140981
844.624	0.0140054
844.703	0.0139845
844.781	0.0140174
844.859	0.0138950
844.937	0.0140652
845.015	0.0140650
845.093	0.0138911
845.171	0.0140932
845.249	0.0141517
845.328	0.0140578
845.406	0.0138281
845.484	0.0140825
845.562	0.0140063
845.640	0.0139339
845.718	0.0139190
845.796	0.0140103
845.874	0.0140245
845.953	0.0140889
846.031	0.0140292
846.109	0.0140340
846.187	0.0140115
846.265	0.0139802
846.343	0.0139980
846.421	0.0140707
846.499	0.0140514
846.578	0.0139671
846.656	0.0140585
846.734	0.0140362
846.812	0.0140584
846.890	0.0140139
846.968	0.0139357
847.046	0.0140094
847.124	0.0139973
847.203	0.0140104
847.281	0.0139306
847.359	0.0138616
847.437	0.0138674
847.515	0.0139921
847.593	0.0138673
847.671	0.0138573
847.749	0.0138794
847.828	0.0137912
847.906	0.0138245
847.984	0.0139097
848.062	0.0139977
848.140	0.0139091
848.218	0.0138219
848.296	0.0139823
848.374	0.0138877
848.453	0.0139796
848.531	0.0140734
848.609	0.0139777
848.687	0.0139153
848.765	0.0140266
848.843	0.0141003
848.921	0.0141232
848.999	0.0139870
849.078	0.0140350
849.156	0.0139529
849.234	0.0138819
849.312	0.0138188
849.390	0.0139085
849.468	0.0139251
849.546	0.0139127
849.624	0.0138596
849.703	0.0139439
849.781	0.0139336
849.859	0.0140125
849.937	0.0141260
850.015	0.0139117
850.093	0.0140386
850.171	0.0139609
850.249	0.0138758
850.328	0.0139966
850.406	0.0139638
850.484	0.0140158
850.562	0.0140277
850.640	0.0139456
850.718	0.0139782
850.796	0.0139044
850.874	0.0138912
850.953	0.0138167
851.031	0.0138975
851.109	0.0139683
851.187	0.0140079
851.265	0.0139582
851.343	0.0138982
851.421	0.0139648
851.499	0.0138917
851.578	0.0139500
851.656	0.0139096
851.734	0.0140485
851.812	0.0140329
851.890	0.0139086
851.968	0.0139655
852.046	0.0139354
852.124	0.0139150
852.203	0.0139726
852.281	0.0138201
852.359	0.0139542
852.437	0.0139355
852.515	0.0139934
852.593	0.0139433
852.671	0.0139002
852.749	0.0140237
852.828	0.0139931
852.906	0.0139677
852.984	0.0138866
853.062	0.0139715
853.140	0.0138428
853.218	0.0138979
853.296	0.0138248
853.374	0.0139015
853.453	0.0138692
853.531	0.0137020
853.609	0.0138047
853.687	0.0138270
853.765	0.0137649
853.843	0.0139053
853.921	0.0138921
853.999	0.0137855
854.078	0.0138911
854.156	0.0138931
854.234	0.0138967
854.312	0.0140451
854.390	0.0138012
854.468	0.0139333
854.546	0.0139179
854.624	0.0138499
854.703	0.0138794
854.781	0.0139033
854.859	0.0139331
854.937	0.0140036
855.015	0.0138565
855.093	0.0139474
855.171	0.0139201
855.249	0.0138383
855.328	0.0138858
855.406	0.0137771
855.484	0.0138088
855.562	0.0139404
855.640	0.0137805
855.718	0.0137730
855.796	0.0138805
855.874	0.0139186
855.953	0.0138359
856.031	0.0138977
856.109	0.0139947
856.187	0.0140086
856.265	0.0138869
856.343	0.0139403
856.421	0.0139758
856.499	0.0140091
856.578	0.0141235
856.656	0.0140886
856.734	0.0140318
856.812	0.0139382
856.890	0.0138971
856.968	0.0139785
857.046	0.0141391
857.124	0.0139011
857.203	0.0140353
857.281	0.0138822
857.359	0.0138643
857.437	0.0138921
857.515	0.0139012
857.593	0.0138787
857.671	0.0139199
857.749	0.0139841
857.828	0.0138966
857.906	0.0139855
857.984	0.0137983
858.062	0.0139491
858.140	0.0139754
858.218	0.0137284
858.296	0.0139580
858.374	0.0138888
858.453	0.0139146
858.531	0.0139651
858.609	0.0139529
858.687	0.0140363
858.765	0.0141002
858.843	0.0138475
858.921	0.0138922
858.999	0.0140262
859.078	0.0139655
859.156	0.0140067
859.234	0.0140179
859.312	0.0141050
859.390	0.0138658
859.468	0.0140134
859.546	0.0141910
859.624	0.0139341
859.703	0.0138324
859.781	0.0139810
859.859	0.0138825
859.937	0.0139216
860.015	0.0139066
860.093	0.0140494
860.171	0.0138609
860.249	0.0138896
860.328	0.0139306
860.406	0.0139864
860.484	0.0139755
860.562	0.0138136
860.640	0.0138512
860.718	0.0140031
860.796	0.0139236
860.874	0.0139450
860.953	0.0139139
861.031	0.0141333
861.109	0.0139487
861.187	0.0139384
861.265	0.0138953
861.343	0.0139172
861.421	0.0139993
861.499	0.0139806
861.578	0.0139095
861.656	0.0139938
861.734	0.0138624
861.812	0.0139725
861.890	0.0139344
861.968	0.0137935
862.046	0.0140348
862.124	0.0141186
862.203	0.0140250
862.281	0.0139744
862.359	0.0140458
862.437	0.0140398
862.515	0.0138873
862.593	0.0140053
862.671	0.0140017
862.749	0.0140968
862.828	0.0140199
862.906	0.0139353
862.984	0.0138598
863.062	0.0140269
863.140	0.0140502
863.218	0.0139414
863.296	0.0140841
863.374	0.0140314
863.453	0.0139943
863.531	0.0140260
863.609	0.0139573
863.687	0.0140750
863.765	0.0140322
863.843	0.0139204
863.921	0.0139397
863.999	0.0140228
864.078	0.0141631
864.156	0.0141276
864.234	0.0141376
864.312	0.0140162
864.390	0.0139883
864.468	0.0140065
864.546	0.0140150
864.624	0.0140616
864.703	0.0140553
864.781	0.0140112
864.859	0.0139581
864.937	0.0140545
865.015	0.0141041
865.093	0.0140064
865.171	0.0139410
865.249	0.0138198
865.328	0.0139995
865.406	0.0138126
865.484	0.0139444
865.562	0.0140040
865.640	0.0137480
865.718	0.0138964
865.796	0.0138834
865.874	0.0138238
865.953	0.0138580
866.031	0.0138746
866.109	0.0139216
866.187	0.0139218
866.265	0.0139378
866.343	0.0139113
866.421	0.0139093
866.499	0.0139314
866.578	0.0140294
866.656	0.0138614
866.734	0.0139026
866.812	0.0140088
866.890	0.0139577
866.968	0.0139510
867.046	0.0140168
867.124	0.0140014
867.203	0.0139444
867.281	0.0140484
867.359	0.0140406
867.437	0.0138407
867.515	0.0139801
867.593	0.0139199
867.671	0.0137180
867.749	0.0139911
867.828	0.0140733
867.906	0.0140171
867.984	0.0140141
868.062	0.0140367
868.140	0.0140730
868.218	0.0139773
868.296	0.0140357
868.374	0.0140873
868.453	0.0141631
868.531	0.0140984
868.609	0.0141081
868.687	0.0142321
868.765	0.0140813
868.843	0.0141395
868.921	0.0139347
868.999	0.0141265
869.078	0.0140998
869.156	0.0139822
869.234	0.0139714
869.312	0.0139107
869.390	0.0139860
869.468	0.0140193
869.546	0.0139643
869.624	0.0140454
869.703	0.0140683
869.781	0.0140491
869.859	0.0140181
869.937	0.0140179
870.015	0.0140984
870.093	0.0140094
870.171	0.0140160
870.249	0.0138982
870.328	0.0139365
870.406	0.0139411
870.484	0.0140742
870.562	0.0139233
870.640	0.0138879
870.718	0.0138840
870.796	0.0139042
870.874	0.0137310
870.953	0.0138086
871.031	0.0139826
871.109	0.0140241
871.187	0.0138107
871.265	0.0138538
871.343	0.0138345
871.421	0.0139379
871.499	0.0140866
871.578	0.0140537
871.656	0.0139117
871.734	0.0139317
871.812	0.0139591
871.890	0.0141180
871.968	0.0140601
872.046	0.0141798
872.124	0.0141609
872.203	0.0140269
872.281	0.0140839
872.359	0.0140501
872.437	0.0141043
872.515	0.0137936
872.593	0.0140660
872.671	0.0139786
872.749	0.0139021
872.828	0.0138713
872.906	0.0139353
872.984	0.0139148
873.062	0.0139031
873.140	0.0139875
873.218	0.0139650
873.296	0.0140986
873.374	0.0139101
873.453	0.0139095
873.531	0.0141093
873.609	0.0141074
873.687	0.0141162
873.765	0.0141847
873.843	0.0141135
873.921	0.0140240
873.999	0.0140771
874.078	0.0140622
874.156	0.0140437
874.234	0.0140643
874.312	0.0140424
874.390	0.0139685
874.468	0.0140105
874.546	0.0139857
874.624	0.0138425
874.703	0.0140001
874.781	0.0139267
874.859	0.0138163
874.937	0.0139758
875.015	0.0136328
875.093	0.0137631
875.171	0.0139622
875.249	0.0138795
875.328	0.0138163
875.406	0.0138427
875.484	0.0138397
875.562	0.0136903
875.640	0.0138719
875.718	0.0141216
875.796	0.0139595
875.874	0.0138221
875.953	0.0138654
876.031	0.0139364
876.109	0.0139771
876.187	0.0139836
876.265	0.0139311
876.343	0.0138128
876.421	0.0138549
876.499	0.0138235
876.578	0.0138358
876.656	0.0139127
876.734	0.0138435
876.812	0.0138581
876.890	0.0138369
876.968	0.0138853
877.046	0.0139560
877.124	0.0139051
877.203	0.0139146
877.281	0.0139621
877.359	0.0140389
877.437	0.0139185
877.515	0.0139465
877.593	0.0140990
877.671	0.0139352
877.749	0.0138681
877.828	0.0139607
877.906	0.0140260
877.984	0.0139156
878.062	0.0138843
878.140	0.0140920
878.218	0.0140590
878.296	0.0139043
878.374	0.0138132
878.453	0.0139642
878.531	0.0140134
878.609	0.0137627
878.687	0.0138715
878.765	0.0139758
878.843	0.0139194
878.921	0.0139852
878.999	0.0139246
879.078	0.0138352
879.156	0.0139912
879.234	0.0138983
879.312	0.0139471
879.390	0.0139155
879.468	0.0138764
879.546	0.0140754
879.624	0.0140002
879.703	0.0139735
879.781	0.0138650
879.859	0.0139481
879.937	0.0138999
880.015	0.0138657
880.093	0.0140131
880.171	0.0138624
880.249	0.0138557
880.328	0.0139420
880.406	0.0139288
880.484	0.0138266
880.562	0.0140654
880.640	0.0139258
880.718	0.0137079
880.796	0.0138860
880.874	0.0138983
880.953	0.0139925
881.031	0.0139262
881.109	0.0139798
881.187	0.0138583
881.265	0.0139809
881.343	0.0137743
881.421	0.0139314
881.499	0.0138509
881.578	0.0138317
881.656	0.0139620
881.734	0.0139267
881.812	0.0139072
881.890	0.0139068
881.968	0.0140012
882.046	0.0139967
882.124	0.0138910
882.203	0.0139062
882.281	0.0139398
882.359	0.0138552
882.437	0.0140598
882.515	0.0139094
882.593	0.0139313
882.671	0.0138918
882.749	0.0139964
882.828	0.0139835
882.906	0.0140470
882.984	0.0141033
883.062	0.0139185
883.140	0.0140852
883.218	0.0141171
883.296	0.0139254
883.374	0.0140080
883.453	0.0139642
883.531	0.0139105
883.609	0.0139454
883.687	0.0139674
883.765	0.0138473
883.843	0.0139437
883.921	0.0139265
883.999	0.0139460
884.078	0.0139227
884.156	0.0140072
884.234	0.0141154
884.312	0.0140308
884.390	0.0139944
884.468	0.0140504
884.546	0.0140117
884.624	0.0138819
884.703	0.0139049
884.781	0.0140083
884.859	0.0141753
884.937	0.0140749
885.015	0.0139797
885.093	0.0140118
885.171	0.0140887
885.249	0.0140191
885.328	0.0140487
885.406	0.0139519
885.484	0.0140293
885.562	0.0140406
885.640	0.0140608
885.718	0.0140527
885.796	0.0139996
885.874	0.0140448
885.953	0.0140131
886.031	0.0139832
886.109	0.0138636
886.187	0.0139096
886.265	0.0139330
886.343	0.0138841
886.421	0.0139845
886.499	0.0139027
886.578	0.0140489
886.656	0.0140036
886.734	0.0138934
886.812	0.0139079
886.890	0.0139608
886.968	0.0140117
887.046	0.0139846
887.124	0.0141225
887.203	0.0140269
887.281	0.0139089
887.359	0.0141423
887.437	0.0139925
887.515	0.0140421
887.593	0.0139843
887.671	0.0140025
887.749	0.0140467
887.828	0.0140014
887.906	0.0139904
887.984	0.0139435
888.062	0.0139602
888.140	0.0140109
888.218	0.0139341
888.296	0.0139395
888.374	0.0139589
888.453	0.0141012
888.531	0.0140633
888.609	0.0140018
888.687	0.0139140
888.765	0.0139748
888.843	0.0141371
888.921	0.0140202
888.999	0.0139616
889.078	0.0141219
889.156	0.0140807
889.234	0.0140128
889.312	0.0139880
889.390	0.0138583
889.468	0.0140878
889.546	0.0140199
889.624	0.0140688
889.703	0.0139169
889.781	0.0140461
889.859	0.0140570
889.937	0.0139182
890.015	0.0138635
890.093	0.0139477
890.171	0.0139363
890.249	0.0140414
890.328	0.0139467
890.406	0.0139056
890.484	0.0141022
890.562	0.0140736
890.640	0.0140070
890.718	0.0140943
890.796	0.0140086
890.874	0.0140722
890.953	0.0141045
891.031	0.0140192
891.109	0.0140274
891.187	0.0140355
891.265	0.0139307
891.343	0.0138951
891.421	0.0140478
891.499	0.0140581
891.578	0.0138372
891.656	0.0138238
891.734	0.0139614
891.812	0.0138046
891.890	0.0139172
891.968	0.0137901
892.046	0.0138395
892.124	0.0138947
892.203	0.0138821
892.281	0.0139680
892.359	0.0140199
892.437	0.0140891
892.515	0.0139405
892.593	0.0140024
892.671	0.0140577
892.749	0.0140559
892.828	0.0139881
892.906	0.0140224
892.984	0.0140905
893.062	0.0139809
893.140	0.0139597
893.218	0.0140871
893.296	0.0140997
893.374	0.0139000
893.453	0.0138881
893.531	0.0139728
893.609	0.0139787
893.687	0.0139323
893.765	0.0138708
893.843	0.0140839
893.921	0.0141508
893.999	0.0140109
894.078	0.0139914
894.156	0.0139104
894.234	0.0140036
894.312	0.0139010
894.390	0.0140613
894.468	0.0142195
894.546	0.0140066
894.624	0.0142154
894.703	0.0139895
894.781	0.0140260
894.859	0.0141075
894.937	0.0141597
895.015	0.0140700
895.093	0.0139220
895.171	0.0140892
895.249	0.0140603
895.328	0.0139703
895.406	0.0138831
895.484	0.0139954
895.562	0.0139896
895.640	0.0139947
895.718	0.0139782
895.796	0.0138903
895.874	0.0140284
895.953	0.0138799
896.031	0.0139535
896.109	0.0139895
896.187	0.0140466
896.265	0.0139825
896.343	0.0140759
896.421	0.0140051
896.499	0.0139809
896.578	0.0140651
896.656	0.0140355
896.734	0.0141284
896.812	0.0140453
896.890	0.0140950
896.968	0.0140280
897.046	0.0139831
897.124	0.0140196
897.203	0.0140186
897.281	0.0138968
897.359	0.0138253
897.437	0.0138938
897.515	0.0137806
897.593	0.0139435
897.671	0.0139292
897.749	0.0139058
897.828	0.0138598
897.906	0.0140057
897.984	0.0140044
898.062	0.0140427
898.140	0.0140067
898.218	0.0141050
898.296	0.0141804
898.374	0.0139993
898.453	0.0141923
898.531	0.0139243
898.609	0.0139822
898.687	0.0139741
898.765	0.0139556
898.843	0.0138699
898.921	0.0140064
898.999	0.0139928
899.078	0.0139091
899.156	0.0139198
899.234	0.0140129
899.312	0.0139101
899.390	0.0139721
899.468	0.0140019
899.546	0.0140083
899.624	0.0138823
899.703	0.0140872
899.781	0.0140243
899.859	0.0138885
899.937	0.0139381
900.015	0.0140289
900.093	0.0139972
900.171	0.0140076
900.249	0.0140562
900.328	0.0139711
900.406	0.0139867
900.484	0.0138848
900.562	0.0140102
900.640	0.0137937
900.718	0.0139194
900.796	0.0139049
900.874	0.0140334
900.953	0.0139513
901.031	0.0138911
901.109	0.0139365
901.187	0.0140372
901.265	0.0139732
901.343	0.0137873
901.421	0.0140743
901.499	0.0141199
901.578	0.0140073
901.656	0.0138087
901.734	0.0139764
901.812	0.0139968
901.890	0.0139671
901.968	0.0141079
902.046	0.0139999
902.124	0.0140549
902.203	0.0139857
902.281	0.0140397
902.359	0.0139899
902.437	0.0140341
902.515	0.0139520
902.593	0.0139903
902.671	0.0138904
902.749	0.0140124
902.828	0.0140363
902.906	0.0139488
902.984	0.0139757
903.062	0.0137944
903.140	0.0138290
903.218	0.0139964
903.296	0.0140310
903.374	0.0139891
903.453	0.0137420
903.531	0.0138321
903.609	0.0139625
903.687	0.0138934
903.765	0.0138667
903.843	0.0139989
903.921	0.0139452
903.999	0.0138266
904.078	0.0140066
904.156	0.0139031
904.234	0.0139292
904.312	0.0138953
904.390	0.0140973
904.468	0.0139214
904.546	0.0139632
904.624	0.0139521
904.703	0.0139835
904.781	0.0138957
904.859	0.0138634
904.937	0.0141264
905.015	0.0139709
905.093	0.0140766
905.171	0.0139802
905.249	0.0139011
905.328	0.0140281
905.406	0.0141109
905.484	0.0139583
905.562	0.0141171
905.640	0.0141508
905.718	0.0140655
905.796	0.0139863
905.874	0.0139189
905.953	0.0140978
906.031	0.0140898
906.109	0.0142091
906.187	0.0140899
906.265	0.0141467
906.343	0.0141100
906.421	0.0140858
906.499	0.0140410
906.578	0.0141016
906.656	0.0140073
906.734	0.0141491
906.812	0.0139655
906.890	0.0140593
906.968	0.0141116
907.046	0.0140508
907.124	0.0139991
907.203	0.0141097
907.281	0.0140554
907.359	0.0141710
907.437	0.0142444
907.515	0.0140035
907.593	0.0140938
907.671	0.0141758
907.749	0.0141089
907.828	0.0138987
907.906	0.0139420
907.984	0.0138660
908.062	0.0139658
908.140	0.0139065
908.218	0.0139221
908.296	0.0138901
908.374	0.0138503
908.453	0.0137887
908.531	0.0137846
908.609	0.0139368
908.687	0.0138997
908.765	0.0138998
908.843	0.0139460
908.921	0.0140137
908.999	0.0138527
909.078	0.0139886
909.156	0.0140255
909.234	0.0140764
909.312	0.0139796
909.390	0.0141345
909.468	0.0141387
909.546	0.0140118
909.624	0.0140022
909.703	0.0139733
909.781	0.0140159
909.859	0.0138731
909.937	0.0139771
910.015	0.0140544
910.093	0.0140048
910.171	0.0139268
910.249	0.0139576
910.328	0.0140825
910.406	0.0139120
910.484	0.0140658
910.562	0.0140547
910.640	0.0139591
910.718	0.0141711
910.796	0.0141484
910.874	0.0140890
910.953	0.0140886
911.031	0.0140767
911.109	0.0141318
911.187	0.0141780
911.265	0.0140385
911.343	0.0141087
911.421	0.0140725
911.499	0.0140613
911.578	0.0140613
911.656	0.0140339
911.734	0.0141350
911.812	0.0140611
911.890	0.0140375
911.968	0.0139641
912.046	0.0140121
912.124	0.0140541
912.203	0.0139382
912.281	0.0139749
912.359	0.0140010
912.437	0.0140788
912.515	0.0141010
912.593	0.0139527
912.671	0.0138145
912.749	0.0138885
912.828	0.0138851
912.906	0.0138551
912.984	0.0139738
913.062	0.0139254
913.140	0.0140579
913.218	0.0138766
913.296	0.0139658
913.374	0.0140179
913.453	0.0139493
913.531	0.0139793
913.609	0.0138787
913.687	0.0139584
913.765	0.0139925
913.843	0.0139793
913.921	0.0138309
913.999	0.0139890
914.078	0.0139715
914.156	0.0139809
914.234	0.0138981
914.312	0.0138563
914.390	0.0140879
914.468	0.0139748
914.546	0.0138357
914.624	0.0138448
914.703	0.0140343
914.781	0.0140090
914.859	0.0141111
914.937	0.0140753
915.015	0.0139106
915.093	0.0140366
915.171	0.0140936
915.249	0.0140620
915.328	0.0140879
915.406	0.0141862
915.484	0.0141618
915.562	0.0139714
915.640	0.0141812
915.718	0.0140406
915.796	0.0140371
915.874	0.0141357
915.953	0.0141460
916.031	0.0140177
916.109	0.0140495
916.187	0.0141793
916.265	0.0140159
916.343	0.0139310
916.421	0.0141705
916.499	0.0139760
916.578	0.0141043
916.656	0.0139828
916.734	0.0138943
916.812	0.0139724
916.890	0.0141373
916.968	0.0140327
917.046	0.0140246
917.124	0.0140364
917.203	0.0141351
917.281	0.0139077
917.359	0.0140039
917.437	0.0140829
917.515	0.0141164
917.593	0.0139759
917.671	0.0139792
917.749	0.0139164
917.828	0.0139780
917.906	0.0139300
917.984	0.0139023
918.062	0.0140564
918.140	0.0140230
918.218	0.0139640
918.296	0.0138959
918.374	0.0139396
918.453	0.0141877
918.531	0.0141212
918.609	0.0139488
918.687	0.0138911
918.765	0.0139294
918.843	0.0139079
918.921	0.0139316
918.999	0.0139335
919.078	0.0139120
919.156	0.0139424
919.234	0.0139107
919.312	0.0139023
919.390	0.0140981
919.468	0.0139432
919.546	0.0139706
919.624	0.0137916
919.703	0.0138884
919.781	0.0139945
919.859	0.0139500
919.937	0.0139166
