05/06/2022	19:07:20	Ver.	4.1	UNKNOWN
Optical Delay	600.015094	Delta X		0.078125	Sweeps	1	Scan Rate	0/0
Coordinates	Axis 1	NaN	Axis 2	NaN	Axis 3	NaN	Axis 4	NaN	Axis 5	NaN	Axis 6	0.000000
TX Power	0.000000	RX Power	0.000000

600.015	0.0138265
600.093	0.0138979
600.171	0.0138737
600.249	0.0139631
600.328	0.0139440
600.406	0.0139706
600.484	0.0138332
600.562	0.0138900
600.640	0.0137244
600.718	0.0138924
600.796	0.0137933
600.874	0.0139144
600.953	0.0138430
601.031	0.0139281
601.109	0.0139036
601.187	0.0140112
601.265	0.0138857
601.343	0.0139494
601.421	0.0138602
601.499	0.0139233
601.578	0.0138721
601.656	0.0138187
601.734	0.0139590
601.812	0.0138819
601.890	0.0138383
601.968	0.0139005
602.046	0.0139851
602.124	0.0138618
602.203	0.0138545
602.281	0.0138853
602.359	0.0138871
602.437	0.0139173
602.515	0.0139008
602.593	0.0139126
602.671	0.0139299
602.749	0.0137615
602.828	0.0138322
602.906	0.0138521
602.984	0.0139535
603.062	0.0139693
603.140	0.0137949
603.218	0.0138863
603.296	0.0138287
603.374	0.0138450
603.453	0.0139153
603.531	0.0139415
603.609	0.0137733
603.687	0.0139273
603.765	0.0139661
603.843	0.0140115
603.921	0.0139560
603.999	0.0139511
604.078	0.0138813
604.156	0.0139156
604.234	0.0139577
604.312	0.0138866
604.390	0.0139808
604.468	0.0138802
604.546	0.0137917
604.624	0.0140252
604.703	0.0138885
604.781	0.0137921
604.859	0.0139275
604.937	0.0139014
605.015	0.0138791
605.093	0.0138641
605.171	0.0138940
605.249	0.0138480
605.328	0.0138117
605.406	0.0137939
605.484	0.0138843
605.562	0.0139294
605.640	0.0137878
605.718	0.0138137
605.796	0.0139979
605.874	0.0138316
605.953	0.0138036
606.031	0.0139000
606.109	0.0136836
606.187	0.0138471
606.265	0.0139344
606.343	0.0138776
606.421	0.0138150
606.499	0.0138695
606.578	0.0139035
606.656	0.0138084
606.734	0.0138929
606.812	0.0139143
606.890	0.0139799
606.968	0.0138455
607.046	0.0137772
607.124	0.0139342
607.203	0.0139528
607.281	0.0139285
607.359	0.0138289
607.437	0.0139172
607.515	0.0139259
607.593	0.0138280
607.671	0.0139045
607.749	0.0140564
607.828	0.0139525
607.906	0.0137435
607.984	0.0138149
608.062	0.0137992
608.140	0.0137746
608.218	0.0137653
608.296	0.0138171
608.374	0.0139291
608.453	0.0138570
608.531	0.0138058
608.609	0.0137741
608.687	0.0136288
608.765	0.0136905
608.843	0.0137825
608.921	0.0139237
608.999	0.0138083
609.078	0.0138493
609.156	0.0138889
609.234	0.0137626
609.312	0.0138831
609.390	0.0139277
609.468	0.0139074
609.546	0.0138088
609.624	0.0137697
609.703	0.0137676
609.781	0.0139280
609.859	0.0139328
609.937	0.0139183
610.015	0.0140054
610.093	0.0137873
610.171	0.0137815
610.249	0.0139277
610.328	0.0138935
610.406	0.0137487
610.484	0.0138998
610.562	0.0140685
610.640	0.0139735
610.718	0.0138387
610.796	0.0138988
610.874	0.0138147
610.953	0.0138393
611.031	0.0138345
611.109	0.0138742
611.187	0.0138901
611.265	0.0139263
611.343	0.0139104
611.421	0.0137981
611.499	0.0139496
611.578	0.0139411
611.656	0.0138232
611.734	0.0138673
611.812	0.0138938
611.890	0.0139125
611.968	0.0138769
612.046	0.0138721
612.124	0.0138109
612.203	0.0137846
612.281	0.0139803
612.359	0.0139128
612.437	0.0137993
612.515	0.0138925
612.593	0.0138603
612.671	0.0137448
612.749	0.0139140
612.828	0.0139214
612.906	0.0138927
612.984	0.0138479
613.062	0.0138988
613.140	0.0140974
613.218	0.0139145
613.296	0.0138499
613.374	0.0138160
613.453	0.0138345
613.531	0.0138840
613.609	0.0138555
613.687	0.0140244
613.765	0.0139555
613.843	0.0139369
613.921	0.0138560
613.999	0.0139134
614.078	0.0138976
614.156	0.0138000
614.234	0.0138854
614.312	0.0140026
614.390	0.0140347
614.468	0.0138559
614.546	0.0138614
614.624	0.0139075
614.703	0.0139011
614.781	0.0139288
614.859	0.0137823
614.937	0.0139204
615.015	0.0138927
615.093	0.0138332
615.171	0.0140057
615.249	0.0138966
615.328	0.0138968
615.406	0.0137827
615.484	0.0139330
615.562	0.0139920
615.640	0.0138628
615.718	0.0138853
615.796	0.0139812
615.874	0.0138769
615.953	0.0138061
616.031	0.0138331
616.109	0.0137727
616.187	0.0139115
616.265	0.0138856
616.343	0.0139536
616.421	0.0138225
616.499	0.0139414
616.578	0.0139490
616.656	0.0138676
616.734	0.0138990
616.812	0.0139198
616.890	0.0138925
616.968	0.0138243
617.046	0.0138660
617.124	0.0137129
617.203	0.0138768
617.281	0.0140380
617.359	0.0139127
617.437	0.0138360
617.515	0.0137887
617.593	0.0139376
617.671	0.0138872
617.749	0.0138117
617.828	0.0139268
617.906	0.0138329
617.984	0.0138202
618.062	0.0137547
618.140	0.0138187
618.218	0.0137345
618.296	0.0138474
618.374	0.0139332
618.453	0.0137978
618.531	0.0138528
618.609	0.0138457
618.687	0.0138587
618.765	0.0138657
618.843	0.0137659
618.921	0.0137865
618.999	0.0139194
619.078	0.0138689
619.156	0.0137495
619.234	0.0137370
619.312	0.0139082
619.390	0.0138387
619.468	0.0137596
619.546	0.0138391
619.624	0.0137873
619.703	0.0139205
619.781	0.0137651
619.859	0.0137945
619.937	0.0139466
620.015	0.0137865
620.093	0.0138932
620.171	0.0138558
620.249	0.0138652
620.328	0.0138670
620.406	0.0139114
620.484	0.0138409
620.562	0.0136196
620.640	0.0138651
620.718	0.0139008
620.796	0.0139985
620.874	0.0139062
620.953	0.0138125
621.031	0.0139007
621.109	0.0137669
621.187	0.0138246
621.265	0.0139534
621.343	0.0138115
621.421	0.0138065
621.499	0.0139217
621.578	0.0138602
621.656	0.0138855
621.734	0.0138493
621.812	0.0138732
621.890	0.0139809
621.968	0.0138532
622.046	0.0139433
622.124	0.0139143
622.203	0.0138601
622.281	0.0138255
622.359	0.0139021
622.437	0.0139300
622.515	0.0140279
622.593	0.0139278
622.671	0.0138955
622.749	0.0138844
622.828	0.0138132
622.906	0.0139333
622.984	0.0140376
623.062	0.0138885
623.140	0.0138829
623.218	0.0138790
623.296	0.0138914
623.374	0.0138060
623.453	0.0137633
623.531	0.0139037
623.609	0.0138660
623.687	0.0139159
623.765	0.0138950
623.843	0.0139291
623.921	0.0139460
623.999	0.0140042
624.078	0.0138940
624.156	0.0139262
624.234	0.0136951
624.312	0.0137590
624.390	0.0138805
624.468	0.0139830
624.546	0.0139272
624.624	0.0137850
624.703	0.0139523
624.781	0.0138346
624.859	0.0138186
624.937	0.0139665
625.015	0.0137522
625.093	0.0138731
625.171	0.0137923
625.249	0.0138706
625.328	0.0138350
625.406	0.0138757
625.484	0.0139475
625.562	0.0139896
625.640	0.0138525
625.718	0.0140111
625.796	0.0140283
625.874	0.0138552
625.953	0.0139016
626.031	0.0139396
626.109	0.0139219
626.187	0.0139008
626.265	0.0138786
626.343	0.0137241
626.421	0.0138021
626.499	0.0138674
626.578	0.0138242
626.656	0.0138387
626.734	0.0139572
626.812	0.0137920
626.890	0.0139651
626.968	0.0138676
627.046	0.0139536
627.124	0.0137660
627.203	0.0138209
627.281	0.0138676
627.359	0.0137957
627.437	0.0139005
627.515	0.0140295
627.593	0.0137881
627.671	0.0136992
627.749	0.0139754
627.828	0.0138454
627.906	0.0139012
627.984	0.0138518
628.062	0.0139573
628.140	0.0138953
628.218	0.0138529
628.296	0.0137465
628.374	0.0138110
628.453	0.0138937
628.531	0.0138230
628.609	0.0138334
628.687	0.0137947
628.765	0.0138476
628.843	0.0137611
628.921	0.0138554
628.999	0.0138939
629.078	0.0138197
629.156	0.0138895
629.234	0.0137760
629.312	0.0138276
629.390	0.0138387
629.468	0.0138957
629.546	0.0139581
629.624	0.0140092
629.703	0.0139481
629.781	0.0138475
629.859	0.0138703
629.937	0.0138580
630.015	0.0139407
630.093	0.0138439
630.171	0.0138589
630.249	0.0139364
630.328	0.0140276
630.406	0.0138735
630.484	0.0138903
630.562	0.0138210
630.640	0.0139145
630.718	0.0138348
630.796	0.0139782
630.874	0.0140919
630.953	0.0137925
631.031	0.0138522
631.109	0.0139359
631.187	0.0138306
631.265	0.0139034
631.343	0.0138609
631.421	0.0137964
631.499	0.0138795
631.578	0.0138621
631.656	0.0139067
631.734	0.0139952
631.812	0.0138419
631.890	0.0137729
631.968	0.0137665
632.046	0.0137914
632.124	0.0136725
632.203	0.0138587
632.281	0.0140244
632.359	0.0139115
632.437	0.0138845
632.515	0.0138754
632.593	0.0137884
632.671	0.0138702
632.749	0.0138432
632.828	0.0137717
632.906	0.0138588
632.984	0.0138352
633.062	0.0137858
633.140	0.0138670
633.218	0.0138267
633.296	0.0139119
633.374	0.0138446
633.453	0.0139392
633.531	0.0139137
633.609	0.0138459
633.687	0.0138530
633.765	0.0138613
633.843	0.0139880
633.921	0.0138461
633.999	0.0139840
634.078	0.0140186
634.156	0.0139409
634.234	0.0138400
634.312	0.0137863
634.390	0.0138880
634.468	0.0139565
634.546	0.0139076
634.624	0.0138500
634.703	0.0138464
634.781	0.0139758
634.859	0.0138643
634.937	0.0137878
635.015	0.0139024
635.093	0.0138578
635.171	0.0138168
635.249	0.0138055
635.328	0.0137071
635.406	0.0137399
635.484	0.0137101
635.562	0.0138007
635.640	0.0137531
635.718	0.0138773
635.796	0.0137833
635.874	0.0137771
635.953	0.0136866
636.031	0.0137850
636.109	0.0138348
636.187	0.0137613
636.265	0.0138013
636.343	0.0138065
636.421	0.0136596
636.499	0.0138018
636.578	0.0137896
636.656	0.0137531
636.734	0.0138049
636.812	0.0137107
636.890	0.0138042
636.968	0.0136481
637.046	0.0137270
637.124	0.0139060
637.203	0.0138757
637.281	0.0139145
637.359	0.0137996
637.437	0.0138614
637.515	0.0139356
637.593	0.0139671
637.671	0.0140331
637.749	0.0138715
637.828	0.0137503
637.906	0.0139060
637.984	0.0138273
638.062	0.0139182
638.140	0.0138338
638.218	0.0138498
638.296	0.0138887
638.374	0.0138387
638.453	0.0138436
638.531	0.0138484
638.609	0.0138896
638.687	0.0138134
638.765	0.0137662
638.843	0.0138103
638.921	0.0138945
638.999	0.0137951
639.078	0.0137685
639.156	0.0138745
639.234	0.0139221
639.312	0.0138268
639.390	0.0138139
639.468	0.0138440
639.546	0.0139890
639.624	0.0138381
639.703	0.0137734
639.781	0.0138313
639.859	0.0137797
639.937	0.0137192
640.015	0.0138068
640.093	0.0139485
640.171	0.0137711
640.249	0.0138205
640.328	0.0137591
640.406	0.0138483
640.484	0.0138180
640.562	0.0137367
640.640	0.0138281
640.718	0.0138564
640.796	0.0136922
640.874	0.0138564
640.953	0.0138563
641.031	0.0138003
641.109	0.0137820
641.187	0.0137934
641.265	0.0138641
641.343	0.0137684
641.421	0.0137487
641.499	0.0136472
641.578	0.0137699
641.656	0.0137250
641.734	0.0137991
641.812	0.0138783
641.890	0.0138330
641.968	0.0137350
642.046	0.0137591
642.124	0.0138019
642.203	0.0138452
642.281	0.0138323
642.359	0.0138256
642.437	0.0139106
642.515	0.0137624
642.593	0.0137499
642.671	0.0138538
642.749	0.0137401
642.828	0.0137122
642.906	0.0137942
642.984	0.0137736
643.062	0.0138051
643.140	0.0137405
643.218	0.0138554
643.296	0.0137855
643.374	0.0136845
643.453	0.0138589
643.531	0.0138923
643.609	0.0137489
643.687	0.0138408
643.765	0.0137720
643.843	0.0137963
643.921	0.0137398
643.999	0.0138381
644.078	0.0137106
644.156	0.0137292
644.234	0.0137496
644.312	0.0138525
644.390	0.0138935
644.468	0.0138636
644.546	0.0138261
644.624	0.0139674
644.703	0.0139413
644.781	0.0138973
644.859	0.0138644
644.937	0.0138033
645.015	0.0138101
645.093	0.0140636
645.171	0.0140771
645.249	0.0140155
645.328	0.0139877
645.406	0.0139980
645.484	0.0139486
645.562	0.0138885
645.640	0.0140041
645.718	0.0140370
645.796	0.0141060
645.874	0.0140658
645.953	0.0140564
646.031	0.0139725
646.109	0.0140730
646.187	0.0140292
646.265	0.0139201
646.343	0.0140997
646.421	0.0140137
646.499	0.0138661
646.578	0.0139576
646.656	0.0139007
646.734	0.0138419
646.812	0.0138851
646.890	0.0137244
646.968	0.0136810
647.046	0.0139608
647.124	0.0138226
647.203	0.0136444
647.281	0.0136614
647.359	0.0137431
647.437	0.0137432
647.515	0.0137289
647.593	0.0136688
647.671	0.0137229
647.749	0.0136054
647.828	0.0138483
647.906	0.0138052
647.984	0.0139145
648.062	0.0138082
648.140	0.0139902
648.218	0.0140437
648.296	0.0140217
648.374	0.0141252
648.453	0.0140522
648.531	0.0139800
648.609	0.0142234
648.687	0.0140944
648.765	0.0139157
648.843	0.0139201
648.921	0.0139687
648.999	0.0137943
649.078	0.0138867
649.156	0.0138437
649.234	0.0138013
649.312	0.0137389
649.390	0.0138750
649.468	0.0136700
649.546	0.0137987
649.624	0.0138799
649.703	0.0138931
649.781	0.0138542
649.859	0.0138690
649.937	0.0139079
650.015	0.0138817
650.093	0.0140516
650.171	0.0139893
650.249	0.0140019
650.328	0.0141372
650.406	0.0141991
650.484	0.0141206
650.562	0.0141940
650.640	0.0140834
650.718	0.0140740
650.796	0.0140324
650.874	0.0139731
650.953	0.0140159
651.031	0.0139788
651.109	0.0137895
651.187	0.0136559
651.265	0.0137284
651.343	0.0137893
651.421	0.0136335
651.499	0.0135378
651.578	0.0136623
651.656	0.0135387
651.734	0.0135125
651.812	0.0137175
651.890	0.0136234
651.968	0.0137440
652.046	0.0139309
652.124	0.0139435
652.203	0.0138495
652.281	0.0140174
652.359	0.0140387
652.437	0.0141698
652.515	0.0141864
652.593	0.0142406
652.671	0.0141760
652.749	0.0142681
652.828	0.0141898
652.906	0.0142778
652.984	0.0142648
653.062	0.0140987
653.140	0.0141621
653.218	0.0141347
653.296	0.0140011
653.374	0.0140112
653.453	0.0139833
653.531	0.0140054
653.609	0.0138833
653.687	0.0137135
653.765	0.0135944
653.843	0.0138219
653.921	0.0137579
653.999	0.0137070
654.078	0.0137919
654.156	0.0136668
654.234	0.0135178
654.312	0.0135501
654.390	0.0135951
654.468	0.0136908
654.546	0.0136578
654.624	0.0137990
654.703	0.0137064
654.781	0.0138132
654.859	0.0136199
654.937	0.0136738
655.015	0.0137803
655.093	0.0138793
655.171	0.0140321
655.249	0.0140898
655.328	0.0140902
655.406	0.0141297
655.484	0.0141407
655.562	0.0141767
655.640	0.0141576
655.718	0.0142830
655.796	0.0141952
655.874	0.0140987
655.953	0.0142068
656.031	0.0141109
656.109	0.0140804
656.187	0.0138783
656.265	0.0139027
656.343	0.0139718
656.421	0.0138300
656.499	0.0137572
656.578	0.0136145
656.656	0.0137979
656.734	0.0136952
656.812	0.0137207
656.890	0.0138133
656.968	0.0139138
657.046	0.0139472
657.124	0.0140851
657.203	0.0140489
657.281	0.0140439
657.359	0.0140946
657.437	0.0142567
657.515	0.0141806
657.593	0.0141170
657.671	0.0141152
657.749	0.0140627
657.828	0.0139948
657.906	0.0138117
657.984	0.0137666
658.062	0.0136298
658.140	0.0135669
658.218	0.0136311
658.296	0.0133840
658.374	0.0135727
658.453	0.0133733
658.531	0.0133345
658.609	0.0135405
658.687	0.0135606
658.765	0.0134907
658.843	0.0136597
658.921	0.0138285
658.999	0.0137096
659.078	0.0140169
659.156	0.0140999
659.234	0.0141406
659.312	0.0139635
659.390	0.0139809
659.468	0.0141660
659.546	0.0140010
659.624	0.0141108
659.703	0.0140126
659.781	0.0139165
659.859	0.0138326
659.937	0.0137896
660.015	0.0137248
660.093	0.0136952
660.171	0.0133772
660.249	0.0135171
660.328	0.0135635
660.406	0.0136039
660.484	0.0135688
660.562	0.0137242
660.640	0.0136997
660.718	0.0136102
660.796	0.0136408
660.874	0.0137500
660.953	0.0136427
661.031	0.0138609
661.109	0.0139484
661.187	0.0138872
661.265	0.0140989
661.343	0.0140662
661.421	0.0141370
661.499	0.0142627
661.578	0.0141431
661.656	0.0141044
661.734	0.0141827
661.812	0.0142177
661.890	0.0139853
661.968	0.0139789
662.046	0.0139560
662.124	0.0136756
662.203	0.0136668
662.281	0.0135470
662.359	0.0134383
662.437	0.0134634
662.515	0.0133870
662.593	0.0132121
662.671	0.0132829
662.749	0.0134033
662.828	0.0133954
662.906	0.0134600
662.984	0.0135091
663.062	0.0136866
663.140	0.0137521
663.218	0.0137901
663.296	0.0138036
663.374	0.0139284
663.453	0.0140396
663.531	0.0141492
663.609	0.0141014
663.687	0.0140782
663.765	0.0141102
663.843	0.0140615
663.921	0.0140656
663.999	0.0141332
664.078	0.0138817
664.156	0.0137591
664.234	0.0137866
664.312	0.0138134
664.390	0.0137231
664.468	0.0137511
664.546	0.0137115
664.624	0.0136227
664.703	0.0136095
664.781	0.0137437
664.859	0.0137645
664.937	0.0137951
665.015	0.0138354
665.093	0.0139052
665.171	0.0139096
665.249	0.0138230
665.328	0.0139200
665.406	0.0140189
665.484	0.0139449
665.562	0.0139615
665.640	0.0138941
665.718	0.0137724
665.796	0.0136205
665.874	0.0138167
665.953	0.0137426
666.031	0.0135902
666.109	0.0136785
666.187	0.0137090
666.265	0.0135841
666.343	0.0137675
666.421	0.0138892
666.499	0.0140189
666.578	0.0139387
666.656	0.0140073
666.734	0.0140591
666.812	0.0141631
666.890	0.0142136
666.968	0.0141751
667.046	0.0143242
667.124	0.0141145
667.203	0.0142348
667.281	0.0141695
667.359	0.0139168
667.437	0.0139396
667.515	0.0140917
667.593	0.0137457
667.671	0.0137878
667.749	0.0137196
667.828	0.0137308
667.906	0.0136128
667.984	0.0137370
668.062	0.0137145
668.140	0.0136813
668.218	0.0137928
668.296	0.0138610
668.374	0.0139552
668.453	0.0140159
668.531	0.0141061
668.609	0.0141506
668.687	0.0142153
668.765	0.0143218
668.843	0.0143181
668.921	0.0145414
668.999	0.0143341
669.078	0.0143104
669.156	0.0143107
669.234	0.0141956
669.312	0.0141356
669.390	0.0141774
669.468	0.0139346
669.546	0.0138534
669.624	0.0137954
669.703	0.0135908
669.781	0.0136251
669.859	0.0133709
669.937	0.0133605
670.015	0.0133263
670.093	0.0134277
670.171	0.0133031
670.249	0.0132651
670.328	0.0134412
670.406	0.0135238
670.484	0.0134901
670.562	0.0136787
670.640	0.0139033
670.718	0.0138960
670.796	0.0141831
670.874	0.0142722
670.953	0.0143824
671.031	0.0144155
671.109	0.0144299
671.187	0.0144294
671.265	0.0142833
671.343	0.0144093
671.421	0.0142120
671.499	0.0141916
671.578	0.0141045
671.656	0.0139475
671.734	0.0137396
671.812	0.0137322
671.890	0.0136592
671.968	0.0134766
672.046	0.0133611
672.124	0.0134682
672.203	0.0136158
672.281	0.0135205
672.359	0.0138025
672.437	0.0139242
672.515	0.0139906
672.593	0.0141747
672.671	0.0144147
672.749	0.0144370
672.828	0.0144601
672.906	0.0145364
672.984	0.0145636
673.062	0.0145460
673.140	0.0145535
673.218	0.0144782
673.296	0.0143111
673.374	0.0140441
673.453	0.0139071
673.531	0.0136614
673.609	0.0136179
673.687	0.0135693
673.765	0.0132754
673.843	0.0131820
673.921	0.0130928
673.999	0.0131005
674.078	0.0131622
674.156	0.0129885
674.234	0.0132866
674.312	0.0134193
674.390	0.0134345
674.468	0.0136507
674.546	0.0137679
674.624	0.0139017
674.703	0.0141855
674.781	0.0144225
674.859	0.0143541
674.937	0.0145818
675.015	0.0144595
675.093	0.0146346
675.171	0.0147157
675.249	0.0145406
675.328	0.0144632
675.406	0.0142176
675.484	0.0141793
675.562	0.0139938
675.640	0.0138584
675.718	0.0137930
675.796	0.0135835
675.874	0.0133364
675.953	0.0133399
676.031	0.0132831
676.109	0.0131884
676.187	0.0130417
676.265	0.0130650
676.343	0.0132476
676.421	0.0132035
676.499	0.0132359
676.578	0.0135560
676.656	0.0136523
676.734	0.0137380
676.812	0.0139505
676.890	0.0139011
676.968	0.0139806
677.046	0.0140070
677.124	0.0140336
677.203	0.0143533
677.281	0.0142423
677.359	0.0139940
677.437	0.0140932
677.515	0.0140706
677.593	0.0139368
677.671	0.0139491
677.749	0.0139964
677.828	0.0137821
677.906	0.0137072
677.984	0.0136670
678.062	0.0137259
678.140	0.0136385
678.218	0.0133787
678.296	0.0135783
678.374	0.0136115
678.453	0.0136485
678.531	0.0136347
678.609	0.0137524
678.687	0.0137717
678.765	0.0136787
678.843	0.0138136
678.921	0.0139016
678.999	0.0139255
679.078	0.0138450
679.156	0.0138681
679.234	0.0139082
679.312	0.0139410
679.390	0.0138538
679.468	0.0138165
679.546	0.0138998
679.624	0.0136935
679.703	0.0138053
679.781	0.0137257
679.859	0.0137661
679.937	0.0138231
680.015	0.0138743
680.093	0.0137205
680.171	0.0137145
680.249	0.0138742
680.328	0.0137721
680.406	0.0137362
680.484	0.0139628
680.562	0.0139272
680.640	0.0139636
680.718	0.0139138
680.796	0.0138185
680.874	0.0138641
680.953	0.0138773
681.031	0.0138005
681.109	0.0138128
681.187	0.0137170
681.265	0.0136925
681.343	0.0138486
681.421	0.0137167
681.499	0.0136845
681.578	0.0137775
681.656	0.0138095
681.734	0.0138811
681.812	0.0138272
681.890	0.0139063
681.968	0.0139587
682.046	0.0139330
682.124	0.0140936
682.203	0.0139685
682.281	0.0140392
682.359	0.0140179
682.437	0.0141038
682.515	0.0139503
682.593	0.0139890
682.671	0.0140598
682.749	0.0139420
682.828	0.0139201
682.906	0.0138555
682.984	0.0137466
683.062	0.0138092
683.140	0.0137040
683.218	0.0135790
683.296	0.0134885
683.374	0.0133889
683.453	0.0135305
683.531	0.0135790
683.609	0.0136519
683.687	0.0136486
683.765	0.0137898
683.843	0.0138363
683.921	0.0138811
683.999	0.0138873
684.078	0.0141485
684.156	0.0140712
684.234	0.0140738
684.312	0.0140733
684.390	0.0144299
684.468	0.0143264
684.546	0.0143224
684.624	0.0144273
684.703	0.0143999
684.781	0.0141841
684.859	0.0141053
684.937	0.0140579
685.015	0.0139513
685.093	0.0138473
685.171	0.0136841
685.249	0.0135233
685.328	0.0134163
685.406	0.0133960
685.484	0.0132674
685.562	0.0133620
685.640	0.0133121
685.718	0.0135538
685.796	0.0135302
685.874	0.0138044
685.953	0.0138403
686.031	0.0141676
686.109	0.0140824
686.187	0.0143878
686.265	0.0144582
686.343	0.0145026
686.421	0.0145876
686.499	0.0146043
686.578	0.0146222
686.656	0.0147242
686.734	0.0145378
686.812	0.0144611
686.890	0.0142312
686.968	0.0140152
687.046	0.0139348
687.124	0.0138048
687.203	0.0136241
687.281	0.0135266
687.359	0.0133200
687.437	0.0133569
687.515	0.0131175
687.593	0.0132188
687.671	0.0133752
687.749	0.0133482
687.828	0.0135349
687.906	0.0136842
687.984	0.0139119
688.062	0.0139784
688.140	0.0141550
688.218	0.0143556
688.296	0.0143308
688.374	0.0144119
688.453	0.0145447
688.531	0.0145203
688.609	0.0144602
688.687	0.0145039
688.765	0.0144730
688.843	0.0143771
688.921	0.0142058
688.999	0.0139262
689.078	0.0138472
689.156	0.0137762
689.234	0.0135176
689.312	0.0134837
689.390	0.0134401
689.468	0.0134604
689.546	0.0133983
689.624	0.0134637
689.703	0.0135851
689.781	0.0137178
689.859	0.0137539
689.937	0.0139798
690.015	0.0141609
690.093	0.0143314
690.171	0.0142509
690.249	0.0143781
690.328	0.0145170
690.406	0.0144890
690.484	0.0145967
690.562	0.0145094
690.640	0.0145159
690.718	0.0143842
690.796	0.0144602
690.874	0.0142409
690.953	0.0140617
691.031	0.0138554
691.109	0.0137051
691.187	0.0135538
691.265	0.0136487
691.343	0.0135166
691.421	0.0134955
691.499	0.0136221
691.578	0.0135259
691.656	0.0135563
691.734	0.0135421
691.812	0.0135827
691.890	0.0135306
691.968	0.0137691
692.046	0.0137958
692.124	0.0138557
692.203	0.0139205
692.281	0.0138667
692.359	0.0138658
692.437	0.0139147
692.515	0.0139119
692.593	0.0140479
692.671	0.0137932
692.749	0.0138577
692.828	0.0137967
692.906	0.0137356
692.984	0.0136398
693.062	0.0136887
693.140	0.0136638
693.218	0.0136494
693.296	0.0135969
693.374	0.0135822
693.453	0.0135459
693.531	0.0137392
693.609	0.0137913
693.687	0.0138517
693.765	0.0138509
693.843	0.0138527
693.921	0.0139072
693.999	0.0139899
694.078	0.0141387
694.156	0.0140942
694.234	0.0141470
694.312	0.0139376
694.390	0.0139904
694.468	0.0140848
694.546	0.0139034
694.624	0.0139265
694.703	0.0139908
694.781	0.0138470
694.859	0.0139246
694.937	0.0138703
695.015	0.0139568
695.093	0.0140129
695.171	0.0138460
695.249	0.0138101
695.328	0.0138234
695.406	0.0139285
695.484	0.0140034
695.562	0.0140530
695.640	0.0141466
695.718	0.0141767
695.796	0.0140594
695.874	0.0141090
695.953	0.0141887
696.031	0.0139751
696.109	0.0140243
696.187	0.0142072
696.265	0.0141674
696.343	0.0139619
696.421	0.0139072
696.499	0.0139564
696.578	0.0136768
696.656	0.0135617
696.734	0.0136267
696.812	0.0135944
696.890	0.0135781
696.968	0.0134505
697.046	0.0135062
697.124	0.0135574
697.203	0.0135461
697.281	0.0136214
697.359	0.0136134
697.437	0.0136359
697.515	0.0138656
697.593	0.0139617
697.671	0.0140438
697.749	0.0139198
697.828	0.0140937
697.906	0.0141623
697.984	0.0138638
698.062	0.0139392
698.140	0.0140670
698.218	0.0139977
698.296	0.0138254
698.374	0.0136269
698.453	0.0134650
698.531	0.0134579
698.609	0.0134470
698.687	0.0132032
698.765	0.0131402
698.843	0.0131232
698.921	0.0132110
698.999	0.0132369
699.078	0.0132943
699.156	0.0134759
699.234	0.0137353
699.312	0.0136793
699.390	0.0137090
699.468	0.0139774
699.546	0.0143258
699.624	0.0142065
699.703	0.0141689
699.781	0.0142429
699.859	0.0142570
699.937	0.0141511
700.015	0.0142103
700.093	0.0141908
700.171	0.0140953
700.249	0.0137486
700.328	0.0139002
700.406	0.0139951
700.484	0.0137106
700.562	0.0136991
700.640	0.0135699
700.718	0.0135294
700.796	0.0135002
700.874	0.0135407
700.953	0.0134615
701.031	0.0134884
701.109	0.0137329
701.187	0.0137129
701.265	0.0136670
701.343	0.0138445
701.421	0.0139485
701.499	0.0140310
701.578	0.0141627
701.656	0.0141374
701.734	0.0142547
701.812	0.0140726
701.890	0.0139359
701.968	0.0139778
702.046	0.0140203
702.124	0.0140002
702.203	0.0138104
702.281	0.0137544
702.359	0.0138282
702.437	0.0136354
702.515	0.0135800
702.593	0.0136752
702.671	0.0137035
702.749	0.0136569
702.828	0.0136975
702.906	0.0139246
702.984	0.0138639
703.062	0.0137666
703.140	0.0138445
703.218	0.0138734
703.296	0.0138555
703.374	0.0138725
703.453	0.0139590
703.531	0.0140174
703.609	0.0139542
703.687	0.0139148
703.765	0.0138463
703.843	0.0137909
703.921	0.0138364
703.999	0.0137235
704.078	0.0136043
704.156	0.0136307
704.234	0.0136139
704.312	0.0135010
704.390	0.0134682
704.468	0.0135466
704.546	0.0136270
704.624	0.0137817
704.703	0.0137244
704.781	0.0136810
704.859	0.0138857
704.937	0.0141412
705.015	0.0140038
705.093	0.0141467
705.171	0.0140534
705.249	0.0141214
705.328	0.0141291
705.406	0.0141353
705.484	0.0141161
705.562	0.0142146
705.640	0.0140433
705.718	0.0139243
705.796	0.0139773
705.874	0.0139073
705.953	0.0138238
706.031	0.0137761
706.109	0.0136414
706.187	0.0137594
706.265	0.0137064
706.343	0.0136367
706.421	0.0136423
706.499	0.0137659
706.578	0.0136835
706.656	0.0136721
706.734	0.0138473
706.812	0.0137981
706.890	0.0140933
706.968	0.0140161
707.046	0.0140504
707.124	0.0141564
707.203	0.0141115
707.281	0.0141347
707.359	0.0141635
707.437	0.0141677
707.515	0.0141686
707.593	0.0140495
707.671	0.0137565
707.749	0.0137811
707.828	0.0136777
707.906	0.0135844
707.984	0.0133298
708.062	0.0134242
708.140	0.0134021
708.218	0.0133069
708.296	0.0134835
708.374	0.0133974
708.453	0.0134549
708.531	0.0135851
708.609	0.0137062
708.687	0.0138054
708.765	0.0139959
708.843	0.0140729
708.921	0.0141506
708.999	0.0141008
709.078	0.0142504
709.156	0.0142120
709.234	0.0142716
709.312	0.0142661
709.390	0.0143176
709.468	0.0142476
709.546	0.0140660
709.624	0.0139756
709.703	0.0138279
709.781	0.0138677
709.859	0.0137712
709.937	0.0135013
710.015	0.0135039
710.093	0.0135188
710.171	0.0136684
710.249	0.0136687
710.328	0.0136286
710.406	0.0136486
710.484	0.0138295
710.562	0.0139999
710.640	0.0140865
710.718	0.0140661
710.796	0.0142158
710.874	0.0142085
710.953	0.0143211
711.031	0.0142340
711.109	0.0142609
711.187	0.0141943
711.265	0.0142400
711.343	0.0142683
711.421	0.0141058
711.499	0.0141079
711.578	0.0141116
711.656	0.0140152
711.734	0.0138141
711.812	0.0139142
711.890	0.0137166
711.968	0.0136643
712.046	0.0136509
712.124	0.0136167
712.203	0.0136913
712.281	0.0135605
712.359	0.0136738
712.437	0.0138438
712.515	0.0137811
712.593	0.0138226
712.671	0.0138219
712.749	0.0139354
712.828	0.0139706
712.906	0.0138766
712.984	0.0140668
713.062	0.0141099
713.140	0.0139937
713.218	0.0139238
713.296	0.0138466
713.374	0.0138789
713.453	0.0137511
713.531	0.0137270
713.609	0.0136503
713.687	0.0135853
713.765	0.0136880
713.843	0.0135234
713.921	0.0135894
713.999	0.0135774
714.078	0.0136365
714.156	0.0137838
714.234	0.0136388
714.312	0.0136707
714.390	0.0137153
714.468	0.0137379
714.546	0.0139486
714.624	0.0139036
714.703	0.0138885
714.781	0.0139719
714.859	0.0138361
714.937	0.0138725
715.015	0.0139327
715.093	0.0140765
715.171	0.0140584
715.249	0.0139320
715.328	0.0139573
715.406	0.0140944
715.484	0.0140547
715.562	0.0140876
715.640	0.0138963
715.718	0.0138759
715.796	0.0138490
715.874	0.0139945
715.953	0.0139291
716.031	0.0139398
716.109	0.0139561
716.187	0.0140355
716.265	0.0139587
716.343	0.0140552
716.421	0.0140231
716.499	0.0139108
716.578	0.0141159
716.656	0.0141624
716.734	0.0141721
716.812	0.0141507
716.890	0.0141182
716.968	0.0142229
717.046	0.0141244
717.124	0.0139001
717.203	0.0140811
717.281	0.0140063
717.359	0.0139687
717.437	0.0140526
717.515	0.0138007
717.593	0.0137500
717.671	0.0137956
717.749	0.0136359
717.828	0.0136948
717.906	0.0136338
717.984	0.0137303
718.062	0.0137530
718.140	0.0137443
718.218	0.0137855
718.296	0.0139486
718.374	0.0140522
718.453	0.0138055
718.531	0.0138972
718.609	0.0139650
718.687	0.0140433
718.765	0.0139881
718.843	0.0138741
718.921	0.0139918
718.999	0.0139657
719.078	0.0137991
719.156	0.0138003
719.234	0.0138239
719.312	0.0136558
719.390	0.0136821
719.468	0.0136934
719.546	0.0136015
719.624	0.0135320
719.703	0.0135233
719.781	0.0135771
719.859	0.0135351
719.937	0.0136735
720.015	0.0137153
720.093	0.0137378
720.171	0.0138975
720.249	0.0138477
720.328	0.0138564
720.406	0.0139997
720.484	0.0139899
720.562	0.0140397
720.640	0.0140198
720.718	0.0141216
720.796	0.0140841
720.874	0.0141898
720.953	0.0140366
721.031	0.0138112
721.109	0.0139156
721.187	0.0137646
721.265	0.0136911
721.343	0.0134867
721.421	0.0133714
721.499	0.0135227
721.578	0.0135699
721.656	0.0134534
721.734	0.0133926
721.812	0.0135664
721.890	0.0136206
721.968	0.0136732
722.046	0.0137372
722.124	0.0137652
722.203	0.0140038
722.281	0.0140208
722.359	0.0138852
722.437	0.0140331
722.515	0.0140553
722.593	0.0140591
722.671	0.0141027
722.749	0.0141011
722.828	0.0139423
722.906	0.0139606
722.984	0.0138011
723.062	0.0137142
723.140	0.0137604
723.218	0.0136576
723.296	0.0137197
723.374	0.0136783
723.453	0.0136230
723.531	0.0136732
723.609	0.0137419
723.687	0.0138670
723.765	0.0137766
723.843	0.0137910
723.921	0.0138873
723.999	0.0139819
724.078	0.0139993
724.156	0.0142335
724.234	0.0141286
724.312	0.0140613
724.390	0.0140744
724.468	0.0139993
724.546	0.0140125
724.624	0.0140370
724.703	0.0140955
724.781	0.0140874
724.859	0.0139346
724.937	0.0138884
725.015	0.0138036
725.093	0.0137975
725.171	0.0136275
725.249	0.0137498
725.328	0.0135958
725.406	0.0135348
725.484	0.0135945
725.562	0.0136971
725.640	0.0137933
725.718	0.0138303
725.796	0.0137872
725.874	0.0138597
725.953	0.0137544
726.031	0.0139397
726.109	0.0140823
726.187	0.0140766
726.265	0.0142004
726.343	0.0140831
726.421	0.0141296
726.499	0.0140818
726.578	0.0140837
726.656	0.0140732
726.734	0.0140491
726.812	0.0140395
726.890	0.0139147
726.968	0.0139131
727.046	0.0138824
727.124	0.0137715
727.203	0.0137115
727.281	0.0136578
727.359	0.0137798
727.437	0.0137167
727.515	0.0136317
727.593	0.0138073
727.671	0.0138217
727.749	0.0138412
727.828	0.0138976
727.906	0.0140549
727.984	0.0140115
728.062	0.0140453
728.140	0.0139309
728.218	0.0140096
728.296	0.0138805
728.374	0.0137360
728.453	0.0139148
728.531	0.0137894
728.609	0.0137698
728.687	0.0136399
728.765	0.0136477
728.843	0.0138110
728.921	0.0137044
728.999	0.0135069
729.078	0.0136314
729.156	0.0137042
729.234	0.0135876
729.312	0.0136990
729.390	0.0137218
729.468	0.0138743
729.546	0.0138524
729.624	0.0138470
729.703	0.0138899
729.781	0.0139108
729.859	0.0139485
729.937	0.0139763
730.015	0.0139182
730.093	0.0139998
730.171	0.0140016
730.249	0.0139310
730.328	0.0138446
730.406	0.0139256
730.484	0.0137663
730.562	0.0137177
730.640	0.0137846
730.718	0.0136098
730.796	0.0135564
730.874	0.0135971
730.953	0.0136035
731.031	0.0135402
731.109	0.0135332
731.187	0.0135802
731.265	0.0136215
731.343	0.0137129
731.421	0.0137365
731.499	0.0138114
731.578	0.0138666
731.656	0.0139969
731.734	0.0140710
731.812	0.0139753
731.890	0.0140535
731.968	0.0140875
732.046	0.0141758
732.124	0.0139790
732.203	0.0140926
732.281	0.0139052
732.359	0.0138116
732.437	0.0139075
732.515	0.0137545
732.593	0.0137595
732.671	0.0135191
732.749	0.0135844
732.828	0.0137585
732.906	0.0136473
732.984	0.0136681
733.062	0.0137681
733.140	0.0138072
733.218	0.0139371
733.296	0.0137981
733.374	0.0138721
733.453	0.0139176
733.531	0.0139301
733.609	0.0140049
733.687	0.0139876
733.765	0.0141312
733.843	0.0140961
733.921	0.0139909
733.999	0.0140420
734.078	0.0138934
734.156	0.0138274
734.234	0.0138822
734.312	0.0137785
734.390	0.0137640
734.468	0.0137326
734.546	0.0136393
734.624	0.0135925
734.703	0.0137692
734.781	0.0137418
734.859	0.0136949
734.937	0.0135525
735.015	0.0136938
735.093	0.0138042
735.171	0.0137281
735.249	0.0138362
735.328	0.0138902
735.406	0.0138968
735.484	0.0139081
735.562	0.0141390
735.640	0.0140455
735.718	0.0139480
735.796	0.0139085
735.874	0.0140376
735.953	0.0139146
736.031	0.0140274
736.109	0.0139597
736.187	0.0138476
736.265	0.0139347
736.343	0.0138782
736.421	0.0137370
736.499	0.0136485
736.578	0.0137696
736.656	0.0136616
736.734	0.0136362
736.812	0.0135320
736.890	0.0136256
736.968	0.0136565
737.046	0.0137193
737.124	0.0137619
737.203	0.0138284
737.281	0.0137139
737.359	0.0139688
737.437	0.0140244
737.515	0.0140781
737.593	0.0140103
737.671	0.0139168
737.749	0.0139683
737.828	0.0140444
737.906	0.0140147
737.984	0.0139844
738.062	0.0138473
738.140	0.0139056
738.218	0.0139397
738.296	0.0137920
738.374	0.0137815
738.453	0.0136803
738.531	0.0137101
738.609	0.0136715
738.687	0.0137034
738.765	0.0137781
738.843	0.0138216
738.921	0.0137479
738.999	0.0135909
739.078	0.0138093
739.156	0.0139228
739.234	0.0139082
739.312	0.0139414
739.390	0.0139743
739.468	0.0140932
739.546	0.0138753
739.624	0.0140918
739.703	0.0142384
739.781	0.0141747
739.859	0.0140433
739.937	0.0139650
740.015	0.0137689
740.093	0.0138653
740.171	0.0139187
740.249	0.0137651
740.328	0.0135963
740.406	0.0136174
740.484	0.0136662
740.562	0.0136850
740.640	0.0137096
740.718	0.0137753
740.796	0.0137883
740.874	0.0137107
740.953	0.0138628
741.031	0.0138760
741.109	0.0139228
741.187	0.0138946
741.265	0.0138719
741.343	0.0140777
741.421	0.0140223
741.499	0.0140223
741.578	0.0138807
741.656	0.0141263
741.734	0.0139151
741.812	0.0138028
741.890	0.0140057
741.968	0.0139101
742.046	0.0137025
742.124	0.0136665
742.203	0.0138866
742.281	0.0138085
742.359	0.0136346
742.437	0.0138395
742.515	0.0135510
742.593	0.0137230
742.671	0.0138115
742.749	0.0136488
742.828	0.0137336
742.906	0.0137347
742.984	0.0137844
743.062	0.0138055
743.140	0.0138768
743.218	0.0138531
743.296	0.0139305
743.374	0.0140305
743.453	0.0139483
743.531	0.0138980
743.609	0.0139213
743.687	0.0139550
743.765	0.0138502
743.843	0.0138623
743.921	0.0139242
743.999	0.0138523
744.078	0.0138490
744.156	0.0136961
744.234	0.0136961
744.312	0.0136986
744.390	0.0136851
744.468	0.0136321
744.546	0.0134731
744.624	0.0136629
744.703	0.0137449
744.781	0.0137495
744.859	0.0138630
744.937	0.0138969
745.015	0.0138200
745.093	0.0140621
745.171	0.0140689
745.249	0.0139711
745.328	0.0139487
745.406	0.0140369
745.484	0.0141123
745.562	0.0140753
745.640	0.0140916
745.718	0.0139186
745.796	0.0139980
745.874	0.0138007
745.953	0.0137944
746.031	0.0137642
746.109	0.0137170
746.187	0.0135749
746.265	0.0136646
746.343	0.0136483
746.421	0.0136175
746.499	0.0137450
746.578	0.0137578
746.656	0.0137880
746.734	0.0139034
746.812	0.0139099
746.890	0.0141507
746.968	0.0142427
747.046	0.0141772
747.124	0.0143298
747.203	0.0142506
747.281	0.0142467
747.359	0.0142107
747.437	0.0140907
747.515	0.0140176
747.593	0.0139368
747.671	0.0138905
747.749	0.0139841
747.828	0.0138940
747.906	0.0136803
747.984	0.0137198
748.062	0.0136068
748.140	0.0136362
748.218	0.0137473
748.296	0.0137061
748.374	0.0137477
748.453	0.0137351
748.531	0.0138187
748.609	0.0138342
748.687	0.0138972
748.765	0.0140585
748.843	0.0139507
748.921	0.0141078
748.999	0.0141608
749.078	0.0140574
749.156	0.0138326
749.234	0.0141327
749.312	0.0139965
749.390	0.0138700
749.468	0.0138827
749.546	0.0139018
749.624	0.0138379
749.703	0.0138039
749.781	0.0138647
749.859	0.0137829
749.937	0.0138663
750.015	0.0138737
750.093	0.0136622
750.171	0.0137362
750.249	0.0137099
750.328	0.0138298
750.406	0.0138831
750.484	0.0138480
750.562	0.0138670
750.640	0.0138126
750.718	0.0138149
750.796	0.0139123
750.874	0.0139018
750.953	0.0139394
751.031	0.0138844
751.109	0.0139719
751.187	0.0139867
751.265	0.0138681
751.343	0.0140104
751.421	0.0138503
751.499	0.0138817
751.578	0.0138685
751.656	0.0139420
751.734	0.0138184
751.812	0.0139722
751.890	0.0138008
751.968	0.0137750
752.046	0.0137437
752.124	0.0138036
752.203	0.0138171
752.281	0.0137011
752.359	0.0136833
752.437	0.0138081
752.515	0.0138494
752.593	0.0138714
752.671	0.0139532
752.749	0.0138672
752.828	0.0139852
752.906	0.0138441
752.984	0.0139698
753.062	0.0140758
753.140	0.0139799
753.218	0.0139079
753.296	0.0139957
753.374	0.0139838
753.453	0.0139516
753.531	0.0138518
753.609	0.0137159
753.687	0.0138066
753.765	0.0137066
753.843	0.0136644
753.921	0.0138127
753.999	0.0138045
754.078	0.0137159
754.156	0.0137614
754.234	0.0136255
754.312	0.0137099
754.390	0.0138191
754.468	0.0137145
754.546	0.0137190
754.624	0.0139763
754.703	0.0137671
754.781	0.0137723
754.859	0.0138415
754.937	0.0137411
755.015	0.0138104
755.093	0.0138416
755.171	0.0137073
755.249	0.0136671
755.328	0.0136674
755.406	0.0137209
755.484	0.0135514
755.562	0.0136100
755.640	0.0135989
755.718	0.0134711
755.796	0.0135128
755.874	0.0136217
755.953	0.0135556
756.031	0.0135558
756.109	0.0135574
756.187	0.0136327
756.265	0.0137099
756.343	0.0137494
756.421	0.0138161
756.499	0.0139634
756.578	0.0139376
756.656	0.0138985
756.734	0.0139381
756.812	0.0139518
756.890	0.0139230
756.968	0.0139296
757.046	0.0137962
757.124	0.0139680
757.203	0.0137849
757.281	0.0136874
757.359	0.0136565
757.437	0.0137449
757.515	0.0136513
757.593	0.0136745
757.671	0.0136303
757.749	0.0135468
757.828	0.0136497
757.906	0.0136840
757.984	0.0136118
758.062	0.0138813
758.140	0.0138927
758.218	0.0137875
758.296	0.0139429
758.374	0.0139612
758.453	0.0140689
758.531	0.0140685
758.609	0.0139436
758.687	0.0140428
758.765	0.0140366
758.843	0.0140746
758.921	0.0141115
758.999	0.0140095
759.078	0.0138396
759.156	0.0138034
759.234	0.0138852
759.312	0.0138574
759.390	0.0138601
759.468	0.0138644
759.546	0.0138768
759.624	0.0139151
759.703	0.0138882
759.781	0.0138334
759.859	0.0139323
759.937	0.0138112
760.015	0.0137737
760.093	0.0140980
760.171	0.0138606
760.249	0.0139814
760.328	0.0139983
760.406	0.0140947
760.484	0.0140023
760.562	0.0140253
760.640	0.0140214
760.718	0.0140716
760.796	0.0140194
760.874	0.0140173
760.953	0.0138834
761.031	0.0137179
761.109	0.0138751
761.187	0.0137640
761.265	0.0138210
761.343	0.0137041
761.421	0.0136707
761.499	0.0136442
761.578	0.0137287
761.656	0.0137361
761.734	0.0135998
761.812	0.0137515
761.890	0.0137501
761.968	0.0138298
762.046	0.0137480
762.124	0.0136478
762.203	0.0137278
762.281	0.0138585
762.359	0.0139201
762.437	0.0137968
762.515	0.0138586
762.593	0.0138470
762.671	0.0139235
762.749	0.0139584
762.828	0.0139930
762.906	0.0138534
762.984	0.0137603
763.062	0.0138490
763.140	0.0138888
763.218	0.0136993
763.296	0.0136245
763.374	0.0137339
763.453	0.0137625
763.531	0.0137598
763.609	0.0137104
763.687	0.0136445
763.765	0.0135961
763.843	0.0137350
763.921	0.0138126
763.999	0.0138579
764.078	0.0138306
764.156	0.0138405
764.234	0.0138859
764.312	0.0139281
764.390	0.0139918
764.468	0.0140980
764.546	0.0141388
764.624	0.0139232
764.703	0.0138461
764.781	0.0139604
764.859	0.0140482
764.937	0.0139580
765.015	0.0139239
765.093	0.0136916
765.171	0.0137663
765.249	0.0138702
765.328	0.0137099
765.406	0.0137502
765.484	0.0138015
765.562	0.0139668
765.640	0.0137711
765.718	0.0137135
765.796	0.0138924
765.874	0.0137787
765.953	0.0139760
766.031	0.0139914
766.109	0.0140434
766.187	0.0139729
766.265	0.0141051
766.343	0.0141193
766.421	0.0139720
766.499	0.0140443
766.578	0.0141870
766.656	0.0138488
766.734	0.0139554
766.812	0.0140024
766.890	0.0139212
766.968	0.0139441
767.046	0.0136256
767.124	0.0136796
767.203	0.0138242
767.281	0.0137562
767.359	0.0139924
767.437	0.0139046
767.515	0.0139359
767.593	0.0139197
767.671	0.0139795
767.749	0.0140916
767.828	0.0140427
767.906	0.0140520
767.984	0.0139058
768.062	0.0140275
768.140	0.0140299
768.218	0.0138940
768.296	0.0138119
768.374	0.0139218
768.453	0.0139580
768.531	0.0139246
768.609	0.0138979
768.687	0.0139726
768.765	0.0139941
768.843	0.0138078
768.921	0.0139346
768.999	0.0139762
769.078	0.0139320
769.156	0.0139250
769.234	0.0140327
769.312	0.0140204
769.390	0.0140334
769.468	0.0139621
769.546	0.0139370
769.624	0.0141313
769.703	0.0141324
769.781	0.0141029
769.859	0.0141293
769.937	0.0140990
770.015	0.0140257
770.093	0.0139512
770.171	0.0138741
770.249	0.0137842
770.328	0.0140249
770.406	0.0138749
770.484	0.0140084
770.562	0.0138618
770.640	0.0138488
770.718	0.0138465
770.796	0.0138212
770.874	0.0138404
770.953	0.0137830
771.031	0.0137218
771.109	0.0136234
771.187	0.0137853
771.265	0.0136510
771.343	0.0137037
771.421	0.0137183
771.499	0.0137191
771.578	0.0137306
771.656	0.0138618
771.734	0.0136230
771.812	0.0137455
771.890	0.0138149
771.968	0.0137901
772.046	0.0137598
772.124	0.0137815
772.203	0.0138627
772.281	0.0139449
772.359	0.0139671
772.437	0.0138874
772.515	0.0138037
772.593	0.0137612
772.671	0.0138351
772.749	0.0138933
772.828	0.0138753
772.906	0.0138316
772.984	0.0138509
773.062	0.0139271
773.140	0.0138474
773.218	0.0139046
773.296	0.0139681
773.374	0.0139228
773.453	0.0138770
773.531	0.0137894
773.609	0.0139624
773.687	0.0140475
773.765	0.0139980
773.843	0.0141073
773.921	0.0141201
773.999	0.0139577
774.078	0.0139180
774.156	0.0139842
774.234	0.0140117
774.312	0.0139253
774.390	0.0139705
774.468	0.0138878
774.546	0.0139342
774.624	0.0139019
774.703	0.0138420
774.781	0.0136800
774.859	0.0137376
774.937	0.0137367
775.015	0.0137144
775.093	0.0137761
775.171	0.0137890
775.249	0.0137071
775.328	0.0138229
775.406	0.0138280
775.484	0.0137467
775.562	0.0137624
775.640	0.0138821
775.718	0.0139350
775.796	0.0139445
775.874	0.0137434
775.953	0.0138470
776.031	0.0139530
776.109	0.0138116
776.187	0.0137269
776.265	0.0138245
776.343	0.0138641
776.421	0.0139014
776.499	0.0138547
776.578	0.0138142
776.656	0.0139101
776.734	0.0138251
776.812	0.0138313
776.890	0.0138014
776.968	0.0138453
777.046	0.0140269
777.124	0.0137624
777.203	0.0138780
777.281	0.0138982
777.359	0.0137308
777.437	0.0138712
777.515	0.0137505
777.593	0.0137838
777.671	0.0138350
777.749	0.0137000
777.828	0.0137860
777.906	0.0138675
777.984	0.0136493
778.062	0.0138322
778.140	0.0138925
778.218	0.0138786
778.296	0.0137530
778.374	0.0138110
778.453	0.0138206
778.531	0.0138380
778.609	0.0137855
778.687	0.0138950
778.765	0.0138906
778.843	0.0140253
778.921	0.0137378
778.999	0.0137833
779.078	0.0138412
779.156	0.0137728
779.234	0.0137245
779.312	0.0137455
779.390	0.0139333
779.468	0.0139471
779.546	0.0137788
779.624	0.0137492
779.703	0.0137871
779.781	0.0139378
779.859	0.0137386
779.937	0.0138297
780.015	0.0138783
780.093	0.0139573
780.171	0.0139262
780.249	0.0138094
780.328	0.0139579
780.406	0.0138996
780.484	0.0138750
780.562	0.0139922
780.640	0.0139717
780.718	0.0139710
780.796	0.0139156
780.874	0.0138058
780.953	0.0139098
781.031	0.0138369
781.109	0.0139022
781.187	0.0138799
781.265	0.0138420
781.343	0.0138122
781.421	0.0138241
781.499	0.0138593
781.578	0.0139462
781.656	0.0138217
781.734	0.0137126
781.812	0.0137614
781.890	0.0137317
781.968	0.0137806
782.046	0.0138776
782.124	0.0137662
782.203	0.0137655
782.281	0.0139174
782.359	0.0136534
782.437	0.0137035
782.515	0.0137612
782.593	0.0137331
782.671	0.0137322
782.749	0.0137122
782.828	0.0137790
782.906	0.0139351
782.984	0.0137220
783.062	0.0137265
783.140	0.0138266
783.218	0.0137954
783.296	0.0138094
783.374	0.0138200
783.453	0.0137482
783.531	0.0138001
783.609	0.0138165
783.687	0.0137604
783.765	0.0137110
783.843	0.0136957
783.921	0.0137460
783.999	0.0137798
784.078	0.0138429
784.156	0.0138776
784.234	0.0137852
784.312	0.0137574
784.390	0.0138215
784.468	0.0140166
784.546	0.0139751
784.624	0.0141302
784.703	0.0140371
784.781	0.0141389
784.859	0.0140511
784.937	0.0142938
785.015	0.0141599
785.093	0.0140421
785.171	0.0139951
785.249	0.0140170
785.328	0.0140838
785.406	0.0139525
785.484	0.0139962
785.562	0.0140390
785.640	0.0139416
785.718	0.0139830
785.796	0.0140046
785.874	0.0137389
785.953	0.0139065
786.031	0.0138601
786.109	0.0137873
786.187	0.0138737
786.265	0.0139540
786.343	0.0139562
786.421	0.0138447
786.499	0.0138500
786.578	0.0138013
786.656	0.0137273
786.734	0.0139192
786.812	0.0139353
786.890	0.0138720
786.968	0.0138397
787.046	0.0138123
787.124	0.0138895
787.203	0.0138807
787.281	0.0138148
787.359	0.0137740
787.437	0.0138711
787.515	0.0138284
787.593	0.0138702
787.671	0.0138411
787.749	0.0136668
787.828	0.0138622
787.906	0.0138911
787.984	0.0137663
788.062	0.0137981
788.140	0.0139027
788.218	0.0138524
788.296	0.0137267
788.374	0.0137698
788.453	0.0137192
788.531	0.0138466
788.609	0.0139140
788.687	0.0138042
788.765	0.0140308
788.843	0.0138734
788.921	0.0137894
788.999	0.0138789
789.078	0.0139101
789.156	0.0139606
789.234	0.0138383
789.312	0.0138516
789.390	0.0138632
789.468	0.0138265
789.546	0.0138822
789.624	0.0139359
789.703	0.0139732
789.781	0.0139024
789.859	0.0140975
789.937	0.0140385
790.015	0.0138290
790.093	0.0140437
790.171	0.0140679
790.249	0.0140291
790.328	0.0138998
790.406	0.0140971
790.484	0.0139811
790.562	0.0138728
790.640	0.0139387
790.718	0.0139813
790.796	0.0139268
790.874	0.0138440
790.953	0.0138531
791.031	0.0137258
791.109	0.0139819
791.187	0.0138619
791.265	0.0139630
791.343	0.0139679
791.421	0.0139823
791.499	0.0139333
791.578	0.0140009
791.656	0.0140471
791.734	0.0139823
791.812	0.0138508
791.890	0.0138938
791.968	0.0140798
792.046	0.0139791
792.124	0.0139385
792.203	0.0139233
792.281	0.0139616
792.359	0.0139423
792.437	0.0139928
792.515	0.0139330
792.593	0.0139406
792.671	0.0138413
792.749	0.0139816
792.828	0.0138297
792.906	0.0138250
792.984	0.0138910
793.062	0.0139489
793.140	0.0140948
793.218	0.0139203
793.296	0.0140884
793.374	0.0139959
793.453	0.0138689
793.531	0.0139547
793.609	0.0140784
793.687	0.0139960
793.765	0.0140664
793.843	0.0140240
793.921	0.0140926
793.999	0.0139423
794.078	0.0138858
794.156	0.0140141
794.234	0.0139909
794.312	0.0139104
794.390	0.0138676
794.468	0.0139109
794.546	0.0138791
794.624	0.0139784
794.703	0.0137986
794.781	0.0138689
794.859	0.0139533
794.937	0.0137872
795.015	0.0138174
795.093	0.0139735
795.171	0.0138480
795.249	0.0139000
795.328	0.0137873
795.406	0.0139298
795.484	0.0139368
795.562	0.0139825
795.640	0.0141179
795.718	0.0138277
795.796	0.0139152
795.874	0.0138530
795.953	0.0139345
796.031	0.0138899
796.109	0.0138585
796.187	0.0139178
796.265	0.0139407
796.343	0.0139491
796.421	0.0138216
796.499	0.0138809
796.578	0.0139322
796.656	0.0138119
796.734	0.0138814
796.812	0.0137641
796.890	0.0137073
796.968	0.0138863
797.046	0.0138490
797.124	0.0138901
797.203	0.0138014
797.281	0.0138211
797.359	0.0138785
797.437	0.0139581
797.515	0.0138837
797.593	0.0139381
797.671	0.0139170
797.749	0.0139496
797.828	0.0139173
797.906	0.0139270
797.984	0.0138425
798.062	0.0138302
798.140	0.0139149
798.218	0.0138309
798.296	0.0136978
798.374	0.0137906
798.453	0.0139495
798.531	0.0137907
798.609	0.0137775
798.687	0.0138176
798.765	0.0137992
798.843	0.0137983
798.921	0.0137108
798.999	0.0137899
799.078	0.0138783
799.156	0.0136527
799.234	0.0138101
799.312	0.0138268
799.390	0.0137235
799.468	0.0139225
799.546	0.0139017
799.624	0.0138529
799.703	0.0138831
799.781	0.0139063
799.859	0.0138895
799.937	0.0140302
800.015	0.0138152
800.093	0.0138654
800.171	0.0138100
800.249	0.0138194
800.328	0.0139294
800.406	0.0138350
800.484	0.0138624
800.562	0.0138761
800.640	0.0139870
800.718	0.0138969
800.796	0.0139403
800.874	0.0139758
800.953	0.0139841
801.031	0.0139456
801.109	0.0140263
801.187	0.0139444
801.265	0.0139275
801.343	0.0138676
801.421	0.0139385
801.499	0.0139386
801.578	0.0137894
801.656	0.0138004
801.734	0.0138907
801.812	0.0138743
801.890	0.0136945
801.968	0.0137695
802.046	0.0138118
802.124	0.0138668
802.203	0.0137743
802.281	0.0137328
802.359	0.0137646
802.437	0.0137284
802.515	0.0138884
802.593	0.0138006
802.671	0.0136890
802.749	0.0136144
802.828	0.0136639
802.906	0.0136289
802.984	0.0136399
803.062	0.0137498
803.140	0.0137112
803.218	0.0137552
803.296	0.0137582
803.374	0.0138177
803.453	0.0137979
803.531	0.0138071
803.609	0.0138033
803.687	0.0137015
803.765	0.0136844
803.843	0.0136848
803.921	0.0137038
803.999	0.0136658
804.078	0.0137347
804.156	0.0137981
804.234	0.0139475
804.312	0.0137791
804.390	0.0135484
804.468	0.0138454
804.546	0.0139172
804.624	0.0136671
804.703	0.0138201
804.781	0.0138082
804.859	0.0136911
804.937	0.0137519
805.015	0.0139652
805.093	0.0136706
805.171	0.0138834
805.249	0.0138263
805.328	0.0137409
805.406	0.0139657
805.484	0.0139630
805.562	0.0139716
805.640	0.0138078
805.718	0.0139540
805.796	0.0139530
805.874	0.0139693
805.953	0.0139035
806.031	0.0138696
806.109	0.0140179
806.187	0.0138487
806.265	0.0140039
806.343	0.0139120
806.421	0.0139515
806.499	0.0139370
806.578	0.0139606
806.656	0.0137837
806.734	0.0139227
806.812	0.0139458
806.890	0.0139569
806.968	0.0140455
807.046	0.0138464
807.124	0.0138706
807.203	0.0138575
807.281	0.0139124
807.359	0.0138303
807.437	0.0138702
807.515	0.0141202
807.593	0.0140237
807.671	0.0139442
807.749	0.0138601
807.828	0.0140232
807.906	0.0139199
807.984	0.0139848
808.062	0.0139323
808.140	0.0137641
808.218	0.0138303
808.296	0.0138955
808.374	0.0139197
808.453	0.0138470
808.531	0.0138363
808.609	0.0138741
808.687	0.0139885
808.765	0.0139620
808.843	0.0138448
808.921	0.0139658
808.999	0.0139001
809.078	0.0139346
809.156	0.0139159
809.234	0.0139787
809.312	0.0139811
809.390	0.0140317
809.468	0.0138927
809.546	0.0139108
809.624	0.0140092
809.703	0.0139503
809.781	0.0139072
809.859	0.0139728
809.937	0.0138683
810.015	0.0138983
810.093	0.0138904
810.171	0.0139019
810.249	0.0138955
810.328	0.0139795
810.406	0.0138091
810.484	0.0139603
810.562	0.0139256
810.640	0.0139240
810.718	0.0140312
810.796	0.0138940
810.874	0.0141029
810.953	0.0139222
811.031	0.0139037
811.109	0.0138680
811.187	0.0140180
811.265	0.0138756
811.343	0.0139871
811.421	0.0139942
811.499	0.0138406
811.578	0.0139111
811.656	0.0139577
811.734	0.0140224
811.812	0.0140290
811.890	0.0139852
811.968	0.0139954
812.046	0.0138522
812.124	0.0140257
812.203	0.0140187
812.281	0.0138741
812.359	0.0139172
812.437	0.0139022
812.515	0.0140719
812.593	0.0140810
812.671	0.0140976
812.749	0.0140168
812.828	0.0140252
812.906	0.0140485
812.984	0.0140665
813.062	0.0140578
813.140	0.0139375
813.218	0.0140624
813.296	0.0142540
813.374	0.0140541
813.453	0.0138443
813.531	0.0139543
813.609	0.0140130
813.687	0.0140697
813.765	0.0139626
813.843	0.0138406
813.921	0.0137663
813.999	0.0137588
814.078	0.0139104
814.156	0.0139064
814.234	0.0139452
814.312	0.0139272
814.390	0.0139713
814.468	0.0138411
814.546	0.0139216
814.624	0.0139680
814.703	0.0138993
814.781	0.0139556
814.859	0.0139829
814.937	0.0140448
815.015	0.0139794
815.093	0.0139169
815.171	0.0139344
815.249	0.0138783
815.328	0.0139133
815.406	0.0140043
815.484	0.0139191
815.562	0.0140057
815.640	0.0139886
815.718	0.0140154
815.796	0.0140398
815.874	0.0139839
815.953	0.0138557
816.031	0.0139862
816.109	0.0139832
816.187	0.0139327
816.265	0.0139294
816.343	0.0139657
816.421	0.0139361
816.499	0.0139787
816.578	0.0139500
816.656	0.0139204
816.734	0.0139716
816.812	0.0139324
816.890	0.0140250
816.968	0.0139486
817.046	0.0140971
817.124	0.0140573
817.203	0.0139159
817.281	0.0138990
817.359	0.0139510
817.437	0.0138214
817.515	0.0139683
817.593	0.0138965
817.671	0.0137931
817.749	0.0137898
817.828	0.0138641
817.906	0.0137504
817.984	0.0137656
818.062	0.0138094
818.140	0.0137273
818.218	0.0138255
818.296	0.0137956
818.374	0.0137339
818.453	0.0137946
818.531	0.0137479
818.609	0.0136931
818.687	0.0136993
818.765	0.0136170
818.843	0.0137273
818.921	0.0137907
818.999	0.0137127
819.078	0.0137323
819.156	0.0137291
819.234	0.0137595
819.312	0.0137180
819.390	0.0137946
819.468	0.0137677
819.546	0.0137359
819.624	0.0138451
819.703	0.0136689
819.781	0.0136877
819.859	0.0137582
819.937	0.0136916
820.015	0.0136777
820.093	0.0137257
820.171	0.0136446
820.249	0.0136859
820.328	0.0137177
820.406	0.0137663
820.484	0.0136555
820.562	0.0137386
820.640	0.0137187
820.718	0.0136466
820.796	0.0137714
820.874	0.0136270
820.953	0.0137458
821.031	0.0137642
821.109	0.0137402
821.187	0.0137346
821.265	0.0136801
821.343	0.0137714
821.421	0.0136391
821.499	0.0138409
821.578	0.0138088
821.656	0.0137370
821.734	0.0136977
821.812	0.0137386
821.890	0.0137659
821.968	0.0137295
822.046	0.0137141
822.124	0.0138928
822.203	0.0136667
822.281	0.0138210
822.359	0.0137239
822.437	0.0138467
822.515	0.0139066
822.593	0.0139371
822.671	0.0138062
822.749	0.0139693
822.828	0.0139520
822.906	0.0140272
822.984	0.0138661
823.062	0.0139861
823.140	0.0141788
823.218	0.0142272
823.296	0.0141100
823.374	0.0139249
823.453	0.0140236
823.531	0.0139340
823.609	0.0139988
823.687	0.0139706
823.765	0.0139408
823.843	0.0140170
823.921	0.0140205
823.999	0.0140781
824.078	0.0139105
824.156	0.0139064
824.234	0.0138424
824.312	0.0138548
824.390	0.0140696
824.468	0.0138138
824.546	0.0137659
824.624	0.0139313
824.703	0.0138688
824.781	0.0137061
824.859	0.0138368
824.937	0.0137695
825.015	0.0137328
825.093	0.0137304
825.171	0.0138047
825.249	0.0136784
825.328	0.0137876
825.406	0.0137981
825.484	0.0137796
825.562	0.0137260
825.640	0.0137630
825.718	0.0138602
825.796	0.0137095
825.874	0.0137259
825.953	0.0137261
826.031	0.0138517
826.109	0.0138231
826.187	0.0137740
826.265	0.0137567
826.343	0.0137523
826.421	0.0138548
826.499	0.0137009
826.578	0.0137048
826.656	0.0137928
826.734	0.0138736
826.812	0.0138186
826.890	0.0137347
826.968	0.0140083
827.046	0.0137759
827.124	0.0138287
827.203	0.0138041
827.281	0.0138746
827.359	0.0138574
827.437	0.0138177
827.515	0.0137402
827.593	0.0138314
827.671	0.0138061
827.749	0.0138176
827.828	0.0137936
827.906	0.0140155
827.984	0.0138833
828.062	0.0138396
828.140	0.0137340
828.218	0.0139568
828.296	0.0136891
828.374	0.0137488
828.453	0.0139602
828.531	0.0139123
828.609	0.0137991
828.687	0.0137416
828.765	0.0138010
828.843	0.0137807
828.921	0.0137674
828.999	0.0137206
829.078	0.0138351
829.156	0.0138628
829.234	0.0138843
829.312	0.0138500
829.390	0.0137332
829.468	0.0136256
829.546	0.0138623
829.624	0.0139328
829.703	0.0138647
829.781	0.0137681
829.859	0.0138141
829.937	0.0138621
830.015	0.0137572
830.093	0.0138097
830.171	0.0137537
830.249	0.0138387
830.328	0.0138847
830.406	0.0138737
830.484	0.0138361
830.562	0.0139196
830.640	0.0138338
830.718	0.0139316
830.796	0.0138118
830.874	0.0136961
830.953	0.0138600
831.031	0.0139984
831.109	0.0139849
831.187	0.0138972
831.265	0.0138188
831.343	0.0137742
831.421	0.0139442
831.499	0.0138020
831.578	0.0138615
831.656	0.0138727
831.734	0.0139674
831.812	0.0140211
831.890	0.0139070
831.968	0.0138289
832.046	0.0139807
832.124	0.0138461
832.203	0.0138850
832.281	0.0138824
832.359	0.0139287
832.437	0.0139567
832.515	0.0141560
832.593	0.0139138
832.671	0.0139058
832.749	0.0138161
832.828	0.0139285
832.906	0.0140200
832.984	0.0138745
833.062	0.0137791
833.140	0.0140022
833.218	0.0140636
833.296	0.0138828
833.374	0.0139143
833.453	0.0138660
833.531	0.0138727
833.609	0.0137759
833.687	0.0139774
833.765	0.0136983
833.843	0.0137522
833.921	0.0138374
833.999	0.0138994
834.078	0.0139326
834.156	0.0140201
834.234	0.0139822
834.312	0.0139267
834.390	0.0138631
834.468	0.0139328
834.546	0.0139113
834.624	0.0141323
834.703	0.0139412
834.781	0.0139950
834.859	0.0139286
834.937	0.0140096
835.015	0.0141055
835.093	0.0139854
835.171	0.0139080
835.249	0.0138215
835.328	0.0139597
835.406	0.0139611
835.484	0.0139246
835.562	0.0138561
835.640	0.0139767
835.718	0.0140546
835.796	0.0138894
835.874	0.0138985
835.953	0.0139666
836.031	0.0139567
836.109	0.0139382
836.187	0.0139160
836.265	0.0139881
836.343	0.0139834
836.421	0.0139611
836.499	0.0138807
836.578	0.0139838
836.656	0.0140635
836.734	0.0139511
836.812	0.0138487
836.890	0.0138897
836.968	0.0138812
837.046	0.0139378
837.124	0.0138105
837.203	0.0137451
837.281	0.0138913
837.359	0.0139027
837.437	0.0137097
837.515	0.0137818
837.593	0.0139114
837.671	0.0138280
837.749	0.0138123
837.828	0.0139007
837.906	0.0138817
837.984	0.0138215
838.062	0.0138563
838.140	0.0139193
838.218	0.0140144
838.296	0.0139774
838.374	0.0139804
838.453	0.0140575
838.531	0.0141438
838.609	0.0140223
838.687	0.0138943
838.765	0.0139233
838.843	0.0140554
838.921	0.0139401
838.999	0.0140291
839.078	0.0141290
839.156	0.0138781
839.234	0.0140035
839.312	0.0138408
839.390	0.0139121
839.468	0.0138626
839.546	0.0138882
839.624	0.0138255
839.703	0.0138329
839.781	0.0139808
839.859	0.0137653
839.937	0.0138290
840.015	0.0139500
840.093	0.0140036
840.171	0.0138769
840.249	0.0137882
840.328	0.0138104
840.406	0.0137127
840.484	0.0138453
840.562	0.0138718
840.640	0.0138091
840.718	0.0137687
840.796	0.0137791
840.874	0.0138992
840.953	0.0137970
841.031	0.0137491
841.109	0.0139601
841.187	0.0136508
841.265	0.0137109
841.343	0.0139003
841.421	0.0139818
841.499	0.0139671
841.578	0.0139082
841.656	0.0141326
841.734	0.0140137
841.812	0.0139014
841.890	0.0140717
841.968	0.0140088
842.046	0.0139005
842.124	0.0139201
842.203	0.0139624
842.281	0.0140206
842.359	0.0139587
842.437	0.0139572
842.515	0.0139075
842.593	0.0139050
842.671	0.0139377
842.749	0.0139312
842.828	0.0139744
842.906	0.0139074
842.984	0.0139960
843.062	0.0139017
843.140	0.0138105
843.218	0.0138403
843.296	0.0139387
843.374	0.0138523
843.453	0.0138464
843.531	0.0140116
843.609	0.0138674
843.687	0.0139552
843.765	0.0138830
843.843	0.0139025
843.921	0.0140107
843.999	0.0141399
844.078	0.0139433
844.156	0.0138731
844.234	0.0139495
844.312	0.0139287
844.390	0.0139233
844.468	0.0137886
844.546	0.0138129
844.624	0.0140398
844.703	0.0138592
844.781	0.0138229
844.859	0.0137700
844.937	0.0139218
845.015	0.0139416
845.093	0.0138198
845.171	0.0139244
845.249	0.0140049
845.328	0.0139870
845.406	0.0138240
845.484	0.0139169
845.562	0.0139389
845.640	0.0140326
845.718	0.0140509
845.796	0.0139197
845.874	0.0140243
845.953	0.0139935
846.031	0.0140764
846.109	0.0139762
846.187	0.0138898
846.265	0.0139716
846.343	0.0141282
846.421	0.0140521
846.499	0.0140238
846.578	0.0140026
846.656	0.0140611
846.734	0.0140472
846.812	0.0139885
846.890	0.0140625
846.968	0.0139539
847.046	0.0139488
847.124	0.0140183
847.203	0.0140047
847.281	0.0139531
847.359	0.0140157
847.437	0.0139686
847.515	0.0139968
847.593	0.0139664
847.671	0.0138660
847.749	0.0139172
847.828	0.0138869
847.906	0.0139322
847.984	0.0139358
848.062	0.0138092
848.140	0.0139636
848.218	0.0138399
848.296	0.0138313
848.374	0.0138242
848.453	0.0139211
848.531	0.0138288
848.609	0.0138402
848.687	0.0138594
848.765	0.0138569
848.843	0.0139135
848.921	0.0138625
848.999	0.0139091
849.078	0.0138721
849.156	0.0138719
849.234	0.0138537
849.312	0.0139167
849.390	0.0138766
849.468	0.0138593
849.546	0.0139198
849.624	0.0137530
849.703	0.0137680
849.781	0.0138166
849.859	0.0137961
849.937	0.0137499
850.015	0.0137982
850.093	0.0138401
850.171	0.0136137
850.249	0.0137089
850.328	0.0136926
850.406	0.0137999
850.484	0.0137788
850.562	0.0138004
850.640	0.0137488
850.718	0.0138556
850.796	0.0138923
850.874	0.0137177
850.953	0.0137048
851.031	0.0139089
851.109	0.0138203
851.187	0.0136825
851.265	0.0138329
851.343	0.0139210
851.421	0.0138203
851.499	0.0138351
851.578	0.0137737
851.656	0.0138718
851.734	0.0139117
851.812	0.0138041
851.890	0.0137380
851.968	0.0137975
852.046	0.0138055
852.124	0.0138575
852.203	0.0137422
852.281	0.0138051
852.359	0.0137363
852.437	0.0138808
852.515	0.0140092
852.593	0.0140408
852.671	0.0138257
852.749	0.0137773
852.828	0.0139127
852.906	0.0139423
852.984	0.0138737
853.062	0.0139792
853.140	0.0139896
853.218	0.0138148
853.296	0.0137818
853.374	0.0138950
853.453	0.0139252
853.531	0.0138785
853.609	0.0138072
853.687	0.0139185
853.765	0.0137922
853.843	0.0139504
853.921	0.0139390
853.999	0.0137534
854.078	0.0138000
854.156	0.0137817
854.234	0.0138077
854.312	0.0137998
854.390	0.0139022
854.468	0.0139098
854.546	0.0138721
854.624	0.0137049
854.703	0.0138152
854.781	0.0137920
854.859	0.0136726
854.937	0.0136916
855.015	0.0136292
855.093	0.0138823
855.171	0.0137635
855.249	0.0136617
855.328	0.0135772
855.406	0.0138492
855.484	0.0137545
855.562	0.0135742
855.640	0.0135478
855.718	0.0137802
855.796	0.0136372
855.874	0.0136707
855.953	0.0137167
856.031	0.0137616
856.109	0.0136847
856.187	0.0137412
856.265	0.0135448
856.343	0.0137581
856.421	0.0138078
856.499	0.0138461
856.578	0.0138084
856.656	0.0138654
856.734	0.0138383
856.812	0.0136501
856.890	0.0137466
856.968	0.0137887
857.046	0.0138249
857.124	0.0136662
857.203	0.0136561
857.281	0.0137583
857.359	0.0137259
857.437	0.0137390
857.515	0.0137196
857.593	0.0137546
857.671	0.0136256
857.749	0.0135677
857.828	0.0136875
857.906	0.0137499
857.984	0.0137457
858.062	0.0136886
858.140	0.0138837
858.218	0.0138356
858.296	0.0137718
858.374	0.0137583
858.453	0.0137498
858.531	0.0139075
858.609	0.0138329
858.687	0.0137905
858.765	0.0138020
858.843	0.0138078
858.921	0.0137737
858.999	0.0137067
859.078	0.0136599
859.156	0.0137156
859.234	0.0137701
859.312	0.0138087
859.390	0.0137576
859.468	0.0137575
859.546	0.0137814
859.624	0.0137656
859.703	0.0138327
859.781	0.0135641
859.859	0.0137788
859.937	0.0138047
860.015	0.0137467
860.093	0.0138337
860.171	0.0139558
860.249	0.0139143
860.328	0.0138135
860.406	0.0138240
860.484	0.0138464
860.562	0.0139337
860.640	0.0139965
860.718	0.0139545
860.796	0.0139758
860.874	0.0139046
860.953	0.0139848
861.031	0.0138058
861.109	0.0137865
861.187	0.0137237
861.265	0.0138676
861.343	0.0137953
861.421	0.0138281
861.499	0.0137609
861.578	0.0137708
861.656	0.0138195
861.734	0.0137086
861.812	0.0136145
861.890	0.0137449
861.968	0.0138386
862.046	0.0136419
862.124	0.0138270
862.203	0.0138319
862.281	0.0138316
862.359	0.0138128
862.437	0.0137753
862.515	0.0138895
862.593	0.0138822
862.671	0.0138507
862.749	0.0136854
862.828	0.0139841
862.906	0.0138480
862.984	0.0139342
863.062	0.0139403
863.140	0.0138371
863.218	0.0138698
863.296	0.0137505
863.374	0.0137444
863.453	0.0137787
863.531	0.0137260
863.609	0.0135610
863.687	0.0136813
863.765	0.0138032
863.843	0.0137714
863.921	0.0138408
863.999	0.0138865
864.078	0.0139676
864.156	0.0140955
864.234	0.0139760
864.312	0.0139028
864.390	0.0140077
864.468	0.0140696
864.546	0.0141149
864.624	0.0139359
864.703	0.0139686
864.781	0.0141485
864.859	0.0141724
864.937	0.0139933
865.015	0.0140307
865.093	0.0139529
865.171	0.0139597
865.249	0.0140944
865.328	0.0138941
865.406	0.0138670
865.484	0.0139487
865.562	0.0140077
865.640	0.0137595
865.718	0.0138425
865.796	0.0140475
865.874	0.0139371
865.953	0.0138342
866.031	0.0140108
866.109	0.0139886
866.187	0.0139782
866.265	0.0139432
866.343	0.0139359
866.421	0.0139011
866.499	0.0139062
866.578	0.0138850
866.656	0.0138713
866.734	0.0138396
866.812	0.0139011
866.890	0.0138054
866.968	0.0138428
867.046	0.0138349
867.124	0.0136778
867.203	0.0136742
867.281	0.0137055
867.359	0.0137539
867.437	0.0137379
867.515	0.0137526
867.593	0.0137464
867.671	0.0138137
867.749	0.0137482
867.828	0.0137095
867.906	0.0137822
867.984	0.0138797
868.062	0.0139278
868.140	0.0140161
868.218	0.0139423
868.296	0.0139336
868.374	0.0139368
868.453	0.0138355
868.531	0.0138725
868.609	0.0138470
868.687	0.0141245
868.765	0.0138656
868.843	0.0140331
868.921	0.0140510
868.999	0.0140657
869.078	0.0140989
869.156	0.0140092
869.234	0.0139462
869.312	0.0139708
869.390	0.0141637
869.468	0.0140285
869.546	0.0139198
869.624	0.0140878
869.703	0.0139839
869.781	0.0138932
869.859	0.0138839
869.937	0.0139727
870.015	0.0139509
870.093	0.0139465
870.171	0.0138586
870.249	0.0139698
870.328	0.0138399
870.406	0.0137823
870.484	0.0139175
870.562	0.0139162
870.640	0.0138102
870.718	0.0139124
870.796	0.0138367
870.874	0.0139249
870.953	0.0139126
871.031	0.0138409
871.109	0.0140543
871.187	0.0139275
871.265	0.0137737
871.343	0.0139014
871.421	0.0140825
871.499	0.0139642
871.578	0.0139939
871.656	0.0140309
871.734	0.0140086
871.812	0.0139199
871.890	0.0139312
871.968	0.0139874
872.046	0.0140512
872.124	0.0140347
872.203	0.0140580
872.281	0.0140995
872.359	0.0139221
872.437	0.0139196
872.515	0.0139298
872.593	0.0138747
872.671	0.0139817
872.749	0.0140272
872.828	0.0139667
872.906	0.0139371
872.984	0.0138865
873.062	0.0137961
873.140	0.0138400
873.218	0.0138905
873.296	0.0139478
873.374	0.0138507
873.453	0.0138232
873.531	0.0138899
873.609	0.0138316
873.687	0.0140298
873.765	0.0139282
873.843	0.0137840
873.921	0.0139680
873.999	0.0138120
874.078	0.0139186
874.156	0.0138882
874.234	0.0137703
874.312	0.0139249
874.390	0.0137885
874.468	0.0137930
874.546	0.0138539
874.624	0.0137632
874.703	0.0138033
874.781	0.0138137
874.859	0.0136951
874.937	0.0137542
875.015	0.0138827
875.093	0.0138613
875.171	0.0139557
875.249	0.0139864
875.328	0.0138898
875.406	0.0138743
875.484	0.0139417
875.562	0.0138610
875.640	0.0138511
875.718	0.0139310
875.796	0.0139873
875.874	0.0140220
875.953	0.0139292
876.031	0.0139206
876.109	0.0139332
876.187	0.0139267
876.265	0.0139194
876.343	0.0139386
876.421	0.0139197
876.499	0.0140462
876.578	0.0138602
876.656	0.0139915
876.734	0.0139052
876.812	0.0138966
876.890	0.0138871
876.968	0.0137435
877.046	0.0138680
877.124	0.0139327
877.203	0.0138510
877.281	0.0137476
877.359	0.0138667
877.437	0.0138428
877.515	0.0138717
877.593	0.0137659
877.671	0.0137855
877.749	0.0138605
877.828	0.0138114
877.906	0.0137078
877.984	0.0138493
878.062	0.0137904
878.140	0.0139071
878.218	0.0137560
878.296	0.0138342
878.374	0.0140108
878.453	0.0137953
878.531	0.0138107
878.609	0.0138190
878.687	0.0137619
878.765	0.0137534
878.843	0.0137015
878.921	0.0136821
878.999	0.0138142
879.078	0.0137036
879.156	0.0137330
879.234	0.0135450
879.312	0.0136302
879.390	0.0138311
879.468	0.0135513
879.546	0.0137617
879.624	0.0137231
879.703	0.0138708
879.781	0.0137742
879.859	0.0136146
879.937	0.0138689
880.015	0.0139722
880.093	0.0139481
880.171	0.0138577
880.249	0.0139081
880.328	0.0139626
880.406	0.0138441
880.484	0.0137271
880.562	0.0138331
880.640	0.0139004
880.718	0.0137551
880.796	0.0136936
880.874	0.0137553
880.953	0.0138419
881.031	0.0137231
881.109	0.0135748
881.187	0.0136693
881.265	0.0136897
881.343	0.0136228
881.421	0.0136691
881.499	0.0137186
881.578	0.0137341
881.656	0.0139010
881.734	0.0138071
881.812	0.0138143
881.890	0.0139283
881.968	0.0137247
882.046	0.0137094
882.124	0.0137646
882.203	0.0137161
882.281	0.0137374
882.359	0.0137087
882.437	0.0137581
882.515	0.0137220
882.593	0.0137754
882.671	0.0137354
882.749	0.0136654
882.828	0.0134589
882.906	0.0137773
882.984	0.0137231
883.062	0.0137335
883.140	0.0137643
883.218	0.0136388
883.296	0.0137337
883.374	0.0136826
883.453	0.0136638
883.531	0.0136917
883.609	0.0137463
883.687	0.0136699
883.765	0.0137222
883.843	0.0138733
883.921	0.0137207
883.999	0.0137246
884.078	0.0137782
884.156	0.0137017
884.234	0.0137683
884.312	0.0137611
884.390	0.0137543
884.468	0.0138646
884.546	0.0139282
884.624	0.0138752
884.703	0.0138200
884.781	0.0137294
884.859	0.0139380
884.937	0.0138837
885.015	0.0137531
885.093	0.0138761
885.171	0.0139278
885.249	0.0138013
885.328	0.0136987
885.406	0.0138724
885.484	0.0137733
885.562	0.0138821
885.640	0.0138359
885.718	0.0137267
885.796	0.0138800
885.874	0.0137704
885.953	0.0137522
886.031	0.0137066
886.109	0.0138960
886.187	0.0138258
886.265	0.0137608
886.343	0.0137482
886.421	0.0137776
886.499	0.0139059
886.578	0.0138138
886.656	0.0138305
886.734	0.0137820
886.812	0.0137579
886.890	0.0138657
886.968	0.0139012
887.046	0.0137141
887.124	0.0139122
887.203	0.0139260
887.281	0.0138243
887.359	0.0138652
887.437	0.0137629
887.515	0.0139105
887.593	0.0139917
887.671	0.0137852
887.749	0.0138743
887.828	0.0139668
887.906	0.0137483
887.984	0.0138648
888.062	0.0139040
888.140	0.0139241
888.218	0.0139312
888.296	0.0137669
888.374	0.0138985
888.453	0.0138441
888.531	0.0138510
888.609	0.0137902
888.687	0.0138828
888.765	0.0139423
888.843	0.0139204
888.921	0.0138702
888.999	0.0139301
889.078	0.0139999
889.156	0.0139878
889.234	0.0139982
889.312	0.0138530
889.390	0.0139878
889.468	0.0139864
889.546	0.0138264
889.624	0.0138464
889.703	0.0141123
889.781	0.0141310
889.859	0.0140910
889.937	0.0139354
890.015	0.0139529
890.093	0.0138396
890.171	0.0139572
890.249	0.0139801
890.328	0.0139405
890.406	0.0138787
890.484	0.0138988
890.562	0.0139921
890.640	0.0139506
890.718	0.0139277
890.796	0.0140351
890.874	0.0140443
890.953	0.0140219
891.031	0.0140151
891.109	0.0140207
891.187	0.0141126
891.265	0.0141697
891.343	0.0139966
891.421	0.0140246
891.499	0.0140021
891.578	0.0139404
891.656	0.0140677
891.734	0.0141201
891.812	0.0140121
891.890	0.0140308
891.968	0.0140699
892.046	0.0139755
892.124	0.0139413
892.203	0.0139820
892.281	0.0139407
892.359	0.0139861
892.437	0.0140670
892.515	0.0140156
892.593	0.0139545
892.671	0.0140009
892.749	0.0141455
892.828	0.0140962
892.906	0.0140290
892.984	0.0141246
893.062	0.0140950
893.140	0.0140160
893.218	0.0140030
893.296	0.0140801
893.374	0.0140988
893.453	0.0139443
893.531	0.0139816
893.609	0.0140407
893.687	0.0139311
893.765	0.0141001
893.843	0.0142199
893.921	0.0140379
893.999	0.0139326
894.078	0.0137875
894.156	0.0138982
894.234	0.0139741
894.312	0.0141051
894.390	0.0138977
894.468	0.0140282
894.546	0.0139411
894.624	0.0140547
894.703	0.0141068
894.781	0.0140020
894.859	0.0140883
894.937	0.0140349
895.015	0.0139498
895.093	0.0139962
895.171	0.0141442
895.249	0.0138826
895.328	0.0140524
895.406	0.0141351
895.484	0.0139580
895.562	0.0138730
895.640	0.0140942
895.718	0.0140052
895.796	0.0139716
895.874	0.0139907
895.953	0.0139223
896.031	0.0139868
896.109	0.0140685
896.187	0.0140434
896.265	0.0139323
896.343	0.0138803
896.421	0.0139835
896.499	0.0140713
896.578	0.0140166
896.656	0.0139577
896.734	0.0138525
896.812	0.0139530
896.890	0.0139999
896.968	0.0140160
897.046	0.0141080
897.124	0.0139533
897.203	0.0137811
897.281	0.0139828
897.359	0.0138865
897.437	0.0137756
897.515	0.0138630
897.593	0.0138390
897.671	0.0139426
897.749	0.0137634
897.828	0.0138678
897.906	0.0138132
897.984	0.0138973
898.062	0.0139459
898.140	0.0139569
898.218	0.0138795
898.296	0.0137067
898.374	0.0138554
898.453	0.0139680
898.531	0.0138884
898.609	0.0138731
898.687	0.0140198
898.765	0.0138207
898.843	0.0137354
898.921	0.0137838
898.999	0.0140219
899.078	0.0137881
899.156	0.0138097
899.234	0.0138386
899.312	0.0138308
899.390	0.0137587
899.468	0.0138721
899.546	0.0136923
899.624	0.0136988
899.703	0.0137162
899.781	0.0136670
899.859	0.0136527
899.937	0.0137204
900.015	0.0137962
900.093	0.0136377
900.171	0.0136461
900.249	0.0136743
900.328	0.0137472
900.406	0.0136633
900.484	0.0137024
900.562	0.0138783
900.640	0.0138031
900.718	0.0138163
900.796	0.0137780
900.874	0.0138154
900.953	0.0137807
901.031	0.0137723
901.109	0.0138264
901.187	0.0138862
901.265	0.0137475
901.343	0.0137547
901.421	0.0137883
901.499	0.0138484
901.578	0.0139355
901.656	0.0138290
901.734	0.0137854
901.812	0.0137141
901.890	0.0138146
901.968	0.0138794
902.046	0.0139516
902.124	0.0139620
902.203	0.0139123
902.281	0.0139218
902.359	0.0139971
902.437	0.0139451
902.515	0.0139572
902.593	0.0138006
902.671	0.0138470
902.749	0.0139262
902.828	0.0140584
902.906	0.0139247
902.984	0.0139825
903.062	0.0139071
903.140	0.0138811
903.218	0.0137853
903.296	0.0139516
903.374	0.0138131
903.453	0.0139062
903.531	0.0139266
903.609	0.0138754
903.687	0.0137690
903.765	0.0137490
903.843	0.0135585
903.921	0.0138840
903.999	0.0137081
904.078	0.0136751
904.156	0.0137010
904.234	0.0136205
904.312	0.0137309
904.390	0.0136858
904.468	0.0138286
904.546	0.0138551
904.624	0.0136681
904.703	0.0137518
904.781	0.0137933
904.859	0.0136675
904.937	0.0136572
905.015	0.0137666
905.093	0.0137457
905.171	0.0137122
905.249	0.0136964
905.328	0.0136520
905.406	0.0137473
905.484	0.0138270
905.562	0.0138200
905.640	0.0138699
905.718	0.0137424
905.796	0.0137395
905.874	0.0138402
905.953	0.0139499
906.031	0.0138711
906.109	0.0139620
906.187	0.0139253
906.265	0.0137583
906.343	0.0139214
906.421	0.0139077
906.499	0.0137843
906.578	0.0139223
906.656	0.0139305
906.734	0.0137993
906.812	0.0138508
906.890	0.0139378
906.968	0.0138332
907.046	0.0138745
907.124	0.0139355
907.203	0.0139542
907.281	0.0139048
907.359	0.0137331
907.437	0.0138300
907.515	0.0139022
907.593	0.0140320
907.671	0.0139616
907.749	0.0139539
907.828	0.0138811
907.906	0.0139558
907.984	0.0138478
908.062	0.0138467
908.140	0.0139288
908.218	0.0139273
908.296	0.0139575
908.374	0.0139993
908.453	0.0139697
908.531	0.0139817
908.609	0.0139339
908.687	0.0138136
908.765	0.0138831
908.843	0.0139054
908.921	0.0137982
908.999	0.0138248
909.078	0.0137386
909.156	0.0138403
909.234	0.0136798
909.312	0.0136512
909.390	0.0137027
909.468	0.0138116
909.546	0.0137012
909.624	0.0138519
909.703	0.0138158
909.781	0.0138238
909.859	0.0137492
909.937	0.0138487
910.015	0.0140141
910.093	0.0139732
910.171	0.0139735
910.249	0.0139335
910.328	0.0138990
910.406	0.0139571
910.484	0.0138846
910.562	0.0139255
910.640	0.0139813
910.718	0.0139294
910.796	0.0140583
910.874	0.0138123
910.953	0.0138098
911.031	0.0138494
911.109	0.0138161
911.187	0.0139259
911.265	0.0138451
911.343	0.0138366
911.421	0.0139268
911.499	0.0139451
911.578	0.0138581
911.656	0.0139404
911.734	0.0139034
911.812	0.0139809
911.890	0.0140558
911.968	0.0139603
912.046	0.0140943
912.124	0.0140178
912.203	0.0139396
912.281	0.0140787
912.359	0.0138445
912.437	0.0139079
912.515	0.0139497
912.593	0.0139572
912.671	0.0140277
912.749	0.0139709
912.828	0.0139003
912.906	0.0139053
912.984	0.0137829
913.062	0.0137869
913.140	0.0138851
913.218	0.0138457
913.296	0.0139041
913.374	0.0137245
913.453	0.0137971
913.531	0.0136710
913.609	0.0139029
913.687	0.0139786
913.765	0.0138425
913.843	0.0140159
913.921	0.0139323
913.999	0.0138881
914.078	0.0138902
914.156	0.0138447
914.234	0.0139101
914.312	0.0140549
914.390	0.0139357
914.468	0.0138696
914.546	0.0139855
914.624	0.0139217
914.703	0.0138578
914.781	0.0138757
914.859	0.0138695
914.937	0.0137545
915.015	0.0137127
915.093	0.0139046
915.171	0.0139265
915.249	0.0138573
915.328	0.0139468
915.406	0.0139302
915.484	0.0138347
915.562	0.0139254
915.640	0.0139552
915.718	0.0139431
915.796	0.0139368
915.874	0.0139317
915.953	0.0139446
916.031	0.0139269
916.109	0.0139231
916.187	0.0139597
916.265	0.0138554
916.343	0.0138253
916.421	0.0138566
916.499	0.0139135
916.578	0.0138085
916.656	0.0138569
916.734	0.0139828
916.812	0.0139748
916.890	0.0137896
916.968	0.0137782
917.046	0.0138814
917.124	0.0137715
917.203	0.0140413
917.281	0.0139919
917.359	0.0140312
917.437	0.0139349
917.515	0.0137681
917.593	0.0139355
917.671	0.0138725
917.749	0.0139377
917.828	0.0139776
917.906	0.0139263
917.984	0.0139400
918.062	0.0138971
918.140	0.0139439
918.218	0.0138811
918.296	0.0138899
918.374	0.0139585
918.453	0.0139359
918.531	0.0139662
918.609	0.0138969
918.687	0.0140008
918.765	0.0137406
918.843	0.0137185
918.921	0.0138901
918.999	0.0138394
919.078	0.0137818
919.156	0.0137932
919.234	0.0139099
919.312	0.0138507
919.390	0.0138943
919.468	0.0138467
919.546	0.0138054
919.624	0.0139516
919.703	0.0138869
919.781	0.0139725
919.859	0.0139859
919.937	0.0141461
