05/06/2022	19:07:50	Ver.	4.1	UNKNOWN
Optical Delay	600.015094	Delta X		0.078125	Sweeps	1	Scan Rate	0/0
Coordinates	Axis 1	NaN	Axis 2	NaN	Axis 3	NaN	Axis 4	NaN	Axis 5	NaN	Axis 6	0.000000
TX Power	0.000000	RX Power	0.000000

600.015	0.0138314
600.093	0.0140169
600.171	0.0138769
600.249	0.0139346
600.328	0.0138795
600.406	0.0137157
600.484	0.0137811
600.562	0.0139330
600.640	0.0137211
600.718	0.0137260
600.796	0.0137717
600.874	0.0137764
600.953	0.0138321
601.031	0.0138663
601.109	0.0139005
601.187	0.0137550
601.265	0.0137862
601.343	0.0137934
601.421	0.0137465
601.499	0.0138297
601.578	0.0138605
601.656	0.0138535
601.734	0.0139394
601.812	0.0137595
601.890	0.0138770
601.968	0.0138137
602.046	0.0137238
602.124	0.0138380
602.203	0.0138850
602.281	0.0137884
602.359	0.0138167
602.437	0.0139159
602.515	0.0138631
602.593	0.0137164
602.671	0.0136455
602.749	0.0139034
602.828	0.0139330
602.906	0.0139629
602.984	0.0139744
603.062	0.0138245
603.140	0.0139008
603.218	0.0138048
603.296	0.0138542
603.374	0.0138994
603.453	0.0138217
603.531	0.0137852
603.609	0.0138446
603.687	0.0138849
603.765	0.0139036
603.843	0.0139354
603.921	0.0137569
603.999	0.0138030
604.078	0.0137260
604.156	0.0137589
604.234	0.0138560
604.312	0.0138603
604.390	0.0138144
604.468	0.0138516
604.546	0.0137411
604.624	0.0137814
604.703	0.0138232
604.781	0.0137649
604.859	0.0137610
604.937	0.0139104
605.015	0.0138213
605.093	0.0138300
605.171	0.0137894
605.249	0.0138413
605.328	0.0138698
605.406	0.0137957
605.484	0.0137894
605.562	0.0137988
605.640	0.0137336
605.718	0.0139648
605.796	0.0138821
605.874	0.0137483
605.953	0.0138496
606.031	0.0139847
606.109	0.0138906
606.187	0.0138561
606.265	0.0138105
606.343	0.0139080
606.421	0.0138631
606.499	0.0139406
606.578	0.0139451
606.656	0.0137922
606.734	0.0139056
606.812	0.0138023
606.890	0.0137284
606.968	0.0138585
607.046	0.0137788
607.124	0.0137663
607.203	0.0138268
607.281	0.0137718
607.359	0.0137163
607.437	0.0138351
607.515	0.0138270
607.593	0.0136003
607.671	0.0138076
607.749	0.0138389
607.828	0.0139471
607.906	0.0137782
607.984	0.0137362
608.062	0.0138895
608.140	0.0138317
608.218	0.0138820
608.296	0.0138615
608.374	0.0137064
608.453	0.0137928
608.531	0.0138181
608.609	0.0137602
608.687	0.0137597
608.765	0.0138318
608.843	0.0137579
608.921	0.0137251
608.999	0.0137307
609.078	0.0137862
609.156	0.0137524
609.234	0.0137444
609.312	0.0137428
609.390	0.0137952
609.468	0.0139088
609.546	0.0138374
609.624	0.0137169
609.703	0.0138008
609.781	0.0137341
609.859	0.0138916
609.937	0.0138951
610.015	0.0138763
610.093	0.0137105
610.171	0.0137754
610.249	0.0136972
610.328	0.0138866
610.406	0.0136692
610.484	0.0136143
610.562	0.0136384
610.640	0.0136837
610.718	0.0137083
610.796	0.0137593
610.874	0.0136861
610.953	0.0137065
611.031	0.0137661
611.109	0.0136736
611.187	0.0136497
611.265	0.0136655
611.343	0.0137173
611.421	0.0137048
611.499	0.0137382
611.578	0.0136889
611.656	0.0137274
611.734	0.0136977
611.812	0.0138015
611.890	0.0138141
611.968	0.0137164
612.046	0.0137448
612.124	0.0138013
612.203	0.0136259
612.281	0.0137177
612.359	0.0137778
612.437	0.0138438
612.515	0.0137069
612.593	0.0138597
612.671	0.0138448
612.749	0.0136712
612.828	0.0137045
612.906	0.0138745
612.984	0.0138400
613.062	0.0138147
613.140	0.0138331
613.218	0.0138376
613.296	0.0138654
613.374	0.0138477
613.453	0.0138107
613.531	0.0137415
613.609	0.0137598
613.687	0.0138687
613.765	0.0138458
613.843	0.0138043
613.921	0.0138297
613.999	0.0137283
614.078	0.0137754
614.156	0.0139223
614.234	0.0138419
614.312	0.0138385
614.390	0.0138052
614.468	0.0138571
614.546	0.0138604
614.624	0.0138222
614.703	0.0137670
614.781	0.0137518
614.859	0.0136886
614.937	0.0138338
615.015	0.0139123
615.093	0.0138531
615.171	0.0137462
615.249	0.0138372
615.328	0.0138506
615.406	0.0138866
615.484	0.0138471
615.562	0.0138278
615.640	0.0136552
615.718	0.0137373
615.796	0.0137969
615.874	0.0138759
615.953	0.0138183
616.031	0.0137763
616.109	0.0137743
616.187	0.0137643
616.265	0.0136636
616.343	0.0139276
616.421	0.0137629
616.499	0.0138160
616.578	0.0138702
616.656	0.0138641
616.734	0.0138664
616.812	0.0138509
616.890	0.0139117
616.968	0.0139549
617.046	0.0138458
617.124	0.0139080
617.203	0.0139321
617.281	0.0138361
617.359	0.0136839
617.437	0.0139465
617.515	0.0139128
617.593	0.0138358
617.671	0.0137562
617.749	0.0137698
617.828	0.0138245
617.906	0.0137879
617.984	0.0138446
618.062	0.0138992
618.140	0.0137814
618.218	0.0139223
618.296	0.0139151
618.374	0.0138737
618.453	0.0138185
618.531	0.0137680
618.609	0.0137611
618.687	0.0138803
618.765	0.0138692
618.843	0.0138325
618.921	0.0137684
618.999	0.0138155
619.078	0.0136872
619.156	0.0137630
619.234	0.0138733
619.312	0.0139289
619.390	0.0139491
619.468	0.0137519
619.546	0.0137270
619.624	0.0137106
619.703	0.0138491
619.781	0.0136758
619.859	0.0136781
619.937	0.0137936
620.015	0.0137891
620.093	0.0137050
620.171	0.0138622
620.249	0.0138287
620.328	0.0137770
620.406	0.0138566
620.484	0.0139076
620.562	0.0138540
620.640	0.0138512
620.718	0.0137711
620.796	0.0136958
620.874	0.0137971
620.953	0.0138215
621.031	0.0138229
621.109	0.0136726
621.187	0.0138659
621.265	0.0138600
621.343	0.0136632
621.421	0.0137421
621.499	0.0138900
621.578	0.0137878
621.656	0.0137206
621.734	0.0138483
621.812	0.0137075
621.890	0.0137270
621.968	0.0138231
622.046	0.0137183
622.124	0.0138319
622.203	0.0137412
622.281	0.0137974
622.359	0.0138658
622.437	0.0138223
622.515	0.0138394
622.593	0.0140195
622.671	0.0137582
622.749	0.0137694
622.828	0.0139157
622.906	0.0138905
622.984	0.0137848
623.062	0.0136534
623.140	0.0138612
623.218	0.0139350
623.296	0.0138065
623.374	0.0137805
623.453	0.0137499
623.531	0.0136800
623.609	0.0137662
623.687	0.0138423
623.765	0.0140260
623.843	0.0138403
623.921	0.0138232
623.999	0.0138287
624.078	0.0138844
624.156	0.0138230
624.234	0.0138124
624.312	0.0136707
624.390	0.0137003
624.468	0.0137999
624.546	0.0137010
624.624	0.0137941
624.703	0.0138882
624.781	0.0136438
624.859	0.0137900
624.937	0.0138413
625.015	0.0138689
625.093	0.0138435
625.171	0.0137572
625.249	0.0137631
625.328	0.0136381
625.406	0.0137419
625.484	0.0138437
625.562	0.0136517
625.640	0.0138369
625.718	0.0137136
625.796	0.0137317
625.874	0.0136551
625.953	0.0137969
626.031	0.0138268
626.109	0.0138844
626.187	0.0137681
626.265	0.0138841
626.343	0.0138318
626.421	0.0138274
626.499	0.0138896
626.578	0.0138036
626.656	0.0139571
626.734	0.0138212
626.812	0.0137682
626.890	0.0137534
626.968	0.0137420
627.046	0.0138236
627.124	0.0138713
627.203	0.0139061
627.281	0.0139133
627.359	0.0138958
627.437	0.0137661
627.515	0.0137514
627.593	0.0138692
627.671	0.0138916
627.749	0.0138501
627.828	0.0138367
627.906	0.0139199
627.984	0.0138328
628.062	0.0138419
628.140	0.0138368
628.218	0.0137306
628.296	0.0138997
628.374	0.0138481
628.453	0.0137367
628.531	0.0137747
628.609	0.0138387
628.687	0.0137865
628.765	0.0137858
628.843	0.0138407
628.921	0.0137873
628.999	0.0137293
629.078	0.0137186
629.156	0.0137625
629.234	0.0139548
629.312	0.0137122
629.390	0.0137108
629.468	0.0139293
629.546	0.0137381
629.624	0.0138537
629.703	0.0138763
629.781	0.0137090
629.859	0.0137177
629.937	0.0138200
630.015	0.0136578
630.093	0.0135674
630.171	0.0136053
630.249	0.0137925
630.328	0.0138195
630.406	0.0137100
630.484	0.0138567
630.562	0.0138441
630.640	0.0137621
630.718	0.0136880
630.796	0.0136991
630.874	0.0137096
630.953	0.0137180
631.031	0.0138437
631.109	0.0136899
631.187	0.0137958
631.265	0.0138191
631.343	0.0138575
631.421	0.0137991
631.499	0.0137450
631.578	0.0138512
631.656	0.0137669
631.734	0.0137226
631.812	0.0138267
631.890	0.0138192
631.968	0.0138324
632.046	0.0137331
632.124	0.0137851
632.203	0.0138283
632.281	0.0138299
632.359	0.0137761
632.437	0.0137056
632.515	0.0138297
632.593	0.0138148
632.671	0.0138451
632.749	0.0137949
632.828	0.0137324
632.906	0.0137123
632.984	0.0138177
633.062	0.0136958
633.140	0.0137679
633.218	0.0138539
633.296	0.0137802
633.374	0.0137319
633.453	0.0137134
633.531	0.0136951
633.609	0.0137544
633.687	0.0136576
633.765	0.0136990
633.843	0.0138292
633.921	0.0136948
633.999	0.0136868
634.078	0.0137457
634.156	0.0138342
634.234	0.0137618
634.312	0.0137566
634.390	0.0139271
634.468	0.0138000
634.546	0.0139285
634.624	0.0138382
634.703	0.0138613
634.781	0.0139017
634.859	0.0140093
634.937	0.0138876
635.015	0.0139964
635.093	0.0139215
635.171	0.0138924
635.249	0.0138914
635.328	0.0139571
635.406	0.0139171
635.484	0.0139250
635.562	0.0139123
635.640	0.0139995
635.718	0.0138771
635.796	0.0138889
635.874	0.0138963
635.953	0.0138255
636.031	0.0137627
636.109	0.0138361
636.187	0.0137620
636.265	0.0136707
636.343	0.0137417
636.421	0.0136296
636.499	0.0136895
636.578	0.0137855
636.656	0.0138032
636.734	0.0138039
636.812	0.0137463
636.890	0.0136415
636.968	0.0137057
637.046	0.0138396
637.124	0.0137516
637.203	0.0136697
637.281	0.0137167
637.359	0.0136143
637.437	0.0136417
637.515	0.0136847
637.593	0.0138181
637.671	0.0137740
637.749	0.0137255
637.828	0.0138771
637.906	0.0138625
637.984	0.0138407
638.062	0.0138516
638.140	0.0139503
638.218	0.0140070
638.296	0.0138959
638.374	0.0138693
638.453	0.0139039
638.531	0.0137879
638.609	0.0139046
638.687	0.0139925
638.765	0.0139310
638.843	0.0138390
638.921	0.0138606
638.999	0.0138775
639.078	0.0139168
639.156	0.0138815
639.234	0.0138061
639.312	0.0137864
639.390	0.0136893
639.468	0.0136993
639.546	0.0138171
639.624	0.0138605
639.703	0.0136765
639.781	0.0136826
639.859	0.0137748
639.937	0.0136327
640.015	0.0137608
640.093	0.0138236
640.171	0.0137365
640.249	0.0137088
640.328	0.0137927
640.406	0.0137532
640.484	0.0137507
640.562	0.0138131
640.640	0.0138780
640.718	0.0139816
640.796	0.0138176
640.874	0.0138232
640.953	0.0137730
641.031	0.0138331
641.109	0.0139152
641.187	0.0139443
641.265	0.0139266
641.343	0.0138338
641.421	0.0137821
641.499	0.0139262
641.578	0.0139111
641.656	0.0139608
641.734	0.0139522
641.812	0.0139247
641.890	0.0139377
641.968	0.0138985
642.046	0.0139077
642.124	0.0138361
642.203	0.0137353
642.281	0.0138784
642.359	0.0139951
642.437	0.0139491
642.515	0.0140006
642.593	0.0139187
642.671	0.0138950
642.749	0.0140157
642.828	0.0140569
642.906	0.0138618
642.984	0.0139503
643.062	0.0139594
643.140	0.0139657
643.218	0.0140567
643.296	0.0140147
643.374	0.0137974
643.453	0.0138917
643.531	0.0139226
643.609	0.0138900
643.687	0.0138136
643.765	0.0139044
643.843	0.0138353
643.921	0.0136346
643.999	0.0137827
644.078	0.0138942
644.156	0.0136863
644.234	0.0136946
644.312	0.0137694
644.390	0.0136686
644.468	0.0137429
644.546	0.0138457
644.624	0.0137897
644.703	0.0137899
644.781	0.0138078
644.859	0.0137682
644.937	0.0137833
645.015	0.0139536
645.093	0.0138797
645.171	0.0137906
645.249	0.0137523
645.328	0.0138909
645.406	0.0139124
645.484	0.0138257
645.562	0.0138795
645.640	0.0139294
645.718	0.0138734
645.796	0.0139098
645.874	0.0137910
645.953	0.0138422
646.031	0.0138781
646.109	0.0138069
646.187	0.0138084
646.265	0.0137914
646.343	0.0139455
646.421	0.0138686
646.499	0.0139613
646.578	0.0138359
646.656	0.0137584
646.734	0.0138420
646.812	0.0138715
646.890	0.0138792
646.968	0.0138266
647.046	0.0140205
647.124	0.0140962
647.203	0.0138722
647.281	0.0139267
647.359	0.0138200
647.437	0.0138167
647.515	0.0138877
647.593	0.0136427
647.671	0.0138158
647.749	0.0137288
647.828	0.0136835
647.906	0.0136260
647.984	0.0136383
648.062	0.0136184
648.140	0.0137943
648.218	0.0135207
648.296	0.0137580
648.374	0.0136598
648.453	0.0136739
648.531	0.0137962
648.609	0.0138908
648.687	0.0138778
648.765	0.0138061
648.843	0.0139275
648.921	0.0139375
648.999	0.0137796
649.078	0.0138700
649.156	0.0138969
649.234	0.0139940
649.312	0.0140194
649.390	0.0138818
649.468	0.0136378
649.546	0.0136767
649.624	0.0136234
649.703	0.0135811
649.781	0.0135719
649.859	0.0136811
649.937	0.0135483
650.015	0.0135685
650.093	0.0134612
650.171	0.0134062
650.249	0.0137618
650.328	0.0137123
650.406	0.0136243
650.484	0.0135400
650.562	0.0137023
650.640	0.0136100
650.718	0.0137655
650.796	0.0139388
650.874	0.0137850
650.953	0.0138004
651.031	0.0138836
651.109	0.0138195
651.187	0.0138290
651.265	0.0138324
651.343	0.0138441
651.421	0.0138509
651.499	0.0139389
651.578	0.0139230
651.656	0.0138391
651.734	0.0138251
651.812	0.0139523
651.890	0.0137476
651.968	0.0137339
652.046	0.0137772
652.124	0.0137495
652.203	0.0136178
652.281	0.0136752
652.359	0.0137038
652.437	0.0136008
652.515	0.0136195
652.593	0.0136488
652.671	0.0135928
652.749	0.0135284
652.828	0.0135581
652.906	0.0135853
652.984	0.0135648
653.062	0.0134283
653.140	0.0134135
653.218	0.0135901
653.296	0.0136851
653.374	0.0137183
653.453	0.0137819
653.531	0.0138374
653.609	0.0139379
653.687	0.0137653
653.765	0.0139331
653.843	0.0139984
653.921	0.0140258
653.999	0.0141235
654.078	0.0141148
654.156	0.0141083
654.234	0.0141490
654.312	0.0141366
654.390	0.0140832
654.468	0.0140578
654.546	0.0139659
654.624	0.0138820
654.703	0.0137659
654.781	0.0135486
654.859	0.0135148
654.937	0.0136111
655.015	0.0136108
655.093	0.0134938
655.171	0.0134582
655.249	0.0135811
655.328	0.0135466
655.406	0.0136009
655.484	0.0135480
655.562	0.0137102
655.640	0.0139236
655.718	0.0137967
655.796	0.0138520
655.874	0.0138744
655.953	0.0140387
656.031	0.0139016
656.109	0.0139027
656.187	0.0138714
656.265	0.0138837
656.343	0.0139360
656.421	0.0136082
656.499	0.0135342
656.578	0.0137213
656.656	0.0137853
656.734	0.0134837
656.812	0.0135074
656.890	0.0135786
656.968	0.0136051
657.046	0.0136881
657.124	0.0136503
657.203	0.0137999
657.281	0.0138757
657.359	0.0137986
657.437	0.0139921
657.515	0.0142056
657.593	0.0141821
657.671	0.0141518
657.749	0.0140666
657.828	0.0141099
657.906	0.0141393
657.984	0.0141520
658.062	0.0141029
658.140	0.0139961
658.218	0.0138417
658.296	0.0137422
658.374	0.0137167
658.453	0.0137071
658.531	0.0136691
658.609	0.0136626
658.687	0.0136650
658.765	0.0136658
658.843	0.0138028
658.921	0.0136827
658.999	0.0139328
659.078	0.0138136
659.156	0.0139863
659.234	0.0139484
659.312	0.0140810
659.390	0.0141118
659.468	0.0142626
659.546	0.0139852
659.624	0.0141076
659.703	0.0141988
659.781	0.0141741
659.859	0.0140369
659.937	0.0139823
660.015	0.0140824
660.093	0.0139507
660.171	0.0137817
660.249	0.0139893
660.328	0.0137991
660.406	0.0137305
660.484	0.0136514
660.562	0.0137727
660.640	0.0136814
660.718	0.0136038
660.796	0.0136456
660.874	0.0136055
660.953	0.0135623
661.031	0.0134346
661.109	0.0136246
661.187	0.0136449
661.265	0.0136958
661.343	0.0135658
661.421	0.0137850
661.499	0.0138942
661.578	0.0139450
661.656	0.0140175
661.734	0.0141144
661.812	0.0139679
661.890	0.0141221
661.968	0.0140730
662.046	0.0140311
662.124	0.0139748
662.203	0.0139630
662.281	0.0137244
662.359	0.0138628
662.437	0.0137991
662.515	0.0139184
662.593	0.0136816
662.671	0.0136767
662.749	0.0136493
662.828	0.0137247
662.906	0.0137481
662.984	0.0138269
663.062	0.0137874
663.140	0.0137151
663.218	0.0139352
663.296	0.0141820
663.374	0.0141386
663.453	0.0141217
663.531	0.0141209
663.609	0.0141136
663.687	0.0142829
663.765	0.0143585
663.843	0.0140569
663.921	0.0141035
663.999	0.0140591
664.078	0.0139214
664.156	0.0137987
664.234	0.0138739
664.312	0.0136583
664.390	0.0135307
664.468	0.0135058
664.546	0.0134766
664.624	0.0131889
664.703	0.0134948
664.781	0.0134363
664.859	0.0133597
664.937	0.0135572
665.015	0.0136558
665.093	0.0135187
665.171	0.0139017
665.249	0.0138393
665.328	0.0140026
665.406	0.0141704
665.484	0.0143192
665.562	0.0143478
665.640	0.0142771
665.718	0.0143373
665.796	0.0142578
665.874	0.0141590
665.953	0.0142278
666.031	0.0141672
666.109	0.0140289
666.187	0.0139157
666.265	0.0138762
666.343	0.0137399
666.421	0.0138026
666.499	0.0134225
666.578	0.0133926
666.656	0.0134139
666.734	0.0132738
666.812	0.0131288
666.890	0.0130938
666.968	0.0132056
667.046	0.0132807
667.124	0.0133928
667.203	0.0133495
667.281	0.0135603
667.359	0.0136646
667.437	0.0139041
667.515	0.0140748
667.593	0.0140569
667.671	0.0140961
667.749	0.0142247
667.828	0.0141604
667.906	0.0141700
667.984	0.0142422
668.062	0.0139407
668.140	0.0139600
668.218	0.0137617
668.296	0.0136866
668.374	0.0135917
668.453	0.0135569
668.531	0.0133595
668.609	0.0133559
668.687	0.0132607
668.765	0.0131607
668.843	0.0131700
668.921	0.0132655
668.999	0.0134126
669.078	0.0134324
669.156	0.0134090
669.234	0.0134843
669.312	0.0137345
669.390	0.0138432
669.468	0.0139616
669.546	0.0140266
669.624	0.0139571
669.703	0.0140146
669.781	0.0142928
669.859	0.0142487
669.937	0.0142548
670.015	0.0140536
670.093	0.0141341
670.171	0.0140348
670.249	0.0140335
670.328	0.0141618
670.406	0.0140119
670.484	0.0140060
670.562	0.0136490
670.640	0.0138541
670.718	0.0137909
670.796	0.0136294
670.874	0.0134865
670.953	0.0135699
671.031	0.0136555
671.109	0.0135548
671.187	0.0136887
671.265	0.0136144
671.343	0.0136533
671.421	0.0138729
671.499	0.0137693
671.578	0.0137278
671.656	0.0137111
671.734	0.0138134
671.812	0.0138947
671.890	0.0137078
671.968	0.0137705
672.046	0.0137677
672.124	0.0136070
672.203	0.0135426
672.281	0.0135236
672.359	0.0134877
672.437	0.0133262
672.515	0.0132900
672.593	0.0133000
672.671	0.0133477
672.749	0.0133313
672.828	0.0134784
672.906	0.0135208
672.984	0.0134597
673.062	0.0135119
673.140	0.0136765
673.218	0.0136411
673.296	0.0136436
673.374	0.0136652
673.453	0.0137621
673.531	0.0139954
673.609	0.0138982
673.687	0.0140125
673.765	0.0139803
673.843	0.0140703
673.921	0.0140477
673.999	0.0141166
674.078	0.0141672
674.156	0.0142966
674.234	0.0141592
674.312	0.0140499
674.390	0.0140412
674.468	0.0139703
674.546	0.0140371
674.624	0.0141020
674.703	0.0138591
674.781	0.0137832
674.859	0.0138885
674.937	0.0138409
675.015	0.0138295
675.093	0.0136922
675.171	0.0139221
675.249	0.0141448
675.328	0.0139101
675.406	0.0138461
675.484	0.0137933
675.562	0.0139673
675.640	0.0139194
675.718	0.0140398
675.796	0.0139423
675.874	0.0138319
675.953	0.0139608
676.031	0.0142579
676.109	0.0139148
676.187	0.0141264
676.265	0.0141267
676.343	0.0140667
676.421	0.0140588
676.499	0.0141619
676.578	0.0140707
676.656	0.0140172
676.734	0.0140386
676.812	0.0140069
676.890	0.0138948
676.968	0.0138555
677.046	0.0138250
677.124	0.0139510
677.203	0.0140112
677.281	0.0139681
677.359	0.0140010
677.437	0.0139703
677.515	0.0140349
677.593	0.0140497
677.671	0.0140794
677.749	0.0139484
677.828	0.0139581
677.906	0.0140069
677.984	0.0138298
678.062	0.0139120
678.140	0.0139038
678.218	0.0138317
678.296	0.0138506
678.374	0.0136929
678.453	0.0137959
678.531	0.0136037
678.609	0.0137517
678.687	0.0138903
678.765	0.0136279
678.843	0.0136155
678.921	0.0138069
678.999	0.0137127
679.078	0.0137376
679.156	0.0136324
679.234	0.0138225
679.312	0.0139252
679.390	0.0139410
679.468	0.0138412
679.546	0.0140258
679.624	0.0141584
679.703	0.0141241
679.781	0.0141725
679.859	0.0141793
679.937	0.0142969
680.015	0.0142773
680.093	0.0141701
680.171	0.0141904
680.249	0.0140244
680.328	0.0138519
680.406	0.0138551
680.484	0.0138173
680.562	0.0138091
680.640	0.0136316
680.718	0.0136543
680.796	0.0134544
680.874	0.0135741
680.953	0.0136716
681.031	0.0135797
681.109	0.0136275
681.187	0.0136054
681.265	0.0137320
681.343	0.0138879
681.421	0.0137614
681.499	0.0139137
681.578	0.0140851
681.656	0.0141402
681.734	0.0141583
681.812	0.0140927
681.890	0.0141571
681.968	0.0142598
682.046	0.0142731
682.124	0.0142368
682.203	0.0141644
682.281	0.0140353
682.359	0.0138405
682.437	0.0136045
682.515	0.0136574
682.593	0.0135479
682.671	0.0135821
682.749	0.0134926
682.828	0.0134831
682.906	0.0136137
682.984	0.0134042
683.062	0.0135686
683.140	0.0136706
683.218	0.0136584
683.296	0.0138133
683.374	0.0138884
683.453	0.0139141
683.531	0.0141683
683.609	0.0141164
683.687	0.0141008
683.765	0.0142412
683.843	0.0141695
683.921	0.0140197
683.999	0.0139701
684.078	0.0141435
684.156	0.0139288
684.234	0.0137622
684.312	0.0135248
684.390	0.0135528
684.468	0.0135624
684.546	0.0134048
684.624	0.0133044
684.703	0.0134109
684.781	0.0133157
684.859	0.0132710
684.937	0.0132169
685.015	0.0134621
685.093	0.0136614
685.171	0.0136718
685.249	0.0137560
685.328	0.0138454
685.406	0.0139634
685.484	0.0140919
685.562	0.0141174
685.640	0.0140928
685.718	0.0141086
685.796	0.0140567
685.874	0.0141384
685.953	0.0142278
686.031	0.0141653
686.109	0.0142157
686.187	0.0139452
686.265	0.0139401
686.343	0.0139050
686.421	0.0136777
686.499	0.0137222
686.578	0.0137078
686.656	0.0135343
686.734	0.0134676
686.812	0.0136373
686.890	0.0136737
686.968	0.0135892
687.046	0.0135576
687.124	0.0136472
687.203	0.0136340
687.281	0.0136520
687.359	0.0137433
687.437	0.0137599
687.515	0.0136629
687.593	0.0136257
687.671	0.0137694
687.749	0.0136237
687.828	0.0137995
687.906	0.0137625
687.984	0.0137176
688.062	0.0137948
688.140	0.0137905
688.218	0.0138666
688.296	0.0137839
688.374	0.0138124
688.453	0.0137672
688.531	0.0137253
688.609	0.0138525
688.687	0.0135423
688.765	0.0135189
688.843	0.0135312
688.921	0.0134895
688.999	0.0135001
689.078	0.0133089
689.156	0.0132897
689.234	0.0132645
689.312	0.0134227
689.390	0.0135099
689.468	0.0136475
689.546	0.0137471
689.624	0.0136125
689.703	0.0138090
689.781	0.0138783
689.859	0.0138520
689.937	0.0139606
690.015	0.0140478
690.093	0.0140944
690.171	0.0139193
690.249	0.0138976
690.328	0.0139743
690.406	0.0139437
690.484	0.0137811
690.562	0.0136958
690.640	0.0137377
690.718	0.0135226
690.796	0.0135216
690.874	0.0135308
690.953	0.0134897
691.031	0.0133504
691.109	0.0133952
691.187	0.0133926
691.265	0.0133594
691.343	0.0136022
691.421	0.0135698
691.499	0.0135851
691.578	0.0137901
691.656	0.0137946
691.734	0.0139254
691.812	0.0139085
691.890	0.0139585
691.968	0.0139873
692.046	0.0139304
692.124	0.0139273
692.203	0.0140482
692.281	0.0138853
692.359	0.0138991
692.437	0.0139695
692.515	0.0139201
692.593	0.0138461
692.671	0.0136868
692.749	0.0137541
692.828	0.0138725
692.906	0.0139034
692.984	0.0137984
693.062	0.0139551
693.140	0.0139586
693.218	0.0140677
693.296	0.0140633
693.374	0.0141098
693.453	0.0141180
693.531	0.0142182
693.609	0.0141740
693.687	0.0138664
693.765	0.0140721
693.843	0.0140095
693.921	0.0139355
693.999	0.0137888
694.078	0.0137701
694.156	0.0134580
694.234	0.0134830
694.312	0.0135089
694.390	0.0134410
694.468	0.0133927
694.546	0.0135209
694.624	0.0136421
694.703	0.0136145
694.781	0.0136776
694.859	0.0136734
694.937	0.0137096
695.015	0.0138628
695.093	0.0139137
695.171	0.0138846
695.249	0.0140319
695.328	0.0139492
695.406	0.0139363
695.484	0.0140514
695.562	0.0140064
695.640	0.0140639
695.718	0.0138387
695.796	0.0136433
695.874	0.0137785
695.953	0.0137023
696.031	0.0136269
696.109	0.0135002
696.187	0.0134533
696.265	0.0134014
696.343	0.0135096
696.421	0.0136423
696.499	0.0136326
696.578	0.0135058
696.656	0.0136207
696.734	0.0137203
696.812	0.0135847
696.890	0.0137039
696.968	0.0137873
697.046	0.0138741
697.124	0.0138616
697.203	0.0138292
697.281	0.0138108
697.359	0.0138885
697.437	0.0139012
697.515	0.0140388
697.593	0.0139715
697.671	0.0139418
697.749	0.0140476
697.828	0.0141214
697.906	0.0138727
697.984	0.0139289
698.062	0.0137490
698.140	0.0138159
698.218	0.0139564
698.296	0.0137099
698.374	0.0136996
698.453	0.0138877
698.531	0.0138595
698.609	0.0136269
698.687	0.0136590
698.765	0.0137211
698.843	0.0137306
698.921	0.0138273
698.999	0.0138650
699.078	0.0139514
699.156	0.0140839
699.234	0.0141515
699.312	0.0142606
699.390	0.0141006
699.468	0.0139839
699.546	0.0141636
699.624	0.0142791
699.703	0.0140179
699.781	0.0139398
699.859	0.0142232
699.937	0.0140324
700.015	0.0141830
700.093	0.0138729
700.171	0.0137035
700.249	0.0137598
700.328	0.0135847
700.406	0.0133633
700.484	0.0133289
700.562	0.0133240
700.640	0.0134086
700.718	0.0133254
700.796	0.0133380
700.874	0.0133687
700.953	0.0133323
701.031	0.0134739
701.109	0.0136835
701.187	0.0137395
701.265	0.0137431
701.343	0.0137990
701.421	0.0139033
701.499	0.0140728
701.578	0.0140684
701.656	0.0141969
701.734	0.0141164
701.812	0.0141422
701.890	0.0140295
701.968	0.0138879
702.046	0.0139098
702.124	0.0138342
702.203	0.0135219
702.281	0.0135837
702.359	0.0134664
702.437	0.0134263
702.515	0.0133437
702.593	0.0132684
702.671	0.0132833
702.749	0.0133163
702.828	0.0132754
702.906	0.0134927
702.984	0.0133997
703.062	0.0135581
703.140	0.0138730
703.218	0.0139133
703.296	0.0139693
703.374	0.0140279
703.453	0.0140975
703.531	0.0142170
703.609	0.0142497
703.687	0.0142191
703.765	0.0141228
703.843	0.0141509
703.921	0.0141479
703.999	0.0139330
704.078	0.0138879
704.156	0.0137862
704.234	0.0136019
704.312	0.0137123
704.390	0.0136883
704.468	0.0135130
704.546	0.0135750
704.624	0.0136036
704.703	0.0136700
704.781	0.0136503
704.859	0.0136455
704.937	0.0137062
705.015	0.0138747
705.093	0.0137845
705.171	0.0137824
705.249	0.0140546
705.328	0.0140215
705.406	0.0141044
705.484	0.0141360
705.562	0.0142328
705.640	0.0141888
705.718	0.0142145
705.796	0.0139863
705.874	0.0139653
705.953	0.0140697
706.031	0.0139162
706.109	0.0138692
706.187	0.0137396
706.265	0.0136790
706.343	0.0137938
706.421	0.0136304
706.499	0.0136436
706.578	0.0136330
706.656	0.0137640
706.734	0.0136590
706.812	0.0137839
706.890	0.0136493
706.968	0.0139200
707.046	0.0138522
707.124	0.0138132
707.203	0.0138226
707.281	0.0138863
707.359	0.0138383
707.437	0.0138439
707.515	0.0136995
707.593	0.0138163
707.671	0.0137981
707.749	0.0137980
707.828	0.0136632
707.906	0.0138329
707.984	0.0138473
708.062	0.0138274
708.140	0.0137650
708.218	0.0137570
708.296	0.0138245
708.374	0.0136829
708.453	0.0138155
708.531	0.0138422
708.609	0.0138713
708.687	0.0139755
708.765	0.0138951
708.843	0.0141120
708.921	0.0140514
708.999	0.0141062
709.078	0.0139682
709.156	0.0139434
709.234	0.0140380
709.312	0.0139464
709.390	0.0137534
709.468	0.0137838
709.546	0.0137557
709.624	0.0136983
709.703	0.0136725
709.781	0.0134921
709.859	0.0134850
709.937	0.0136726
710.015	0.0137014
710.093	0.0135300
710.171	0.0136449
710.249	0.0137225
710.328	0.0136088
710.406	0.0137727
710.484	0.0138187
710.562	0.0137204
710.640	0.0137855
710.718	0.0138617
710.796	0.0138029
710.874	0.0138766
710.953	0.0138277
711.031	0.0140347
711.109	0.0137624
711.187	0.0140183
711.265	0.0139019
711.343	0.0140656
711.421	0.0139394
711.499	0.0138425
711.578	0.0139295
711.656	0.0138259
711.734	0.0138139
711.812	0.0137603
711.890	0.0137595
711.968	0.0135374
712.046	0.0134586
712.124	0.0134372
712.203	0.0134171
712.281	0.0135009
712.359	0.0134626
712.437	0.0134032
712.515	0.0134447
712.593	0.0135778
712.671	0.0136914
712.749	0.0136121
712.828	0.0136620
712.906	0.0137045
712.984	0.0138937
713.062	0.0138551
713.140	0.0140959
713.218	0.0140159
713.296	0.0140110
713.374	0.0139190
713.453	0.0140438
713.531	0.0139702
713.609	0.0140221
713.687	0.0140205
713.765	0.0139069
713.843	0.0138310
713.921	0.0138853
713.999	0.0138794
714.078	0.0138948
714.156	0.0137643
714.234	0.0136097
714.312	0.0137126
714.390	0.0138197
714.468	0.0136292
714.546	0.0138858
714.624	0.0139368
714.703	0.0139459
714.781	0.0139151
714.859	0.0139787
714.937	0.0140010
715.015	0.0140636
715.093	0.0142128
715.171	0.0141508
715.249	0.0141389
715.328	0.0140034
715.406	0.0140620
715.484	0.0140144
715.562	0.0140910
715.640	0.0140854
715.718	0.0140556
715.796	0.0139673
715.874	0.0138928
715.953	0.0139323
716.031	0.0136745
716.109	0.0137290
716.187	0.0136011
716.265	0.0135664
716.343	0.0134907
716.421	0.0134850
716.499	0.0136179
716.578	0.0136174
716.656	0.0134496
716.734	0.0136344
716.812	0.0135640
716.890	0.0135406
716.968	0.0136308
717.046	0.0137801
717.124	0.0138493
717.203	0.0138436
717.281	0.0137621
717.359	0.0138194
717.437	0.0138661
717.515	0.0139543
717.593	0.0136654
717.671	0.0138026
717.749	0.0137455
717.828	0.0137197
717.906	0.0138342
717.984	0.0137855
718.062	0.0138321
718.140	0.0136982
718.218	0.0136610
718.296	0.0138062
718.374	0.0137703
718.453	0.0136523
718.531	0.0136318
718.609	0.0136847
718.687	0.0135931
718.765	0.0135657
718.843	0.0137870
718.921	0.0137433
718.999	0.0138383
719.078	0.0137222
719.156	0.0137622
719.234	0.0137334
719.312	0.0137399
719.390	0.0137599
719.468	0.0137765
719.546	0.0138778
719.624	0.0138342
719.703	0.0138380
719.781	0.0137577
719.859	0.0138968
719.937	0.0136971
720.015	0.0137758
720.093	0.0139918
720.171	0.0139149
720.249	0.0138485
720.328	0.0137875
720.406	0.0137475
720.484	0.0137617
720.562	0.0138372
720.640	0.0137649
720.718	0.0137932
720.796	0.0137527
720.874	0.0137923
720.953	0.0136716
721.031	0.0136513
721.109	0.0138338
721.187	0.0138003
721.265	0.0139269
721.343	0.0137764
721.421	0.0138919
721.499	0.0139916
721.578	0.0138808
721.656	0.0138377
721.734	0.0138953
721.812	0.0139780
721.890	0.0138974
721.968	0.0139156
722.046	0.0138124
722.124	0.0138714
722.203	0.0139693
722.281	0.0138549
722.359	0.0137463
722.437	0.0138901
722.515	0.0138297
722.593	0.0138322
722.671	0.0138078
722.749	0.0138035
722.828	0.0136433
722.906	0.0138018
722.984	0.0138242
723.062	0.0136863
723.140	0.0136738
723.218	0.0135989
723.296	0.0137160
723.374	0.0136733
723.453	0.0135909
723.531	0.0136532
723.609	0.0137386
723.687	0.0136727
723.765	0.0135704
723.843	0.0137370
723.921	0.0138769
723.999	0.0137048
724.078	0.0137563
724.156	0.0137891
724.234	0.0137928
724.312	0.0138793
724.390	0.0138512
724.468	0.0137115
724.546	0.0137273
724.624	0.0138913
724.703	0.0139063
724.781	0.0137944
724.859	0.0138831
724.937	0.0138972
725.015	0.0138426
725.093	0.0139587
725.171	0.0138747
725.249	0.0138820
725.328	0.0138478
725.406	0.0137062
725.484	0.0138920
725.562	0.0137946
725.640	0.0137486
725.718	0.0136930
725.796	0.0137208
725.874	0.0137600
725.953	0.0136584
726.031	0.0136822
726.109	0.0138860
726.187	0.0137201
726.265	0.0137282
726.343	0.0138653
726.421	0.0137321
726.499	0.0137331
726.578	0.0138725
726.656	0.0137736
726.734	0.0136659
726.812	0.0138859
726.890	0.0137852
726.968	0.0136201
727.046	0.0136858
727.124	0.0138512
727.203	0.0138402
727.281	0.0138340
727.359	0.0138374
727.437	0.0137210
727.515	0.0135809
727.593	0.0136015
727.671	0.0136198
727.749	0.0135973
727.828	0.0136955
727.906	0.0136909
727.984	0.0136539
728.062	0.0136520
728.140	0.0136248
728.218	0.0136124
728.296	0.0136778
728.374	0.0137714
728.453	0.0137128
728.531	0.0138087
728.609	0.0137661
728.687	0.0138160
728.765	0.0136330
728.843	0.0138274
728.921	0.0138902
728.999	0.0137217
729.078	0.0138251
729.156	0.0138924
729.234	0.0137452
729.312	0.0140136
729.390	0.0139257
729.468	0.0139298
729.546	0.0138914
729.624	0.0137264
729.703	0.0138847
729.781	0.0140384
729.859	0.0139371
729.937	0.0138969
730.015	0.0137757
730.093	0.0138073
730.171	0.0137848
730.249	0.0138333
730.328	0.0137955
730.406	0.0137677
730.484	0.0137242
730.562	0.0137045
730.640	0.0135764
730.718	0.0136003
730.796	0.0138274
730.874	0.0138566
730.953	0.0137498
731.031	0.0136635
731.109	0.0138394
731.187	0.0139162
731.265	0.0138322
731.343	0.0139703
731.421	0.0140186
731.499	0.0139365
731.578	0.0138419
731.656	0.0138782
731.734	0.0138686
731.812	0.0139871
731.890	0.0138776
731.968	0.0138411
732.046	0.0137954
732.124	0.0137734
732.203	0.0137704
732.281	0.0138532
732.359	0.0138568
732.437	0.0137781
732.515	0.0136538
732.593	0.0138361
732.671	0.0137772
732.749	0.0138113
732.828	0.0136905
732.906	0.0137954
732.984	0.0137877
733.062	0.0137951
733.140	0.0137694
733.218	0.0138897
733.296	0.0141811
733.374	0.0139339
733.453	0.0140648
733.531	0.0141026
733.609	0.0140642
733.687	0.0141039
733.765	0.0140412
733.843	0.0139462
733.921	0.0140693
733.999	0.0139376
734.078	0.0140044
734.156	0.0138679
734.234	0.0138435
734.312	0.0137678
734.390	0.0137750
734.468	0.0136904
734.546	0.0137263
734.624	0.0138378
734.703	0.0137627
734.781	0.0137357
734.859	0.0137446
734.937	0.0138416
735.015	0.0137806
735.093	0.0137775
735.171	0.0138280
735.249	0.0139682
735.328	0.0138397
735.406	0.0138693
735.484	0.0138976
735.562	0.0139026
735.640	0.0138608
735.718	0.0137447
735.796	0.0139013
735.874	0.0139152
735.953	0.0140404
736.031	0.0138040
736.109	0.0139504
736.187	0.0139316
736.265	0.0139251
736.343	0.0138788
736.421	0.0138029
736.499	0.0137952
736.578	0.0138792
736.656	0.0139484
736.734	0.0138435
736.812	0.0138733
736.890	0.0138718
736.968	0.0138065
737.046	0.0138299
737.124	0.0139030
737.203	0.0140205
737.281	0.0139143
737.359	0.0139276
737.437	0.0140966
737.515	0.0140572
737.593	0.0139758
737.671	0.0139943
737.749	0.0140022
737.828	0.0139240
737.906	0.0137737
737.984	0.0139722
738.062	0.0140604
738.140	0.0139639
738.218	0.0139257
738.296	0.0139536
738.374	0.0139326
738.453	0.0138911
738.531	0.0138862
738.609	0.0139087
738.687	0.0139061
738.765	0.0138571
738.843	0.0141411
738.921	0.0139565
738.999	0.0139133
739.078	0.0138307
739.156	0.0138650
739.234	0.0139778
739.312	0.0138792
739.390	0.0139977
739.468	0.0138454
739.546	0.0138242
739.624	0.0138449
739.703	0.0138280
739.781	0.0138312
739.859	0.0137817
739.937	0.0137656
740.015	0.0138293
740.093	0.0139870
740.171	0.0138859
740.249	0.0138486
740.328	0.0138746
740.406	0.0138335
740.484	0.0137834
740.562	0.0138737
740.640	0.0139663
740.718	0.0137906
740.796	0.0137721
740.874	0.0138323
740.953	0.0137693
741.031	0.0138846
741.109	0.0138169
741.187	0.0137726
741.265	0.0139126
741.343	0.0137952
741.421	0.0136761
741.499	0.0138541
741.578	0.0138428
741.656	0.0138103
741.734	0.0136913
741.812	0.0138385
741.890	0.0139243
741.968	0.0137759
742.046	0.0139522
742.124	0.0139810
742.203	0.0139210
742.281	0.0136482
742.359	0.0137956
742.437	0.0138647
742.515	0.0138313
742.593	0.0137978
742.671	0.0137247
742.749	0.0136997
742.828	0.0137564
742.906	0.0137418
742.984	0.0138791
743.062	0.0137500
743.140	0.0137697
743.218	0.0138036
743.296	0.0137324
743.374	0.0137437
743.453	0.0137277
743.531	0.0137968
743.609	0.0137801
743.687	0.0139117
743.765	0.0138526
743.843	0.0138218
743.921	0.0137856
743.999	0.0138704
744.078	0.0136224
744.156	0.0136596
744.234	0.0136069
744.312	0.0138396
744.390	0.0135533
744.468	0.0136302
744.546	0.0136143
744.624	0.0135433
744.703	0.0136935
744.781	0.0135802
744.859	0.0136606
744.937	0.0136823
745.015	0.0136522
745.093	0.0137417
745.171	0.0136225
745.249	0.0137296
745.328	0.0137309
745.406	0.0136807
745.484	0.0137073
745.562	0.0137354
745.640	0.0137205
745.718	0.0136687
745.796	0.0135831
745.874	0.0137141
745.953	0.0136075
746.031	0.0134728
746.109	0.0135975
746.187	0.0137030
746.265	0.0136502
746.343	0.0136343
746.421	0.0136293
746.499	0.0137029
746.578	0.0138207
746.656	0.0137500
746.734	0.0137420
746.812	0.0138093
746.890	0.0137091
746.968	0.0136580
747.046	0.0138183
747.124	0.0138293
747.203	0.0136534
747.281	0.0137109
747.359	0.0136385
747.437	0.0136913
747.515	0.0138430
747.593	0.0137003
747.671	0.0137126
747.749	0.0138258
747.828	0.0139170
747.906	0.0137964
747.984	0.0137500
748.062	0.0137666
748.140	0.0139874
748.218	0.0139628
748.296	0.0139093
748.374	0.0139052
748.453	0.0138740
748.531	0.0139191
748.609	0.0139371
748.687	0.0138314
748.765	0.0139894
748.843	0.0137613
748.921	0.0137453
748.999	0.0137903
749.078	0.0137855
749.156	0.0137962
749.234	0.0137106
749.312	0.0136340
749.390	0.0135840
749.468	0.0136782
749.546	0.0136540
749.624	0.0136475
749.703	0.0136335
749.781	0.0137245
749.859	0.0135741
749.937	0.0137562
750.015	0.0137331
750.093	0.0138125
750.171	0.0138227
750.249	0.0138354
750.328	0.0138013
750.406	0.0139602
750.484	0.0139404
750.562	0.0137714
750.640	0.0137550
750.718	0.0137496
750.796	0.0136938
750.874	0.0137898
750.953	0.0137311
751.031	0.0135992
751.109	0.0135112
751.187	0.0136015
751.265	0.0137104
751.343	0.0137012
751.421	0.0135358
751.499	0.0137889
751.578	0.0136693
751.656	0.0136950
751.734	0.0138214
751.812	0.0138347
751.890	0.0138722
751.968	0.0136554
752.046	0.0136888
752.124	0.0138186
752.203	0.0137667
752.281	0.0137769
752.359	0.0137752
752.437	0.0137195
752.515	0.0137559
752.593	0.0137239
752.671	0.0138477
752.749	0.0137566
752.828	0.0136574
752.906	0.0136350
752.984	0.0136974
753.062	0.0136943
753.140	0.0136407
753.218	0.0137312
753.296	0.0135816
753.374	0.0136371
753.453	0.0136333
753.531	0.0137186
753.609	0.0137621
753.687	0.0138306
753.765	0.0137312
753.843	0.0137965
753.921	0.0139226
753.999	0.0139720
754.078	0.0138374
754.156	0.0139845
754.234	0.0140488
754.312	0.0140595
754.390	0.0139718
754.468	0.0139632
754.546	0.0139198
754.624	0.0138160
754.703	0.0140089
754.781	0.0138994
754.859	0.0138371
754.937	0.0138510
755.015	0.0138274
755.093	0.0138454
755.171	0.0138899
755.249	0.0138165
755.328	0.0137460
755.406	0.0138689
755.484	0.0138052
755.562	0.0138792
755.640	0.0139130
755.718	0.0139354
755.796	0.0140332
755.874	0.0139341
755.953	0.0139715
756.031	0.0139557
756.109	0.0140492
756.187	0.0139325
756.265	0.0139075
756.343	0.0139326
756.421	0.0140813
756.499	0.0139593
756.578	0.0139328
756.656	0.0139124
756.734	0.0140672
756.812	0.0139185
756.890	0.0139068
756.968	0.0139017
757.046	0.0140231
757.124	0.0141248
757.203	0.0139247
757.281	0.0139505
757.359	0.0138546
757.437	0.0139495
757.515	0.0138426
757.593	0.0138960
757.671	0.0140032
757.749	0.0139227
757.828	0.0140007
757.906	0.0139867
757.984	0.0140042
758.062	0.0139981
758.140	0.0139720
758.218	0.0138689
758.296	0.0139271
758.374	0.0141245
758.453	0.0139815
758.531	0.0138976
758.609	0.0140072
758.687	0.0139615
758.765	0.0138239
758.843	0.0137836
758.921	0.0138503
758.999	0.0137048
759.078	0.0138930
759.156	0.0139178
759.234	0.0137834
759.312	0.0138057
759.390	0.0139077
759.468	0.0139861
759.546	0.0140473
759.624	0.0138820
759.703	0.0138525
759.781	0.0140107
759.859	0.0140509
759.937	0.0140372
760.015	0.0141188
760.093	0.0140805
760.171	0.0138585
760.249	0.0139127
760.328	0.0138420
760.406	0.0138222
760.484	0.0138828
760.562	0.0138710
760.640	0.0135989
760.718	0.0137686
760.796	0.0136037
760.874	0.0134811
760.953	0.0136138
761.031	0.0136346
761.109	0.0136345
761.187	0.0136287
761.265	0.0136456
761.343	0.0137311
761.421	0.0137418
761.499	0.0137136
761.578	0.0138624
761.656	0.0139023
761.734	0.0138338
761.812	0.0138551
761.890	0.0139417
761.968	0.0139407
762.046	0.0140190
762.124	0.0139713
762.203	0.0140179
762.281	0.0138348
762.359	0.0139181
762.437	0.0138354
762.515	0.0138510
762.593	0.0138355
762.671	0.0138876
762.749	0.0138487
762.828	0.0137064
762.906	0.0137235
762.984	0.0138020
763.062	0.0135847
763.140	0.0136861
763.218	0.0137929
763.296	0.0138956
763.374	0.0138110
763.453	0.0138002
763.531	0.0138779
763.609	0.0139325
763.687	0.0139431
763.765	0.0138727
763.843	0.0139761
763.921	0.0139273
763.999	0.0138477
764.078	0.0138087
764.156	0.0138130
764.234	0.0138029
764.312	0.0138239
764.390	0.0137390
764.468	0.0137550
764.546	0.0137521
764.624	0.0136243
764.703	0.0136058
764.781	0.0136137
764.859	0.0135524
764.937	0.0137041
765.015	0.0137300
765.093	0.0137198
765.171	0.0136304
765.249	0.0137711
765.328	0.0139385
765.406	0.0137404
765.484	0.0135340
765.562	0.0136275
765.640	0.0136629
765.718	0.0137501
765.796	0.0136895
765.874	0.0137160
765.953	0.0137827
766.031	0.0137943
766.109	0.0136070
766.187	0.0137322
766.265	0.0137739
766.343	0.0137606
766.421	0.0137472
766.499	0.0137273
766.578	0.0135955
766.656	0.0137685
766.734	0.0138061
766.812	0.0137325
766.890	0.0138685
766.968	0.0138093
767.046	0.0136788
767.124	0.0136975
767.203	0.0138275
767.281	0.0138081
767.359	0.0137630
767.437	0.0138911
767.515	0.0138164
767.593	0.0137355
767.671	0.0138229
767.749	0.0138485
767.828	0.0137750
767.906	0.0137937
767.984	0.0137560
768.062	0.0137171
768.140	0.0136402
768.218	0.0136485
768.296	0.0136157
768.374	0.0135262
768.453	0.0137907
768.531	0.0136408
768.609	0.0135150
768.687	0.0136230
768.765	0.0136572
768.843	0.0137181
768.921	0.0136044
768.999	0.0137440
769.078	0.0138473
769.156	0.0137940
769.234	0.0139074
769.312	0.0138631
769.390	0.0140505
769.468	0.0139558
769.546	0.0139680
769.624	0.0139217
769.703	0.0138673
769.781	0.0138509
769.859	0.0139093
769.937	0.0138638
770.015	0.0138961
770.093	0.0137385
770.171	0.0137119
770.249	0.0136541
770.328	0.0137930
770.406	0.0137316
770.484	0.0136799
770.562	0.0137361
770.640	0.0136806
770.718	0.0138382
770.796	0.0137917
770.874	0.0137576
770.953	0.0137211
771.031	0.0137437
771.109	0.0137910
771.187	0.0137273
771.265	0.0137745
771.343	0.0138506
771.421	0.0137572
771.499	0.0139230
771.578	0.0137971
771.656	0.0138570
771.734	0.0136537
771.812	0.0138615
771.890	0.0139038
771.968	0.0137357
772.046	0.0138021
772.124	0.0137360
772.203	0.0137669
772.281	0.0138350
772.359	0.0137769
772.437	0.0136486
772.515	0.0138623
772.593	0.0136823
772.671	0.0137390
772.749	0.0138757
772.828	0.0139777
772.906	0.0138820
772.984	0.0138979
773.062	0.0139404
773.140	0.0139031
773.218	0.0139990
773.296	0.0140919
773.374	0.0139777
773.453	0.0138407
773.531	0.0138637
773.609	0.0140182
773.687	0.0139292
773.765	0.0138254
773.843	0.0138039
773.921	0.0139025
773.999	0.0137726
774.078	0.0136616
774.156	0.0138307
774.234	0.0137107
774.312	0.0136568
774.390	0.0137708
774.468	0.0137037
774.546	0.0137524
774.624	0.0137547
774.703	0.0136653
774.781	0.0136546
774.859	0.0139200
774.937	0.0139299
775.015	0.0138095
775.093	0.0136906
775.171	0.0137184
775.249	0.0138899
775.328	0.0140433
775.406	0.0137932
775.484	0.0138855
775.562	0.0138500
775.640	0.0139079
775.718	0.0138969
775.796	0.0137661
775.874	0.0137589
775.953	0.0138049
776.031	0.0137027
776.109	0.0135918
776.187	0.0137553
776.265	0.0136760
776.343	0.0138663
776.421	0.0136523
776.499	0.0137434
776.578	0.0137747
776.656	0.0138879
776.734	0.0138052
776.812	0.0136936
776.890	0.0137267
776.968	0.0139126
777.046	0.0139064
777.124	0.0139273
777.203	0.0141100
777.281	0.0139810
777.359	0.0139744
777.437	0.0139880
777.515	0.0139424
777.593	0.0138461
777.671	0.0138535
777.749	0.0139553
777.828	0.0138293
777.906	0.0137547
777.984	0.0137624
778.062	0.0137949
778.140	0.0138448
778.218	0.0138413
778.296	0.0137914
778.374	0.0137537
778.453	0.0137427
778.531	0.0138714
778.609	0.0139721
778.687	0.0139160
778.765	0.0138928
778.843	0.0138199
778.921	0.0138993
778.999	0.0137545
779.078	0.0138770
779.156	0.0138004
779.234	0.0139417
779.312	0.0138833
779.390	0.0138239
779.468	0.0139177
779.546	0.0139186
779.624	0.0138120
779.703	0.0138162
779.781	0.0139539
779.859	0.0138284
779.937	0.0137297
780.015	0.0138230
780.093	0.0136102
780.171	0.0137716
780.249	0.0138748
780.328	0.0138339
780.406	0.0137754
780.484	0.0137575
780.562	0.0138916
780.640	0.0138256
780.718	0.0138674
780.796	0.0139404
780.874	0.0138960
780.953	0.0137590
781.031	0.0139416
781.109	0.0139808
781.187	0.0139034
781.265	0.0139283
781.343	0.0139764
781.421	0.0138768
781.499	0.0139089
781.578	0.0139651
781.656	0.0138056
781.734	0.0138400
781.812	0.0136812
781.890	0.0136892
781.968	0.0137837
782.046	0.0137340
782.124	0.0136974
782.203	0.0137944
782.281	0.0138306
782.359	0.0136576
782.437	0.0136993
782.515	0.0137680
782.593	0.0138678
782.671	0.0137888
782.749	0.0139333
782.828	0.0139252
782.906	0.0139539
782.984	0.0140042
783.062	0.0139775
783.140	0.0138908
783.218	0.0138155
783.296	0.0139661
783.374	0.0140009
783.453	0.0138534
783.531	0.0140276
783.609	0.0138634
783.687	0.0138816
783.765	0.0138025
783.843	0.0137878
783.921	0.0137492
783.999	0.0139012
784.078	0.0138070
784.156	0.0138680
784.234	0.0139524
784.312	0.0139468
784.390	0.0139593
784.468	0.0139875
784.546	0.0139859
784.624	0.0139944
784.703	0.0138696
784.781	0.0139494
784.859	0.0140081
784.937	0.0141292
785.015	0.0140372
785.093	0.0140347
785.171	0.0140177
785.249	0.0138149
785.328	0.0139094
785.406	0.0138014
785.484	0.0138718
785.562	0.0138547
785.640	0.0137514
785.718	0.0137659
785.796	0.0137034
785.874	0.0135448
785.953	0.0135397
786.031	0.0137020
786.109	0.0137634
786.187	0.0136180
786.265	0.0137350
786.343	0.0137537
786.421	0.0138238
786.499	0.0138895
786.578	0.0137975
786.656	0.0136649
786.734	0.0136302
786.812	0.0138036
786.890	0.0138361
786.968	0.0138234
787.046	0.0138547
787.124	0.0137062
787.203	0.0135840
787.281	0.0137757
787.359	0.0137446
787.437	0.0135036
787.515	0.0135069
787.593	0.0136092
787.671	0.0136034
787.749	0.0136631
787.828	0.0134115
787.906	0.0136536
787.984	0.0137217
788.062	0.0136092
788.140	0.0135990
788.218	0.0136242
788.296	0.0137592
788.374	0.0138956
788.453	0.0138902
788.531	0.0136510
788.609	0.0137657
788.687	0.0139278
788.765	0.0138657
788.843	0.0139487
788.921	0.0138794
788.999	0.0138462
789.078	0.0138180
789.156	0.0138920
789.234	0.0138667
789.312	0.0138017
789.390	0.0137579
789.468	0.0137493
789.546	0.0138621
789.624	0.0138043
789.703	0.0139663
789.781	0.0137895
789.859	0.0137371
789.937	0.0136725
790.015	0.0135378
790.093	0.0137128
790.171	0.0137466
790.249	0.0138744
790.328	0.0137648
790.406	0.0138047
790.484	0.0138483
790.562	0.0138490
790.640	0.0138531
790.718	0.0138903
790.796	0.0139378
790.874	0.0138003
790.953	0.0138741
791.031	0.0137654
791.109	0.0137666
791.187	0.0135353
791.265	0.0137756
791.343	0.0136845
791.421	0.0135890
791.499	0.0136317
791.578	0.0135862
791.656	0.0135774
791.734	0.0136146
791.812	0.0135542
791.890	0.0135140
791.968	0.0135068
792.046	0.0136521
792.124	0.0136555
792.203	0.0137079
792.281	0.0136479
792.359	0.0137402
792.437	0.0137920
792.515	0.0136876
792.593	0.0134911
792.671	0.0137835
792.749	0.0137968
792.828	0.0135942
792.906	0.0136450
792.984	0.0137386
793.062	0.0136002
793.140	0.0136443
793.218	0.0137515
793.296	0.0136122
793.374	0.0136689
793.453	0.0136709
793.531	0.0135274
793.609	0.0135290
793.687	0.0134902
793.765	0.0135549
793.843	0.0136861
793.921	0.0137770
793.999	0.0135945
794.078	0.0136723
794.156	0.0137717
794.234	0.0134975
794.312	0.0136231
794.390	0.0137217
794.468	0.0137742
794.546	0.0137654
794.624	0.0136729
794.703	0.0137325
794.781	0.0137379
794.859	0.0136063
794.937	0.0138040
795.015	0.0136951
795.093	0.0136967
795.171	0.0136893
795.249	0.0137568
795.328	0.0137984
795.406	0.0136793
795.484	0.0136814
795.562	0.0138039
795.640	0.0137801
795.718	0.0137652
795.796	0.0137374
795.874	0.0137700
795.953	0.0138380
796.031	0.0138744
796.109	0.0138680
796.187	0.0136833
796.265	0.0138790
796.343	0.0138379
796.421	0.0138044
796.499	0.0137636
796.578	0.0138924
796.656	0.0138580
796.734	0.0138017
796.812	0.0137277
796.890	0.0139366
796.968	0.0138790
797.046	0.0138191
797.124	0.0137808
797.203	0.0138543
797.281	0.0138985
797.359	0.0137270
797.437	0.0138474
797.515	0.0136331
797.593	0.0138499
797.671	0.0136681
797.749	0.0137115
797.828	0.0138536
797.906	0.0138753
797.984	0.0137769
798.062	0.0137596
798.140	0.0138963
798.218	0.0137666
798.296	0.0138179
798.374	0.0138077
798.453	0.0138106
798.531	0.0136412
798.609	0.0136282
798.687	0.0137042
798.765	0.0138022
798.843	0.0137959
798.921	0.0137630
798.999	0.0138605
799.078	0.0138326
799.156	0.0139793
799.234	0.0138732
799.312	0.0138776
799.390	0.0138338
799.468	0.0138644
799.546	0.0139905
799.624	0.0139211
799.703	0.0139639
799.781	0.0140899
799.859	0.0140137
799.937	0.0140340
800.015	0.0139007
800.093	0.0139539
800.171	0.0139680
800.249	0.0139962
800.328	0.0139497
800.406	0.0139746
800.484	0.0141836
800.562	0.0139896
800.640	0.0140196
800.718	0.0140319
800.796	0.0139977
800.874	0.0140372
800.953	0.0139420
801.031	0.0138523
801.109	0.0139121
801.187	0.0138333
801.265	0.0136591
801.343	0.0138630
801.421	0.0138254
801.499	0.0138768
801.578	0.0137161
801.656	0.0138190
801.734	0.0137120
801.812	0.0136666
801.890	0.0138574
801.968	0.0139452
802.046	0.0138362
802.124	0.0138602
802.203	0.0137829
802.281	0.0138387
802.359	0.0137418
802.437	0.0138205
802.515	0.0138619
802.593	0.0138055
802.671	0.0138895
802.749	0.0137611
802.828	0.0139130
802.906	0.0138773
802.984	0.0138935
803.062	0.0139267
803.140	0.0138145
803.218	0.0139597
803.296	0.0138359
803.374	0.0138902
803.453	0.0139610
803.531	0.0138850
803.609	0.0139092
803.687	0.0139912
803.765	0.0138139
803.843	0.0139337
803.921	0.0138734
803.999	0.0138381
804.078	0.0137902
804.156	0.0137976
804.234	0.0139906
804.312	0.0139948
804.390	0.0139330
804.468	0.0139656
804.546	0.0138800
804.624	0.0140113
804.703	0.0140939
804.781	0.0138966
804.859	0.0140260
804.937	0.0140223
805.015	0.0140308
805.093	0.0139964
805.171	0.0139795
805.249	0.0139184
805.328	0.0140131
805.406	0.0139173
805.484	0.0140690
805.562	0.0138329
805.640	0.0139259
805.718	0.0139506
805.796	0.0139072
805.874	0.0137976
805.953	0.0139005
806.031	0.0137498
806.109	0.0137355
806.187	0.0137397
806.265	0.0139174
806.343	0.0139593
806.421	0.0139493
806.499	0.0138218
806.578	0.0138245
806.656	0.0138421
806.734	0.0138299
806.812	0.0138400
806.890	0.0137698
806.968	0.0139022
807.046	0.0137888
807.124	0.0138515
807.203	0.0138979
807.281	0.0138840
807.359	0.0137699
807.437	0.0136758
807.515	0.0136646
807.593	0.0136836
807.671	0.0137348
807.749	0.0137721
807.828	0.0138321
807.906	0.0136240
807.984	0.0137009
808.062	0.0136832
808.140	0.0136989
808.218	0.0137532
808.296	0.0136574
808.374	0.0137001
808.453	0.0136458
808.531	0.0136047
808.609	0.0137239
808.687	0.0137465
808.765	0.0137353
808.843	0.0137078
808.921	0.0138222
808.999	0.0137126
809.078	0.0136159
809.156	0.0135687
809.234	0.0135802
809.312	0.0136050
809.390	0.0136126
809.468	0.0137093
809.546	0.0137716
809.624	0.0136922
809.703	0.0135154
809.781	0.0135262
809.859	0.0134691
809.937	0.0137204
810.015	0.0136271
810.093	0.0135492
810.171	0.0135352
810.249	0.0135002
810.328	0.0136259
810.406	0.0136005
810.484	0.0136821
810.562	0.0137822
810.640	0.0137797
810.718	0.0137459
810.796	0.0136681
810.874	0.0137240
810.953	0.0137246
811.031	0.0138834
811.109	0.0137858
811.187	0.0137678
811.265	0.0137365
811.343	0.0137710
811.421	0.0136356
811.499	0.0137550
811.578	0.0138597
811.656	0.0138004
811.734	0.0137808
811.812	0.0137636
811.890	0.0138562
811.968	0.0138182
812.046	0.0138199
812.124	0.0137504
812.203	0.0140410
812.281	0.0137561
812.359	0.0136703
812.437	0.0138455
812.515	0.0137560
812.593	0.0136490
812.671	0.0136271
812.749	0.0137748
812.828	0.0138330
812.906	0.0137112
812.984	0.0136747
813.062	0.0137595
813.140	0.0139126
813.218	0.0137048
813.296	0.0137729
813.374	0.0136740
813.453	0.0138299
813.531	0.0137844
813.609	0.0136599
813.687	0.0136710
813.765	0.0138199
813.843	0.0137142
813.921	0.0136412
813.999	0.0137533
814.078	0.0137126
814.156	0.0138422
814.234	0.0137376
814.312	0.0138219
814.390	0.0136295
814.468	0.0137169
814.546	0.0137231
814.624	0.0137229
814.703	0.0136026
814.781	0.0136658
814.859	0.0137175
814.937	0.0137035
815.015	0.0138172
815.093	0.0138657
815.171	0.0137544
815.249	0.0139106
815.328	0.0138895
815.406	0.0138319
815.484	0.0137727
815.562	0.0136845
815.640	0.0136984
815.718	0.0139115
815.796	0.0137393
815.874	0.0138236
815.953	0.0138542
816.031	0.0137869
816.109	0.0137542
816.187	0.0139469
816.265	0.0137790
816.343	0.0138048
816.421	0.0137978
816.499	0.0137693
816.578	0.0136481
816.656	0.0137883
816.734	0.0137650
816.812	0.0137757
816.890	0.0139236
816.968	0.0138271
817.046	0.0138012
817.124	0.0138231
817.203	0.0138528
817.281	0.0138219
817.359	0.0136788
817.437	0.0138178
817.515	0.0137826
817.593	0.0137414
817.671	0.0137016
817.749	0.0137634
817.828	0.0139069
817.906	0.0137494
817.984	0.0138277
818.062	0.0137746
818.140	0.0138112
818.218	0.0140174
818.296	0.0138946
818.374	0.0137361
818.453	0.0138457
818.531	0.0139141
818.609	0.0138601
818.687	0.0139426
818.765	0.0137543
818.843	0.0137674
818.921	0.0138998
818.999	0.0136932
819.078	0.0139314
819.156	0.0137713
819.234	0.0138421
819.312	0.0138248
819.390	0.0140141
819.468	0.0139223
819.546	0.0137915
819.624	0.0138160
819.703	0.0138191
819.781	0.0139088
819.859	0.0139158
819.937	0.0138305
820.015	0.0137395
820.093	0.0138257
820.171	0.0139654
820.249	0.0139048
820.328	0.0138531
820.406	0.0137037
820.484	0.0137634
820.562	0.0138772
820.640	0.0136961
820.718	0.0136059
820.796	0.0137791
820.874	0.0137267
820.953	0.0136530
821.031	0.0137040
821.109	0.0135378
821.187	0.0136058
821.265	0.0138401
821.343	0.0138117
821.421	0.0136522
821.499	0.0138853
821.578	0.0137511
821.656	0.0138596
821.734	0.0138314
821.812	0.0138874
821.890	0.0137914
821.968	0.0137958
822.046	0.0138567
822.124	0.0138895
822.203	0.0138089
822.281	0.0138724
822.359	0.0139806
822.437	0.0138143
822.515	0.0138196
822.593	0.0138655
822.671	0.0138693
822.749	0.0138660
822.828	0.0138652
822.906	0.0137629
822.984	0.0137260
823.062	0.0137148
823.140	0.0138219
823.218	0.0137151
823.296	0.0136887
823.374	0.0136490
823.453	0.0137747
823.531	0.0138307
823.609	0.0137001
823.687	0.0137066
823.765	0.0137503
823.843	0.0136427
823.921	0.0137656
823.999	0.0138395
824.078	0.0137204
824.156	0.0137388
824.234	0.0136308
824.312	0.0136465
824.390	0.0136063
824.468	0.0138499
824.546	0.0137492
824.624	0.0135818
824.703	0.0138444
824.781	0.0137975
824.859	0.0137820
824.937	0.0137824
825.015	0.0136168
825.093	0.0138633
825.171	0.0137877
825.249	0.0138168
825.328	0.0137663
825.406	0.0137190
825.484	0.0138905
825.562	0.0138399
825.640	0.0138573
825.718	0.0137656
825.796	0.0138142
825.874	0.0138914
825.953	0.0139006
826.031	0.0139653
826.109	0.0138842
826.187	0.0138331
826.265	0.0140863
826.343	0.0138858
826.421	0.0139243
826.499	0.0139329
826.578	0.0138804
826.656	0.0138595
826.734	0.0138387
826.812	0.0138486
826.890	0.0136772
826.968	0.0138178
827.046	0.0137771
827.124	0.0138055
827.203	0.0139540
827.281	0.0138457
827.359	0.0137719
827.437	0.0137128
827.515	0.0138141
827.593	0.0138836
827.671	0.0137889
827.749	0.0136724
827.828	0.0138290
827.906	0.0137839
827.984	0.0137228
828.062	0.0138698
828.140	0.0138189
828.218	0.0138391
828.296	0.0139149
828.374	0.0138143
828.453	0.0138632
828.531	0.0139255
828.609	0.0138007
828.687	0.0137557
828.765	0.0137653
828.843	0.0136779
828.921	0.0137994
828.999	0.0139053
829.078	0.0137614
829.156	0.0138048
829.234	0.0138510
829.312	0.0137496
829.390	0.0138850
829.468	0.0138458
829.546	0.0137421
829.624	0.0138754
829.703	0.0140195
829.781	0.0139734
829.859	0.0139719
829.937	0.0138443
830.015	0.0139268
830.093	0.0138669
830.171	0.0138652
830.249	0.0138591
830.328	0.0138979
830.406	0.0137764
830.484	0.0138491
830.562	0.0138442
830.640	0.0137352
830.718	0.0138502
830.796	0.0138465
830.874	0.0137904
830.953	0.0138854
831.031	0.0139460
831.109	0.0138010
831.187	0.0138849
831.265	0.0139420
831.343	0.0139209
831.421	0.0138708
831.499	0.0137476
831.578	0.0138464
831.656	0.0139730
831.734	0.0139378
831.812	0.0138910
831.890	0.0139729
831.968	0.0137364
832.046	0.0138120
832.124	0.0137883
832.203	0.0137372
832.281	0.0138247
832.359	0.0137967
832.437	0.0138683
832.515	0.0136577
832.593	0.0136234
832.671	0.0137434
832.749	0.0138326
832.828	0.0136478
832.906	0.0137767
832.984	0.0137320
833.062	0.0138256
833.140	0.0138302
833.218	0.0138927
833.296	0.0139809
833.374	0.0137518
833.453	0.0137575
833.531	0.0140013
833.609	0.0138397
833.687	0.0139899
833.765	0.0139576
833.843	0.0139653
833.921	0.0139052
833.999	0.0139565
834.078	0.0139813
834.156	0.0139858
834.234	0.0139083
834.312	0.0138756
834.390	0.0139169
834.468	0.0139039
834.546	0.0139223
834.624	0.0138919
834.703	0.0137940
834.781	0.0139495
834.859	0.0139098
834.937	0.0139557
835.015	0.0138464
835.093	0.0139326
835.171	0.0138813
835.249	0.0139890
835.328	0.0138087
835.406	0.0137325
835.484	0.0139647
835.562	0.0137966
835.640	0.0138457
835.718	0.0138811
835.796	0.0139231
835.874	0.0138492
835.953	0.0137317
836.031	0.0137779
836.109	0.0139066
836.187	0.0138280
836.265	0.0136450
836.343	0.0137476
836.421	0.0138278
836.499	0.0139346
836.578	0.0139251
836.656	0.0138219
836.734	0.0139658
836.812	0.0140560
836.890	0.0138972
836.968	0.0139045
837.046	0.0139392
837.124	0.0140004
837.203	0.0139550
837.281	0.0139046
837.359	0.0138699
837.437	0.0139340
837.515	0.0140534
837.593	0.0139730
837.671	0.0139591
837.749	0.0140971
837.828	0.0140828
837.906	0.0139134
837.984	0.0138096
838.062	0.0140426
838.140	0.0139288
838.218	0.0139741
838.296	0.0138924
838.374	0.0137679
838.453	0.0138216
838.531	0.0138929
838.609	0.0137810
838.687	0.0137212
838.765	0.0138434
838.843	0.0137245
838.921	0.0138741
838.999	0.0137865
839.078	0.0137172
839.156	0.0137892
839.234	0.0135846
839.312	0.0138008
839.390	0.0136877
839.468	0.0136115
839.546	0.0137393
839.624	0.0137352
839.703	0.0137697
839.781	0.0137747
839.859	0.0137511
839.937	0.0136673
840.015	0.0138029
840.093	0.0138238
840.171	0.0136655
840.249	0.0137770
840.328	0.0138224
840.406	0.0137532
840.484	0.0137727
840.562	0.0137996
840.640	0.0137363
840.718	0.0138273
840.796	0.0136895
840.874	0.0138850
840.953	0.0137411
841.031	0.0138555
841.109	0.0138306
841.187	0.0138393
841.265	0.0138134
841.343	0.0139611
841.421	0.0139610
841.499	0.0137634
841.578	0.0137968
841.656	0.0138325
841.734	0.0138450
841.812	0.0138206
841.890	0.0140604
841.968	0.0140129
842.046	0.0139971
842.124	0.0138069
842.203	0.0137373
842.281	0.0138089
842.359	0.0139953
842.437	0.0138947
842.515	0.0138998
842.593	0.0137898
842.671	0.0139799
842.749	0.0137751
842.828	0.0137947
842.906	0.0137591
842.984	0.0138639
843.062	0.0137650
843.140	0.0138055
843.218	0.0138271
843.296	0.0136885
843.374	0.0138974
843.453	0.0137643
843.531	0.0135978
843.609	0.0136109
843.687	0.0135915
843.765	0.0136649
843.843	0.0136781
843.921	0.0135239
843.999	0.0135847
844.078	0.0136367
844.156	0.0135522
844.234	0.0135921
844.312	0.0135044
844.390	0.0137099
844.468	0.0137246
844.546	0.0136530
844.624	0.0135571
844.703	0.0137753
844.781	0.0138003
844.859	0.0136556
844.937	0.0136348
845.015	0.0138670
845.093	0.0136782
845.171	0.0137552
845.249	0.0137204
845.328	0.0136404
845.406	0.0136009
845.484	0.0138463
845.562	0.0137080
845.640	0.0136029
845.718	0.0136236
845.796	0.0136312
845.874	0.0135856
845.953	0.0136858
846.031	0.0137010
846.109	0.0136777
846.187	0.0136097
846.265	0.0137481
846.343	0.0136395
846.421	0.0136591
846.499	0.0136945
846.578	0.0136924
846.656	0.0136722
846.734	0.0138158
846.812	0.0137144
846.890	0.0137440
846.968	0.0138779
847.046	0.0136897
847.124	0.0137379
847.203	0.0138907
847.281	0.0136224
847.359	0.0137595
847.437	0.0138025
847.515	0.0138069
847.593	0.0137244
847.671	0.0136782
847.749	0.0137260
847.828	0.0137109
847.906	0.0136950
847.984	0.0136407
848.062	0.0137198
848.140	0.0135969
848.218	0.0136085
848.296	0.0136644
848.374	0.0136800
848.453	0.0137128
848.531	0.0137544
848.609	0.0137147
848.687	0.0137614
848.765	0.0138371
848.843	0.0138451
848.921	0.0137775
848.999	0.0136981
849.078	0.0137434
849.156	0.0139273
849.234	0.0138016
849.312	0.0137695
849.390	0.0139364
849.468	0.0139323
849.546	0.0137459
849.624	0.0139252
849.703	0.0138831
849.781	0.0138569
849.859	0.0136355
849.937	0.0136912
850.015	0.0138761
850.093	0.0137946
850.171	0.0137158
850.249	0.0138687
850.328	0.0136784
850.406	0.0136883
850.484	0.0137117
850.562	0.0137685
850.640	0.0138162
850.718	0.0137446
850.796	0.0136803
850.874	0.0138913
850.953	0.0139120
851.031	0.0139227
851.109	0.0138702
851.187	0.0139400
851.265	0.0137477
851.343	0.0137671
851.421	0.0137827
851.499	0.0138169
851.578	0.0136613
851.656	0.0137254
851.734	0.0136217
851.812	0.0137560
851.890	0.0137042
851.968	0.0137404
852.046	0.0137598
852.124	0.0137700
852.203	0.0137579
852.281	0.0138163
852.359	0.0138390
852.437	0.0139587
852.515	0.0140179
852.593	0.0139264
852.671	0.0140453
852.749	0.0139470
852.828	0.0140574
852.906	0.0140591
852.984	0.0140821
853.062	0.0141074
853.140	0.0139297
853.218	0.0139909
853.296	0.0140250
853.374	0.0139423
853.453	0.0139214
853.531	0.0139499
853.609	0.0138876
853.687	0.0140086
853.765	0.0138559
853.843	0.0138726
853.921	0.0137416
853.999	0.0137769
854.078	0.0138348
854.156	0.0137807
854.234	0.0137119
854.312	0.0138051
854.390	0.0139040
854.468	0.0139212
854.546	0.0138074
854.624	0.0139090
854.703	0.0139414
854.781	0.0139922
854.859	0.0138179
854.937	0.0138924
855.015	0.0139877
855.093	0.0139030
855.171	0.0139250
855.249	0.0140161
855.328	0.0139732
855.406	0.0139812
855.484	0.0139808
855.562	0.0138477
855.640	0.0139211
855.718	0.0138515
855.796	0.0136588
855.874	0.0138438
855.953	0.0138555
856.031	0.0137092
856.109	0.0136609
856.187	0.0137829
856.265	0.0137646
856.343	0.0137625
856.421	0.0139106
856.499	0.0137875
856.578	0.0138167
856.656	0.0138045
856.734	0.0138458
856.812	0.0138738
856.890	0.0139319
856.968	0.0139876
857.046	0.0138802
857.124	0.0138287
857.203	0.0138329
857.281	0.0139367
857.359	0.0138633
857.437	0.0138182
857.515	0.0137781
857.593	0.0139226
857.671	0.0137449
857.749	0.0137997
857.828	0.0137868
857.906	0.0138001
857.984	0.0138045
858.062	0.0137261
858.140	0.0137570
858.218	0.0138558
858.296	0.0137999
858.374	0.0137847
858.453	0.0137525
858.531	0.0137760
858.609	0.0138350
858.687	0.0137440
858.765	0.0137409
858.843	0.0137942
858.921	0.0138657
858.999	0.0139948
859.078	0.0137778
859.156	0.0137040
859.234	0.0138785
859.312	0.0137982
859.390	0.0140092
859.468	0.0139994
859.546	0.0140086
859.624	0.0138636
859.703	0.0139055
859.781	0.0139130
859.859	0.0137812
859.937	0.0137151
860.015	0.0137463
860.093	0.0138805
860.171	0.0137586
860.249	0.0136837
860.328	0.0138089
860.406	0.0138185
860.484	0.0139132
860.562	0.0139114
860.640	0.0137521
860.718	0.0139173
860.796	0.0137513
860.874	0.0139091
860.953	0.0139828
861.031	0.0140595
861.109	0.0140176
861.187	0.0138505
861.265	0.0138927
861.343	0.0139196
861.421	0.0139247
861.499	0.0140067
861.578	0.0137701
861.656	0.0137982
861.734	0.0139590
861.812	0.0139349
861.890	0.0138503
861.968	0.0138417
862.046	0.0138718
862.124	0.0138940
862.203	0.0138788
862.281	0.0138922
862.359	0.0140162
862.437	0.0139452
862.515	0.0138923
862.593	0.0138268
862.671	0.0138361
862.749	0.0139060
862.828	0.0140170
862.906	0.0138029
862.984	0.0137872
863.062	0.0139631
863.140	0.0139070
863.218	0.0138023
863.296	0.0138205
863.374	0.0138082
863.453	0.0138511
863.531	0.0138593
863.609	0.0137997
863.687	0.0136734
863.765	0.0138098
863.843	0.0138474
863.921	0.0138960
863.999	0.0137495
864.078	0.0136787
864.156	0.0138014
864.234	0.0136704
864.312	0.0138296
864.390	0.0138543
864.468	0.0137630
864.546	0.0138053
864.624	0.0139203
864.703	0.0138461
864.781	0.0138881
864.859	0.0138754
864.937	0.0139307
865.015	0.0138209
865.093	0.0138315
865.171	0.0139326
865.249	0.0138620
865.328	0.0139201
865.406	0.0137027
865.484	0.0138026
865.562	0.0137285
865.640	0.0137656
865.718	0.0136809
865.796	0.0137991
865.874	0.0138769
865.953	0.0138930
866.031	0.0138683
866.109	0.0138492
866.187	0.0138415
866.265	0.0138615
866.343	0.0140179
866.421	0.0137805
866.499	0.0137858
866.578	0.0138657
866.656	0.0138256
866.734	0.0138204
866.812	0.0138091
866.890	0.0137663
866.968	0.0138821
867.046	0.0138303
867.124	0.0136720
867.203	0.0137681
867.281	0.0137587
867.359	0.0137771
867.437	0.0138580
867.515	0.0137877
867.593	0.0139137
867.671	0.0136312
867.749	0.0136140
867.828	0.0137721
867.906	0.0137506
867.984	0.0137057
868.062	0.0137334
868.140	0.0138235
868.218	0.0138219
868.296	0.0138477
868.374	0.0138095
868.453	0.0137837
868.531	0.0138279
868.609	0.0137275
868.687	0.0137658
868.765	0.0137251
868.843	0.0137207
868.921	0.0136746
868.999	0.0137045
869.078	0.0138128
869.156	0.0138164
869.234	0.0135759
869.312	0.0136423
869.390	0.0138032
869.468	0.0138171
869.546	0.0136915
869.624	0.0138141
869.703	0.0137644
869.781	0.0136817
869.859	0.0135892
869.937	0.0136908
870.015	0.0135371
870.093	0.0135983
870.171	0.0136762
870.249	0.0136523
870.328	0.0136667
870.406	0.0136884
870.484	0.0136692
870.562	0.0136690
870.640	0.0136740
870.718	0.0137835
870.796	0.0137370
870.874	0.0136564
870.953	0.0137978
871.031	0.0136880
871.109	0.0136882
871.187	0.0139162
871.265	0.0138084
871.343	0.0137990
871.421	0.0137469
871.499	0.0138678
871.578	0.0137805
871.656	0.0138657
871.734	0.0137782
871.812	0.0137115
871.890	0.0136587
871.968	0.0138471
872.046	0.0137876
872.124	0.0137205
872.203	0.0135959
872.281	0.0136726
872.359	0.0137356
872.437	0.0136339
872.515	0.0135343
872.593	0.0136137
872.671	0.0135726
872.749	0.0135689
872.828	0.0137498
872.906	0.0136485
872.984	0.0136261
873.062	0.0137335
873.140	0.0136646
873.218	0.0136565
873.296	0.0137547
873.374	0.0137067
873.453	0.0136687
873.531	0.0137594
873.609	0.0137901
873.687	0.0137874
873.765	0.0137890
873.843	0.0138675
873.921	0.0137019
873.999	0.0137793
874.078	0.0137775
874.156	0.0137196
874.234	0.0138688
874.312	0.0136860
874.390	0.0136440
874.468	0.0137258
874.546	0.0137521
874.624	0.0136098
874.703	0.0138126
874.781	0.0138047
874.859	0.0137028
874.937	0.0138539
875.015	0.0137148
875.093	0.0137585
875.171	0.0138457
875.249	0.0139236
875.328	0.0139059
875.406	0.0137270
875.484	0.0137144
875.562	0.0137704
875.640	0.0137649
875.718	0.0138824
875.796	0.0137771
875.874	0.0137099
875.953	0.0137859
876.031	0.0138004
876.109	0.0137235
876.187	0.0136134
876.265	0.0136677
876.343	0.0136171
876.421	0.0138503
876.499	0.0138493
876.578	0.0136707
876.656	0.0136590
876.734	0.0137800
876.812	0.0138451
876.890	0.0138641
876.968	0.0138262
877.046	0.0138065
877.124	0.0137976
877.203	0.0137274
877.281	0.0139668
877.359	0.0138268
877.437	0.0138075
877.515	0.0137038
877.593	0.0137856
877.671	0.0138444
877.749	0.0137991
877.828	0.0138715
877.906	0.0136629
877.984	0.0136362
878.062	0.0138268
878.140	0.0137450
878.218	0.0137985
878.296	0.0138522
878.374	0.0138764
878.453	0.0138151
878.531	0.0138832
878.609	0.0140069
878.687	0.0138317
878.765	0.0138025
878.843	0.0138557
878.921	0.0138458
878.999	0.0138933
879.078	0.0137839
879.156	0.0138988
879.234	0.0139091
879.312	0.0139493
879.390	0.0140035
879.468	0.0137952
879.546	0.0138470
879.624	0.0139786
879.703	0.0138847
879.781	0.0138266
879.859	0.0138533
879.937	0.0137954
880.015	0.0138972
880.093	0.0140273
880.171	0.0138120
880.249	0.0138459
880.328	0.0138605
880.406	0.0137756
880.484	0.0139790
880.562	0.0138190
880.640	0.0137003
880.718	0.0137583
880.796	0.0138216
880.874	0.0137563
880.953	0.0136892
881.031	0.0138624
881.109	0.0138552
881.187	0.0138615
881.265	0.0138251
881.343	0.0139009
881.421	0.0141072
881.499	0.0139230
881.578	0.0139385
881.656	0.0140690
881.734	0.0138673
881.812	0.0139015
881.890	0.0140221
881.968	0.0139555
882.046	0.0139537
882.124	0.0139747
882.203	0.0139098
882.281	0.0140246
882.359	0.0140248
882.437	0.0138786
882.515	0.0139421
882.593	0.0138949
882.671	0.0140330
882.749	0.0138402
882.828	0.0138193
882.906	0.0140269
882.984	0.0139714
883.062	0.0139476
883.140	0.0138888
883.218	0.0139651
883.296	0.0138336
883.374	0.0139019
883.453	0.0137823
883.531	0.0138979
883.609	0.0138901
883.687	0.0140091
883.765	0.0139381
883.843	0.0138840
883.921	0.0138461
883.999	0.0138260
884.078	0.0136848
884.156	0.0138301
884.234	0.0138889
884.312	0.0138527
884.390	0.0139049
884.468	0.0139212
884.546	0.0137934
884.624	0.0139195
884.703	0.0138831
884.781	0.0139046
884.859	0.0139019
884.937	0.0140237
885.015	0.0138749
885.093	0.0139610
885.171	0.0139279
885.249	0.0139128
885.328	0.0139409
885.406	0.0138039
885.484	0.0139735
885.562	0.0139260
885.640	0.0139658
885.718	0.0138315
885.796	0.0138593
885.874	0.0139368
885.953	0.0137845
886.031	0.0138232
886.109	0.0137493
886.187	0.0137437
886.265	0.0138161
886.343	0.0138273
886.421	0.0138309
886.499	0.0137982
886.578	0.0139104
886.656	0.0137965
886.734	0.0138222
886.812	0.0137234
886.890	0.0139496
886.968	0.0137559
887.046	0.0136787
887.124	0.0138555
887.203	0.0138017
887.281	0.0136681
887.359	0.0136613
887.437	0.0137806
887.515	0.0137970
887.593	0.0136824
887.671	0.0137579
887.749	0.0137578
887.828	0.0136620
887.906	0.0137870
887.984	0.0137209
888.062	0.0136137
888.140	0.0137090
888.218	0.0137622
888.296	0.0137836
888.374	0.0137617
888.453	0.0138293
888.531	0.0138209
888.609	0.0137486
888.687	0.0136507
888.765	0.0137898
888.843	0.0137535
888.921	0.0136308
888.999	0.0136898
889.078	0.0138760
889.156	0.0136826
889.234	0.0137608
889.312	0.0137668
889.390	0.0136362
889.468	0.0136822
889.546	0.0137078
889.624	0.0137553
889.703	0.0136219
889.781	0.0136663
889.859	0.0136774
889.937	0.0138185
890.015	0.0135477
890.093	0.0137606
890.171	0.0137215
890.249	0.0137249
890.328	0.0138326
890.406	0.0137128
890.484	0.0137000
890.562	0.0138196
890.640	0.0138184
890.718	0.0138113
890.796	0.0136071
890.874	0.0138972
890.953	0.0138490
891.031	0.0138485
891.109	0.0137634
891.187	0.0137884
891.265	0.0137334
891.343	0.0138275
891.421	0.0138223
891.499	0.0136626
891.578	0.0136990
891.656	0.0137160
891.734	0.0136893
891.812	0.0137689
891.890	0.0137183
891.968	0.0137511
892.046	0.0136793
892.124	0.0137347
892.203	0.0137567
892.281	0.0137462
892.359	0.0137019
892.437	0.0136790
892.515	0.0135881
892.593	0.0137461
892.671	0.0136137
892.749	0.0136139
892.828	0.0135415
892.906	0.0137418
892.984	0.0137767
893.062	0.0136680
893.140	0.0137574
893.218	0.0137861
893.296	0.0136562
893.374	0.0136768
893.453	0.0136507
893.531	0.0137145
893.609	0.0136806
893.687	0.0137247
893.765	0.0136753
893.843	0.0137083
893.921	0.0138042
893.999	0.0137112
894.078	0.0136005
894.156	0.0136846
894.234	0.0137568
894.312	0.0135712
894.390	0.0136197
894.468	0.0135445
894.546	0.0134776
894.624	0.0136919
894.703	0.0136646
894.781	0.0137170
894.859	0.0136385
894.937	0.0136668
895.015	0.0137873
895.093	0.0137543
895.171	0.0138242
895.249	0.0136880
895.328	0.0137931
895.406	0.0136992
895.484	0.0138121
895.562	0.0137609
895.640	0.0138312
895.718	0.0138045
895.796	0.0135888
895.874	0.0136082
895.953	0.0138124
896.031	0.0138061
896.109	0.0137606
896.187	0.0137630
896.265	0.0137864
896.343	0.0137788
896.421	0.0137988
896.499	0.0137204
896.578	0.0137591
896.656	0.0138262
896.734	0.0137589
896.812	0.0136491
896.890	0.0138399
896.968	0.0137552
897.046	0.0135815
897.124	0.0139030
897.203	0.0137901
897.281	0.0136247
897.359	0.0137643
897.437	0.0138324
897.515	0.0137811
897.593	0.0138363
897.671	0.0137205
897.749	0.0139019
897.828	0.0137807
897.906	0.0138790
897.984	0.0137566
898.062	0.0138257
898.140	0.0138290
898.218	0.0139045
898.296	0.0138346
898.374	0.0138371
898.453	0.0137364
898.531	0.0137191
898.609	0.0137872
898.687	0.0137553
898.765	0.0137701
898.843	0.0136775
898.921	0.0137722
898.999	0.0137198
899.078	0.0138393
899.156	0.0136935
899.234	0.0138067
899.312	0.0138129
899.390	0.0137325
899.468	0.0137365
899.546	0.0137310
899.624	0.0138461
899.703	0.0139118
899.781	0.0136779
899.859	0.0138248
899.937	0.0139609
900.015	0.0139273
900.093	0.0137888
900.171	0.0137861
900.249	0.0139301
900.328	0.0139271
900.406	0.0138126
900.484	0.0138413
900.562	0.0139101
900.640	0.0138165
900.718	0.0138987
900.796	0.0139410
900.874	0.0138339
900.953	0.0138398
901.031	0.0139060
901.109	0.0138761
901.187	0.0138947
901.265	0.0137248
901.343	0.0138542
901.421	0.0137704
901.499	0.0137801
901.578	0.0138342
901.656	0.0139632
901.734	0.0139542
901.812	0.0139466
901.890	0.0138882
901.968	0.0139565
902.046	0.0139258
902.124	0.0139883
902.203	0.0137603
902.281	0.0138521
902.359	0.0139475
902.437	0.0137568
902.515	0.0138467
902.593	0.0139859
902.671	0.0138022
902.749	0.0137879
902.828	0.0139169
902.906	0.0138791
902.984	0.0138197
903.062	0.0138223
903.140	0.0138878
903.218	0.0138245
903.296	0.0139353
903.374	0.0138313
903.453	0.0136015
903.531	0.0138081
903.609	0.0138421
903.687	0.0137677
903.765	0.0138031
903.843	0.0138900
903.921	0.0137652
903.999	0.0137421
904.078	0.0137524
904.156	0.0138110
904.234	0.0138081
904.312	0.0137830
904.390	0.0137739
904.468	0.0139381
904.546	0.0138651
904.624	0.0137404
904.703	0.0139236
904.781	0.0139046
904.859	0.0139021
904.937	0.0137961
905.015	0.0136861
905.093	0.0138604
905.171	0.0139163
905.249	0.0139303
905.328	0.0137579
905.406	0.0137770
905.484	0.0138023
905.562	0.0136627
905.640	0.0136277
905.718	0.0138469
905.796	0.0140076
905.874	0.0137229
905.953	0.0136947
906.031	0.0138280
906.109	0.0139585
906.187	0.0138664
906.265	0.0138789
906.343	0.0139656
906.421	0.0137960
906.499	0.0137144
906.578	0.0138403
906.656	0.0137608
906.734	0.0138516
906.812	0.0139021
906.890	0.0138742
906.968	0.0139071
907.046	0.0138527
907.124	0.0137901
907.203	0.0137098
907.281	0.0139620
907.359	0.0139507
907.437	0.0137603
907.515	0.0139190
907.593	0.0138984
907.671	0.0138961
907.749	0.0138078
907.828	0.0137975
907.906	0.0139189
907.984	0.0138087
908.062	0.0136209
908.140	0.0137057
908.218	0.0137527
908.296	0.0138461
908.374	0.0136243
908.453	0.0137520
908.531	0.0137928
908.609	0.0138959
908.687	0.0139989
908.765	0.0137751
908.843	0.0137573
908.921	0.0137524
908.999	0.0138097
909.078	0.0138841
909.156	0.0137543
909.234	0.0139658
909.312	0.0137592
909.390	0.0139188
909.468	0.0138587
909.546	0.0137523
909.624	0.0137339
909.703	0.0139510
909.781	0.0138235
909.859	0.0138187
909.937	0.0137522
910.015	0.0138865
910.093	0.0136513
910.171	0.0138079
910.249	0.0137867
910.328	0.0136821
910.406	0.0138172
910.484	0.0138595
910.562	0.0138526
910.640	0.0138052
910.718	0.0136605
910.796	0.0137094
910.874	0.0138436
910.953	0.0138521
911.031	0.0137743
911.109	0.0137538
911.187	0.0138162
911.265	0.0137997
911.343	0.0137172
911.421	0.0136948
911.499	0.0137209
911.578	0.0138563
911.656	0.0139484
911.734	0.0136932
911.812	0.0138144
911.890	0.0136884
911.968	0.0138883
912.046	0.0137556
912.124	0.0138544
912.203	0.0138686
912.281	0.0138522
912.359	0.0138403
912.437	0.0137651
912.515	0.0137502
912.593	0.0137959
912.671	0.0137954
912.749	0.0138973
912.828	0.0139064
912.906	0.0137209
912.984	0.0137920
913.062	0.0138185
913.140	0.0138990
913.218	0.0138999
913.296	0.0137223
913.374	0.0136493
913.453	0.0137234
913.531	0.0137372
913.609	0.0136789
913.687	0.0137616
913.765	0.0136234
913.843	0.0138491
913.921	0.0137566
913.999	0.0137804
914.078	0.0136742
914.156	0.0136936
914.234	0.0137795
914.312	0.0137550
914.390	0.0136380
914.468	0.0137173
914.546	0.0138293
914.624	0.0138010
914.703	0.0136240
914.781	0.0137378
914.859	0.0139133
914.937	0.0137244
915.015	0.0137968
915.093	0.0136688
915.171	0.0137874
915.249	0.0137712
915.328	0.0138548
915.406	0.0138297
915.484	0.0138049
915.562	0.0138551
915.640	0.0138829
915.718	0.0137166
915.796	0.0137339
915.874	0.0138931
915.953	0.0138089
916.031	0.0138131
916.109	0.0138002
916.187	0.0139024
916.265	0.0138104
916.343	0.0138692
916.421	0.0137676
916.499	0.0138153
916.578	0.0139141
916.656	0.0138544
916.734	0.0138285
916.812	0.0138712
916.890	0.0137786
916.968	0.0138329
917.046	0.0137818
917.124	0.0137772
917.203	0.0137126
917.281	0.0138721
917.359	0.0139378
917.437	0.0138974
917.515	0.0137926
917.593	0.0138297
917.671	0.0138754
917.749	0.0138613
917.828	0.0139039
917.906	0.0138137
917.984	0.0136898
918.062	0.0138427
918.140	0.0137605
918.218	0.0137861
918.296	0.0138421
918.374	0.0139303
918.453	0.0138126
918.531	0.0137243
918.609	0.0137840
918.687	0.0138271
918.765	0.0138125
918.843	0.0138305
918.921	0.0137683
918.999	0.0138828
919.078	0.0139569
919.156	0.0137775
919.234	0.0137691
919.312	0.0138627
919.390	0.0138432
919.468	0.0138627
919.546	0.0138686
919.624	0.0138237
919.703	0.0137695
919.781	0.0138484
919.859	0.0138859
919.937	0.0139041
