05/06/2022	18:40:38	Ver.	4.1	UNKNOWN
Optical Delay	600.021766	Delta X		0.078125	Sweeps	1	Scan Rate	0/0
Coordinates	Axis 1	NaN	Axis 2	NaN	Axis 3	NaN	Axis 4	NaN	Axis 5	NaN	Axis 6	0.000000
TX Power	0.000000	RX Power	0.000000

600.022	0.0132338
600.100	0.0132140
600.178	0.0132775
600.256	0.0132857
600.334	0.0131953
600.412	0.0133617
600.491	0.0132622
600.569	0.0132716
600.647	0.0134951
600.725	0.0132542
600.803	0.0132214
600.881	0.0132114
600.959	0.0132038
601.037	0.0132651
601.116	0.0130956
601.194	0.0133466
601.272	0.0133140
601.350	0.0132252
601.428	0.0132688
601.506	0.0132340
601.584	0.0132388
601.662	0.0132800
601.741	0.0132425
601.819	0.0131769
601.897	0.0133560
601.975	0.0132249
602.053	0.0133453
602.131	0.0133379
602.209	0.0131818
602.287	0.0132343
602.366	0.0132957
602.444	0.0134159
602.522	0.0133694
602.600	0.0132330
602.678	0.0132683
602.756	0.0132227
602.834	0.0132327
602.912	0.0132062
602.991	0.0132848
603.069	0.0132048
603.147	0.0132484
603.225	0.0131690
603.303	0.0132951
603.381	0.0131853
603.459	0.0133315
603.537	0.0132352
603.616	0.0132362
603.694	0.0132822
603.772	0.0131899
603.850	0.0133244
603.928	0.0134002
604.006	0.0133216
604.084	0.0132246
604.162	0.0132335
604.241	0.0132272
604.319	0.0132727
604.397	0.0133061
604.475	0.0132479
604.553	0.0132923
604.631	0.0133654
604.709	0.0132676
604.787	0.0132854
604.866	0.0132747
604.944	0.0132320
605.022	0.0133906
605.100	0.0133106
605.178	0.0131740
605.256	0.0131757
605.334	0.0132780
605.412	0.0133733
605.491	0.0133290
605.569	0.0132172
605.647	0.0131345
605.725	0.0132999
605.803	0.0134309
605.881	0.0133501
605.959	0.0132176
606.037	0.0133347
606.116	0.0133959
606.194	0.0132619
606.272	0.0132843
606.350	0.0131951
606.428	0.0132633
606.506	0.0132719
606.584	0.0133460
606.662	0.0133173
606.741	0.0133456
606.819	0.0132877
606.897	0.0133864
606.975	0.0132423
607.053	0.0132162
607.131	0.0132411
607.209	0.0132935
607.287	0.0132800
607.366	0.0132098
607.444	0.0132613
607.522	0.0132839
607.600	0.0131786
607.678	0.0132573
607.756	0.0132361
607.834	0.0133088
607.912	0.0132222
607.991	0.0133449
608.069	0.0133849
608.147	0.0133344
608.225	0.0133175
608.303	0.0131332
608.381	0.0132194
608.459	0.0133097
608.537	0.0132301
608.616	0.0133547
608.694	0.0131326
608.772	0.0132281
608.850	0.0133134
608.928	0.0132376
609.006	0.0132899
609.084	0.0133388
609.162	0.0131853
609.241	0.0132405
609.319	0.0132678
609.397	0.0131674
609.475	0.0131689
609.553	0.0133069
609.631	0.0131781
609.709	0.0132436
609.787	0.0133541
609.866	0.0131915
609.944	0.0132948
610.022	0.0133800
610.100	0.0132673
610.178	0.0131345
610.256	0.0133411
610.334	0.0132867
610.412	0.0132169
610.491	0.0132552
610.569	0.0132758
610.647	0.0131348
610.725	0.0132482
610.803	0.0133123
610.881	0.0133769
610.959	0.0132190
611.037	0.0132277
611.116	0.0131644
611.194	0.0132139
611.272	0.0131941
611.350	0.0132758
611.428	0.0133273
611.506	0.0132690
611.584	0.0133298
611.662	0.0133166
611.741	0.0131846
611.819	0.0131136
611.897	0.0134071
611.975	0.0133046
612.053	0.0133105
612.131	0.0132103
612.209	0.0132607
612.287	0.0132722
612.366	0.0131232
612.444	0.0132204
612.522	0.0132413
612.600	0.0131871
612.678	0.0131915
612.756	0.0131055
612.834	0.0133360
612.912	0.0132150
612.991	0.0132561
613.069	0.0132988
613.147	0.0132722
613.225	0.0132409
613.303	0.0132418
613.381	0.0133820
613.459	0.0131731
613.537	0.0132899
613.616	0.0132581
613.694	0.0132248
613.772	0.0132188
613.850	0.0132827
613.928	0.0131959
614.006	0.0130872
614.084	0.0131361
614.162	0.0132803
614.241	0.0132157
614.319	0.0131650
614.397	0.0131654
614.475	0.0131303
614.553	0.0133424
614.631	0.0131390
614.709	0.0131721
614.787	0.0131977
614.866	0.0132063
614.944	0.0132195
615.022	0.0131467
615.100	0.0132192
615.178	0.0132570
615.256	0.0132722
615.334	0.0130846
615.412	0.0132222
615.491	0.0132180
615.569	0.0133024
615.647	0.0134357
615.725	0.0132227
615.803	0.0131053
615.881	0.0133153
615.959	0.0131095
616.037	0.0131757
616.116	0.0134464
616.194	0.0132868
616.272	0.0132886
616.350	0.0131316
616.428	0.0132607
616.506	0.0132420
616.584	0.0133849
616.662	0.0132368
616.741	0.0132543
616.819	0.0131940
616.897	0.0133078
616.975	0.0131555
617.053	0.0131798
617.131	0.0132092
617.209	0.0131490
617.287	0.0131564
617.366	0.0131490
617.444	0.0131905
617.522	0.0131919
617.600	0.0133244
617.678	0.0133561
617.756	0.0132671
617.834	0.0132228
617.912	0.0132471
617.991	0.0132801
618.069	0.0131718
618.147	0.0131557
618.225	0.0132390
618.303	0.0132213
618.381	0.0132674
618.459	0.0132159
618.537	0.0132150
618.616	0.0131534
618.694	0.0133856
618.772	0.0133477
618.850	0.0132888
618.928	0.0132385
619.006	0.0133028
619.084	0.0132623
619.162	0.0131987
619.241	0.0132796
619.319	0.0132417
619.397	0.0131986
619.475	0.0131748
619.553	0.0132647
619.631	0.0133477
619.709	0.0131798
619.787	0.0132243
619.866	0.0133927
619.944	0.0132902
620.022	0.0132120
620.100	0.0132741
620.178	0.0132509
620.256	0.0133328
620.334	0.0133212
620.412	0.0131597
620.491	0.0132059
620.569	0.0130757
620.647	0.0132827
620.725	0.0133588
620.803	0.0132722
620.881	0.0132406
620.959	0.0133403
621.037	0.0131766
621.116	0.0132144
621.194	0.0133357
621.272	0.0132408
621.350	0.0132689
621.428	0.0132029
621.506	0.0132050
621.584	0.0131453
621.662	0.0131915
621.741	0.0131629
621.819	0.0131704
621.897	0.0132903
621.975	0.0132889
622.053	0.0131251
622.131	0.0133113
622.209	0.0132624
622.287	0.0132378
622.366	0.0132559
622.444	0.0131425
622.522	0.0131113
622.600	0.0131983
622.678	0.0133131
622.756	0.0132738
622.834	0.0133824
622.912	0.0132587
622.991	0.0133322
623.069	0.0131670
623.147	0.0131914
623.225	0.0132860
623.303	0.0131608
623.381	0.0132404
623.459	0.0131920
623.537	0.0131696
623.616	0.0130935
623.694	0.0132436
623.772	0.0132530
623.850	0.0132601
623.928	0.0132330
624.006	0.0131924
624.084	0.0132777
624.162	0.0131404
624.241	0.0131820
624.319	0.0133694
624.397	0.0131721
624.475	0.0130489
624.553	0.0131445
624.631	0.0131834
624.709	0.0133034
624.787	0.0133421
624.866	0.0132329
624.944	0.0133837
625.022	0.0133059
625.100	0.0131685
625.178	0.0132423
625.256	0.0132437
625.334	0.0133263
625.412	0.0132466
625.491	0.0132854
625.569	0.0132862
625.647	0.0132038
625.725	0.0131888
625.803	0.0131912
625.881	0.0133289
625.959	0.0132229
626.037	0.0132549
626.116	0.0133313
626.194	0.0132228
626.272	0.0131412
626.350	0.0132887
626.428	0.0132838
626.506	0.0133022
626.584	0.0132349
626.662	0.0133167
626.741	0.0131967
626.819	0.0131363
626.897	0.0133369
626.975	0.0132870
627.053	0.0131691
627.131	0.0131535
627.209	0.0132499
627.287	0.0132542
627.366	0.0133118
627.444	0.0133782
627.522	0.0133453
627.600	0.0132440
627.678	0.0132256
627.756	0.0133252
627.834	0.0132579
627.912	0.0132310
627.991	0.0131782
628.069	0.0132032
628.147	0.0132122
628.225	0.0133802
628.303	0.0132384
628.381	0.0132404
628.459	0.0131600
628.537	0.0133199
628.616	0.0134750
628.694	0.0131528
628.772	0.0132122
628.850	0.0132059
628.928	0.0132883
629.006	0.0132659
629.084	0.0132981
629.162	0.0132227
629.241	0.0133436
629.319	0.0130562
629.397	0.0131962
629.475	0.0132105
629.553	0.0133006
629.631	0.0132365
629.709	0.0132724
629.787	0.0131705
629.866	0.0131979
629.944	0.0132146
630.022	0.0132703
630.100	0.0132716
630.178	0.0132407
630.256	0.0131535
630.334	0.0132012
630.412	0.0133995
630.491	0.0132706
630.569	0.0132584
630.647	0.0132928
630.725	0.0131413
630.803	0.0133255
630.881	0.0132996
630.959	0.0131189
631.037	0.0133314
631.116	0.0131748
631.194	0.0132374
631.272	0.0132314
631.350	0.0132067
631.428	0.0132504
631.506	0.0132455
631.584	0.0131399
631.662	0.0131328
631.741	0.0132672
631.819	0.0132433
631.897	0.0131261
631.975	0.0132285
632.053	0.0132106
632.131	0.0133330
632.209	0.0132597
632.287	0.0132129
632.366	0.0132658
632.444	0.0132558
632.522	0.0131822
632.600	0.0130629
632.678	0.0133040
632.756	0.0133029
632.834	0.0131147
632.912	0.0131983
632.991	0.0132268
633.069	0.0132628
633.147	0.0132127
633.225	0.0132868
633.303	0.0131278
633.381	0.0132050
633.459	0.0132406
633.537	0.0131272
633.616	0.0131995
633.694	0.0134155
633.772	0.0132633
633.850	0.0133073
633.928	0.0131306
634.006	0.0131979
634.084	0.0132719
634.162	0.0132438
634.241	0.0132977
634.319	0.0133665
634.397	0.0132428
634.475	0.0132876
634.553	0.0132151
634.631	0.0132257
634.709	0.0131059
634.787	0.0132788
634.866	0.0132442
634.944	0.0132664
635.022	0.0132783
635.100	0.0131518
635.178	0.0131340
635.256	0.0131002
635.334	0.0130466
635.412	0.0133645
635.491	0.0131801
635.569	0.0131648
635.647	0.0132349
635.725	0.0132116
635.803	0.0131658
635.881	0.0131069
635.959	0.0132235
636.037	0.0132522
636.116	0.0132674
636.194	0.0133792
636.272	0.0133554
636.350	0.0132437
636.428	0.0132246
636.506	0.0131773
636.584	0.0132911
636.662	0.0133440
636.741	0.0133526
636.819	0.0132387
636.897	0.0131896
636.975	0.0133147
637.053	0.0133524
637.131	0.0132242
637.209	0.0132698
637.287	0.0132433
637.366	0.0133038
637.444	0.0131928
637.522	0.0131939
637.600	0.0130815
637.678	0.0132760
637.756	0.0133038
637.834	0.0132829
637.912	0.0133342
637.991	0.0132371
638.069	0.0132363
638.147	0.0133105
638.225	0.0132822
638.303	0.0133130
638.381	0.0132500
638.459	0.0131448
638.537	0.0132681
638.616	0.0132497
638.694	0.0131096
638.772	0.0131474
638.850	0.0132539
638.928	0.0133152
639.006	0.0131731
639.084	0.0132062
639.162	0.0131779
639.241	0.0132604
639.319	0.0132426
639.397	0.0131481
639.475	0.0131873
639.553	0.0131200
639.631	0.0133555
639.709	0.0133826
639.787	0.0131311
639.866	0.0131862
639.944	0.0132547
640.022	0.0132710
640.100	0.0132574
640.178	0.0131607
640.256	0.0133966
640.334	0.0133086
640.412	0.0132198
640.491	0.0132600
640.569	0.0133139
640.647	0.0133238
640.725	0.0131841
640.803	0.0131316
640.881	0.0131046
640.959	0.0133142
641.037	0.0132764
641.116	0.0132466
641.194	0.0133450
641.272	0.0132968
641.350	0.0132172
641.428	0.0132994
641.506	0.0132580
641.584	0.0132933
641.662	0.0133214
641.741	0.0132268
641.819	0.0132531
641.897	0.0133178
641.975	0.0133455
642.053	0.0132454
642.131	0.0131494
642.209	0.0133169
642.287	0.0132380
642.366	0.0132906
642.444	0.0132887
642.522	0.0132652
642.600	0.0132581
642.678	0.0133864
642.756	0.0133508
642.834	0.0132389
642.912	0.0132515
642.991	0.0132502
643.069	0.0132135
643.147	0.0132473
643.225	0.0132711
643.303	0.0132146
643.381	0.0133573
643.459	0.0134124
643.537	0.0132520
643.616	0.0131372
643.694	0.0131302
643.772	0.0131386
643.850	0.0133064
643.928	0.0132387
644.006	0.0133121
644.084	0.0132999
644.162	0.0133281
644.241	0.0133330
644.319	0.0132136
644.397	0.0132094
644.475	0.0133076
644.553	0.0132819
644.631	0.0133257
644.709	0.0133365
644.787	0.0133207
644.866	0.0132049
644.944	0.0132378
645.022	0.0132632
645.100	0.0132030
645.178	0.0131198
645.256	0.0132449
645.334	0.0132891
645.412	0.0131936
645.491	0.0131933
645.569	0.0132715
645.647	0.0131532
645.725	0.0134058
645.803	0.0133590
645.881	0.0132603
645.959	0.0133286
646.037	0.0132382
646.116	0.0134022
646.194	0.0133607
646.272	0.0132333
646.350	0.0131274
646.428	0.0133112
646.506	0.0133215
646.584	0.0131984
646.662	0.0131664
646.741	0.0133009
646.819	0.0133514
646.897	0.0133546
646.975	0.0132756
647.053	0.0132329
647.131	0.0131956
647.209	0.0132771
647.287	0.0133305
647.366	0.0133334
647.444	0.0133255
647.522	0.0131767
647.600	0.0132625
647.678	0.0132723
647.756	0.0132791
647.834	0.0133038
647.912	0.0132552
647.991	0.0131940
648.069	0.0133283
648.147	0.0133067
648.225	0.0133018
648.303	0.0132347
648.381	0.0132152
648.459	0.0132033
648.537	0.0132320
648.616	0.0131675
648.694	0.0132098
648.772	0.0132983
648.850	0.0132931
648.928	0.0132658
649.006	0.0134526
649.084	0.0134274
649.162	0.0132783
649.241	0.0131854
649.319	0.0132628
649.397	0.0132633
649.475	0.0131373
649.553	0.0131882
649.631	0.0133681
649.709	0.0133694
649.787	0.0132285
649.866	0.0131838
649.944	0.0132612
650.022	0.0131023
650.100	0.0133838
650.178	0.0131567
650.256	0.0131386
650.334	0.0132296
650.412	0.0131868
650.491	0.0132763
650.569	0.0133033
650.647	0.0132608
650.725	0.0132053
650.803	0.0132091
650.881	0.0133472
650.959	0.0132946
651.037	0.0132772
651.116	0.0132612
651.194	0.0131664
651.272	0.0134140
651.350	0.0132434
651.428	0.0132783
651.506	0.0131030
651.584	0.0132528
651.662	0.0134013
651.741	0.0133249
651.819	0.0133535
651.897	0.0131702
651.975	0.0133531
652.053	0.0132993
652.131	0.0133058
652.209	0.0131844
652.287	0.0132951
652.366	0.0133625
652.444	0.0133214
652.522	0.0131747
652.600	0.0133395
652.678	0.0132456
652.756	0.0132473
652.834	0.0130910
652.912	0.0132236
652.991	0.0133205
653.069	0.0132307
653.147	0.0132597
653.225	0.0131808
653.303	0.0132039
653.381	0.0132243
653.459	0.0131882
653.537	0.0132706
653.616	0.0132282
653.694	0.0132626
653.772	0.0131228
653.850	0.0132027
653.928	0.0131928
654.006	0.0132166
654.084	0.0132658
654.162	0.0133718
654.241	0.0132317
654.319	0.0131387
654.397	0.0131665
654.475	0.0132259
654.553	0.0132158
654.631	0.0132807
654.709	0.0133624
654.787	0.0131804
654.866	0.0132534
654.944	0.0132689
655.022	0.0133617
655.100	0.0132497
655.178	0.0132159
655.256	0.0133776
655.334	0.0133590
655.412	0.0133167
655.491	0.0132063
655.569	0.0133045
655.647	0.0132946
655.725	0.0133998
655.803	0.0132812
655.881	0.0131388
655.959	0.0131872
656.037	0.0132011
656.116	0.0134772
656.194	0.0132403
656.272	0.0131493
656.350	0.0131224
656.428	0.0131621
656.506	0.0131997
656.584	0.0133256
656.662	0.0131962
656.741	0.0131854
656.819	0.0133237
656.897	0.0132582
656.975	0.0133355
657.053	0.0132747
657.131	0.0132968
657.209	0.0133444
657.287	0.0131004
657.366	0.0131896
657.444	0.0133840
657.522	0.0131980
657.600	0.0132071
657.678	0.0131673
657.756	0.0132501
657.834	0.0132924
657.912	0.0131829
657.991	0.0132323
658.069	0.0131869
658.147	0.0131703
658.225	0.0131647
658.303	0.0133189
658.381	0.0132332
658.459	0.0132739
658.537	0.0132987
658.616	0.0133025
658.694	0.0132684
658.772	0.0131388
658.850	0.0131581
658.928	0.0132191
659.006	0.0132716
659.084	0.0132627
659.162	0.0132902
659.241	0.0133779
659.319	0.0132899
659.397	0.0130006
659.475	0.0132532
659.553	0.0133128
659.631	0.0132529
659.709	0.0132593
659.787	0.0132236
659.866	0.0130875
659.944	0.0132451
660.022	0.0132527
660.100	0.0131639
660.178	0.0132715
660.256	0.0132909
660.334	0.0132014
660.412	0.0133424
660.491	0.0131882
660.569	0.0132658
660.647	0.0132245
660.725	0.0131893
660.803	0.0132811
660.881	0.0132475
660.959	0.0132685
661.037	0.0132510
661.116	0.0132492
661.194	0.0132262
661.272	0.0133286
661.350	0.0131838
661.428	0.0132874
661.506	0.0132385
661.584	0.0132307
661.662	0.0132500
661.741	0.0132243
661.819	0.0133250
661.897	0.0133692
661.975	0.0133341
662.053	0.0132983
662.131	0.0131992
662.209	0.0132812
662.287	0.0132838
662.366	0.0134101
662.444	0.0131982
662.522	0.0131894
662.600	0.0134190
662.678	0.0133537
662.756	0.0132526
662.834	0.0132829
662.912	0.0132673
662.991	0.0131155
663.069	0.0133351
663.147	0.0132468
663.225	0.0133154
663.303	0.0132774
663.381	0.0132166
663.459	0.0131036
663.537	0.0131728
663.616	0.0132439
663.694	0.0132823
663.772	0.0132000
663.850	0.0133598
663.928	0.0134039
664.006	0.0132789
664.084	0.0132817
664.162	0.0132283
664.241	0.0132735
664.319	0.0133553
664.397	0.0133312
664.475	0.0131991
664.553	0.0131885
664.631	0.0133788
664.709	0.0133184
664.787	0.0131247
664.866	0.0131306
664.944	0.0132427
665.022	0.0133908
665.100	0.0133464
665.178	0.0133295
665.256	0.0132251
665.334	0.0134218
665.412	0.0133231
665.491	0.0132082
665.569	0.0133148
665.647	0.0134207
665.725	0.0132454
665.803	0.0133271
665.881	0.0131637
665.959	0.0133344
666.037	0.0133538
666.116	0.0133095
666.194	0.0132436
666.272	0.0131901
666.350	0.0132499
666.428	0.0130986
666.506	0.0132334
666.584	0.0132822
666.662	0.0133847
666.741	0.0132406
666.819	0.0131702
666.897	0.0133034
666.975	0.0132014
667.053	0.0133327
667.131	0.0134890
667.209	0.0133819
667.287	0.0131574
667.366	0.0133177
667.444	0.0133839
667.522	0.0132337
667.600	0.0131862
667.678	0.0133534
667.756	0.0133096
667.834	0.0131485
667.912	0.0132362
667.991	0.0132473
668.069	0.0132928
668.147	0.0132558
668.225	0.0132189
668.303	0.0131577
668.381	0.0132825
668.459	0.0133580
668.537	0.0131573
668.616	0.0132626
668.694	0.0132074
668.772	0.0130649
668.850	0.0132169
668.928	0.0132215
669.006	0.0132150
669.084	0.0133168
669.162	0.0132290
669.241	0.0133059
669.319	0.0132282
669.397	0.0133414
669.475	0.0131097
669.553	0.0131927
669.631	0.0130093
669.709	0.0132440
669.787	0.0131894
669.866	0.0133100
669.944	0.0132063
670.022	0.0131160
670.100	0.0130836
670.178	0.0131835
670.256	0.0131739
670.334	0.0131965
670.412	0.0131705
670.491	0.0132572
670.569	0.0131422
670.647	0.0131115
670.725	0.0132511
670.803	0.0131231
670.881	0.0131368
670.959	0.0130579
671.037	0.0130460
671.116	0.0131732
671.194	0.0130846
671.272	0.0131329
671.350	0.0131426
671.428	0.0131542
671.506	0.0132620
671.584	0.0130761
671.662	0.0132490
671.741	0.0130792
671.819	0.0130790
671.897	0.0132475
671.975	0.0132704
672.053	0.0131774
672.131	0.0129966
672.209	0.0131467
672.287	0.0131282
672.366	0.0130236
672.444	0.0130287
672.522	0.0130753
672.600	0.0130599
672.678	0.0132081
672.756	0.0131596
672.834	0.0130634
672.912	0.0130320
672.991	0.0129967
673.069	0.0130424
673.147	0.0131047
673.225	0.0131961
673.303	0.0131715
673.381	0.0132417
673.459	0.0130638
673.537	0.0131295
673.616	0.0132116
673.694	0.0131866
673.772	0.0131542
673.850	0.0132484
673.928	0.0132162
674.006	0.0130696
674.084	0.0132085
674.162	0.0132220
674.241	0.0130798
674.319	0.0131818
674.397	0.0132507
674.475	0.0131432
674.553	0.0131516
674.631	0.0133165
674.709	0.0131856
674.787	0.0131641
674.866	0.0131940
674.944	0.0132882
675.022	0.0131297
675.100	0.0133157
675.178	0.0133199
675.256	0.0132205
675.334	0.0133455
675.412	0.0131670
675.491	0.0131615
675.569	0.0132172
675.647	0.0133094
675.725	0.0132787
675.803	0.0131420
675.881	0.0132690
675.959	0.0133295
676.037	0.0132684
676.116	0.0133167
676.194	0.0132760
676.272	0.0133582
676.350	0.0133340
676.428	0.0134520
676.506	0.0132970
676.584	0.0132188
676.662	0.0133501
676.741	0.0133807
676.819	0.0133971
676.897	0.0133301
676.975	0.0133659
677.053	0.0134115
677.131	0.0133171
677.209	0.0133489
677.287	0.0132956
677.366	0.0133765
677.444	0.0133645
677.522	0.0132824
677.600	0.0133080
677.678	0.0133283
677.756	0.0133518
677.834	0.0133112
677.912	0.0134065
677.991	0.0134175
678.069	0.0134411
678.147	0.0132470
678.225	0.0134373
678.303	0.0133392
678.381	0.0134942
678.459	0.0135096
678.537	0.0134611
678.616	0.0133396
678.694	0.0132581
678.772	0.0133436
678.850	0.0132844
678.928	0.0134629
679.006	0.0134759
679.084	0.0134789
679.162	0.0134887
679.241	0.0134695
679.319	0.0134936
679.397	0.0134712
679.475	0.0136201
679.553	0.0133971
679.631	0.0133825
679.709	0.0134844
679.787	0.0133802
679.866	0.0133479
679.944	0.0133410
680.022	0.0133836
680.100	0.0134795
680.178	0.0135039
680.256	0.0133997
680.334	0.0133933
680.412	0.0132956
680.491	0.0133480
680.569	0.0134036
680.647	0.0135883
680.725	0.0133843
680.803	0.0133606
680.881	0.0134224
680.959	0.0132576
681.037	0.0133920
681.116	0.0134464
681.194	0.0133585
681.272	0.0132965
681.350	0.0133660
681.428	0.0134631
681.506	0.0134261
681.584	0.0133647
681.662	0.0132655
681.741	0.0131687
681.819	0.0133919
681.897	0.0134193
681.975	0.0133746
682.053	0.0133507
682.131	0.0132938
682.209	0.0132731
682.287	0.0133882
682.366	0.0133935
682.444	0.0133899
682.522	0.0133243
682.600	0.0132949
682.678	0.0133060
682.756	0.0132588
682.834	0.0132799
682.912	0.0133308
682.991	0.0132536
683.069	0.0134305
683.147	0.0131940
683.225	0.0132320
683.303	0.0133126
683.381	0.0131779
683.459	0.0132238
683.537	0.0134541
683.616	0.0134129
683.694	0.0132061
683.772	0.0132477
683.850	0.0131545
683.928	0.0133338
684.006	0.0134174
684.084	0.0134353
684.162	0.0133781
684.241	0.0132259
684.319	0.0133340
684.397	0.0133344
684.475	0.0132475
684.553	0.0132460
684.631	0.0132239
684.709	0.0132418
684.787	0.0131697
684.866	0.0132644
684.944	0.0132742
685.022	0.0131504
685.100	0.0132045
685.178	0.0133855
685.256	0.0133337
685.334	0.0133067
685.412	0.0130867
685.491	0.0133324
685.569	0.0133464
685.647	0.0132312
685.725	0.0132580
685.803	0.0132178
685.881	0.0131023
685.959	0.0133017
686.037	0.0132573
686.116	0.0133217
686.194	0.0132653
686.272	0.0132322
686.350	0.0132112
686.428	0.0133575
686.506	0.0132059
686.584	0.0130888
686.662	0.0130051
686.741	0.0131827
686.819	0.0132109
686.897	0.0131905
686.975	0.0132706
687.053	0.0132233
687.131	0.0132735
687.209	0.0132335
687.287	0.0133790
687.366	0.0134510
687.444	0.0134957
687.522	0.0135011
687.600	0.0133105
687.678	0.0131685
687.756	0.0130618
687.834	0.0131272
687.912	0.0131384
687.991	0.0131129
688.069	0.0130403
688.147	0.0130413
688.225	0.0131138
688.303	0.0130878
688.381	0.0131631
688.459	0.0131761
688.537	0.0131637
688.616	0.0132951
688.694	0.0134497
688.772	0.0134186
688.850	0.0135146
688.928	0.0135435
689.006	0.0134164
689.084	0.0134333
689.162	0.0132739
689.241	0.0134218
689.319	0.0131548
689.397	0.0132590
689.475	0.0133105
689.553	0.0131522
689.631	0.0133579
689.709	0.0133198
689.787	0.0133783
689.866	0.0134235
689.944	0.0133898
690.022	0.0134476
690.100	0.0133987
690.178	0.0132937
690.256	0.0133665
690.334	0.0133945
690.412	0.0132771
690.491	0.0130347
690.569	0.0129938
690.647	0.0129417
690.725	0.0129729
690.803	0.0128032
690.881	0.0130643
690.959	0.0130846
691.037	0.0132381
691.116	0.0132086
691.194	0.0132759
691.272	0.0134129
691.350	0.0133630
691.428	0.0134069
691.506	0.0135501
691.584	0.0135845
691.662	0.0136230
691.741	0.0135233
691.819	0.0134827
691.897	0.0134810
691.975	0.0135018
692.053	0.0134025
692.131	0.0134515
692.209	0.0134156
692.287	0.0133583
692.366	0.0129992
692.444	0.0130300
692.522	0.0129910
692.600	0.0129914
692.678	0.0128153
692.756	0.0129055
692.834	0.0129611
692.912	0.0128838
692.991	0.0131518
693.069	0.0131892
693.147	0.0131313
693.225	0.0130845
693.303	0.0132422
693.381	0.0134103
693.459	0.0134262
693.537	0.0134264
693.616	0.0134274
693.694	0.0134489
693.772	0.0133922
693.850	0.0134434
693.928	0.0131942
694.006	0.0131299
694.084	0.0131699
694.162	0.0132253
694.241	0.0132639
694.319	0.0131125
694.397	0.0132163
694.475	0.0131118
694.553	0.0128883
694.631	0.0128918
694.709	0.0131118
694.787	0.0130627
694.866	0.0131243
694.944	0.0130966
695.022	0.0131564
695.100	0.0129801
695.178	0.0131850
695.256	0.0133574
695.334	0.0131660
695.412	0.0132771
695.491	0.0132311
695.569	0.0135246
695.647	0.0135816
695.725	0.0135392
695.803	0.0134290
695.881	0.0134460
695.959	0.0134782
696.037	0.0134782
696.116	0.0132541
696.194	0.0132782
696.272	0.0132946
696.350	0.0131494
696.428	0.0131512
696.506	0.0130318
696.584	0.0129007
696.662	0.0128201
696.741	0.0127338
696.819	0.0128101
696.897	0.0129488
696.975	0.0128527
697.053	0.0128298
697.131	0.0129380
697.209	0.0129233
697.287	0.0131117
697.366	0.0131520
697.444	0.0132068
697.522	0.0132558
697.600	0.0133727
697.678	0.0132915
697.756	0.0134296
697.834	0.0134647
697.912	0.0132948
697.991	0.0132691
698.069	0.0133874
698.147	0.0133503
698.225	0.0131720
698.303	0.0133486
698.381	0.0131307
698.459	0.0130763
698.537	0.0131721
698.616	0.0130348
698.694	0.0130508
698.772	0.0131271
698.850	0.0133075
698.928	0.0131730
699.006	0.0133051
699.084	0.0133906
699.162	0.0132458
699.241	0.0134663
699.319	0.0133693
699.397	0.0133639
699.475	0.0134795
699.553	0.0134511
699.631	0.0133389
699.709	0.0134184
699.787	0.0133315
699.866	0.0132871
699.944	0.0134601
700.022	0.0132973
700.100	0.0132523
700.178	0.0132034
700.256	0.0132688
700.334	0.0130859
700.412	0.0129637
700.491	0.0131091
700.569	0.0129771
700.647	0.0127506
700.725	0.0129890
700.803	0.0128345
700.881	0.0128347
700.959	0.0129966
701.037	0.0130347
701.116	0.0130764
701.194	0.0131322
701.272	0.0131550
701.350	0.0131534
701.428	0.0132334
701.506	0.0134279
701.584	0.0133710
701.662	0.0134623
701.741	0.0134446
701.819	0.0134714
701.897	0.0135448
701.975	0.0136235
702.053	0.0134198
702.131	0.0134916
702.209	0.0136082
702.287	0.0135938
702.366	0.0134660
702.444	0.0133274
702.522	0.0132224
702.600	0.0130727
702.678	0.0130632
702.756	0.0130592
702.834	0.0130153
702.912	0.0128597
702.991	0.0127357
703.069	0.0128315
703.147	0.0127972
703.225	0.0129800
703.303	0.0129327
703.381	0.0129473
703.459	0.0131223
703.537	0.0132607
703.616	0.0132142
703.694	0.0134130
703.772	0.0134270
703.850	0.0134465
703.928	0.0135495
704.006	0.0136320
704.084	0.0136334
704.162	0.0136347
704.241	0.0137356
704.319	0.0135636
704.397	0.0137212
704.475	0.0137041
704.553	0.0136089
704.631	0.0134924
704.709	0.0133737
704.787	0.0132101
704.866	0.0132513
704.944	0.0131963
705.022	0.0130380
705.100	0.0130988
705.178	0.0130839
705.256	0.0129797
705.334	0.0129914
705.412	0.0129758
705.491	0.0130514
705.569	0.0129916
705.647	0.0129575
705.725	0.0131591
705.803	0.0132516
705.881	0.0133112
705.959	0.0132558
706.037	0.0132630
706.116	0.0133148
706.194	0.0134099
706.272	0.0134041
706.350	0.0134708
706.428	0.0135005
706.506	0.0135143
706.584	0.0134294
706.662	0.0135114
706.741	0.0135080
706.819	0.0133846
706.897	0.0135817
706.975	0.0134442
707.053	0.0134190
707.131	0.0131725
707.209	0.0131481
707.287	0.0132324
707.366	0.0132459
707.444	0.0132295
707.522	0.0131717
707.600	0.0131826
707.678	0.0133785
707.756	0.0134966
707.834	0.0133995
707.912	0.0135404
707.991	0.0135388
708.069	0.0136750
708.147	0.0136932
708.225	0.0137092
708.303	0.0136803
708.381	0.0137059
708.459	0.0138789
708.537	0.0136678
708.616	0.0137096
708.694	0.0135629
708.772	0.0135870
708.850	0.0135269
708.928	0.0133578
709.006	0.0132488
709.084	0.0132039
709.162	0.0130843
709.241	0.0131178
709.319	0.0130213
709.397	0.0129408
709.475	0.0129185
709.553	0.0129008
709.631	0.0129636
709.709	0.0129405
709.787	0.0129451
709.866	0.0131059
709.944	0.0131303
710.022	0.0130110
710.100	0.0132658
710.178	0.0132240
710.256	0.0131157
710.334	0.0132103
710.412	0.0132455
710.491	0.0132206
710.569	0.0131208
710.647	0.0132843
710.725	0.0132347
710.803	0.0133228
710.881	0.0131712
710.959	0.0133041
711.037	0.0131949
711.116	0.0131647
711.194	0.0131700
711.272	0.0132523
711.350	0.0132810
711.428	0.0130752
711.506	0.0132191
711.584	0.0133916
711.662	0.0132469
711.741	0.0130771
711.819	0.0132658
711.897	0.0132075
711.975	0.0131721
712.053	0.0133276
712.131	0.0132077
712.209	0.0133537
712.287	0.0133597
712.366	0.0133701
712.444	0.0132941
712.522	0.0134077
712.600	0.0134667
712.678	0.0135452
712.756	0.0134680
712.834	0.0133549
712.912	0.0134417
712.991	0.0134324
713.069	0.0133157
713.147	0.0135056
713.225	0.0134086
713.303	0.0134801
713.381	0.0135408
713.459	0.0134377
713.537	0.0134903
713.616	0.0133924
713.694	0.0133328
713.772	0.0132690
713.850	0.0131965
713.928	0.0132836
714.006	0.0131991
714.084	0.0131858
714.162	0.0132738
714.241	0.0132077
714.319	0.0131828
714.397	0.0132063
714.475	0.0131728
714.553	0.0130627
714.631	0.0130441
714.709	0.0132391
714.787	0.0132234
714.866	0.0131827
714.944	0.0131892
715.022	0.0133228
715.100	0.0132218
715.178	0.0133492
715.256	0.0132649
715.334	0.0133004
715.412	0.0132632
715.491	0.0133297
715.569	0.0133553
715.647	0.0131940
715.725	0.0132529
715.803	0.0131947
715.881	0.0132128
715.959	0.0129977
716.037	0.0131075
716.116	0.0133392
716.194	0.0129659
716.272	0.0132102
716.350	0.0131354
716.428	0.0132694
716.506	0.0132635
716.584	0.0132819
716.662	0.0132300
716.741	0.0132323
716.819	0.0131913
716.897	0.0133037
716.975	0.0133668
717.053	0.0133278
717.131	0.0133163
717.209	0.0134549
717.287	0.0134940
717.366	0.0135114
717.444	0.0136540
717.522	0.0136190
717.600	0.0135487
717.678	0.0136534
717.756	0.0134053
717.834	0.0134549
717.912	0.0134334
717.991	0.0133207
718.069	0.0133353
718.147	0.0132693
718.225	0.0132407
718.303	0.0132790
718.381	0.0133005
718.459	0.0132436
718.537	0.0132928
718.616	0.0132928
718.694	0.0132837
718.772	0.0132619
718.850	0.0134076
718.928	0.0132309
719.006	0.0131197
719.084	0.0132325
719.162	0.0132101
719.241	0.0133527
719.319	0.0132801
719.397	0.0132128
719.475	0.0131806
719.553	0.0132168
719.631	0.0132859
719.709	0.0132275
719.787	0.0132314
719.866	0.0132849
719.944	0.0131985
720.022	0.0131090
720.100	0.0130717
720.178	0.0132520
720.256	0.0132312
720.334	0.0131896
720.412	0.0130878
720.491	0.0131973
720.569	0.0132639
720.647	0.0131769
720.725	0.0130951
720.803	0.0131570
720.881	0.0130827
720.959	0.0131574
721.037	0.0132454
721.116	0.0133100
721.194	0.0132459
721.272	0.0132925
721.350	0.0133471
721.428	0.0132293
721.506	0.0133556
721.584	0.0133620
721.662	0.0133308
721.741	0.0134146
721.819	0.0132726
721.897	0.0133435
721.975	0.0131125
722.053	0.0132873
722.131	0.0132468
722.209	0.0131407
722.287	0.0130937
722.366	0.0131724
722.444	0.0131718
722.522	0.0131728
722.600	0.0130755
722.678	0.0131590
722.756	0.0133047
722.834	0.0131879
722.912	0.0132145
722.991	0.0132550
723.069	0.0131544
723.147	0.0131244
723.225	0.0131163
723.303	0.0131543
723.381	0.0133902
723.459	0.0133438
723.537	0.0133437
723.616	0.0133340
723.694	0.0131731
723.772	0.0133032
723.850	0.0132293
723.928	0.0133173
724.006	0.0131348
724.084	0.0131413
724.162	0.0132434
724.241	0.0131311
724.319	0.0132957
724.397	0.0132583
724.475	0.0130801
724.553	0.0130572
724.631	0.0131501
724.709	0.0130582
724.787	0.0129875
724.866	0.0130406
724.944	0.0130945
725.022	0.0131845
725.100	0.0130154
725.178	0.0130572
725.256	0.0130019
725.334	0.0130843
725.412	0.0131113
725.491	0.0130686
725.569	0.0131300
725.647	0.0130804
725.725	0.0130940
725.803	0.0130020
725.881	0.0131352
725.959	0.0130963
726.037	0.0130346
726.116	0.0131409
726.194	0.0130795
726.272	0.0131199
726.350	0.0133039
726.428	0.0131719
726.506	0.0131290
726.584	0.0133048
726.662	0.0132687
726.741	0.0133460
726.819	0.0132034
726.897	0.0131713
726.975	0.0132753
727.053	0.0133020
727.131	0.0132916
727.209	0.0133153
727.287	0.0131229
727.366	0.0131845
727.444	0.0133890
727.522	0.0132268
727.600	0.0132269
727.678	0.0132341
727.756	0.0131898
727.834	0.0132259
727.912	0.0133440
727.991	0.0132641
728.069	0.0132880
728.147	0.0130714
728.225	0.0130559
728.303	0.0132628
728.381	0.0132451
728.459	0.0134032
728.537	0.0132867
728.616	0.0132014
728.694	0.0132536
728.772	0.0132641
728.850	0.0133744
728.928	0.0133539
729.006	0.0133605
729.084	0.0133257
729.162	0.0134321
729.241	0.0132586
729.319	0.0133473
729.397	0.0133843
729.475	0.0133548
729.553	0.0134512
729.631	0.0132755
729.709	0.0133239
729.787	0.0133076
729.866	0.0132636
729.944	0.0133224
730.022	0.0133147
730.100	0.0132294
730.178	0.0131853
730.256	0.0131901
730.334	0.0133447
730.412	0.0132575
730.491	0.0133725
730.569	0.0132452
730.647	0.0133150
730.725	0.0131821
730.803	0.0132512
730.881	0.0131705
730.959	0.0132158
731.037	0.0132891
731.116	0.0133349
731.194	0.0133418
731.272	0.0132624
731.350	0.0132934
731.428	0.0131837
731.506	0.0132516
731.584	0.0133323
731.662	0.0133067
731.741	0.0131458
731.819	0.0131973
731.897	0.0133545
731.975	0.0131982
732.053	0.0132471
732.131	0.0131638
732.209	0.0131737
732.287	0.0131988
732.366	0.0131312
732.444	0.0131648
732.522	0.0130565
732.600	0.0131714
732.678	0.0131796
732.756	0.0132258
732.834	0.0133033
732.912	0.0132520
732.991	0.0133204
733.069	0.0133340
733.147	0.0132894
733.225	0.0132521
733.303	0.0132475
733.381	0.0133040
733.459	0.0133009
733.537	0.0132362
733.616	0.0132942
733.694	0.0131913
733.772	0.0131021
733.850	0.0131962
733.928	0.0131516
734.006	0.0132528
734.084	0.0133214
734.162	0.0133297
734.241	0.0131823
734.319	0.0132095
734.397	0.0131934
734.475	0.0131170
734.553	0.0132773
734.631	0.0132732
734.709	0.0132113
734.787	0.0132893
734.866	0.0132489
734.944	0.0131448
735.022	0.0132837
735.100	0.0133012
735.178	0.0133059
735.256	0.0133552
735.334	0.0132631
735.412	0.0131956
735.491	0.0132332
735.569	0.0132941
735.647	0.0131720
735.725	0.0130499
735.803	0.0132473
735.881	0.0131096
735.959	0.0131572
736.037	0.0131666
736.116	0.0132331
736.194	0.0133331
736.272	0.0131226
736.350	0.0132535
736.428	0.0133079
736.506	0.0132604
736.584	0.0132374
736.662	0.0132384
736.741	0.0134090
736.819	0.0133081
736.897	0.0133519
736.975	0.0133421
737.053	0.0133608
737.131	0.0132182
737.209	0.0131060
737.287	0.0131932
737.366	0.0133544
737.444	0.0131341
737.522	0.0131219
737.600	0.0131699
737.678	0.0130309
737.756	0.0130573
737.834	0.0131640
737.912	0.0131641
737.991	0.0130461
738.069	0.0131106
738.147	0.0129922
738.225	0.0130733
738.303	0.0131616
738.381	0.0131589
738.459	0.0131781
738.537	0.0131968
738.616	0.0132889
738.694	0.0132768
738.772	0.0132323
738.850	0.0131288
738.928	0.0134655
739.006	0.0133258
739.084	0.0131808
739.162	0.0133422
739.241	0.0133325
739.319	0.0134011
739.397	0.0132198
739.475	0.0134296
739.553	0.0134161
739.631	0.0133336
739.709	0.0133137
739.787	0.0132908
739.866	0.0133047
739.944	0.0133002
740.022	0.0132546
740.100	0.0131624
740.178	0.0132072
740.256	0.0132572
740.334	0.0132360
740.412	0.0132040
740.491	0.0129634
740.569	0.0131043
740.647	0.0131995
740.725	0.0131870
740.803	0.0132252
740.881	0.0131348
740.959	0.0132358
741.037	0.0133798
741.116	0.0132748
741.194	0.0133474
741.272	0.0134938
741.350	0.0134421
741.428	0.0133293
741.506	0.0133533
741.584	0.0132734
741.662	0.0133687
741.741	0.0133499
741.819	0.0134053
741.897	0.0132531
741.975	0.0133012
742.053	0.0134066
742.131	0.0132806
742.209	0.0132454
742.287	0.0132974
742.366	0.0132558
742.444	0.0132611
742.522	0.0132122
742.600	0.0134244
742.678	0.0133847
742.756	0.0132652
742.834	0.0133481
742.912	0.0132971
742.991	0.0133119
743.069	0.0133176
743.147	0.0132640
743.225	0.0132088
743.303	0.0132400
743.381	0.0132460
743.459	0.0134843
743.537	0.0132432
743.616	0.0130194
743.694	0.0132291
743.772	0.0134148
743.850	0.0132652
743.928	0.0132186
744.006	0.0131828
744.084	0.0132021
744.162	0.0132307
744.241	0.0132892
744.319	0.0133241
744.397	0.0133263
744.475	0.0133525
744.553	0.0134801
744.631	0.0132370
744.709	0.0133577
744.787	0.0133354
744.866	0.0133818
744.944	0.0134090
745.022	0.0132988
745.100	0.0132940
745.178	0.0133640
745.256	0.0135042
745.334	0.0132590
745.412	0.0132882
745.491	0.0133793
745.569	0.0132517
745.647	0.0133505
745.725	0.0132825
745.803	0.0131518
745.881	0.0132536
745.959	0.0132532
746.037	0.0133115
746.116	0.0132390
746.194	0.0131349
746.272	0.0133605
746.350	0.0132201
746.428	0.0132436
746.506	0.0132299
746.584	0.0130695
746.662	0.0131620
746.741	0.0132011
746.819	0.0132732
746.897	0.0132822
746.975	0.0132546
747.053	0.0132529
747.131	0.0132246
747.209	0.0132809
747.287	0.0133102
747.366	0.0132391
747.444	0.0132538
747.522	0.0132682
747.600	0.0132793
747.678	0.0132502
747.756	0.0131033
747.834	0.0131561
747.912	0.0132655
747.991	0.0132928
748.069	0.0131852
748.147	0.0132557
748.225	0.0133036
748.303	0.0133545
748.381	0.0131739
748.459	0.0132133
748.537	0.0132416
748.616	0.0133981
748.694	0.0133121
748.772	0.0132687
748.850	0.0133579
748.928	0.0132087
749.006	0.0131753
749.084	0.0132973
749.162	0.0131710
749.241	0.0133221
749.319	0.0132716
749.397	0.0133385
749.475	0.0131959
749.553	0.0132064
749.631	0.0132870
749.709	0.0133301
749.787	0.0133348
749.866	0.0131888
749.944	0.0132967
750.022	0.0134653
750.100	0.0132374
750.178	0.0132386
750.256	0.0133318
750.334	0.0131965
750.412	0.0132908
750.491	0.0132098
750.569	0.0132130
750.647	0.0132662
750.725	0.0132319
750.803	0.0131712
750.881	0.0131763
750.959	0.0132535
751.037	0.0131889
751.116	0.0132203
751.194	0.0130495
751.272	0.0130769
751.350	0.0131777
751.428	0.0130365
751.506	0.0131100
751.584	0.0130803
751.662	0.0131947
751.741	0.0132639
751.819	0.0131928
751.897	0.0132880
751.975	0.0132373
752.053	0.0132752
752.131	0.0133548
752.209	0.0132620
752.287	0.0132080
752.366	0.0131764
752.444	0.0132385
752.522	0.0132518
752.600	0.0132915
752.678	0.0133447
752.756	0.0131374
752.834	0.0131906
752.912	0.0132423
752.991	0.0132500
753.069	0.0133295
753.147	0.0132932
753.225	0.0132626
753.303	0.0132729
753.381	0.0132478
753.459	0.0133303
753.537	0.0132497
753.616	0.0132932
753.694	0.0131743
753.772	0.0131487
753.850	0.0133009
753.928	0.0132960
754.006	0.0133347
754.084	0.0132855
754.162	0.0133170
754.241	0.0132401
754.319	0.0133662
754.397	0.0132754
754.475	0.0134447
754.553	0.0134247
754.631	0.0132313
754.709	0.0132257
754.787	0.0133652
754.866	0.0132020
754.944	0.0132787
755.022	0.0133004
755.100	0.0132820
755.178	0.0131534
755.256	0.0131453
755.334	0.0132039
755.412	0.0130660
755.491	0.0131760
755.569	0.0132124
755.647	0.0132495
755.725	0.0131895
755.803	0.0131013
755.881	0.0131180
755.959	0.0130451
756.037	0.0130959
756.116	0.0131493
756.194	0.0131444
756.272	0.0131234
756.350	0.0130481
756.428	0.0130926
756.506	0.0132307
756.584	0.0132141
756.662	0.0131277
756.741	0.0131400
756.819	0.0132103
756.897	0.0133803
756.975	0.0132124
757.053	0.0132699
757.131	0.0132892
757.209	0.0132335
757.287	0.0132841
757.366	0.0131347
757.444	0.0132677
757.522	0.0133880
757.600	0.0132490
757.678	0.0130931
757.756	0.0131892
757.834	0.0133009
757.912	0.0132815
757.991	0.0132509
758.069	0.0133496
758.147	0.0132797
758.225	0.0132601
758.303	0.0133388
758.381	0.0133109
758.459	0.0132480
758.537	0.0132520
758.616	0.0131724
758.694	0.0132829
758.772	0.0132183
758.850	0.0130890
758.928	0.0132548
759.006	0.0132454
759.084	0.0132364
759.162	0.0132362
759.241	0.0132114
759.319	0.0131399
759.397	0.0132121
759.475	0.0131500
759.553	0.0131731
759.631	0.0131290
759.709	0.0131001
759.787	0.0130911
759.866	0.0129443
759.944	0.0131261
760.022	0.0130601
760.100	0.0130364
760.178	0.0131120
760.256	0.0130972
760.334	0.0132516
760.412	0.0132262
760.491	0.0131642
760.569	0.0132655
760.647	0.0130641
760.725	0.0132124
760.803	0.0133679
760.881	0.0133516
760.959	0.0131389
761.037	0.0134273
761.116	0.0133562
761.194	0.0132561
761.272	0.0133922
761.350	0.0134425
761.428	0.0133306
761.506	0.0133672
761.584	0.0133458
761.662	0.0132766
761.741	0.0132748
761.819	0.0132961
761.897	0.0131879
761.975	0.0132348
762.053	0.0133983
762.131	0.0132283
762.209	0.0130560
762.287	0.0131513
762.366	0.0131229
762.444	0.0130753
762.522	0.0131042
762.600	0.0133611
762.678	0.0133765
762.756	0.0132790
762.834	0.0131484
762.912	0.0133247
762.991	0.0132623
763.069	0.0133521
763.147	0.0133020
763.225	0.0132922
763.303	0.0132063
763.381	0.0131479
763.459	0.0133514
763.537	0.0132690
763.616	0.0132204
763.694	0.0134087
763.772	0.0132563
763.850	0.0133449
763.928	0.0132913
764.006	0.0132832
764.084	0.0132887
764.162	0.0132668
764.241	0.0132871
764.319	0.0134836
764.397	0.0134415
764.475	0.0133910
764.553	0.0132635
764.631	0.0132752
764.709	0.0133453
764.787	0.0132415
764.866	0.0133205
764.944	0.0133086
765.022	0.0134013
765.100	0.0132660
765.178	0.0135178
765.256	0.0135508
765.334	0.0133607
765.412	0.0132591
765.491	0.0132147
765.569	0.0133538
765.647	0.0132253
765.725	0.0132742
765.803	0.0132345
765.881	0.0134029
765.959	0.0133850
766.037	0.0133998
766.116	0.0133778
766.194	0.0132941
766.272	0.0133846
766.350	0.0134568
766.428	0.0133206
766.506	0.0133858
766.584	0.0134378
766.662	0.0133535
766.741	0.0133178
766.819	0.0134709
766.897	0.0134362
766.975	0.0132784
767.053	0.0131911
767.131	0.0132866
767.209	0.0132773
767.287	0.0131974
767.366	0.0132874
767.444	0.0133489
767.522	0.0133047
767.600	0.0134515
767.678	0.0133792
767.756	0.0133372
767.834	0.0134179
767.912	0.0133716
767.991	0.0134003
768.069	0.0135094
768.147	0.0134054
768.225	0.0133100
768.303	0.0134261
768.381	0.0133120
768.459	0.0133396
768.537	0.0133126
768.616	0.0133044
768.694	0.0132758
768.772	0.0132548
768.850	0.0131435
768.928	0.0130778
769.006	0.0132772
769.084	0.0131847
769.162	0.0131776
769.241	0.0131853
769.319	0.0133035
769.397	0.0131929
769.475	0.0133087
769.553	0.0132542
769.631	0.0131080
769.709	0.0133025
769.787	0.0131174
769.866	0.0131944
769.944	0.0132459
770.022	0.0132718
770.100	0.0132426
770.178	0.0132250
770.256	0.0132650
770.334	0.0131348
770.412	0.0131300
770.491	0.0131111
770.569	0.0132343
770.647	0.0132071
770.725	0.0132475
770.803	0.0131448
770.881	0.0132123
770.959	0.0131940
771.037	0.0130951
771.116	0.0131712
771.194	0.0132642
771.272	0.0131213
771.350	0.0132908
771.428	0.0132639
771.506	0.0132217
771.584	0.0132305
771.662	0.0132455
771.741	0.0133200
771.819	0.0133995
771.897	0.0132025
771.975	0.0134252
772.053	0.0133110
772.131	0.0131086
772.209	0.0131181
772.287	0.0132404
772.366	0.0132488
772.444	0.0132253
772.522	0.0133592
772.600	0.0133435
772.678	0.0134415
772.756	0.0131116
772.834	0.0133164
772.912	0.0132941
772.991	0.0130992
773.069	0.0132555
773.147	0.0132839
773.225	0.0132972
773.303	0.0131303
773.381	0.0131892
773.459	0.0131680
773.537	0.0131162
773.616	0.0132588
773.694	0.0132860
773.772	0.0131795
773.850	0.0131841
773.928	0.0132250
774.006	0.0133964
774.084	0.0133102
774.162	0.0133907
774.241	0.0133178
774.319	0.0133359
774.397	0.0133684
774.475	0.0133702
774.553	0.0133883
774.631	0.0134206
774.709	0.0134909
774.787	0.0134509
774.866	0.0135207
774.944	0.0133953
775.022	0.0135328
775.100	0.0134958
775.178	0.0135760
775.256	0.0135387
775.334	0.0133971
775.412	0.0134653
775.491	0.0135521
775.569	0.0133654
775.647	0.0134074
775.725	0.0135933
775.803	0.0134499
775.881	0.0133582
775.959	0.0132585
776.037	0.0134586
776.116	0.0133224
776.194	0.0132767
776.272	0.0134417
776.350	0.0133842
776.428	0.0132539
776.506	0.0133600
776.584	0.0134007
776.662	0.0132850
776.741	0.0135339
776.819	0.0133162
776.897	0.0134086
776.975	0.0132990
777.053	0.0132793
777.131	0.0134334
777.209	0.0132871
777.287	0.0132830
777.366	0.0134133
777.444	0.0133543
777.522	0.0133529
777.600	0.0133924
777.678	0.0133054
777.756	0.0134465
777.834	0.0134771
777.912	0.0133294
777.991	0.0134709
778.069	0.0134749
778.147	0.0133964
778.225	0.0134827
778.303	0.0134566
778.381	0.0135118
778.459	0.0133781
778.537	0.0134090
778.616	0.0132758
778.694	0.0132933
778.772	0.0132793
778.850	0.0133554
778.928	0.0133902
779.006	0.0133266
779.084	0.0132498
779.162	0.0131840
779.241	0.0131492
779.319	0.0132281
779.397	0.0133155
779.475	0.0132714
779.553	0.0133063
779.631	0.0132748
779.709	0.0132650
779.787	0.0132887
779.866	0.0132524
779.944	0.0133208
780.022	0.0134969
780.100	0.0133413
780.178	0.0132493
780.256	0.0132993
780.334	0.0133218
780.412	0.0133344
780.491	0.0132890
780.569	0.0131701
780.647	0.0133142
780.725	0.0132506
780.803	0.0133619
780.881	0.0133295
780.959	0.0133222
781.037	0.0133920
781.116	0.0132733
781.194	0.0131911
781.272	0.0131760
781.350	0.0131907
781.428	0.0130670
781.506	0.0132516
781.584	0.0131898
781.662	0.0131426
781.741	0.0131766
781.819	0.0132578
781.897	0.0132452
781.975	0.0131079
782.053	0.0130625
782.131	0.0130956
782.209	0.0132054
782.287	0.0131468
782.366	0.0132603
782.444	0.0131849
782.522	0.0131434
782.600	0.0131979
782.678	0.0133346
782.756	0.0132151
782.834	0.0132887
782.912	0.0133318
782.991	0.0133166
783.069	0.0132992
783.147	0.0132028
783.225	0.0134048
783.303	0.0132947
783.381	0.0132464
783.459	0.0132422
783.537	0.0132909
783.616	0.0133504
783.694	0.0131791
783.772	0.0130678
783.850	0.0133276
783.928	0.0131738
784.006	0.0132327
784.084	0.0132082
784.162	0.0132858
784.241	0.0131255
784.319	0.0133015
784.397	0.0131966
784.475	0.0130642
784.553	0.0130690
784.631	0.0131435
784.709	0.0132309
784.787	0.0134399
784.866	0.0132125
784.944	0.0133355
785.022	0.0131526
785.100	0.0133609
785.178	0.0131736
785.256	0.0131272
785.334	0.0131552
785.412	0.0131483
785.491	0.0132819
785.569	0.0132299
785.647	0.0132975
785.725	0.0131323
785.803	0.0132566
785.881	0.0131779
785.959	0.0132111
786.037	0.0132745
786.116	0.0132516
786.194	0.0133808
786.272	0.0133447
786.350	0.0132887
786.428	0.0132088
786.506	0.0132586
786.584	0.0132768
786.662	0.0132291
786.741	0.0132546
786.819	0.0132041
786.897	0.0132800
786.975	0.0133461
787.053	0.0132479
787.131	0.0132555
787.209	0.0132686
787.287	0.0133047
787.366	0.0132798
787.444	0.0132300
787.522	0.0132392
787.600	0.0132257
787.678	0.0132819
787.756	0.0132090
787.834	0.0131916
787.912	0.0132944
787.991	0.0133252
788.069	0.0131802
788.147	0.0131038
788.225	0.0132602
788.303	0.0132666
788.381	0.0131638
788.459	0.0131409
788.537	0.0131936
788.616	0.0132771
788.694	0.0131953
788.772	0.0132053
788.850	0.0132695
788.928	0.0132175
789.006	0.0133076
789.084	0.0131265
789.162	0.0130954
789.241	0.0131955
789.319	0.0132172
789.397	0.0133024
789.475	0.0132118
789.553	0.0133830
789.631	0.0134229
789.709	0.0132904
789.787	0.0132630
789.866	0.0132271
789.944	0.0134193
790.022	0.0132028
790.100	0.0133111
790.178	0.0133842
790.256	0.0131663
790.334	0.0132822
790.412	0.0133208
790.491	0.0132577
790.569	0.0131156
790.647	0.0133866
790.725	0.0132782
790.803	0.0130991
790.881	0.0130840
790.959	0.0132109
791.037	0.0130519
791.116	0.0130335
791.194	0.0129967
791.272	0.0131645
791.350	0.0132260
791.428	0.0130305
791.506	0.0131475
791.584	0.0131165
791.662	0.0132796
791.741	0.0132388
791.819	0.0131973
791.897	0.0131322
791.975	0.0132739
792.053	0.0132563
792.131	0.0131631
792.209	0.0132283
792.287	0.0132662
792.366	0.0131627
792.444	0.0133060
792.522	0.0132345
792.600	0.0132756
792.678	0.0131626
792.756	0.0132152
792.834	0.0132302
792.912	0.0130949
792.991	0.0132314
793.069	0.0130546
793.147	0.0131827
793.225	0.0131593
793.303	0.0132889
793.381	0.0132262
793.459	0.0132701
793.537	0.0133823
793.616	0.0133451
793.694	0.0131403
793.772	0.0132087
793.850	0.0133602
793.928	0.0131474
794.006	0.0132883
794.084	0.0134109
794.162	0.0133272
794.241	0.0131663
794.319	0.0131825
794.397	0.0132860
794.475	0.0133286
794.553	0.0132175
794.631	0.0134144
794.709	0.0131914
794.787	0.0133389
794.866	0.0133780
794.944	0.0133603
795.022	0.0133530
795.100	0.0132374
795.178	0.0133736
795.256	0.0133853
795.334	0.0132269
795.412	0.0133310
795.491	0.0133331
795.569	0.0132600
795.647	0.0133338
795.725	0.0132032
795.803	0.0132538
795.881	0.0133476
795.959	0.0131984
796.037	0.0131595
796.116	0.0132494
796.194	0.0132446
796.272	0.0132124
796.350	0.0130930
796.428	0.0132167
796.506	0.0132704
796.584	0.0131864
796.662	0.0132870
796.741	0.0132997
796.819	0.0132833
796.897	0.0132131
796.975	0.0132082
797.053	0.0132806
797.131	0.0132696
797.209	0.0132523
797.287	0.0131328
797.366	0.0133598
797.444	0.0132008
797.522	0.0131902
797.600	0.0132209
797.678	0.0132587
797.756	0.0132412
797.834	0.0131990
797.912	0.0132423
797.991	0.0131796
798.069	0.0132258
798.147	0.0131702
798.225	0.0131912
798.303	0.0132803
798.381	0.0131426
798.459	0.0131702
798.537	0.0133543
798.616	0.0133344
798.694	0.0132294
798.772	0.0133048
798.850	0.0131591
798.928	0.0132281
799.006	0.0133124
799.084	0.0132211
799.162	0.0133286
799.241	0.0132951
799.319	0.0132973
799.397	0.0133103
799.475	0.0131354
799.553	0.0132648
799.631	0.0133212
799.709	0.0132055
799.787	0.0132314
799.866	0.0130873
799.944	0.0131564
800.022	0.0132415
800.100	0.0131761
800.178	0.0131266
800.256	0.0131313
800.334	0.0130641
800.412	0.0130429
800.491	0.0130489
800.569	0.0129897
800.647	0.0129914
800.725	0.0131716
800.803	0.0131623
800.881	0.0130711
800.959	0.0132096
801.037	0.0131810
801.116	0.0132022
801.194	0.0132140
801.272	0.0132181
801.350	0.0129224
801.428	0.0131483
801.506	0.0131560
801.584	0.0132026
801.662	0.0130677
801.741	0.0132654
801.819	0.0132047
801.897	0.0133466
801.975	0.0131739
802.053	0.0131005
802.131	0.0132042
802.209	0.0132243
802.287	0.0131788
802.366	0.0133624
802.444	0.0133415
802.522	0.0134046
802.600	0.0133138
802.678	0.0134328
802.756	0.0134556
802.834	0.0132819
802.912	0.0134278
802.991	0.0133701
803.069	0.0132646
803.147	0.0135284
803.225	0.0135426
803.303	0.0134383
803.381	0.0134846
803.459	0.0133319
803.537	0.0134700
803.616	0.0133616
803.694	0.0133933
803.772	0.0133498
803.850	0.0133372
803.928	0.0134297
804.006	0.0133694
804.084	0.0134302
804.162	0.0132377
804.241	0.0133159
804.319	0.0132496
804.397	0.0132854
804.475	0.0132358
804.553	0.0132471
804.631	0.0132315
804.709	0.0132767
804.787	0.0133069
804.866	0.0131728
804.944	0.0134097
805.022	0.0131149
805.100	0.0133407
805.178	0.0132695
805.256	0.0132951
805.334	0.0132440
805.412	0.0131274
805.491	0.0132481
805.569	0.0133839
805.647	0.0133846
805.725	0.0130373
805.803	0.0131950
805.881	0.0133029
805.959	0.0130895
806.037	0.0132635
806.116	0.0132021
806.194	0.0131330
806.272	0.0132626
806.350	0.0131768
806.428	0.0130653
806.506	0.0130891
806.584	0.0132348
806.662	0.0131680
806.741	0.0130791
806.819	0.0131644
806.897	0.0131977
806.975	0.0130322
807.053	0.0130546
807.131	0.0131301
807.209	0.0131058
807.287	0.0130283
807.366	0.0129934
807.444	0.0131672
807.522	0.0133196
807.600	0.0131991
807.678	0.0130723
807.756	0.0131725
807.834	0.0132249
807.912	0.0132289
807.991	0.0133777
808.069	0.0132120
808.147	0.0133273
808.225	0.0131912
808.303	0.0133250
808.381	0.0133081
808.459	0.0132166
808.537	0.0132904
808.616	0.0132957
808.694	0.0132558
808.772	0.0131844
808.850	0.0133029
808.928	0.0133617
809.006	0.0134363
809.084	0.0133498
809.162	0.0132942
809.241	0.0133936
809.319	0.0135087
809.397	0.0134763
809.475	0.0133999
809.553	0.0132455
809.631	0.0133564
809.709	0.0131950
809.787	0.0133028
809.866	0.0133622
809.944	0.0133907
810.022	0.0130854
810.100	0.0132825
810.178	0.0133392
810.256	0.0131693
810.334	0.0132670
810.412	0.0133247
810.491	0.0132591
810.569	0.0132521
810.647	0.0132633
810.725	0.0132365
810.803	0.0132594
810.881	0.0131937
810.959	0.0132665
811.037	0.0133950
811.116	0.0133001
811.194	0.0132658
811.272	0.0132091
811.350	0.0134064
811.428	0.0133544
811.506	0.0133580
811.584	0.0132887
811.662	0.0131631
811.741	0.0131808
811.819	0.0133171
811.897	0.0132357
811.975	0.0131702
812.053	0.0132713
812.131	0.0131760
812.209	0.0131046
812.287	0.0132141
812.366	0.0131381
812.444	0.0130959
812.522	0.0130085
812.600	0.0131772
812.678	0.0132012
812.756	0.0131832
812.834	0.0132083
812.912	0.0132059
812.991	0.0133337
813.069	0.0132995
813.147	0.0131492
813.225	0.0130518
813.303	0.0133590
813.381	0.0133132
813.459	0.0134219
813.537	0.0132485
813.616	0.0132185
813.694	0.0131483
813.772	0.0132915
813.850	0.0132977
813.928	0.0133021
814.006	0.0133549
814.084	0.0132013
814.162	0.0130538
814.241	0.0132788
814.319	0.0134090
814.397	0.0133202
814.475	0.0133104
814.553	0.0132710
814.631	0.0132605
814.709	0.0132751
814.787	0.0132864
814.866	0.0131913
814.944	0.0132029
815.022	0.0132343
815.100	0.0132021
815.178	0.0132330
815.256	0.0132218
815.334	0.0133211
815.412	0.0131828
815.491	0.0131432
815.569	0.0131788
815.647	0.0131503
815.725	0.0133690
815.803	0.0132511
815.881	0.0130500
815.959	0.0132026
816.037	0.0132591
816.116	0.0132329
816.194	0.0131370
816.272	0.0132275
816.350	0.0131259
816.428	0.0131621
816.506	0.0131907
816.584	0.0132395
816.662	0.0131231
816.741	0.0132938
816.819	0.0132510
816.897	0.0132287
816.975	0.0131845
817.053	0.0131377
817.131	0.0131394
817.209	0.0132035
817.287	0.0131422
817.366	0.0132861
817.444	0.0131116
817.522	0.0132494
817.600	0.0133617
817.678	0.0133967
817.756	0.0132448
817.834	0.0132956
817.912	0.0132925
817.991	0.0132244
818.069	0.0131541
818.147	0.0131754
818.225	0.0133676
818.303	0.0134258
818.381	0.0132947
818.459	0.0133841
818.537	0.0132039
818.616	0.0131525
818.694	0.0131679
818.772	0.0135623
818.850	0.0132375
818.928	0.0131647
819.006	0.0132682
819.084	0.0131968
819.162	0.0133695
819.241	0.0133034
819.319	0.0132118
819.397	0.0132526
819.475	0.0133681
819.553	0.0131660
819.631	0.0132520
819.709	0.0134025
819.787	0.0132511
819.866	0.0133128
819.944	0.0131696
820.022	0.0132888
820.100	0.0133051
820.178	0.0132040
820.256	0.0131154
820.334	0.0132155
820.412	0.0131930
820.491	0.0132510
820.569	0.0131838
820.647	0.0132238
820.725	0.0131332
820.803	0.0131183
820.881	0.0132198
820.959	0.0133366
821.037	0.0133225
821.116	0.0133327
821.194	0.0133092
821.272	0.0132551
821.350	0.0132453
821.428	0.0132422
821.506	0.0131409
821.584	0.0130157
821.662	0.0131145
821.741	0.0132237
821.819	0.0131538
821.897	0.0129959
821.975	0.0131751
822.053	0.0131543
822.131	0.0130939
822.209	0.0131237
822.287	0.0129790
822.366	0.0130547
822.444	0.0130821
822.522	0.0131899
822.600	0.0131138
822.678	0.0131420
822.756	0.0130948
822.834	0.0131198
822.912	0.0130165
822.991	0.0130807
823.069	0.0131578
823.147	0.0131643
823.225	0.0131400
823.303	0.0130740
823.381	0.0131035
823.459	0.0131716
823.537	0.0130576
823.616	0.0132280
823.694	0.0130484
823.772	0.0130631
823.850	0.0132444
823.928	0.0131740
824.006	0.0131947
824.084	0.0132583
824.162	0.0132039
824.241	0.0131317
824.319	0.0132609
824.397	0.0132114
824.475	0.0131438
824.553	0.0132974
824.631	0.0133576
824.709	0.0132047
824.787	0.0132788
824.866	0.0133643
824.944	0.0133067
825.022	0.0133733
825.100	0.0131591
825.178	0.0131327
825.256	0.0131736
825.334	0.0132375
825.412	0.0131010
825.491	0.0131931
825.569	0.0132854
825.647	0.0132065
825.725	0.0131487
825.803	0.0133221
825.881	0.0132738
825.959	0.0134071
826.037	0.0133122
826.116	0.0132506
826.194	0.0133250
826.272	0.0131152
826.350	0.0132893
826.428	0.0132739
826.506	0.0132355
826.584	0.0133110
826.662	0.0134217
826.741	0.0132542
826.819	0.0131637
826.897	0.0131371
826.975	0.0134141
827.053	0.0132233
827.131	0.0131660
827.209	0.0131969
827.287	0.0132419
827.366	0.0131160
827.444	0.0132678
827.522	0.0131740
827.600	0.0131895
827.678	0.0132330
827.756	0.0131599
827.834	0.0130362
827.912	0.0132187
827.991	0.0131919
828.069	0.0130045
828.147	0.0132194
828.225	0.0132750
828.303	0.0131740
828.381	0.0131561
828.459	0.0131715
828.537	0.0132375
828.616	0.0133176
828.694	0.0132610
828.772	0.0131836
828.850	0.0131522
828.928	0.0131554
829.006	0.0132066
829.084	0.0132369
829.162	0.0132938
829.241	0.0130792
829.319	0.0132779
829.397	0.0132468
829.475	0.0130328
829.553	0.0132041
829.631	0.0131422
829.709	0.0131699
829.787	0.0132385
829.866	0.0131491
829.944	0.0130998
830.022	0.0131661
830.100	0.0130561
830.178	0.0130338
830.256	0.0131532
830.334	0.0131119
830.412	0.0130976
830.491	0.0131628
830.569	0.0131265
830.647	0.0131719
830.725	0.0131410
830.803	0.0132026
830.881	0.0131389
830.959	0.0132373
831.037	0.0131071
831.116	0.0131473
831.194	0.0131884
831.272	0.0132739
831.350	0.0133445
831.428	0.0131236
831.506	0.0131087
831.584	0.0131478
831.662	0.0131557
831.741	0.0132962
831.819	0.0131731
831.897	0.0131630
831.975	0.0132037
832.053	0.0131422
832.131	0.0132771
832.209	0.0132333
832.287	0.0132472
832.366	0.0133456
832.444	0.0132725
832.522	0.0132747
832.600	0.0132961
832.678	0.0131865
832.756	0.0131315
832.834	0.0132971
832.912	0.0131408
832.991	0.0132999
833.069	0.0133856
833.147	0.0133314
833.225	0.0134348
833.303	0.0133521
833.381	0.0133022
833.459	0.0134022
833.537	0.0133824
833.616	0.0132575
833.694	0.0133682
833.772	0.0134651
833.850	0.0134059
833.928	0.0133894
834.006	0.0133950
834.084	0.0133189
834.162	0.0133526
834.241	0.0133608
834.319	0.0134198
834.397	0.0133509
834.475	0.0133224
834.553	0.0132802
834.631	0.0134896
834.709	0.0133947
834.787	0.0132074
834.866	0.0132894
834.944	0.0133315
835.022	0.0133076
835.100	0.0133754
835.178	0.0134080
835.256	0.0133041
835.334	0.0132709
835.412	0.0133894
835.491	0.0134150
835.569	0.0133776
835.647	0.0134838
835.725	0.0133101
835.803	0.0133744
835.881	0.0135527
835.959	0.0134594
836.037	0.0133309
836.116	0.0133688
836.194	0.0134527
836.272	0.0134216
836.350	0.0133744
836.428	0.0134894
836.506	0.0132756
836.584	0.0134077
836.662	0.0131680
836.741	0.0132092
836.819	0.0132991
836.897	0.0133842
836.975	0.0133653
837.053	0.0131940
837.131	0.0131983
837.209	0.0132303
837.287	0.0131253
837.366	0.0133032
837.444	0.0131860
837.522	0.0132803
837.600	0.0133059
837.678	0.0133466
837.756	0.0133641
837.834	0.0133080
837.912	0.0133231
837.991	0.0132264
838.069	0.0132809
838.147	0.0132391
838.225	0.0132751
838.303	0.0133675
838.381	0.0132307
838.459	0.0133219
838.537	0.0132561
838.616	0.0131283
838.694	0.0131883
838.772	0.0132353
838.850	0.0131545
838.928	0.0132815
839.006	0.0132632
839.084	0.0131879
839.162	0.0131502
839.241	0.0131871
839.319	0.0132766
839.397	0.0133563
839.475	0.0133905
839.553	0.0133381
839.631	0.0132619
839.709	0.0132001
839.787	0.0133351
839.866	0.0132501
839.944	0.0132743
840.022	0.0132726
840.100	0.0131898
840.178	0.0131362
840.256	0.0132546
840.334	0.0133569
840.412	0.0134084
840.491	0.0133247
840.569	0.0134028
840.647	0.0132163
840.725	0.0133140
840.803	0.0134430
840.881	0.0132878
840.959	0.0132233
841.037	0.0133741
841.116	0.0133534
841.194	0.0132310
841.272	0.0133501
841.350	0.0133887
841.428	0.0133022
841.506	0.0132827
841.584	0.0133803
841.662	0.0133082
841.741	0.0133524
841.819	0.0133372
841.897	0.0134620
841.975	0.0132796
842.053	0.0134974
842.131	0.0133923
842.209	0.0132545
842.287	0.0133489
842.366	0.0134325
842.444	0.0134300
842.522	0.0132737
842.600	0.0133945
842.678	0.0134209
842.756	0.0133188
842.834	0.0133723
842.912	0.0133957
842.991	0.0132507
843.069	0.0132475
843.147	0.0133912
843.225	0.0133250
843.303	0.0133295
843.381	0.0133060
843.459	0.0132735
843.537	0.0134034
843.616	0.0134148
843.694	0.0132815
843.772	0.0132767
843.850	0.0132866
843.928	0.0132795
844.006	0.0134457
844.084	0.0133191
844.162	0.0131761
844.241	0.0132665
844.319	0.0134084
844.397	0.0132735
844.475	0.0132740
844.553	0.0133213
844.631	0.0133208
844.709	0.0132963
844.787	0.0133816
844.866	0.0132445
844.944	0.0133522
845.022	0.0133102
845.100	0.0133268
845.178	0.0133254
845.256	0.0131501
845.334	0.0131631
845.412	0.0131512
845.491	0.0133144
845.569	0.0133568
845.647	0.0132156
845.725	0.0134525
845.803	0.0134147
845.881	0.0132855
845.959	0.0133288
846.037	0.0133725
846.116	0.0132578
846.194	0.0133753
846.272	0.0133768
846.350	0.0133699
846.428	0.0132463
846.506	0.0132233
846.584	0.0133126
846.662	0.0133492
846.741	0.0131926
846.819	0.0132696
846.897	0.0131961
846.975	0.0134089
847.053	0.0133572
847.131	0.0132050
847.209	0.0132870
847.287	0.0132994
847.366	0.0133014
847.444	0.0132529
847.522	0.0132840
847.600	0.0131455
847.678	0.0132136
847.756	0.0132378
847.834	0.0131461
847.912	0.0131338
847.991	0.0131490
848.069	0.0132095
848.147	0.0131857
848.225	0.0131667
848.303	0.0132679
848.381	0.0130695
848.459	0.0131832
848.537	0.0132801
848.616	0.0131211
848.694	0.0130485
848.772	0.0131203
848.850	0.0132808
848.928	0.0131530
849.006	0.0131863
849.084	0.0132896
849.162	0.0131892
849.241	0.0131567
849.319	0.0131593
849.397	0.0133955
849.475	0.0132999
849.553	0.0133246
849.631	0.0133205
849.709	0.0133318
849.787	0.0132536
849.866	0.0132792
849.944	0.0131823
850.022	0.0132872
850.100	0.0132539
850.178	0.0131851
850.256	0.0133560
850.334	0.0132551
850.412	0.0134026
850.491	0.0134624
850.569	0.0133396
850.647	0.0133179
850.725	0.0132988
850.803	0.0131972
850.881	0.0133475
850.959	0.0131876
851.037	0.0132030
851.116	0.0133527
851.194	0.0133603
851.272	0.0132545
851.350	0.0132632
851.428	0.0133603
851.506	0.0132648
851.584	0.0132794
851.662	0.0131127
851.741	0.0130872
851.819	0.0132024
851.897	0.0132440
851.975	0.0131211
852.053	0.0132867
852.131	0.0133677
852.209	0.0132218
852.287	0.0133120
852.366	0.0131712
852.444	0.0131828
852.522	0.0131081
852.600	0.0132157
852.678	0.0132187
852.756	0.0132737
852.834	0.0131598
852.912	0.0133154
852.991	0.0132268
853.069	0.0133440
853.147	0.0133105
853.225	0.0133581
853.303	0.0130299
853.381	0.0131203
853.459	0.0132084
853.537	0.0131889
853.616	0.0131723
853.694	0.0132412
853.772	0.0133074
853.850	0.0132787
853.928	0.0132983
854.006	0.0132832
854.084	0.0131463
854.162	0.0132937
854.241	0.0133561
854.319	0.0132889
854.397	0.0131608
854.475	0.0132788
854.553	0.0131966
854.631	0.0131853
854.709	0.0132146
854.787	0.0132886
854.866	0.0131988
854.944	0.0132210
855.022	0.0132352
855.100	0.0131269
855.178	0.0131940
855.256	0.0131393
855.334	0.0133318
855.412	0.0132526
855.491	0.0131115
855.569	0.0132317
855.647	0.0133385
855.725	0.0133160
855.803	0.0132133
855.881	0.0132943
855.959	0.0133146
856.037	0.0131796
856.116	0.0131994
856.194	0.0132053
856.272	0.0131789
856.350	0.0130930
856.428	0.0132002
856.506	0.0131340
856.584	0.0130669
856.662	0.0132407
856.741	0.0132813
856.819	0.0132092
856.897	0.0131487
856.975	0.0131870
857.053	0.0131792
857.131	0.0132436
857.209	0.0132510
857.287	0.0131830
857.366	0.0131847
857.444	0.0131652
857.522	0.0132840
857.600	0.0131826
857.678	0.0131432
857.756	0.0130639
857.834	0.0132156
857.912	0.0132038
857.991	0.0131291
858.069	0.0132561
858.147	0.0132790
858.225	0.0132563
858.303	0.0133945
858.381	0.0132514
858.459	0.0131517
858.537	0.0132993
858.616	0.0132808
858.694	0.0133185
858.772	0.0131822
858.850	0.0132024
858.928	0.0132828
859.006	0.0133775
859.084	0.0133041
859.162	0.0132504
859.241	0.0131679
859.319	0.0133475
859.397	0.0132023
859.475	0.0131668
859.553	0.0132254
859.631	0.0131979
859.709	0.0132431
859.787	0.0133722
859.866	0.0133073
859.944	0.0132800
860.022	0.0132384
860.100	0.0133861
860.178	0.0131809
860.256	0.0132825
860.334	0.0132200
860.412	0.0133334
860.491	0.0135224
860.569	0.0131964
860.647	0.0132120
860.725	0.0131637
860.803	0.0131879
860.881	0.0132052
860.959	0.0131818
861.037	0.0132292
861.116	0.0133044
861.194	0.0131741
861.272	0.0132079
861.350	0.0133056
861.428	0.0132186
861.506	0.0132124
861.584	0.0131065
861.662	0.0133220
861.741	0.0132271
861.819	0.0131841
861.897	0.0131518
861.975	0.0132705
862.053	0.0133113
862.131	0.0134383
862.209	0.0133009
862.287	0.0133328
862.366	0.0132591
862.444	0.0131550
862.522	0.0133299
862.600	0.0132999
862.678	0.0131075
862.756	0.0132703
862.834	0.0133395
862.912	0.0131678
862.991	0.0133439
863.069	0.0133169
863.147	0.0133116
863.225	0.0133418
863.303	0.0133060
863.381	0.0131611
863.459	0.0132726
863.537	0.0132584
863.616	0.0133099
863.694	0.0131264
863.772	0.0133320
863.850	0.0132513
863.928	0.0132894
864.006	0.0131874
864.084	0.0132789
864.162	0.0132385
864.241	0.0131718
864.319	0.0133860
864.397	0.0132693
864.475	0.0132646
864.553	0.0131757
864.631	0.0131339
864.709	0.0132169
864.787	0.0132641
864.866	0.0133640
864.944	0.0133355
865.022	0.0132302
865.100	0.0132983
865.178	0.0133411
865.256	0.0134076
865.334	0.0133793
865.412	0.0131165
865.491	0.0133170
865.569	0.0133451
865.647	0.0133011
865.725	0.0132275
865.803	0.0131839
865.881	0.0133482
865.959	0.0133941
866.037	0.0131486
866.116	0.0132873
866.194	0.0133451
866.272	0.0133114
866.350	0.0131943
866.428	0.0133422
866.506	0.0133603
866.584	0.0131850
866.662	0.0132080
866.741	0.0132434
866.819	0.0132796
866.897	0.0132653
866.975	0.0131477
867.053	0.0133209
867.131	0.0132072
867.209	0.0133177
867.287	0.0133015
867.366	0.0132690
867.444	0.0132599
867.522	0.0133404
867.600	0.0131841
867.678	0.0132921
867.756	0.0132909
867.834	0.0132970
867.912	0.0133116
867.991	0.0133089
868.069	0.0131042
868.147	0.0132881
868.225	0.0132240
868.303	0.0131503
868.381	0.0130601
868.459	0.0131587
868.537	0.0131940
868.616	0.0131158
868.694	0.0131038
868.772	0.0131662
868.850	0.0131664
868.928	0.0132936
869.006	0.0131968
869.084	0.0132163
869.162	0.0132617
869.241	0.0134018
869.319	0.0131488
869.397	0.0132744
869.475	0.0132027
869.553	0.0131454
869.631	0.0132896
869.709	0.0132937
869.787	0.0133458
869.866	0.0132716
869.944	0.0133448
870.022	0.0131746
870.100	0.0132243
870.178	0.0132426
870.256	0.0132122
870.334	0.0131755
870.412	0.0133419
870.491	0.0132937
870.569	0.0131230
870.647	0.0132459
870.725	0.0132909
870.803	0.0132496
870.881	0.0132097
870.959	0.0132510
871.037	0.0132047
871.116	0.0132750
871.194	0.0133158
871.272	0.0133589
871.350	0.0132669
871.428	0.0133685
871.506	0.0133075
871.584	0.0134183
871.662	0.0133212
871.741	0.0134637
871.819	0.0132873
871.897	0.0133331
871.975	0.0133647
872.053	0.0133981
872.131	0.0132896
872.209	0.0132215
872.287	0.0133706
872.366	0.0132595
872.444	0.0132240
872.522	0.0133686
872.600	0.0132539
872.678	0.0133778
872.756	0.0132325
872.834	0.0132687
872.912	0.0133192
872.991	0.0132357
873.069	0.0132647
873.147	0.0133393
873.225	0.0132002
873.303	0.0132226
873.381	0.0133760
873.459	0.0133651
873.537	0.0133089
873.616	0.0133273
873.694	0.0132431
873.772	0.0134201
873.850	0.0132413
873.928	0.0132572
874.006	0.0132325
874.084	0.0133133
874.162	0.0132330
874.241	0.0132403
874.319	0.0132301
874.397	0.0134021
874.475	0.0133903
874.553	0.0133847
874.631	0.0133082
874.709	0.0133229
874.787	0.0133089
874.866	0.0133710
874.944	0.0131812
875.022	0.0132748
875.100	0.0133332
875.178	0.0133078
875.256	0.0132563
875.334	0.0133300
875.412	0.0133372
875.491	0.0133901
875.569	0.0134039
875.647	0.0133801
875.725	0.0132429
875.803	0.0132774
875.881	0.0133712
875.959	0.0131856
876.037	0.0131717
876.116	0.0131941
876.194	0.0132258
876.272	0.0133529
876.350	0.0131930
876.428	0.0133143
876.506	0.0131734
876.584	0.0133136
876.662	0.0132089
876.741	0.0132214
876.819	0.0133284
876.897	0.0131818
876.975	0.0131493
877.053	0.0132953
877.131	0.0132690
877.209	0.0132398
877.287	0.0131651
877.366	0.0133002
877.444	0.0134137
877.522	0.0133806
877.600	0.0131760
877.678	0.0132328
877.756	0.0131637
877.834	0.0132660
877.912	0.0131467
877.991	0.0132143
878.069	0.0131078
878.147	0.0130317
878.225	0.0131573
878.303	0.0131530
878.381	0.0131908
878.459	0.0129815
878.537	0.0130116
878.616	0.0130676
878.694	0.0131238
878.772	0.0130280
878.850	0.0129501
878.928	0.0131277
879.006	0.0130832
879.084	0.0130879
879.162	0.0129762
879.241	0.0130926
879.319	0.0132040
879.397	0.0131673
879.475	0.0132500
879.553	0.0130620
879.631	0.0129754
879.709	0.0130296
879.787	0.0130688
879.866	0.0131735
879.944	0.0131168
880.022	0.0130252
880.100	0.0131044
880.178	0.0131379
880.256	0.0132021
880.334	0.0131860
880.412	0.0131624
880.491	0.0133537
880.569	0.0132169
880.647	0.0132742
880.725	0.0134480
880.803	0.0132294
880.881	0.0131187
880.959	0.0131695
881.037	0.0132973
881.116	0.0132063
881.194	0.0132148
881.272	0.0132551
881.350	0.0133592
881.428	0.0133569
881.506	0.0132156
881.584	0.0132780
881.662	0.0132826
881.741	0.0133133
881.819	0.0133219
881.897	0.0131751
881.975	0.0131726
882.053	0.0132286
882.131	0.0132352
882.209	0.0131561
882.287	0.0130444
882.366	0.0131151
882.444	0.0130707
882.522	0.0130120
882.600	0.0131848
882.678	0.0131500
882.756	0.0129934
882.834	0.0131473
882.912	0.0131950
882.991	0.0130920
883.069	0.0131282
883.147	0.0131519
883.225	0.0132134
883.303	0.0130473
883.381	0.0131228
883.459	0.0130441
883.537	0.0132225
883.616	0.0130389
883.694	0.0130601
883.772	0.0130137
883.850	0.0130095
883.928	0.0130480
884.006	0.0131461
884.084	0.0129932
884.162	0.0130135
884.241	0.0131569
884.319	0.0130667
884.397	0.0132292
884.475	0.0131274
884.553	0.0131377
884.631	0.0131286
884.709	0.0130060
884.787	0.0131783
884.866	0.0132642
884.944	0.0131560
885.022	0.0132014
885.100	0.0131871
885.178	0.0133463
885.256	0.0133542
885.334	0.0131631
885.412	0.0132541
885.491	0.0132787
885.569	0.0131274
885.647	0.0131854
885.725	0.0131943
885.803	0.0132308
885.881	0.0130795
885.959	0.0132488
886.037	0.0132320
886.116	0.0132329
886.194	0.0130418
886.272	0.0131788
886.350	0.0131597
886.428	0.0133414
886.506	0.0131841
886.584	0.0133920
886.662	0.0133170
886.741	0.0133024
886.819	0.0132484
886.897	0.0133545
886.975	0.0132249
887.053	0.0132431
887.131	0.0132149
887.209	0.0132420
887.287	0.0132178
887.366	0.0132375
887.444	0.0132102
887.522	0.0133205
887.600	0.0131523
887.678	0.0131380
887.756	0.0132629
887.834	0.0131887
887.912	0.0132059
887.991	0.0132876
888.069	0.0132039
888.147	0.0132451
888.225	0.0132124
888.303	0.0132057
888.381	0.0133112
888.459	0.0132303
888.537	0.0131902
888.616	0.0131944
888.694	0.0131843
888.772	0.0132659
888.850	0.0131500
888.928	0.0131297
889.006	0.0131098
889.084	0.0130805
889.162	0.0131104
889.241	0.0131048
889.319	0.0131180
889.397	0.0131285
889.475	0.0130886
889.553	0.0131349
889.631	0.0132620
889.709	0.0132657
889.787	0.0130903
889.866	0.0132127
889.944	0.0132711
890.022	0.0133101
890.100	0.0131352
890.178	0.0131593
890.256	0.0132484
890.334	0.0133223
890.412	0.0133161
890.491	0.0133466
890.569	0.0132891
890.647	0.0132521
890.725	0.0131351
890.803	0.0132434
890.881	0.0134209
890.959	0.0133257
891.037	0.0132066
891.116	0.0132985
891.194	0.0130786
891.272	0.0132746
891.350	0.0133596
891.428	0.0131816
891.506	0.0132821
891.584	0.0131837
891.662	0.0133296
891.741	0.0133562
891.819	0.0132436
891.897	0.0133307
891.975	0.0133079
892.053	0.0130534
892.131	0.0131462
892.209	0.0133171
892.287	0.0132120
892.366	0.0132477
892.444	0.0131860
892.522	0.0132267
892.600	0.0133200
892.678	0.0132653
892.756	0.0132738
892.834	0.0131929
892.912	0.0131852
892.991	0.0132919
893.069	0.0133028
893.147	0.0132605
893.225	0.0131790
893.303	0.0131332
893.381	0.0133610
893.459	0.0133073
893.537	0.0132599
893.616	0.0132780
893.694	0.0132317
893.772	0.0133648
893.850	0.0133165
893.928	0.0132388
894.006	0.0132298
894.084	0.0132470
894.162	0.0132920
894.241	0.0132587
894.319	0.0131931
894.397	0.0131956
894.475	0.0131841
894.553	0.0132414
894.631	0.0133449
894.709	0.0133347
894.787	0.0132991
894.866	0.0131776
894.944	0.0133177
895.022	0.0130423
895.100	0.0131540
895.178	0.0132028
895.256	0.0132034
895.334	0.0132751
895.412	0.0131087
895.491	0.0131790
895.569	0.0134283
895.647	0.0132233
895.725	0.0129864
895.803	0.0131155
895.881	0.0132122
895.959	0.0130818
896.037	0.0131163
896.116	0.0130452
896.194	0.0131149
896.272	0.0132619
896.350	0.0131296
896.428	0.0130849
896.506	0.0131300
896.584	0.0132590
896.662	0.0131433
896.741	0.0131525
896.819	0.0130231
896.897	0.0132483
896.975	0.0132180
897.053	0.0131055
897.131	0.0130573
897.209	0.0131385
897.287	0.0132308
897.366	0.0133086
897.444	0.0132352
897.522	0.0133408
897.600	0.0132894
897.678	0.0133073
897.756	0.0133058
897.834	0.0133356
897.912	0.0133897
897.991	0.0133185
898.069	0.0133340
898.147	0.0133487
898.225	0.0132669
898.303	0.0133096
898.381	0.0132767
898.459	0.0131906
898.537	0.0132590
898.616	0.0132033
898.694	0.0131511
898.772	0.0131414
898.850	0.0132905
898.928	0.0132070
899.006	0.0134135
899.084	0.0133100
899.162	0.0132484
899.241	0.0132983
899.319	0.0132179
899.397	0.0133373
899.475	0.0134189
899.553	0.0133168
899.631	0.0132314
899.709	0.0132664
899.787	0.0132671
899.866	0.0132301
899.944	0.0131827
900.022	0.0130611
900.100	0.0130986
900.178	0.0131934
900.256	0.0132272
900.334	0.0131648
900.412	0.0130726
900.491	0.0130270
900.569	0.0130555
900.647	0.0132398
900.725	0.0130115
900.803	0.0130261
900.881	0.0131150
900.959	0.0130660
901.037	0.0132938
901.116	0.0131504
901.194	0.0131046
901.272	0.0131222
901.350	0.0130897
901.428	0.0132163
901.506	0.0130877
901.584	0.0130736
901.662	0.0129321
901.741	0.0130386
901.819	0.0131019
901.897	0.0129813
901.975	0.0129942
902.053	0.0129282
902.131	0.0129901
902.209	0.0129311
902.287	0.0128951
902.366	0.0130845
902.444	0.0130577
902.522	0.0130695
902.600	0.0130882
902.678	0.0131036
902.756	0.0130804
902.834	0.0131004
902.912	0.0131995
902.991	0.0133092
903.069	0.0130658
903.147	0.0131025
903.225	0.0131440
903.303	0.0131752
903.381	0.0131879
903.459	0.0131409
903.537	0.0130675
903.616	0.0131306
903.694	0.0132914
903.772	0.0131026
903.850	0.0130021
903.928	0.0130014
904.006	0.0130331
904.084	0.0131361
904.162	0.0130482
904.241	0.0130773
904.319	0.0129993
904.397	0.0131952
904.475	0.0132391
904.553	0.0130987
904.631	0.0131759
904.709	0.0131613
904.787	0.0131596
904.866	0.0132568
904.944	0.0131562
905.022	0.0132305
905.100	0.0132834
905.178	0.0132993
905.256	0.0131134
905.334	0.0132005
905.412	0.0132446
905.491	0.0133809
905.569	0.0133049
905.647	0.0131996
905.725	0.0131683
905.803	0.0131957
905.881	0.0132847
905.959	0.0131597
906.037	0.0131116
906.116	0.0131931
906.194	0.0131833
906.272	0.0131384
906.350	0.0132268
906.428	0.0130899
906.506	0.0130109
906.584	0.0132103
906.662	0.0130237
906.741	0.0131808
906.819	0.0132137
906.897	0.0131544
906.975	0.0131779
907.053	0.0132013
907.131	0.0131767
907.209	0.0132658
907.287	0.0133754
907.366	0.0131757
907.444	0.0131769
907.522	0.0134612
907.600	0.0131397
907.678	0.0133809
907.756	0.0133965
907.834	0.0133305
907.912	0.0132032
907.991	0.0131259
908.069	0.0131904
908.147	0.0131542
908.225	0.0132150
908.303	0.0132678
908.381	0.0131995
908.459	0.0130486
908.537	0.0130901
908.616	0.0133778
908.694	0.0131228
908.772	0.0132088
908.850	0.0131786
908.928	0.0132404
909.006	0.0133162
909.084	0.0132627
909.162	0.0132703
909.241	0.0132253
909.319	0.0132940
909.397	0.0132394
909.475	0.0134673
909.553	0.0134569
909.631	0.0134520
909.709	0.0134435
909.787	0.0133213
909.866	0.0131126
909.944	0.0132170
910.022	0.0132864
910.100	0.0133214
910.178	0.0132894
910.256	0.0133767
910.334	0.0132574
910.412	0.0131532
910.491	0.0132071
910.569	0.0131689
910.647	0.0133134
910.725	0.0131618
910.803	0.0130903
910.881	0.0131731
910.959	0.0133026
911.037	0.0130956
911.116	0.0131257
911.194	0.0131834
911.272	0.0132422
911.350	0.0130833
911.428	0.0133519
911.506	0.0132363
911.584	0.0132615
911.662	0.0133270
911.741	0.0132844
911.819	0.0132667
911.897	0.0132372
911.975	0.0131987
912.053	0.0133719
912.131	0.0132345
912.209	0.0132720
912.287	0.0133649
912.366	0.0132863
912.444	0.0132253
912.522	0.0132561
912.600	0.0134090
912.678	0.0133737
912.756	0.0133888
912.834	0.0132739
912.912	0.0132191
912.991	0.0132930
913.069	0.0132756
913.147	0.0132772
913.225	0.0133065
913.303	0.0134575
913.381	0.0133210
913.459	0.0133861
913.537	0.0133333
913.616	0.0133791
913.694	0.0132720
913.772	0.0132594
913.850	0.0132624
913.928	0.0132478
914.006	0.0132126
914.084	0.0133274
914.162	0.0132712
914.241	0.0132886
914.319	0.0131875
914.397	0.0132307
914.475	0.0132222
914.553	0.0131800
914.631	0.0132920
914.709	0.0131507
914.787	0.0132770
914.866	0.0133460
914.944	0.0133189
915.022	0.0132581
915.100	0.0134151
915.178	0.0132909
915.256	0.0133059
915.334	0.0133653
915.412	0.0133382
915.491	0.0134452
915.569	0.0133570
915.647	0.0134284
915.725	0.0135079
915.803	0.0133939
915.881	0.0132693
915.959	0.0133163
916.037	0.0132711
916.116	0.0132863
916.194	0.0133623
916.272	0.0132215
916.350	0.0132674
916.428	0.0131334
916.506	0.0132355
916.584	0.0132749
916.662	0.0131180
916.741	0.0131365
916.819	0.0132964
916.897	0.0133015
916.975	0.0131734
917.053	0.0131694
917.131	0.0130729
917.209	0.0132134
917.287	0.0132963
917.366	0.0131532
917.444	0.0131660
917.522	0.0132092
917.600	0.0131317
917.678	0.0132292
917.756	0.0133347
917.834	0.0133176
917.912	0.0134012
917.991	0.0132349
918.069	0.0132263
918.147	0.0132058
918.225	0.0132603
918.303	0.0132111
918.381	0.0132513
918.459	0.0132131
918.537	0.0131353
918.616	0.0132177
918.694	0.0131447
918.772	0.0131622
918.850	0.0132688
918.928	0.0132749
919.006	0.0131213
919.084	0.0130906
919.162	0.0131931
919.241	0.0132577
919.319	0.0132016
919.397	0.0133081
919.475	0.0131947
919.553	0.0131614
919.631	0.0132766
919.709	0.0132305
919.787	0.0133504
919.866	0.0133372
919.944	0.0133257
