05/06/2022	19:10:30	Ver.	4.1	UNKNOWN
Optical Delay	600.015094	Delta X		0.078125	Sweeps	1	Scan Rate	0/0
Coordinates	Axis 1	NaN	Axis 2	NaN	Axis 3	NaN	Axis 4	NaN	Axis 5	NaN	Axis 6	0.000000
TX Power	0.000000	RX Power	0.000000

600.015	0.0139439
600.093	0.0139194
600.171	0.0139626
600.249	0.0139613
600.328	0.0139865
600.406	0.0138622
600.484	0.0138626
600.562	0.0139127
600.640	0.0138315
600.718	0.0139116
600.796	0.0139428
600.874	0.0139651
600.953	0.0138376
601.031	0.0139731
601.109	0.0139398
601.187	0.0139044
601.265	0.0138909
601.343	0.0138901
601.421	0.0138793
601.499	0.0138545
601.578	0.0139462
601.656	0.0140064
601.734	0.0138906
601.812	0.0139244
601.890	0.0138692
601.968	0.0140179
602.046	0.0140922
602.124	0.0140173
602.203	0.0139626
602.281	0.0140130
602.359	0.0139697
602.437	0.0140254
602.515	0.0139968
602.593	0.0138865
602.671	0.0140086
602.749	0.0140813
602.828	0.0139717
602.906	0.0139361
602.984	0.0139542
603.062	0.0139798
603.140	0.0139556
603.218	0.0139661
603.296	0.0137759
603.374	0.0138511
603.453	0.0139493
603.531	0.0140413
603.609	0.0139297
603.687	0.0140402
603.765	0.0140807
603.843	0.0140529
603.921	0.0139009
603.999	0.0140333
604.078	0.0139705
604.156	0.0139803
604.234	0.0139864
604.312	0.0138242
604.390	0.0140470
604.468	0.0140039
604.546	0.0140038
604.624	0.0140224
604.703	0.0139674
604.781	0.0141016
604.859	0.0139889
604.937	0.0138704
605.015	0.0137975
605.093	0.0140102
605.171	0.0139723
605.249	0.0140696
605.328	0.0139132
605.406	0.0141763
605.484	0.0140224
605.562	0.0140118
605.640	0.0139220
605.718	0.0140205
605.796	0.0139666
605.874	0.0140144
605.953	0.0138615
606.031	0.0139447
606.109	0.0139561
606.187	0.0139275
606.265	0.0141321
606.343	0.0141160
606.421	0.0139624
606.499	0.0140239
606.578	0.0139973
606.656	0.0139606
606.734	0.0140065
606.812	0.0140579
606.890	0.0139284
606.968	0.0141591
607.046	0.0139999
607.124	0.0139782
607.203	0.0140501
607.281	0.0139351
607.359	0.0140611
607.437	0.0139815
607.515	0.0141149
607.593	0.0140182
607.671	0.0140348
607.749	0.0140911
607.828	0.0139365
607.906	0.0139805
607.984	0.0141340
608.062	0.0139560
608.140	0.0139343
608.218	0.0139485
608.296	0.0140226
608.374	0.0139775
608.453	0.0140940
608.531	0.0141100
608.609	0.0140782
608.687	0.0140025
608.765	0.0139342
608.843	0.0139127
608.921	0.0140021
608.999	0.0140781
609.078	0.0141005
609.156	0.0140392
609.234	0.0139507
609.312	0.0140618
609.390	0.0140999
609.468	0.0141042
609.546	0.0140649
609.624	0.0139223
609.703	0.0140540
609.781	0.0140266
609.859	0.0139280
609.937	0.0140353
610.015	0.0139793
610.093	0.0139948
610.171	0.0139635
610.249	0.0139677
610.328	0.0139597
610.406	0.0139060
610.484	0.0139014
610.562	0.0139819
610.640	0.0139349
610.718	0.0139762
610.796	0.0139597
610.874	0.0137859
610.953	0.0139162
611.031	0.0139811
611.109	0.0141855
611.187	0.0139698
611.265	0.0139188
611.343	0.0139693
611.421	0.0140056
611.499	0.0139214
611.578	0.0139895
611.656	0.0138290
611.734	0.0141032
611.812	0.0139811
611.890	0.0140395
611.968	0.0139962
612.046	0.0139588
612.124	0.0140240
612.203	0.0139215
612.281	0.0139435
612.359	0.0138798
612.437	0.0139281
612.515	0.0139033
612.593	0.0139710
612.671	0.0138043
612.749	0.0138997
612.828	0.0139367
612.906	0.0137834
612.984	0.0139821
613.062	0.0139697
613.140	0.0139432
613.218	0.0139063
613.296	0.0139709
613.374	0.0139814
613.453	0.0139816
613.531	0.0139584
613.609	0.0138461
613.687	0.0139825
613.765	0.0140324
613.843	0.0139252
613.921	0.0138557
613.999	0.0140633
614.078	0.0139642
614.156	0.0139163
614.234	0.0138981
614.312	0.0138456
614.390	0.0138622
614.468	0.0138567
614.546	0.0138240
614.624	0.0137019
614.703	0.0139164
614.781	0.0139327
614.859	0.0139737
614.937	0.0137339
615.015	0.0137360
615.093	0.0137859
615.171	0.0140203
615.249	0.0137986
615.328	0.0138547
615.406	0.0137648
615.484	0.0138666
615.562	0.0137649
615.640	0.0137859
615.718	0.0139121
615.796	0.0138616
615.874	0.0138103
615.953	0.0139500
616.031	0.0139978
616.109	0.0139072
616.187	0.0137971
616.265	0.0141003
616.343	0.0139500
616.421	0.0138391
616.499	0.0139612
616.578	0.0138752
616.656	0.0137694
616.734	0.0140686
616.812	0.0139278
616.890	0.0139541
616.968	0.0138278
617.046	0.0139220
617.124	0.0140012
617.203	0.0139336
617.281	0.0138828
617.359	0.0139411
617.437	0.0138677
617.515	0.0140179
617.593	0.0138192
617.671	0.0138746
617.749	0.0139420
617.828	0.0139354
617.906	0.0138400
617.984	0.0139701
618.062	0.0138742
618.140	0.0139308
618.218	0.0137800
618.296	0.0138263
618.374	0.0140622
618.453	0.0138548
618.531	0.0138745
618.609	0.0139731
618.687	0.0139566
618.765	0.0139612
618.843	0.0138572
618.921	0.0139401
618.999	0.0140375
619.078	0.0138905
619.156	0.0138796
619.234	0.0140246
619.312	0.0140820
619.390	0.0140328
619.468	0.0139651
619.546	0.0138924
619.624	0.0139763
619.703	0.0139778
619.781	0.0140672
619.859	0.0138609
619.937	0.0139944
620.015	0.0139754
620.093	0.0139523
620.171	0.0139100
620.249	0.0139308
620.328	0.0141106
620.406	0.0139730
620.484	0.0141052
620.562	0.0140099
620.640	0.0138964
620.718	0.0139584
620.796	0.0141576
620.874	0.0141397
620.953	0.0140359
621.031	0.0139838
621.109	0.0139277
621.187	0.0139587
621.265	0.0139304
621.343	0.0140086
621.421	0.0140511
621.499	0.0140397
621.578	0.0138866
621.656	0.0141562
621.734	0.0139315
621.812	0.0139360
621.890	0.0140932
621.968	0.0140491
622.046	0.0139531
622.124	0.0139870
622.203	0.0141204
622.281	0.0140625
622.359	0.0140587
622.437	0.0139487
622.515	0.0140023
622.593	0.0138765
622.671	0.0139674
622.749	0.0140390
622.828	0.0139983
622.906	0.0140778
622.984	0.0140633
623.062	0.0139112
623.140	0.0139051
623.218	0.0139938
623.296	0.0139175
623.374	0.0140443
623.453	0.0140536
623.531	0.0140714
623.609	0.0140290
623.687	0.0140766
623.765	0.0140909
623.843	0.0139767
623.921	0.0139596
623.999	0.0140201
624.078	0.0140477
624.156	0.0141160
624.234	0.0138457
624.312	0.0139758
624.390	0.0139950
624.468	0.0139485
624.546	0.0140160
624.624	0.0141602
624.703	0.0139459
624.781	0.0139577
624.859	0.0139388
624.937	0.0139946
625.015	0.0140802
625.093	0.0140697
625.171	0.0139459
625.249	0.0138031
625.328	0.0139576
625.406	0.0139252
625.484	0.0139737
625.562	0.0140077
625.640	0.0140664
625.718	0.0141333
625.796	0.0139607
625.874	0.0139489
625.953	0.0140048
626.031	0.0139635
626.109	0.0139518
626.187	0.0141533
626.265	0.0140810
626.343	0.0140418
626.421	0.0139879
626.499	0.0140847
626.578	0.0139738
626.656	0.0140452
626.734	0.0141394
626.812	0.0140762
626.890	0.0140862
626.968	0.0140153
627.046	0.0141066
627.124	0.0141122
627.203	0.0140050
627.281	0.0140630
627.359	0.0140871
627.437	0.0140149
627.515	0.0140586
627.593	0.0140936
627.671	0.0139967
627.749	0.0139368
627.828	0.0139528
627.906	0.0141007
627.984	0.0140696
628.062	0.0139323
628.140	0.0139877
628.218	0.0140109
628.296	0.0140028
628.374	0.0141580
628.453	0.0140236
628.531	0.0142432
628.609	0.0141162
628.687	0.0140540
628.765	0.0139580
628.843	0.0141506
628.921	0.0141670
628.999	0.0140855
629.078	0.0139810
629.156	0.0141077
629.234	0.0141008
629.312	0.0140413
629.390	0.0140856
629.468	0.0138981
629.546	0.0138869
629.624	0.0139104
629.703	0.0140350
629.781	0.0140448
629.859	0.0138848
629.937	0.0139674
630.015	0.0138940
630.093	0.0140089
630.171	0.0138391
630.249	0.0139030
630.328	0.0138024
630.406	0.0140619
630.484	0.0137869
630.562	0.0140493
630.640	0.0140612
630.718	0.0138661
630.796	0.0139714
630.874	0.0139895
630.953	0.0139243
631.031	0.0139091
631.109	0.0140614
631.187	0.0139632
631.265	0.0139600
631.343	0.0140043
631.421	0.0139635
631.499	0.0139848
631.578	0.0139336
631.656	0.0140263
631.734	0.0140144
631.812	0.0139778
631.890	0.0139299
631.968	0.0140300
632.046	0.0140013
632.124	0.0138598
632.203	0.0139220
632.281	0.0139964
632.359	0.0140145
632.437	0.0139707
632.515	0.0141267
632.593	0.0139071
632.671	0.0138403
632.749	0.0141383
632.828	0.0140281
632.906	0.0141944
632.984	0.0141493
633.062	0.0140046
633.140	0.0140757
633.218	0.0140215
633.296	0.0140063
633.374	0.0140607
633.453	0.0140081
633.531	0.0140346
633.609	0.0140134
633.687	0.0140818
633.765	0.0140625
633.843	0.0139982
633.921	0.0140785
633.999	0.0138974
634.078	0.0139346
634.156	0.0139292
634.234	0.0138890
634.312	0.0139257
634.390	0.0139071
634.468	0.0139306
634.546	0.0141235
634.624	0.0140061
634.703	0.0140716
634.781	0.0139232
634.859	0.0139647
634.937	0.0141182
635.015	0.0140722
635.093	0.0139536
635.171	0.0138792
635.249	0.0139384
635.328	0.0140764
635.406	0.0138764
635.484	0.0138869
635.562	0.0138542
635.640	0.0138511
635.718	0.0139330
635.796	0.0140434
635.874	0.0140372
635.953	0.0137650
636.031	0.0138588
636.109	0.0138947
636.187	0.0139213
636.265	0.0139681
636.343	0.0137730
636.421	0.0138790
636.499	0.0138702
636.578	0.0139963
636.656	0.0137742
636.734	0.0138390
636.812	0.0137663
636.890	0.0138167
636.968	0.0138378
637.046	0.0139577
637.124	0.0139719
637.203	0.0138701
637.281	0.0138816
637.359	0.0138120
637.437	0.0139243
637.515	0.0138911
637.593	0.0139581
637.671	0.0137211
637.749	0.0140150
637.828	0.0139156
637.906	0.0139063
637.984	0.0139569
638.062	0.0140923
638.140	0.0138906
638.218	0.0139481
638.296	0.0138113
638.374	0.0138283
638.453	0.0138205
638.531	0.0140033
638.609	0.0138928
638.687	0.0137734
638.765	0.0138644
638.843	0.0138312
638.921	0.0139317
638.999	0.0138924
639.078	0.0140001
639.156	0.0139703
639.234	0.0137900
639.312	0.0139307
639.390	0.0139275
639.468	0.0139325
639.546	0.0137384
639.624	0.0138385
639.703	0.0139314
639.781	0.0140321
639.859	0.0138334
639.937	0.0138414
640.015	0.0138526
640.093	0.0138802
640.171	0.0138641
640.249	0.0138216
640.328	0.0138025
640.406	0.0138968
640.484	0.0138358
640.562	0.0138097
640.640	0.0138336
640.718	0.0137948
640.796	0.0138907
640.874	0.0138856
640.953	0.0138933
641.031	0.0137955
641.109	0.0139491
641.187	0.0139533
641.265	0.0140749
641.343	0.0138972
641.421	0.0139072
641.499	0.0138957
641.578	0.0139982
641.656	0.0139634
641.734	0.0138494
641.812	0.0138989
641.890	0.0138953
641.968	0.0137907
642.046	0.0138111
642.124	0.0138200
642.203	0.0138380
642.281	0.0139688
642.359	0.0139658
642.437	0.0140070
642.515	0.0139330
642.593	0.0139108
642.671	0.0139984
642.749	0.0140043
642.828	0.0140812
642.906	0.0142194
642.984	0.0141310
643.062	0.0140780
643.140	0.0141528
643.218	0.0141535
643.296	0.0141010
643.374	0.0140458
643.453	0.0141599
643.531	0.0140281
643.609	0.0139799
643.687	0.0140079
643.765	0.0138827
643.843	0.0139669
643.921	0.0138058
643.999	0.0138342
644.078	0.0138776
644.156	0.0139220
644.234	0.0137932
644.312	0.0138284
644.390	0.0136418
644.468	0.0139051
644.546	0.0139719
644.624	0.0139275
644.703	0.0138946
644.781	0.0138460
644.859	0.0138149
644.937	0.0139313
645.015	0.0137990
645.093	0.0139657
645.171	0.0140130
645.249	0.0139555
645.328	0.0140952
645.406	0.0141158
645.484	0.0141148
645.562	0.0141753
645.640	0.0140746
645.718	0.0142161
645.796	0.0141628
645.874	0.0142590
645.953	0.0141682
646.031	0.0141339
646.109	0.0142757
646.187	0.0141114
646.265	0.0140723
646.343	0.0142012
646.421	0.0141107
646.499	0.0139268
646.578	0.0140549
646.656	0.0139305
646.734	0.0137614
646.812	0.0137837
646.890	0.0137734
646.968	0.0138100
647.046	0.0137263
647.124	0.0136560
647.203	0.0136087
647.281	0.0137328
647.359	0.0137531
647.437	0.0136968
647.515	0.0135638
647.593	0.0138100
647.671	0.0138034
647.749	0.0136769
647.828	0.0137566
647.906	0.0138339
647.984	0.0138980
648.062	0.0141402
648.140	0.0140852
648.218	0.0141071
648.296	0.0140924
648.374	0.0140996
648.453	0.0142808
648.531	0.0142847
648.609	0.0143536
648.687	0.0143824
648.765	0.0143647
648.843	0.0144064
648.921	0.0143161
648.999	0.0143150
649.078	0.0143011
649.156	0.0141476
649.234	0.0141151
649.312	0.0142636
649.390	0.0140184
649.468	0.0140366
649.546	0.0139606
649.624	0.0138280
649.703	0.0139109
649.781	0.0137329
649.859	0.0136866
649.937	0.0136436
650.015	0.0136558
650.093	0.0134653
650.171	0.0135430
650.249	0.0135247
650.328	0.0134440
650.406	0.0133565
650.484	0.0133508
650.562	0.0135334
650.640	0.0137081
650.718	0.0136645
650.796	0.0138766
650.874	0.0139989
650.953	0.0139750
651.031	0.0140618
651.109	0.0141763
651.187	0.0142904
651.265	0.0144141
651.343	0.0144450
651.421	0.0145451
651.499	0.0146218
651.578	0.0145496
651.656	0.0147044
651.734	0.0147649
651.812	0.0146040
651.890	0.0145626
651.968	0.0145038
652.046	0.0144426
652.124	0.0143288
652.203	0.0143291
652.281	0.0141699
652.359	0.0139007
652.437	0.0138075
652.515	0.0136539
652.593	0.0136404
652.671	0.0136478
652.749	0.0133932
652.828	0.0134383
652.906	0.0135272
652.984	0.0134161
653.062	0.0133920
653.140	0.0133652
653.218	0.0133482
653.296	0.0134774
653.374	0.0134782
653.453	0.0135568
653.531	0.0136874
653.609	0.0136988
653.687	0.0137364
653.765	0.0138567
653.843	0.0139014
653.921	0.0141030
653.999	0.0140902
654.078	0.0142423
654.156	0.0142709
654.234	0.0143788
654.312	0.0144533
654.390	0.0142772
654.468	0.0145186
654.546	0.0143570
654.624	0.0143167
654.703	0.0145786
654.781	0.0144030
654.859	0.0144589
654.937	0.0142618
655.015	0.0142487
655.093	0.0141843
655.171	0.0140652
655.249	0.0140545
655.328	0.0139880
655.406	0.0139836
655.484	0.0138753
655.562	0.0137771
655.640	0.0136205
655.718	0.0137402
655.796	0.0135748
655.874	0.0134815
655.953	0.0135569
656.031	0.0136409
656.109	0.0137244
656.187	0.0136329
656.265	0.0138248
656.343	0.0137094
656.421	0.0138707
656.499	0.0138915
656.578	0.0138490
656.656	0.0141422
656.734	0.0142094
656.812	0.0142422
656.890	0.0143328
656.968	0.0141941
657.046	0.0143057
657.124	0.0143999
657.203	0.0142675
657.281	0.0144318
657.359	0.0144183
657.437	0.0143830
657.515	0.0143828
657.593	0.0143697
657.671	0.0141171
657.749	0.0142081
657.828	0.0142007
657.906	0.0141515
657.984	0.0139812
658.062	0.0141389
658.140	0.0139836
658.218	0.0137911
658.296	0.0137180
658.374	0.0137533
658.453	0.0136978
658.531	0.0134007
658.609	0.0134194
658.687	0.0134424
658.765	0.0134933
658.843	0.0133877
658.921	0.0132206
658.999	0.0133862
659.078	0.0134995
659.156	0.0134740
659.234	0.0136523
659.312	0.0136476
659.390	0.0137974
659.468	0.0137912
659.546	0.0140170
659.624	0.0140121
659.703	0.0141897
659.781	0.0142349
659.859	0.0143147
659.937	0.0144051
660.015	0.0144690
660.093	0.0144896
660.171	0.0144946
660.249	0.0146592
660.328	0.0146128
660.406	0.0143818
660.484	0.0145592
660.562	0.0146098
660.640	0.0144723
660.718	0.0144334
660.796	0.0143858
660.874	0.0142725
660.953	0.0140596
661.031	0.0139358
661.109	0.0139085
661.187	0.0136347
661.265	0.0136642
661.343	0.0136679
661.421	0.0134409
661.499	0.0133167
661.578	0.0133259
661.656	0.0131694
661.734	0.0132424
661.812	0.0133096
661.890	0.0133176
661.968	0.0132870
662.046	0.0133029
662.124	0.0134056
662.203	0.0135435
662.281	0.0137343
662.359	0.0137187
662.437	0.0137847
662.515	0.0138117
662.593	0.0140604
662.671	0.0142276
662.749	0.0141052
662.828	0.0144012
662.906	0.0143307
662.984	0.0143085
663.062	0.0142558
663.140	0.0142604
663.218	0.0142384
663.296	0.0141860
663.374	0.0141670
663.453	0.0141528
663.531	0.0140744
663.609	0.0139127
663.687	0.0138879
663.765	0.0138068
663.843	0.0137460
663.921	0.0138147
663.999	0.0136868
664.078	0.0135394
664.156	0.0136381
664.234	0.0135602
664.312	0.0133879
664.390	0.0134348
664.468	0.0135076
664.546	0.0136274
664.624	0.0137850
664.703	0.0137683
664.781	0.0138336
664.859	0.0139198
664.937	0.0140968
665.015	0.0142194
665.093	0.0140614
665.171	0.0142582
665.249	0.0143752
665.328	0.0145288
665.406	0.0145703
665.484	0.0146623
665.562	0.0147498
665.640	0.0146302
665.718	0.0146331
665.796	0.0146934
665.874	0.0145426
665.953	0.0144689
666.031	0.0144077
666.109	0.0142318
666.187	0.0139835
666.265	0.0138519
666.343	0.0137089
666.421	0.0134482
666.499	0.0133686
666.578	0.0133144
666.656	0.0132328
666.734	0.0131410
666.812	0.0130914
666.890	0.0131225
666.968	0.0131122
667.046	0.0132119
667.124	0.0133095
667.203	0.0134509
667.281	0.0135627
667.359	0.0135628
667.437	0.0138822
667.515	0.0139895
667.593	0.0140141
667.671	0.0140593
667.749	0.0142690
667.828	0.0141604
667.906	0.0142564
667.984	0.0145396
668.062	0.0144872
668.140	0.0144919
668.218	0.0146709
668.296	0.0144785
668.374	0.0144230
668.453	0.0145502
668.531	0.0144324
668.609	0.0146735
668.687	0.0144933
668.765	0.0143925
668.843	0.0143445
668.921	0.0141421
668.999	0.0140473
669.078	0.0141109
669.156	0.0139291
669.234	0.0138914
669.312	0.0136896
669.390	0.0138147
669.468	0.0136677
669.546	0.0136519
669.624	0.0137452
669.703	0.0134379
669.781	0.0133168
669.859	0.0134225
669.937	0.0135957
670.015	0.0135041
670.093	0.0135062
670.171	0.0136524
670.249	0.0137021
670.328	0.0137123
670.406	0.0137718
670.484	0.0138666
670.562	0.0138552
670.640	0.0139414
670.718	0.0139888
670.796	0.0138950
670.874	0.0140011
670.953	0.0142965
671.031	0.0141407
671.109	0.0141596
671.187	0.0142141
671.265	0.0141643
671.343	0.0141875
671.421	0.0141338
671.499	0.0141694
671.578	0.0141052
671.656	0.0139970
671.734	0.0141253
671.812	0.0141482
671.890	0.0140306
671.968	0.0140915
672.046	0.0140505
672.124	0.0139931
672.203	0.0139288
672.281	0.0136981
672.359	0.0138670
672.437	0.0138657
672.515	0.0139850
672.593	0.0138490
672.671	0.0137853
672.749	0.0137423
672.828	0.0137736
672.906	0.0137128
672.984	0.0137048
673.062	0.0135915
673.140	0.0137389
673.218	0.0135987
673.296	0.0136549
673.374	0.0137238
673.453	0.0138381
673.531	0.0140556
673.609	0.0140506
673.687	0.0141774
673.765	0.0141601
673.843	0.0142732
673.921	0.0144218
673.999	0.0145672
674.078	0.0146472
674.156	0.0145448
674.234	0.0147003
674.312	0.0146535
674.390	0.0147610
674.468	0.0144708
674.546	0.0144403
674.624	0.0142989
674.703	0.0142113
674.781	0.0139639
674.859	0.0139468
674.937	0.0138934
675.015	0.0135723
675.093	0.0135218
675.171	0.0134032
675.249	0.0132740
675.328	0.0131597
675.406	0.0130820
675.484	0.0132363
675.562	0.0132042
675.640	0.0131626
675.718	0.0131421
675.796	0.0132809
675.874	0.0133044
675.953	0.0132914
676.031	0.0134744
676.109	0.0136350
676.187	0.0136967
676.265	0.0138286
676.343	0.0139825
676.421	0.0141197
676.499	0.0143680
676.578	0.0144949
676.656	0.0146112
676.734	0.0146314
676.812	0.0146764
676.890	0.0147175
676.968	0.0147556
677.046	0.0146733
677.124	0.0145260
677.203	0.0144431
677.281	0.0143176
677.359	0.0141666
677.437	0.0140568
677.515	0.0140312
677.593	0.0138618
677.671	0.0137850
677.749	0.0137183
677.828	0.0135773
677.906	0.0134538
677.984	0.0134882
678.062	0.0134169
678.140	0.0133675
678.218	0.0134561
678.296	0.0133609
678.374	0.0134207
678.453	0.0134904
678.531	0.0135725
678.609	0.0136661
678.687	0.0137818
678.765	0.0138076
678.843	0.0139858
678.921	0.0141866
678.999	0.0140662
679.078	0.0143348
679.156	0.0145503
679.234	0.0144471
679.312	0.0146219
679.390	0.0145386
679.468	0.0146229
679.546	0.0144418
679.624	0.0145262
679.703	0.0144062
679.781	0.0142756
679.859	0.0141896
679.937	0.0140357
680.015	0.0140035
680.093	0.0139323
680.171	0.0135514
680.249	0.0135228
680.328	0.0135674
680.406	0.0135132
680.484	0.0134866
680.562	0.0132906
680.640	0.0132873
680.718	0.0131985
680.796	0.0133109
680.874	0.0134209
680.953	0.0135297
681.031	0.0136243
681.109	0.0135585
681.187	0.0137895
681.265	0.0138594
681.343	0.0140059
681.421	0.0138747
681.499	0.0139240
681.578	0.0140721
681.656	0.0139725
681.734	0.0141273
681.812	0.0141373
681.890	0.0141440
681.968	0.0142336
682.046	0.0143056
682.124	0.0140578
682.203	0.0141367
682.281	0.0142734
682.359	0.0141315
682.437	0.0142294
682.515	0.0142131
682.593	0.0140987
682.671	0.0142821
682.749	0.0142617
682.828	0.0140299
682.906	0.0140427
682.984	0.0139605
683.062	0.0140387
683.140	0.0138969
683.218	0.0140457
683.296	0.0139392
683.374	0.0138486
683.453	0.0138898
683.531	0.0138774
683.609	0.0139995
683.687	0.0139843
683.765	0.0137191
683.843	0.0137856
683.921	0.0138663
683.999	0.0139069
684.078	0.0139111
684.156	0.0139845
684.234	0.0139693
684.312	0.0138437
684.390	0.0137835
684.468	0.0139793
684.546	0.0139924
684.624	0.0139365
684.703	0.0138614
684.781	0.0138010
684.859	0.0139462
684.937	0.0138615
685.015	0.0139189
685.093	0.0139536
685.171	0.0139928
685.249	0.0140707
685.328	0.0139965
685.406	0.0140012
685.484	0.0140787
685.562	0.0141164
685.640	0.0141324
685.718	0.0142328
685.796	0.0141827
685.874	0.0143076
685.953	0.0143262
686.031	0.0141901
686.109	0.0142437
686.187	0.0141328
686.265	0.0140871
686.343	0.0141209
686.421	0.0141120
686.499	0.0138503
686.578	0.0138816
686.656	0.0138197
686.734	0.0137200
686.812	0.0137591
686.890	0.0137269
686.968	0.0136080
687.046	0.0135840
687.124	0.0136037
687.203	0.0135435
687.281	0.0136007
687.359	0.0137655
687.437	0.0137788
687.515	0.0138986
687.593	0.0140653
687.671	0.0140686
687.749	0.0144022
687.828	0.0144801
687.906	0.0144902
687.984	0.0147024
688.062	0.0146746
688.140	0.0147863
688.218	0.0147285
688.296	0.0147511
688.374	0.0145890
688.453	0.0145828
688.531	0.0145233
688.609	0.0145104
688.687	0.0143241
688.765	0.0140961
688.843	0.0138830
688.921	0.0138801
688.999	0.0136739
689.078	0.0135107
689.156	0.0133863
689.234	0.0132751
689.312	0.0133121
689.390	0.0132946
689.468	0.0132072
689.546	0.0131264
689.624	0.0132172
689.703	0.0132119
689.781	0.0132905
689.859	0.0133956
689.937	0.0134012
690.015	0.0136222
690.093	0.0138542
690.171	0.0139048
690.249	0.0141241
690.328	0.0142356
690.406	0.0143041
690.484	0.0143858
690.562	0.0145363
690.640	0.0147655
690.718	0.0148441
690.796	0.0148983
690.874	0.0147856
690.953	0.0147944
691.031	0.0146313
691.109	0.0146523
691.187	0.0145177
691.265	0.0143523
691.343	0.0142556
691.421	0.0140681
691.499	0.0139648
691.578	0.0136592
691.656	0.0136943
691.734	0.0135942
691.812	0.0134498
691.890	0.0133331
691.968	0.0132462
692.046	0.0130756
692.124	0.0131684
692.203	0.0132332
692.281	0.0134248
692.359	0.0133109
692.437	0.0135168
692.515	0.0135181
692.593	0.0136970
692.671	0.0137758
692.749	0.0137719
692.828	0.0139408
692.906	0.0139463
692.984	0.0141230
693.062	0.0141973
693.140	0.0142012
693.218	0.0142247
693.296	0.0142593
693.374	0.0143279
693.453	0.0144358
693.531	0.0143668
693.609	0.0143135
693.687	0.0143626
693.765	0.0142254
693.843	0.0140350
693.921	0.0139258
693.999	0.0138075
694.078	0.0139789
694.156	0.0136825
694.234	0.0135388
694.312	0.0135750
694.390	0.0134061
694.468	0.0133414
694.546	0.0134476
694.624	0.0134817
694.703	0.0135295
694.781	0.0135883
694.859	0.0136813
694.937	0.0137510
695.015	0.0138901
695.093	0.0138123
695.171	0.0141319
695.249	0.0140941
695.328	0.0140842
695.406	0.0140613
695.484	0.0142029
695.562	0.0141172
695.640	0.0141199
695.718	0.0140807
695.796	0.0141546
695.874	0.0140968
695.953	0.0140356
696.031	0.0140190
696.109	0.0140482
696.187	0.0139186
696.265	0.0139177
696.343	0.0139703
696.421	0.0137491
696.499	0.0138307
696.578	0.0138570
696.656	0.0137511
696.734	0.0137670
696.812	0.0136608
696.890	0.0137712
696.968	0.0137099
697.046	0.0137556
697.124	0.0138897
697.203	0.0139897
697.281	0.0139232
697.359	0.0139724
697.437	0.0140250
697.515	0.0140804
697.593	0.0141257
697.671	0.0141785
697.749	0.0140952
697.828	0.0141700
697.906	0.0142278
697.984	0.0140770
698.062	0.0139532
698.140	0.0141347
698.218	0.0140987
698.296	0.0140450
698.374	0.0138950
698.453	0.0137559
698.531	0.0138503
698.609	0.0137709
698.687	0.0138664
698.765	0.0137785
698.843	0.0137991
698.921	0.0137200
698.999	0.0136736
699.078	0.0136424
699.156	0.0137906
699.234	0.0138415
699.312	0.0136369
699.390	0.0137846
699.468	0.0139390
699.546	0.0139706
699.624	0.0140080
699.703	0.0141646
699.781	0.0142722
699.859	0.0141542
699.937	0.0142764
700.015	0.0142907
700.093	0.0142929
700.171	0.0143002
700.249	0.0142896
700.328	0.0140900
700.406	0.0141035
700.484	0.0140209
700.562	0.0139975
700.640	0.0140691
700.718	0.0138519
700.796	0.0137743
700.874	0.0135581
700.953	0.0137054
701.031	0.0136050
701.109	0.0135092
701.187	0.0135283
701.265	0.0136169
701.343	0.0136129
701.421	0.0135126
701.499	0.0136250
701.578	0.0137867
701.656	0.0138429
701.734	0.0138720
701.812	0.0141096
701.890	0.0141616
701.968	0.0142068
702.046	0.0141225
702.124	0.0141370
702.203	0.0143054
702.281	0.0143097
702.359	0.0142484
702.437	0.0143720
702.515	0.0142042
702.593	0.0142017
702.671	0.0141212
702.749	0.0141676
702.828	0.0140421
702.906	0.0139913
702.984	0.0139031
703.062	0.0138395
703.140	0.0139526
703.218	0.0137051
703.296	0.0138715
703.374	0.0137447
703.453	0.0135338
703.531	0.0136657
703.609	0.0138120
703.687	0.0137395
703.765	0.0138112
703.843	0.0139055
703.921	0.0140086
703.999	0.0140937
704.078	0.0140660
704.156	0.0142159
704.234	0.0141991
704.312	0.0143119
704.390	0.0142473
704.468	0.0143151
704.546	0.0141953
704.624	0.0142007
704.703	0.0141924
704.781	0.0144060
704.859	0.0141280
704.937	0.0141301
705.015	0.0142211
705.093	0.0141558
705.171	0.0140981
705.249	0.0142049
705.328	0.0139453
705.406	0.0139188
705.484	0.0139426
705.562	0.0137395
705.640	0.0137647
705.718	0.0138509
705.796	0.0137769
705.874	0.0138112
705.953	0.0136594
706.031	0.0138705
706.109	0.0138027
706.187	0.0138125
706.265	0.0137505
706.343	0.0138558
706.421	0.0138479
706.499	0.0139990
706.578	0.0141134
706.656	0.0141142
706.734	0.0140656
706.812	0.0140945
706.890	0.0140573
706.968	0.0141600
707.046	0.0141944
707.124	0.0143661
707.203	0.0142442
707.281	0.0143321
707.359	0.0142724
707.437	0.0143780
707.515	0.0141915
707.593	0.0140025
707.671	0.0141010
707.749	0.0141394
707.828	0.0139091
707.906	0.0138728
707.984	0.0137724
708.062	0.0136964
708.140	0.0137965
708.218	0.0136343
708.296	0.0137811
708.374	0.0137478
708.453	0.0136993
708.531	0.0137460
708.609	0.0138006
708.687	0.0140163
708.765	0.0139924
708.843	0.0141549
708.921	0.0141827
708.999	0.0141117
709.078	0.0144633
709.156	0.0143311
709.234	0.0143053
709.312	0.0142994
709.390	0.0143564
709.468	0.0141942
709.546	0.0142336
709.624	0.0142179
709.703	0.0140300
709.781	0.0140923
709.859	0.0140175
709.937	0.0138982
710.015	0.0137853
710.093	0.0137958
710.171	0.0138397
710.249	0.0136182
710.328	0.0136483
710.406	0.0137984
710.484	0.0137933
710.562	0.0137560
710.640	0.0138314
710.718	0.0137794
710.796	0.0138274
710.874	0.0139667
710.953	0.0140180
711.031	0.0141856
711.109	0.0141746
711.187	0.0142975
711.265	0.0142221
711.343	0.0142792
711.421	0.0143367
711.499	0.0141956
711.578	0.0141705
711.656	0.0141877
711.734	0.0142544
711.812	0.0142429
711.890	0.0140267
711.968	0.0140141
712.046	0.0140668
712.124	0.0139362
712.203	0.0139048
712.281	0.0137325
712.359	0.0136374
712.437	0.0136786
712.515	0.0137643
712.593	0.0137338
712.671	0.0137186
712.749	0.0138773
712.828	0.0138869
712.906	0.0139080
712.984	0.0139753
713.062	0.0138479
713.140	0.0138807
713.218	0.0141174
713.296	0.0139813
713.374	0.0141962
713.453	0.0141473
713.531	0.0140998
713.609	0.0141013
713.687	0.0141929
713.765	0.0141061
713.843	0.0141832
713.921	0.0141367
713.999	0.0142188
714.078	0.0140689
714.156	0.0140199
714.234	0.0139912
714.312	0.0140269
714.390	0.0139120
714.468	0.0138933
714.546	0.0139099
714.624	0.0139053
714.703	0.0138831
714.781	0.0138512
714.859	0.0137750
714.937	0.0137685
715.015	0.0138609
715.093	0.0139380
715.171	0.0138720
715.249	0.0139236
715.328	0.0139468
715.406	0.0140056
715.484	0.0140293
715.562	0.0140668
715.640	0.0140968
715.718	0.0142070
715.796	0.0142747
715.874	0.0141345
715.953	0.0142168
716.031	0.0142162
716.109	0.0142822
716.187	0.0143134
716.265	0.0142079
716.343	0.0142830
716.421	0.0141290
716.499	0.0141466
716.578	0.0141493
716.656	0.0141230
716.734	0.0139819
716.812	0.0140649
716.890	0.0140216
716.968	0.0139920
717.046	0.0140255
717.124	0.0137302
717.203	0.0138583
717.281	0.0139758
717.359	0.0138185
717.437	0.0137806
717.515	0.0138874
717.593	0.0138412
717.671	0.0137155
717.749	0.0139439
717.828	0.0139725
717.906	0.0137780
717.984	0.0138934
718.062	0.0139354
718.140	0.0139145
718.218	0.0139796
718.296	0.0140215
718.374	0.0139922
718.453	0.0140246
718.531	0.0141382
718.609	0.0140454
718.687	0.0140038
718.765	0.0141946
718.843	0.0140309
718.921	0.0139626
718.999	0.0139560
719.078	0.0139662
719.156	0.0140883
719.234	0.0139689
719.312	0.0138072
719.390	0.0137995
719.468	0.0139383
719.546	0.0139513
719.624	0.0139741
719.703	0.0137457
719.781	0.0138245
719.859	0.0137939
719.937	0.0139695
720.015	0.0139289
720.093	0.0139657
720.171	0.0139230
720.249	0.0139526
720.328	0.0140168
720.406	0.0140357
720.484	0.0141095
720.562	0.0140075
720.640	0.0140624
720.718	0.0140289
720.796	0.0140038
720.874	0.0140494
720.953	0.0139227
721.031	0.0139261
721.109	0.0138153
721.187	0.0138424
721.265	0.0139453
721.343	0.0138453
721.421	0.0138907
721.499	0.0139944
721.578	0.0138338
721.656	0.0138134
721.734	0.0138734
721.812	0.0138699
721.890	0.0137479
721.968	0.0137331
722.046	0.0137877
722.124	0.0138441
722.203	0.0137831
722.281	0.0138625
722.359	0.0139606
722.437	0.0140617
722.515	0.0139739
722.593	0.0140475
722.671	0.0141022
722.749	0.0140716
722.828	0.0141460
722.906	0.0140732
722.984	0.0141428
723.062	0.0141907
723.140	0.0140290
723.218	0.0139620
723.296	0.0139300
723.374	0.0139340
723.453	0.0141348
723.531	0.0139135
723.609	0.0140553
723.687	0.0140896
723.765	0.0140403
723.843	0.0139391
723.921	0.0140212
723.999	0.0139654
724.078	0.0139130
724.156	0.0139214
724.234	0.0140286
724.312	0.0139983
724.390	0.0140128
724.468	0.0138228
724.546	0.0140000
724.624	0.0140300
724.703	0.0141526
724.781	0.0140871
724.859	0.0140816
724.937	0.0140472
725.015	0.0140432
725.093	0.0139609
725.171	0.0140337
725.249	0.0140680
725.328	0.0139849
725.406	0.0140414
725.484	0.0139969
725.562	0.0140724
725.640	0.0140430
725.718	0.0139222
725.796	0.0140118
725.874	0.0140409
725.953	0.0139217
726.031	0.0139665
726.109	0.0138915
726.187	0.0138437
726.265	0.0139935
726.343	0.0140795
726.421	0.0140702
726.499	0.0139304
726.578	0.0140829
726.656	0.0139378
726.734	0.0139347
726.812	0.0140054
726.890	0.0140878
726.968	0.0141700
727.046	0.0140392
727.124	0.0140287
727.203	0.0141830
727.281	0.0141832
727.359	0.0141661
727.437	0.0140458
727.515	0.0140150
727.593	0.0139542
727.671	0.0140668
727.749	0.0141043
727.828	0.0140923
727.906	0.0140924
727.984	0.0139370
728.062	0.0139899
728.140	0.0139101
728.218	0.0140184
728.296	0.0139225
728.374	0.0139864
728.453	0.0138932
728.531	0.0139492
728.609	0.0139162
728.687	0.0138500
728.765	0.0137685
728.843	0.0137746
728.921	0.0137248
728.999	0.0137975
729.078	0.0138184
729.156	0.0139284
729.234	0.0139191
729.312	0.0138501
729.390	0.0139362
729.468	0.0139500
729.546	0.0140546
729.624	0.0142451
729.703	0.0140741
729.781	0.0141797
729.859	0.0141232
729.937	0.0142478
730.015	0.0140849
730.093	0.0140450
730.171	0.0142712
730.249	0.0142120
730.328	0.0141102
730.406	0.0140912
730.484	0.0139857
730.562	0.0140376
730.640	0.0139224
730.718	0.0139488
730.796	0.0138189
730.874	0.0139112
730.953	0.0139726
731.031	0.0140217
731.109	0.0137937
731.187	0.0138603
731.265	0.0139864
731.343	0.0139873
731.421	0.0140190
731.499	0.0140379
731.578	0.0139784
731.656	0.0140677
731.734	0.0140586
731.812	0.0141178
731.890	0.0140575
731.968	0.0140215
732.046	0.0140236
732.124	0.0140222
732.203	0.0140257
732.281	0.0139799
732.359	0.0140874
732.437	0.0140344
732.515	0.0139294
732.593	0.0139929
732.671	0.0139365
732.749	0.0139791
732.828	0.0139237
732.906	0.0139280
732.984	0.0139400
733.062	0.0140016
733.140	0.0138542
733.218	0.0139705
733.296	0.0139584
733.374	0.0139614
733.453	0.0139671
733.531	0.0139556
733.609	0.0139781
733.687	0.0138813
733.765	0.0140282
733.843	0.0139314
733.921	0.0140137
733.999	0.0141560
734.078	0.0140327
734.156	0.0140913
734.234	0.0138895
734.312	0.0139542
734.390	0.0140375
734.468	0.0139813
734.546	0.0139787
734.624	0.0139386
734.703	0.0140301
734.781	0.0138803
734.859	0.0138361
734.937	0.0140865
735.015	0.0138501
735.093	0.0140381
735.171	0.0139204
735.249	0.0139397
735.328	0.0139546
735.406	0.0141902
735.484	0.0140470
735.562	0.0140593
735.640	0.0140527
735.718	0.0141490
735.796	0.0141210
735.874	0.0142146
735.953	0.0140514
736.031	0.0141514
736.109	0.0141151
736.187	0.0141039
736.265	0.0140948
736.343	0.0141584
736.421	0.0142352
736.499	0.0141373
736.578	0.0139464
736.656	0.0140483
736.734	0.0140513
736.812	0.0141205
736.890	0.0140527
736.968	0.0139169
737.046	0.0138847
737.124	0.0139649
737.203	0.0139410
737.281	0.0140066
737.359	0.0138345
737.437	0.0139524
737.515	0.0139336
737.593	0.0138841
737.671	0.0139549
737.749	0.0138634
737.828	0.0139173
737.906	0.0138113
737.984	0.0138205
738.062	0.0137695
738.140	0.0139138
738.218	0.0138434
738.296	0.0138100
738.374	0.0137936
738.453	0.0137956
738.531	0.0138165
738.609	0.0139037
738.687	0.0138448
738.765	0.0138486
738.843	0.0139825
738.921	0.0139550
738.999	0.0139578
739.078	0.0139271
739.156	0.0139542
739.234	0.0140626
739.312	0.0139510
739.390	0.0141063
739.468	0.0138602
739.546	0.0140333
739.624	0.0139885
739.703	0.0139249
739.781	0.0140731
739.859	0.0139819
739.937	0.0139591
740.015	0.0137339
740.093	0.0137930
740.171	0.0137801
740.249	0.0137675
740.328	0.0136700
740.406	0.0137345
740.484	0.0138265
740.562	0.0138632
740.640	0.0137397
740.718	0.0138335
740.796	0.0138754
740.874	0.0138184
740.953	0.0138657
741.031	0.0137972
741.109	0.0140916
741.187	0.0138110
741.265	0.0139397
741.343	0.0139471
741.421	0.0139287
741.499	0.0139915
741.578	0.0139548
741.656	0.0138159
741.734	0.0139712
741.812	0.0138249
741.890	0.0138819
741.968	0.0139132
742.046	0.0139831
742.124	0.0140200
742.203	0.0139117
742.281	0.0140170
742.359	0.0139315
742.437	0.0139172
742.515	0.0138998
742.593	0.0137421
742.671	0.0139005
742.749	0.0139539
742.828	0.0139031
742.906	0.0138178
742.984	0.0138091
743.062	0.0137138
743.140	0.0138256
743.218	0.0138380
743.296	0.0137440
743.374	0.0137060
743.453	0.0137552
743.531	0.0137064
743.609	0.0138989
743.687	0.0137598
743.765	0.0138139
743.843	0.0136787
743.921	0.0137858
743.999	0.0139457
744.078	0.0137894
744.156	0.0138844
744.234	0.0138515
744.312	0.0138483
744.390	0.0139656
744.468	0.0138250
744.546	0.0139240
744.624	0.0139866
744.703	0.0140417
744.781	0.0140034
744.859	0.0140247
744.937	0.0139136
745.015	0.0141354
745.093	0.0140958
745.171	0.0139343
745.249	0.0138526
745.328	0.0140051
745.406	0.0139005
745.484	0.0140003
745.562	0.0139138
745.640	0.0139643
745.718	0.0139561
745.796	0.0139208
745.874	0.0138100
745.953	0.0138931
746.031	0.0139292
746.109	0.0138554
746.187	0.0139103
746.265	0.0138202
746.343	0.0139022
746.421	0.0140041
746.499	0.0140081
746.578	0.0139333
746.656	0.0139450
746.734	0.0140160
746.812	0.0139398
746.890	0.0139538
746.968	0.0140047
747.046	0.0139065
747.124	0.0140643
747.203	0.0139748
747.281	0.0140573
747.359	0.0140775
747.437	0.0140891
747.515	0.0141588
747.593	0.0140359
747.671	0.0140693
747.749	0.0141036
747.828	0.0140099
747.906	0.0139378
747.984	0.0139896
748.062	0.0141184
748.140	0.0139867
748.218	0.0139317
748.296	0.0141400
748.374	0.0139448
748.453	0.0137428
748.531	0.0139028
748.609	0.0139684
748.687	0.0139293
748.765	0.0139552
748.843	0.0138728
748.921	0.0138235
748.999	0.0139101
749.078	0.0139642
749.156	0.0139235
749.234	0.0138293
749.312	0.0140684
749.390	0.0139923
749.468	0.0139831
749.546	0.0139335
749.624	0.0139632
749.703	0.0140205
749.781	0.0139238
749.859	0.0140881
749.937	0.0140365
750.015	0.0141374
750.093	0.0141415
750.171	0.0140156
750.249	0.0139574
750.328	0.0141305
750.406	0.0142070
750.484	0.0140359
750.562	0.0140810
750.640	0.0140896
750.718	0.0140822
750.796	0.0139098
750.874	0.0140240
750.953	0.0140794
751.031	0.0139886
751.109	0.0139507
751.187	0.0139159
751.265	0.0139295
751.343	0.0139744
751.421	0.0140010
751.499	0.0139999
751.578	0.0139540
751.656	0.0139822
751.734	0.0139909
751.812	0.0138434
751.890	0.0138480
751.968	0.0139967
752.046	0.0139769
752.124	0.0137820
752.203	0.0139484
752.281	0.0140427
752.359	0.0141628
752.437	0.0139442
752.515	0.0138901
752.593	0.0140525
752.671	0.0140923
752.749	0.0140469
752.828	0.0139860
752.906	0.0141305
752.984	0.0139899
753.062	0.0140816
753.140	0.0141061
753.218	0.0140488
753.296	0.0141611
753.374	0.0140501
753.453	0.0140260
753.531	0.0140578
753.609	0.0140604
753.687	0.0139764
753.765	0.0141178
753.843	0.0141395
753.921	0.0139924
753.999	0.0139827
754.078	0.0140497
754.156	0.0140241
754.234	0.0140150
754.312	0.0138997
754.390	0.0137681
754.468	0.0138397
754.546	0.0140025
754.624	0.0137979
754.703	0.0137949
754.781	0.0140086
754.859	0.0139249
754.937	0.0138643
755.015	0.0139893
755.093	0.0139865
755.171	0.0139892
755.249	0.0141083
755.328	0.0139907
755.406	0.0139836
755.484	0.0139580
755.562	0.0141078
755.640	0.0140955
755.718	0.0140250
755.796	0.0140358
755.874	0.0140647
755.953	0.0139805
756.031	0.0139679
756.109	0.0140810
756.187	0.0140871
756.265	0.0140627
756.343	0.0139904
756.421	0.0140292
756.499	0.0140643
756.578	0.0139211
756.656	0.0139361
756.734	0.0139436
756.812	0.0139961
756.890	0.0139957
756.968	0.0139057
757.046	0.0138765
757.124	0.0138460
757.203	0.0138674
757.281	0.0138986
757.359	0.0139016
757.437	0.0139466
757.515	0.0138381
757.593	0.0137668
757.671	0.0138609
757.749	0.0138641
757.828	0.0137813
757.906	0.0139326
757.984	0.0137122
758.062	0.0138882
758.140	0.0139645
758.218	0.0140197
758.296	0.0140407
758.374	0.0138892
758.453	0.0138127
758.531	0.0139018
758.609	0.0138212
758.687	0.0137797
758.765	0.0138951
758.843	0.0137531
758.921	0.0138017
758.999	0.0139783
759.078	0.0140305
759.156	0.0138853
759.234	0.0138959
759.312	0.0138699
759.390	0.0137787
759.468	0.0139153
759.546	0.0139715
759.624	0.0139179
759.703	0.0139558
759.781	0.0139722
759.859	0.0137804
759.937	0.0137520
760.015	0.0139268
760.093	0.0140472
760.171	0.0138850
760.249	0.0139418
760.328	0.0137719
760.406	0.0139113
760.484	0.0137704
760.562	0.0137589
760.640	0.0138944
760.718	0.0138461
760.796	0.0139233
760.874	0.0139302
760.953	0.0138405
761.031	0.0137732
761.109	0.0138331
761.187	0.0138147
761.265	0.0137009
761.343	0.0137125
761.421	0.0138863
761.499	0.0138692
761.578	0.0138689
761.656	0.0138775
761.734	0.0139172
761.812	0.0140205
761.890	0.0139861
761.968	0.0140115
762.046	0.0140282
762.124	0.0140468
762.203	0.0138894
762.281	0.0140591
762.359	0.0138960
762.437	0.0138733
762.515	0.0139720
762.593	0.0139586
762.671	0.0139120
762.749	0.0139516
762.828	0.0138418
762.906	0.0139848
762.984	0.0139888
763.062	0.0138626
763.140	0.0139854
763.218	0.0138966
763.296	0.0139487
763.374	0.0138380
763.453	0.0139433
763.531	0.0139418
763.609	0.0137672
763.687	0.0138131
763.765	0.0138808
763.843	0.0138805
763.921	0.0137874
763.999	0.0138390
764.078	0.0139174
764.156	0.0138432
764.234	0.0137923
764.312	0.0136884
764.390	0.0138083
764.468	0.0138010
764.546	0.0137988
764.624	0.0138130
764.703	0.0139439
764.781	0.0138819
764.859	0.0137038
764.937	0.0139252
765.015	0.0138587
765.093	0.0136687
765.171	0.0138467
765.249	0.0138699
765.328	0.0138447
765.406	0.0139333
765.484	0.0140716
765.562	0.0140269
765.640	0.0138985
765.718	0.0139235
765.796	0.0139066
765.874	0.0138660
765.953	0.0139278
766.031	0.0139220
766.109	0.0138498
766.187	0.0138402
766.265	0.0139241
766.343	0.0137811
766.421	0.0137503
766.499	0.0137834
766.578	0.0138608
766.656	0.0137831
766.734	0.0138691
766.812	0.0138634
766.890	0.0138985
766.968	0.0139539
767.046	0.0137480
767.124	0.0138909
767.203	0.0138560
767.281	0.0138120
767.359	0.0139106
767.437	0.0139429
767.515	0.0138493
767.593	0.0138303
767.671	0.0137819
767.749	0.0138875
767.828	0.0139607
767.906	0.0139233
767.984	0.0138993
768.062	0.0138042
768.140	0.0137566
768.218	0.0138837
768.296	0.0137904
768.374	0.0139631
768.453	0.0139164
768.531	0.0139196
768.609	0.0138333
768.687	0.0139600
768.765	0.0139699
768.843	0.0139787
768.921	0.0139999
768.999	0.0139223
769.078	0.0139796
769.156	0.0139616
769.234	0.0139218
769.312	0.0140090
769.390	0.0140372
769.468	0.0139006
769.546	0.0139503
769.624	0.0139071
769.703	0.0138070
769.781	0.0138661
769.859	0.0139066
769.937	0.0140378
770.015	0.0140262
770.093	0.0139802
770.171	0.0137700
770.249	0.0139622
770.328	0.0140135
770.406	0.0139806
770.484	0.0138855
770.562	0.0138572
770.640	0.0139312
770.718	0.0139651
770.796	0.0139648
770.874	0.0139896
770.953	0.0140384
771.031	0.0138215
771.109	0.0136703
771.187	0.0139368
771.265	0.0138718
771.343	0.0138978
771.421	0.0139392
771.499	0.0139478
771.578	0.0139443
771.656	0.0138895
771.734	0.0137401
771.812	0.0137321
771.890	0.0137852
771.968	0.0138842
772.046	0.0138651
772.124	0.0139650
772.203	0.0139199
772.281	0.0140521
772.359	0.0139876
772.437	0.0139552
772.515	0.0140486
772.593	0.0139841
772.671	0.0140054
772.749	0.0139104
772.828	0.0140911
772.906	0.0140699
772.984	0.0138598
773.062	0.0139578
773.140	0.0139757
773.218	0.0140739
773.296	0.0140828
773.374	0.0140833
773.453	0.0140807
773.531	0.0140408
773.609	0.0140278
773.687	0.0140689
773.765	0.0140698
773.843	0.0140350
773.921	0.0139632
773.999	0.0139570
774.078	0.0139145
774.156	0.0138928
774.234	0.0139476
774.312	0.0139098
774.390	0.0139702
774.468	0.0138811
774.546	0.0140468
774.624	0.0139700
774.703	0.0139340
774.781	0.0140937
774.859	0.0141358
774.937	0.0140012
775.015	0.0139279
775.093	0.0139688
775.171	0.0140257
775.249	0.0139850
775.328	0.0140187
775.406	0.0140715
775.484	0.0140732
775.562	0.0140253
775.640	0.0140768
775.718	0.0139984
775.796	0.0140627
775.874	0.0140589
775.953	0.0140546
776.031	0.0139975
776.109	0.0140297
776.187	0.0140710
776.265	0.0141673
776.343	0.0141019
776.421	0.0140166
776.499	0.0140450
776.578	0.0139770
776.656	0.0139185
776.734	0.0139758
776.812	0.0139590
776.890	0.0138042
776.968	0.0140826
777.046	0.0140141
777.124	0.0138012
777.203	0.0138599
777.281	0.0137856
777.359	0.0139449
777.437	0.0139099
777.515	0.0138781
777.593	0.0139244
777.671	0.0139381
777.749	0.0140904
777.828	0.0139442
777.906	0.0140208
777.984	0.0138985
778.062	0.0140366
778.140	0.0139902
778.218	0.0141018
778.296	0.0140469
778.374	0.0140889
778.453	0.0141965
778.531	0.0141837
778.609	0.0142065
778.687	0.0141581
778.765	0.0140005
778.843	0.0141879
778.921	0.0140727
778.999	0.0141615
779.078	0.0141526
779.156	0.0140298
779.234	0.0140659
779.312	0.0140532
779.390	0.0139833
779.468	0.0138803
779.546	0.0141171
779.624	0.0139375
779.703	0.0139494
779.781	0.0139287
779.859	0.0139084
779.937	0.0139044
780.015	0.0137692
780.093	0.0139463
780.171	0.0139404
780.249	0.0139217
780.328	0.0139067
780.406	0.0138750
780.484	0.0139343
780.562	0.0139037
780.640	0.0138928
780.718	0.0139158
780.796	0.0138873
780.874	0.0139278
780.953	0.0137659
781.031	0.0138731
781.109	0.0139426
781.187	0.0138837
781.265	0.0140312
781.343	0.0139581
781.421	0.0140020
781.499	0.0141290
781.578	0.0142039
781.656	0.0139938
781.734	0.0139982
781.812	0.0140297
781.890	0.0140079
781.968	0.0141015
782.046	0.0141365
782.124	0.0141210
782.203	0.0141149
782.281	0.0140514
782.359	0.0140198
782.437	0.0141210
782.515	0.0141022
782.593	0.0140804
782.671	0.0141199
782.749	0.0141872
782.828	0.0142659
782.906	0.0141491
782.984	0.0140849
783.062	0.0141747
783.140	0.0142256
783.218	0.0138879
783.296	0.0140256
783.374	0.0140050
783.453	0.0139390
783.531	0.0139285
783.609	0.0140261
783.687	0.0140321
783.765	0.0138391
783.843	0.0139411
783.921	0.0139271
783.999	0.0138267
784.078	0.0138513
784.156	0.0138361
784.234	0.0139625
784.312	0.0139148
784.390	0.0138026
784.468	0.0137612
784.546	0.0136746
784.624	0.0137142
784.703	0.0138455
784.781	0.0139716
784.859	0.0140495
784.937	0.0140006
785.015	0.0140411
785.093	0.0141730
785.171	0.0140615
785.249	0.0139990
785.328	0.0139849
785.406	0.0140993
785.484	0.0141910
785.562	0.0142715
785.640	0.0142192
785.718	0.0141692
785.796	0.0141457
785.874	0.0141174
785.953	0.0141093
786.031	0.0141843
786.109	0.0142137
786.187	0.0140546
786.265	0.0140806
786.343	0.0141167
786.421	0.0140860
786.499	0.0139600
786.578	0.0139089
786.656	0.0140186
786.734	0.0139218
786.812	0.0139106
786.890	0.0140928
786.968	0.0140714
787.046	0.0139764
787.124	0.0138498
787.203	0.0139052
787.281	0.0140138
787.359	0.0139768
787.437	0.0138696
787.515	0.0137569
787.593	0.0138658
787.671	0.0137618
787.749	0.0137488
787.828	0.0139149
787.906	0.0139539
787.984	0.0138447
788.062	0.0138866
788.140	0.0138831
788.218	0.0139501
788.296	0.0139951
788.374	0.0138797
788.453	0.0140695
788.531	0.0139223
788.609	0.0138963
788.687	0.0141093
788.765	0.0141598
788.843	0.0142585
788.921	0.0141631
788.999	0.0141928
789.078	0.0142223
789.156	0.0141392
789.234	0.0141892
789.312	0.0143210
789.390	0.0142219
789.468	0.0141470
789.546	0.0140503
789.624	0.0140307
789.703	0.0141605
789.781	0.0141171
789.859	0.0141092
789.937	0.0139449
790.015	0.0139140
790.093	0.0138428
790.171	0.0140596
790.249	0.0138731
790.328	0.0138412
790.406	0.0138344
790.484	0.0138329
790.562	0.0138728
790.640	0.0136660
790.718	0.0136143
790.796	0.0136726
790.874	0.0138453
790.953	0.0136600
791.031	0.0136139
791.109	0.0138504
791.187	0.0138026
791.265	0.0139284
791.343	0.0138673
791.421	0.0137369
791.499	0.0138130
791.578	0.0140046
791.656	0.0138999
791.734	0.0139610
791.812	0.0138885
791.890	0.0141116
791.968	0.0140434
792.046	0.0140827
792.124	0.0140530
792.203	0.0139925
792.281	0.0141273
792.359	0.0142327
792.437	0.0140493
792.515	0.0139126
792.593	0.0140151
792.671	0.0140276
792.749	0.0139851
792.828	0.0138489
792.906	0.0138013
792.984	0.0138985
793.062	0.0137401
793.140	0.0138433
793.218	0.0136507
793.296	0.0136832
793.374	0.0136821
793.453	0.0138017
793.531	0.0136903
793.609	0.0137241
793.687	0.0138615
793.765	0.0137827
793.843	0.0137988
793.921	0.0137235
793.999	0.0137398
794.078	0.0138253
794.156	0.0138213
794.234	0.0136817
794.312	0.0137809
794.390	0.0138193
794.468	0.0138212
794.546	0.0138434
794.624	0.0138713
794.703	0.0139805
794.781	0.0139445
794.859	0.0139037
794.937	0.0138975
795.015	0.0138443
795.093	0.0139546
795.171	0.0140214
795.249	0.0139604
795.328	0.0140018
795.406	0.0139365
795.484	0.0139530
795.562	0.0139345
795.640	0.0138863
795.718	0.0139162
795.796	0.0139384
795.874	0.0138956
795.953	0.0138283
796.031	0.0138483
796.109	0.0138952
796.187	0.0137395
796.265	0.0138140
796.343	0.0137402
796.421	0.0137159
796.499	0.0138138
796.578	0.0138255
796.656	0.0138481
796.734	0.0137291
796.812	0.0136469
796.890	0.0137627
796.968	0.0138060
797.046	0.0138358
797.124	0.0138771
797.203	0.0137859
797.281	0.0137556
797.359	0.0137003
797.437	0.0138890
797.515	0.0137534
797.593	0.0139532
797.671	0.0139063
797.749	0.0138794
797.828	0.0139562
797.906	0.0140575
797.984	0.0139069
798.062	0.0139078
798.140	0.0140168
798.218	0.0140907
798.296	0.0139117
798.374	0.0140784
798.453	0.0141142
798.531	0.0140308
798.609	0.0140924
798.687	0.0140209
798.765	0.0140931
798.843	0.0141367
798.921	0.0141503
798.999	0.0141470
799.078	0.0139877
799.156	0.0141386
799.234	0.0141172
799.312	0.0139627
799.390	0.0140990
799.468	0.0139519
799.546	0.0139957
799.624	0.0140167
799.703	0.0138776
799.781	0.0138394
799.859	0.0139016
799.937	0.0138678
800.015	0.0137602
800.093	0.0137974
800.171	0.0138217
800.249	0.0139016
800.328	0.0139058
800.406	0.0139676
800.484	0.0138969
800.562	0.0139342
800.640	0.0138913
800.718	0.0137771
800.796	0.0138049
800.874	0.0139124
800.953	0.0140053
801.031	0.0141049
801.109	0.0140170
801.187	0.0139226
801.265	0.0140030
801.343	0.0139800
801.421	0.0141003
801.499	0.0141808
801.578	0.0140564
801.656	0.0138385
801.734	0.0140620
801.812	0.0141113
801.890	0.0141322
801.968	0.0140126
802.046	0.0140789
802.124	0.0141216
802.203	0.0141196
802.281	0.0140482
802.359	0.0140976
802.437	0.0141226
802.515	0.0138781
802.593	0.0139189
802.671	0.0139291
802.749	0.0140430
802.828	0.0139871
802.906	0.0140804
802.984	0.0139906
803.062	0.0139889
803.140	0.0138699
803.218	0.0139384
803.296	0.0139376
803.374	0.0139133
803.453	0.0139422
803.531	0.0140813
803.609	0.0139169
803.687	0.0137720
803.765	0.0139807
803.843	0.0139907
803.921	0.0139053
803.999	0.0139989
804.078	0.0139917
804.156	0.0139741
804.234	0.0139785
804.312	0.0139965
804.390	0.0141032
804.468	0.0139833
804.546	0.0139333
804.624	0.0140554
804.703	0.0139646
804.781	0.0139477
804.859	0.0140302
804.937	0.0139346
805.015	0.0141034
805.093	0.0141751
805.171	0.0141561
805.249	0.0141154
805.328	0.0139846
805.406	0.0140759
805.484	0.0140029
805.562	0.0140986
805.640	0.0141339
805.718	0.0139677
805.796	0.0141705
805.874	0.0140629
805.953	0.0140875
806.031	0.0140670
806.109	0.0140821
806.187	0.0139711
806.265	0.0140702
806.343	0.0140264
806.421	0.0140232
806.499	0.0139583
806.578	0.0140189
806.656	0.0140481
806.734	0.0140047
806.812	0.0139869
806.890	0.0138533
806.968	0.0139542
807.046	0.0139669
807.124	0.0138654
807.203	0.0139267
807.281	0.0138940
807.359	0.0138155
807.437	0.0138750
807.515	0.0139671
807.593	0.0139912
807.671	0.0138190
807.749	0.0139520
807.828	0.0140279
807.906	0.0140443
807.984	0.0141300
808.062	0.0142477
808.140	0.0141674
808.218	0.0142240
808.296	0.0142384
808.374	0.0142273
808.453	0.0142500
808.531	0.0141057
808.609	0.0143027
808.687	0.0140777
808.765	0.0142409
808.843	0.0142374
808.921	0.0141529
808.999	0.0140862
809.078	0.0142693
809.156	0.0140581
809.234	0.0139908
809.312	0.0141134
809.390	0.0140019
809.468	0.0140149
809.546	0.0140495
809.624	0.0140554
809.703	0.0138364
809.781	0.0139606
809.859	0.0139854
809.937	0.0140831
810.015	0.0139012
810.093	0.0139805
810.171	0.0138494
810.249	0.0139209
810.328	0.0139467
810.406	0.0139233
810.484	0.0138704
810.562	0.0138994
810.640	0.0139864
810.718	0.0139999
810.796	0.0139600
810.874	0.0139439
810.953	0.0137505
811.031	0.0139258
811.109	0.0140488
811.187	0.0140318
811.265	0.0140353
811.343	0.0139288
811.421	0.0141612
811.499	0.0141092
811.578	0.0139935
811.656	0.0140156
811.734	0.0140427
811.812	0.0140015
811.890	0.0141260
811.968	0.0140641
812.046	0.0140358
812.124	0.0141488
812.203	0.0139878
812.281	0.0140525
812.359	0.0138864
812.437	0.0139570
812.515	0.0141489
812.593	0.0140695
812.671	0.0140030
812.749	0.0139962
812.828	0.0139822
812.906	0.0139764
812.984	0.0139330
813.062	0.0138548
813.140	0.0139536
813.218	0.0139126
813.296	0.0139012
813.374	0.0140174
813.453	0.0138763
813.531	0.0138946
813.609	0.0138331
813.687	0.0138086
813.765	0.0138538
813.843	0.0136684
813.921	0.0137497
813.999	0.0138871
814.078	0.0137855
814.156	0.0136707
814.234	0.0138491
814.312	0.0138077
814.390	0.0139207
814.468	0.0139631
814.546	0.0139127
814.624	0.0140250
814.703	0.0139352
814.781	0.0140567
814.859	0.0141013
814.937	0.0139978
815.015	0.0141982
815.093	0.0140715
815.171	0.0140832
815.249	0.0141631
815.328	0.0141322
815.406	0.0140918
815.484	0.0140945
815.562	0.0141878
815.640	0.0142303
815.718	0.0140163
815.796	0.0141257
815.874	0.0140543
815.953	0.0141805
816.031	0.0139590
816.109	0.0140360
816.187	0.0139674
816.265	0.0140012
816.343	0.0138931
816.421	0.0139871
816.499	0.0139722
816.578	0.0139547
816.656	0.0138103
816.734	0.0137062
816.812	0.0138861
816.890	0.0138276
816.968	0.0139898
817.046	0.0137400
817.124	0.0137504
817.203	0.0138184
817.281	0.0138043
817.359	0.0138223
817.437	0.0137865
817.515	0.0138153
817.593	0.0138978
817.671	0.0139219
817.749	0.0139087
817.828	0.0138868
817.906	0.0138512
817.984	0.0139493
818.062	0.0139259
818.140	0.0139528
818.218	0.0139463
818.296	0.0139622
818.374	0.0139468
818.453	0.0138000
818.531	0.0138517
818.609	0.0139619
818.687	0.0139443
818.765	0.0139302
818.843	0.0138531
818.921	0.0138676
818.999	0.0137083
819.078	0.0137866
819.156	0.0138538
819.234	0.0138770
819.312	0.0137613
819.390	0.0137564
819.468	0.0138582
819.546	0.0138967
819.624	0.0138370
819.703	0.0137594
819.781	0.0137191
819.859	0.0137972
819.937	0.0138147
820.015	0.0138661
820.093	0.0137911
820.171	0.0137637
820.249	0.0136710
820.328	0.0137175
820.406	0.0137865
820.484	0.0137624
820.562	0.0137815
820.640	0.0136355
820.718	0.0136615
820.796	0.0139167
820.874	0.0137418
820.953	0.0136936
821.031	0.0137140
821.109	0.0138260
821.187	0.0138216
821.265	0.0137910
821.343	0.0138877
821.421	0.0139796
821.499	0.0138503
821.578	0.0138434
821.656	0.0138173
821.734	0.0138709
821.812	0.0138900
821.890	0.0137772
821.968	0.0138667
822.046	0.0137675
822.124	0.0139311
822.203	0.0138781
822.281	0.0138245
822.359	0.0138976
822.437	0.0138188
822.515	0.0137447
822.593	0.0137769
822.671	0.0138512
822.749	0.0138450
822.828	0.0137202
822.906	0.0137587
822.984	0.0139565
823.062	0.0138100
823.140	0.0137894
823.218	0.0137650
823.296	0.0138428
823.374	0.0137425
823.453	0.0137533
823.531	0.0137096
823.609	0.0135299
823.687	0.0137015
823.765	0.0136902
823.843	0.0137486
823.921	0.0138424
823.999	0.0138833
824.078	0.0137908
824.156	0.0138060
824.234	0.0137676
824.312	0.0139541
824.390	0.0137532
824.468	0.0139593
824.546	0.0137984
824.624	0.0138180
824.703	0.0139176
824.781	0.0139035
824.859	0.0138148
824.937	0.0138186
825.015	0.0138839
825.093	0.0139746
825.171	0.0139868
825.249	0.0138935
825.328	0.0138116
825.406	0.0139200
825.484	0.0139117
825.562	0.0139542
825.640	0.0139005
825.718	0.0138866
825.796	0.0139648
825.874	0.0138491
825.953	0.0139328
826.031	0.0139279
826.109	0.0138663
826.187	0.0139427
826.265	0.0139168
826.343	0.0140092
826.421	0.0139193
826.499	0.0137526
826.578	0.0139343
826.656	0.0139144
826.734	0.0137708
826.812	0.0138618
826.890	0.0138612
826.968	0.0137869
827.046	0.0139615
827.124	0.0138657
827.203	0.0138942
827.281	0.0138110
827.359	0.0138389
827.437	0.0139756
827.515	0.0139087
827.593	0.0139091
827.671	0.0139673
827.749	0.0139336
827.828	0.0140918
827.906	0.0139378
827.984	0.0139943
828.062	0.0140444
828.140	0.0140338
828.218	0.0141186
828.296	0.0140836
828.374	0.0139819
828.453	0.0141203
828.531	0.0141360
828.609	0.0140624
828.687	0.0140974
828.765	0.0140968
828.843	0.0141541
828.921	0.0140919
828.999	0.0141049
829.078	0.0141273
829.156	0.0141273
829.234	0.0141263
829.312	0.0140587
829.390	0.0140878
829.468	0.0142186
829.546	0.0139392
829.624	0.0139747
829.703	0.0139828
829.781	0.0140924
829.859	0.0140704
829.937	0.0139513
830.015	0.0140447
830.093	0.0140389
830.171	0.0140421
830.249	0.0140314
830.328	0.0140002
830.406	0.0141685
830.484	0.0139384
830.562	0.0140900
830.640	0.0139391
830.718	0.0141077
830.796	0.0140034
830.874	0.0138526
830.953	0.0141273
831.031	0.0139816
831.109	0.0141858
831.187	0.0140379
831.265	0.0142364
831.343	0.0139816
831.421	0.0139617
831.499	0.0142487
831.578	0.0141480
831.656	0.0140462
831.734	0.0140208
831.812	0.0140170
831.890	0.0140865
831.968	0.0142599
832.046	0.0140495
832.124	0.0141896
832.203	0.0140501
832.281	0.0139723
832.359	0.0141588
832.437	0.0140584
832.515	0.0139613
832.593	0.0140519
832.671	0.0141388
832.749	0.0140301
832.828	0.0139907
832.906	0.0140002
832.984	0.0140244
833.062	0.0139754
833.140	0.0138670
833.218	0.0140280
833.296	0.0139320
833.374	0.0139481
833.453	0.0140633
833.531	0.0140044
833.609	0.0140090
833.687	0.0139247
833.765	0.0139511
833.843	0.0140306
833.921	0.0139660
833.999	0.0139684
834.078	0.0139144
834.156	0.0139824
834.234	0.0141242
834.312	0.0138940
834.390	0.0141420
834.468	0.0140094
834.546	0.0141186
834.624	0.0140718
834.703	0.0140932
834.781	0.0141589
834.859	0.0140401
834.937	0.0139363
835.015	0.0141095
835.093	0.0140753
835.171	0.0140173
835.249	0.0140376
835.328	0.0140314
835.406	0.0139371
835.484	0.0139037
835.562	0.0141415
835.640	0.0139353
835.718	0.0139701
835.796	0.0140900
835.874	0.0139691
835.953	0.0140525
836.031	0.0140126
836.109	0.0140482
836.187	0.0140265
836.265	0.0140903
836.343	0.0139580
836.421	0.0139064
836.499	0.0138933
836.578	0.0140405
836.656	0.0141061
836.734	0.0139422
836.812	0.0139970
836.890	0.0142197
836.968	0.0140053
837.046	0.0139201
837.124	0.0139903
837.203	0.0140332
837.281	0.0139971
837.359	0.0139233
837.437	0.0138659
837.515	0.0140095
837.593	0.0139555
837.671	0.0139413
837.749	0.0140404
837.828	0.0138869
837.906	0.0138454
837.984	0.0139292
838.062	0.0139476
838.140	0.0138885
838.218	0.0139268
838.296	0.0138746
838.374	0.0139651
838.453	0.0138729
838.531	0.0139720
838.609	0.0139818
838.687	0.0139693
838.765	0.0139355
838.843	0.0138640
838.921	0.0139490
838.999	0.0140632
839.078	0.0140426
839.156	0.0138616
839.234	0.0140214
839.312	0.0139429
839.390	0.0139342
839.468	0.0139560
839.546	0.0138793
839.624	0.0139583
839.703	0.0138155
839.781	0.0138866
839.859	0.0138534
839.937	0.0138914
840.015	0.0138934
840.093	0.0138049
840.171	0.0138883
840.249	0.0138985
840.328	0.0138763
840.406	0.0139267
840.484	0.0138797
840.562	0.0138289
840.640	0.0138734
840.718	0.0138586
840.796	0.0138048
840.874	0.0138514
840.953	0.0138834
841.031	0.0137899
841.109	0.0138154
841.187	0.0138335
841.265	0.0138716
841.343	0.0137977
841.421	0.0137981
841.499	0.0139156
841.578	0.0138248
841.656	0.0138274
841.734	0.0137392
841.812	0.0136951
841.890	0.0138813
841.968	0.0139181
842.046	0.0139678
842.124	0.0138512
842.203	0.0137920
842.281	0.0138233
842.359	0.0138732
842.437	0.0139266
842.515	0.0137746
842.593	0.0138510
842.671	0.0137674
842.749	0.0139109
842.828	0.0139079
842.906	0.0138765
842.984	0.0138335
843.062	0.0138763
843.140	0.0139386
843.218	0.0138264
843.296	0.0138901
843.374	0.0137532
843.453	0.0138254
843.531	0.0137307
843.609	0.0136704
843.687	0.0137659
843.765	0.0137454
843.843	0.0136855
843.921	0.0137801
843.999	0.0137624
844.078	0.0137650
844.156	0.0137254
844.234	0.0137734
844.312	0.0137174
844.390	0.0138652
844.468	0.0138591
844.546	0.0138319
844.624	0.0138232
844.703	0.0138534
844.781	0.0137686
844.859	0.0137633
844.937	0.0138737
845.015	0.0139140
845.093	0.0138891
845.171	0.0139873
845.249	0.0138143
845.328	0.0139388
845.406	0.0139893
845.484	0.0139458
845.562	0.0138532
845.640	0.0139191
845.718	0.0139104
845.796	0.0140504
845.874	0.0138161
845.953	0.0138318
846.031	0.0137205
846.109	0.0139181
846.187	0.0138084
846.265	0.0138490
846.343	0.0139057
846.421	0.0139156
846.499	0.0138747
846.578	0.0137977
846.656	0.0138441
846.734	0.0137580
846.812	0.0137434
846.890	0.0138773
846.968	0.0139894
847.046	0.0139471
847.124	0.0137788
847.203	0.0139185
847.281	0.0140013
847.359	0.0138760
847.437	0.0138438
847.515	0.0139732
847.593	0.0139133
847.671	0.0139130
847.749	0.0139393
847.828	0.0140567
847.906	0.0140958
847.984	0.0138845
848.062	0.0138630
848.140	0.0140405
848.218	0.0138600
848.296	0.0138996
848.374	0.0139203
848.453	0.0138646
848.531	0.0139386
848.609	0.0139543
848.687	0.0139333
848.765	0.0139885
848.843	0.0139545
848.921	0.0139077
848.999	0.0138712
849.078	0.0139310
849.156	0.0139627
849.234	0.0138266
849.312	0.0138229
849.390	0.0139307
849.468	0.0139403
849.546	0.0139021
849.624	0.0138491
849.703	0.0139159
849.781	0.0138486
849.859	0.0139263
849.937	0.0138891
850.015	0.0139484
850.093	0.0140322
850.171	0.0138293
850.249	0.0139838
850.328	0.0138993
850.406	0.0139123
850.484	0.0139849
850.562	0.0139403
850.640	0.0139347
850.718	0.0138898
850.796	0.0140775
850.874	0.0140091
850.953	0.0141317
851.031	0.0140774
851.109	0.0140253
851.187	0.0140179
851.265	0.0139327
851.343	0.0141192
851.421	0.0139904
851.499	0.0139845
851.578	0.0140365
851.656	0.0139159
851.734	0.0138618
851.812	0.0139122
851.890	0.0141039
851.968	0.0139110
852.046	0.0140196
852.124	0.0141492
852.203	0.0138947
852.281	0.0138767
852.359	0.0139621
852.437	0.0137393
852.515	0.0139802
852.593	0.0138964
852.671	0.0139223
852.749	0.0138735
852.828	0.0139365
852.906	0.0138986
852.984	0.0138248
853.062	0.0139572
853.140	0.0138801
853.218	0.0137954
853.296	0.0139561
853.374	0.0140397
853.453	0.0140400
853.531	0.0140011
853.609	0.0140104
853.687	0.0139719
853.765	0.0141111
853.843	0.0139725
853.921	0.0139812
853.999	0.0140974
854.078	0.0141084
854.156	0.0140410
854.234	0.0140025
854.312	0.0140274
854.390	0.0140949
854.468	0.0139989
854.546	0.0140364
854.624	0.0140047
854.703	0.0140991
854.781	0.0139422
854.859	0.0140155
854.937	0.0140416
855.015	0.0139262
855.093	0.0138907
855.171	0.0138142
855.249	0.0139480
855.328	0.0139002
855.406	0.0138099
855.484	0.0139725
855.562	0.0139602
855.640	0.0138583
855.718	0.0138513
855.796	0.0139207
855.874	0.0139349
855.953	0.0138761
856.031	0.0139603
856.109	0.0138508
856.187	0.0138853
856.265	0.0139716
856.343	0.0138947
856.421	0.0138288
856.499	0.0140370
856.578	0.0140540
856.656	0.0140672
856.734	0.0139497
856.812	0.0139983
856.890	0.0140251
856.968	0.0139400
857.046	0.0140690
857.124	0.0140018
857.203	0.0140030
857.281	0.0140991
857.359	0.0139324
857.437	0.0140879
857.515	0.0141530
857.593	0.0140231
857.671	0.0138834
857.749	0.0139481
857.828	0.0138661
857.906	0.0139084
857.984	0.0139404
858.062	0.0139863
858.140	0.0139022
858.218	0.0139520
858.296	0.0137827
858.374	0.0139060
858.453	0.0138531
858.531	0.0139931
858.609	0.0138628
858.687	0.0138707
858.765	0.0139304
858.843	0.0138797
858.921	0.0139778
858.999	0.0140856
859.078	0.0140143
859.156	0.0139099
859.234	0.0140089
859.312	0.0141260
859.390	0.0140128
859.468	0.0139742
859.546	0.0139309
859.624	0.0138494
859.703	0.0139999
859.781	0.0138534
859.859	0.0139791
859.937	0.0139589
860.015	0.0139392
860.093	0.0139786
860.171	0.0140606
860.249	0.0140195
860.328	0.0138688
860.406	0.0138620
860.484	0.0138002
860.562	0.0138197
860.640	0.0138755
860.718	0.0140422
860.796	0.0138450
860.874	0.0138744
860.953	0.0137273
861.031	0.0139468
861.109	0.0138574
861.187	0.0138029
861.265	0.0138718
861.343	0.0140022
861.421	0.0139415
861.499	0.0139978
861.578	0.0138896
861.656	0.0138781
861.734	0.0139902
861.812	0.0140340
861.890	0.0139780
861.968	0.0139030
862.046	0.0139639
862.124	0.0140204
862.203	0.0140247
862.281	0.0141006
862.359	0.0139171
862.437	0.0140688
862.515	0.0139906
862.593	0.0140027
862.671	0.0139140
862.749	0.0140571
862.828	0.0139757
862.906	0.0138223
862.984	0.0139384
863.062	0.0138748
863.140	0.0138290
863.218	0.0139107
863.296	0.0138157
863.374	0.0138965
863.453	0.0139742
863.531	0.0138984
863.609	0.0138063
863.687	0.0138339
863.765	0.0138560
863.843	0.0138734
863.921	0.0138968
863.999	0.0138364
864.078	0.0137548
864.156	0.0140131
864.234	0.0138707
864.312	0.0138860
864.390	0.0137133
864.468	0.0138628
864.546	0.0138680
864.624	0.0139431
864.703	0.0139442
864.781	0.0137946
864.859	0.0138525
864.937	0.0139336
865.015	0.0139257
865.093	0.0140490
865.171	0.0141054
865.249	0.0139085
865.328	0.0140025
865.406	0.0138345
865.484	0.0139812
865.562	0.0138671
865.640	0.0139196
865.718	0.0140266
865.796	0.0140455
865.874	0.0139576
865.953	0.0139186
866.031	0.0140071
866.109	0.0139470
866.187	0.0139351
866.265	0.0138296
866.343	0.0139489
866.421	0.0138664
866.499	0.0139006
866.578	0.0138618
866.656	0.0138491
866.734	0.0138238
866.812	0.0138334
866.890	0.0138853
866.968	0.0139233
867.046	0.0140112
867.124	0.0138931
867.203	0.0139084
867.281	0.0139993
867.359	0.0139672
867.437	0.0139173
867.515	0.0140345
867.593	0.0139324
867.671	0.0138732
867.749	0.0139107
867.828	0.0141018
867.906	0.0139502
867.984	0.0139410
868.062	0.0138920
868.140	0.0139953
868.218	0.0140543
868.296	0.0140353
868.374	0.0141171
868.453	0.0140440
868.531	0.0137703
868.609	0.0139023
868.687	0.0139340
868.765	0.0138354
868.843	0.0139524
868.921	0.0138489
868.999	0.0139494
869.078	0.0139823
869.156	0.0138222
869.234	0.0138667
869.312	0.0138453
869.390	0.0139090
869.468	0.0138458
869.546	0.0139002
869.624	0.0139192
869.703	0.0138520
869.781	0.0139417
869.859	0.0139840
869.937	0.0139452
870.015	0.0139706
870.093	0.0139489
870.171	0.0138835
870.249	0.0139507
870.328	0.0139845
870.406	0.0139659
870.484	0.0140433
870.562	0.0139423
870.640	0.0139482
870.718	0.0140297
870.796	0.0140287
870.874	0.0139533
870.953	0.0139578
871.031	0.0140450
871.109	0.0139185
871.187	0.0140626
871.265	0.0140382
871.343	0.0139739
871.421	0.0139629
871.499	0.0140155
871.578	0.0138109
871.656	0.0139941
871.734	0.0138687
871.812	0.0138438
871.890	0.0139105
871.968	0.0139038
872.046	0.0137978
872.124	0.0140085
872.203	0.0139095
872.281	0.0139907
872.359	0.0140752
872.437	0.0141052
872.515	0.0139965
872.593	0.0139295
872.671	0.0139821
872.749	0.0140498
872.828	0.0140989
872.906	0.0140715
872.984	0.0140092
873.062	0.0141218
873.140	0.0140934
873.218	0.0141029
873.296	0.0140755
873.374	0.0140508
873.453	0.0139824
873.531	0.0141462
873.609	0.0140363
873.687	0.0140648
873.765	0.0141881
873.843	0.0139783
873.921	0.0139352
873.999	0.0140847
874.078	0.0140028
874.156	0.0139276
874.234	0.0139953
874.312	0.0138546
874.390	0.0138956
874.468	0.0139585
874.546	0.0138813
874.624	0.0139502
874.703	0.0139095
874.781	0.0140300
874.859	0.0137523
874.937	0.0138960
875.015	0.0138081
875.093	0.0138650
875.171	0.0138268
875.249	0.0139308
875.328	0.0139127
875.406	0.0138813
875.484	0.0137936
875.562	0.0138942
875.640	0.0139652
875.718	0.0140143
875.796	0.0141611
875.874	0.0139828
875.953	0.0139423
876.031	0.0140340
876.109	0.0141096
876.187	0.0140742
876.265	0.0140279
876.343	0.0139082
876.421	0.0139175
876.499	0.0138521
876.578	0.0138831
876.656	0.0139091
876.734	0.0139999
876.812	0.0138398
876.890	0.0138878
876.968	0.0139043
877.046	0.0139206
877.124	0.0138503
877.203	0.0138509
877.281	0.0139747
877.359	0.0138004
877.437	0.0137735
877.515	0.0137926
877.593	0.0138030
877.671	0.0138888
877.749	0.0137956
877.828	0.0137178
877.906	0.0138872
877.984	0.0139190
878.062	0.0140192
878.140	0.0139764
878.218	0.0138274
878.296	0.0138882
878.374	0.0138994
878.453	0.0138464
878.531	0.0138259
878.609	0.0139301
878.687	0.0140086
878.765	0.0137827
878.843	0.0138799
878.921	0.0139574
878.999	0.0140649
879.078	0.0139455
879.156	0.0139335
879.234	0.0139062
879.312	0.0138645
879.390	0.0139294
879.468	0.0140046
879.546	0.0140016
879.624	0.0139461
879.703	0.0140447
879.781	0.0139758
879.859	0.0139197
879.937	0.0139498
880.015	0.0138841
880.093	0.0137904
880.171	0.0137963
880.249	0.0138618
880.328	0.0138259
880.406	0.0137794
880.484	0.0138601
880.562	0.0138778
880.640	0.0138448
880.718	0.0138131
880.796	0.0137337
880.874	0.0138293
880.953	0.0137213
881.031	0.0136287
881.109	0.0138811
881.187	0.0138083
881.265	0.0138177
881.343	0.0137547
881.421	0.0138960
881.499	0.0140021
881.578	0.0139942
881.656	0.0138866
881.734	0.0139156
881.812	0.0140141
881.890	0.0141383
881.968	0.0140256
882.046	0.0140626
882.124	0.0140170
882.203	0.0140201
882.281	0.0141043
882.359	0.0140361
882.437	0.0140105
882.515	0.0139307
882.593	0.0139424
882.671	0.0139224
882.749	0.0139056
882.828	0.0138728
882.906	0.0139595
882.984	0.0138855
883.062	0.0139228
883.140	0.0138924
883.218	0.0138377
883.296	0.0138038
883.374	0.0138061
883.453	0.0137655
883.531	0.0138032
883.609	0.0137726
883.687	0.0136440
883.765	0.0137894
883.843	0.0138815
883.921	0.0139964
883.999	0.0138880
884.078	0.0138602
884.156	0.0139060
884.234	0.0139955
884.312	0.0137939
884.390	0.0139319
884.468	0.0140627
884.546	0.0139417
884.624	0.0138469
884.703	0.0139732
884.781	0.0140645
884.859	0.0140057
884.937	0.0140595
885.015	0.0138772
885.093	0.0139668
885.171	0.0139397
885.249	0.0139466
885.328	0.0139565
885.406	0.0139500
885.484	0.0139714
885.562	0.0139979
885.640	0.0140407
885.718	0.0140018
885.796	0.0140263
885.874	0.0140672
885.953	0.0138958
886.031	0.0141849
886.109	0.0139616
886.187	0.0138648
886.265	0.0139516
886.343	0.0140293
886.421	0.0139806
886.499	0.0140427
886.578	0.0140844
886.656	0.0140623
886.734	0.0139230
886.812	0.0140706
886.890	0.0140314
886.968	0.0141070
887.046	0.0140143
887.124	0.0140256
887.203	0.0142471
887.281	0.0140373
887.359	0.0138264
887.437	0.0140839
887.515	0.0140010
887.593	0.0139643
887.671	0.0140688
887.749	0.0139789
887.828	0.0139989
887.906	0.0140596
887.984	0.0140263
888.062	0.0139635
888.140	0.0140331
888.218	0.0140993
888.296	0.0139432
888.374	0.0139250
888.453	0.0139987
888.531	0.0139214
888.609	0.0139469
888.687	0.0139896
888.765	0.0138921
888.843	0.0139806
888.921	0.0140386
888.999	0.0140117
889.078	0.0140653
889.156	0.0140354
889.234	0.0139497
889.312	0.0140273
889.390	0.0140870
889.468	0.0139608
889.546	0.0140635
889.624	0.0139634
889.703	0.0140772
889.781	0.0139774
889.859	0.0139652
889.937	0.0142159
890.015	0.0140101
890.093	0.0139346
890.171	0.0139980
890.249	0.0138942
890.328	0.0139346
890.406	0.0137817
890.484	0.0138197
890.562	0.0137657
890.640	0.0139692
890.718	0.0139168
890.796	0.0138412
890.874	0.0138875
890.953	0.0139037
891.031	0.0139495
891.109	0.0139672
891.187	0.0139471
891.265	0.0139539
891.343	0.0139425
891.421	0.0139973
891.499	0.0139694
891.578	0.0140145
891.656	0.0139410
891.734	0.0140264
891.812	0.0140038
891.890	0.0139897
891.968	0.0140727
892.046	0.0141276
892.124	0.0140776
892.203	0.0139206
892.281	0.0139472
892.359	0.0139363
892.437	0.0140686
892.515	0.0139156
892.593	0.0138893
892.671	0.0138728
892.749	0.0140651
892.828	0.0140765
892.906	0.0139553
892.984	0.0139465
893.062	0.0140623
893.140	0.0140134
893.218	0.0140812
893.296	0.0140934
893.374	0.0141032
893.453	0.0138890
893.531	0.0139117
893.609	0.0140730
893.687	0.0139529
893.765	0.0141126
893.843	0.0140607
893.921	0.0140973
893.999	0.0140634
894.078	0.0140214
894.156	0.0140559
894.234	0.0140868
894.312	0.0140356
894.390	0.0140992
894.468	0.0139691
894.546	0.0139596
894.624	0.0138546
894.703	0.0138518
894.781	0.0138793
894.859	0.0138279
894.937	0.0138856
895.015	0.0139218
895.093	0.0139656
895.171	0.0138074
895.249	0.0138566
895.328	0.0138404
895.406	0.0139802
895.484	0.0139456
895.562	0.0139383
895.640	0.0139433
895.718	0.0140001
895.796	0.0139486
895.874	0.0139816
895.953	0.0140249
896.031	0.0141293
896.109	0.0140788
896.187	0.0139513
896.265	0.0140137
896.343	0.0140677
896.421	0.0139909
896.499	0.0139660
896.578	0.0139925
896.656	0.0139513
896.734	0.0139671
896.812	0.0138293
896.890	0.0137775
896.968	0.0139206
897.046	0.0137950
897.124	0.0138532
897.203	0.0138560
897.281	0.0137976
897.359	0.0137901
897.437	0.0139025
897.515	0.0137907
897.593	0.0136700
897.671	0.0137753
897.749	0.0139629
897.828	0.0140441
897.906	0.0139085
897.984	0.0138996
898.062	0.0138285
898.140	0.0140640
898.218	0.0138746
898.296	0.0138774
898.374	0.0139581
898.453	0.0140102
898.531	0.0139388
898.609	0.0140562
898.687	0.0140744
898.765	0.0141625
898.843	0.0140996
898.921	0.0142007
898.999	0.0140598
899.078	0.0139294
899.156	0.0142098
899.234	0.0140269
899.312	0.0140323
899.390	0.0140788
899.468	0.0139329
899.546	0.0140842
899.624	0.0140093
899.703	0.0140389
899.781	0.0139509
899.859	0.0140348
899.937	0.0138449
900.015	0.0139054
900.093	0.0140005
900.171	0.0138999
900.249	0.0138874
900.328	0.0138591
900.406	0.0139996
900.484	0.0140113
900.562	0.0139223
900.640	0.0140815
900.718	0.0140037
900.796	0.0140331
900.874	0.0140223
900.953	0.0141442
901.031	0.0140253
901.109	0.0139751
901.187	0.0139804
901.265	0.0140244
901.343	0.0138686
901.421	0.0139359
901.499	0.0139362
901.578	0.0139817
901.656	0.0140422
901.734	0.0139882
901.812	0.0139948
901.890	0.0139006
901.968	0.0140562
902.046	0.0140023
902.124	0.0140250
902.203	0.0140709
902.281	0.0140068
902.359	0.0140014
902.437	0.0140360
902.515	0.0141617
902.593	0.0140317
902.671	0.0140630
902.749	0.0139922
902.828	0.0142020
902.906	0.0139193
902.984	0.0140016
903.062	0.0138486
903.140	0.0140044
903.218	0.0140701
903.296	0.0139598
903.374	0.0138357
903.453	0.0139605
903.531	0.0139487
903.609	0.0139957
903.687	0.0138963
903.765	0.0139655
903.843	0.0138927
903.921	0.0137781
903.999	0.0138522
904.078	0.0140166
904.156	0.0139783
904.234	0.0139575
904.312	0.0140524
904.390	0.0139635
904.468	0.0139896
904.546	0.0139523
904.624	0.0139882
904.703	0.0140827
904.781	0.0140257
904.859	0.0140554
904.937	0.0139294
905.015	0.0139987
905.093	0.0140499
905.171	0.0139383
905.249	0.0141026
905.328	0.0140081
905.406	0.0139074
905.484	0.0138529
905.562	0.0139885
905.640	0.0139339
905.718	0.0139970
905.796	0.0139379
905.874	0.0139038
905.953	0.0139636
906.031	0.0139119
906.109	0.0138607
906.187	0.0138741
906.265	0.0141930
906.343	0.0139451
906.421	0.0139394
906.499	0.0140273
906.578	0.0139760
906.656	0.0139259
906.734	0.0139217
906.812	0.0140472
906.890	0.0139750
906.968	0.0139818
907.046	0.0141451
907.124	0.0140964
907.203	0.0140377
907.281	0.0140715
907.359	0.0140123
907.437	0.0140863
907.515	0.0140480
907.593	0.0138576
907.671	0.0140838
907.749	0.0141092
907.828	0.0140071
907.906	0.0140008
907.984	0.0140298
908.062	0.0139921
908.140	0.0141007
908.218	0.0138367
908.296	0.0139926
908.374	0.0138506
908.453	0.0139845
908.531	0.0140702
908.609	0.0139999
908.687	0.0139053
908.765	0.0139846
908.843	0.0140195
908.921	0.0140237
908.999	0.0139459
909.078	0.0140546
909.156	0.0140816
909.234	0.0139153
909.312	0.0139172
909.390	0.0139632
909.468	0.0138478
909.546	0.0140562
909.624	0.0141174
909.703	0.0139355
909.781	0.0138628
909.859	0.0139774
909.937	0.0140844
910.015	0.0138866
910.093	0.0141449
910.171	0.0140034
910.249	0.0139621
910.328	0.0139427
910.406	0.0140128
910.484	0.0141022
910.562	0.0138335
910.640	0.0138635
910.718	0.0140189
910.796	0.0139875
910.874	0.0137409
910.953	0.0138051
911.031	0.0137205
911.109	0.0136879
911.187	0.0136222
911.265	0.0137878
911.343	0.0137540
911.421	0.0137711
911.499	0.0137681
911.578	0.0139316
911.656	0.0138452
911.734	0.0139655
911.812	0.0138798
911.890	0.0139780
911.968	0.0139333
912.046	0.0138264
912.124	0.0139968
912.203	0.0139526
912.281	0.0139391
912.359	0.0138475
912.437	0.0138598
912.515	0.0139194
912.593	0.0137984
912.671	0.0139078
912.749	0.0139835
912.828	0.0138506
912.906	0.0138565
912.984	0.0138905
913.062	0.0139957
913.140	0.0139120
913.218	0.0139292
913.296	0.0138682
913.374	0.0139034
913.453	0.0138284
913.531	0.0138542
913.609	0.0137754
913.687	0.0137918
913.765	0.0138033
913.843	0.0138753
913.921	0.0138641
913.999	0.0138450
914.078	0.0138370
914.156	0.0139870
914.234	0.0139978
914.312	0.0140042
914.390	0.0139032
914.468	0.0138843
914.546	0.0139579
914.624	0.0137817
914.703	0.0138918
914.781	0.0139711
914.859	0.0140495
914.937	0.0139166
915.015	0.0139275
915.093	0.0139426
915.171	0.0138271
915.249	0.0138303
915.328	0.0139236
915.406	0.0137453
915.484	0.0138312
915.562	0.0138686
915.640	0.0139546
915.718	0.0138066
915.796	0.0138591
915.874	0.0138273
915.953	0.0138677
916.031	0.0136305
916.109	0.0139384
916.187	0.0138493
916.265	0.0138564
916.343	0.0137405
916.421	0.0138463
916.499	0.0138142
916.578	0.0138300
916.656	0.0138158
916.734	0.0138783
916.812	0.0138626
916.890	0.0138678
916.968	0.0137890
917.046	0.0138792
917.124	0.0139322
917.203	0.0139193
917.281	0.0138923
917.359	0.0139234
917.437	0.0138274
917.515	0.0138666
917.593	0.0139903
917.671	0.0138059
917.749	0.0138438
917.828	0.0139097
917.906	0.0138281
917.984	0.0138982
918.062	0.0140269
918.140	0.0139206
918.218	0.0139406
918.296	0.0138621
918.374	0.0140184
918.453	0.0140063
918.531	0.0138811
918.609	0.0139375
918.687	0.0139552
918.765	0.0139187
918.843	0.0139667
918.921	0.0139861
918.999	0.0139419
919.078	0.0140273
919.156	0.0139350
919.234	0.0138970
919.312	0.0139514
919.390	0.0139075
919.468	0.0139626
919.546	0.0140240
919.624	0.0140681
919.703	0.0139162
919.781	0.0138885
919.859	0.0139344
919.937	0.0139497
