05/06/2022	19:10:45	Ver.	4.1	UNKNOWN
Optical Delay	600.015094	Delta X		0.078125	Sweeps	1	Scan Rate	0/0
Coordinates	Axis 1	NaN	Axis 2	NaN	Axis 3	NaN	Axis 4	NaN	Axis 5	NaN	Axis 6	0.000000
TX Power	0.000000	RX Power	0.000000

600.015	0.0139161
600.093	0.0138652
600.171	0.0139542
600.249	0.0139024
600.328	0.0137527
600.406	0.0139871
600.484	0.0139694
600.562	0.0138534
600.640	0.0139542
600.718	0.0139902
600.796	0.0139692
600.874	0.0140360
600.953	0.0140130
601.031	0.0138691
601.109	0.0139879
601.187	0.0139845
601.265	0.0139827
601.343	0.0140417
601.421	0.0139553
601.499	0.0138467
601.578	0.0138531
601.656	0.0139607
601.734	0.0139306
601.812	0.0140624
601.890	0.0140100
601.968	0.0139889
602.046	0.0138955
602.124	0.0138969
602.203	0.0138232
602.281	0.0139726
602.359	0.0139652
602.437	0.0139606
602.515	0.0139756
602.593	0.0140296
602.671	0.0139597
602.749	0.0139333
602.828	0.0139487
602.906	0.0139500
602.984	0.0138678
603.062	0.0138942
603.140	0.0138554
603.218	0.0140315
603.296	0.0139301
603.374	0.0139474
603.453	0.0139342
603.531	0.0138950
603.609	0.0138977
603.687	0.0139165
603.765	0.0139274
603.843	0.0140916
603.921	0.0137687
603.999	0.0136794
604.078	0.0138564
604.156	0.0137759
604.234	0.0137242
604.312	0.0139096
604.390	0.0138366
604.468	0.0137713
604.546	0.0138628
604.624	0.0139831
604.703	0.0139794
604.781	0.0139420
604.859	0.0138902
604.937	0.0138622
605.015	0.0137400
605.093	0.0139070
605.171	0.0139311
605.249	0.0139734
605.328	0.0138214
605.406	0.0138058
605.484	0.0137987
605.562	0.0139093
605.640	0.0139345
605.718	0.0137923
605.796	0.0138673
605.874	0.0138805
605.953	0.0137634
606.031	0.0137726
606.109	0.0139214
606.187	0.0139356
606.265	0.0137837
606.343	0.0138302
606.421	0.0139247
606.499	0.0138094
606.578	0.0138737
606.656	0.0139477
606.734	0.0137524
606.812	0.0138818
606.890	0.0138233
606.968	0.0137804
607.046	0.0139074
607.124	0.0136265
607.203	0.0136539
607.281	0.0138074
607.359	0.0137535
607.437	0.0137923
607.515	0.0137553
607.593	0.0137498
607.671	0.0137722
607.749	0.0138161
607.828	0.0137923
607.906	0.0137712
607.984	0.0137716
608.062	0.0137508
608.140	0.0137029
608.218	0.0138460
608.296	0.0138123
608.374	0.0137171
608.453	0.0136534
608.531	0.0137849
608.609	0.0138858
608.687	0.0137559
608.765	0.0137872
608.843	0.0137613
608.921	0.0136832
608.999	0.0136570
609.078	0.0137931
609.156	0.0137315
609.234	0.0137901
609.312	0.0136774
609.390	0.0138208
609.468	0.0138715
609.546	0.0137494
609.624	0.0138837
609.703	0.0138182
609.781	0.0136668
609.859	0.0137112
609.937	0.0137920
610.015	0.0137042
610.093	0.0138536
610.171	0.0139504
610.249	0.0138082
610.328	0.0137376
610.406	0.0138468
610.484	0.0137521
610.562	0.0137354
610.640	0.0138664
610.718	0.0138575
610.796	0.0138410
610.874	0.0139186
610.953	0.0138803
611.031	0.0137679
611.109	0.0137696
611.187	0.0138277
611.265	0.0139006
611.343	0.0138743
611.421	0.0137995
611.499	0.0139016
611.578	0.0138538
611.656	0.0137919
611.734	0.0138136
611.812	0.0138652
611.890	0.0138347
611.968	0.0137758
612.046	0.0137757
612.124	0.0138401
612.203	0.0138947
612.281	0.0138059
612.359	0.0137526
612.437	0.0138091
612.515	0.0137628
612.593	0.0138716
612.671	0.0138821
612.749	0.0137891
612.828	0.0137308
612.906	0.0139875
612.984	0.0137740
613.062	0.0138219
613.140	0.0139465
613.218	0.0138110
613.296	0.0138335
613.374	0.0138251
613.453	0.0137685
613.531	0.0137975
613.609	0.0140074
613.687	0.0140004
613.765	0.0138262
613.843	0.0138625
613.921	0.0138519
613.999	0.0138737
614.078	0.0139776
614.156	0.0139545
614.234	0.0138869
614.312	0.0139046
614.390	0.0139593
614.468	0.0139516
614.546	0.0139359
614.624	0.0139815
614.703	0.0140299
614.781	0.0140237
614.859	0.0138329
614.937	0.0139671
615.015	0.0139173
615.093	0.0139843
615.171	0.0139285
615.249	0.0139119
615.328	0.0138312
615.406	0.0140031
615.484	0.0138911
615.562	0.0139861
615.640	0.0140604
615.718	0.0138727
615.796	0.0140038
615.874	0.0138944
615.953	0.0139661
616.031	0.0139427
616.109	0.0138638
616.187	0.0140073
616.265	0.0138853
616.343	0.0139338
616.421	0.0138561
616.499	0.0139059
616.578	0.0139722
616.656	0.0139942
616.734	0.0139622
616.812	0.0137780
616.890	0.0139352
616.968	0.0139341
617.046	0.0139306
617.124	0.0139810
617.203	0.0139493
617.281	0.0139962
617.359	0.0140434
617.437	0.0140859
617.515	0.0140117
617.593	0.0138593
617.671	0.0138721
617.749	0.0139812
617.828	0.0138496
617.906	0.0139773
617.984	0.0140346
618.062	0.0137725
618.140	0.0139222
618.218	0.0140862
618.296	0.0139662
618.374	0.0139002
618.453	0.0140084
618.531	0.0139986
618.609	0.0139037
618.687	0.0138709
618.765	0.0138847
618.843	0.0139246
618.921	0.0141448
618.999	0.0138877
619.078	0.0139991
619.156	0.0140199
619.234	0.0139490
619.312	0.0139919
619.390	0.0139675
619.468	0.0139288
619.546	0.0139101
619.624	0.0140675
619.703	0.0138924
619.781	0.0138029
619.859	0.0140378
619.937	0.0139543
620.015	0.0139055
620.093	0.0139652
620.171	0.0139895
620.249	0.0139070
620.328	0.0139122
620.406	0.0138573
620.484	0.0140777
620.562	0.0140337
620.640	0.0140302
620.718	0.0140270
620.796	0.0140498
620.874	0.0140043
620.953	0.0140913
621.031	0.0139333
621.109	0.0139358
621.187	0.0139557
621.265	0.0138623
621.343	0.0138824
621.421	0.0139316
621.499	0.0139919
621.578	0.0139304
621.656	0.0139146
621.734	0.0138762
621.812	0.0139104
621.890	0.0140517
621.968	0.0139397
622.046	0.0139389
622.124	0.0138211
622.203	0.0139367
622.281	0.0139565
622.359	0.0138536
622.437	0.0138733
622.515	0.0139075
622.593	0.0139291
622.671	0.0138436
622.749	0.0139590
622.828	0.0140781
622.906	0.0140833
622.984	0.0138176
623.062	0.0138403
623.140	0.0139236
623.218	0.0137720
623.296	0.0139779
623.374	0.0138219
623.453	0.0139142
623.531	0.0139845
623.609	0.0139397
623.687	0.0139548
623.765	0.0138091
623.843	0.0138454
623.921	0.0138606
623.999	0.0137823
624.078	0.0140627
624.156	0.0140166
624.234	0.0140523
624.312	0.0140737
624.390	0.0139903
624.468	0.0139314
624.546	0.0140066
624.624	0.0139074
624.703	0.0138701
624.781	0.0139044
624.859	0.0139751
624.937	0.0139460
625.015	0.0138956
625.093	0.0139587
625.171	0.0138250
625.249	0.0139099
625.328	0.0139746
625.406	0.0139389
625.484	0.0139278
625.562	0.0139479
625.640	0.0138782
625.718	0.0138624
625.796	0.0138859
625.874	0.0137115
625.953	0.0138764
626.031	0.0138243
626.109	0.0139089
626.187	0.0138509
626.265	0.0138396
626.343	0.0138967
626.421	0.0138316
626.499	0.0138481
626.578	0.0138920
626.656	0.0140073
626.734	0.0139635
626.812	0.0139831
626.890	0.0139655
626.968	0.0138520
627.046	0.0139684
627.124	0.0139556
627.203	0.0139227
627.281	0.0140087
627.359	0.0139508
627.437	0.0139652
627.515	0.0139439
627.593	0.0138462
627.671	0.0138332
627.749	0.0138229
627.828	0.0139912
627.906	0.0139304
627.984	0.0139272
628.062	0.0139813
628.140	0.0139573
628.218	0.0139442
628.296	0.0138051
628.374	0.0139218
628.453	0.0138808
628.531	0.0137589
628.609	0.0137575
628.687	0.0138483
628.765	0.0138406
628.843	0.0139572
628.921	0.0138186
628.999	0.0137949
629.078	0.0139044
629.156	0.0138367
629.234	0.0139060
629.312	0.0137808
629.390	0.0139439
629.468	0.0139072
629.546	0.0136705
629.624	0.0138792
629.703	0.0139147
629.781	0.0137860
629.859	0.0138103
629.937	0.0138046
630.015	0.0139647
630.093	0.0139326
630.171	0.0139110
630.249	0.0137630
630.328	0.0137222
630.406	0.0139560
630.484	0.0138345
630.562	0.0137522
630.640	0.0138810
630.718	0.0139160
630.796	0.0137772
630.874	0.0138538
630.953	0.0138428
631.031	0.0138575
631.109	0.0137376
631.187	0.0137926
631.265	0.0139479
631.343	0.0137889
631.421	0.0137982
631.499	0.0138290
631.578	0.0138584
631.656	0.0138905
631.734	0.0138730
631.812	0.0139298
631.890	0.0139195
631.968	0.0137543
632.046	0.0139613
632.124	0.0140051
632.203	0.0139238
632.281	0.0138011
632.359	0.0138808
632.437	0.0139056
632.515	0.0138536
632.593	0.0137505
632.671	0.0137772
632.749	0.0138400
632.828	0.0137916
632.906	0.0139140
632.984	0.0139374
633.062	0.0138285
633.140	0.0138486
633.218	0.0137836
633.296	0.0138579
633.374	0.0139357
633.453	0.0138282
633.531	0.0138274
633.609	0.0139088
633.687	0.0138663
633.765	0.0138551
633.843	0.0139684
633.921	0.0139050
633.999	0.0140090
634.078	0.0136862
634.156	0.0138100
634.234	0.0138512
634.312	0.0138268
634.390	0.0138725
634.468	0.0137515
634.546	0.0139051
634.624	0.0138535
634.703	0.0139236
634.781	0.0140324
634.859	0.0139330
634.937	0.0138274
635.015	0.0138479
635.093	0.0137885
635.171	0.0138737
635.249	0.0138402
635.328	0.0137797
635.406	0.0137840
635.484	0.0138583
635.562	0.0138599
635.640	0.0139187
635.718	0.0138449
635.796	0.0138070
635.874	0.0137712
635.953	0.0139285
636.031	0.0138812
636.109	0.0138757
636.187	0.0138268
636.265	0.0139968
636.343	0.0140464
636.421	0.0139084
636.499	0.0139774
636.578	0.0139452
636.656	0.0139398
636.734	0.0139823
636.812	0.0138710
636.890	0.0140044
636.968	0.0139070
637.046	0.0138214
637.124	0.0138997
637.203	0.0139756
637.281	0.0139683
637.359	0.0138348
637.437	0.0138132
637.515	0.0139690
637.593	0.0138479
637.671	0.0138403
637.749	0.0138371
637.828	0.0139649
637.906	0.0138796
637.984	0.0138886
638.062	0.0139105
638.140	0.0139776
638.218	0.0139434
638.296	0.0140176
638.374	0.0138308
638.453	0.0139226
638.531	0.0138169
638.609	0.0138194
638.687	0.0138388
638.765	0.0138122
638.843	0.0140106
638.921	0.0139122
638.999	0.0137563
639.078	0.0137759
639.156	0.0138255
639.234	0.0137189
639.312	0.0137462
639.390	0.0137449
639.468	0.0137586
639.546	0.0138605
639.624	0.0138838
639.703	0.0139127
639.781	0.0139391
639.859	0.0138880
639.937	0.0138313
640.015	0.0139169
640.093	0.0140005
640.171	0.0137579
640.249	0.0137170
640.328	0.0138476
640.406	0.0139455
640.484	0.0139842
640.562	0.0137594
640.640	0.0139320
640.718	0.0138403
640.796	0.0137444
640.874	0.0136963
640.953	0.0137891
641.031	0.0136916
641.109	0.0137076
641.187	0.0138489
641.265	0.0138252
641.343	0.0138110
641.421	0.0137578
641.499	0.0138923
641.578	0.0138754
641.656	0.0138332
641.734	0.0140299
641.812	0.0140503
641.890	0.0140988
641.968	0.0139935
642.046	0.0142260
642.124	0.0140446
642.203	0.0140598
642.281	0.0140650
642.359	0.0138513
642.437	0.0137692
642.515	0.0139404
642.593	0.0137707
642.671	0.0136360
642.749	0.0135863
642.828	0.0136333
642.906	0.0137122
642.984	0.0136507
643.062	0.0136606
643.140	0.0137130
643.218	0.0137335
643.296	0.0136208
643.374	0.0136702
643.453	0.0136751
643.531	0.0136234
643.609	0.0136250
643.687	0.0135423
643.765	0.0137675
643.843	0.0138955
643.921	0.0139118
643.999	0.0138605
644.078	0.0139187
644.156	0.0137991
644.234	0.0139645
644.312	0.0138754
644.390	0.0141154
644.468	0.0140469
644.546	0.0140188
644.624	0.0141216
644.703	0.0140260
644.781	0.0138642
644.859	0.0140814
644.937	0.0141132
645.015	0.0140770
645.093	0.0140007
645.171	0.0139607
645.249	0.0140578
645.328	0.0139989
645.406	0.0138582
645.484	0.0138596
645.562	0.0138992
645.640	0.0139407
645.718	0.0138110
645.796	0.0137387
645.874	0.0136390
645.953	0.0135208
646.031	0.0136304
646.109	0.0135095
646.187	0.0135332
646.265	0.0135733
646.343	0.0134604
646.421	0.0134817
646.499	0.0134811
646.578	0.0136806
646.656	0.0136318
646.734	0.0136936
646.812	0.0136399
646.890	0.0136477
646.968	0.0135233
647.046	0.0138602
647.124	0.0140585
647.203	0.0140250
647.281	0.0140224
647.359	0.0140769
647.437	0.0140475
647.515	0.0141473
647.593	0.0141561
647.671	0.0141319
647.749	0.0141761
647.828	0.0142381
647.906	0.0142148
647.984	0.0142385
648.062	0.0141781
648.140	0.0141829
648.218	0.0142431
648.296	0.0141528
648.374	0.0140893
648.453	0.0140147
648.531	0.0139255
648.609	0.0138313
648.687	0.0138489
648.765	0.0137595
648.843	0.0136899
648.921	0.0134454
648.999	0.0134646
649.078	0.0135101
649.156	0.0133172
649.234	0.0133900
649.312	0.0134972
649.390	0.0131735
649.468	0.0133241
649.546	0.0134039
649.624	0.0133643
649.703	0.0135615
649.781	0.0135175
649.859	0.0135900
649.937	0.0137909
650.015	0.0139000
650.093	0.0139545
650.171	0.0139980
650.249	0.0142279
650.328	0.0143387
650.406	0.0143693
650.484	0.0144452
650.562	0.0145528
650.640	0.0146346
650.718	0.0146413
650.796	0.0146901
650.874	0.0145527
650.953	0.0145020
651.031	0.0144691
651.109	0.0144386
651.187	0.0144032
651.265	0.0143749
651.343	0.0141135
651.421	0.0140721
651.499	0.0138774
651.578	0.0137813
651.656	0.0137221
651.734	0.0135224
651.812	0.0133681
651.890	0.0134747
651.968	0.0134010
652.046	0.0133707
652.124	0.0133125
652.203	0.0134081
652.281	0.0132802
652.359	0.0133236
652.437	0.0134148
652.515	0.0132846
652.593	0.0132535
652.671	0.0135545
652.749	0.0136121
652.828	0.0137922
652.906	0.0138712
652.984	0.0139205
653.062	0.0140388
653.140	0.0140550
653.218	0.0141775
653.296	0.0139422
653.374	0.0142195
653.453	0.0144333
653.531	0.0143612
653.609	0.0143262
653.687	0.0144222
653.765	0.0145570
653.843	0.0145024
653.921	0.0145811
653.999	0.0144282
654.078	0.0142916
654.156	0.0142561
654.234	0.0141945
654.312	0.0143427
654.390	0.0141174
654.468	0.0140496
654.546	0.0138573
654.624	0.0136810
654.703	0.0136157
654.781	0.0135588
654.859	0.0134394
654.937	0.0133220
655.015	0.0133626
655.093	0.0133901
655.171	0.0133444
655.249	0.0132674
655.328	0.0132063
655.406	0.0133351
655.484	0.0134592
655.562	0.0134208
655.640	0.0135376
655.718	0.0136631
655.796	0.0137088
655.874	0.0138952
655.953	0.0139648
656.031	0.0141254
656.109	0.0140457
656.187	0.0141441
656.265	0.0141109
656.343	0.0140119
656.421	0.0142989
656.499	0.0142776
656.578	0.0142748
656.656	0.0142491
656.734	0.0141280
656.812	0.0141018
656.890	0.0141916
656.968	0.0141883
657.046	0.0140728
657.124	0.0138051
657.203	0.0139418
657.281	0.0139812
657.359	0.0137434
657.437	0.0137382
657.515	0.0136346
657.593	0.0133710
657.671	0.0133450
657.749	0.0133285
657.828	0.0131676
657.906	0.0130682
657.984	0.0129244
658.062	0.0129292
658.140	0.0129961
658.218	0.0130202
658.296	0.0132455
658.374	0.0132714
658.453	0.0132590
658.531	0.0135099
658.609	0.0135326
658.687	0.0138660
658.765	0.0137983
658.843	0.0140461
658.921	0.0141426
658.999	0.0143282
659.078	0.0144781
659.156	0.0144605
659.234	0.0144611
659.312	0.0146046
659.390	0.0146910
659.468	0.0146848
659.546	0.0145650
659.624	0.0146304
659.703	0.0145699
659.781	0.0144505
659.859	0.0143855
659.937	0.0143436
660.015	0.0142277
660.093	0.0142218
660.171	0.0140856
660.249	0.0138084
660.328	0.0138773
660.406	0.0137363
660.484	0.0136008
660.562	0.0134035
660.640	0.0133259
660.718	0.0131950
660.796	0.0131319
660.874	0.0130170
660.953	0.0130327
661.031	0.0129604
661.109	0.0129108
661.187	0.0130404
661.265	0.0131544
661.343	0.0131307
661.421	0.0132724
661.499	0.0133084
661.578	0.0135321
661.656	0.0135705
661.734	0.0136562
661.812	0.0139204
661.890	0.0140582
661.968	0.0142133
662.046	0.0142872
662.124	0.0142566
662.203	0.0143668
662.281	0.0143930
662.359	0.0142445
662.437	0.0145235
662.515	0.0143329
662.593	0.0142420
662.671	0.0142120
662.749	0.0140670
662.828	0.0139788
662.906	0.0139336
662.984	0.0139165
663.062	0.0137627
663.140	0.0135837
663.218	0.0136403
663.296	0.0134399
663.374	0.0136474
663.453	0.0134946
663.531	0.0133933
663.609	0.0135384
663.687	0.0134581
663.765	0.0134303
663.843	0.0135112
663.921	0.0134129
663.999	0.0134780
664.078	0.0135430
664.156	0.0137740
664.234	0.0138715
664.312	0.0137953
664.390	0.0139321
664.468	0.0141621
664.546	0.0141946
664.624	0.0142266
664.703	0.0142092
664.781	0.0143030
664.859	0.0142181
664.937	0.0143757
665.015	0.0143285
665.093	0.0143034
665.171	0.0143073
665.249	0.0141094
665.328	0.0141601
665.406	0.0139779
665.484	0.0139439
665.562	0.0136186
665.640	0.0134778
665.718	0.0135396
665.796	0.0134566
665.874	0.0133530
665.953	0.0133425
666.031	0.0132394
666.109	0.0132220
666.187	0.0132105
666.265	0.0131041
666.343	0.0133205
666.421	0.0133643
666.499	0.0133002
666.578	0.0133697
666.656	0.0134882
666.734	0.0134832
666.812	0.0136483
666.890	0.0138469
666.968	0.0137352
667.046	0.0138307
667.124	0.0138205
667.203	0.0139906
667.281	0.0140145
667.359	0.0140511
667.437	0.0142640
667.515	0.0143356
667.593	0.0143325
667.671	0.0143318
667.749	0.0144039
667.828	0.0145357
667.906	0.0145898
667.984	0.0144587
668.062	0.0143379
668.140	0.0144348
668.218	0.0143322
668.296	0.0142729
668.374	0.0140641
668.453	0.0140917
668.531	0.0140334
668.609	0.0137461
668.687	0.0137403
668.765	0.0137693
668.843	0.0136225
668.921	0.0137368
668.999	0.0135035
669.078	0.0136179
669.156	0.0135167
669.234	0.0135149
669.312	0.0134234
669.390	0.0135867
669.468	0.0134688
669.546	0.0133666
669.624	0.0133993
669.703	0.0132840
669.781	0.0133468
669.859	0.0133931
669.937	0.0134947
670.015	0.0134316
670.093	0.0134552
670.171	0.0134875
670.249	0.0136221
670.328	0.0137520
670.406	0.0138503
670.484	0.0138332
670.562	0.0139576
670.640	0.0142361
670.718	0.0142315
670.796	0.0142566
670.874	0.0145316
670.953	0.0144099
671.031	0.0144353
671.109	0.0145345
671.187	0.0144518
671.265	0.0145815
671.343	0.0144210
671.421	0.0143853
671.499	0.0142901
671.578	0.0141345
671.656	0.0139907
671.734	0.0138374
671.812	0.0138252
671.890	0.0137417
671.968	0.0136413
672.046	0.0135603
672.124	0.0133967
672.203	0.0134145
672.281	0.0133818
672.359	0.0133111
672.437	0.0132907
672.515	0.0131371
672.593	0.0131577
672.671	0.0134016
672.749	0.0133642
672.828	0.0132738
672.906	0.0135801
672.984	0.0136300
673.062	0.0138043
673.140	0.0140176
673.218	0.0141484
673.296	0.0142607
673.374	0.0141942
673.453	0.0142863
673.531	0.0144713
673.609	0.0146629
673.687	0.0144663
673.765	0.0144810
673.843	0.0147060
673.921	0.0144634
673.999	0.0144148
674.078	0.0143031
674.156	0.0142381
674.234	0.0141309
674.312	0.0140104
674.390	0.0138267
674.468	0.0137095
674.546	0.0135307
674.624	0.0134825
674.703	0.0133118
674.781	0.0131924
674.859	0.0131445
674.937	0.0130784
675.015	0.0129745
675.093	0.0131300
675.171	0.0131151
675.249	0.0129469
675.328	0.0130133
675.406	0.0132684
675.484	0.0132692
675.562	0.0133917
675.640	0.0135986
675.718	0.0137110
675.796	0.0139290
675.874	0.0140977
675.953	0.0142680
676.031	0.0143082
676.109	0.0144692
676.187	0.0144625
676.265	0.0145962
676.343	0.0145972
676.421	0.0146001
676.499	0.0145461
676.578	0.0146188
676.656	0.0144574
676.734	0.0145660
676.812	0.0145262
676.890	0.0143417
676.968	0.0142290
677.046	0.0142986
677.124	0.0140898
677.203	0.0140571
677.281	0.0139980
677.359	0.0137339
677.437	0.0137122
677.515	0.0135400
677.593	0.0134070
677.671	0.0134127
677.749	0.0134850
677.828	0.0134030
677.906	0.0133166
677.984	0.0134845
678.062	0.0133443
678.140	0.0134817
678.218	0.0136941
678.296	0.0136961
678.374	0.0138155
678.453	0.0138211
678.531	0.0138102
678.609	0.0140744
678.687	0.0140750
678.765	0.0141583
678.843	0.0142191
678.921	0.0142364
678.999	0.0142142
679.078	0.0141376
679.156	0.0141055
679.234	0.0142759
679.312	0.0140733
679.390	0.0140683
679.468	0.0141525
679.546	0.0139959
679.624	0.0139027
679.703	0.0139996
679.781	0.0139683
679.859	0.0137823
679.937	0.0138638
680.015	0.0139388
680.093	0.0136715
680.171	0.0138219
680.249	0.0139182
680.328	0.0135777
680.406	0.0136243
680.484	0.0136829
680.562	0.0135989
680.640	0.0134381
680.718	0.0135268
680.796	0.0136291
680.874	0.0134974
680.953	0.0135262
681.031	0.0135809
681.109	0.0135622
681.187	0.0136028
681.265	0.0137383
681.343	0.0137569
681.421	0.0136951
681.499	0.0138725
681.578	0.0138081
681.656	0.0139980
681.734	0.0140650
681.812	0.0140184
681.890	0.0141756
681.968	0.0143287
682.046	0.0143285
682.124	0.0142461
682.203	0.0143330
682.281	0.0143812
682.359	0.0143968
682.437	0.0145161
682.515	0.0143797
682.593	0.0143317
682.671	0.0144375
682.749	0.0143930
682.828	0.0142489
682.906	0.0142586
682.984	0.0140953
683.062	0.0140419
683.140	0.0139196
683.218	0.0137767
683.296	0.0138046
683.374	0.0136843
683.453	0.0135418
683.531	0.0135258
683.609	0.0134238
683.687	0.0132342
683.765	0.0132581
683.843	0.0132935
683.921	0.0132219
683.999	0.0131489
684.078	0.0130977
684.156	0.0130845
684.234	0.0131368
684.312	0.0132482
684.390	0.0133406
684.468	0.0133434
684.546	0.0135484
684.624	0.0135750
684.703	0.0137392
684.781	0.0138970
684.859	0.0140897
684.937	0.0142484
685.015	0.0145353
685.093	0.0143876
685.171	0.0144711
685.249	0.0144257
685.328	0.0144953
685.406	0.0143948
685.484	0.0144342
685.562	0.0143301
685.640	0.0141414
685.718	0.0141233
685.796	0.0140919
685.874	0.0139487
685.953	0.0138445
686.031	0.0135458
686.109	0.0136320
686.187	0.0134422
686.265	0.0132040
686.343	0.0133073
686.421	0.0132585
686.499	0.0131987
686.578	0.0131068
686.656	0.0132110
686.734	0.0131401
686.812	0.0130309
686.890	0.0131486
686.968	0.0132268
687.046	0.0134256
687.124	0.0134783
687.203	0.0135545
687.281	0.0138203
687.359	0.0140945
687.437	0.0142068
687.515	0.0142702
687.593	0.0144914
687.671	0.0146176
687.749	0.0147187
687.828	0.0148318
687.906	0.0147302
687.984	0.0146987
688.062	0.0146331
688.140	0.0144287
688.218	0.0142701
688.296	0.0141295
688.374	0.0141159
688.453	0.0136601
688.531	0.0134692
688.609	0.0132054
688.687	0.0131223
688.765	0.0129691
688.843	0.0128806
688.921	0.0128157
688.999	0.0128261
689.078	0.0127974
689.156	0.0128198
689.234	0.0131552
689.312	0.0130196
689.390	0.0130063
689.468	0.0133222
689.546	0.0136506
689.624	0.0135946
689.703	0.0136517
689.781	0.0139437
689.859	0.0140482
689.937	0.0141079
690.015	0.0141867
690.093	0.0143004
690.171	0.0142767
690.249	0.0145038
690.328	0.0146459
690.406	0.0145474
690.484	0.0145451
690.562	0.0146519
690.640	0.0145076
690.718	0.0144921
690.796	0.0143994
690.874	0.0142475
690.953	0.0140211
691.031	0.0139067
691.109	0.0138264
691.187	0.0138565
691.265	0.0137196
691.343	0.0136934
691.421	0.0134633
691.499	0.0134573
691.578	0.0135191
691.656	0.0134148
691.734	0.0134681
691.812	0.0135375
691.890	0.0135501
691.968	0.0135749
692.046	0.0135580
692.124	0.0136614
692.203	0.0135792
692.281	0.0135302
692.359	0.0138010
692.437	0.0136884
692.515	0.0136279
692.593	0.0139020
692.671	0.0138908
692.749	0.0140247
692.828	0.0140665
692.906	0.0140388
692.984	0.0142850
693.062	0.0140984
693.140	0.0140166
693.218	0.0141666
693.296	0.0141418
693.374	0.0139996
693.453	0.0141637
693.531	0.0140881
693.609	0.0139995
693.687	0.0139332
693.765	0.0139901
693.843	0.0139126
693.921	0.0139539
693.999	0.0139260
694.078	0.0138813
694.156	0.0140102
694.234	0.0139469
694.312	0.0138705
694.390	0.0139594
694.468	0.0140913
694.546	0.0140633
694.624	0.0138607
694.703	0.0140591
694.781	0.0138722
694.859	0.0139863
694.937	0.0139410
695.015	0.0137911
695.093	0.0138967
695.171	0.0136681
695.249	0.0137473
695.328	0.0138139
695.406	0.0137552
695.484	0.0137934
695.562	0.0137032
695.640	0.0136137
695.718	0.0135935
695.796	0.0135347
695.874	0.0136296
695.953	0.0137219
696.031	0.0136969
696.109	0.0137248
696.187	0.0138258
696.265	0.0137572
696.343	0.0137452
696.421	0.0137920
696.499	0.0137993
696.578	0.0140936
696.656	0.0141073
696.734	0.0141522
696.812	0.0143424
696.890	0.0142310
696.968	0.0142893
697.046	0.0141106
697.124	0.0141688
697.203	0.0142757
697.281	0.0143689
697.359	0.0141879
697.437	0.0142347
697.515	0.0141512
697.593	0.0140016
697.671	0.0138007
697.749	0.0137305
697.828	0.0136651
697.906	0.0135222
697.984	0.0133183
698.062	0.0131647
698.140	0.0132527
698.218	0.0133199
698.296	0.0132922
698.374	0.0133688
698.453	0.0133455
698.531	0.0133870
698.609	0.0135279
698.687	0.0137173
698.765	0.0138583
698.843	0.0138814
698.921	0.0140633
698.999	0.0141373
699.078	0.0142876
699.156	0.0144289
699.234	0.0144226
699.312	0.0144691
699.390	0.0145175
699.468	0.0144582
699.546	0.0144131
699.624	0.0144918
699.703	0.0144263
699.781	0.0143951
699.859	0.0143312
699.937	0.0142086
700.015	0.0139726
700.093	0.0140195
700.171	0.0138918
700.249	0.0138097
700.328	0.0138197
700.406	0.0136404
700.484	0.0136195
700.562	0.0135173
700.640	0.0134951
700.718	0.0134933
700.796	0.0134006
700.874	0.0134470
700.953	0.0135406
701.031	0.0135773
701.109	0.0135956
701.187	0.0136873
701.265	0.0137686
701.343	0.0137325
701.421	0.0138739
701.499	0.0138362
701.578	0.0138554
701.656	0.0140087
701.734	0.0141552
701.812	0.0140285
701.890	0.0142240
701.968	0.0142073
702.046	0.0142181
702.124	0.0141322
702.203	0.0141201
702.281	0.0141212
702.359	0.0139949
702.437	0.0138831
702.515	0.0139349
702.593	0.0139236
702.671	0.0139979
702.749	0.0138719
702.828	0.0137385
702.906	0.0137551
702.984	0.0139043
703.062	0.0136538
703.140	0.0137154
703.218	0.0137345
703.296	0.0136682
703.374	0.0137526
703.453	0.0137717
703.531	0.0137273
703.609	0.0139487
703.687	0.0138223
703.765	0.0138416
703.843	0.0139046
703.921	0.0139600
703.999	0.0141998
704.078	0.0141270
704.156	0.0141000
704.234	0.0142155
704.312	0.0141685
704.390	0.0143003
704.468	0.0143966
704.546	0.0142590
704.624	0.0141702
704.703	0.0143772
704.781	0.0142207
704.859	0.0140131
704.937	0.0139938
705.015	0.0138833
705.093	0.0138390
705.171	0.0137440
705.249	0.0135861
705.328	0.0134990
705.406	0.0134197
705.484	0.0132822
705.562	0.0135223
705.640	0.0133858
705.718	0.0134012
705.796	0.0136788
705.874	0.0136206
705.953	0.0136160
706.031	0.0137430
706.109	0.0137901
706.187	0.0139995
706.265	0.0139201
706.343	0.0140595
706.421	0.0140157
706.499	0.0139665
706.578	0.0142147
706.656	0.0141969
706.734	0.0141155
706.812	0.0141060
706.890	0.0141833
706.968	0.0139590
707.046	0.0137962
707.124	0.0139084
707.203	0.0139817
707.281	0.0138237
707.359	0.0138741
707.437	0.0136617
707.515	0.0135336
707.593	0.0136844
707.671	0.0135628
707.749	0.0134590
707.828	0.0135426
707.906	0.0134431
707.984	0.0134705
708.062	0.0136409
708.140	0.0135175
708.218	0.0136518
708.296	0.0137740
708.374	0.0138046
708.453	0.0139510
708.531	0.0140318
708.609	0.0141537
708.687	0.0140849
708.765	0.0141695
708.843	0.0143142
708.921	0.0142444
708.999	0.0142410
709.078	0.0140866
709.156	0.0141293
709.234	0.0141030
709.312	0.0139153
709.390	0.0140275
709.468	0.0139055
709.546	0.0138219
709.624	0.0137921
709.703	0.0136762
709.781	0.0135578
709.859	0.0135161
709.937	0.0135859
710.015	0.0135094
710.093	0.0135561
710.171	0.0135111
710.249	0.0135035
710.328	0.0135651
710.406	0.0135762
710.484	0.0136036
710.562	0.0136728
710.640	0.0137695
710.718	0.0138329
710.796	0.0137525
710.874	0.0140133
710.953	0.0140538
711.031	0.0138747
711.109	0.0138957
711.187	0.0141557
711.265	0.0141440
711.343	0.0140633
711.421	0.0140707
711.499	0.0140856
711.578	0.0140343
711.656	0.0139055
711.734	0.0139236
711.812	0.0140016
711.890	0.0138105
711.968	0.0137481
712.046	0.0137522
712.124	0.0137764
712.203	0.0137655
712.281	0.0137278
712.359	0.0137160
712.437	0.0136158
712.515	0.0135975
712.593	0.0136934
712.671	0.0137205
712.749	0.0137377
712.828	0.0136864
712.906	0.0137057
712.984	0.0138326
713.062	0.0138526
713.140	0.0140565
713.218	0.0139368
713.296	0.0140015
713.374	0.0139790
713.453	0.0139340
713.531	0.0138679
713.609	0.0140926
713.687	0.0141570
713.765	0.0138749
713.843	0.0138907
713.921	0.0138605
713.999	0.0139546
714.078	0.0138474
714.156	0.0137761
714.234	0.0137430
714.312	0.0138432
714.390	0.0136899
714.468	0.0138404
714.546	0.0137862
714.624	0.0138249
714.703	0.0137471
714.781	0.0137233
714.859	0.0136765
714.937	0.0138519
715.015	0.0137108
715.093	0.0137163
715.171	0.0138423
715.249	0.0139026
715.328	0.0139735
715.406	0.0139028
715.484	0.0140516
715.562	0.0140259
715.640	0.0142088
715.718	0.0140987
715.796	0.0139970
715.874	0.0142901
715.953	0.0140618
716.031	0.0140734
716.109	0.0141462
716.187	0.0140041
716.265	0.0140405
716.343	0.0140365
716.421	0.0140078
716.499	0.0139430
716.578	0.0137437
716.656	0.0137100
716.734	0.0137063
716.812	0.0135609
716.890	0.0135094
716.968	0.0135361
717.046	0.0134863
717.124	0.0134761
717.203	0.0135027
717.281	0.0135714
717.359	0.0135649
717.437	0.0135333
717.515	0.0137924
717.593	0.0139331
717.671	0.0139021
717.749	0.0139577
717.828	0.0139687
717.906	0.0139925
717.984	0.0140941
718.062	0.0141412
718.140	0.0139825
718.218	0.0140575
718.296	0.0141518
718.374	0.0141402
718.453	0.0139890
718.531	0.0139487
718.609	0.0140160
718.687	0.0140709
718.765	0.0138264
718.843	0.0137409
718.921	0.0138499
718.999	0.0137473
719.078	0.0136327
719.156	0.0136159
719.234	0.0136738
719.312	0.0135748
719.390	0.0136797
719.468	0.0136024
719.546	0.0136550
719.624	0.0138419
719.703	0.0138249
719.781	0.0137674
719.859	0.0138072
719.937	0.0139450
720.015	0.0141070
720.093	0.0140187
720.171	0.0139819
720.249	0.0140491
720.328	0.0140713
720.406	0.0140629
720.484	0.0140173
720.562	0.0140301
720.640	0.0141086
720.718	0.0138878
720.796	0.0138542
720.874	0.0137470
720.953	0.0138022
721.031	0.0137519
721.109	0.0137298
721.187	0.0137952
721.265	0.0138194
721.343	0.0137403
721.421	0.0136736
721.499	0.0135763
721.578	0.0137135
721.656	0.0136860
721.734	0.0137305
721.812	0.0137711
721.890	0.0136819
721.968	0.0136554
722.046	0.0139213
722.124	0.0137643
722.203	0.0138616
722.281	0.0139022
722.359	0.0139062
722.437	0.0138320
722.515	0.0139259
722.593	0.0139845
722.671	0.0139159
722.749	0.0139199
722.828	0.0139861
722.906	0.0140731
722.984	0.0140655
723.062	0.0140052
723.140	0.0139935
723.218	0.0141776
723.296	0.0139679
723.374	0.0139908
723.453	0.0138403
723.531	0.0139088
723.609	0.0139203
723.687	0.0139827
723.765	0.0138160
723.843	0.0136800
723.921	0.0138738
723.999	0.0137456
724.078	0.0138629
724.156	0.0137871
724.234	0.0137243
724.312	0.0135595
724.390	0.0138617
724.468	0.0138257
724.546	0.0137518
724.624	0.0136938
724.703	0.0140157
724.781	0.0137702
724.859	0.0138580
724.937	0.0138120
725.015	0.0138703
725.093	0.0139227
725.171	0.0139364
725.249	0.0138710
725.328	0.0138966
725.406	0.0139542
725.484	0.0138176
725.562	0.0137793
725.640	0.0140134
725.718	0.0138548
725.796	0.0139459
725.874	0.0138843
725.953	0.0138467
726.031	0.0139246
726.109	0.0136929
726.187	0.0137245
726.265	0.0136537
726.343	0.0136510
726.421	0.0136796
726.499	0.0137479
726.578	0.0138358
726.656	0.0138152
726.734	0.0138277
726.812	0.0139255
726.890	0.0139732
726.968	0.0139954
727.046	0.0140395
727.124	0.0139770
727.203	0.0140707
727.281	0.0140837
727.359	0.0141930
727.437	0.0139191
727.515	0.0139442
727.593	0.0140293
727.671	0.0139130
727.749	0.0138662
727.828	0.0139005
727.906	0.0138702
727.984	0.0136313
728.062	0.0138390
728.140	0.0138523
728.218	0.0136569
728.296	0.0136903
728.374	0.0136642
728.453	0.0137354
728.531	0.0136217
728.609	0.0137101
728.687	0.0136786
728.765	0.0139037
728.843	0.0137960
728.921	0.0138158
728.999	0.0138380
729.078	0.0138854
729.156	0.0139804
729.234	0.0139553
729.312	0.0139196
729.390	0.0139594
729.468	0.0141084
729.546	0.0139941
729.624	0.0139890
729.703	0.0139883
729.781	0.0141031
729.859	0.0141880
729.937	0.0139838
730.015	0.0139602
730.093	0.0139469
730.171	0.0139642
730.249	0.0139582
730.328	0.0139366
730.406	0.0137629
730.484	0.0137736
730.562	0.0136025
730.640	0.0136399
730.718	0.0136210
730.796	0.0135804
730.874	0.0136084
730.953	0.0135332
731.031	0.0136745
731.109	0.0136251
731.187	0.0135975
731.265	0.0135578
731.343	0.0134931
731.421	0.0136594
731.499	0.0137492
731.578	0.0138082
731.656	0.0137485
731.734	0.0138283
731.812	0.0137621
731.890	0.0138448
731.968	0.0138924
732.046	0.0139181
732.124	0.0140839
732.203	0.0141045
732.281	0.0139031
732.359	0.0138388
732.437	0.0138558
732.515	0.0139306
732.593	0.0138316
732.671	0.0138929
732.749	0.0138481
732.828	0.0137824
732.906	0.0138466
732.984	0.0138080
733.062	0.0137556
733.140	0.0137554
733.218	0.0136425
733.296	0.0136413
733.374	0.0137090
733.453	0.0135770
733.531	0.0136167
733.609	0.0136968
733.687	0.0136384
733.765	0.0134720
733.843	0.0137830
733.921	0.0136845
733.999	0.0136770
734.078	0.0136268
734.156	0.0137779
734.234	0.0137439
734.312	0.0137309
734.390	0.0138053
734.468	0.0138932
734.546	0.0139336
734.624	0.0138577
734.703	0.0139045
734.781	0.0139509
734.859	0.0138181
734.937	0.0140277
735.015	0.0139651
735.093	0.0137683
735.171	0.0138640
735.249	0.0137366
735.328	0.0138702
735.406	0.0139658
735.484	0.0138715
735.562	0.0138654
735.640	0.0138442
735.718	0.0137871
735.796	0.0136504
735.874	0.0137112
735.953	0.0137910
736.031	0.0138806
736.109	0.0137843
736.187	0.0137783
736.265	0.0136922
736.343	0.0137284
736.421	0.0137698
736.499	0.0137254
736.578	0.0137780
736.656	0.0138132
736.734	0.0139170
736.812	0.0138735
736.890	0.0139812
736.968	0.0139227
737.046	0.0139513
737.124	0.0137888
737.203	0.0137685
737.281	0.0138989
737.359	0.0137688
737.437	0.0137807
737.515	0.0138200
737.593	0.0137220
737.671	0.0138013
737.749	0.0136169
737.828	0.0138156
737.906	0.0136742
737.984	0.0136942
738.062	0.0137401
738.140	0.0137742
738.218	0.0137950
738.296	0.0139011
738.374	0.0139051
738.453	0.0138519
738.531	0.0138390
738.609	0.0138456
738.687	0.0139005
738.765	0.0139294
738.843	0.0139568
738.921	0.0138195
738.999	0.0137670
739.078	0.0138849
739.156	0.0139229
739.234	0.0138920
739.312	0.0139211
739.390	0.0138239
739.468	0.0138465
739.546	0.0138227
739.624	0.0137753
739.703	0.0137717
739.781	0.0136765
739.859	0.0136985
739.937	0.0139343
740.015	0.0137469
740.093	0.0137813
740.171	0.0138974
740.249	0.0139630
740.328	0.0139599
740.406	0.0138980
740.484	0.0137851
740.562	0.0139342
740.640	0.0139061
740.718	0.0138956
740.796	0.0137987
740.874	0.0140161
740.953	0.0139972
741.031	0.0138819
741.109	0.0139822
741.187	0.0140473
741.265	0.0139775
741.343	0.0138866
741.421	0.0140638
741.499	0.0140467
741.578	0.0140144
741.656	0.0140359
741.734	0.0139837
741.812	0.0138638
741.890	0.0139964
741.968	0.0139740
742.046	0.0138522
742.124	0.0138950
742.203	0.0137635
742.281	0.0139390
742.359	0.0138744
742.437	0.0137788
742.515	0.0137263
742.593	0.0138287
742.671	0.0138580
742.749	0.0138481
742.828	0.0137930
742.906	0.0138441
742.984	0.0138570
743.062	0.0138158
743.140	0.0138602
743.218	0.0137350
743.296	0.0138309
743.374	0.0138358
743.453	0.0139367
743.531	0.0137584
743.609	0.0138194
743.687	0.0138712
743.765	0.0138714
743.843	0.0139176
743.921	0.0140281
743.999	0.0139014
744.078	0.0139491
744.156	0.0140482
744.234	0.0139983
744.312	0.0139872
744.390	0.0140302
744.468	0.0140268
744.546	0.0140150
744.624	0.0138678
744.703	0.0139484
744.781	0.0139837
744.859	0.0138725
744.937	0.0139851
745.015	0.0140400
745.093	0.0139501
745.171	0.0138058
745.249	0.0138096
745.328	0.0139061
745.406	0.0140218
745.484	0.0137739
745.562	0.0138171
745.640	0.0139151
745.718	0.0138040
745.796	0.0138449
745.874	0.0139486
745.953	0.0138354
746.031	0.0139748
746.109	0.0140124
746.187	0.0141093
746.265	0.0141007
746.343	0.0140411
746.421	0.0140787
746.499	0.0139358
746.578	0.0138750
746.656	0.0140774
746.734	0.0140816
746.812	0.0141110
746.890	0.0139539
746.968	0.0138458
747.046	0.0138951
747.124	0.0139220
747.203	0.0139234
747.281	0.0139786
747.359	0.0140200
747.437	0.0138285
747.515	0.0136947
747.593	0.0138902
747.671	0.0138453
747.749	0.0139560
747.828	0.0139640
747.906	0.0139158
747.984	0.0137698
748.062	0.0138272
748.140	0.0138228
748.218	0.0139433
748.296	0.0137612
748.374	0.0139172
748.453	0.0139045
748.531	0.0138958
748.609	0.0138649
748.687	0.0139929
748.765	0.0137119
748.843	0.0139094
748.921	0.0139273
748.999	0.0138685
749.078	0.0138673
749.156	0.0140022
749.234	0.0140211
749.312	0.0139722
749.390	0.0139967
749.468	0.0139280
749.546	0.0140161
749.624	0.0140536
749.703	0.0140308
749.781	0.0138897
749.859	0.0141012
749.937	0.0139749
750.015	0.0140859
750.093	0.0141109
750.171	0.0139622
750.249	0.0138496
750.328	0.0139256
750.406	0.0138902
750.484	0.0139839
750.562	0.0139574
750.640	0.0137188
750.718	0.0138499
750.796	0.0139214
750.874	0.0137585
750.953	0.0137231
751.031	0.0136671
751.109	0.0138638
751.187	0.0137936
751.265	0.0137188
751.343	0.0138419
751.421	0.0138076
751.499	0.0137501
751.578	0.0138754
751.656	0.0136980
751.734	0.0138306
751.812	0.0138850
751.890	0.0137366
751.968	0.0139385
752.046	0.0137427
752.124	0.0138400
752.203	0.0139277
752.281	0.0137498
752.359	0.0137997
752.437	0.0138811
752.515	0.0138160
752.593	0.0137322
752.671	0.0137762
752.749	0.0138943
752.828	0.0139100
752.906	0.0136928
752.984	0.0137411
753.062	0.0137907
753.140	0.0138628
753.218	0.0138723
753.296	0.0137768
753.374	0.0137030
753.453	0.0136745
753.531	0.0135463
753.609	0.0137583
753.687	0.0135755
753.765	0.0136346
753.843	0.0135595
753.921	0.0136490
753.999	0.0134889
754.078	0.0136680
754.156	0.0136350
754.234	0.0136145
754.312	0.0136040
754.390	0.0136205
754.468	0.0135854
754.546	0.0136308
754.624	0.0137658
754.703	0.0136637
754.781	0.0136949
754.859	0.0137366
754.937	0.0138232
755.015	0.0137444
755.093	0.0137864
755.171	0.0139597
755.249	0.0137575
755.328	0.0138734
755.406	0.0139326
755.484	0.0138158
755.562	0.0138660
755.640	0.0138913
755.718	0.0139188
755.796	0.0137080
755.874	0.0138837
755.953	0.0138700
756.031	0.0138618
756.109	0.0138239
756.187	0.0138055
756.265	0.0138454
756.343	0.0137546
756.421	0.0137129
756.499	0.0137240
756.578	0.0136995
756.656	0.0138874
756.734	0.0137865
756.812	0.0137414
756.890	0.0138614
756.968	0.0138158
757.046	0.0137616
757.124	0.0138552
757.203	0.0137804
757.281	0.0138050
757.359	0.0136610
757.437	0.0137093
757.515	0.0137016
757.593	0.0136620
757.671	0.0138438
757.749	0.0136697
757.828	0.0135433
757.906	0.0137349
757.984	0.0138079
758.062	0.0138258
758.140	0.0137336
758.218	0.0140073
758.296	0.0137522
758.374	0.0138804
758.453	0.0139645
758.531	0.0138645
758.609	0.0140005
758.687	0.0139808
758.765	0.0139378
758.843	0.0139115
758.921	0.0139130
758.999	0.0137883
759.078	0.0139474
759.156	0.0137613
759.234	0.0139950
759.312	0.0139127
759.390	0.0137582
759.468	0.0136722
759.546	0.0136594
759.624	0.0137582
759.703	0.0137666
759.781	0.0137921
759.859	0.0138367
759.937	0.0137975
760.015	0.0137437
760.093	0.0138968
760.171	0.0139137
760.249	0.0138979
760.328	0.0137865
760.406	0.0138351
760.484	0.0138515
760.562	0.0137832
760.640	0.0139242
760.718	0.0139651
760.796	0.0137344
760.874	0.0138138
760.953	0.0139420
761.031	0.0139059
761.109	0.0136997
761.187	0.0138714
761.265	0.0139909
761.343	0.0138930
761.421	0.0140208
761.499	0.0138531
761.578	0.0138850
761.656	0.0140474
761.734	0.0138786
761.812	0.0139396
761.890	0.0138934
761.968	0.0138848
762.046	0.0138924
762.124	0.0139075
762.203	0.0138626
762.281	0.0139464
762.359	0.0138750
762.437	0.0137273
762.515	0.0137532
762.593	0.0138018
762.671	0.0138227
762.749	0.0138044
762.828	0.0138097
762.906	0.0138754
762.984	0.0137222
763.062	0.0136573
763.140	0.0137391
763.218	0.0137026
763.296	0.0136750
763.374	0.0137083
763.453	0.0138728
763.531	0.0138100
763.609	0.0137071
763.687	0.0138802
763.765	0.0139294
763.843	0.0138626
763.921	0.0138819
763.999	0.0138000
764.078	0.0139018
764.156	0.0139055
764.234	0.0139749
764.312	0.0138302
764.390	0.0138400
764.468	0.0137860
764.546	0.0138441
764.624	0.0138440
764.703	0.0139849
764.781	0.0138880
764.859	0.0138971
764.937	0.0139076
765.015	0.0140386
765.093	0.0139764
765.171	0.0138954
765.249	0.0139200
765.328	0.0139874
765.406	0.0140791
765.484	0.0139498
765.562	0.0140267
765.640	0.0138429
765.718	0.0138313
765.796	0.0137509
765.874	0.0139361
765.953	0.0138613
766.031	0.0137854
766.109	0.0139722
766.187	0.0138679
766.265	0.0138724
766.343	0.0140062
766.421	0.0139557
766.499	0.0139597
766.578	0.0141521
766.656	0.0138516
766.734	0.0138771
766.812	0.0139267
766.890	0.0140640
766.968	0.0141929
767.046	0.0141071
767.124	0.0140103
767.203	0.0141022
767.281	0.0139263
767.359	0.0139188
767.437	0.0138811
767.515	0.0137820
767.593	0.0139164
767.671	0.0138426
767.749	0.0137766
767.828	0.0138533
767.906	0.0138807
767.984	0.0137896
768.062	0.0137574
768.140	0.0137954
768.218	0.0139072
768.296	0.0138785
768.374	0.0139264
768.453	0.0138879
768.531	0.0138837
768.609	0.0139722
768.687	0.0140215
768.765	0.0137985
768.843	0.0139624
768.921	0.0140446
768.999	0.0139569
769.078	0.0139172
769.156	0.0140972
769.234	0.0139594
769.312	0.0139609
769.390	0.0139758
769.468	0.0138781
769.546	0.0139052
769.624	0.0140324
769.703	0.0140242
769.781	0.0138653
769.859	0.0139318
769.937	0.0138811
770.015	0.0138807
770.093	0.0139792
770.171	0.0139635
770.249	0.0139584
770.328	0.0139762
770.406	0.0139286
770.484	0.0141266
770.562	0.0138409
770.640	0.0139569
770.718	0.0137211
770.796	0.0137601
770.874	0.0137792
770.953	0.0138379
771.031	0.0138071
771.109	0.0137006
771.187	0.0137649
771.265	0.0137176
771.343	0.0136185
771.421	0.0137574
771.499	0.0136891
771.578	0.0137549
771.656	0.0137748
771.734	0.0138087
771.812	0.0138329
771.890	0.0137921
771.968	0.0137707
772.046	0.0140233
772.124	0.0138405
772.203	0.0139552
772.281	0.0140454
772.359	0.0140472
772.437	0.0140224
772.515	0.0140264
772.593	0.0140162
772.671	0.0140670
772.749	0.0139209
772.828	0.0139822
772.906	0.0141119
772.984	0.0141032
773.062	0.0141922
773.140	0.0140676
773.218	0.0139595
773.296	0.0140717
773.374	0.0140947
773.453	0.0139314
773.531	0.0138921
773.609	0.0138848
773.687	0.0138899
773.765	0.0139301
773.843	0.0138376
773.921	0.0138539
773.999	0.0137742
774.078	0.0137271
774.156	0.0138283
774.234	0.0139521
774.312	0.0137497
774.390	0.0137787
774.468	0.0138229
774.546	0.0138972
774.624	0.0137804
774.703	0.0138834
774.781	0.0137949
774.859	0.0137971
774.937	0.0137342
775.015	0.0138235
775.093	0.0139331
775.171	0.0140541
775.249	0.0139512
775.328	0.0139133
775.406	0.0139285
775.484	0.0139150
775.562	0.0140035
775.640	0.0139070
775.718	0.0139803
775.796	0.0140157
775.874	0.0139503
775.953	0.0140694
776.031	0.0139702
776.109	0.0139771
776.187	0.0137429
776.265	0.0139471
776.343	0.0140181
776.421	0.0139700
776.499	0.0138475
776.578	0.0139896
776.656	0.0137717
776.734	0.0137519
776.812	0.0138083
776.890	0.0137472
776.968	0.0137232
777.046	0.0138466
777.124	0.0137675
777.203	0.0137815
777.281	0.0138819
777.359	0.0137677
777.437	0.0138379
777.515	0.0138660
777.593	0.0137682
777.671	0.0137756
777.749	0.0138383
777.828	0.0138154
777.906	0.0139765
777.984	0.0141376
778.062	0.0139738
778.140	0.0139948
778.218	0.0140346
778.296	0.0140520
778.374	0.0139748
778.453	0.0140916
778.531	0.0140871
778.609	0.0140457
778.687	0.0141868
778.765	0.0139710
778.843	0.0140353
778.921	0.0139301
778.999	0.0138422
779.078	0.0138567
779.156	0.0138663
779.234	0.0139208
779.312	0.0140490
779.390	0.0139124
779.468	0.0138704
779.546	0.0138794
779.624	0.0137590
779.703	0.0138727
779.781	0.0137395
779.859	0.0139035
779.937	0.0137814
780.015	0.0139654
780.093	0.0138146
780.171	0.0137951
780.249	0.0136695
780.328	0.0137360
780.406	0.0137616
780.484	0.0137473
780.562	0.0137016
780.640	0.0137261
780.718	0.0135210
780.796	0.0136766
780.874	0.0137724
780.953	0.0136817
781.031	0.0138812
781.109	0.0137754
781.187	0.0138482
781.265	0.0139948
781.343	0.0138602
781.421	0.0140520
781.499	0.0139461
781.578	0.0139319
781.656	0.0141090
781.734	0.0139244
781.812	0.0141132
781.890	0.0140353
781.968	0.0139692
782.046	0.0139759
782.124	0.0141557
782.203	0.0140247
782.281	0.0139831
782.359	0.0139764
782.437	0.0141389
782.515	0.0141263
782.593	0.0140359
782.671	0.0140640
782.749	0.0139014
782.828	0.0139462
782.906	0.0139888
782.984	0.0138994
783.062	0.0139304
783.140	0.0138889
783.218	0.0137954
783.296	0.0138486
783.374	0.0138056
783.453	0.0137074
783.531	0.0137381
783.609	0.0136652
783.687	0.0135234
783.765	0.0136112
783.843	0.0136731
783.921	0.0136277
783.999	0.0136668
784.078	0.0136346
784.156	0.0136977
784.234	0.0135445
784.312	0.0135674
784.390	0.0136324
784.468	0.0137030
784.546	0.0138067
784.624	0.0136214
784.703	0.0137242
784.781	0.0139567
784.859	0.0138238
784.937	0.0138532
785.015	0.0139545
785.093	0.0140088
785.171	0.0139766
785.249	0.0140170
785.328	0.0140108
785.406	0.0140331
785.484	0.0140336
785.562	0.0139574
785.640	0.0139899
785.718	0.0139454
785.796	0.0140234
785.874	0.0139565
785.953	0.0138505
786.031	0.0138609
786.109	0.0140214
786.187	0.0139941
786.265	0.0138190
786.343	0.0138985
786.421	0.0138454
786.499	0.0137328
786.578	0.0136992
786.656	0.0137226
786.734	0.0137309
786.812	0.0136456
786.890	0.0135873
786.968	0.0137267
787.046	0.0137633
787.124	0.0135542
787.203	0.0135748
787.281	0.0134157
787.359	0.0134218
787.437	0.0136095
787.515	0.0136904
787.593	0.0135832
787.671	0.0136426
787.749	0.0136205
787.828	0.0136038
787.906	0.0135110
787.984	0.0135799
788.062	0.0137794
788.140	0.0137544
788.218	0.0136903
788.296	0.0139725
788.374	0.0139336
788.453	0.0140746
788.531	0.0137370
788.609	0.0139001
788.687	0.0138519
788.765	0.0138934
788.843	0.0139661
788.921	0.0140320
788.999	0.0140060
789.078	0.0138116
789.156	0.0140511
789.234	0.0139758
789.312	0.0139174
789.390	0.0139184
789.468	0.0138986
789.546	0.0139349
789.624	0.0139156
789.703	0.0137080
789.781	0.0137654
789.859	0.0137197
789.937	0.0135935
790.015	0.0137153
790.093	0.0137202
790.171	0.0136776
790.249	0.0135502
790.328	0.0136851
790.406	0.0135242
790.484	0.0135890
790.562	0.0136768
790.640	0.0135323
790.718	0.0136478
790.796	0.0136701
790.874	0.0136807
790.953	0.0138799
791.031	0.0137341
791.109	0.0137810
791.187	0.0138454
791.265	0.0138019
791.343	0.0138505
791.421	0.0138815
791.499	0.0140452
791.578	0.0140759
791.656	0.0141805
791.734	0.0140414
791.812	0.0140253
791.890	0.0139714
791.968	0.0141053
792.046	0.0142039
792.124	0.0140572
792.203	0.0140497
792.281	0.0139964
792.359	0.0139197
792.437	0.0139381
792.515	0.0138707
792.593	0.0138858
792.671	0.0138752
792.749	0.0138215
792.828	0.0138023
792.906	0.0138075
792.984	0.0137964
793.062	0.0137036
793.140	0.0138203
793.218	0.0137527
793.296	0.0137238
793.374	0.0138688
793.453	0.0138529
793.531	0.0137295
793.609	0.0138144
793.687	0.0138804
793.765	0.0136972
793.843	0.0137605
793.921	0.0137421
793.999	0.0138004
794.078	0.0137492
794.156	0.0138948
794.234	0.0137971
794.312	0.0139255
794.390	0.0138933
794.468	0.0139736
794.546	0.0140044
794.624	0.0138817
794.703	0.0141398
794.781	0.0139938
794.859	0.0140450
794.937	0.0139436
795.015	0.0140207
795.093	0.0140913
795.171	0.0140721
795.249	0.0140139
795.328	0.0139946
795.406	0.0139896
795.484	0.0140414
795.562	0.0140854
795.640	0.0139997
795.718	0.0140428
795.796	0.0139474
795.874	0.0139352
795.953	0.0138624
796.031	0.0138599
796.109	0.0138954
796.187	0.0138532
796.265	0.0139220
796.343	0.0139301
796.421	0.0137529
796.499	0.0139219
796.578	0.0137810
796.656	0.0138210
796.734	0.0137868
796.812	0.0136105
796.890	0.0137281
796.968	0.0137260
797.046	0.0137012
797.124	0.0136792
797.203	0.0136975
797.281	0.0138243
797.359	0.0138843
797.437	0.0139137
797.515	0.0138573
797.593	0.0138636
797.671	0.0138841
797.749	0.0138964
797.828	0.0138612
797.906	0.0139583
797.984	0.0140887
798.062	0.0141100
798.140	0.0141655
798.218	0.0139957
798.296	0.0141299
798.374	0.0140714
798.453	0.0140324
798.531	0.0139841
798.609	0.0140993
798.687	0.0140407
798.765	0.0139594
798.843	0.0140706
798.921	0.0141462
798.999	0.0139675
799.078	0.0140388
799.156	0.0138943
799.234	0.0137601
799.312	0.0137843
799.390	0.0138155
799.468	0.0138538
799.546	0.0136749
799.624	0.0137624
799.703	0.0137359
799.781	0.0137599
799.859	0.0138596
799.937	0.0139304
800.015	0.0137209
800.093	0.0138950
800.171	0.0139151
800.249	0.0138501
800.328	0.0138377
800.406	0.0139346
800.484	0.0139407
800.562	0.0139320
800.640	0.0139336
800.718	0.0140475
800.796	0.0141319
800.874	0.0138071
800.953	0.0140200
801.031	0.0140536
801.109	0.0139584
801.187	0.0138844
801.265	0.0141370
801.343	0.0140089
801.421	0.0140065
801.499	0.0141663
801.578	0.0140447
801.656	0.0140532
801.734	0.0140959
801.812	0.0139521
801.890	0.0139664
801.968	0.0139721
802.046	0.0140097
802.124	0.0140697
802.203	0.0139593
802.281	0.0139874
802.359	0.0140349
802.437	0.0139738
802.515	0.0139467
802.593	0.0139716
802.671	0.0139314
802.749	0.0138967
802.828	0.0139795
802.906	0.0139160
802.984	0.0139036
803.062	0.0139007
803.140	0.0137428
803.218	0.0138264
803.296	0.0139052
803.374	0.0137574
803.453	0.0137625
803.531	0.0138065
803.609	0.0139037
803.687	0.0139362
803.765	0.0138558
803.843	0.0139297
803.921	0.0138637
803.999	0.0139182
804.078	0.0138084
804.156	0.0138995
804.234	0.0137991
804.312	0.0139223
804.390	0.0139440
804.468	0.0138859
804.546	0.0138164
804.624	0.0139198
804.703	0.0139793
804.781	0.0139505
804.859	0.0139120
804.937	0.0139178
805.015	0.0139645
805.093	0.0140415
805.171	0.0138940
805.249	0.0140062
805.328	0.0140175
805.406	0.0139828
805.484	0.0139861
805.562	0.0140414
805.640	0.0140660
805.718	0.0140900
805.796	0.0138847
805.874	0.0139635
805.953	0.0139500
806.031	0.0139642
806.109	0.0138887
806.187	0.0139081
806.265	0.0138625
806.343	0.0139792
806.421	0.0137825
806.499	0.0137542
806.578	0.0137272
806.656	0.0137267
806.734	0.0137402
806.812	0.0137624
806.890	0.0135992
806.968	0.0136919
807.046	0.0139280
807.124	0.0138790
807.203	0.0138699
807.281	0.0138963
807.359	0.0138896
807.437	0.0141167
807.515	0.0140591
807.593	0.0139874
807.671	0.0140189
807.749	0.0140878
807.828	0.0141810
807.906	0.0142471
807.984	0.0139887
808.062	0.0140151
808.140	0.0141722
808.218	0.0141624
808.296	0.0141776
808.374	0.0140183
808.453	0.0140572
808.531	0.0141499
808.609	0.0140206
808.687	0.0140361
808.765	0.0140762
808.843	0.0139262
808.921	0.0139626
808.999	0.0139455
809.078	0.0139664
809.156	0.0139186
809.234	0.0138779
809.312	0.0139051
809.390	0.0139650
809.468	0.0138743
809.546	0.0138137
809.624	0.0137270
809.703	0.0138317
809.781	0.0137434
809.859	0.0137734
809.937	0.0136439
810.015	0.0136752
810.093	0.0137658
810.171	0.0137801
810.249	0.0137356
810.328	0.0136831
810.406	0.0138299
810.484	0.0139038
810.562	0.0139830
810.640	0.0140639
810.718	0.0136202
810.796	0.0137054
810.874	0.0139498
810.953	0.0139147
811.031	0.0139217
811.109	0.0138906
811.187	0.0139535
811.265	0.0138903
811.343	0.0138560
811.421	0.0138174
811.499	0.0139662
811.578	0.0139020
811.656	0.0138528
811.734	0.0138239
811.812	0.0138166
811.890	0.0138551
811.968	0.0139674
812.046	0.0139146
812.124	0.0138134
812.203	0.0138799
812.281	0.0138735
812.359	0.0138200
812.437	0.0137981
812.515	0.0138210
812.593	0.0136344
812.671	0.0135239
812.749	0.0137532
812.828	0.0137434
812.906	0.0137260
812.984	0.0135735
813.062	0.0136113
813.140	0.0136160
813.218	0.0135618
813.296	0.0135989
813.374	0.0135345
813.453	0.0135799
813.531	0.0135475
813.609	0.0135513
813.687	0.0136539
813.765	0.0136206
813.843	0.0135553
813.921	0.0135267
813.999	0.0135894
814.078	0.0137031
814.156	0.0136887
814.234	0.0137714
814.312	0.0137904
814.390	0.0138031
814.468	0.0137108
814.546	0.0139055
814.624	0.0139170
814.703	0.0138464
814.781	0.0137721
814.859	0.0139023
814.937	0.0138887
815.015	0.0139131
815.093	0.0137960
815.171	0.0137944
815.249	0.0137775
815.328	0.0138303
815.406	0.0138787
815.484	0.0138060
815.562	0.0137646
815.640	0.0136639
815.718	0.0137959
815.796	0.0136805
815.874	0.0136983
815.953	0.0135778
816.031	0.0135673
816.109	0.0135854
816.187	0.0134940
816.265	0.0135374
816.343	0.0135439
816.421	0.0136041
816.499	0.0134859
816.578	0.0135981
816.656	0.0135978
816.734	0.0136433
816.812	0.0137678
816.890	0.0136906
816.968	0.0136333
817.046	0.0138741
817.124	0.0138122
817.203	0.0139017
817.281	0.0138416
817.359	0.0138968
817.437	0.0138731
817.515	0.0139314
817.593	0.0138094
817.671	0.0139761
817.749	0.0139639
817.828	0.0139655
817.906	0.0139416
817.984	0.0138656
818.062	0.0139957
818.140	0.0138867
818.218	0.0138915
818.296	0.0138426
818.374	0.0138561
818.453	0.0139327
818.531	0.0137312
818.609	0.0139838
818.687	0.0139114
818.765	0.0137450
818.843	0.0139127
818.921	0.0137159
818.999	0.0137420
819.078	0.0138179
819.156	0.0137724
819.234	0.0136884
819.312	0.0137859
819.390	0.0136878
819.468	0.0138905
819.546	0.0137310
819.624	0.0137223
819.703	0.0137646
819.781	0.0137772
819.859	0.0137701
819.937	0.0138185
820.015	0.0137315
820.093	0.0137875
820.171	0.0139175
820.249	0.0138445
820.328	0.0137639
820.406	0.0138609
820.484	0.0137457
820.562	0.0137865
820.640	0.0137711
820.718	0.0138984
820.796	0.0138840
820.874	0.0138725
820.953	0.0139768
821.031	0.0138655
821.109	0.0139120
821.187	0.0140757
821.265	0.0139333
821.343	0.0138474
821.421	0.0139520
821.499	0.0140130
821.578	0.0139780
821.656	0.0139863
821.734	0.0140289
821.812	0.0139845
821.890	0.0138665
821.968	0.0139610
822.046	0.0139127
822.124	0.0138723
822.203	0.0138445
822.281	0.0140404
822.359	0.0138757
822.437	0.0138890
822.515	0.0138982
822.593	0.0139204
822.671	0.0139140
822.749	0.0137496
822.828	0.0137602
822.906	0.0139004
822.984	0.0140157
823.062	0.0139736
823.140	0.0138428
823.218	0.0141146
823.296	0.0139657
823.374	0.0140240
823.453	0.0139949
823.531	0.0139833
823.609	0.0138787
823.687	0.0138958
823.765	0.0140354
823.843	0.0140656
823.921	0.0140883
823.999	0.0139591
824.078	0.0138120
824.156	0.0140447
824.234	0.0140999
824.312	0.0140840
824.390	0.0139800
824.468	0.0140580
824.546	0.0140033
824.624	0.0139235
824.703	0.0139381
824.781	0.0138833
824.859	0.0139491
824.937	0.0139720
825.015	0.0138688
825.093	0.0138771
825.171	0.0139309
825.249	0.0139352
825.328	0.0139350
825.406	0.0139973
825.484	0.0139295
825.562	0.0139970
825.640	0.0139806
825.718	0.0138386
825.796	0.0138412
825.874	0.0139662
825.953	0.0139925
826.031	0.0139130
826.109	0.0138696
826.187	0.0138905
826.265	0.0139558
826.343	0.0138837
826.421	0.0138029
826.499	0.0139417
826.578	0.0139697
826.656	0.0138181
826.734	0.0139861
826.812	0.0139244
826.890	0.0139066
826.968	0.0138785
827.046	0.0139359
827.124	0.0140325
827.203	0.0139855
827.281	0.0138885
827.359	0.0139359
827.437	0.0139722
827.515	0.0139764
827.593	0.0138873
827.671	0.0140231
827.749	0.0139589
827.828	0.0139059
827.906	0.0139630
827.984	0.0139318
828.062	0.0139694
828.140	0.0139655
828.218	0.0140550
828.296	0.0138673
828.374	0.0140199
828.453	0.0141029
828.531	0.0139242
828.609	0.0140195
828.687	0.0141798
828.765	0.0141026
828.843	0.0140828
828.921	0.0139185
828.999	0.0139474
829.078	0.0139214
829.156	0.0139458
829.234	0.0138803
829.312	0.0138625
829.390	0.0139583
829.468	0.0138474
829.546	0.0139254
829.624	0.0139009
829.703	0.0139294
829.781	0.0139326
829.859	0.0137842
829.937	0.0138927
830.015	0.0138334
830.093	0.0138420
830.171	0.0137897
830.249	0.0138629
830.328	0.0138577
830.406	0.0137474
830.484	0.0137589
830.562	0.0138338
830.640	0.0138399
830.718	0.0139509
830.796	0.0137793
830.874	0.0137724
830.953	0.0138113
831.031	0.0138230
831.109	0.0139561
831.187	0.0138969
831.265	0.0138660
831.343	0.0138371
831.421	0.0138957
831.499	0.0138786
831.578	0.0137923
831.656	0.0138420
831.734	0.0140265
831.812	0.0138563
831.890	0.0138265
831.968	0.0139046
832.046	0.0138229
832.124	0.0138834
832.203	0.0138200
832.281	0.0138223
832.359	0.0136373
832.437	0.0137846
832.515	0.0137533
832.593	0.0136689
832.671	0.0136875
832.749	0.0137593
832.828	0.0138244
832.906	0.0137215
832.984	0.0138661
833.062	0.0138920
833.140	0.0138392
833.218	0.0137878
833.296	0.0137901
833.374	0.0137256
833.453	0.0137259
833.531	0.0137941
833.609	0.0138521
833.687	0.0138895
833.765	0.0137492
833.843	0.0139076
833.921	0.0138994
833.999	0.0137503
834.078	0.0136995
834.156	0.0137781
834.234	0.0137666
834.312	0.0138022
834.390	0.0138378
834.468	0.0136929
834.546	0.0138460
834.624	0.0138190
834.703	0.0138877
834.781	0.0138196
834.859	0.0139066
834.937	0.0136669
835.015	0.0137918
835.093	0.0137881
835.171	0.0137991
835.249	0.0136905
835.328	0.0136144
835.406	0.0137025
835.484	0.0137410
835.562	0.0136774
835.640	0.0138428
835.718	0.0137402
835.796	0.0136716
835.874	0.0136574
835.953	0.0138491
836.031	0.0138943
836.109	0.0137961
836.187	0.0137464
836.265	0.0137196
836.343	0.0137740
836.421	0.0138182
836.499	0.0138094
836.578	0.0137281
836.656	0.0137681
836.734	0.0139223
836.812	0.0137720
836.890	0.0137132
836.968	0.0137446
837.046	0.0137772
837.124	0.0138550
837.203	0.0138091
837.281	0.0137077
837.359	0.0138005
837.437	0.0137968
837.515	0.0139396
837.593	0.0139100
837.671	0.0137820
837.749	0.0137690
837.828	0.0137700
837.906	0.0138786
837.984	0.0138588
838.062	0.0138511
838.140	0.0137207
838.218	0.0137760
838.296	0.0138351
838.374	0.0138778
838.453	0.0138869
838.531	0.0137180
838.609	0.0136982
838.687	0.0137999
838.765	0.0136898
838.843	0.0137995
838.921	0.0139096
838.999	0.0137606
839.078	0.0137166
839.156	0.0136505
839.234	0.0137890
839.312	0.0137550
839.390	0.0137828
839.468	0.0137239
839.546	0.0135980
839.624	0.0138176
839.703	0.0137772
839.781	0.0137376
839.859	0.0139267
839.937	0.0139288
840.015	0.0138368
840.093	0.0139060
840.171	0.0137720
840.249	0.0138588
840.328	0.0138515
840.406	0.0139030
840.484	0.0137070
840.562	0.0140106
840.640	0.0139063
840.718	0.0137927
840.796	0.0137571
840.874	0.0138322
840.953	0.0139256
841.031	0.0138960
841.109	0.0139028
841.187	0.0137508
841.265	0.0137827
841.343	0.0138490
841.421	0.0138908
841.499	0.0138858
841.578	0.0138100
841.656	0.0137759
841.734	0.0139597
841.812	0.0138645
841.890	0.0139911
841.968	0.0139949
842.046	0.0138960
842.124	0.0137447
842.203	0.0137761
842.281	0.0137772
842.359	0.0137543
842.437	0.0138150
842.515	0.0139186
842.593	0.0136913
842.671	0.0138653
842.749	0.0137921
842.828	0.0139053
842.906	0.0139802
842.984	0.0137312
843.062	0.0139263
843.140	0.0138236
843.218	0.0139280
843.296	0.0138358
843.374	0.0137144
843.453	0.0137650
843.531	0.0137770
843.609	0.0139080
843.687	0.0138208
843.765	0.0137300
843.843	0.0139432
843.921	0.0139996
843.999	0.0138652
844.078	0.0139130
844.156	0.0138364
844.234	0.0139306
844.312	0.0139113
844.390	0.0138466
844.468	0.0139275
844.546	0.0138461
844.624	0.0138781
844.703	0.0139679
844.781	0.0138666
844.859	0.0138566
844.937	0.0138610
845.015	0.0137396
845.093	0.0137217
845.171	0.0137994
845.249	0.0139751
845.328	0.0138681
845.406	0.0138042
845.484	0.0139151
845.562	0.0138700
845.640	0.0139032
845.718	0.0139609
845.796	0.0140525
845.874	0.0139720
845.953	0.0140116
846.031	0.0138628
846.109	0.0138930
846.187	0.0140353
846.265	0.0139362
846.343	0.0140137
846.421	0.0140113
846.499	0.0140007
846.578	0.0140905
846.656	0.0140077
846.734	0.0139388
846.812	0.0140463
846.890	0.0139053
846.968	0.0139713
847.046	0.0140479
847.124	0.0140681
847.203	0.0139286
847.281	0.0138525
847.359	0.0138727
847.437	0.0140088
847.515	0.0138732
847.593	0.0138347
847.671	0.0138707
847.749	0.0139750
847.828	0.0138343
847.906	0.0138596
847.984	0.0139182
848.062	0.0138998
848.140	0.0140462
848.218	0.0138652
848.296	0.0139828
848.374	0.0138600
848.453	0.0140015
848.531	0.0138155
848.609	0.0136741
848.687	0.0138184
848.765	0.0137822
848.843	0.0138719
848.921	0.0138925
848.999	0.0137849
849.078	0.0139058
849.156	0.0138416
849.234	0.0138589
849.312	0.0139307
849.390	0.0137699
849.468	0.0137263
849.546	0.0139042
849.624	0.0138924
849.703	0.0137537
849.781	0.0137745
849.859	0.0138577
849.937	0.0138728
850.015	0.0138400
850.093	0.0139552
850.171	0.0138828
850.249	0.0139503
850.328	0.0137550
850.406	0.0138238
850.484	0.0140381
850.562	0.0139523
850.640	0.0140682
850.718	0.0140444
850.796	0.0139600
850.874	0.0139256
850.953	0.0139574
851.031	0.0137879
851.109	0.0138820
851.187	0.0140311
851.265	0.0139396
851.343	0.0137853
851.421	0.0137191
851.499	0.0138965
851.578	0.0138766
851.656	0.0139028
851.734	0.0138365
851.812	0.0138242
851.890	0.0137559
851.968	0.0137643
852.046	0.0138625
852.124	0.0138074
852.203	0.0138306
852.281	0.0138513
852.359	0.0138448
852.437	0.0138402
852.515	0.0138940
852.593	0.0138709
852.671	0.0137532
852.749	0.0137708
852.828	0.0138696
852.906	0.0137734
852.984	0.0137579
853.062	0.0137650
853.140	0.0138084
853.218	0.0139629
853.296	0.0138990
853.374	0.0138811
853.453	0.0138271
853.531	0.0139247
853.609	0.0139107
853.687	0.0138544
853.765	0.0138611
853.843	0.0137685
853.921	0.0138664
853.999	0.0139142
854.078	0.0138874
854.156	0.0139330
854.234	0.0138216
854.312	0.0139775
854.390	0.0138889
854.468	0.0137778
854.546	0.0137926
854.624	0.0137737
854.703	0.0137823
854.781	0.0137498
854.859	0.0136911
854.937	0.0137641
855.015	0.0137515
855.093	0.0137678
855.171	0.0138190
855.249	0.0137998
855.328	0.0136541
855.406	0.0138056
855.484	0.0138879
855.562	0.0137265
855.640	0.0136730
855.718	0.0138728
855.796	0.0138131
855.874	0.0138126
855.953	0.0138260
856.031	0.0137147
856.109	0.0137694
856.187	0.0139009
856.265	0.0139838
856.343	0.0138623
856.421	0.0138877
856.499	0.0138472
856.578	0.0137749
856.656	0.0139596
856.734	0.0139496
856.812	0.0137707
856.890	0.0137691
856.968	0.0138084
857.046	0.0139365
857.124	0.0138376
857.203	0.0138636
857.281	0.0137872
857.359	0.0137280
857.437	0.0136958
857.515	0.0136595
857.593	0.0136945
857.671	0.0136886
857.749	0.0137460
857.828	0.0137341
857.906	0.0138387
857.984	0.0136315
858.062	0.0137816
858.140	0.0137610
858.218	0.0137749
858.296	0.0137798
858.374	0.0138130
858.453	0.0139025
858.531	0.0138954
858.609	0.0138683
858.687	0.0138911
858.765	0.0136919
858.843	0.0139100
858.921	0.0138880
858.999	0.0138082
859.078	0.0138816
859.156	0.0139210
859.234	0.0139408
859.312	0.0137789
859.390	0.0138713
859.468	0.0139092
859.546	0.0138219
859.624	0.0137395
859.703	0.0138388
859.781	0.0137646
859.859	0.0138148
859.937	0.0139227
860.015	0.0137332
860.093	0.0136640
860.171	0.0137600
860.249	0.0138966
860.328	0.0138310
860.406	0.0137565
860.484	0.0136854
860.562	0.0137891
860.640	0.0138061
860.718	0.0137339
860.796	0.0136968
860.874	0.0137501
860.953	0.0137699
861.031	0.0137246
861.109	0.0140394
861.187	0.0138676
861.265	0.0139495
861.343	0.0138844
861.421	0.0138390
861.499	0.0138779
861.578	0.0139608
861.656	0.0139961
861.734	0.0137424
861.812	0.0138216
861.890	0.0138949
861.968	0.0141187
862.046	0.0139736
862.124	0.0137940
862.203	0.0139771
862.281	0.0140494
862.359	0.0138858
862.437	0.0138329
862.515	0.0139728
862.593	0.0139458
862.671	0.0139442
862.749	0.0138730
862.828	0.0138921
862.906	0.0138715
862.984	0.0139254
863.062	0.0139735
863.140	0.0137245
863.218	0.0138036
863.296	0.0136483
863.374	0.0137116
863.453	0.0138463
863.531	0.0137567
863.609	0.0139066
863.687	0.0138690
863.765	0.0137640
863.843	0.0137591
863.921	0.0138555
863.999	0.0138828
864.078	0.0138991
864.156	0.0139407
864.234	0.0138838
864.312	0.0139944
864.390	0.0138663
864.468	0.0138166
864.546	0.0139272
864.624	0.0140611
864.703	0.0141061
864.781	0.0140128
864.859	0.0140209
864.937	0.0139425
865.015	0.0139021
865.093	0.0140807
865.171	0.0140565
865.249	0.0139967
865.328	0.0141957
865.406	0.0139746
865.484	0.0138493
865.562	0.0139824
865.640	0.0140314
865.718	0.0140657
865.796	0.0139144
865.874	0.0139320
865.953	0.0139919
866.031	0.0140063
866.109	0.0141342
866.187	0.0140343
866.265	0.0138869
866.343	0.0138497
866.421	0.0138868
866.499	0.0140546
866.578	0.0140247
866.656	0.0140299
866.734	0.0140157
866.812	0.0139528
866.890	0.0139381
866.968	0.0139684
867.046	0.0138438
867.124	0.0138648
867.203	0.0137301
867.281	0.0138134
867.359	0.0139220
867.437	0.0140279
867.515	0.0138828
867.593	0.0138760
867.671	0.0139575
867.749	0.0139417
867.828	0.0139901
867.906	0.0139596
867.984	0.0138736
868.062	0.0138644
868.140	0.0140003
868.218	0.0139138
868.296	0.0138452
868.374	0.0139966
868.453	0.0138689
868.531	0.0138476
868.609	0.0138672
868.687	0.0139718
868.765	0.0138062
868.843	0.0138245
868.921	0.0138514
868.999	0.0137505
869.078	0.0139144
869.156	0.0136761
869.234	0.0136808
869.312	0.0138642
869.390	0.0136336
869.468	0.0137164
869.546	0.0137178
869.624	0.0139455
869.703	0.0139336
869.781	0.0137699
869.859	0.0138739
869.937	0.0138103
870.015	0.0138506
870.093	0.0139893
870.171	0.0138966
870.249	0.0137624
870.328	0.0138393
870.406	0.0139523
870.484	0.0138693
870.562	0.0137469
870.640	0.0137621
870.718	0.0138423
870.796	0.0137054
870.874	0.0136867
870.953	0.0137440
871.031	0.0136844
871.109	0.0135960
871.187	0.0138427
871.265	0.0137653
871.343	0.0137157
871.421	0.0137357
871.499	0.0136596
871.578	0.0137833
871.656	0.0137663
871.734	0.0137080
871.812	0.0137644
871.890	0.0138736
871.968	0.0138467
872.046	0.0138352
872.124	0.0138513
872.203	0.0137566
872.281	0.0137487
872.359	0.0138805
872.437	0.0139645
872.515	0.0139487
872.593	0.0138490
872.671	0.0138892
872.749	0.0139165
872.828	0.0138584
872.906	0.0138326
872.984	0.0139675
873.062	0.0140797
873.140	0.0138763
873.218	0.0139962
873.296	0.0141220
873.374	0.0138861
873.453	0.0139468
873.531	0.0140659
873.609	0.0139776
873.687	0.0138241
873.765	0.0138532
873.843	0.0139725
873.921	0.0138701
873.999	0.0139098
874.078	0.0139111
874.156	0.0138038
874.234	0.0139552
874.312	0.0137592
874.390	0.0137337
874.468	0.0137308
874.546	0.0137310
874.624	0.0138625
874.703	0.0137701
874.781	0.0138459
874.859	0.0137829
874.937	0.0138707
875.015	0.0137806
875.093	0.0137553
875.171	0.0138493
875.249	0.0138561
875.328	0.0139114
875.406	0.0138369
875.484	0.0138861
875.562	0.0138494
875.640	0.0139257
875.718	0.0139128
875.796	0.0138900
875.874	0.0139320
875.953	0.0138089
876.031	0.0139400
876.109	0.0139875
876.187	0.0139367
876.265	0.0138631
876.343	0.0139395
876.421	0.0139634
876.499	0.0139545
876.578	0.0138086
876.656	0.0138396
876.734	0.0137550
876.812	0.0138497
876.890	0.0138368
876.968	0.0140211
877.046	0.0137073
877.124	0.0139072
877.203	0.0139447
877.281	0.0139137
877.359	0.0138388
877.437	0.0137460
877.515	0.0137984
877.593	0.0137880
877.671	0.0139027
877.749	0.0138941
877.828	0.0139464
877.906	0.0138578
877.984	0.0138189
878.062	0.0138488
878.140	0.0138064
878.218	0.0139341
878.296	0.0138115
878.374	0.0137196
878.453	0.0138898
878.531	0.0138998
878.609	0.0140445
878.687	0.0138671
878.765	0.0139889
878.843	0.0140621
878.921	0.0139043
878.999	0.0140466
879.078	0.0140166
879.156	0.0140783
879.234	0.0139335
879.312	0.0138612
879.390	0.0139932
879.468	0.0140784
879.546	0.0141498
879.624	0.0139285
879.703	0.0139507
879.781	0.0141601
879.859	0.0139579
879.937	0.0139718
880.015	0.0138955
880.093	0.0139583
880.171	0.0138271
880.249	0.0138654
880.328	0.0138271
880.406	0.0138700
880.484	0.0138010
880.562	0.0137947
880.640	0.0138504
880.718	0.0139262
880.796	0.0138801
880.874	0.0138358
880.953	0.0139091
881.031	0.0139317
881.109	0.0140443
881.187	0.0140405
881.265	0.0139891
881.343	0.0139616
881.421	0.0139146
881.499	0.0139727
881.578	0.0140902
881.656	0.0140916
881.734	0.0139812
881.812	0.0138451
881.890	0.0139594
881.968	0.0139729
882.046	0.0138660
882.124	0.0139203
882.203	0.0140412
882.281	0.0139455
882.359	0.0139043
882.437	0.0138470
882.515	0.0138938
882.593	0.0138986
882.671	0.0138805
882.749	0.0138450
882.828	0.0138696
882.906	0.0137563
882.984	0.0138067
883.062	0.0138554
883.140	0.0138003
883.218	0.0137324
883.296	0.0138419
883.374	0.0137838
883.453	0.0137728
883.531	0.0137994
883.609	0.0137756
883.687	0.0137806
883.765	0.0138071
883.843	0.0138859
883.921	0.0138596
883.999	0.0139483
884.078	0.0139783
884.156	0.0138583
884.234	0.0139739
884.312	0.0139542
884.390	0.0139547
884.468	0.0139283
884.546	0.0137402
884.624	0.0140400
884.703	0.0139677
884.781	0.0139100
884.859	0.0138662
884.937	0.0139221
885.015	0.0138361
885.093	0.0139576
885.171	0.0139674
885.249	0.0139278
885.328	0.0138961
885.406	0.0139854
885.484	0.0138531
885.562	0.0138911
885.640	0.0139339
885.718	0.0137725
885.796	0.0138823
885.874	0.0139996
885.953	0.0139342
886.031	0.0139323
886.109	0.0138881
886.187	0.0137930
886.265	0.0139581
886.343	0.0140085
886.421	0.0140290
886.499	0.0140821
886.578	0.0141031
886.656	0.0140409
886.734	0.0139365
886.812	0.0141618
886.890	0.0140847
886.968	0.0139068
887.046	0.0139411
887.124	0.0138995
887.203	0.0140060
887.281	0.0139238
887.359	0.0140116
887.437	0.0139011
887.515	0.0138548
887.593	0.0140161
887.671	0.0138128
887.749	0.0138372
887.828	0.0139160
887.906	0.0139139
887.984	0.0138238
888.062	0.0138766
888.140	0.0139157
888.218	0.0138289
888.296	0.0137959
888.374	0.0138445
888.453	0.0139397
888.531	0.0139123
888.609	0.0139324
888.687	0.0138187
888.765	0.0139402
888.843	0.0138906
888.921	0.0140237
888.999	0.0139774
889.078	0.0140057
889.156	0.0140405
889.234	0.0139586
889.312	0.0139359
889.390	0.0138371
889.468	0.0139239
889.546	0.0140041
889.624	0.0138557
889.703	0.0138718
889.781	0.0137980
889.859	0.0137482
889.937	0.0137350
890.015	0.0139483
890.093	0.0138938
890.171	0.0137865
890.249	0.0139323
890.328	0.0138929
890.406	0.0138554
890.484	0.0139053
890.562	0.0138742
890.640	0.0139612
890.718	0.0138358
890.796	0.0138000
890.874	0.0138664
890.953	0.0138788
891.031	0.0139243
891.109	0.0138161
891.187	0.0137367
891.265	0.0138961
891.343	0.0138747
891.421	0.0137736
891.499	0.0138293
891.578	0.0139482
891.656	0.0139342
891.734	0.0138367
891.812	0.0137714
891.890	0.0137714
891.968	0.0137054
892.046	0.0137183
892.124	0.0138381
892.203	0.0140151
892.281	0.0138209
892.359	0.0138194
892.437	0.0139197
892.515	0.0139518
892.593	0.0139098
892.671	0.0138440
892.749	0.0140153
892.828	0.0140615
892.906	0.0139237
892.984	0.0139618
893.062	0.0140030
893.140	0.0138654
893.218	0.0139912
893.296	0.0138756
893.374	0.0138567
893.453	0.0139208
893.531	0.0140440
893.609	0.0139214
893.687	0.0139673
893.765	0.0139439
893.843	0.0137511
893.921	0.0139002
893.999	0.0138994
894.078	0.0137653
894.156	0.0139428
894.234	0.0138493
894.312	0.0137909
894.390	0.0140216
894.468	0.0139329
894.546	0.0139497
894.624	0.0139669
894.703	0.0138277
894.781	0.0139616
894.859	0.0138883
894.937	0.0139237
895.015	0.0138268
895.093	0.0139380
895.171	0.0139222
895.249	0.0139115
895.328	0.0139657
895.406	0.0141485
895.484	0.0139536
895.562	0.0139942
895.640	0.0139137
895.718	0.0138976
895.796	0.0139430
895.874	0.0140343
895.953	0.0140004
896.031	0.0139549
896.109	0.0139069
896.187	0.0138248
896.265	0.0138406
896.343	0.0138336
896.421	0.0137852
896.499	0.0139192
896.578	0.0137137
896.656	0.0138434
896.734	0.0139871
896.812	0.0137121
896.890	0.0137995
896.968	0.0137603
897.046	0.0137307
897.124	0.0137564
897.203	0.0138303
897.281	0.0136657
897.359	0.0139204
897.437	0.0138285
897.515	0.0138704
897.593	0.0139791
897.671	0.0139415
897.749	0.0140055
897.828	0.0139574
897.906	0.0139449
897.984	0.0139861
898.062	0.0140501
898.140	0.0139635
898.218	0.0140161
898.296	0.0140285
898.374	0.0139799
898.453	0.0140142
898.531	0.0140106
898.609	0.0139858
898.687	0.0139520
898.765	0.0139288
898.843	0.0139198
898.921	0.0138484
898.999	0.0139703
899.078	0.0138885
899.156	0.0138121
899.234	0.0139031
899.312	0.0139581
899.390	0.0138127
899.468	0.0138210
899.546	0.0139790
899.624	0.0138821
899.703	0.0138784
899.781	0.0138439
899.859	0.0138904
899.937	0.0139883
900.015	0.0139577
900.093	0.0137831
900.171	0.0139121
900.249	0.0139690
900.328	0.0139365
900.406	0.0141203
900.484	0.0139367
900.562	0.0139590
900.640	0.0140068
900.718	0.0139684
900.796	0.0138995
900.874	0.0139303
900.953	0.0141004
901.031	0.0140283
901.109	0.0139592
901.187	0.0139051
901.265	0.0141331
901.343	0.0140022
901.421	0.0139306
901.499	0.0140347
901.578	0.0140460
901.656	0.0139330
901.734	0.0140190
901.812	0.0141091
901.890	0.0140443
901.968	0.0139832
902.046	0.0141063
902.124	0.0140223
902.203	0.0138931
902.281	0.0139846
902.359	0.0138839
902.437	0.0139376
902.515	0.0139066
902.593	0.0139488
902.671	0.0139332
902.749	0.0139208
902.828	0.0139512
902.906	0.0139040
902.984	0.0139184
903.062	0.0138864
903.140	0.0137446
903.218	0.0138583
903.296	0.0137812
903.374	0.0138954
903.453	0.0139187
903.531	0.0137836
903.609	0.0136504
903.687	0.0138664
903.765	0.0137909
903.843	0.0138510
903.921	0.0137846
903.999	0.0137875
904.078	0.0137373
904.156	0.0139285
904.234	0.0137627
904.312	0.0138491
904.390	0.0137859
904.468	0.0138120
904.546	0.0138160
904.624	0.0137102
904.703	0.0137211
904.781	0.0138311
904.859	0.0138815
904.937	0.0137653
905.015	0.0137813
905.093	0.0138244
905.171	0.0138743
905.249	0.0137598
905.328	0.0137951
905.406	0.0138213
905.484	0.0137511
905.562	0.0137860
905.640	0.0137897
905.718	0.0137244
905.796	0.0138185
905.874	0.0137636
905.953	0.0138450
906.031	0.0136707
906.109	0.0137418
906.187	0.0138338
906.265	0.0135370
906.343	0.0138108
906.421	0.0137601
906.499	0.0137650
906.578	0.0138718
906.656	0.0137449
906.734	0.0138822
906.812	0.0138403
906.890	0.0138403
906.968	0.0137106
907.046	0.0136766
907.124	0.0139131
907.203	0.0140173
907.281	0.0139340
907.359	0.0138399
907.437	0.0139677
907.515	0.0139624
907.593	0.0137457
907.671	0.0139400
907.749	0.0138313
907.828	0.0138948
907.906	0.0139428
907.984	0.0138791
908.062	0.0138811
908.140	0.0137379
908.218	0.0138313
908.296	0.0138110
908.374	0.0136397
908.453	0.0138226
908.531	0.0138913
908.609	0.0137459
908.687	0.0138078
908.765	0.0138931
908.843	0.0138405
908.921	0.0137461
908.999	0.0138478
909.078	0.0137525
909.156	0.0139296
909.234	0.0137112
909.312	0.0137270
909.390	0.0139516
909.468	0.0138091
909.546	0.0138598
909.624	0.0138928
909.703	0.0138596
909.781	0.0138062
909.859	0.0138721
909.937	0.0138514
910.015	0.0139024
910.093	0.0138036
910.171	0.0138503
910.249	0.0139706
910.328	0.0138123
910.406	0.0138825
910.484	0.0139246
910.562	0.0139603
910.640	0.0138052
910.718	0.0138219
910.796	0.0138544
910.874	0.0138225
910.953	0.0138979
911.031	0.0139111
911.109	0.0139108
911.187	0.0138968
911.265	0.0139906
911.343	0.0137714
911.421	0.0139936
911.499	0.0138837
911.578	0.0138177
911.656	0.0138599
911.734	0.0139981
911.812	0.0138868
911.890	0.0138937
911.968	0.0141179
912.046	0.0140154
912.124	0.0138322
912.203	0.0138911
912.281	0.0141073
912.359	0.0139753
912.437	0.0138738
912.515	0.0139353
912.593	0.0138416
912.671	0.0138634
912.749	0.0139732
912.828	0.0140430
912.906	0.0139220
912.984	0.0140334
913.062	0.0138770
913.140	0.0140961
913.218	0.0138986
913.296	0.0138811
913.374	0.0139735
913.453	0.0139045
913.531	0.0138412
913.609	0.0138540
913.687	0.0137898
913.765	0.0137891
913.843	0.0138879
913.921	0.0138722
913.999	0.0137396
914.078	0.0137845
914.156	0.0138015
914.234	0.0137371
914.312	0.0137844
914.390	0.0138970
914.468	0.0139305
914.546	0.0139852
914.624	0.0140012
914.703	0.0138750
914.781	0.0138328
914.859	0.0136793
914.937	0.0139001
915.015	0.0138699
915.093	0.0138113
915.171	0.0139709
915.249	0.0138907
915.328	0.0138319
915.406	0.0140467
915.484	0.0138899
915.562	0.0138562
915.640	0.0137823
915.718	0.0136421
915.796	0.0137984
915.874	0.0137490
915.953	0.0138739
916.031	0.0138396
916.109	0.0138627
916.187	0.0138345
916.265	0.0137338
916.343	0.0136990
916.421	0.0137395
916.499	0.0138798
916.578	0.0138219
916.656	0.0138037
916.734	0.0137109
916.812	0.0137543
916.890	0.0137421
916.968	0.0137193
917.046	0.0137261
917.124	0.0138543
917.203	0.0137979
917.281	0.0137984
917.359	0.0138903
917.437	0.0137825
917.515	0.0137917
917.593	0.0138670
917.671	0.0138065
917.749	0.0139109
917.828	0.0138937
917.906	0.0138117
917.984	0.0138611
918.062	0.0137625
918.140	0.0138718
918.218	0.0139079
918.296	0.0138562
918.374	0.0138605
918.453	0.0137608
918.531	0.0138445
918.609	0.0139185
918.687	0.0137532
918.765	0.0138314
918.843	0.0138458
918.921	0.0138407
918.999	0.0138821
919.078	0.0138451
919.156	0.0138902
919.234	0.0137879
919.312	0.0139745
919.390	0.0139634
919.468	0.0138406
919.546	0.0139042
919.624	0.0139319
919.703	0.0139343
919.781	0.0139613
919.859	0.0138777
919.937	0.0139245
