05/19/2022	00:58:49	Ver.	4.1	UNKNOWN
Optical Delay	630.002507	Delta X		0.078125	Sweeps	1	Scan Rate	0/0
Coordinates	Axis 1	NaN	Axis 2	NaN	Axis 3	NaN	Axis 4	NaN	Axis 5	NaN	Axis 6	0.000000
TX Power	0.000000	RX Power	0.000000

630.003	0.0164211
630.081	0.0164198
630.159	0.0164485
630.237	0.0165441
630.315	0.0162217
630.393	0.0164759
630.471	0.0163030
630.549	0.0165057
630.628	0.0164626
630.706	0.0165294
630.784	0.0165111
630.862	0.0164559
630.940	0.0163489
631.018	0.0163940
631.096	0.0163442
631.174	0.0163581
631.253	0.0164107
631.331	0.0164663
631.409	0.0164166
631.487	0.0163633
631.565	0.0164273
631.643	0.0163864
631.721	0.0163448
631.799	0.0162424
631.878	0.0164362
631.956	0.0164384
632.034	0.0164799
632.112	0.0166084
632.190	0.0164539
632.268	0.0163576
632.346	0.0164320
632.424	0.0163703
632.503	0.0164703
632.581	0.0163650
632.659	0.0163382
632.737	0.0164767
632.815	0.0164415
632.893	0.0164645
632.971	0.0163206
633.049	0.0164635
633.128	0.0164668
633.206	0.0164375
633.284	0.0164333
633.362	0.0164605
633.440	0.0164319
633.518	0.0164761
633.596	0.0163883
633.674	0.0164674
633.753	0.0165009
633.831	0.0164267
633.909	0.0165227
633.987	0.0164432
634.065	0.0164760
634.143	0.0164545
634.221	0.0164639
634.299	0.0165580
634.378	0.0165990
634.456	0.0164967
634.534	0.0164389
634.612	0.0163827
634.690	0.0165520
634.768	0.0164410
634.846	0.0165289
634.924	0.0164523
635.003	0.0163253
635.081	0.0164327
635.159	0.0165202
635.237	0.0164914
635.315	0.0164700
635.393	0.0164853
635.471	0.0165786
635.549	0.0165547
635.628	0.0164441
635.706	0.0164405
635.784	0.0164250
635.862	0.0166194
635.940	0.0164380
636.018	0.0163901
636.096	0.0165009
636.174	0.0165401
636.253	0.0164316
636.331	0.0163869
636.409	0.0164650
636.487	0.0164302
636.565	0.0164639
636.643	0.0165448
636.721	0.0164484
636.799	0.0164440
636.878	0.0165123
636.956	0.0165336
637.034	0.0165058
637.112	0.0165392
637.190	0.0164597
637.268	0.0165363
637.346	0.0164986
637.424	0.0166008
637.503	0.0164904
637.581	0.0164552
637.659	0.0164808
637.737	0.0163731
637.815	0.0166304
637.893	0.0164548
637.971	0.0164260
638.049	0.0164795
638.128	0.0166958
638.206	0.0164265
638.284	0.0164366
638.362	0.0165472
638.440	0.0164056
638.518	0.0163648
638.596	0.0164395
638.674	0.0164372
638.753	0.0164223
638.831	0.0165159
638.909	0.0163930
638.987	0.0164211
639.065	0.0165196
639.143	0.0163845
639.221	0.0165382
639.299	0.0163999
639.378	0.0163410
639.456	0.0164439
639.534	0.0164783
639.612	0.0163436
639.690	0.0164369
639.768	0.0163076
639.846	0.0162611
639.924	0.0164201
640.003	0.0166035
640.081	0.0164165
640.159	0.0163593
640.237	0.0163974
640.315	0.0164463
640.393	0.0165301
640.471	0.0164698
640.549	0.0164819
640.628	0.0165682
640.706	0.0165458
640.784	0.0164627
640.862	0.0165096
640.940	0.0165486
641.018	0.0163909
641.096	0.0165476
641.174	0.0165504
641.253	0.0165666
641.331	0.0166024
641.409	0.0165865
641.487	0.0164034
641.565	0.0164417
641.643	0.0166096
641.721	0.0165448
641.799	0.0165092
641.878	0.0164302
641.956	0.0165051
642.034	0.0165128
642.112	0.0165382
642.190	0.0163638
642.268	0.0163937
642.346	0.0165123
642.424	0.0163000
642.503	0.0163339
642.581	0.0163546
642.659	0.0163667
642.737	0.0163695
642.815	0.0164033
642.893	0.0163040
642.971	0.0164526
643.049	0.0162712
643.128	0.0163496
643.206	0.0163879
643.284	0.0164069
643.362	0.0163097
643.440	0.0164481
643.518	0.0163365
643.596	0.0164494
643.674	0.0164342
643.753	0.0163774
643.831	0.0163641
643.909	0.0164899
643.987	0.0165852
644.065	0.0166340
644.143	0.0164494
644.221	0.0164877
644.299	0.0164719
644.378	0.0165495
644.456	0.0165583
644.534	0.0165704
644.612	0.0166579
644.690	0.0165140
644.768	0.0167201
644.846	0.0166164
644.924	0.0165952
645.003	0.0166951
645.081	0.0167062
645.159	0.0166344
645.237	0.0165646
645.315	0.0166066
645.393	0.0165576
645.471	0.0165929
645.549	0.0165907
645.628	0.0164011
645.706	0.0165150
645.784	0.0165994
645.862	0.0165186
645.940	0.0165385
646.018	0.0165334
646.096	0.0165058
646.174	0.0165142
646.253	0.0164076
646.331	0.0163283
646.409	0.0163985
646.487	0.0163840
646.565	0.0162280
646.643	0.0163736
646.721	0.0163949
646.799	0.0164233
646.878	0.0163409
646.956	0.0163438
647.034	0.0162975
647.112	0.0164549
647.190	0.0164471
647.268	0.0163601
647.346	0.0163536
647.424	0.0164702
647.503	0.0164491
647.581	0.0163805
647.659	0.0163270
647.737	0.0163979
647.815	0.0164487
647.893	0.0165283
647.971	0.0163905
648.049	0.0163784
648.128	0.0163525
648.206	0.0164758
648.284	0.0164560
648.362	0.0164904
648.440	0.0164040
648.518	0.0165081
648.596	0.0164905
648.674	0.0164518
648.753	0.0165514
648.831	0.0164458
648.909	0.0166097
648.987	0.0164461
649.065	0.0164553
649.143	0.0165203
649.221	0.0165662
649.299	0.0165221
649.378	0.0165858
649.456	0.0165904
649.534	0.0164950
649.612	0.0165098
649.690	0.0165656
649.768	0.0166277
649.846	0.0165611
649.924	0.0165281
650.003	0.0166129
650.081	0.0166274
650.159	0.0165085
650.237	0.0166267
650.315	0.0166148
650.393	0.0164502
650.471	0.0164634
650.549	0.0165979
650.628	0.0165565
650.706	0.0164761
650.784	0.0163460
650.862	0.0163766
650.940	0.0163852
651.018	0.0163342
651.096	0.0164465
651.174	0.0163641
651.253	0.0162019
651.331	0.0161052
651.409	0.0162624
651.487	0.0162543
651.565	0.0163113
651.643	0.0164297
651.721	0.0164128
651.799	0.0163687
651.878	0.0164165
651.956	0.0163998
652.034	0.0163348
652.112	0.0164588
652.190	0.0164184
652.268	0.0163167
652.346	0.0164298
652.424	0.0164806
652.503	0.0164528
652.581	0.0163843
652.659	0.0165944
652.737	0.0165421
652.815	0.0165076
652.893	0.0165993
652.971	0.0165102
653.049	0.0165176
653.128	0.0165740
653.206	0.0166529
653.284	0.0164763
653.362	0.0165526
653.440	0.0165918
653.518	0.0165565
653.596	0.0166819
653.674	0.0166393
653.753	0.0166576
653.831	0.0165902
653.909	0.0165045
653.987	0.0166699
654.065	0.0164907
654.143	0.0164772
654.221	0.0164241
654.299	0.0165735
654.378	0.0165654
654.456	0.0164748
654.534	0.0167290
654.612	0.0165249
654.690	0.0166648
654.768	0.0165449
654.846	0.0166129
654.924	0.0165846
655.003	0.0167033
655.081	0.0166641
655.159	0.0165755
655.237	0.0166244
655.315	0.0165617
655.393	0.0165081
655.471	0.0165707
655.549	0.0163762
655.628	0.0164542
655.706	0.0164943
655.784	0.0164666
655.862	0.0164901
655.940	0.0163126
656.018	0.0163493
656.096	0.0163501
656.174	0.0163284
656.253	0.0162399
656.331	0.0163694
656.409	0.0164002
656.487	0.0162910
656.565	0.0164137
656.643	0.0164648
656.721	0.0163963
656.799	0.0164789
656.878	0.0163637
656.956	0.0163714
657.034	0.0166268
657.112	0.0165586
657.190	0.0165621
657.268	0.0166866
657.346	0.0167712
657.424	0.0167365
657.503	0.0165989
657.581	0.0166491
657.659	0.0167319
657.737	0.0166855
657.815	0.0167437
657.893	0.0168029
657.971	0.0168330
658.049	0.0167172
658.128	0.0165591
658.206	0.0166782
658.284	0.0166447
658.362	0.0167124
658.440	0.0166255
658.518	0.0164900
658.596	0.0165973
658.674	0.0165703
658.753	0.0166837
658.831	0.0164498
658.909	0.0165457
658.987	0.0165963
659.065	0.0163440
659.143	0.0162395
659.221	0.0163254
659.299	0.0162017
659.378	0.0161369
659.456	0.0161778
659.534	0.0162729
659.612	0.0163171
659.690	0.0161652
659.768	0.0162334
659.846	0.0162685
659.924	0.0161732
660.003	0.0162445
660.081	0.0163083
660.159	0.0165433
660.237	0.0165199
660.315	0.0164183
660.393	0.0164487
660.471	0.0164801
660.549	0.0163974
660.628	0.0165223
660.706	0.0166003
660.784	0.0166198
660.862	0.0166759
660.940	0.0166082
661.018	0.0167893
661.096	0.0166325
661.174	0.0167972
661.253	0.0167615
661.331	0.0166547
661.409	0.0166048
661.487	0.0169397
661.565	0.0166782
661.643	0.0167014
661.721	0.0168566
661.799	0.0167796
661.878	0.0165640
661.956	0.0165642
662.034	0.0167163
662.112	0.0164091
662.190	0.0165290
662.268	0.0165240
662.346	0.0165552
662.424	0.0164354
662.503	0.0164455
662.581	0.0163892
662.659	0.0163476
662.737	0.0163887
662.815	0.0163668
662.893	0.0162464
662.971	0.0164056
663.049	0.0162145
663.128	0.0163462
663.206	0.0164185
663.284	0.0164653
663.362	0.0164095
663.440	0.0164498
663.518	0.0163386
663.596	0.0163846
663.674	0.0165787
663.753	0.0165500
663.831	0.0163381
663.909	0.0162270
663.987	0.0164008
664.065	0.0164866
664.143	0.0164207
664.221	0.0164888
664.299	0.0165076
664.378	0.0164562
664.456	0.0165208
664.534	0.0165276
664.612	0.0166260
664.690	0.0165149
664.768	0.0166055
664.846	0.0166002
664.924	0.0166510
665.003	0.0166137
665.081	0.0166590
665.159	0.0166839
665.237	0.0167387
665.315	0.0165520
665.393	0.0166212
665.471	0.0166330
665.549	0.0167434
665.628	0.0166869
665.706	0.0166346
665.784	0.0165789
665.862	0.0166565
665.940	0.0166114
666.018	0.0167095
666.096	0.0164201
666.174	0.0164506
666.253	0.0165339
666.331	0.0165630
666.409	0.0165099
666.487	0.0164426
666.565	0.0163263
666.643	0.0163626
666.721	0.0165665
666.799	0.0163266
666.878	0.0163827
666.956	0.0163560
667.034	0.0163830
667.112	0.0163923
667.190	0.0162933
667.268	0.0163568
667.346	0.0162651
667.424	0.0163412
667.503	0.0161620
667.581	0.0164056
667.659	0.0162836
667.737	0.0162580
667.815	0.0163742
667.893	0.0164778
667.971	0.0164318
668.049	0.0164431
668.128	0.0167664
668.206	0.0166639
668.284	0.0165639
668.362	0.0167844
668.440	0.0167570
668.518	0.0166850
668.596	0.0167162
668.674	0.0168076
668.753	0.0169115
668.831	0.0170428
668.909	0.0168732
668.987	0.0170396
669.065	0.0170347
669.143	0.0169659
669.221	0.0169147
669.299	0.0169620
669.378	0.0168779
669.456	0.0168852
669.534	0.0167660
669.612	0.0169642
669.690	0.0168662
669.768	0.0168009
669.846	0.0166311
669.924	0.0165904
670.003	0.0167373
670.081	0.0166398
670.159	0.0165156
670.237	0.0165089
670.315	0.0164252
670.393	0.0162849
670.471	0.0162067
670.549	0.0163903
670.628	0.0163255
670.706	0.0162199
670.784	0.0160223
670.862	0.0160236
670.940	0.0158480
671.018	0.0159695
671.096	0.0160833
671.174	0.0160477
671.253	0.0160805
671.331	0.0160336
671.409	0.0160815
671.487	0.0160564
671.565	0.0159295
671.643	0.0160400
671.721	0.0159945
671.799	0.0160772
671.878	0.0160931
671.956	0.0161211
672.034	0.0162294
672.112	0.0162547
672.190	0.0163403
672.268	0.0163504
672.346	0.0164135
672.424	0.0165525
672.503	0.0165369
672.581	0.0166957
672.659	0.0166456
672.737	0.0167418
672.815	0.0169759
672.893	0.0169685
672.971	0.0168203
673.049	0.0169675
673.128	0.0169650
673.206	0.0168658
673.284	0.0171316
673.362	0.0170522
673.440	0.0169500
673.518	0.0169930
673.596	0.0171021
673.674	0.0169902
673.753	0.0170642
673.831	0.0169053
673.909	0.0168988
673.987	0.0169302
674.065	0.0168514
674.143	0.0168441
674.221	0.0168243
674.299	0.0168107
674.378	0.0166743
674.456	0.0166655
674.534	0.0167233
674.612	0.0165456
674.690	0.0165001
674.768	0.0164990
674.846	0.0165980
674.924	0.0163774
675.003	0.0163589
675.081	0.0164606
675.159	0.0162231
675.237	0.0163419
675.315	0.0161247
675.393	0.0161492
675.471	0.0162205
675.549	0.0161720
675.628	0.0161319
675.706	0.0159953
675.784	0.0161252
675.862	0.0161019
675.940	0.0163100
676.018	0.0160364
676.096	0.0161801
676.174	0.0161555
676.253	0.0163337
676.331	0.0162191
676.409	0.0162356
676.487	0.0163979
676.565	0.0163680
676.643	0.0164323
676.721	0.0165820
676.799	0.0164318
676.878	0.0164815
676.956	0.0164896
677.034	0.0164537
677.112	0.0165182
677.190	0.0165356
677.268	0.0166548
677.346	0.0167245
677.424	0.0165788
677.503	0.0165876
677.581	0.0166752
677.659	0.0168087
677.737	0.0167041
677.815	0.0165385
677.893	0.0166208
677.971	0.0165979
678.049	0.0165717
678.128	0.0163584
678.206	0.0165879
678.284	0.0166549
678.362	0.0165321
678.440	0.0164425
678.518	0.0165492
678.596	0.0163801
678.674	0.0163241
678.753	0.0163836
678.831	0.0165591
678.909	0.0164141
678.987	0.0165340
679.065	0.0164572
679.143	0.0163826
679.221	0.0163922
679.299	0.0163996
679.378	0.0164578
679.456	0.0166402
679.534	0.0165149
679.612	0.0165775
679.690	0.0165618
679.768	0.0164444
679.846	0.0164639
679.924	0.0165948
680.003	0.0166760
680.081	0.0167419
680.159	0.0166280
680.237	0.0164409
680.315	0.0165762
680.393	0.0166250
680.471	0.0166187
680.549	0.0166773
680.628	0.0167240
680.706	0.0166131
680.784	0.0166155
680.862	0.0168186
680.940	0.0166811
681.018	0.0168021
681.096	0.0167936
681.174	0.0166686
681.253	0.0167281
681.331	0.0168999
681.409	0.0167529
681.487	0.0168154
681.565	0.0168138
681.643	0.0168716
681.721	0.0167587
681.799	0.0167727
681.878	0.0166550
681.956	0.0167649
682.034	0.0165662
682.112	0.0164870
682.190	0.0164915
682.268	0.0164906
682.346	0.0164474
682.424	0.0162389
682.503	0.0161675
682.581	0.0163681
682.659	0.0162158
682.737	0.0160451
682.815	0.0160052
682.893	0.0160364
682.971	0.0160504
683.049	0.0160034
683.128	0.0160756
683.206	0.0159624
683.284	0.0158604
683.362	0.0158868
683.440	0.0160289
683.518	0.0159139
683.596	0.0159656
683.674	0.0159162
683.753	0.0162800
683.831	0.0161159
683.909	0.0161519
683.987	0.0161928
684.065	0.0161947
684.143	0.0161687
684.221	0.0163406
684.299	0.0165205
684.378	0.0166582
684.456	0.0166541
684.534	0.0166454
684.612	0.0167628
684.690	0.0167445
684.768	0.0166041
684.846	0.0167976
684.924	0.0168701
685.003	0.0169160
685.081	0.0166798
685.159	0.0168522
685.237	0.0169386
685.315	0.0167937
685.393	0.0166732
685.471	0.0168297
685.549	0.0168935
685.628	0.0167372
685.706	0.0167587
685.784	0.0167595
685.862	0.0167565
685.940	0.0167600
686.018	0.0167467
686.096	0.0168674
686.174	0.0165304
686.253	0.0166842
686.331	0.0168157
686.409	0.0165768
686.487	0.0165775
686.565	0.0165641
686.643	0.0165763
686.721	0.0165433
686.799	0.0165624
686.878	0.0166638
686.956	0.0165385
687.034	0.0164870
687.112	0.0164956
687.190	0.0164704
687.268	0.0165360
687.346	0.0164452
687.424	0.0164452
687.503	0.0163598
687.581	0.0164035
687.659	0.0164143
687.737	0.0164232
687.815	0.0164026
687.893	0.0163004
687.971	0.0162650
688.049	0.0163857
688.128	0.0164415
688.206	0.0163823
688.284	0.0161649
688.362	0.0161211
688.440	0.0162136
688.518	0.0161925
688.596	0.0163293
688.674	0.0161724
688.753	0.0161037
688.831	0.0161868
688.909	0.0163053
688.987	0.0162679
689.065	0.0163689
689.143	0.0162485
689.221	0.0163208
689.299	0.0163840
689.378	0.0164559
689.456	0.0164908
689.534	0.0164296
689.612	0.0165668
689.690	0.0166084
689.768	0.0166165
689.846	0.0166313
689.924	0.0167707
690.003	0.0167568
690.081	0.0167866
690.159	0.0167156
690.237	0.0169138
690.315	0.0167736
690.393	0.0168758
690.471	0.0167783
690.549	0.0168524
690.628	0.0166986
690.706	0.0168028
690.784	0.0166781
690.862	0.0166924
690.940	0.0166338
691.018	0.0165671
691.096	0.0166237
691.174	0.0166864
691.253	0.0165237
691.331	0.0166525
691.409	0.0165996
691.487	0.0165910
691.565	0.0164631
691.643	0.0165112
691.721	0.0164992
691.799	0.0164061
691.878	0.0164579
691.956	0.0164391
692.034	0.0163859
692.112	0.0163380
692.190	0.0163048
692.268	0.0162699
692.346	0.0163182
692.424	0.0161321
692.503	0.0162166
692.581	0.0163637
692.659	0.0163133
692.737	0.0163431
692.815	0.0162727
692.893	0.0163096
692.971	0.0164734
693.049	0.0163683
693.128	0.0164710
693.206	0.0164399
693.284	0.0165589
693.362	0.0164002
693.440	0.0166036
693.518	0.0167435
693.596	0.0165904
693.674	0.0166670
693.753	0.0167333
693.831	0.0168047
693.909	0.0166509
693.987	0.0167397
694.065	0.0167613
694.143	0.0169032
694.221	0.0167958
694.299	0.0167382
694.378	0.0168529
694.456	0.0168096
694.534	0.0167229
694.612	0.0166985
694.690	0.0168715
694.768	0.0166733
694.846	0.0166813
694.924	0.0165377
695.003	0.0166122
695.081	0.0166454
695.159	0.0166503
695.237	0.0165800
695.315	0.0165928
695.393	0.0165833
695.471	0.0163895
695.549	0.0164552
695.628	0.0164624
695.706	0.0163846
695.784	0.0165363
695.862	0.0165022
695.940	0.0163464
696.018	0.0162747
696.096	0.0163683
696.174	0.0163414
696.253	0.0161674
696.331	0.0162228
696.409	0.0162698
696.487	0.0163024
696.565	0.0162720
696.643	0.0162260
696.721	0.0160790
696.799	0.0162594
696.878	0.0162086
696.956	0.0161750
697.034	0.0162347
697.112	0.0162743
697.190	0.0162677
697.268	0.0163647
697.346	0.0162492
697.424	0.0164415
697.503	0.0164793
697.581	0.0165223
697.659	0.0166558
697.737	0.0165882
697.815	0.0165742
697.893	0.0165105
697.971	0.0166322
698.049	0.0165493
698.128	0.0166956
698.206	0.0167989
698.284	0.0167770
698.362	0.0166333
698.440	0.0167519
698.518	0.0166887
698.596	0.0165699
698.674	0.0165977
698.753	0.0165948
698.831	0.0165750
698.909	0.0166263
698.987	0.0166222
699.065	0.0164970
699.143	0.0164722
699.221	0.0164970
699.299	0.0164290
699.378	0.0164455
699.456	0.0163715
699.534	0.0163670
699.612	0.0165173
699.690	0.0164303
699.768	0.0163062
699.846	0.0163786
699.924	0.0162567
700.003	0.0163150
700.081	0.0163846
700.159	0.0164002
700.237	0.0163094
700.315	0.0162995
700.393	0.0163545
700.471	0.0163274
700.549	0.0161652
700.628	0.0163042
700.706	0.0163843
700.784	0.0162576
700.862	0.0162151
700.940	0.0162957
701.018	0.0163596
701.096	0.0162949
701.174	0.0163615
701.253	0.0163155
701.331	0.0163202
701.409	0.0163101
701.487	0.0163472
701.565	0.0164710
701.643	0.0164394
701.721	0.0165335
701.799	0.0165770
701.878	0.0164860
701.956	0.0165443
702.034	0.0165466
702.112	0.0166326
702.190	0.0165448
702.268	0.0166214
702.346	0.0165685
702.424	0.0165515
702.503	0.0165628
702.581	0.0166003
702.659	0.0165659
702.737	0.0163747
702.815	0.0164548
702.893	0.0164809
702.971	0.0164632
703.049	0.0163528
703.128	0.0165305
703.206	0.0166070
703.284	0.0167006
703.362	0.0164647
703.440	0.0164634
703.518	0.0165362
703.596	0.0164819
703.674	0.0167175
703.753	0.0166190
703.831	0.0166241
703.909	0.0166053
703.987	0.0164494
704.065	0.0165173
704.143	0.0164020
704.221	0.0164522
704.299	0.0164467
704.378	0.0163750
704.456	0.0163282
704.534	0.0164516
704.612	0.0163494
704.690	0.0163268
704.768	0.0164030
704.846	0.0163615
704.924	0.0163952
705.003	0.0164056
705.081	0.0163673
705.159	0.0165279
705.237	0.0164019
705.315	0.0162135
705.393	0.0164139
705.471	0.0164551
705.549	0.0163181
705.628	0.0163960
705.706	0.0163477
705.784	0.0162470
705.862	0.0164546
705.940	0.0164099
706.018	0.0164043
706.096	0.0164600
706.174	0.0163296
706.253	0.0163570
706.331	0.0165041
706.409	0.0163474
706.487	0.0166122
706.565	0.0165001
706.643	0.0164668
706.721	0.0165136
706.799	0.0166045
706.878	0.0164568
706.956	0.0165422
707.034	0.0165114
707.112	0.0165206
707.190	0.0166694
707.268	0.0164661
707.346	0.0164717
707.424	0.0165538
707.503	0.0164377
707.581	0.0166721
707.659	0.0166165
707.737	0.0165742
707.815	0.0164943
707.893	0.0164514
707.971	0.0163401
708.049	0.0165692
708.128	0.0164138
708.206	0.0164039
708.284	0.0165055
708.362	0.0164018
708.440	0.0164131
708.518	0.0165118
708.596	0.0164580
708.674	0.0164177
708.753	0.0162605
708.831	0.0163461
708.909	0.0163029
708.987	0.0163908
709.065	0.0165273
709.143	0.0165427
709.221	0.0163977
709.299	0.0163848
709.378	0.0163868
709.456	0.0162378
709.534	0.0164189
709.612	0.0165147
709.690	0.0162801
709.768	0.0165139
709.846	0.0164358
709.924	0.0164986
710.003	0.0165627
710.081	0.0164359
710.159	0.0165648
710.237	0.0166112
710.315	0.0165881
710.393	0.0166019
710.471	0.0166465
710.549	0.0167165
710.628	0.0166750
710.706	0.0166017
710.784	0.0166417
710.862	0.0165969
710.940	0.0165937
711.018	0.0166809
711.096	0.0168088
711.174	0.0166071
711.253	0.0166059
711.331	0.0164763
711.409	0.0164936
711.487	0.0164137
711.565	0.0164877
711.643	0.0165772
711.721	0.0162420
711.799	0.0164307
711.878	0.0164695
711.956	0.0164848
712.034	0.0164591
712.112	0.0162957
712.190	0.0163244
712.268	0.0164440
712.346	0.0164479
712.424	0.0165358
712.503	0.0162661
712.581	0.0164260
712.659	0.0163674
712.737	0.0162829
712.815	0.0164417
712.893	0.0163783
712.971	0.0164474
713.049	0.0165263
713.128	0.0165069
713.206	0.0164933
713.284	0.0166439
713.362	0.0165331
713.440	0.0166022
713.518	0.0165461
713.596	0.0165490
713.674	0.0165888
713.753	0.0165588
713.831	0.0164773
713.909	0.0166280
713.987	0.0166120
714.065	0.0166309
714.143	0.0166196
714.221	0.0164401
714.299	0.0165816
714.378	0.0165543
714.456	0.0164375
714.534	0.0165491
714.612	0.0165375
714.690	0.0164567
714.768	0.0164951
714.846	0.0164555
714.924	0.0164674
715.003	0.0164526
715.081	0.0164907
715.159	0.0164328
715.237	0.0164441
715.315	0.0163364
715.393	0.0163384
715.471	0.0164294
715.549	0.0163485
715.628	0.0164368
715.706	0.0164204
715.784	0.0163869
715.862	0.0164603
715.940	0.0164210
716.018	0.0162599
716.096	0.0163217
716.174	0.0164315
716.253	0.0163640
716.331	0.0163845
716.409	0.0163700
716.487	0.0163754
716.565	0.0162656
716.643	0.0162129
716.721	0.0163438
716.799	0.0163613
716.878	0.0163764
716.956	0.0162822
717.034	0.0164056
717.112	0.0163972
717.190	0.0164978
717.268	0.0164352
717.346	0.0165635
717.424	0.0165795
717.503	0.0164728
717.581	0.0164754
717.659	0.0165092
717.737	0.0164646
717.815	0.0164256
717.893	0.0164088
717.971	0.0164938
718.049	0.0165763
718.128	0.0165339
718.206	0.0165381
718.284	0.0165642
718.362	0.0164905
718.440	0.0165639
718.518	0.0164313
718.596	0.0165575
718.674	0.0164512
718.753	0.0165114
718.831	0.0165227
718.909	0.0164988
718.987	0.0163696
719.065	0.0165534
719.143	0.0166151
719.221	0.0165430
719.299	0.0165458
719.378	0.0164960
719.456	0.0165527
719.534	0.0163602
719.612	0.0165260
719.690	0.0165477
719.768	0.0164619
719.846	0.0164966
719.924	0.0164062
720.003	0.0164685
720.081	0.0162853
720.159	0.0162201
720.237	0.0163377
720.315	0.0161798
720.393	0.0162788
720.471	0.0162815
720.549	0.0162403
720.628	0.0160912
720.706	0.0161746
720.784	0.0162786
720.862	0.0160892
720.940	0.0163372
721.018	0.0162778
721.096	0.0163204
721.174	0.0162549
721.253	0.0162664
721.331	0.0161961
721.409	0.0162474
721.487	0.0164001
721.565	0.0162069
721.643	0.0162089
721.721	0.0162697
721.799	0.0163354
721.878	0.0163886
721.956	0.0163955
722.034	0.0165110
722.112	0.0163497
722.190	0.0163428
722.268	0.0164752
722.346	0.0165007
722.424	0.0164653
722.503	0.0164650
722.581	0.0164846
722.659	0.0164435
722.737	0.0163483
722.815	0.0166561
722.893	0.0164801
722.971	0.0164047
723.049	0.0163747
723.128	0.0164395
723.206	0.0164205
723.284	0.0165455
723.362	0.0165137
723.440	0.0164864
723.518	0.0165554
723.596	0.0164308
723.674	0.0164675
723.753	0.0165466
723.831	0.0165645
723.909	0.0163954
723.987	0.0165919
724.065	0.0165722
724.143	0.0165212
724.221	0.0164977
724.299	0.0165223
724.378	0.0165115
724.456	0.0165929
724.534	0.0165231
724.612	0.0165244
724.690	0.0163295
724.768	0.0163781
724.846	0.0164947
724.924	0.0164529
725.003	0.0164912
725.081	0.0164120
725.159	0.0165896
725.237	0.0164590
725.315	0.0163733
725.393	0.0165902
725.471	0.0165121
725.549	0.0163287
725.628	0.0164293
725.706	0.0166916
725.784	0.0164014
725.862	0.0164230
725.940	0.0164900
726.018	0.0164336
726.096	0.0165471
726.174	0.0166470
726.253	0.0166085
726.331	0.0164158
726.409	0.0163652
726.487	0.0164812
726.565	0.0165676
726.643	0.0164639
726.721	0.0165854
726.799	0.0164165
726.878	0.0165004
726.956	0.0165083
727.034	0.0164635
727.112	0.0165453
727.190	0.0164658
727.268	0.0165559
727.346	0.0165234
727.424	0.0166370
727.503	0.0164761
727.581	0.0165796
727.659	0.0166750
727.737	0.0164703
727.815	0.0165207
727.893	0.0163612
727.971	0.0164062
728.049	0.0166131
728.128	0.0166407
728.206	0.0164957
728.284	0.0162370
728.362	0.0164759
728.440	0.0163554
728.518	0.0164175
728.596	0.0163050
728.674	0.0164005
728.753	0.0163058
728.831	0.0162840
728.909	0.0164069
728.987	0.0164806
729.065	0.0164524
729.143	0.0164604
729.221	0.0162975
729.299	0.0164288
729.378	0.0163819
729.456	0.0164464
729.534	0.0163940
729.612	0.0163290
729.690	0.0165850
729.768	0.0164697
729.846	0.0164106
729.924	0.0164208
730.003	0.0165371
730.081	0.0164832
730.159	0.0164722
730.237	0.0164033
730.315	0.0164172
730.393	0.0166446
730.471	0.0164723
730.549	0.0165006
730.628	0.0165696
730.706	0.0164567
730.784	0.0164985
730.862	0.0166273
730.940	0.0164830
731.018	0.0166565
731.096	0.0166608
731.174	0.0165201
731.253	0.0165536
731.331	0.0165232
731.409	0.0164471
731.487	0.0165089
731.565	0.0166006
731.643	0.0164714
731.721	0.0165221
731.799	0.0166196
731.878	0.0166502
731.956	0.0164014
732.034	0.0164371
732.112	0.0164090
732.190	0.0164466
732.268	0.0164429
732.346	0.0164864
732.424	0.0163383
732.503	0.0164961
732.581	0.0164305
732.659	0.0164253
732.737	0.0164766
732.815	0.0163484
732.893	0.0162643
732.971	0.0164965
733.049	0.0164210
733.128	0.0163058
733.206	0.0163428
733.284	0.0163987
733.362	0.0164950
733.440	0.0163579
733.518	0.0164217
733.596	0.0164967
733.674	0.0164031
733.753	0.0164053
733.831	0.0164182
733.909	0.0164823
733.987	0.0164526
734.065	0.0164256
734.143	0.0165222
734.221	0.0164598
734.299	0.0166282
734.378	0.0165253
734.456	0.0165275
734.534	0.0166037
734.612	0.0165973
734.690	0.0164675
734.768	0.0166022
734.846	0.0164501
734.924	0.0165771
735.003	0.0165744
735.081	0.0165105
735.159	0.0165635
735.237	0.0166988
735.315	0.0165652
735.393	0.0164583
735.471	0.0165860
735.549	0.0164951
735.628	0.0165435
735.706	0.0164303
735.784	0.0164629
735.862	0.0165388
735.940	0.0165440
736.018	0.0163325
736.096	0.0164238
736.174	0.0164935
736.253	0.0163937
736.331	0.0163827
736.409	0.0163372
736.487	0.0163982
736.565	0.0164656
736.643	0.0163485
736.721	0.0164508
736.799	0.0165640
736.878	0.0165182
736.956	0.0165022
737.034	0.0163830
737.112	0.0165546
737.190	0.0165742
737.268	0.0165321
737.346	0.0165968
737.424	0.0164894
737.503	0.0164810
737.581	0.0165866
737.659	0.0164703
737.737	0.0166229
737.815	0.0165476
737.893	0.0165616
737.971	0.0165160
738.049	0.0166664
738.128	0.0165578
738.206	0.0165604
738.284	0.0165491
738.362	0.0165359
738.440	0.0166080
738.518	0.0165427
738.596	0.0164567
738.674	0.0164971
738.753	0.0164790
738.831	0.0166537
738.909	0.0166435
738.987	0.0164375
739.065	0.0164479
739.143	0.0164713
739.221	0.0163100
739.299	0.0165237
739.378	0.0165428
739.456	0.0164933
739.534	0.0164869
739.612	0.0163809
739.690	0.0164471
739.768	0.0164841
739.846	0.0162718
739.924	0.0163568
740.003	0.0164137
740.081	0.0164118
740.159	0.0163440
740.237	0.0164777
740.315	0.0164867
740.393	0.0164143
740.471	0.0164475
740.549	0.0165848
740.628	0.0165910
740.706	0.0165791
740.784	0.0164651
740.862	0.0164741
740.940	0.0164585
741.018	0.0164766
741.096	0.0165398
741.174	0.0166653
741.253	0.0164928
741.331	0.0165765
741.409	0.0165339
741.487	0.0165937
741.565	0.0165311
741.643	0.0165263
741.721	0.0164697
741.799	0.0166351
741.878	0.0165108
741.956	0.0164399
742.034	0.0166986
742.112	0.0165724
742.190	0.0164267
742.268	0.0165340
742.346	0.0165704
742.424	0.0165789
742.503	0.0166508
742.581	0.0165698
742.659	0.0164033
742.737	0.0165738
742.815	0.0165581
742.893	0.0164927
742.971	0.0164108
743.049	0.0164950
743.128	0.0164764
743.206	0.0165626
743.284	0.0166101
743.362	0.0164819
743.440	0.0164119
743.518	0.0164393
743.596	0.0162350
743.674	0.0163745
743.753	0.0164822
743.831	0.0163773
743.909	0.0165278
743.987	0.0164356
744.065	0.0164982
744.143	0.0165212
744.221	0.0163850
744.299	0.0164925
744.378	0.0164649
744.456	0.0163617
744.534	0.0164890
744.612	0.0164104
744.690	0.0165108
744.768	0.0165256
744.846	0.0164113
744.924	0.0162982
745.003	0.0164405
745.081	0.0163579
745.159	0.0163437
745.237	0.0164584
745.315	0.0164631
745.393	0.0165029
745.471	0.0163645
745.549	0.0163967
745.628	0.0163934
745.706	0.0164449
745.784	0.0164294
745.862	0.0164918
745.940	0.0163955
746.018	0.0164571
746.096	0.0164996
746.174	0.0164641
746.253	0.0163963
746.331	0.0164584
746.409	0.0164645
746.487	0.0163522
746.565	0.0164124
746.643	0.0164462
746.721	0.0164307
746.799	0.0163816
746.878	0.0164371
746.956	0.0165401
747.034	0.0164365
747.112	0.0164787
747.190	0.0163200
747.268	0.0164761
747.346	0.0164536
747.424	0.0164924
747.503	0.0165862
747.581	0.0164883
747.659	0.0166618
747.737	0.0165169
747.815	0.0166263
747.893	0.0164390
747.971	0.0165514
748.049	0.0167123
748.128	0.0164630
748.206	0.0165958
748.284	0.0166559
748.362	0.0164663
748.440	0.0164723
748.518	0.0165417
748.596	0.0165369
748.674	0.0165496
748.753	0.0165707
748.831	0.0165472
748.909	0.0164771
748.987	0.0166218
749.065	0.0166485
749.143	0.0164747
749.221	0.0163638
749.299	0.0164927
749.378	0.0166939
749.456	0.0166043
749.534	0.0166213
749.612	0.0165154
749.690	0.0165102
749.768	0.0164986
749.846	0.0163896
749.924	0.0164740
750.003	0.0164184
750.081	0.0164225
750.159	0.0164555
750.237	0.0164577
750.315	0.0165416
750.393	0.0164330
750.471	0.0164928
750.549	0.0164102
750.628	0.0164517
750.706	0.0164531
750.784	0.0164828
750.862	0.0164018
750.940	0.0164220
751.018	0.0165281
751.096	0.0164622
751.174	0.0164111
751.253	0.0164762
751.331	0.0165130
751.409	0.0165215
751.487	0.0165062
751.565	0.0165657
751.643	0.0165165
751.721	0.0162788
751.799	0.0163557
751.878	0.0165855
751.956	0.0166003
752.034	0.0164966
752.112	0.0164542
752.190	0.0164435
752.268	0.0165531
752.346	0.0164793
752.424	0.0164401
752.503	0.0164784
752.581	0.0165589
752.659	0.0164896
752.737	0.0164861
752.815	0.0165617
752.893	0.0164275
752.971	0.0163618
753.049	0.0165742
753.128	0.0166066
753.206	0.0163821
753.284	0.0166412
753.362	0.0165777
753.440	0.0164868
753.518	0.0166319
753.596	0.0165438
753.674	0.0164343
753.753	0.0163829
753.831	0.0164751
753.909	0.0165622
753.987	0.0165904
754.065	0.0165389
754.143	0.0164466
754.221	0.0165125
754.299	0.0164633
754.378	0.0164773
754.456	0.0164547
754.534	0.0165494
754.612	0.0164589
754.690	0.0165101
754.768	0.0165051
754.846	0.0165160
754.924	0.0166538
755.003	0.0165849
755.081	0.0165769
755.159	0.0165868
755.237	0.0165757
755.315	0.0165440
755.393	0.0164706
755.471	0.0165514
755.549	0.0166547
755.628	0.0165185
755.706	0.0164551
755.784	0.0164888
755.862	0.0164660
755.940	0.0166196
756.018	0.0165225
756.096	0.0162984
756.174	0.0163380
756.253	0.0165202
756.331	0.0163689
756.409	0.0163287
756.487	0.0164109
756.565	0.0163766
756.643	0.0166312
756.721	0.0163941
756.799	0.0165206
756.878	0.0163870
756.956	0.0162447
757.034	0.0164203
757.112	0.0166319
757.190	0.0165266
757.268	0.0165420
757.346	0.0164924
757.424	0.0164336
757.503	0.0164989
757.581	0.0165675
757.659	0.0164299
757.737	0.0165849
757.815	0.0165299
757.893	0.0164813
757.971	0.0164311
758.049	0.0164795
758.128	0.0166018
758.206	0.0164819
758.284	0.0165182
758.362	0.0166476
758.440	0.0163501
758.518	0.0164411
758.596	0.0165105
758.674	0.0165611
758.753	0.0166030
758.831	0.0165896
758.909	0.0165919
758.987	0.0165443
759.065	0.0166339
759.143	0.0165430
759.221	0.0166121
759.299	0.0164669
759.378	0.0165586
759.456	0.0165507
759.534	0.0164182
759.612	0.0164710
759.690	0.0164299
759.768	0.0163809
759.846	0.0164980
759.924	0.0164135
760.003	0.0163145
760.081	0.0163988
760.159	0.0164577
760.237	0.0165994
760.315	0.0164027
760.393	0.0164483
760.471	0.0163203
760.549	0.0164664
760.628	0.0165151
760.706	0.0164196
760.784	0.0163897
760.862	0.0164603
760.940	0.0164110
761.018	0.0165688
761.096	0.0165405
761.174	0.0165765
761.253	0.0164418
761.331	0.0164811
761.409	0.0164304
761.487	0.0163820
761.565	0.0164673
761.643	0.0165313
761.721	0.0165379
761.799	0.0164523
761.878	0.0165289
761.956	0.0166657
762.034	0.0164597
762.112	0.0165093
762.190	0.0164617
762.268	0.0163880
762.346	0.0164901
762.424	0.0164733
762.503	0.0165897
762.581	0.0164717
762.659	0.0164706
762.737	0.0164424
762.815	0.0163863
762.893	0.0165164
762.971	0.0164408
763.049	0.0165617
763.128	0.0164413
763.206	0.0165097
763.284	0.0166296
763.362	0.0165137
763.440	0.0164836
763.518	0.0164692
763.596	0.0165477
763.674	0.0165238
763.753	0.0164397
763.831	0.0165096
763.909	0.0166158
763.987	0.0166025
764.065	0.0164510
764.143	0.0164011
764.221	0.0165726
764.299	0.0165247
764.378	0.0165153
764.456	0.0164928
764.534	0.0164546
764.612	0.0164647
764.690	0.0164674
764.768	0.0164467
764.846	0.0166844
764.924	0.0165048
765.003	0.0163760
765.081	0.0165824
765.159	0.0165849
765.237	0.0165233
765.315	0.0164809
765.393	0.0166335
765.471	0.0165710
765.549	0.0165250
765.628	0.0165366
765.706	0.0165388
765.784	0.0165595
765.862	0.0165745
765.940	0.0165395
766.018	0.0164915
766.096	0.0166420
766.174	0.0164948
766.253	0.0162967
766.331	0.0165551
766.409	0.0165313
766.487	0.0165176
766.565	0.0163731
766.643	0.0164776
766.721	0.0164468
766.799	0.0164208
766.878	0.0164947
766.956	0.0164160
767.034	0.0163319
767.112	0.0164208
767.190	0.0163531
767.268	0.0164428
767.346	0.0163749
767.424	0.0165656
767.503	0.0165247
767.581	0.0163891
767.659	0.0165020
767.737	0.0164756
767.815	0.0164524
767.893	0.0165004
767.971	0.0165942
768.049	0.0164201
768.128	0.0164001
768.206	0.0164185
768.284	0.0163887
768.362	0.0164692
768.440	0.0163892
768.518	0.0165557
768.596	0.0164613
768.674	0.0164678
768.753	0.0165565
768.831	0.0165317
768.909	0.0163869
768.987	0.0164830
769.065	0.0164098
769.143	0.0165292
769.221	0.0163937
769.299	0.0164279
769.378	0.0164990
769.456	0.0165314
769.534	0.0164835
769.612	0.0165320
769.690	0.0165926
769.768	0.0165448
769.846	0.0164779
769.924	0.0165235
770.003	0.0164864
770.081	0.0165314
770.159	0.0165761
770.237	0.0164983
770.315	0.0165652
770.393	0.0164784
770.471	0.0165120
770.549	0.0165858
770.628	0.0166251
770.706	0.0165728
770.784	0.0164896
770.862	0.0165082
770.940	0.0164995
771.018	0.0164798
771.096	0.0164391
771.174	0.0164381
771.253	0.0166293
771.331	0.0165948
771.409	0.0164124
771.487	0.0164782
771.565	0.0165547
771.643	0.0164572
771.721	0.0164043
771.799	0.0163628
771.878	0.0163842
771.956	0.0165160
772.034	0.0163964
772.112	0.0164852
772.190	0.0164430
772.268	0.0164494
772.346	0.0163937
772.424	0.0163733
772.503	0.0164371
772.581	0.0166081
772.659	0.0164730
772.737	0.0164074
772.815	0.0163466
772.893	0.0165984
772.971	0.0165044
773.049	0.0163451
773.128	0.0163610
773.206	0.0165058
773.284	0.0164307
773.362	0.0164351
773.440	0.0163163
773.518	0.0163960
773.596	0.0164583
773.674	0.0163273
773.753	0.0165309
773.831	0.0164787
773.909	0.0164194
773.987	0.0164150
774.065	0.0164875
774.143	0.0164322
774.221	0.0164155
774.299	0.0164337
774.378	0.0165448
774.456	0.0165613
774.534	0.0164832
774.612	0.0164201
774.690	0.0164714
774.768	0.0165685
774.846	0.0165007
774.924	0.0164367
775.003	0.0163261
775.081	0.0164285
775.159	0.0164516
775.237	0.0165386
775.315	0.0164725
775.393	0.0165074
775.471	0.0163414
775.549	0.0163922
775.628	0.0164520
775.706	0.0164838
775.784	0.0164655
775.862	0.0164686
775.940	0.0164061
776.018	0.0163488
776.096	0.0164458
776.174	0.0164231
776.253	0.0164087
776.331	0.0163474
776.409	0.0164909
776.487	0.0164071
776.565	0.0163811
776.643	0.0164236
776.721	0.0164378
776.799	0.0163519
776.878	0.0162083
776.956	0.0163757
777.034	0.0164503
777.112	0.0164236
777.190	0.0164600
777.268	0.0163248
777.346	0.0163844
777.424	0.0165656
777.503	0.0164698
777.581	0.0165323
777.659	0.0165099
777.737	0.0165083
777.815	0.0164201
777.893	0.0163882
777.971	0.0164168
778.049	0.0163678
778.128	0.0163925
778.206	0.0165413
778.284	0.0165072
778.362	0.0163290
778.440	0.0164969
778.518	0.0164251
778.596	0.0164929
778.674	0.0166380
778.753	0.0165847
778.831	0.0165331
778.909	0.0165067
778.987	0.0165003
779.065	0.0164839
779.143	0.0165309
779.221	0.0165169
779.299	0.0164788
779.378	0.0166357
779.456	0.0165000
779.534	0.0165479
779.612	0.0165604
779.690	0.0165166
779.768	0.0163478
779.846	0.0166010
779.924	0.0165547
780.003	0.0165101
780.081	0.0164467
780.159	0.0164986
780.237	0.0164457
780.315	0.0164682
780.393	0.0164869
780.471	0.0164803
780.549	0.0165341
780.628	0.0163625
780.706	0.0163236
780.784	0.0164809
780.862	0.0164831
780.940	0.0164506
781.018	0.0163176
781.096	0.0164203
781.174	0.0163982
781.253	0.0164391
781.331	0.0164897
781.409	0.0164182
781.487	0.0166119
781.565	0.0164799
781.643	0.0163709
781.721	0.0165553
781.799	0.0165997
781.878	0.0163664
781.956	0.0165063
782.034	0.0163840
782.112	0.0165458
782.190	0.0164552
782.268	0.0165206
782.346	0.0165205
782.424	0.0164481
782.503	0.0163200
782.581	0.0164462
782.659	0.0164860
782.737	0.0163864
782.815	0.0164062
782.893	0.0163387
782.971	0.0165082
783.049	0.0165261
783.128	0.0165389
783.206	0.0164985
783.284	0.0164808
783.362	0.0163338
783.440	0.0164590
783.518	0.0165008
783.596	0.0163739
783.674	0.0164785
783.753	0.0164323
783.831	0.0166262
783.909	0.0165295
783.987	0.0165955
784.065	0.0164184
784.143	0.0163987
784.221	0.0165965
784.299	0.0166113
784.378	0.0165851
784.456	0.0164341
784.534	0.0165362
784.612	0.0166148
784.690	0.0164844
784.768	0.0164463
784.846	0.0164219
784.924	0.0164994
785.003	0.0164945
785.081	0.0164371
785.159	0.0164606
785.237	0.0166199
785.315	0.0164445
785.393	0.0164439
785.471	0.0165378
785.549	0.0164935
785.628	0.0164635
785.706	0.0163921
785.784	0.0164280
785.862	0.0165133
785.940	0.0165240
786.018	0.0165092
786.096	0.0164781
786.174	0.0165311
786.253	0.0165001
786.331	0.0164225
786.409	0.0164421
786.487	0.0164807
786.565	0.0165786
786.643	0.0165636
786.721	0.0165813
786.799	0.0164548
786.878	0.0165214
786.956	0.0165729
787.034	0.0164035
787.112	0.0165056
787.190	0.0165997
787.268	0.0164492
787.346	0.0163620
787.424	0.0164787
787.503	0.0164402
787.581	0.0164243
787.659	0.0165347
787.737	0.0165018
787.815	0.0165343
787.893	0.0164280
787.971	0.0165562
788.049	0.0165311
788.128	0.0166051
788.206	0.0165108
788.284	0.0164458
788.362	0.0165455
788.440	0.0165269
788.518	0.0165134
788.596	0.0163799
788.674	0.0165164
788.753	0.0165765
788.831	0.0165536
788.909	0.0164201
788.987	0.0164610
789.065	0.0164552
789.143	0.0166105
789.221	0.0164684
789.299	0.0164281
789.378	0.0166707
789.456	0.0164465
789.534	0.0165038
789.612	0.0164883
789.690	0.0163994
789.768	0.0164515
789.846	0.0165749
789.924	0.0164508
790.003	0.0166043
790.081	0.0166227
790.159	0.0164897
790.237	0.0163821
790.315	0.0164706
790.393	0.0164318
790.471	0.0165206
790.549	0.0164861
790.628	0.0165292
790.706	0.0166061
790.784	0.0164515
790.862	0.0165136
790.940	0.0164993
791.018	0.0166504
791.096	0.0165457
791.174	0.0165598
791.253	0.0164389
791.331	0.0165090
791.409	0.0165156
791.487	0.0165757
791.565	0.0163736
791.643	0.0165257
791.721	0.0163889
791.799	0.0165667
791.878	0.0164674
791.956	0.0165038
792.034	0.0164428
792.112	0.0164597
792.190	0.0164965
792.268	0.0165506
792.346	0.0164104
792.424	0.0163822
792.503	0.0163660
792.581	0.0163817
792.659	0.0164828
792.737	0.0166309
792.815	0.0164810
792.893	0.0164287
792.971	0.0163095
793.049	0.0165262
793.128	0.0164797
793.206	0.0165096
793.284	0.0163847
793.362	0.0164488
793.440	0.0165993
793.518	0.0165541
793.596	0.0166051
793.674	0.0165073
793.753	0.0166047
793.831	0.0164674
793.909	0.0164548
793.987	0.0164812
794.065	0.0164288
794.143	0.0163784
794.221	0.0164448
794.299	0.0164911
794.378	0.0165163
794.456	0.0164553
794.534	0.0164317
794.612	0.0164908
794.690	0.0164862
794.768	0.0166286
794.846	0.0165322
794.924	0.0165386
795.003	0.0165090
795.081	0.0163496
795.159	0.0165250
795.237	0.0165032
795.315	0.0165329
795.393	0.0165513
795.471	0.0163986
795.549	0.0163293
795.628	0.0163300
795.706	0.0164468
795.784	0.0164651
795.862	0.0164523
795.940	0.0165135
796.018	0.0164896
796.096	0.0164235
796.174	0.0164601
796.253	0.0164594
796.331	0.0164226
796.409	0.0164221
796.487	0.0163763
796.565	0.0164183
796.643	0.0163891
796.721	0.0165252
796.799	0.0164449
796.878	0.0164363
796.956	0.0164836
797.034	0.0165417
797.112	0.0164724
797.190	0.0161964
797.268	0.0163675
797.346	0.0163375
797.424	0.0164105
797.503	0.0164654
797.581	0.0163126
797.659	0.0163100
797.737	0.0164435
797.815	0.0164784
797.893	0.0162702
797.971	0.0163001
798.049	0.0163295
798.128	0.0163895
798.206	0.0162130
798.284	0.0162548
798.362	0.0164013
798.440	0.0165414
798.518	0.0163720
798.596	0.0162708
798.674	0.0162751
798.753	0.0163359
798.831	0.0164133
798.909	0.0163290
798.987	0.0164008
799.065	0.0164034
799.143	0.0164507
799.221	0.0163180
799.299	0.0161863
799.378	0.0162778
799.456	0.0164224
799.534	0.0164497
799.612	0.0163178
799.690	0.0163757
799.768	0.0164256
799.846	0.0163361
799.924	0.0164029
800.003	0.0163391
800.081	0.0163213
800.159	0.0165287
800.237	0.0164403
800.315	0.0164578
800.393	0.0163907
800.471	0.0163429
800.549	0.0163194
800.628	0.0163111
800.706	0.0164155
800.784	0.0164636
800.862	0.0165817
800.940	0.0164830
801.018	0.0164653
801.096	0.0163609
801.174	0.0164122
801.253	0.0164948
801.331	0.0164700
801.409	0.0165306
801.487	0.0164581
801.565	0.0164062
801.643	0.0163662
801.721	0.0164501
801.799	0.0163714
801.878	0.0164775
801.956	0.0164110
802.034	0.0165182
802.112	0.0163943
802.190	0.0164686
802.268	0.0164294
802.346	0.0164139
802.424	0.0164184
802.503	0.0164989
802.581	0.0165380
802.659	0.0165369
802.737	0.0165012
802.815	0.0164183
802.893	0.0164470
802.971	0.0163804
803.049	0.0163720
803.128	0.0164831
803.206	0.0163783
803.284	0.0164889
803.362	0.0164009
803.440	0.0165569
803.518	0.0166037
803.596	0.0164067
803.674	0.0164168
803.753	0.0164094
803.831	0.0164171
803.909	0.0164223
803.987	0.0163948
804.065	0.0163886
804.143	0.0164706
804.221	0.0165055
804.299	0.0163485
804.378	0.0164554
804.456	0.0164365
804.534	0.0164426
804.612	0.0163866
804.690	0.0164592
804.768	0.0163150
804.846	0.0162666
804.924	0.0164067
805.003	0.0163468
805.081	0.0165350
805.159	0.0163944
805.237	0.0163477
805.315	0.0164753
805.393	0.0164790
805.471	0.0164688
805.549	0.0163015
805.628	0.0164220
805.706	0.0164229
805.784	0.0164744
805.862	0.0165071
805.940	0.0164591
806.018	0.0165673
806.096	0.0164721
806.174	0.0165285
806.253	0.0164712
806.331	0.0165998
806.409	0.0165958
806.487	0.0164798
806.565	0.0165580
806.643	0.0165611
806.721	0.0165778
806.799	0.0166293
806.878	0.0165919
806.956	0.0165703
807.034	0.0166432
807.112	0.0164886
807.190	0.0164520
807.268	0.0165348
807.346	0.0165018
807.424	0.0167185
807.503	0.0164563
807.581	0.0166436
807.659	0.0166435
807.737	0.0165304
807.815	0.0164729
807.893	0.0164225
807.971	0.0165199
808.049	0.0165132
808.128	0.0166228
808.206	0.0166458
808.284	0.0164533
808.362	0.0166015
808.440	0.0164335
808.518	0.0164727
808.596	0.0165617
808.674	0.0165652
808.753	0.0165320
808.831	0.0165733
808.909	0.0164941
808.987	0.0165379
809.065	0.0165055
809.143	0.0164545
809.221	0.0166254
809.299	0.0164011
809.378	0.0165190
809.456	0.0166330
809.534	0.0165052
809.612	0.0163802
809.690	0.0164732
809.768	0.0164677
809.846	0.0165746
809.924	0.0166010
810.003	0.0166260
810.081	0.0166238
810.159	0.0165510
810.237	0.0164995
810.315	0.0165592
810.393	0.0165071
810.471	0.0165580
810.549	0.0166251
810.628	0.0165118
810.706	0.0165431
810.784	0.0165680
810.862	0.0165568
810.940	0.0164380
811.018	0.0164269
811.096	0.0164840
811.174	0.0164530
811.253	0.0164860
811.331	0.0164882
811.409	0.0164780
811.487	0.0166934
811.565	0.0164675
811.643	0.0165348
811.721	0.0164417
811.799	0.0164863
811.878	0.0164993
811.956	0.0164474
812.034	0.0164819
812.112	0.0163789
812.190	0.0164620
812.268	0.0165055
812.346	0.0165015
812.424	0.0164416
812.503	0.0163873
812.581	0.0164729
812.659	0.0163333
812.737	0.0164459
812.815	0.0163900
812.893	0.0163759
812.971	0.0164904
813.049	0.0162473
813.128	0.0162749
813.206	0.0161858
813.284	0.0163002
813.362	0.0164948
813.440	0.0163686
813.518	0.0163834
813.596	0.0164130
813.674	0.0165367
813.753	0.0164891
813.831	0.0164743
813.909	0.0163094
813.987	0.0164195
814.065	0.0165355
814.143	0.0163790
814.221	0.0164712
814.299	0.0165990
814.378	0.0163776
814.456	0.0165133
814.534	0.0164971
814.612	0.0165127
814.690	0.0164050
814.768	0.0164077
814.846	0.0164630
814.924	0.0166389
815.003	0.0165420
815.081	0.0165371
815.159	0.0164405
815.237	0.0163403
815.315	0.0164943
815.393	0.0166036
815.471	0.0166343
815.549	0.0164087
815.628	0.0164367
815.706	0.0165119
815.784	0.0164872
815.862	0.0165221
815.940	0.0165386
816.018	0.0165331
816.096	0.0166096
816.174	0.0163770
816.253	0.0165723
816.331	0.0165682
816.409	0.0166251
816.487	0.0166158
816.565	0.0165958
816.643	0.0166856
816.721	0.0164497
816.799	0.0166136
816.878	0.0166024
816.956	0.0166791
817.034	0.0165215
817.112	0.0164333
817.190	0.0165890
817.268	0.0166368
817.346	0.0165247
817.424	0.0164622
817.503	0.0166209
817.581	0.0166422
817.659	0.0165439
817.737	0.0165123
817.815	0.0165057
817.893	0.0166778
817.971	0.0164407
818.049	0.0164826
818.128	0.0166505
818.206	0.0164763
818.284	0.0164156
818.362	0.0164942
818.440	0.0164371
818.518	0.0164517
818.596	0.0164542
818.674	0.0162862
818.753	0.0164928
818.831	0.0164877
818.909	0.0163702
818.987	0.0164235
819.065	0.0163599
819.143	0.0163366
819.221	0.0161845
819.299	0.0162885
819.378	0.0163345
819.456	0.0163216
819.534	0.0163537
819.612	0.0163548
819.690	0.0163243
819.768	0.0163033
819.846	0.0164478
819.924	0.0163678
820.003	0.0164285
820.081	0.0164571
820.159	0.0163472
820.237	0.0164556
820.315	0.0163381
820.393	0.0162655
820.471	0.0163521
820.549	0.0165943
820.628	0.0165067
820.706	0.0163649
820.784	0.0165301
820.862	0.0164137
820.940	0.0164540
821.018	0.0164469
821.096	0.0164393
821.174	0.0165282
821.253	0.0165611
821.331	0.0163622
821.409	0.0164255
821.487	0.0163831
821.565	0.0164891
821.643	0.0164620
821.721	0.0164384
821.799	0.0164742
821.878	0.0165372
821.956	0.0165842
822.034	0.0165127
822.112	0.0164584
822.190	0.0163969
822.268	0.0164524
822.346	0.0166429
822.424	0.0165012
822.503	0.0163194
822.581	0.0164489
822.659	0.0164391
822.737	0.0165405
822.815	0.0165131
822.893	0.0165410
822.971	0.0165156
823.049	0.0166006
823.128	0.0165714
823.206	0.0166513
823.284	0.0166053
823.362	0.0166356
823.440	0.0165838
823.518	0.0163941
823.596	0.0165008
823.674	0.0166020
823.753	0.0166022
823.831	0.0166119
823.909	0.0166400
823.987	0.0166554
824.065	0.0166411
824.143	0.0165899
824.221	0.0165929
824.299	0.0166056
824.378	0.0164933
824.456	0.0167201
824.534	0.0166513
824.612	0.0165505
824.690	0.0167205
824.768	0.0166446
824.846	0.0165703
824.924	0.0166505
825.003	0.0166302
825.081	0.0165389
825.159	0.0167173
825.237	0.0166316
825.315	0.0165073
825.393	0.0165919
825.471	0.0165178
825.549	0.0164686
825.628	0.0164861
825.706	0.0165204
825.784	0.0164889
825.862	0.0163950
825.940	0.0164584
826.018	0.0165183
826.096	0.0164888
826.174	0.0164366
826.253	0.0164808
826.331	0.0163848
826.409	0.0163454
826.487	0.0164632
826.565	0.0165026
826.643	0.0164939
826.721	0.0164625
826.799	0.0164423
826.878	0.0163176
826.956	0.0164030
827.034	0.0163326
827.112	0.0162921
827.190	0.0164241
827.268	0.0163663
827.346	0.0165076
827.424	0.0164780
827.503	0.0163308
827.581	0.0165392
827.659	0.0164902
827.737	0.0163403
827.815	0.0165048
827.893	0.0163840
827.971	0.0164682
828.049	0.0163008
828.128	0.0164415
828.206	0.0165054
828.284	0.0164185
828.362	0.0163862
828.440	0.0164802
828.518	0.0165173
828.596	0.0164735
828.674	0.0164832
828.753	0.0164303
828.831	0.0163500
828.909	0.0165294
828.987	0.0166786
829.065	0.0165632
829.143	0.0165392
829.221	0.0166266
829.299	0.0164941
829.378	0.0165790
829.456	0.0166312
829.534	0.0165307
829.612	0.0165218
829.690	0.0165203
829.768	0.0165742
829.846	0.0166082
829.924	0.0166624
830.003	0.0164825
830.081	0.0165536
830.159	0.0165701
830.237	0.0166274
830.315	0.0167422
830.393	0.0166704
830.471	0.0165175
830.549	0.0166357
830.628	0.0165282
830.706	0.0165651
830.784	0.0166290
830.862	0.0166888
830.940	0.0166203
831.018	0.0165012
831.096	0.0167477
831.174	0.0166864
831.253	0.0165752
831.331	0.0165398
831.409	0.0165262
831.487	0.0166624
831.565	0.0165586
831.643	0.0165685
831.721	0.0165643
831.799	0.0164864
831.878	0.0165115
831.956	0.0165992
832.034	0.0166385
832.112	0.0165221
832.190	0.0164716
832.268	0.0165590
832.346	0.0165943
832.424	0.0164265
832.503	0.0164693
832.581	0.0165042
832.659	0.0166390
832.737	0.0164574
832.815	0.0164350
832.893	0.0164103
832.971	0.0164063
833.049	0.0165284
833.128	0.0164222
833.206	0.0164678
833.284	0.0165727
833.362	0.0164487
833.440	0.0164844
833.518	0.0164079
833.596	0.0166016
833.674	0.0163759
833.753	0.0164043
833.831	0.0165112
833.909	0.0165489
833.987	0.0164120
834.065	0.0164553
834.143	0.0163146
834.221	0.0165068
834.299	0.0166317
834.378	0.0164819
834.456	0.0164516
834.534	0.0164400
834.612	0.0164917
834.690	0.0164988
834.768	0.0165571
834.846	0.0164977
834.924	0.0162974
835.003	0.0163178
835.081	0.0163802
835.159	0.0164677
835.237	0.0163422
835.315	0.0163904
835.393	0.0163507
835.471	0.0165612
835.549	0.0164950
835.628	0.0164005
835.706	0.0163951
835.784	0.0165364
835.862	0.0164610
835.940	0.0164851
836.018	0.0164860
836.096	0.0164482
836.174	0.0165213
836.253	0.0165052
836.331	0.0165215
836.409	0.0164613
836.487	0.0165404
836.565	0.0163982
836.643	0.0166607
836.721	0.0166277
836.799	0.0164606
836.878	0.0165781
836.956	0.0165260
837.034	0.0166943
837.112	0.0165615
837.190	0.0165181
837.268	0.0165827
837.346	0.0166363
837.424	0.0165325
837.503	0.0164174
837.581	0.0166392
837.659	0.0166444
837.737	0.0165965
837.815	0.0165481
837.893	0.0165936
837.971	0.0165412
838.049	0.0165932
838.128	0.0164681
838.206	0.0166454
838.284	0.0166208
838.362	0.0166425
838.440	0.0165567
838.518	0.0165771
838.596	0.0165771
838.674	0.0165829
838.753	0.0164484
838.831	0.0165581
838.909	0.0166360
838.987	0.0165510
839.065	0.0165163
839.143	0.0166315
839.221	0.0166768
839.299	0.0165388
839.378	0.0165423
839.456	0.0163943
839.534	0.0165128
839.612	0.0165129
839.690	0.0165501
839.768	0.0163937
839.846	0.0164241
839.924	0.0163996
840.003	0.0163813
840.081	0.0164501
840.159	0.0165141
840.237	0.0165217
840.315	0.0163602
840.393	0.0166035
840.471	0.0165279
840.549	0.0163713
840.628	0.0164690
840.706	0.0164445
840.784	0.0164770
840.862	0.0164611
840.940	0.0164145
841.018	0.0165878
841.096	0.0166038
841.174	0.0164699
841.253	0.0164195
841.331	0.0164632
841.409	0.0165804
841.487	0.0164951
841.565	0.0165376
841.643	0.0165312
841.721	0.0165824
841.799	0.0165727
841.878	0.0165096
841.956	0.0164987
842.034	0.0164544
842.112	0.0165715
842.190	0.0164928
842.268	0.0165005
842.346	0.0165063
842.424	0.0165396
842.503	0.0166159
842.581	0.0165364
842.659	0.0165588
842.737	0.0164429
842.815	0.0164009
842.893	0.0166368
842.971	0.0166384
843.049	0.0167104
843.128	0.0165134
843.206	0.0165121
843.284	0.0164108
843.362	0.0164864
843.440	0.0164461
843.518	0.0165775
843.596	0.0164891
843.674	0.0163874
843.753	0.0165545
843.831	0.0166305
843.909	0.0167628
843.987	0.0165668
844.065	0.0164378
844.143	0.0164550
844.221	0.0166457
844.299	0.0166264
844.378	0.0167372
844.456	0.0165343
844.534	0.0165854
844.612	0.0166055
844.690	0.0165759
844.768	0.0166489
844.846	0.0165914
844.924	0.0167725
845.003	0.0167829
845.081	0.0166116
845.159	0.0166942
845.237	0.0166187
845.315	0.0165530
845.393	0.0165620
845.471	0.0165373
845.549	0.0165690
845.628	0.0165826
845.706	0.0167036
845.784	0.0166958
845.862	0.0166280
845.940	0.0166818
846.018	0.0167534
846.096	0.0166463
846.174	0.0165948
846.253	0.0166258
846.331	0.0166700
846.409	0.0166194
846.487	0.0166437
846.565	0.0165549
846.643	0.0166391
846.721	0.0166370
846.799	0.0165231
846.878	0.0165923
846.956	0.0166908
847.034	0.0167038
847.112	0.0165578
847.190	0.0166093
847.268	0.0166408
847.346	0.0165604
847.424	0.0165270
847.503	0.0166660
847.581	0.0164958
847.659	0.0164905
847.737	0.0166276
847.815	0.0165666
847.893	0.0165164
847.971	0.0165961
848.049	0.0165881
848.128	0.0165887
848.206	0.0166051
848.284	0.0165628
848.362	0.0164394
848.440	0.0167780
848.518	0.0165520
848.596	0.0165898
848.674	0.0166099
848.753	0.0165072
848.831	0.0166638
848.909	0.0166073
848.987	0.0166338
849.065	0.0165778
849.143	0.0165385
849.221	0.0166284
849.299	0.0165997
849.378	0.0166096
849.456	0.0165777
849.534	0.0164389
849.612	0.0166211
849.690	0.0165793
849.768	0.0166385
849.846	0.0165853
849.924	0.0165020
850.003	0.0165182
850.081	0.0164025
850.159	0.0164442
850.237	0.0163649
850.315	0.0164872
850.393	0.0164603
850.471	0.0165144
850.549	0.0165013
850.628	0.0164187
850.706	0.0164216
850.784	0.0164759
850.862	0.0164811
850.940	0.0164902
851.018	0.0164700
851.096	0.0165330
851.174	0.0164531
851.253	0.0164382
851.331	0.0164626
851.409	0.0164744
851.487	0.0164719
851.565	0.0165422
851.643	0.0164359
851.721	0.0166632
851.799	0.0164565
851.878	0.0164642
851.956	0.0164534
852.034	0.0165833
852.112	0.0166080
852.190	0.0165624
852.268	0.0165820
852.346	0.0166345
852.424	0.0165128
852.503	0.0166605
852.581	0.0166941
852.659	0.0165893
852.737	0.0166068
852.815	0.0165361
852.893	0.0166724
852.971	0.0167009
853.049	0.0167634
853.128	0.0167714
853.206	0.0167182
853.284	0.0167296
853.362	0.0167641
853.440	0.0167887
853.518	0.0167249
853.596	0.0166306
853.674	0.0166978
853.753	0.0166022
853.831	0.0166298
853.909	0.0167112
853.987	0.0166801
854.065	0.0166698
854.143	0.0166114
854.221	0.0165769
854.299	0.0167706
854.378	0.0165886
854.456	0.0165191
854.534	0.0165490
854.612	0.0164970
854.690	0.0164950
854.768	0.0164687
854.846	0.0165128
854.924	0.0164564
855.003	0.0164915
855.081	0.0165274
855.159	0.0164213
855.237	0.0164008
855.315	0.0165181
855.393	0.0163922
855.471	0.0164604
855.549	0.0164491
855.628	0.0163524
855.706	0.0164000
855.784	0.0163969
855.862	0.0163396
855.940	0.0164048
856.018	0.0163860
856.096	0.0162943
856.174	0.0164314
856.253	0.0163843
856.331	0.0164485
856.409	0.0164212
856.487	0.0164761
856.565	0.0165047
856.643	0.0163686
856.721	0.0164176
856.799	0.0164316
856.878	0.0163562
856.956	0.0164919
857.034	0.0165647
857.112	0.0165212
857.190	0.0165414
857.268	0.0163174
857.346	0.0163367
857.424	0.0166508
857.503	0.0165345
857.581	0.0163771
857.659	0.0164906
857.737	0.0164455
857.815	0.0164450
857.893	0.0164749
857.971	0.0166543
858.049	0.0164404
858.128	0.0164610
858.206	0.0164243
858.284	0.0164003
858.362	0.0164647
858.440	0.0163636
858.518	0.0164783
858.596	0.0163069
858.674	0.0165181
858.753	0.0164840
858.831	0.0164703
858.909	0.0164489
858.987	0.0165227
859.065	0.0165039
859.143	0.0163384
859.221	0.0164561
859.299	0.0164787
859.378	0.0165627
859.456	0.0164580
859.534	0.0164522
859.612	0.0164592
859.690	0.0164742
859.768	0.0164662
859.846	0.0164485
859.924	0.0164694
860.003	0.0165364
860.081	0.0164321
860.159	0.0164383
860.237	0.0165266
860.315	0.0165070
860.393	0.0163772
860.471	0.0165115
860.549	0.0164192
860.628	0.0164722
860.706	0.0165334
860.784	0.0165093
860.862	0.0164492
860.940	0.0165495
861.018	0.0164407
861.096	0.0163651
861.174	0.0164132
861.253	0.0164974
861.331	0.0165596
861.409	0.0165085
861.487	0.0166566
861.565	0.0164124
861.643	0.0163950
861.721	0.0164529
861.799	0.0164655
861.878	0.0165613
861.956	0.0165185
862.034	0.0163700
862.112	0.0165838
862.190	0.0165713
862.268	0.0164452
862.346	0.0163945
862.424	0.0164077
862.503	0.0164243
862.581	0.0164729
862.659	0.0164234
862.737	0.0165574
862.815	0.0164208
862.893	0.0164286
862.971	0.0163349
863.049	0.0163181
863.128	0.0165948
863.206	0.0166759
863.284	0.0163886
863.362	0.0162590
863.440	0.0163980
863.518	0.0163472
863.596	0.0164291
863.674	0.0163321
863.753	0.0164346
863.831	0.0163668
863.909	0.0166539
863.987	0.0165209
864.065	0.0163979
864.143	0.0163606
864.221	0.0163675
864.299	0.0165269
864.378	0.0164668
864.456	0.0164968
864.534	0.0164600
864.612	0.0163540
864.690	0.0163751
864.768	0.0164577
864.846	0.0163741
864.924	0.0163371
865.003	0.0164222
865.081	0.0165025
865.159	0.0164092
865.237	0.0164610
865.315	0.0164579
865.393	0.0163943
865.471	0.0165336
865.549	0.0165544
865.628	0.0164926
865.706	0.0165370
865.784	0.0165234
865.862	0.0163116
865.940	0.0164743
866.018	0.0165777
866.096	0.0165830
866.174	0.0165157
866.253	0.0165139
866.331	0.0164112
866.409	0.0164661
866.487	0.0166092
866.565	0.0164873
866.643	0.0164943
866.721	0.0165101
866.799	0.0165259
866.878	0.0164381
866.956	0.0165475
867.034	0.0164234
867.112	0.0165250
867.190	0.0165582
867.268	0.0166298
867.346	0.0165137
867.424	0.0165412
867.503	0.0164614
867.581	0.0165404
867.659	0.0165542
867.737	0.0165973
867.815	0.0165425
867.893	0.0165767
867.971	0.0165212
868.049	0.0166134
868.128	0.0166789
868.206	0.0166827
868.284	0.0166142
868.362	0.0166014
868.440	0.0164906
868.518	0.0164169
868.596	0.0166254
868.674	0.0165201
868.753	0.0164931
868.831	0.0167179
868.909	0.0166576
868.987	0.0166000
869.065	0.0164166
869.143	0.0165834
869.221	0.0166505
869.299	0.0165895
869.378	0.0164619
869.456	0.0164828
869.534	0.0165227
869.612	0.0165951
869.690	0.0165956
869.768	0.0166531
869.846	0.0165488
869.924	0.0165548
870.003	0.0166174
870.081	0.0165690
870.159	0.0166571
870.237	0.0164772
870.315	0.0165477
870.393	0.0165877
870.471	0.0165250
870.549	0.0164768
870.628	0.0166721
870.706	0.0165239
870.784	0.0165128
870.862	0.0166131
870.940	0.0165422
871.018	0.0166706
871.096	0.0166241
871.174	0.0165150
871.253	0.0165254
871.331	0.0166354
871.409	0.0165480
871.487	0.0166171
871.565	0.0165320
871.643	0.0164601
871.721	0.0165527
871.799	0.0165536
871.878	0.0165703
871.956	0.0166682
872.034	0.0166069
872.112	0.0165554
872.190	0.0164473
872.268	0.0164088
872.346	0.0163445
872.424	0.0163985
872.503	0.0163828
872.581	0.0164274
872.659	0.0165269
872.737	0.0164523
872.815	0.0166025
872.893	0.0164922
872.971	0.0163120
873.049	0.0164976
873.128	0.0164973
873.206	0.0166698
873.284	0.0164104
873.362	0.0164890
873.440	0.0166460
873.518	0.0166121
873.596	0.0166211
873.674	0.0166450
873.753	0.0166997
873.831	0.0166470
873.909	0.0164650
873.987	0.0165579
874.065	0.0165930
874.143	0.0165624
874.221	0.0165726
874.299	0.0166507
874.378	0.0166305
874.456	0.0165144
874.534	0.0165399
874.612	0.0166474
874.690	0.0164922
874.768	0.0166251
874.846	0.0166846
874.924	0.0164684
875.003	0.0164813
875.081	0.0164657
875.159	0.0164781
875.237	0.0165070
875.315	0.0164735
875.393	0.0164802
875.471	0.0165044
875.549	0.0164771
875.628	0.0164294
875.706	0.0164979
875.784	0.0164049
875.862	0.0163699
875.940	0.0165980
876.018	0.0165054
876.096	0.0165152
876.174	0.0164539
876.253	0.0164327
876.331	0.0164503
876.409	0.0164224
876.487	0.0165787
876.565	0.0164678
876.643	0.0163375
876.721	0.0163860
876.799	0.0164595
876.878	0.0164552
876.956	0.0163734
877.034	0.0164746
877.112	0.0164658
877.190	0.0163979
877.268	0.0163519
877.346	0.0165448
877.424	0.0164932
877.503	0.0164329
877.581	0.0164976
877.659	0.0163741
877.737	0.0164351
877.815	0.0163417
877.893	0.0164505
877.971	0.0164428
878.049	0.0162728
878.128	0.0164742
878.206	0.0165032
878.284	0.0164481
878.362	0.0164856
878.440	0.0163384
878.518	0.0163973
878.596	0.0163619
878.674	0.0165014
878.753	0.0165229
878.831	0.0165174
878.909	0.0164878
878.987	0.0163560
879.065	0.0164034
879.143	0.0162814
879.221	0.0163943
879.299	0.0164433
879.378	0.0163396
879.456	0.0163748
879.534	0.0164008
879.612	0.0163570
879.690	0.0163960
879.768	0.0163448
879.846	0.0164843
879.924	0.0163811
880.003	0.0163845
880.081	0.0163979
880.159	0.0163333
880.237	0.0163168
880.315	0.0162031
880.393	0.0163272
880.471	0.0164198
880.549	0.0164088
880.628	0.0164207
880.706	0.0164207
880.784	0.0164464
880.862	0.0163110
880.940	0.0163923
881.018	0.0165234
881.096	0.0164027
881.174	0.0165568
881.253	0.0165249
881.331	0.0163904
881.409	0.0164003
881.487	0.0164522
881.565	0.0164361
881.643	0.0165208
881.721	0.0165581
881.799	0.0165053
881.878	0.0164854
881.956	0.0165074
882.034	0.0164564
882.112	0.0164657
882.190	0.0164103
882.268	0.0163272
882.346	0.0165256
882.424	0.0165338
882.503	0.0164824
882.581	0.0163879
882.659	0.0165641
882.737	0.0166020
882.815	0.0165374
882.893	0.0165591
882.971	0.0164945
883.049	0.0165627
883.128	0.0164359
883.206	0.0164368
883.284	0.0164272
883.362	0.0164420
883.440	0.0164836
883.518	0.0164199
883.596	0.0163642
883.674	0.0164934
883.753	0.0165578
883.831	0.0162752
883.909	0.0162418
883.987	0.0163917
884.065	0.0164767
884.143	0.0163632
884.221	0.0162384
884.299	0.0164149
884.378	0.0163675
884.456	0.0164608
884.534	0.0163179
884.612	0.0164069
884.690	0.0163792
884.768	0.0163330
884.846	0.0164594
884.924	0.0164284
885.003	0.0164412
885.081	0.0164697
885.159	0.0164780
885.237	0.0166166
885.315	0.0165789
885.393	0.0164205
885.471	0.0165651
885.549	0.0165549
885.628	0.0165283
885.706	0.0165891
885.784	0.0164666
885.862	0.0165710
885.940	0.0165546
886.018	0.0166464
886.096	0.0165114
886.174	0.0164459
886.253	0.0165105
886.331	0.0164973
886.409	0.0163002
886.487	0.0163796
886.565	0.0163271
886.643	0.0164255
886.721	0.0164705
886.799	0.0164232
886.878	0.0163728
886.956	0.0162673
887.034	0.0163760
887.112	0.0163199
887.190	0.0161852
887.268	0.0162875
887.346	0.0162509
887.424	0.0162357
887.503	0.0163251
887.581	0.0164093
887.659	0.0163419
887.737	0.0163239
887.815	0.0163116
887.893	0.0164242
887.971	0.0162639
888.049	0.0163022
888.128	0.0163087
888.206	0.0164526
888.284	0.0163075
888.362	0.0163558
888.440	0.0164978
888.518	0.0164923
888.596	0.0164279
888.674	0.0164141
888.753	0.0164938
888.831	0.0164445
888.909	0.0163246
888.987	0.0164232
889.065	0.0164389
889.143	0.0165168
889.221	0.0164806
889.299	0.0164458
889.378	0.0164260
889.456	0.0165582
889.534	0.0165246
889.612	0.0164645
889.690	0.0165961
889.768	0.0164627
889.846	0.0165093
889.924	0.0165630
890.003	0.0164838
890.081	0.0166051
890.159	0.0164976
890.237	0.0163932
890.315	0.0165517
890.393	0.0164469
890.471	0.0164890
890.549	0.0164449
890.628	0.0164468
890.706	0.0163913
890.784	0.0164020
890.862	0.0164842
890.940	0.0163047
891.018	0.0163561
891.096	0.0164851
891.174	0.0163680
891.253	0.0164172
891.331	0.0164121
891.409	0.0164451
891.487	0.0165635
891.565	0.0165379
891.643	0.0163071
891.721	0.0163844
891.799	0.0162936
891.878	0.0162912
891.956	0.0162971
892.034	0.0163056
892.112	0.0162563
892.190	0.0163419
892.268	0.0164058
892.346	0.0164389
892.424	0.0163207
892.503	0.0164465
892.581	0.0164409
892.659	0.0163175
892.737	0.0163906
892.815	0.0164281
892.893	0.0163281
892.971	0.0164059
893.049	0.0164557
893.128	0.0164179
893.206	0.0164658
893.284	0.0164394
893.362	0.0163342
893.440	0.0163081
893.518	0.0163985
893.596	0.0164883
893.674	0.0164341
893.753	0.0165064
893.831	0.0164273
893.909	0.0163892
893.987	0.0166007
894.065	0.0164398
894.143	0.0162672
894.221	0.0163523
894.299	0.0165194
894.378	0.0164416
894.456	0.0164466
894.534	0.0164350
894.612	0.0163306
894.690	0.0162975
894.768	0.0162907
894.846	0.0163948
894.924	0.0164503
895.003	0.0164260
895.081	0.0164597
895.159	0.0165207
895.237	0.0164465
895.315	0.0165420
895.393	0.0163811
895.471	0.0165245
895.549	0.0164809
895.628	0.0164089
895.706	0.0164331
895.784	0.0165026
895.862	0.0164369
895.940	0.0163385
896.018	0.0164360
896.096	0.0164857
896.174	0.0164970
896.253	0.0163747
896.331	0.0163875
896.409	0.0164642
896.487	0.0164189
896.565	0.0163942
896.643	0.0163803
896.721	0.0162679
896.799	0.0164120
896.878	0.0165536
896.956	0.0163121
897.034	0.0163968
897.112	0.0164541
897.190	0.0163253
897.268	0.0164220
897.346	0.0164381
897.424	0.0164088
897.503	0.0165526
897.581	0.0164454
897.659	0.0164814
897.737	0.0165368
897.815	0.0165301
897.893	0.0163572
897.971	0.0163952
898.049	0.0166018
898.128	0.0164416
898.206	0.0163525
898.284	0.0164114
898.362	0.0163967
898.440	0.0163391
898.518	0.0163621
898.596	0.0164174
898.674	0.0164892
898.753	0.0165186
898.831	0.0164763
898.909	0.0163436
898.987	0.0164436
899.065	0.0164919
899.143	0.0165184
899.221	0.0164639
899.299	0.0163430
899.378	0.0165129
899.456	0.0163657
899.534	0.0164704
899.612	0.0164497
899.690	0.0165220
899.768	0.0165523
899.846	0.0164482
899.924	0.0164845
900.003	0.0164851
900.081	0.0165067
900.159	0.0163953
900.237	0.0165112
900.315	0.0164899
900.393	0.0165075
900.471	0.0163844
900.549	0.0163571
900.628	0.0164632
900.706	0.0164322
900.784	0.0164244
900.862	0.0165411
900.940	0.0163297
901.018	0.0164619
901.096	0.0164109
901.174	0.0164459
901.253	0.0165008
901.331	0.0165226
901.409	0.0164523
901.487	0.0163651
901.565	0.0165244
901.643	0.0163351
901.721	0.0164433
901.799	0.0165557
901.878	0.0165615
901.956	0.0165142
902.034	0.0164494
902.112	0.0164249
902.190	0.0164709
902.268	0.0164951
902.346	0.0164776
902.424	0.0165531
902.503	0.0164579
902.581	0.0165151
902.659	0.0163393
902.737	0.0164059
902.815	0.0164962
902.893	0.0164581
902.971	0.0164313
903.049	0.0163814
903.128	0.0164084
903.206	0.0164864
903.284	0.0165600
903.362	0.0163968
903.440	0.0164073
903.518	0.0163714
903.596	0.0164446
903.674	0.0164194
903.753	0.0164590
903.831	0.0164738
903.909	0.0164965
903.987	0.0165998
904.065	0.0165215
904.143	0.0164121
904.221	0.0164835
904.299	0.0165873
904.378	0.0166080
904.456	0.0165446
904.534	0.0165433
904.612	0.0163691
904.690	0.0165189
904.768	0.0164483
904.846	0.0165315
904.924	0.0163914
905.003	0.0164586
905.081	0.0164182
905.159	0.0163922
905.237	0.0166077
905.315	0.0164754
905.393	0.0165914
905.471	0.0166285
905.549	0.0164420
905.628	0.0165482
905.706	0.0165612
905.784	0.0165355
905.862	0.0164848
905.940	0.0164034
906.018	0.0164236
906.096	0.0164314
906.174	0.0165290
906.253	0.0164799
906.331	0.0165846
906.409	0.0165836
906.487	0.0165010
906.565	0.0165568
906.643	0.0165491
906.721	0.0165236
906.799	0.0166063
906.878	0.0165608
906.956	0.0164348
907.034	0.0165599
907.112	0.0165449
907.190	0.0164259
907.268	0.0166316
907.346	0.0167105
907.424	0.0164764
907.503	0.0166564
907.581	0.0165257
907.659	0.0165281
907.737	0.0165522
907.815	0.0165620
907.893	0.0165449
907.971	0.0165625
908.049	0.0164145
908.128	0.0164146
908.206	0.0165501
908.284	0.0164481
908.362	0.0165811
908.440	0.0163653
908.518	0.0165003
908.596	0.0165044
908.674	0.0165053
908.753	0.0164230
908.831	0.0165747
908.909	0.0165150
908.987	0.0165581
909.065	0.0166589
909.143	0.0164973
909.221	0.0164620
909.299	0.0164566
909.378	0.0164652
909.456	0.0163870
909.534	0.0165827
909.612	0.0164828
909.690	0.0163883
909.768	0.0165333
909.846	0.0165007
909.924	0.0163039
910.003	0.0164613
910.081	0.0164952
910.159	0.0164117
910.237	0.0164403
910.315	0.0164208
910.393	0.0163427
910.471	0.0164724
910.549	0.0163747
910.628	0.0164649
910.706	0.0163811
910.784	0.0163073
910.862	0.0164963
910.940	0.0164027
911.018	0.0163510
911.096	0.0163648
911.174	0.0164464
911.253	0.0163879
911.331	0.0164116
911.409	0.0164431
911.487	0.0164088
911.565	0.0165327
911.643	0.0165608
911.721	0.0164972
911.799	0.0164848
911.878	0.0163891
911.956	0.0165115
912.034	0.0164333
912.112	0.0163601
912.190	0.0165088
912.268	0.0164854
912.346	0.0164675
912.424	0.0165644
912.503	0.0165025
912.581	0.0163803
912.659	0.0165145
912.737	0.0165778
912.815	0.0164705
912.893	0.0163680
912.971	0.0165805
913.049	0.0164087
913.128	0.0165475
913.206	0.0166045
913.284	0.0166032
913.362	0.0164835
913.440	0.0166100
913.518	0.0165702
913.596	0.0165741
913.674	0.0164894
913.753	0.0166251
913.831	0.0167147
913.909	0.0166089
913.987	0.0163703
914.065	0.0164330
914.143	0.0165015
914.221	0.0164362
914.299	0.0165459
914.378	0.0165391
914.456	0.0165096
914.534	0.0164979
914.612	0.0165154
914.690	0.0166385
914.768	0.0164463
914.846	0.0164878
914.924	0.0165966
915.003	0.0165157
915.081	0.0165260
915.159	0.0164484
915.237	0.0165414
915.315	0.0165255
915.393	0.0166455
915.471	0.0165353
915.549	0.0165763
915.628	0.0164359
915.706	0.0163831
915.784	0.0164003
915.862	0.0166122
915.940	0.0165927
916.018	0.0164957
916.096	0.0164140
916.174	0.0163656
916.253	0.0164970
916.331	0.0165272
916.409	0.0163605
916.487	0.0163967
916.565	0.0164390
916.643	0.0164635
916.721	0.0164028
916.799	0.0164093
916.878	0.0163647
916.956	0.0163903
917.034	0.0163847
917.112	0.0164730
917.190	0.0163875
917.268	0.0164272
917.346	0.0164375
917.424	0.0164367
917.503	0.0163708
917.581	0.0164668
917.659	0.0164641
917.737	0.0163516
917.815	0.0163506
917.893	0.0164218
917.971	0.0164990
918.049	0.0163400
918.128	0.0165134
918.206	0.0164824
918.284	0.0163147
918.362	0.0164629
918.440	0.0164616
918.518	0.0165620
918.596	0.0163445
918.674	0.0163899
918.753	0.0165143
918.831	0.0164400
918.909	0.0164591
918.987	0.0164597
919.065	0.0165686
919.143	0.0166380
919.221	0.0165160
919.299	0.0166411
919.378	0.0166009
919.456	0.0164565
919.534	0.0165745
919.612	0.0164803
919.690	0.0165592
919.768	0.0165432
919.846	0.0165221
919.924	0.0165749
920.003	0.0165665
920.081	0.0166087
920.159	0.0164345
920.237	0.0165729
920.315	0.0165494
920.393	0.0166068
920.471	0.0165865
920.549	0.0166274
920.628	0.0165403
920.706	0.0166507
920.784	0.0166632
920.862	0.0166129
920.940	0.0164993
921.018	0.0165199
921.096	0.0165968
921.174	0.0164106
921.253	0.0166022
921.331	0.0165737
921.409	0.0165359
921.487	0.0165889
921.565	0.0165011
921.643	0.0164989
921.721	0.0165241
921.799	0.0164053
921.878	0.0164672
921.956	0.0165416
922.034	0.0166637
922.112	0.0164771
922.190	0.0165338
922.268	0.0165886
922.346	0.0164096
922.424	0.0164375
922.503	0.0165917
922.581	0.0165348
922.659	0.0164883
922.737	0.0163732
922.815	0.0164886
922.893	0.0165452
922.971	0.0164742
923.049	0.0164780
923.128	0.0165151
923.206	0.0164339
923.284	0.0164902
923.362	0.0167046
923.440	0.0164501
923.518	0.0166330
923.596	0.0163493
923.674	0.0166489
923.753	0.0165459
923.831	0.0166619
923.909	0.0165398
923.987	0.0164812
924.065	0.0165551
924.143	0.0165176
924.221	0.0165171
924.299	0.0165349
924.378	0.0165321
924.456	0.0165282
924.534	0.0165510
924.612	0.0166168
924.690	0.0164568
924.768	0.0164108
924.846	0.0165907
924.924	0.0166090
925.003	0.0166069
925.081	0.0165803
925.159	0.0165743
925.237	0.0165523
925.315	0.0165444
925.393	0.0166953
925.471	0.0165203
925.549	0.0164494
925.628	0.0165558
925.706	0.0164899
925.784	0.0166240
925.862	0.0166643
925.940	0.0166273
926.018	0.0165823
926.096	0.0165131
926.174	0.0165379
926.253	0.0165060
926.331	0.0165131
926.409	0.0165668
926.487	0.0166519
926.565	0.0165891
926.643	0.0165089
926.721	0.0166302
926.799	0.0165483
926.878	0.0164955
926.956	0.0165097
927.034	0.0166335
927.112	0.0164425
927.190	0.0164983
927.268	0.0164729
927.346	0.0164394
927.424	0.0164712
927.503	0.0165083
927.581	0.0164519
927.659	0.0165031
927.737	0.0165974
927.815	0.0164473
927.893	0.0165723
927.971	0.0166661
928.049	0.0164921
928.128	0.0165265
928.206	0.0164874
928.284	0.0165871
928.362	0.0165939
928.440	0.0165757
928.518	0.0166124
928.596	0.0165082
928.674	0.0164779
928.753	0.0166531
928.831	0.0165957
928.909	0.0166037
928.987	0.0165529
929.065	0.0166050
929.143	0.0165975
929.221	0.0165005
929.299	0.0166452
929.378	0.0166293
929.456	0.0164445
929.534	0.0166059
929.612	0.0165787
929.690	0.0164252
929.768	0.0164429
929.846	0.0165062
929.924	0.0164848
930.003	0.0165829
930.081	0.0164986
930.159	0.0165271
930.237	0.0165883
930.315	0.0164894
930.393	0.0165575
930.471	0.0165365
930.549	0.0166228
930.628	0.0164606
930.706	0.0164781
930.784	0.0164513
930.862	0.0164948
930.940	0.0164733
931.018	0.0165540
931.096	0.0166233
931.174	0.0164522
931.253	0.0163356
931.331	0.0164234
931.409	0.0165440
931.487	0.0165305
931.565	0.0166235
931.643	0.0165372
931.721	0.0163499
931.799	0.0164837
931.878	0.0164822
931.956	0.0164789
932.034	0.0165148
932.112	0.0164438
932.190	0.0166441
932.268	0.0165164
932.346	0.0164061
932.424	0.0165473
932.503	0.0166091
932.581	0.0165593
932.659	0.0165907
932.737	0.0166626
932.815	0.0165956
932.893	0.0164445
932.971	0.0165373
933.049	0.0164965
933.128	0.0165739
933.206	0.0165000
933.284	0.0166352
933.362	0.0165808
933.440	0.0166444
933.518	0.0167154
933.596	0.0165745
933.674	0.0164736
933.753	0.0165643
933.831	0.0165461
933.909	0.0165562
933.987	0.0165930
934.065	0.0165912
934.143	0.0166304
934.221	0.0165867
934.299	0.0166243
934.378	0.0165067
934.456	0.0165495
934.534	0.0166096
934.612	0.0164806
934.690	0.0166391
934.768	0.0165076
934.846	0.0164999
934.924	0.0164014
935.003	0.0164819
935.081	0.0165977
935.159	0.0165244
935.237	0.0165520
935.315	0.0166026
935.393	0.0165456
935.471	0.0165580
935.549	0.0165723
935.628	0.0164790
935.706	0.0166069
935.784	0.0165652
935.862	0.0164104
935.940	0.0165035
936.018	0.0166508
936.096	0.0164204
936.174	0.0164736
936.253	0.0165634
936.331	0.0163823
936.409	0.0164596
936.487	0.0164369
936.565	0.0166350
936.643	0.0165142
936.721	0.0164994
936.799	0.0165035
936.878	0.0165515
936.956	0.0165575
937.034	0.0163354
937.112	0.0165441
937.190	0.0165332
937.268	0.0165107
937.346	0.0165667
937.424	0.0165508
937.503	0.0164180
937.581	0.0166266
937.659	0.0164579
937.737	0.0164031
937.815	0.0165482
937.893	0.0165505
937.971	0.0164991
938.049	0.0166556
938.128	0.0165141
938.206	0.0165060
938.284	0.0166376
938.362	0.0165244
938.440	0.0165289
938.518	0.0166241
938.596	0.0164091
938.674	0.0165473
938.753	0.0164100
938.831	0.0164096
938.909	0.0164912
938.987	0.0165538
939.065	0.0164404
939.143	0.0166799
939.221	0.0164677
939.299	0.0165776
939.378	0.0164983
939.456	0.0163567
939.534	0.0165430
939.612	0.0163979
939.690	0.0165462
939.768	0.0164709
939.846	0.0164503
939.924	0.0165050
940.003	0.0165794
940.081	0.0164751
940.159	0.0165012
940.237	0.0163469
940.315	0.0164919
940.393	0.0164466
940.471	0.0164583
940.549	0.0165210
940.628	0.0167107
940.706	0.0164677
940.784	0.0166056
940.862	0.0165417
940.940	0.0166022
941.018	0.0165134
941.096	0.0165002
941.174	0.0165786
941.253	0.0163961
941.331	0.0165406
941.409	0.0166872
941.487	0.0166726
941.565	0.0165026
941.643	0.0165502
941.721	0.0166593
941.799	0.0165369
941.878	0.0165578
941.956	0.0166914
942.034	0.0166391
942.112	0.0165324
942.190	0.0164941
942.268	0.0165472
942.346	0.0166666
942.424	0.0165491
942.503	0.0167030
942.581	0.0166519
942.659	0.0167162
942.737	0.0166308
942.815	0.0165969
942.893	0.0166098
942.971	0.0167323
943.049	0.0167957
943.128	0.0167051
943.206	0.0165812
943.284	0.0166822
943.362	0.0166057
943.440	0.0165375
943.518	0.0166080
943.596	0.0165788
943.674	0.0166224
943.753	0.0164848
943.831	0.0165928
943.909	0.0165727
943.987	0.0165986
944.065	0.0166252
944.143	0.0166935
944.221	0.0165619
944.299	0.0165337
944.378	0.0165041
944.456	0.0166346
944.534	0.0165773
944.612	0.0164281
944.690	0.0165538
944.768	0.0163983
944.846	0.0164810
944.924	0.0165387
945.003	0.0164810
945.081	0.0164233
945.159	0.0165056
945.237	0.0165335
945.315	0.0166091
945.393	0.0166447
945.471	0.0165174
945.549	0.0164977
945.628	0.0165546
945.706	0.0165887
945.784	0.0165545
945.862	0.0164143
945.940	0.0164655
946.018	0.0164749
946.096	0.0165704
946.174	0.0165947
946.253	0.0166409
946.331	0.0164339
946.409	0.0165678
946.487	0.0164670
946.565	0.0166011
946.643	0.0164983
946.721	0.0166837
946.799	0.0165922
946.878	0.0165268
946.956	0.0164855
947.034	0.0165316
947.112	0.0165804
947.190	0.0165190
947.268	0.0164841
947.346	0.0165057
947.424	0.0164649
947.503	0.0164618
947.581	0.0166093
947.659	0.0164236
947.737	0.0165058
947.815	0.0165550
947.893	0.0165353
947.971	0.0165316
948.049	0.0166938
948.128	0.0163892
948.206	0.0164519
948.284	0.0166518
948.362	0.0164877
948.440	0.0165517
948.518	0.0166165
948.596	0.0165549
948.674	0.0164651
948.753	0.0166145
948.831	0.0164490
948.909	0.0165161
948.987	0.0164964
949.065	0.0165445
949.143	0.0165934
949.221	0.0165669
949.299	0.0164883
949.378	0.0166245
949.456	0.0165362
949.534	0.0165002
949.612	0.0164776
949.690	0.0164159
949.768	0.0164957
949.846	0.0166502
949.924	0.0165929
