05/19/2022	01:09:54	Ver.	4.1	UNKNOWN
Optical Delay	610.008675	Delta X		0.078125	Sweeps	1	Scan Rate	0/0
Coordinates	Axis 1	NaN	Axis 2	NaN	Axis 3	NaN	Axis 4	NaN	Axis 5	NaN	Axis 6	0.000000
TX Power	0.000000	RX Power	0.000000

610.009	0.0161934
610.087	0.0161709
610.165	0.0161378
610.243	0.0161818
610.321	0.0162186
610.399	0.0161507
610.477	0.0162141
610.556	0.0162450
610.634	0.0162637
610.712	0.0162534
610.790	0.0163270
610.868	0.0162347
610.946	0.0161841
611.024	0.0163081
611.102	0.0161910
611.181	0.0162812
611.259	0.0162820
611.337	0.0162322
611.415	0.0163522
611.493	0.0163226
611.571	0.0163720
611.649	0.0162762
611.727	0.0161543
611.806	0.0161958
611.884	0.0161977
611.962	0.0163228
612.040	0.0163718
612.118	0.0161807
612.196	0.0162635
612.274	0.0161122
612.352	0.0161588
612.431	0.0161744
612.509	0.0161499
612.587	0.0161535
612.665	0.0162606
612.743	0.0163292
612.821	0.0161600
612.899	0.0161957
612.977	0.0162648
613.056	0.0162194
613.134	0.0162336
613.212	0.0162969
613.290	0.0162607
613.368	0.0160857
613.446	0.0161642
613.524	0.0162590
613.602	0.0161469
613.681	0.0162348
613.759	0.0163091
613.837	0.0162276
613.915	0.0161447
613.993	0.0160323
614.071	0.0160526
614.149	0.0160929
614.227	0.0161274
614.306	0.0160730
614.384	0.0159939
614.462	0.0161825
614.540	0.0160825
614.618	0.0162129
614.696	0.0162090
614.774	0.0160812
614.852	0.0162275
614.931	0.0161144
615.009	0.0162238
615.087	0.0161387
615.165	0.0163220
615.243	0.0161931
615.321	0.0160846
615.399	0.0161579
615.477	0.0162344
615.556	0.0161876
615.634	0.0163599
615.712	0.0159954
615.790	0.0161174
615.868	0.0161549
615.946	0.0161695
616.024	0.0161738
616.102	0.0161357
616.181	0.0160665
616.259	0.0160963
616.337	0.0163112
616.415	0.0161138
616.493	0.0160835
616.571	0.0161125
616.649	0.0162334
616.727	0.0161990
616.806	0.0161404
616.884	0.0161885
616.962	0.0160786
617.040	0.0162612
617.118	0.0163726
617.196	0.0161094
617.274	0.0162705
617.352	0.0163187
617.431	0.0163906
617.509	0.0163812
617.587	0.0162019
617.665	0.0162209
617.743	0.0163054
617.821	0.0162881
617.899	0.0163624
617.977	0.0163396
618.056	0.0164278
618.134	0.0163732
618.212	0.0162761
618.290	0.0162321
618.368	0.0163972
618.446	0.0162661
618.524	0.0163492
618.602	0.0163602
618.681	0.0163777
618.759	0.0163349
618.837	0.0162350
618.915	0.0163885
618.993	0.0163356
619.071	0.0162777
619.149	0.0161734
619.227	0.0162584
619.306	0.0161748
619.384	0.0162695
619.462	0.0164910
619.540	0.0163848
619.618	0.0163246
619.696	0.0162107
619.774	0.0163337
619.852	0.0162946
619.931	0.0160999
620.009	0.0161871
620.087	0.0161565
620.165	0.0162518
620.243	0.0162998
620.321	0.0161958
620.399	0.0160668
620.477	0.0162625
620.556	0.0163239
620.634	0.0162279
620.712	0.0160439
620.790	0.0162421
620.868	0.0162624
620.946	0.0160808
621.024	0.0161155
621.102	0.0163019
621.181	0.0161456
621.259	0.0161996
621.337	0.0161619
621.415	0.0161266
621.493	0.0161053
621.571	0.0161349
621.649	0.0160262
621.727	0.0161311
621.806	0.0160720
621.884	0.0160621
621.962	0.0162469
622.040	0.0161802
622.118	0.0161886
622.196	0.0161847
622.274	0.0161457
622.352	0.0160783
622.431	0.0160874
622.509	0.0159348
622.587	0.0161016
622.665	0.0160855
622.743	0.0162572
622.821	0.0161253
622.899	0.0161851
622.977	0.0160320
623.056	0.0161094
623.134	0.0161909
623.212	0.0161204
623.290	0.0161055
623.368	0.0161517
623.446	0.0162783
623.524	0.0161487
623.602	0.0160418
623.681	0.0160865
623.759	0.0162432
623.837	0.0162848
623.915	0.0162095
623.993	0.0160784
624.071	0.0160767
624.149	0.0161439
624.227	0.0162943
624.306	0.0161892
624.384	0.0160422
624.462	0.0161464
624.540	0.0161845
624.618	0.0163090
624.696	0.0162321
624.774	0.0161303
624.852	0.0160808
624.931	0.0162988
625.009	0.0161378
625.087	0.0161591
625.165	0.0161293
625.243	0.0160905
625.321	0.0160490
625.399	0.0160345
625.477	0.0160741
625.556	0.0162468
625.634	0.0160958
625.712	0.0159619
625.790	0.0161385
625.868	0.0160053
625.946	0.0160361
626.024	0.0159571
626.102	0.0161318
626.181	0.0159977
626.259	0.0162065
626.337	0.0160286
626.415	0.0160332
626.493	0.0159466
626.571	0.0160966
626.649	0.0161766
626.727	0.0160535
626.806	0.0159917
626.884	0.0160962
626.962	0.0160937
627.040	0.0160798
627.118	0.0160712
627.196	0.0161941
627.274	0.0159443
627.352	0.0159228
627.431	0.0160577
627.509	0.0161042
627.587	0.0160739
627.665	0.0161241
627.743	0.0159843
627.821	0.0161300
627.899	0.0161253
627.977	0.0160445
628.056	0.0159729
628.134	0.0161724
628.212	0.0162605
628.290	0.0161215
628.368	0.0160360
628.446	0.0159919
628.524	0.0160744
628.602	0.0161713
628.681	0.0160605
628.759	0.0160029
628.837	0.0159491
628.915	0.0161204
628.993	0.0160720
629.071	0.0160651
629.149	0.0160486
629.227	0.0159903
629.306	0.0160227
629.384	0.0161945
629.462	0.0160234
629.540	0.0160155
629.618	0.0161710
629.696	0.0161977
629.774	0.0161164
629.852	0.0161107
629.931	0.0160228
630.009	0.0161282
630.087	0.0161793
630.165	0.0160004
630.243	0.0160704
630.321	0.0161248
630.399	0.0161173
630.477	0.0159874
630.556	0.0160206
630.634	0.0161108
630.712	0.0158897
630.790	0.0157841
630.868	0.0161178
630.946	0.0159767
631.024	0.0160160
631.102	0.0160435
631.181	0.0158673
631.259	0.0158669
631.337	0.0160482
631.415	0.0159658
631.493	0.0159080
631.571	0.0160844
631.649	0.0160711
631.727	0.0160693
631.806	0.0160780
631.884	0.0161002
631.962	0.0160358
632.040	0.0160298
632.118	0.0161163
632.196	0.0162071
632.274	0.0161451
632.352	0.0160687
632.431	0.0162228
632.509	0.0160525
632.587	0.0161482
632.665	0.0162229
632.743	0.0161178
632.821	0.0159724
632.899	0.0160652
632.977	0.0162822
633.056	0.0162480
633.134	0.0160441
633.212	0.0160424
633.290	0.0163983
633.368	0.0162823
633.446	0.0162663
633.524	0.0162208
633.602	0.0162735
633.681	0.0162974
633.759	0.0163116
633.837	0.0162730
633.915	0.0162480
633.993	0.0163441
634.071	0.0162714
634.149	0.0160760
634.227	0.0162186
634.306	0.0163325
634.384	0.0161601
634.462	0.0161794
634.540	0.0160910
634.618	0.0162236
634.696	0.0161817
634.774	0.0159982
634.852	0.0160932
634.931	0.0160866
635.009	0.0161221
635.087	0.0162224
635.165	0.0162849
635.243	0.0162514
635.321	0.0161845
635.399	0.0162347
635.477	0.0163794
635.556	0.0162659
635.634	0.0163029
635.712	0.0163087
635.790	0.0162917
635.868	0.0162741
635.946	0.0163266
636.024	0.0163090
636.102	0.0164288
636.181	0.0163506
636.259	0.0164682
636.337	0.0164098
636.415	0.0166312
636.493	0.0164366
636.571	0.0165520
636.649	0.0163814
636.727	0.0164921
636.806	0.0164281
636.884	0.0164582
636.962	0.0165076
637.040	0.0164411
637.118	0.0164485
637.196	0.0164831
637.274	0.0164642
637.352	0.0163709
637.431	0.0163673
637.509	0.0163834
637.587	0.0163309
637.665	0.0164870
637.743	0.0163505
637.821	0.0162854
637.899	0.0162988
637.977	0.0161927
638.056	0.0160992
638.134	0.0161344
638.212	0.0162095
638.290	0.0161319
638.368	0.0162717
638.446	0.0160730
638.524	0.0159644
638.602	0.0161112
638.681	0.0159299
638.759	0.0159829
638.837	0.0160128
638.915	0.0159866
638.993	0.0159293
639.071	0.0159019
639.149	0.0160422
639.227	0.0161188
639.306	0.0158421
639.384	0.0159241
639.462	0.0160258
639.540	0.0159691
639.618	0.0160343
639.696	0.0161212
639.774	0.0162100
639.852	0.0162228
639.931	0.0161961
640.009	0.0161976
640.087	0.0163199
640.165	0.0162626
640.243	0.0163402
640.321	0.0164162
640.399	0.0165134
640.477	0.0165454
640.556	0.0165853
640.634	0.0163702
640.712	0.0165525
640.790	0.0165596
640.868	0.0165386
640.946	0.0164114
641.024	0.0164442
641.102	0.0166624
641.181	0.0166010
641.259	0.0164154
641.337	0.0164854
641.415	0.0162923
641.493	0.0164178
641.571	0.0163567
641.649	0.0164122
641.727	0.0163055
641.806	0.0162406
641.884	0.0161916
641.962	0.0162669
642.040	0.0162068
642.118	0.0160773
642.196	0.0161673
642.274	0.0160484
642.352	0.0160202
642.431	0.0159686
642.509	0.0158228
642.587	0.0159096
642.665	0.0160570
642.743	0.0160500
642.821	0.0159654
642.899	0.0159370
642.977	0.0160092
643.056	0.0158755
643.134	0.0159793
643.212	0.0159467
643.290	0.0159441
643.368	0.0159245
643.446	0.0159657
643.524	0.0160643
643.602	0.0159338
643.681	0.0159235
643.759	0.0160693
643.837	0.0160831
643.915	0.0160989
643.993	0.0161010
644.071	0.0160709
644.149	0.0159476
644.227	0.0160806
644.306	0.0160374
644.384	0.0160490
644.462	0.0161952
644.540	0.0162000
644.618	0.0161237
644.696	0.0160367
644.774	0.0161602
644.852	0.0161445
644.931	0.0162509
645.009	0.0161301
645.087	0.0160549
645.165	0.0161034
645.243	0.0161143
645.321	0.0161733
645.399	0.0162551
645.477	0.0160625
645.556	0.0161586
645.634	0.0161608
645.712	0.0161321
645.790	0.0160996
645.868	0.0160739
645.946	0.0161528
646.024	0.0161411
646.102	0.0161221
646.181	0.0161139
646.259	0.0161157
646.337	0.0160809
646.415	0.0161441
646.493	0.0163250
646.571	0.0161848
646.649	0.0162665
646.727	0.0162670
646.806	0.0163285
646.884	0.0162955
646.962	0.0162323
647.040	0.0162988
647.118	0.0162453
647.196	0.0162904
647.274	0.0163220
647.352	0.0162708
647.431	0.0162396
647.509	0.0160932
647.587	0.0161852
647.665	0.0163025
647.743	0.0162582
647.821	0.0162074
647.899	0.0161874
647.977	0.0162230
648.056	0.0159910
648.134	0.0160262
648.212	0.0160966
648.290	0.0160845
648.368	0.0160289
648.446	0.0159893
648.524	0.0160625
648.602	0.0160016
648.681	0.0158080
648.759	0.0158331
648.837	0.0158564
648.915	0.0157966
648.993	0.0158590
649.071	0.0158630
649.149	0.0157651
649.227	0.0157572
649.306	0.0158868
649.384	0.0160061
649.462	0.0159537
649.540	0.0156728
649.618	0.0159349
649.696	0.0159347
649.774	0.0160692
649.852	0.0160726
649.931	0.0160470
650.009	0.0160046
650.087	0.0160121
650.165	0.0161652
650.243	0.0160571
650.321	0.0161131
650.399	0.0161884
650.477	0.0160896
650.556	0.0163153
650.634	0.0162985
650.712	0.0163367
650.790	0.0163417
650.868	0.0163768
650.946	0.0162879
651.024	0.0163766
651.102	0.0163769
651.181	0.0164775
651.259	0.0165095
651.337	0.0165211
651.415	0.0164456
651.493	0.0163962
651.571	0.0163511
651.649	0.0162927
651.727	0.0163688
651.806	0.0163519
651.884	0.0162833
651.962	0.0162260
652.040	0.0162164
652.118	0.0162585
652.196	0.0161832
652.274	0.0161681
652.352	0.0161686
652.431	0.0161318
652.509	0.0161091
652.587	0.0161687
652.665	0.0160396
652.743	0.0159848
652.821	0.0159679
652.899	0.0160290
652.977	0.0159194
653.056	0.0159489
653.134	0.0158685
653.212	0.0158970
653.290	0.0157973
653.368	0.0158216
653.446	0.0158908
653.524	0.0157980
653.602	0.0156400
653.681	0.0157329
653.759	0.0157336
653.837	0.0155337
653.915	0.0156203
653.993	0.0155577
654.071	0.0157751
654.149	0.0155157
654.227	0.0156741
654.306	0.0157507
654.384	0.0156458
654.462	0.0156612
654.540	0.0156013
654.618	0.0157748
654.696	0.0157080
654.774	0.0156897
654.852	0.0156854
654.931	0.0159106
655.009	0.0159212
655.087	0.0160082
655.165	0.0158828
655.243	0.0160068
655.321	0.0160478
655.399	0.0160812
655.477	0.0161989
655.556	0.0162495
655.634	0.0162408
655.712	0.0162989
655.790	0.0162997
655.868	0.0164813
655.946	0.0163774
656.024	0.0164006
656.102	0.0164256
656.181	0.0163490
656.259	0.0164558
656.337	0.0164202
656.415	0.0163978
656.493	0.0164778
656.571	0.0163837
656.649	0.0164535
656.727	0.0164448
656.806	0.0163074
656.884	0.0162443
656.962	0.0163374
657.040	0.0163295
657.118	0.0161877
657.196	0.0162345
657.274	0.0162284
657.352	0.0161690
657.431	0.0161515
657.509	0.0161420
657.587	0.0161527
657.665	0.0160549
657.743	0.0161032
657.821	0.0159191
657.899	0.0159312
657.977	0.0160474
658.056	0.0160092
658.134	0.0159616
658.212	0.0159052
658.290	0.0158955
658.368	0.0159254
658.446	0.0160189
658.524	0.0160952
658.602	0.0159845
658.681	0.0160604
658.759	0.0161000
658.837	0.0161445
658.915	0.0162694
658.993	0.0162982
659.071	0.0163227
659.149	0.0162119
659.227	0.0163702
659.306	0.0163996
659.384	0.0164393
659.462	0.0165591
659.540	0.0166352
659.618	0.0165453
659.696	0.0164246
659.774	0.0166474
659.852	0.0165881
659.931	0.0165979
660.009	0.0165821
660.087	0.0165749
660.165	0.0165582
660.243	0.0164531
660.321	0.0165763
660.399	0.0165517
660.477	0.0165013
660.556	0.0165738
660.634	0.0165173
660.712	0.0165101
660.790	0.0164972
660.868	0.0165956
660.946	0.0165031
661.024	0.0163843
661.102	0.0164552
661.181	0.0163902
661.259	0.0165005
661.337	0.0162905
661.415	0.0162293
661.493	0.0163985
661.571	0.0163094
661.649	0.0163554
661.727	0.0162209
661.806	0.0163202
661.884	0.0162722
661.962	0.0161954
662.040	0.0161736
662.118	0.0161674
662.196	0.0162417
662.274	0.0162193
662.352	0.0162908
662.431	0.0162920
662.509	0.0161244
662.587	0.0163498
662.665	0.0161768
662.743	0.0162131
662.821	0.0162576
662.899	0.0161030
662.977	0.0162286
663.056	0.0162357
663.134	0.0160861
663.212	0.0161044
663.290	0.0161222
663.368	0.0160262
663.446	0.0158945
663.524	0.0160231
663.602	0.0159166
663.681	0.0158972
663.759	0.0159443
663.837	0.0159599
663.915	0.0158406
663.993	0.0157241
664.071	0.0158382
664.149	0.0157118
664.227	0.0156837
664.306	0.0156499
664.384	0.0157143
664.462	0.0156365
664.540	0.0155709
664.618	0.0156606
664.696	0.0158257
664.774	0.0156847
664.852	0.0155845
664.931	0.0158083
665.009	0.0157835
665.087	0.0158633
665.165	0.0158062
665.243	0.0158945
665.321	0.0157697
665.399	0.0158759
665.477	0.0159259
665.556	0.0158230
665.634	0.0161327
665.712	0.0161660
665.790	0.0161700
665.868	0.0161566
665.946	0.0163275
666.024	0.0163965
666.102	0.0162213
666.181	0.0163235
666.259	0.0163601
666.337	0.0162938
666.415	0.0162815
666.493	0.0164139
666.571	0.0165030
666.649	0.0165312
666.727	0.0163146
666.806	0.0163541
666.884	0.0164260
666.962	0.0163592
667.040	0.0162637
667.118	0.0163857
667.196	0.0162370
667.274	0.0162917
667.352	0.0163201
667.431	0.0162152
667.509	0.0161987
667.587	0.0161866
667.665	0.0161739
667.743	0.0163065
667.821	0.0161323
667.899	0.0161171
667.977	0.0161597
668.056	0.0161171
668.134	0.0160285
668.212	0.0161021
668.290	0.0161930
668.368	0.0161561
668.446	0.0160557
668.524	0.0161221
668.602	0.0161889
668.681	0.0159992
668.759	0.0161657
668.837	0.0161796
668.915	0.0160541
668.993	0.0161192
669.071	0.0160677
669.149	0.0162697
669.227	0.0162239
669.306	0.0161646
669.384	0.0162029
669.462	0.0162737
669.540	0.0163394
669.618	0.0163622
669.696	0.0163380
669.774	0.0164476
669.852	0.0165310
669.931	0.0165308
670.009	0.0162955
670.087	0.0165102
670.165	0.0165410
670.243	0.0165289
670.321	0.0164631
670.399	0.0165058
670.477	0.0166161
670.556	0.0164203
670.634	0.0164347
670.712	0.0164157
670.790	0.0164825
670.868	0.0164796
670.946	0.0163985
671.024	0.0162347
671.102	0.0162370
671.181	0.0162409
671.259	0.0162080
671.337	0.0160976
671.415	0.0160478
671.493	0.0160784
671.571	0.0161996
671.649	0.0160582
671.727	0.0160226
671.806	0.0159368
671.884	0.0159394
671.962	0.0159534
672.040	0.0158998
672.118	0.0158308
672.196	0.0158148
672.274	0.0158028
672.352	0.0159128
672.431	0.0157374
672.509	0.0158442
672.587	0.0159907
672.665	0.0157995
672.743	0.0157062
672.821	0.0157798
672.899	0.0159796
672.977	0.0159406
673.056	0.0159830
673.134	0.0161268
673.212	0.0161738
673.290	0.0160798
673.368	0.0160517
673.446	0.0163127
673.524	0.0160863
673.602	0.0162233
673.681	0.0163387
673.759	0.0163980
673.837	0.0163549
673.915	0.0163667
673.993	0.0165085
674.071	0.0163871
674.149	0.0164652
674.227	0.0164641
674.306	0.0163937
674.384	0.0164827
674.462	0.0163368
674.540	0.0164609
674.618	0.0163321
674.696	0.0164191
674.774	0.0163213
674.852	0.0163007
674.931	0.0163261
675.009	0.0164222
675.087	0.0162958
675.165	0.0161024
675.243	0.0162716
675.321	0.0160190
675.399	0.0160606
675.477	0.0160575
675.556	0.0161082
675.634	0.0160223
675.712	0.0160168
675.790	0.0158740
675.868	0.0158876
675.946	0.0159101
676.024	0.0157774
676.102	0.0156216
676.181	0.0157869
676.259	0.0156487
676.337	0.0156484
676.415	0.0157132
676.493	0.0157263
676.571	0.0155351
676.649	0.0156769
676.727	0.0157181
676.806	0.0155625
676.884	0.0157024
676.962	0.0157131
677.040	0.0156693
677.118	0.0157317
677.196	0.0158622
677.274	0.0157424
677.352	0.0158875
677.431	0.0158622
677.509	0.0160098
677.587	0.0160941
677.665	0.0159671
677.743	0.0162035
677.821	0.0163822
677.899	0.0162482
677.977	0.0162312
678.056	0.0163488
678.134	0.0163156
678.212	0.0163174
678.290	0.0163036
678.368	0.0163626
678.446	0.0164739
678.524	0.0164828
678.602	0.0164279
678.681	0.0165679
678.759	0.0165746
678.837	0.0165019
678.915	0.0164779
678.993	0.0166033
679.071	0.0165365
679.149	0.0165035
679.227	0.0165799
679.306	0.0164897
679.384	0.0165376
679.462	0.0164502
679.540	0.0164709
679.618	0.0162878
679.696	0.0162721
679.774	0.0162772
679.852	0.0162664
679.931	0.0163181
680.009	0.0162914
680.087	0.0161250
680.165	0.0160930
680.243	0.0161426
680.321	0.0160818
680.399	0.0160419
680.477	0.0161271
680.556	0.0160703
680.634	0.0160281
680.712	0.0159950
680.790	0.0160753
680.868	0.0160995
680.946	0.0159669
681.024	0.0159563
681.102	0.0160475
681.181	0.0159751
681.259	0.0159687
681.337	0.0160922
681.415	0.0160483
681.493	0.0161520
681.571	0.0161320
681.649	0.0161213
681.727	0.0161002
681.806	0.0161786
681.884	0.0161227
681.962	0.0162404
682.040	0.0163083
682.118	0.0163063
682.196	0.0162409
682.274	0.0161076
682.352	0.0160909
682.431	0.0161079
682.509	0.0161560
682.587	0.0162767
682.665	0.0162450
682.743	0.0161478
682.821	0.0160922
682.899	0.0161520
682.977	0.0160453
683.056	0.0162420
683.134	0.0162555
683.212	0.0160791
683.290	0.0159951
683.368	0.0161580
683.446	0.0161245
683.524	0.0160529
683.602	0.0161462
683.681	0.0162878
683.759	0.0159825
683.837	0.0161236
683.915	0.0162950
683.993	0.0162392
684.071	0.0161063
684.149	0.0160936
684.227	0.0162085
684.306	0.0161919
684.384	0.0161624
684.462	0.0161732
684.540	0.0163213
684.618	0.0162587
684.696	0.0162719
684.774	0.0163654
684.852	0.0163869
684.931	0.0162695
685.009	0.0162519
685.087	0.0163407
685.165	0.0162251
685.243	0.0161069
685.321	0.0162570
685.399	0.0161523
685.477	0.0162207
685.556	0.0161514
685.634	0.0161570
685.712	0.0160781
685.790	0.0161823
685.868	0.0161474
685.946	0.0160717
686.024	0.0159656
686.102	0.0159037
686.181	0.0160310
686.259	0.0160847
686.337	0.0160242
686.415	0.0159264
686.493	0.0159465
686.571	0.0159369
686.649	0.0160221
686.727	0.0159786
686.806	0.0159697
686.884	0.0160216
686.962	0.0160209
687.040	0.0159629
687.118	0.0158876
687.196	0.0159879
687.274	0.0160709
687.352	0.0161534
687.431	0.0160063
687.509	0.0160828
687.587	0.0161040
687.665	0.0160721
687.743	0.0161478
687.821	0.0160841
687.899	0.0160515
687.977	0.0160951
688.056	0.0161340
688.134	0.0161448
688.212	0.0162256
688.290	0.0160682
688.368	0.0161127
688.446	0.0162086
688.524	0.0161591
688.602	0.0161967
688.681	0.0161648
688.759	0.0160548
688.837	0.0161125
688.915	0.0162015
688.993	0.0162019
689.071	0.0159712
689.149	0.0160601
689.227	0.0161109
689.306	0.0162299
689.384	0.0162051
689.462	0.0162290
689.540	0.0164011
689.618	0.0163425
689.696	0.0162600
689.774	0.0162240
689.852	0.0162124
689.931	0.0162631
690.009	0.0162056
690.087	0.0160593
690.165	0.0161780
690.243	0.0163470
690.321	0.0161591
690.399	0.0162218
690.477	0.0162463
690.556	0.0161053
690.634	0.0160633
690.712	0.0161467
690.790	0.0162657
690.868	0.0159041
690.946	0.0160384
691.024	0.0160573
691.102	0.0158844
691.181	0.0160640
691.259	0.0161880
691.337	0.0160522
691.415	0.0160972
691.493	0.0160962
691.571	0.0161620
691.649	0.0162031
691.727	0.0160867
691.806	0.0160176
691.884	0.0162658
691.962	0.0162193
692.040	0.0160934
692.118	0.0163013
692.196	0.0162486
692.274	0.0162463
692.352	0.0163175
692.431	0.0163499
692.509	0.0162688
692.587	0.0163824
692.665	0.0164304
692.743	0.0163338
692.821	0.0163428
692.899	0.0163474
692.977	0.0162875
693.056	0.0164187
693.134	0.0164505
693.212	0.0163212
693.290	0.0163010
693.368	0.0162240
693.446	0.0162806
693.524	0.0163708
693.602	0.0163901
693.681	0.0161892
693.759	0.0163220
693.837	0.0163219
693.915	0.0162246
693.993	0.0163033
694.071	0.0161819
694.149	0.0160571
694.227	0.0162865
694.306	0.0162310
694.384	0.0161902
694.462	0.0162361
694.540	0.0162031
694.618	0.0161164
694.696	0.0162650
694.774	0.0160735
694.852	0.0161510
694.931	0.0161365
695.009	0.0160788
695.087	0.0161353
695.165	0.0161561
695.243	0.0162409
695.321	0.0161473
695.399	0.0159959
695.477	0.0161183
695.556	0.0161197
695.634	0.0158845
695.712	0.0160793
695.790	0.0158324
695.868	0.0159603
695.946	0.0159557
696.024	0.0159782
696.102	0.0159724
696.181	0.0158947
696.259	0.0159007
696.337	0.0158469
696.415	0.0156953
696.493	0.0157352
696.571	0.0160663
696.649	0.0159076
696.727	0.0158775
696.806	0.0159527
696.884	0.0159895
696.962	0.0159156
697.040	0.0160014
697.118	0.0158468
697.196	0.0160331
697.274	0.0159962
697.352	0.0159367
697.431	0.0161263
697.509	0.0161423
697.587	0.0160273
697.665	0.0162311
697.743	0.0162730
697.821	0.0164915
697.899	0.0163525
697.977	0.0161995
698.056	0.0164592
698.134	0.0163757
698.212	0.0164229
698.290	0.0166376
698.368	0.0164513
698.446	0.0165872
698.524	0.0165653
698.602	0.0166674
698.681	0.0163565
698.759	0.0165427
698.837	0.0165302
698.915	0.0164806
698.993	0.0165015
699.071	0.0164997
699.149	0.0165660
699.227	0.0162617
699.306	0.0164293
699.384	0.0162083
699.462	0.0162912
699.540	0.0161156
699.618	0.0161896
699.696	0.0160632
699.774	0.0160579
699.852	0.0161090
699.931	0.0158956
700.009	0.0159576
700.087	0.0159329
700.165	0.0158301
700.243	0.0159355
700.321	0.0158530
700.399	0.0158305
700.477	0.0158617
700.556	0.0159588
700.634	0.0158839
700.712	0.0158619
700.790	0.0157890
700.868	0.0159435
700.946	0.0160409
701.024	0.0158839
701.102	0.0160581
701.181	0.0160779
701.259	0.0160322
701.337	0.0160410
701.415	0.0161241
701.493	0.0160607
701.571	0.0160157
701.649	0.0161923
701.727	0.0162099
701.806	0.0161983
701.884	0.0161674
701.962	0.0161868
702.040	0.0161751
702.118	0.0159694
702.196	0.0158511
702.274	0.0162643
702.352	0.0161742
702.431	0.0161065
702.509	0.0160208
702.587	0.0161576
702.665	0.0162789
702.743	0.0160140
702.821	0.0161230
702.899	0.0161397
702.977	0.0161771
703.056	0.0160589
703.134	0.0161914
703.212	0.0161073
703.290	0.0161796
703.368	0.0161842
703.446	0.0162794
703.524	0.0163138
703.602	0.0161828
703.681	0.0162971
703.759	0.0162734
703.837	0.0163116
703.915	0.0164153
703.993	0.0163798
704.071	0.0162418
704.149	0.0163468
704.227	0.0164007
704.306	0.0163412
704.384	0.0163811
704.462	0.0164281
704.540	0.0164046
704.618	0.0163242
704.696	0.0162289
704.774	0.0161946
704.852	0.0164479
704.931	0.0163189
705.009	0.0163322
705.087	0.0162838
705.165	0.0162287
705.243	0.0163123
705.321	0.0164135
705.399	0.0163013
705.477	0.0162912
705.556	0.0160925
705.634	0.0162301
705.712	0.0163479
705.790	0.0162515
705.868	0.0163647
705.946	0.0162901
706.024	0.0162072
706.102	0.0162900
706.181	0.0162638
706.259	0.0163039
706.337	0.0163325
706.415	0.0162381
706.493	0.0162653
706.571	0.0162069
706.649	0.0161142
706.727	0.0161787
706.806	0.0160762
706.884	0.0162087
706.962	0.0161114
707.040	0.0159599
707.118	0.0159077
707.196	0.0159821
707.274	0.0162041
707.352	0.0162861
707.431	0.0161236
707.509	0.0162093
707.587	0.0161891
707.665	0.0161459
707.743	0.0162949
707.821	0.0162730
707.899	0.0161185
707.977	0.0163053
708.056	0.0163445
708.134	0.0163214
708.212	0.0163631
708.290	0.0163654
708.368	0.0162915
708.446	0.0164085
708.524	0.0163598
708.602	0.0163663
708.681	0.0162958
708.759	0.0164485
708.837	0.0162520
708.915	0.0162207
708.993	0.0163094
709.071	0.0162424
709.149	0.0163810
709.227	0.0161698
709.306	0.0162461
709.384	0.0162746
709.462	0.0161552
709.540	0.0161854
709.618	0.0159330
709.696	0.0160518
709.774	0.0161063
709.852	0.0160360
709.931	0.0159276
710.009	0.0160072
710.087	0.0158736
710.165	0.0160258
710.243	0.0160416
710.321	0.0160454
710.399	0.0159332
710.477	0.0160721
710.556	0.0160394
710.634	0.0160292
710.712	0.0160393
710.790	0.0162141
710.868	0.0160310
710.946	0.0159273
711.024	0.0160936
711.102	0.0161244
711.181	0.0159214
711.259	0.0160101
711.337	0.0160274
711.415	0.0160553
711.493	0.0161160
711.571	0.0159927
711.649	0.0160104
711.727	0.0160165
711.806	0.0162466
711.884	0.0163059
711.962	0.0161581
712.040	0.0161563
712.118	0.0162471
712.196	0.0162880
712.274	0.0162455
712.352	0.0161988
712.431	0.0163234
712.509	0.0162884
712.587	0.0162470
712.665	0.0161864
712.743	0.0163042
712.821	0.0161037
712.899	0.0159648
712.977	0.0159007
713.056	0.0159712
713.134	0.0160736
713.212	0.0159805
713.290	0.0159727
713.368	0.0158089
713.446	0.0158538
713.524	0.0159807
713.602	0.0158592
713.681	0.0159216
713.759	0.0158212
713.837	0.0158499
713.915	0.0158951
713.993	0.0159533
714.071	0.0160621
714.149	0.0159579
714.227	0.0159402
714.306	0.0159172
714.384	0.0159145
714.462	0.0160307
714.540	0.0159662
714.618	0.0161851
714.696	0.0161125
714.774	0.0161246
714.852	0.0160457
714.931	0.0161107
715.009	0.0161604
715.087	0.0161845
715.165	0.0163011
715.243	0.0160722
715.321	0.0161177
715.399	0.0160934
715.477	0.0161575
715.556	0.0161485
715.634	0.0160742
715.712	0.0161171
715.790	0.0162407
715.868	0.0161221
715.946	0.0159460
716.024	0.0160973
716.102	0.0160304
716.181	0.0160722
716.259	0.0161699
716.337	0.0161982
716.415	0.0160873
716.493	0.0159580
716.571	0.0160883
716.649	0.0162103
716.727	0.0161714
716.806	0.0161275
716.884	0.0162619
716.962	0.0161401
717.040	0.0161868
717.118	0.0161438
717.196	0.0159666
717.274	0.0161005
717.352	0.0160712
717.431	0.0160387
717.509	0.0161047
717.587	0.0161406
717.665	0.0161625
717.743	0.0159702
717.821	0.0160368
717.899	0.0159704
717.977	0.0159371
718.056	0.0160028
718.134	0.0160485
718.212	0.0160269
718.290	0.0161420
718.368	0.0161417
718.446	0.0161559
718.524	0.0161194
718.602	0.0160630
718.681	0.0162384
718.759	0.0163010
718.837	0.0161626
718.915	0.0161597
718.993	0.0161262
719.071	0.0161822
719.149	0.0162366
719.227	0.0161048
719.306	0.0161409
719.384	0.0162973
719.462	0.0162719
719.540	0.0162048
719.618	0.0163840
719.696	0.0164188
719.774	0.0163631
719.852	0.0163662
719.931	0.0164436
720.009	0.0162851
720.087	0.0162976
720.165	0.0163508
720.243	0.0162486
720.321	0.0163851
720.399	0.0162770
720.477	0.0162431
720.556	0.0162360
720.634	0.0161723
720.712	0.0160131
720.790	0.0161062
720.868	0.0161263
720.946	0.0161076
721.024	0.0161013
721.102	0.0161887
721.181	0.0160965
721.259	0.0161380
721.337	0.0161585
721.415	0.0162825
721.493	0.0162029
721.571	0.0162598
721.649	0.0162521
721.727	0.0161298
721.806	0.0161183
721.884	0.0163485
721.962	0.0162706
722.040	0.0162551
722.118	0.0163097
722.196	0.0163033
722.274	0.0162502
722.352	0.0162962
722.431	0.0163754
722.509	0.0163773
722.587	0.0164101
722.665	0.0163065
722.743	0.0162505
722.821	0.0162783
722.899	0.0163151
722.977	0.0163455
723.056	0.0164213
723.134	0.0163948
723.212	0.0163846
723.290	0.0163191
723.368	0.0163328
723.446	0.0164112
723.524	0.0161562
723.602	0.0161109
723.681	0.0163216
723.759	0.0162459
723.837	0.0161526
723.915	0.0162589
723.993	0.0161642
724.071	0.0161614
724.149	0.0160856
724.227	0.0159806
724.306	0.0160098
724.384	0.0158683
724.462	0.0161251
724.540	0.0160533
724.618	0.0160567
724.696	0.0160834
724.774	0.0161822
724.852	0.0159893
724.931	0.0159541
725.009	0.0160487
725.087	0.0159219
725.165	0.0159308
725.243	0.0160676
725.321	0.0160915
725.399	0.0161198
725.477	0.0159272
725.556	0.0159686
725.634	0.0160734
725.712	0.0160419
725.790	0.0160916
725.868	0.0159049
725.946	0.0161032
726.024	0.0160783
726.102	0.0161012
726.181	0.0162180
726.259	0.0161860
726.337	0.0161038
726.415	0.0161561
726.493	0.0160993
726.571	0.0162604
726.649	0.0163871
726.727	0.0161002
726.806	0.0161967
726.884	0.0163607
726.962	0.0164229
727.040	0.0164655
727.118	0.0163238
727.196	0.0163058
727.274	0.0163669
727.352	0.0164590
727.431	0.0163715
727.509	0.0164560
727.587	0.0164473
727.665	0.0164576
727.743	0.0164233
727.821	0.0162949
727.899	0.0164407
727.977	0.0164471
728.056	0.0162991
728.134	0.0163712
728.212	0.0162739
728.290	0.0162389
728.368	0.0162379
728.446	0.0163206
728.524	0.0161249
728.602	0.0160730
728.681	0.0161673
728.759	0.0161857
728.837	0.0160999
728.915	0.0162059
728.993	0.0161433
729.071	0.0161217
729.149	0.0161031
729.227	0.0161143
729.306	0.0160584
729.384	0.0159206
729.462	0.0159611
729.540	0.0160101
729.618	0.0161172
729.696	0.0159987
729.774	0.0161679
729.852	0.0159594
729.931	0.0158493
730.009	0.0159690
730.087	0.0159390
730.165	0.0159753
730.243	0.0160262
730.321	0.0157601
730.399	0.0158064
730.477	0.0159921
730.556	0.0159245
730.634	0.0159885
730.712	0.0158718
730.790	0.0158043
730.868	0.0159042
730.946	0.0158064
731.024	0.0160440
731.102	0.0159636
731.181	0.0161134
731.259	0.0158578
731.337	0.0157574
731.415	0.0158899
731.493	0.0160197
731.571	0.0160715
731.649	0.0160183
731.727	0.0159414
731.806	0.0158579
731.884	0.0160799
731.962	0.0160706
732.040	0.0159921
732.118	0.0160963
732.196	0.0160252
732.274	0.0159356
732.352	0.0158591
732.431	0.0160180
732.509	0.0160409
732.587	0.0159748
732.665	0.0160100
732.743	0.0159902
732.821	0.0160258
732.899	0.0160049
732.977	0.0159226
733.056	0.0159884
733.134	0.0159373
733.212	0.0160233
733.290	0.0160732
733.368	0.0158752
733.446	0.0160750
733.524	0.0159858
733.602	0.0159515
733.681	0.0159589
733.759	0.0161250
733.837	0.0159313
733.915	0.0160641
733.993	0.0161239
734.071	0.0159516
734.149	0.0160328
734.227	0.0160459
734.306	0.0161145
734.384	0.0160944
734.462	0.0160341
734.540	0.0161436
734.618	0.0161732
734.696	0.0160884
734.774	0.0162378
734.852	0.0161354
734.931	0.0161368
735.009	0.0162881
735.087	0.0161781
735.165	0.0163891
735.243	0.0162981
735.321	0.0162617
735.399	0.0163499
735.477	0.0163843
735.556	0.0163508
735.634	0.0162605
735.712	0.0163293
735.790	0.0162931
735.868	0.0163148
735.946	0.0163696
736.024	0.0162504
736.102	0.0162017
736.181	0.0163013
736.259	0.0161846
736.337	0.0162357
736.415	0.0160889
736.493	0.0161890
736.571	0.0162372
736.649	0.0162528
736.727	0.0161856
736.806	0.0161552
736.884	0.0161469
736.962	0.0161198
737.040	0.0162440
737.118	0.0161754
737.196	0.0162099
737.274	0.0161298
737.352	0.0161248
737.431	0.0162681
737.509	0.0163649
737.587	0.0162872
737.665	0.0161936
737.743	0.0161946
737.821	0.0162838
737.899	0.0163164
737.977	0.0162711
738.056	0.0163430
738.134	0.0162598
738.212	0.0162860
738.290	0.0162411
738.368	0.0162702
738.446	0.0162119
738.524	0.0162174
738.602	0.0163622
738.681	0.0162489
738.759	0.0163316
738.837	0.0163805
738.915	0.0161908
738.993	0.0162347
739.071	0.0162715
739.149	0.0162636
739.227	0.0161363
739.306	0.0161657
739.384	0.0161976
739.462	0.0159619
739.540	0.0160426
739.618	0.0160452
739.696	0.0160476
739.774	0.0160525
739.852	0.0160245
739.931	0.0160006
740.009	0.0159640
740.087	0.0161995
740.165	0.0160033
740.243	0.0160395
740.321	0.0160838
740.399	0.0160368
740.477	0.0161396
740.556	0.0161631
740.634	0.0161116
740.712	0.0160223
740.790	0.0160045
740.868	0.0161013
740.946	0.0161736
741.024	0.0160989
741.102	0.0158575
741.181	0.0161392
741.259	0.0160596
741.337	0.0160854
741.415	0.0160937
741.493	0.0160243
741.571	0.0160924
741.649	0.0160581
741.727	0.0160331
741.806	0.0160934
741.884	0.0161341
741.962	0.0160633
742.040	0.0161243
742.118	0.0161190
742.196	0.0161359
742.274	0.0160706
742.352	0.0160696
742.431	0.0160020
742.509	0.0160640
742.587	0.0162116
742.665	0.0162176
742.743	0.0161997
742.821	0.0162412
742.899	0.0160997
742.977	0.0161886
743.056	0.0161118
743.134	0.0163034
743.212	0.0162218
743.290	0.0162656
743.368	0.0162840
743.446	0.0162479
743.524	0.0161743
743.602	0.0162029
743.681	0.0163876
743.759	0.0161770
743.837	0.0162110
743.915	0.0161994
743.993	0.0161542
744.071	0.0162324
744.149	0.0163519
744.227	0.0161707
744.306	0.0162770
744.384	0.0160522
744.462	0.0161695
744.540	0.0161540
744.618	0.0163164
744.696	0.0163213
744.774	0.0161610
744.852	0.0161679
744.931	0.0161702
745.009	0.0161217
745.087	0.0162205
745.165	0.0160848
745.243	0.0160945
745.321	0.0162833
745.399	0.0162580
745.477	0.0161283
745.556	0.0160468
745.634	0.0160957
745.712	0.0161349
745.790	0.0161097
745.868	0.0159238
745.946	0.0159471
746.024	0.0158648
746.102	0.0160091
746.181	0.0160334
746.259	0.0159034
746.337	0.0158607
746.415	0.0158955
746.493	0.0158518
746.571	0.0159165
746.649	0.0159032
746.727	0.0160423
746.806	0.0159380
746.884	0.0159940
746.962	0.0158471
747.040	0.0159026
747.118	0.0159177
747.196	0.0159432
747.274	0.0160340
747.352	0.0159766
747.431	0.0159830
747.509	0.0159016
747.587	0.0160559
747.665	0.0160253
747.743	0.0160756
747.821	0.0159464
747.899	0.0160184
747.977	0.0160258
748.056	0.0159795
748.134	0.0159867
748.212	0.0160464
748.290	0.0159560
748.368	0.0160741
748.446	0.0161372
748.524	0.0161823
748.602	0.0162319
748.681	0.0160970
748.759	0.0162274
748.837	0.0162049
748.915	0.0161378
748.993	0.0162074
749.071	0.0161633
749.149	0.0161362
749.227	0.0160954
749.306	0.0161017
749.384	0.0161306
749.462	0.0161197
749.540	0.0161948
749.618	0.0162067
749.696	0.0162527
749.774	0.0160880
749.852	0.0161382
749.931	0.0161671
750.009	0.0161778
750.087	0.0163543
750.165	0.0162753
750.243	0.0162073
750.321	0.0162768
750.399	0.0164176
750.477	0.0163438
750.556	0.0161606
750.634	0.0161170
750.712	0.0164618
750.790	0.0163869
750.868	0.0161597
750.946	0.0162012
751.024	0.0161987
751.102	0.0164110
751.181	0.0162402
751.259	0.0162852
751.337	0.0163406
751.415	0.0161263
751.493	0.0161374
751.571	0.0162836
751.649	0.0162060
751.727	0.0161460
751.806	0.0161207
751.884	0.0161653
751.962	0.0162722
752.040	0.0164165
752.118	0.0162170
752.196	0.0164112
752.274	0.0162448
752.352	0.0162332
752.431	0.0163731
752.509	0.0164336
752.587	0.0162215
752.665	0.0162871
752.743	0.0162366
752.821	0.0161836
752.899	0.0163958
752.977	0.0162858
753.056	0.0160778
753.134	0.0163326
753.212	0.0161901
753.290	0.0163219
753.368	0.0163582
753.446	0.0162572
753.524	0.0161417
753.602	0.0162569
753.681	0.0163633
753.759	0.0163366
753.837	0.0162841
753.915	0.0162683
753.993	0.0162019
754.071	0.0162840
754.149	0.0162259
754.227	0.0161774
754.306	0.0160409
754.384	0.0163255
754.462	0.0163100
754.540	0.0161349
754.618	0.0161720
754.696	0.0161314
754.774	0.0161712
754.852	0.0161394
754.931	0.0162865
755.009	0.0160186
755.087	0.0161951
755.165	0.0162351
755.243	0.0161768
755.321	0.0162217
755.399	0.0161895
755.477	0.0162135
755.556	0.0161432
755.634	0.0162459
755.712	0.0160939
755.790	0.0161322
755.868	0.0161386
755.946	0.0161408
756.024	0.0161147
756.102	0.0161501
756.181	0.0160855
756.259	0.0163226
756.337	0.0161968
756.415	0.0162698
756.493	0.0162173
756.571	0.0162564
756.649	0.0161398
756.727	0.0162415
756.806	0.0162550
756.884	0.0162491
756.962	0.0162331
757.040	0.0163400
757.118	0.0162907
757.196	0.0161251
757.274	0.0163242
757.352	0.0163108
757.431	0.0162883
757.509	0.0162115
757.587	0.0163242
757.665	0.0161988
757.743	0.0162819
757.821	0.0162106
757.899	0.0162372
757.977	0.0162326
758.056	0.0161907
758.134	0.0161742
758.212	0.0162748
758.290	0.0162180
758.368	0.0162852
758.446	0.0162156
758.524	0.0161501
758.602	0.0161076
758.681	0.0160837
758.759	0.0162430
758.837	0.0161699
758.915	0.0161101
758.993	0.0161761
759.071	0.0160248
759.149	0.0160133
759.227	0.0159799
759.306	0.0159415
759.384	0.0159220
759.462	0.0161278
759.540	0.0159814
759.618	0.0159727
759.696	0.0160170
759.774	0.0157870
759.852	0.0159239
759.931	0.0159444
760.009	0.0159147
760.087	0.0159314
760.165	0.0159696
760.243	0.0160305
760.321	0.0158345
760.399	0.0160043
760.477	0.0160774
760.556	0.0160057
760.634	0.0160206
760.712	0.0160901
760.790	0.0160208
760.868	0.0159823
760.946	0.0161023
761.024	0.0160828
761.102	0.0160487
761.181	0.0159898
761.259	0.0159833
761.337	0.0161401
761.415	0.0161024
761.493	0.0159543
761.571	0.0159634
761.649	0.0161806
761.727	0.0161630
761.806	0.0160308
761.884	0.0161498
761.962	0.0161208
762.040	0.0161115
762.118	0.0161200
762.196	0.0161124
762.274	0.0160923
762.352	0.0162315
762.431	0.0160225
762.509	0.0162289
762.587	0.0161800
762.665	0.0161792
762.743	0.0161118
762.821	0.0161625
762.899	0.0161465
762.977	0.0162550
763.056	0.0161964
763.134	0.0163149
763.212	0.0163291
763.290	0.0162629
763.368	0.0162999
763.446	0.0162538
763.524	0.0163157
763.602	0.0161212
763.681	0.0161256
763.759	0.0161772
763.837	0.0162563
763.915	0.0162128
763.993	0.0161275
764.071	0.0163083
764.149	0.0160640
764.227	0.0160891
764.306	0.0161558
764.384	0.0161240
764.462	0.0161105
764.540	0.0161890
764.618	0.0162018
764.696	0.0161961
764.774	0.0161283
764.852	0.0161672
764.931	0.0161852
765.009	0.0161874
765.087	0.0160608
765.165	0.0161588
765.243	0.0160889
765.321	0.0162243
765.399	0.0161143
765.477	0.0160797
765.556	0.0160667
765.634	0.0159978
765.712	0.0163228
765.790	0.0160974
765.868	0.0161475
765.946	0.0161019
766.024	0.0159791
766.102	0.0160642
766.181	0.0159782
766.259	0.0161466
766.337	0.0160439
766.415	0.0160833
766.493	0.0161032
766.571	0.0160766
766.649	0.0161600
766.727	0.0161743
766.806	0.0161576
766.884	0.0160955
766.962	0.0161678
767.040	0.0162420
767.118	0.0161794
767.196	0.0162589
767.274	0.0162502
767.352	0.0161711
767.431	0.0161512
767.509	0.0161178
767.587	0.0160934
767.665	0.0161742
767.743	0.0161343
767.821	0.0161480
767.899	0.0161513
767.977	0.0160643
768.056	0.0162741
768.134	0.0160690
768.212	0.0160137
768.290	0.0161768
768.368	0.0161473
768.446	0.0160941
768.524	0.0160511
768.602	0.0159259
768.681	0.0160718
768.759	0.0160732
768.837	0.0161021
768.915	0.0160999
768.993	0.0159528
769.071	0.0160640
769.149	0.0160830
769.227	0.0160499
769.306	0.0162061
769.384	0.0160714
769.462	0.0159972
769.540	0.0161309
769.618	0.0159949
769.696	0.0160253
769.774	0.0160464
769.852	0.0160597
769.931	0.0160961
770.009	0.0159538
770.087	0.0159847
770.165	0.0160499
770.243	0.0160920
770.321	0.0161091
770.399	0.0160089
770.477	0.0160669
770.556	0.0160625
770.634	0.0161167
770.712	0.0162171
770.790	0.0160622
770.868	0.0162883
770.946	0.0161607
771.024	0.0161768
771.102	0.0162354
771.181	0.0161372
771.259	0.0161155
771.337	0.0162798
771.415	0.0164049
771.493	0.0163767
771.571	0.0163840
771.649	0.0163001
771.727	0.0163144
771.806	0.0162589
771.884	0.0162229
771.962	0.0163401
772.040	0.0163226
772.118	0.0162453
772.196	0.0162498
772.274	0.0162581
772.352	0.0163398
772.431	0.0163381
772.509	0.0162125
772.587	0.0162403
772.665	0.0162896
772.743	0.0161871
772.821	0.0162476
772.899	0.0163620
772.977	0.0163035
773.056	0.0162849
773.134	0.0162158
773.212	0.0162905
773.290	0.0163067
773.368	0.0161588
773.446	0.0162607
773.524	0.0162299
773.602	0.0164032
773.681	0.0164318
773.759	0.0161900
773.837	0.0161256
773.915	0.0162176
773.993	0.0163268
774.071	0.0163579
774.149	0.0161915
774.227	0.0162228
774.306	0.0161978
774.384	0.0161716
774.462	0.0161539
774.540	0.0161581
774.618	0.0160684
774.696	0.0162367
774.774	0.0162828
774.852	0.0161911
774.931	0.0162541
775.009	0.0161926
775.087	0.0161802
775.165	0.0162213
775.243	0.0161504
775.321	0.0161527
775.399	0.0162056
775.477	0.0161663
775.556	0.0162160
775.634	0.0161914
775.712	0.0160986
775.790	0.0160263
775.868	0.0160407
775.946	0.0161216
776.024	0.0160258
776.102	0.0160540
776.181	0.0160752
776.259	0.0160293
776.337	0.0160583
776.415	0.0160303
776.493	0.0160175
776.571	0.0161185
776.649	0.0159465
776.727	0.0159590
776.806	0.0160409
776.884	0.0160522
776.962	0.0159628
777.040	0.0159360
777.118	0.0157307
777.196	0.0159258
777.274	0.0160861
777.352	0.0158504
777.431	0.0158195
777.509	0.0158302
777.587	0.0160211
777.665	0.0159496
777.743	0.0158432
777.821	0.0158611
777.899	0.0159003
777.977	0.0157722
778.056	0.0159491
778.134	0.0160808
778.212	0.0157366
778.290	0.0158165
778.368	0.0159293
778.446	0.0159974
778.524	0.0159998
778.602	0.0159167
778.681	0.0161266
778.759	0.0159798
778.837	0.0161532
778.915	0.0160391
778.993	0.0159243
779.071	0.0161143
779.149	0.0160930
779.227	0.0160303
779.306	0.0161189
779.384	0.0161152
779.462	0.0162305
779.540	0.0162231
779.618	0.0162890
779.696	0.0161356
779.774	0.0160671
779.852	0.0162174
779.931	0.0162283
780.009	0.0163332
780.087	0.0162031
780.165	0.0163116
780.243	0.0163304
780.321	0.0164067
780.399	0.0163166
780.477	0.0163328
780.556	0.0161258
780.634	0.0162624
780.712	0.0163076
780.790	0.0162936
780.868	0.0162629
780.946	0.0162554
781.024	0.0161354
781.102	0.0162450
781.181	0.0163397
781.259	0.0162734
781.337	0.0162685
781.415	0.0163586
781.493	0.0162052
781.571	0.0161591
781.649	0.0161916
781.727	0.0162521
781.806	0.0161970
781.884	0.0163215
781.962	0.0162104
782.040	0.0163250
782.118	0.0161539
782.196	0.0160418
782.274	0.0164162
782.352	0.0163306
782.431	0.0162683
782.509	0.0162709
782.587	0.0162012
782.665	0.0162484
782.743	0.0161692
782.821	0.0162694
782.899	0.0163234
782.977	0.0161480
783.056	0.0163118
783.134	0.0162535
783.212	0.0163129
783.290	0.0162196
783.368	0.0163190
783.446	0.0161784
783.524	0.0161749
783.602	0.0161549
783.681	0.0162978
783.759	0.0163310
783.837	0.0163929
783.915	0.0162817
783.993	0.0162407
784.071	0.0162118
784.149	0.0162411
784.227	0.0161235
784.306	0.0162382
784.384	0.0162013
784.462	0.0159868
784.540	0.0161272
784.618	0.0161900
784.696	0.0162495
784.774	0.0161953
784.852	0.0161588
784.931	0.0160540
785.009	0.0160627
785.087	0.0160979
785.165	0.0161433
785.243	0.0161093
785.321	0.0161597
785.399	0.0161568
785.477	0.0161358
785.556	0.0161840
785.634	0.0161097
785.712	0.0160894
785.790	0.0160580
785.868	0.0163002
785.946	0.0161736
786.024	0.0162285
786.102	0.0161544
786.181	0.0159727
786.259	0.0160988
786.337	0.0161352
786.415	0.0160738
786.493	0.0159243
786.571	0.0161156
786.649	0.0161371
786.727	0.0161396
786.806	0.0159797
786.884	0.0160665
786.962	0.0160046
787.040	0.0160494
787.118	0.0160532
787.196	0.0161528
787.274	0.0160397
787.352	0.0159743
787.431	0.0160919
787.509	0.0160841
787.587	0.0160773
787.665	0.0160523
787.743	0.0160244
787.821	0.0160156
787.899	0.0160827
787.977	0.0159892
788.056	0.0160968
788.134	0.0161469
788.212	0.0161623
788.290	0.0160426
788.368	0.0159396
788.446	0.0160933
788.524	0.0161145
788.602	0.0160746
788.681	0.0160905
788.759	0.0159484
788.837	0.0160548
788.915	0.0162502
788.993	0.0160828
789.071	0.0160277
789.149	0.0161473
789.227	0.0161285
789.306	0.0161764
789.384	0.0160750
789.462	0.0161266
789.540	0.0161275
789.618	0.0161385
789.696	0.0162000
789.774	0.0161063
789.852	0.0160756
789.931	0.0162031
790.009	0.0162679
790.087	0.0160625
790.165	0.0161661
790.243	0.0162437
790.321	0.0161243
790.399	0.0162487
790.477	0.0162614
790.556	0.0162000
790.634	0.0160061
790.712	0.0162391
790.790	0.0160167
790.868	0.0160339
790.946	0.0162216
791.024	0.0163177
791.102	0.0161711
791.181	0.0161363
791.259	0.0162596
791.337	0.0161241
791.415	0.0162479
791.493	0.0161049
791.571	0.0161251
791.649	0.0161803
791.727	0.0161496
791.806	0.0161912
791.884	0.0160628
791.962	0.0160773
792.040	0.0161110
792.118	0.0162952
792.196	0.0161582
792.274	0.0161517
792.352	0.0162292
792.431	0.0161506
792.509	0.0162686
792.587	0.0161670
792.665	0.0161058
792.743	0.0161092
792.821	0.0161174
792.899	0.0162258
792.977	0.0161554
793.056	0.0162312
793.134	0.0161917
793.212	0.0161775
793.290	0.0159549
793.368	0.0161559
793.446	0.0161515
793.524	0.0162516
793.602	0.0161275
793.681	0.0159895
793.759	0.0160381
793.837	0.0161823
793.915	0.0161115
793.993	0.0161132
794.071	0.0161510
794.149	0.0160632
794.227	0.0161276
794.306	0.0162569
794.384	0.0162226
794.462	0.0161545
794.540	0.0162266
794.618	0.0161246
794.696	0.0162109
794.774	0.0160908
794.852	0.0161994
794.931	0.0163172
795.009	0.0162763
795.087	0.0162836
795.165	0.0162444
795.243	0.0162023
795.321	0.0161784
795.399	0.0163070
795.477	0.0162334
795.556	0.0162045
795.634	0.0161824
795.712	0.0160979
795.790	0.0161408
795.868	0.0162765
795.946	0.0160572
796.024	0.0161800
796.102	0.0161359
796.181	0.0162081
796.259	0.0162066
796.337	0.0161017
796.415	0.0161169
796.493	0.0161342
796.571	0.0161146
796.649	0.0160423
796.727	0.0161451
796.806	0.0160951
796.884	0.0160515
796.962	0.0162103
797.040	0.0162087
797.118	0.0162016
797.196	0.0162069
797.274	0.0161244
797.352	0.0161807
797.431	0.0162481
797.509	0.0161642
797.587	0.0160867
797.665	0.0161746
797.743	0.0161638
797.821	0.0161105
797.899	0.0161431
797.977	0.0161132
798.056	0.0160051
798.134	0.0158961
798.212	0.0159918
798.290	0.0161508
798.368	0.0160133
798.446	0.0158957
798.524	0.0160603
798.602	0.0158531
798.681	0.0158949
798.759	0.0159769
798.837	0.0158643
798.915	0.0159171
798.993	0.0159573
799.071	0.0158708
799.149	0.0158265
799.227	0.0159198
799.306	0.0159551
799.384	0.0157772
799.462	0.0157604
799.540	0.0158218
799.618	0.0157753
799.696	0.0159808
799.774	0.0159546
799.852	0.0159725
799.931	0.0158015
800.009	0.0158092
800.087	0.0159277
800.165	0.0160116
800.243	0.0159453
800.321	0.0160406
800.399	0.0159244
800.477	0.0160458
800.556	0.0161239
800.634	0.0161629
800.712	0.0160636
800.790	0.0162226
800.868	0.0161258
800.946	0.0161215
801.024	0.0161338
801.102	0.0163359
801.181	0.0160953
801.259	0.0162129
801.337	0.0163059
801.415	0.0161505
801.493	0.0161029
801.571	0.0161357
801.649	0.0160790
801.727	0.0161754
801.806	0.0161169
801.884	0.0161323
801.962	0.0161691
802.040	0.0162263
802.118	0.0161986
802.196	0.0162105
802.274	0.0161230
802.352	0.0162121
802.431	0.0162352
802.509	0.0162702
802.587	0.0162582
802.665	0.0162926
802.743	0.0163995
802.821	0.0162435
802.899	0.0163103
802.977	0.0163082
803.056	0.0162611
803.134	0.0162494
803.212	0.0162199
803.290	0.0162437
803.368	0.0163783
803.446	0.0162821
803.524	0.0161295
803.602	0.0163063
803.681	0.0162197
803.759	0.0161575
803.837	0.0161818
803.915	0.0162933
803.993	0.0161292
804.071	0.0161457
804.149	0.0161179
804.227	0.0163064
804.306	0.0162640
804.384	0.0161129
804.462	0.0161033
804.540	0.0162633
804.618	0.0162480
804.696	0.0161403
804.774	0.0159978
804.852	0.0161039
804.931	0.0160177
805.009	0.0160953
805.087	0.0162310
805.165	0.0161295
805.243	0.0161334
805.321	0.0162653
805.399	0.0162661
805.477	0.0163042
805.556	0.0163911
805.634	0.0162806
805.712	0.0161865
805.790	0.0162292
805.868	0.0161397
805.946	0.0162032
806.024	0.0163394
806.102	0.0163087
806.181	0.0161535
806.259	0.0160781
806.337	0.0162732
806.415	0.0161654
806.493	0.0161948
806.571	0.0161625
806.649	0.0161574
806.727	0.0162111
806.806	0.0162699
806.884	0.0160839
806.962	0.0161254
807.040	0.0161364
807.118	0.0159965
807.196	0.0160376
807.274	0.0161052
807.352	0.0160172
807.431	0.0160680
807.509	0.0162263
807.587	0.0161394
807.665	0.0160961
807.743	0.0161449
807.821	0.0160685
807.899	0.0161198
807.977	0.0162087
808.056	0.0161153
808.134	0.0160934
808.212	0.0161799
808.290	0.0160021
808.368	0.0161021
808.446	0.0161694
808.524	0.0161635
808.602	0.0161102
808.681	0.0161470
808.759	0.0162283
808.837	0.0161608
808.915	0.0161032
808.993	0.0161447
809.071	0.0160932
809.149	0.0162080
809.227	0.0161208
809.306	0.0162195
809.384	0.0162378
809.462	0.0160997
809.540	0.0162411
809.618	0.0161437
809.696	0.0160297
809.774	0.0161724
809.852	0.0161203
809.931	0.0161729
810.009	0.0162259
810.087	0.0161329
810.165	0.0160466
810.243	0.0160847
810.321	0.0159673
810.399	0.0160750
810.477	0.0160484
810.556	0.0161093
810.634	0.0161828
810.712	0.0161659
810.790	0.0159827
810.868	0.0161526
810.946	0.0160833
811.024	0.0160319
811.102	0.0160549
811.181	0.0160984
811.259	0.0161600
811.337	0.0159691
811.415	0.0160149
811.493	0.0159562
811.571	0.0158974
811.649	0.0160084
811.727	0.0161829
811.806	0.0161766
811.884	0.0160411
811.962	0.0160723
812.040	0.0160409
812.118	0.0160890
812.196	0.0159827
812.274	0.0161136
812.352	0.0160789
812.431	0.0161418
812.509	0.0159699
812.587	0.0159852
812.665	0.0161211
812.743	0.0159284
812.821	0.0160556
812.899	0.0160398
812.977	0.0159751
813.056	0.0161575
813.134	0.0161296
813.212	0.0159633
813.290	0.0159951
813.368	0.0160991
813.446	0.0159264
813.524	0.0160358
813.602	0.0161051
813.681	0.0161144
813.759	0.0160367
813.837	0.0159911
813.915	0.0161288
813.993	0.0159915
814.071	0.0159708
814.149	0.0160585
814.227	0.0160802
814.306	0.0160578
814.384	0.0159911
814.462	0.0160691
814.540	0.0161480
814.618	0.0160940
814.696	0.0161267
814.774	0.0161562
814.852	0.0161020
814.931	0.0160188
815.009	0.0160289
815.087	0.0160924
815.165	0.0160429
815.243	0.0161215
815.321	0.0162332
815.399	0.0160539
815.477	0.0160347
815.556	0.0161497
815.634	0.0161282
815.712	0.0160876
815.790	0.0160906
815.868	0.0160992
815.946	0.0161523
816.024	0.0160797
816.102	0.0162215
816.181	0.0162247
816.259	0.0162157
816.337	0.0160903
816.415	0.0161946
816.493	0.0161113
816.571	0.0161763
816.649	0.0161998
816.727	0.0162872
816.806	0.0162186
816.884	0.0161963
816.962	0.0163490
817.040	0.0163409
817.118	0.0162782
817.196	0.0161739
817.274	0.0162254
817.352	0.0161905
817.431	0.0162801
817.509	0.0163423
817.587	0.0163231
817.665	0.0163080
817.743	0.0162174
817.821	0.0162330
817.899	0.0161192
817.977	0.0161626
818.056	0.0162978
818.134	0.0163110
818.212	0.0160882
818.290	0.0160899
818.368	0.0160841
818.446	0.0160413
818.524	0.0161736
818.602	0.0161658
818.681	0.0159515
818.759	0.0159135
818.837	0.0162560
818.915	0.0160239
818.993	0.0159912
819.071	0.0161681
819.149	0.0160217
819.227	0.0160937
819.306	0.0160419
819.384	0.0160124
819.462	0.0159691
819.540	0.0158709
819.618	0.0159143
819.696	0.0160432
819.774	0.0159971
819.852	0.0160273
819.931	0.0158680
820.009	0.0158586
820.087	0.0159335
820.165	0.0160484
820.243	0.0159666
820.321	0.0159675
820.399	0.0159702
820.477	0.0159103
820.556	0.0161129
820.634	0.0160498
820.712	0.0159850
820.790	0.0160698
820.868	0.0159090
820.946	0.0161401
821.024	0.0160606
821.102	0.0160314
821.181	0.0161194
821.259	0.0159795
821.337	0.0159973
821.415	0.0159308
821.493	0.0160326
821.571	0.0161202
821.649	0.0161063
821.727	0.0159474
821.806	0.0159436
821.884	0.0159641
821.962	0.0159632
822.040	0.0160681
822.118	0.0159541
822.196	0.0158820
822.274	0.0160027
822.352	0.0159432
822.431	0.0158205
822.509	0.0159852
822.587	0.0159158
822.665	0.0159401
822.743	0.0159889
822.821	0.0160178
822.899	0.0159781
822.977	0.0159985
823.056	0.0160954
823.134	0.0160242
823.212	0.0160690
823.290	0.0160305
823.368	0.0162101
823.446	0.0160590
823.524	0.0158900
823.602	0.0160187
823.681	0.0159862
823.759	0.0162002
823.837	0.0161602
823.915	0.0160988
823.993	0.0159934
824.071	0.0160527
824.149	0.0160789
824.227	0.0160518
824.306	0.0160365
824.384	0.0160655
824.462	0.0161822
824.540	0.0161540
824.618	0.0161184
824.696	0.0160880
824.774	0.0161586
824.852	0.0161275
824.931	0.0162859
825.009	0.0164001
825.087	0.0163336
825.165	0.0163255
825.243	0.0163420
825.321	0.0164663
825.399	0.0162613
825.477	0.0163538
825.556	0.0162148
825.634	0.0163605
825.712	0.0164078
825.790	0.0163818
825.868	0.0164703
825.946	0.0162708
826.024	0.0163081
826.102	0.0162831
826.181	0.0163102
826.259	0.0162740
826.337	0.0163312
826.415	0.0163485
826.493	0.0163029
826.571	0.0163685
826.649	0.0163141
826.727	0.0162363
826.806	0.0162215
826.884	0.0162742
826.962	0.0161460
827.040	0.0162263
827.118	0.0161352
827.196	0.0162505
827.274	0.0161703
827.352	0.0161095
827.431	0.0162768
827.509	0.0162189
827.587	0.0161791
827.665	0.0162865
827.743	0.0161795
827.821	0.0160957
827.899	0.0161640
827.977	0.0162430
828.056	0.0162281
828.134	0.0160853
828.212	0.0161585
828.290	0.0163369
828.368	0.0161552
828.446	0.0162565
828.524	0.0162560
828.602	0.0161458
828.681	0.0162114
828.759	0.0162415
828.837	0.0161451
828.915	0.0161581
828.993	0.0162808
829.071	0.0161835
829.149	0.0161775
829.227	0.0162292
829.306	0.0162852
829.384	0.0161274
829.462	0.0161147
829.540	0.0162039
829.618	0.0162229
829.696	0.0162670
829.774	0.0160778
829.852	0.0161737
829.931	0.0162650
830.009	0.0160381
830.087	0.0161060
830.165	0.0160882
830.243	0.0161395
830.321	0.0160501
830.399	0.0158895
830.477	0.0161023
830.556	0.0160973
830.634	0.0160223
830.712	0.0159610
830.790	0.0161392
830.868	0.0160376
830.946	0.0160934
831.024	0.0160306
831.102	0.0160022
831.181	0.0160298
831.259	0.0161798
831.337	0.0160535
831.415	0.0161765
831.493	0.0160484
831.571	0.0159467
831.649	0.0161599
831.727	0.0160368
831.806	0.0160381
831.884	0.0159226
831.962	0.0161064
832.040	0.0161731
832.118	0.0160543
832.196	0.0160934
832.274	0.0161587
832.352	0.0161815
832.431	0.0160898
832.509	0.0160767
832.587	0.0161161
832.665	0.0160941
832.743	0.0161275
832.821	0.0162712
832.899	0.0161525
832.977	0.0161967
833.056	0.0162411
833.134	0.0160191
833.212	0.0161699
833.290	0.0160941
833.368	0.0160886
833.446	0.0161602
833.524	0.0160328
833.602	0.0160125
833.681	0.0160981
833.759	0.0160742
833.837	0.0161848
833.915	0.0159193
833.993	0.0160449
834.071	0.0161009
834.149	0.0161573
834.227	0.0160566
834.306	0.0160989
834.384	0.0160738
834.462	0.0160377
834.540	0.0160709
834.618	0.0161130
834.696	0.0160503
834.774	0.0161015
834.852	0.0161935
834.931	0.0160838
835.009	0.0161520
835.087	0.0162345
835.165	0.0161096
835.243	0.0160743
835.321	0.0162077
835.399	0.0163163
835.477	0.0161830
835.556	0.0162197
835.634	0.0160871
835.712	0.0161570
835.790	0.0162254
835.868	0.0162773
835.946	0.0163327
836.024	0.0161831
836.102	0.0161312
836.181	0.0161594
836.259	0.0161937
836.337	0.0162250
836.415	0.0163888
836.493	0.0162103
836.571	0.0161842
836.649	0.0163200
836.727	0.0161223
836.806	0.0162862
836.884	0.0161666
836.962	0.0161075
837.040	0.0162462
837.118	0.0162546
837.196	0.0161384
837.274	0.0161314
837.352	0.0161502
837.431	0.0161732
837.509	0.0162233
837.587	0.0161839
837.665	0.0162141
837.743	0.0162302
837.821	0.0162070
837.899	0.0162598
837.977	0.0160505
838.056	0.0161578
838.134	0.0161566
838.212	0.0162613
838.290	0.0162198
838.368	0.0161700
838.446	0.0161928
838.524	0.0159986
838.602	0.0161996
838.681	0.0161330
838.759	0.0161524
838.837	0.0161544
838.915	0.0161874
838.993	0.0162514
839.071	0.0161136
839.149	0.0161671
839.227	0.0160497
839.306	0.0161202
839.384	0.0161437
839.462	0.0160549
839.540	0.0160620
839.618	0.0161051
839.696	0.0161436
839.774	0.0161874
839.852	0.0162495
839.931	0.0160954
840.009	0.0160621
840.087	0.0161327
840.165	0.0159936
840.243	0.0159496
840.321	0.0161467
840.399	0.0161305
840.477	0.0161493
840.556	0.0161278
840.634	0.0160846
840.712	0.0161649
840.790	0.0160378
840.868	0.0160979
840.946	0.0161532
841.024	0.0161236
841.102	0.0159515
841.181	0.0160648
841.259	0.0161386
841.337	0.0160117
841.415	0.0161395
841.493	0.0161056
841.571	0.0159895
841.649	0.0160676
841.727	0.0160052
841.806	0.0159602
841.884	0.0158836
841.962	0.0159849
842.040	0.0159759
842.118	0.0160265
842.196	0.0159625
842.274	0.0160864
842.352	0.0157846
842.431	0.0158281
842.509	0.0159976
842.587	0.0159737
842.665	0.0160453
842.743	0.0159893
842.821	0.0158468
842.899	0.0160479
842.977	0.0159711
843.056	0.0159344
843.134	0.0159521
843.212	0.0160194
843.290	0.0159718
843.368	0.0160046
843.446	0.0160601
843.524	0.0160103
843.602	0.0159815
843.681	0.0159903
843.759	0.0160401
843.837	0.0158632
843.915	0.0158825
843.993	0.0159495
844.071	0.0161587
844.149	0.0159863
844.227	0.0159574
844.306	0.0160413
844.384	0.0159184
844.462	0.0160770
844.540	0.0159870
844.618	0.0160754
844.696	0.0159756
844.774	0.0160203
844.852	0.0159775
844.931	0.0158770
845.009	0.0160315
845.087	0.0159322
845.165	0.0158488
845.243	0.0159860
845.321	0.0159343
845.399	0.0159646
845.477	0.0160709
845.556	0.0159865
845.634	0.0159883
845.712	0.0159624
845.790	0.0159343
845.868	0.0159628
845.946	0.0159770
846.024	0.0160005
846.102	0.0160290
846.181	0.0158728
846.259	0.0159681
846.337	0.0160037
846.415	0.0161558
846.493	0.0160175
846.571	0.0160743
846.649	0.0159092
846.727	0.0161214
846.806	0.0160036
846.884	0.0160866
846.962	0.0159515
847.040	0.0160318
847.118	0.0161327
847.196	0.0161565
847.274	0.0160946
847.352	0.0160818
847.431	0.0160774
847.509	0.0160456
847.587	0.0161206
847.665	0.0161604
847.743	0.0161271
847.821	0.0161913
847.899	0.0160193
847.977	0.0160020
848.056	0.0162387
848.134	0.0162131
848.212	0.0161234
848.290	0.0162104
848.368	0.0161909
848.446	0.0160218
848.524	0.0162489
848.602	0.0161832
848.681	0.0161759
848.759	0.0160869
848.837	0.0161395
848.915	0.0161408
848.993	0.0162590
849.071	0.0162269
849.149	0.0161885
849.227	0.0163379
849.306	0.0163130
849.384	0.0162317
849.462	0.0162897
849.540	0.0161916
849.618	0.0162930
849.696	0.0163387
849.774	0.0162486
849.852	0.0160950
849.931	0.0163250
850.009	0.0163616
850.087	0.0162853
850.165	0.0164500
850.243	0.0163784
850.321	0.0164600
850.399	0.0164545
850.477	0.0164120
850.556	0.0163811
850.634	0.0164489
850.712	0.0163976
850.790	0.0164697
850.868	0.0161948
850.946	0.0164495
851.024	0.0163554
851.102	0.0163529
851.181	0.0162822
851.259	0.0163492
851.337	0.0164358
851.415	0.0163922
851.493	0.0163253
851.571	0.0163790
851.649	0.0164696
851.727	0.0162992
851.806	0.0163566
851.884	0.0162682
851.962	0.0162436
852.040	0.0162351
852.118	0.0164173
852.196	0.0163133
852.274	0.0163691
852.352	0.0163652
852.431	0.0162288
852.509	0.0161931
852.587	0.0162933
852.665	0.0161877
852.743	0.0162401
852.821	0.0161892
852.899	0.0162654
852.977	0.0161242
853.056	0.0160238
853.134	0.0160115
853.212	0.0159508
853.290	0.0161284
853.368	0.0160348
853.446	0.0160326
853.524	0.0158374
853.602	0.0160027
853.681	0.0159477
853.759	0.0158526
853.837	0.0158921
853.915	0.0159680
853.993	0.0158259
854.071	0.0158971
854.149	0.0159571
854.227	0.0159592
854.306	0.0158157
854.384	0.0159214
854.462	0.0158954
854.540	0.0159179
854.618	0.0160339
854.696	0.0160149
854.774	0.0158250
854.852	0.0159588
854.931	0.0160691
855.009	0.0160780
855.087	0.0159966
855.165	0.0160543
855.243	0.0160818
855.321	0.0160423
855.399	0.0160957
855.477	0.0160606
855.556	0.0159658
855.634	0.0159512
855.712	0.0160396
855.790	0.0160452
855.868	0.0158694
855.946	0.0160083
856.024	0.0161221
856.102	0.0161378
856.181	0.0161287
856.259	0.0161234
856.337	0.0161325
856.415	0.0160050
856.493	0.0160480
856.571	0.0160661
856.649	0.0161298
856.727	0.0159875
856.806	0.0161323
856.884	0.0162917
856.962	0.0161974
857.040	0.0162022
857.118	0.0161133
857.196	0.0161918
857.274	0.0162645
857.352	0.0162193
857.431	0.0162640
857.509	0.0163282
857.587	0.0162045
857.665	0.0161773
857.743	0.0162709
857.821	0.0164716
857.899	0.0162909
857.977	0.0163013
858.056	0.0163387
858.134	0.0162437
858.212	0.0163371
858.290	0.0163299
858.368	0.0163177
858.446	0.0162980
858.524	0.0161098
858.602	0.0162157
858.681	0.0162342
858.759	0.0161531
858.837	0.0163277
858.915	0.0163176
858.993	0.0163033
859.071	0.0162881
859.149	0.0161784
859.227	0.0161565
859.306	0.0162893
859.384	0.0163492
859.462	0.0162429
859.540	0.0162844
859.618	0.0163951
859.696	0.0162871
859.774	0.0162639
859.852	0.0163301
859.931	0.0163549
860.009	0.0161703
860.087	0.0162257
860.165	0.0163186
860.243	0.0162508
860.321	0.0162794
860.399	0.0162698
860.477	0.0162359
860.556	0.0162636
860.634	0.0162354
860.712	0.0162177
860.790	0.0162505
860.868	0.0161865
860.946	0.0161444
861.024	0.0161374
861.102	0.0160851
861.181	0.0160980
861.259	0.0161021
861.337	0.0161713
861.415	0.0161755
861.493	0.0160216
861.571	0.0161130
861.649	0.0161013
861.727	0.0160212
861.806	0.0160581
861.884	0.0161678
861.962	0.0161684
862.040	0.0162083
862.118	0.0161481
862.196	0.0161142
862.274	0.0162208
862.352	0.0161562
862.431	0.0161267
862.509	0.0160237
862.587	0.0161359
862.665	0.0162097
862.743	0.0161459
862.821	0.0161997
862.899	0.0161032
862.977	0.0160067
863.056	0.0159604
863.134	0.0161884
863.212	0.0161118
863.290	0.0159539
863.368	0.0159384
863.446	0.0162412
863.524	0.0162138
863.602	0.0161024
863.681	0.0161557
863.759	0.0161311
863.837	0.0162249
863.915	0.0162020
863.993	0.0161356
864.071	0.0160352
864.149	0.0160918
864.227	0.0162143
864.306	0.0162547
864.384	0.0160920
864.462	0.0161633
864.540	0.0161785
864.618	0.0162392
864.696	0.0161867
864.774	0.0161343
864.852	0.0161999
864.931	0.0160974
865.009	0.0161493
865.087	0.0161587
865.165	0.0161987
865.243	0.0160964
865.321	0.0161600
865.399	0.0160847
865.477	0.0160515
865.556	0.0160504
865.634	0.0159909
865.712	0.0161266
865.790	0.0160803
865.868	0.0161680
865.946	0.0159941
866.024	0.0159167
866.102	0.0159669
866.181	0.0159620
866.259	0.0160615
866.337	0.0158198
866.415	0.0158605
866.493	0.0160687
866.571	0.0159335
866.649	0.0159496
866.727	0.0161144
866.806	0.0159920
866.884	0.0158929
866.962	0.0159650
867.040	0.0158130
867.118	0.0158814
867.196	0.0160287
867.274	0.0159325
867.352	0.0160679
867.431	0.0159457
867.509	0.0159262
867.587	0.0159966
867.665	0.0160368
867.743	0.0160100
867.821	0.0161604
867.899	0.0161874
867.977	0.0162826
868.056	0.0161372
868.134	0.0160909
868.212	0.0161638
868.290	0.0162537
868.368	0.0161987
868.446	0.0162627
868.524	0.0163374
868.602	0.0162497
868.681	0.0162871
868.759	0.0162324
868.837	0.0163483
868.915	0.0162630
868.993	0.0162772
869.071	0.0161902
869.149	0.0161400
869.227	0.0162778
869.306	0.0162106
869.384	0.0162539
869.462	0.0162698
869.540	0.0162132
869.618	0.0162313
869.696	0.0162209
869.774	0.0162634
869.852	0.0161857
869.931	0.0163031
870.009	0.0163064
870.087	0.0162073
870.165	0.0162685
870.243	0.0161626
870.321	0.0162022
870.399	0.0162370
870.477	0.0162038
870.556	0.0161258
870.634	0.0162379
870.712	0.0162328
870.790	0.0161790
870.868	0.0162348
870.946	0.0163544
871.024	0.0163592
871.102	0.0162498
871.181	0.0161707
871.259	0.0162008
871.337	0.0163494
871.415	0.0162460
871.493	0.0163350
871.571	0.0162328
871.649	0.0162295
871.727	0.0164381
871.806	0.0161001
871.884	0.0161835
871.962	0.0161555
872.040	0.0162344
872.118	0.0162598
872.196	0.0163229
872.274	0.0163464
872.352	0.0161434
872.431	0.0163464
872.509	0.0162801
872.587	0.0162032
872.665	0.0162792
872.743	0.0162656
872.821	0.0162733
872.899	0.0163715
872.977	0.0162242
873.056	0.0162429
873.134	0.0161611
873.212	0.0161904
873.290	0.0162149
873.368	0.0162268
873.446	0.0161906
873.524	0.0161263
873.602	0.0160967
873.681	0.0160751
873.759	0.0160932
873.837	0.0160617
873.915	0.0160907
873.993	0.0160635
874.071	0.0160921
874.149	0.0159986
874.227	0.0160939
874.306	0.0159303
874.384	0.0161572
874.462	0.0159634
874.540	0.0161507
874.618	0.0159960
874.696	0.0159261
874.774	0.0160272
874.852	0.0160056
874.931	0.0161496
875.009	0.0160017
875.087	0.0160983
875.165	0.0161664
875.243	0.0160868
875.321	0.0161432
875.399	0.0161699
875.477	0.0162524
875.556	0.0161438
875.634	0.0160356
875.712	0.0160507
875.790	0.0161042
875.868	0.0160258
875.946	0.0159034
876.024	0.0160886
876.102	0.0160440
876.181	0.0160253
876.259	0.0161253
876.337	0.0160710
876.415	0.0159624
876.493	0.0161684
876.571	0.0162859
876.649	0.0160352
876.727	0.0161329
876.806	0.0161381
876.884	0.0160648
876.962	0.0161610
877.040	0.0161258
877.118	0.0161819
877.196	0.0162739
877.274	0.0161646
877.352	0.0159878
877.431	0.0160603
877.509	0.0161053
877.587	0.0161013
877.665	0.0161214
877.743	0.0161227
877.821	0.0161130
877.899	0.0163123
877.977	0.0162119
878.056	0.0161897
878.134	0.0161469
878.212	0.0162743
878.290	0.0162920
878.368	0.0163571
878.446	0.0163430
878.524	0.0162465
878.602	0.0162691
878.681	0.0162178
878.759	0.0162556
878.837	0.0163323
878.915	0.0162583
878.993	0.0162321
879.071	0.0161976
879.149	0.0164192
879.227	0.0163840
879.306	0.0163047
879.384	0.0163029
879.462	0.0161693
879.540	0.0163026
879.618	0.0162339
879.696	0.0163256
879.774	0.0163042
879.852	0.0163635
879.931	0.0163651
880.009	0.0164240
880.087	0.0162156
880.165	0.0162893
880.243	0.0162851
880.321	0.0163339
880.399	0.0164540
880.477	0.0162900
880.556	0.0162032
880.634	0.0163357
880.712	0.0162228
880.790	0.0162859
880.868	0.0162352
880.946	0.0162681
881.024	0.0163258
881.102	0.0162780
881.181	0.0163683
881.259	0.0162788
881.337	0.0162155
881.415	0.0161449
881.493	0.0161749
881.571	0.0162970
881.649	0.0161396
881.727	0.0162731
881.806	0.0163461
881.884	0.0161692
881.962	0.0161621
882.040	0.0162334
882.118	0.0163007
882.196	0.0163216
882.274	0.0162845
882.352	0.0161912
882.431	0.0162338
882.509	0.0162849
882.587	0.0162670
882.665	0.0162426
882.743	0.0164098
882.821	0.0162778
882.899	0.0162856
882.977	0.0161766
883.056	0.0162463
883.134	0.0162553
883.212	0.0162958
883.290	0.0162146
883.368	0.0162001
883.446	0.0162267
883.524	0.0161515
883.602	0.0161353
883.681	0.0161487
883.759	0.0162164
883.837	0.0160812
883.915	0.0162787
883.993	0.0161940
884.071	0.0162461
884.149	0.0161298
884.227	0.0161757
884.306	0.0162057
884.384	0.0160130
884.462	0.0160865
884.540	0.0161213
884.618	0.0160858
884.696	0.0161375
884.774	0.0161893
884.852	0.0160821
884.931	0.0160997
885.009	0.0161550
885.087	0.0162018
885.165	0.0160877
885.243	0.0160599
885.321	0.0160551
885.399	0.0160644
885.477	0.0160877
885.556	0.0160753
885.634	0.0160577
885.712	0.0160983
885.790	0.0160765
885.868	0.0160970
885.946	0.0160659
886.024	0.0160645
886.102	0.0161025
886.181	0.0160464
886.259	0.0162433
886.337	0.0161526
886.415	0.0160269
886.493	0.0161100
886.571	0.0159219
886.649	0.0161469
886.727	0.0161385
886.806	0.0161168
886.884	0.0161566
886.962	0.0160049
887.040	0.0161328
887.118	0.0162767
887.196	0.0161474
887.274	0.0161779
887.352	0.0161633
887.431	0.0162200
887.509	0.0161491
887.587	0.0162302
887.665	0.0162576
887.743	0.0162790
887.821	0.0163326
887.899	0.0162062
887.977	0.0163364
888.056	0.0162959
888.134	0.0162432
888.212	0.0163023
888.290	0.0161649
888.368	0.0164885
888.446	0.0164067
888.524	0.0161893
888.602	0.0160861
888.681	0.0161842
888.759	0.0160710
888.837	0.0161362
888.915	0.0162071
888.993	0.0160068
889.071	0.0162050
889.149	0.0161560
889.227	0.0160156
889.306	0.0161950
889.384	0.0162205
889.462	0.0161157
889.540	0.0161515
889.618	0.0161793
889.696	0.0161757
889.774	0.0161779
889.852	0.0161530
889.931	0.0160661
890.009	0.0161528
890.087	0.0161240
890.165	0.0160618
890.243	0.0160835
890.321	0.0160847
890.399	0.0159959
890.477	0.0160675
890.556	0.0161520
890.634	0.0160529
890.712	0.0160841
890.790	0.0162366
890.868	0.0160311
890.946	0.0161263
891.024	0.0162269
891.102	0.0161654
891.181	0.0161442
891.259	0.0161573
891.337	0.0161324
891.415	0.0163088
891.493	0.0161827
891.571	0.0162724
891.649	0.0162421
891.727	0.0162225
891.806	0.0162859
891.884	0.0161916
891.962	0.0160634
892.040	0.0160757
892.118	0.0162464
892.196	0.0161301
892.274	0.0161044
892.352	0.0162680
892.431	0.0161156
892.509	0.0160970
892.587	0.0160885
892.665	0.0161457
892.743	0.0161841
892.821	0.0162218
892.899	0.0160071
892.977	0.0158575
893.056	0.0160033
893.134	0.0161629
893.212	0.0160365
893.290	0.0160287
893.368	0.0160791
893.446	0.0161707
893.524	0.0160162
893.602	0.0159243
893.681	0.0159875
893.759	0.0159963
893.837	0.0160583
893.915	0.0160861
893.993	0.0161077
894.071	0.0161073
894.149	0.0160308
894.227	0.0161266
894.306	0.0161526
894.384	0.0161118
894.462	0.0159801
894.540	0.0161096
894.618	0.0160869
894.696	0.0160642
894.774	0.0161862
894.852	0.0160865
894.931	0.0162078
895.009	0.0162543
895.087	0.0162534
895.165	0.0159326
895.243	0.0162321
895.321	0.0161549
895.399	0.0160748
895.477	0.0161848
895.556	0.0161384
895.634	0.0162811
895.712	0.0162732
895.790	0.0161443
895.868	0.0161224
895.946	0.0161034
896.024	0.0161688
896.102	0.0162541
896.181	0.0161015
896.259	0.0160934
896.337	0.0161353
896.415	0.0161623
896.493	0.0160950
896.571	0.0162467
896.649	0.0161016
896.727	0.0162192
896.806	0.0162814
896.884	0.0161827
896.962	0.0160093
897.040	0.0162256
897.118	0.0161352
897.196	0.0162600
897.274	0.0161941
897.352	0.0163645
897.431	0.0162496
897.509	0.0162802
897.587	0.0162668
897.665	0.0161977
897.743	0.0161935
897.821	0.0162567
897.899	0.0162698
897.977	0.0161997
898.056	0.0162321
898.134	0.0164378
898.212	0.0160997
898.290	0.0162280
898.368	0.0162763
898.446	0.0163342
898.524	0.0161859
898.602	0.0161935
898.681	0.0161693
898.759	0.0162339
898.837	0.0162282
898.915	0.0161083
898.993	0.0161561
899.071	0.0161823
899.149	0.0162139
899.227	0.0161372
899.306	0.0160459
899.384	0.0160991
899.462	0.0162155
899.540	0.0161274
899.618	0.0160908
899.696	0.0161851
899.774	0.0162764
899.852	0.0161269
899.931	0.0161601
900.009	0.0161991
900.087	0.0160941
900.165	0.0162353
900.243	0.0162228
900.321	0.0160883
900.399	0.0160122
900.477	0.0160824
900.556	0.0160609
900.634	0.0161472
900.712	0.0161907
900.790	0.0163099
900.868	0.0161997
900.946	0.0162911
901.024	0.0162512
901.102	0.0163110
901.181	0.0163478
901.259	0.0161156
901.337	0.0160297
901.415	0.0161504
901.493	0.0162518
901.571	0.0162130
901.649	0.0161714
901.727	0.0161395
901.806	0.0163097
901.884	0.0161765
901.962	0.0161884
902.040	0.0163515
902.118	0.0161315
902.196	0.0162007
902.274	0.0163863
902.352	0.0161502
902.431	0.0162393
902.509	0.0161837
902.587	0.0162575
902.665	0.0163189
902.743	0.0161804
902.821	0.0162434
902.899	0.0162450
902.977	0.0161913
903.056	0.0161255
903.134	0.0162892
903.212	0.0162064
903.290	0.0160829
903.368	0.0162059
903.446	0.0162469
903.524	0.0161674
903.602	0.0161874
903.681	0.0162251
903.759	0.0163470
903.837	0.0161744
903.915	0.0161081
903.993	0.0162164
904.071	0.0162833
904.149	0.0161504
904.227	0.0163740
904.306	0.0161562
904.384	0.0163189
904.462	0.0163290
904.540	0.0162884
904.618	0.0163122
904.696	0.0162470
904.774	0.0162148
904.852	0.0161881
904.931	0.0161958
905.009	0.0162944
905.087	0.0162704
905.165	0.0163224
905.243	0.0161022
905.321	0.0162936
905.399	0.0163155
905.477	0.0162524
905.556	0.0162873
905.634	0.0162134
905.712	0.0162334
905.790	0.0163043
905.868	0.0163400
905.946	0.0163451
906.024	0.0163187
906.102	0.0162707
906.181	0.0161580
906.259	0.0162220
906.337	0.0162499
906.415	0.0161956
906.493	0.0162342
906.571	0.0161032
906.649	0.0160750
906.727	0.0160624
906.806	0.0161137
906.884	0.0161603
906.962	0.0161471
907.040	0.0161536
907.118	0.0160535
907.196	0.0160444
907.274	0.0161969
907.352	0.0159571
907.431	0.0160572
907.509	0.0160217
907.587	0.0160979
907.665	0.0160758
907.743	0.0159782
907.821	0.0159116
907.899	0.0161756
907.977	0.0161037
908.056	0.0160410
908.134	0.0160864
908.212	0.0159760
908.290	0.0161050
908.368	0.0161015
908.446	0.0160641
908.524	0.0161824
908.602	0.0161352
908.681	0.0161535
908.759	0.0160948
908.837	0.0160831
908.915	0.0160858
908.993	0.0161196
909.071	0.0162192
909.149	0.0162189
909.227	0.0161992
909.306	0.0161481
909.384	0.0161447
909.462	0.0161325
909.540	0.0161638
909.618	0.0161319
909.696	0.0162125
909.774	0.0162663
909.852	0.0162075
909.931	0.0162176
910.009	0.0160345
910.087	0.0161581
910.165	0.0160642
910.243	0.0161432
910.321	0.0161491
910.399	0.0160655
910.477	0.0160634
910.556	0.0161403
910.634	0.0161188
910.712	0.0162223
910.790	0.0160384
910.868	0.0160182
910.946	0.0162136
911.024	0.0161473
911.102	0.0162032
911.181	0.0160511
911.259	0.0162060
911.337	0.0161565
911.415	0.0160615
911.493	0.0159776
911.571	0.0161945
911.649	0.0160666
911.727	0.0161010
911.806	0.0161756
911.884	0.0160707
911.962	0.0161648
912.040	0.0159893
912.118	0.0159988
912.196	0.0160110
912.274	0.0160701
912.352	0.0162511
912.431	0.0161102
912.509	0.0161673
912.587	0.0161883
912.665	0.0160401
912.743	0.0160119
912.821	0.0160898
912.899	0.0160845
912.977	0.0162132
913.056	0.0161434
913.134	0.0162016
913.212	0.0160497
913.290	0.0160641
913.368	0.0160683
913.446	0.0159995
913.524	0.0159949
913.602	0.0159274
913.681	0.0159724
913.759	0.0159879
913.837	0.0160075
913.915	0.0159807
913.993	0.0159351
914.071	0.0158463
914.149	0.0160171
914.227	0.0158833
914.306	0.0157605
914.384	0.0161603
914.462	0.0158712
914.540	0.0159120
914.618	0.0160621
914.696	0.0160252
914.774	0.0160502
914.852	0.0159980
914.931	0.0158798
915.009	0.0159619
915.087	0.0158719
915.165	0.0160865
915.243	0.0161004
915.321	0.0160983
915.399	0.0159683
915.477	0.0160742
915.556	0.0160255
915.634	0.0159987
915.712	0.0159084
915.790	0.0160856
915.868	0.0160294
915.946	0.0161601
916.024	0.0161166
916.102	0.0159897
916.181	0.0160850
916.259	0.0162107
916.337	0.0160010
916.415	0.0161629
916.493	0.0161888
916.571	0.0162893
916.649	0.0162740
916.727	0.0161874
916.806	0.0161060
916.884	0.0162463
916.962	0.0162371
917.040	0.0160761
917.118	0.0161719
917.196	0.0162712
917.274	0.0162855
917.352	0.0162157
917.431	0.0163459
917.509	0.0162896
917.587	0.0161716
917.665	0.0161514
917.743	0.0160865
917.821	0.0161613
917.899	0.0162800
917.977	0.0161972
918.056	0.0162792
918.134	0.0163049
918.212	0.0161507
918.290	0.0161024
918.368	0.0162272
918.446	0.0161468
918.524	0.0162754
918.602	0.0161320
918.681	0.0161324
918.759	0.0161313
918.837	0.0162173
918.915	0.0161779
918.993	0.0159956
919.071	0.0161434
919.149	0.0161035
919.227	0.0161000
919.306	0.0161687
919.384	0.0161397
919.462	0.0161169
919.540	0.0160650
919.618	0.0160983
919.696	0.0160883
919.774	0.0161172
919.852	0.0159170
919.931	0.0161346
920.009	0.0161318
920.087	0.0161203
920.165	0.0162374
920.243	0.0159780
920.321	0.0160972
920.399	0.0161163
920.477	0.0161631
920.556	0.0161228
920.634	0.0160748
920.712	0.0161031
920.790	0.0161240
920.868	0.0161102
920.946	0.0160775
921.024	0.0161221
921.102	0.0160494
921.181	0.0162595
921.259	0.0162396
921.337	0.0163176
921.415	0.0162724
921.493	0.0162412
921.571	0.0162967
921.649	0.0162639
921.727	0.0161139
921.806	0.0161964
921.884	0.0161709
921.962	0.0161628
922.040	0.0161877
922.118	0.0160984
922.196	0.0161076
922.274	0.0162505
922.352	0.0159868
922.431	0.0161678
922.509	0.0161436
922.587	0.0159736
922.665	0.0160899
922.743	0.0160129
922.821	0.0160891
922.899	0.0160129
922.977	0.0159400
923.056	0.0160233
923.134	0.0159801
923.212	0.0159731
923.290	0.0159567
923.368	0.0158443
923.446	0.0159693
923.524	0.0158855
923.602	0.0160530
923.681	0.0160128
923.759	0.0160307
923.837	0.0160552
923.915	0.0160799
923.993	0.0161131
924.071	0.0160303
924.149	0.0161244
924.227	0.0162324
924.306	0.0161445
924.384	0.0160977
924.462	0.0160976
924.540	0.0162617
924.618	0.0161430
924.696	0.0161905
924.774	0.0161024
924.852	0.0162520
924.931	0.0161607
925.009	0.0161700
925.087	0.0162505
925.165	0.0161587
925.243	0.0162745
925.321	0.0162845
925.399	0.0163110
925.477	0.0161634
925.556	0.0161907
925.634	0.0161387
925.712	0.0159811
925.790	0.0161389
925.868	0.0161146
925.946	0.0161563
926.024	0.0160613
926.102	0.0161484
926.181	0.0161859
926.259	0.0159870
926.337	0.0162083
926.415	0.0161282
926.493	0.0159242
926.571	0.0160383
926.649	0.0160816
926.727	0.0159630
926.806	0.0158916
926.884	0.0160645
926.962	0.0161365
927.040	0.0160388
927.118	0.0160110
927.196	0.0159712
927.274	0.0161109
927.352	0.0161004
927.431	0.0160869
927.509	0.0159332
927.587	0.0160812
927.665	0.0160931
927.743	0.0160996
927.821	0.0160935
927.899	0.0162023
927.977	0.0160992
928.056	0.0160949
928.134	0.0162099
928.212	0.0162421
928.290	0.0161926
928.368	0.0162937
928.446	0.0162619
928.524	0.0162363
928.602	0.0162508
928.681	0.0163168
928.759	0.0162104
928.837	0.0161999
928.915	0.0163215
928.993	0.0163076
929.071	0.0162425
929.149	0.0163472
929.227	0.0163064
929.306	0.0161678
929.384	0.0161832
929.462	0.0163577
929.540	0.0163009
929.618	0.0161736
929.696	0.0162787
929.774	0.0163209
929.852	0.0162801
929.931	0.0163273
