05/19/2022	01:10:24	Ver.	4.1	UNKNOWN
Optical Delay	610.008675	Delta X		0.078125	Sweeps	1	Scan Rate	0/0
Coordinates	Axis 1	NaN	Axis 2	NaN	Axis 3	NaN	Axis 4	NaN	Axis 5	NaN	Axis 6	0.000000
TX Power	0.000000	RX Power	0.000000

610.009	0.0163847
610.087	0.0164483
610.165	0.0163055
610.243	0.0164759
610.321	0.0163850
610.399	0.0163007
610.477	0.0164020
610.556	0.0163001
610.634	0.0164954
610.712	0.0164346
610.790	0.0164833
610.868	0.0166035
610.946	0.0164955
611.024	0.0164445
611.102	0.0164571
611.181	0.0165642
611.259	0.0165164
611.337	0.0164108
611.415	0.0165280
611.493	0.0165290
611.571	0.0164136
611.649	0.0165066
611.727	0.0165421
611.806	0.0165898
611.884	0.0165680
611.962	0.0165549
612.040	0.0166613
612.118	0.0165457
612.196	0.0165786
612.274	0.0164697
612.352	0.0165771
612.431	0.0165506
612.509	0.0164781
612.587	0.0165347
612.665	0.0165150
612.743	0.0164123
612.821	0.0165149
612.899	0.0165749
612.977	0.0165070
613.056	0.0164704
613.134	0.0164726
613.212	0.0164281
613.290	0.0163684
613.368	0.0164345
613.446	0.0163993
613.524	0.0163907
613.602	0.0164915
613.681	0.0162889
613.759	0.0164371
613.837	0.0164780
613.915	0.0163071
613.993	0.0163301
614.071	0.0163360
614.149	0.0163902
614.227	0.0163273
614.306	0.0164591
614.384	0.0165607
614.462	0.0164289
614.540	0.0164248
614.618	0.0163757
614.696	0.0164189
614.774	0.0164471
614.852	0.0162189
614.931	0.0163590
615.009	0.0162775
615.087	0.0162458
615.165	0.0164463
615.243	0.0163815
615.321	0.0164301
615.399	0.0162522
615.477	0.0163966
615.556	0.0162250
615.634	0.0162871
615.712	0.0163834
615.790	0.0163094
615.868	0.0164273
615.946	0.0162291
616.024	0.0163351
616.102	0.0164208
616.181	0.0163493
616.259	0.0162888
616.337	0.0163805
616.415	0.0163668
616.493	0.0162933
616.571	0.0163542
616.649	0.0164621
616.727	0.0164473
616.806	0.0162796
616.884	0.0163535
616.962	0.0163438
617.040	0.0164435
617.118	0.0163962
617.196	0.0163115
617.274	0.0164434
617.352	0.0163424
617.431	0.0163695
617.509	0.0163472
617.587	0.0164495
617.665	0.0163100
617.743	0.0161290
617.821	0.0163660
617.899	0.0162736
617.977	0.0162811
618.056	0.0163171
618.134	0.0163702
618.212	0.0162835
618.290	0.0161300
618.368	0.0164128
618.446	0.0161453
618.524	0.0161853
618.602	0.0163020
618.681	0.0162337
618.759	0.0162928
618.837	0.0161452
618.915	0.0164074
618.993	0.0162270
619.071	0.0163483
619.149	0.0161806
619.227	0.0162131
619.306	0.0161793
619.384	0.0160991
619.462	0.0163181
619.540	0.0161911
619.618	0.0162114
619.696	0.0163130
619.774	0.0161762
619.852	0.0162373
619.931	0.0163523
620.009	0.0161169
620.087	0.0161556
620.165	0.0162063
620.243	0.0162309
620.321	0.0162141
620.399	0.0162940
620.477	0.0162628
620.556	0.0161546
620.634	0.0162378
620.712	0.0163522
620.790	0.0162767
620.868	0.0162353
620.946	0.0163486
621.024	0.0163407
621.102	0.0164143
621.181	0.0162963
621.259	0.0161754
621.337	0.0161732
621.415	0.0162357
621.493	0.0161526
621.571	0.0162582
621.649	0.0163282
621.727	0.0163560
621.806	0.0161666
621.884	0.0163112
621.962	0.0163081
622.040	0.0161325
622.118	0.0163625
622.196	0.0162901
622.274	0.0161824
622.352	0.0163264
622.431	0.0163721
622.509	0.0163758
622.587	0.0162969
622.665	0.0162386
622.743	0.0162723
622.821	0.0163709
622.899	0.0163569
622.977	0.0163297
623.056	0.0163313
623.134	0.0163673
623.212	0.0161521
623.290	0.0160970
623.368	0.0160942
623.446	0.0162121
623.524	0.0163331
623.602	0.0163036
623.681	0.0163939
623.759	0.0163425
623.837	0.0163919
623.915	0.0162482
623.993	0.0162661
624.071	0.0161417
624.149	0.0163467
624.227	0.0164278
624.306	0.0163268
624.384	0.0162323
624.462	0.0162939
624.540	0.0163309
624.618	0.0161588
624.696	0.0161988
624.774	0.0161646
624.852	0.0161578
624.931	0.0162318
625.009	0.0162183
625.087	0.0161263
625.165	0.0163679
625.243	0.0162788
625.321	0.0162916
625.399	0.0164992
625.477	0.0162089
625.556	0.0163027
625.634	0.0162210
625.712	0.0162688
625.790	0.0164041
625.868	0.0162272
625.946	0.0163470
626.024	0.0163493
626.102	0.0162607
626.181	0.0162996
626.259	0.0162917
626.337	0.0164420
626.415	0.0164281
626.493	0.0164478
626.571	0.0163589
626.649	0.0163930
626.727	0.0163548
626.806	0.0164518
626.884	0.0163304
626.962	0.0164844
627.040	0.0165041
627.118	0.0165928
627.196	0.0165012
627.274	0.0164952
627.352	0.0165060
627.431	0.0165621
627.509	0.0163651
627.587	0.0165476
627.665	0.0164191
627.743	0.0165419
627.821	0.0165430
627.899	0.0164744
627.977	0.0166072
628.056	0.0165922
628.134	0.0164401
628.212	0.0164644
628.290	0.0165564
628.368	0.0165987
628.446	0.0164569
628.524	0.0164511
628.602	0.0165959
628.681	0.0165529
628.759	0.0165057
628.837	0.0163742
628.915	0.0165176
628.993	0.0164377
629.071	0.0163889
629.149	0.0164130
629.227	0.0163857
629.306	0.0163711
629.384	0.0162581
629.462	0.0163484
629.540	0.0164383
629.618	0.0162549
629.696	0.0165736
629.774	0.0165078
629.852	0.0164936
629.931	0.0163902
630.009	0.0163754
630.087	0.0163904
630.165	0.0163476
630.243	0.0164843
630.321	0.0164445
630.399	0.0163876
630.477	0.0163458
630.556	0.0164167
630.634	0.0165778
630.712	0.0163766
630.790	0.0163633
630.868	0.0165982
630.946	0.0166589
631.024	0.0165547
631.102	0.0166006
631.181	0.0166676
631.259	0.0166613
631.337	0.0166031
631.415	0.0166319
631.493	0.0165983
631.571	0.0165333
631.649	0.0166460
631.727	0.0165980
631.806	0.0165190
631.884	0.0164876
631.962	0.0165881
632.040	0.0164780
632.118	0.0166638
632.196	0.0165473
632.274	0.0165221
632.352	0.0165770
632.431	0.0164722
632.509	0.0164739
632.587	0.0164956
632.665	0.0162634
632.743	0.0165027
632.821	0.0164449
632.899	0.0164178
632.977	0.0163815
633.056	0.0163228
633.134	0.0164135
633.212	0.0163050
633.290	0.0162904
633.368	0.0163577
633.446	0.0162747
633.524	0.0162704
633.602	0.0161985
633.681	0.0163419
633.759	0.0162270
633.837	0.0162564
633.915	0.0162227
633.993	0.0163847
634.071	0.0162906
634.149	0.0161897
634.227	0.0163329
634.306	0.0163472
634.384	0.0164164
634.462	0.0164243
634.540	0.0163719
634.618	0.0164050
634.696	0.0164762
634.774	0.0164645
634.852	0.0164974
634.931	0.0165700
635.009	0.0165002
635.087	0.0165000
635.165	0.0163902
635.243	0.0164799
635.321	0.0167171
635.399	0.0165443
635.477	0.0165369
635.556	0.0165323
635.634	0.0166639
635.712	0.0165853
635.790	0.0165073
635.868	0.0165356
635.946	0.0165112
636.024	0.0164910
636.102	0.0166634
636.181	0.0166216
636.259	0.0165598
636.337	0.0164733
636.415	0.0164909
636.493	0.0165689
636.571	0.0163229
636.649	0.0165741
636.727	0.0163180
636.806	0.0163631
636.884	0.0163088
636.962	0.0163962
637.040	0.0162222
637.118	0.0162569
637.196	0.0162694
637.274	0.0161192
637.352	0.0160987
637.431	0.0160464
637.509	0.0160471
637.587	0.0160999
637.665	0.0160674
637.743	0.0160580
637.821	0.0161731
637.899	0.0160175
637.977	0.0159070
638.056	0.0160414
638.134	0.0159164
638.212	0.0159759
638.290	0.0159750
638.368	0.0161084
638.446	0.0160269
638.524	0.0159983
638.602	0.0160243
638.681	0.0162487
638.759	0.0161832
638.837	0.0161251
638.915	0.0161452
638.993	0.0162667
639.071	0.0163950
639.149	0.0164117
639.227	0.0163905
639.306	0.0165687
639.384	0.0165806
639.462	0.0164677
639.540	0.0165710
639.618	0.0166203
639.696	0.0167299
639.774	0.0166145
639.852	0.0166409
639.931	0.0168275
640.009	0.0167947
640.087	0.0167432
640.165	0.0167366
640.243	0.0168136
640.321	0.0167017
640.399	0.0166738
640.477	0.0167297
640.556	0.0164165
640.634	0.0166561
640.712	0.0167353
640.790	0.0165929
640.868	0.0164206
640.946	0.0164398
641.024	0.0163825
641.102	0.0163924
641.181	0.0163834
641.259	0.0163090
641.337	0.0162276
641.415	0.0159890
641.493	0.0161765
641.571	0.0161533
641.649	0.0160965
641.727	0.0161411
641.806	0.0161856
641.884	0.0161175
641.962	0.0161013
642.040	0.0160856
642.118	0.0160000
642.196	0.0159692
642.274	0.0160181
642.352	0.0160625
642.431	0.0160195
642.509	0.0159560
642.587	0.0161840
642.665	0.0161433
642.743	0.0162639
642.821	0.0162375
642.899	0.0161687
642.977	0.0162303
643.056	0.0162739
643.134	0.0162347
643.212	0.0162620
643.290	0.0162666
643.368	0.0164580
643.446	0.0163854
643.524	0.0164270
643.602	0.0164894
643.681	0.0165253
643.759	0.0164479
643.837	0.0164170
643.915	0.0165704
643.993	0.0166061
644.071	0.0164280
644.149	0.0165285
644.227	0.0165856
644.306	0.0163775
644.384	0.0165044
644.462	0.0163213
644.540	0.0164087
644.618	0.0164645
644.696	0.0164321
644.774	0.0162516
644.852	0.0163597
644.931	0.0163366
645.009	0.0164449
645.087	0.0162042
645.165	0.0161919
645.243	0.0163008
645.321	0.0163214
645.399	0.0161899
645.477	0.0162567
645.556	0.0162157
645.634	0.0162792
645.712	0.0161388
645.790	0.0162074
645.868	0.0163310
645.946	0.0163966
646.024	0.0162876
646.102	0.0161824
646.181	0.0162813
646.259	0.0162688
646.337	0.0162648
646.415	0.0163544
646.493	0.0161294
646.571	0.0164181
646.649	0.0161935
646.727	0.0162897
646.806	0.0161814
646.884	0.0162722
646.962	0.0162124
647.040	0.0164203
647.118	0.0162274
647.196	0.0160853
647.274	0.0162090
647.352	0.0161063
647.431	0.0160804
647.509	0.0160899
647.587	0.0160648
647.665	0.0161626
647.743	0.0160435
647.821	0.0159651
647.899	0.0160393
647.977	0.0159522
648.056	0.0159003
648.134	0.0159780
648.212	0.0160220
648.290	0.0159565
648.368	0.0160268
648.446	0.0159714
648.524	0.0158931
648.602	0.0160943
648.681	0.0159976
648.759	0.0160106
648.837	0.0160397
648.915	0.0159763
648.993	0.0160487
649.071	0.0161601
649.149	0.0162251
649.227	0.0161360
649.306	0.0161704
649.384	0.0162737
649.462	0.0163463
649.540	0.0162537
649.618	0.0162289
649.696	0.0164366
649.774	0.0164061
649.852	0.0163717
649.931	0.0164480
650.009	0.0165599
650.087	0.0164901
650.165	0.0165418
650.243	0.0165691
650.321	0.0164582
650.399	0.0164155
650.477	0.0165997
650.556	0.0166308
650.634	0.0166247
650.712	0.0165661
650.790	0.0166389
650.868	0.0166084
650.946	0.0166634
651.024	0.0165446
651.102	0.0165190
651.181	0.0166552
651.259	0.0167073
651.337	0.0167518
651.415	0.0166537
651.493	0.0165413
651.571	0.0166059
651.649	0.0165501
651.727	0.0166232
651.806	0.0165289
651.884	0.0164285
651.962	0.0167075
652.040	0.0166441
652.118	0.0165134
652.196	0.0166377
652.274	0.0165814
652.352	0.0167311
652.431	0.0163952
652.509	0.0163885
652.587	0.0164312
652.665	0.0164191
652.743	0.0163712
652.821	0.0164697
652.899	0.0164127
652.977	0.0162985
653.056	0.0164803
653.134	0.0163640
653.212	0.0163818
653.290	0.0163661
653.368	0.0163160
653.446	0.0163016
653.524	0.0161636
653.602	0.0164151
653.681	0.0163369
653.759	0.0163433
653.837	0.0163230
653.915	0.0162863
653.993	0.0164316
654.071	0.0163714
654.149	0.0164999
654.227	0.0165849
654.306	0.0164184
654.384	0.0164485
654.462	0.0166101
654.540	0.0165073
654.618	0.0165144
654.696	0.0165700
654.774	0.0166775
654.852	0.0166796
654.931	0.0167027
655.009	0.0167114
655.087	0.0167259
655.165	0.0167631
655.243	0.0167339
655.321	0.0167311
655.399	0.0167690
655.477	0.0167229
655.556	0.0167211
655.634	0.0166187
655.712	0.0167433
655.790	0.0167959
655.868	0.0166098
655.946	0.0167743
656.024	0.0166675
656.102	0.0166472
656.181	0.0164434
656.259	0.0163915
656.337	0.0163707
656.415	0.0163613
656.493	0.0163765
656.571	0.0161672
656.649	0.0161773
656.727	0.0160851
656.806	0.0161684
656.884	0.0159597
656.962	0.0158090
657.040	0.0159194
657.118	0.0158394
657.196	0.0158440
657.274	0.0158289
657.352	0.0157999
657.431	0.0156876
657.509	0.0157074
657.587	0.0156683
657.665	0.0157047
657.743	0.0156734
657.821	0.0157659
657.899	0.0157560
657.977	0.0158125
658.056	0.0158115
658.134	0.0157354
658.212	0.0158909
658.290	0.0159055
658.368	0.0159624
658.446	0.0159061
658.524	0.0159113
658.602	0.0160484
658.681	0.0161118
658.759	0.0161771
658.837	0.0162457
658.915	0.0161093
658.993	0.0162257
659.071	0.0163756
659.149	0.0164484
659.227	0.0165461
659.306	0.0164829
659.384	0.0165220
659.462	0.0165628
659.540	0.0164538
659.618	0.0164668
659.696	0.0163873
659.774	0.0165767
659.852	0.0165186
659.931	0.0165360
660.009	0.0166338
660.087	0.0165932
660.165	0.0165610
660.243	0.0165833
660.321	0.0166696
660.399	0.0165520
660.477	0.0165015
660.556	0.0166009
660.634	0.0165570
660.712	0.0164938
660.790	0.0164563
660.868	0.0165261
660.946	0.0164072
661.024	0.0163424
661.102	0.0163482
661.181	0.0164004
661.259	0.0164608
661.337	0.0164371
661.415	0.0163323
661.493	0.0164534
661.571	0.0164452
661.649	0.0163889
661.727	0.0165285
661.806	0.0165608
661.884	0.0166142
661.962	0.0163620
662.040	0.0163692
662.118	0.0165726
662.196	0.0165266
662.274	0.0164491
662.352	0.0164862
662.431	0.0166046
662.509	0.0165720
662.587	0.0165204
662.665	0.0162859
662.743	0.0164438
662.821	0.0163827
662.899	0.0163880
662.977	0.0163911
663.056	0.0163113
663.134	0.0163139
663.212	0.0163324
663.290	0.0162514
663.368	0.0162935
663.446	0.0163326
663.524	0.0161343
663.602	0.0162464
663.681	0.0162672
663.759	0.0161619
663.837	0.0161259
663.915	0.0161596
663.993	0.0162846
664.071	0.0162688
664.149	0.0163365
664.227	0.0163006
664.306	0.0161166
664.384	0.0163652
664.462	0.0161631
664.540	0.0161938
664.618	0.0161671
664.696	0.0161034
664.774	0.0162470
664.852	0.0162536
664.931	0.0162650
665.009	0.0161923
665.087	0.0162965
665.165	0.0163527
665.243	0.0163848
665.321	0.0163357
665.399	0.0164285
665.477	0.0164819
665.556	0.0164170
665.634	0.0164690
665.712	0.0164447
665.790	0.0165388
665.868	0.0166889
665.946	0.0164657
666.024	0.0166244
666.102	0.0167758
666.181	0.0166615
666.259	0.0163653
666.337	0.0166258
666.415	0.0165107
666.493	0.0163733
666.571	0.0164808
666.649	0.0165498
666.727	0.0163861
666.806	0.0163883
666.884	0.0162859
666.962	0.0162859
667.040	0.0164293
667.118	0.0162871
667.196	0.0163097
667.274	0.0163137
667.352	0.0162193
667.431	0.0162650
667.509	0.0162774
667.587	0.0162297
667.665	0.0162588
667.743	0.0161257
667.821	0.0160885
667.899	0.0161772
667.977	0.0162460
668.056	0.0162592
668.134	0.0162617
668.212	0.0162643
668.290	0.0161953
668.368	0.0161682
668.446	0.0162151
668.524	0.0162043
668.602	0.0161767
668.681	0.0162578
668.759	0.0162259
668.837	0.0162377
668.915	0.0161404
668.993	0.0163365
669.071	0.0161909
669.149	0.0162639
669.227	0.0162540
669.306	0.0161526
669.384	0.0162080
669.462	0.0163946
669.540	0.0163769
669.618	0.0162894
669.696	0.0163540
669.774	0.0163726
669.852	0.0163389
669.931	0.0163167
670.009	0.0165659
670.087	0.0165691
670.165	0.0164104
670.243	0.0163067
670.321	0.0164452
670.399	0.0164863
670.477	0.0164912
670.556	0.0163972
670.634	0.0163291
670.712	0.0164722
670.790	0.0164115
670.868	0.0164844
670.946	0.0163921
671.024	0.0164185
671.102	0.0164613
671.181	0.0163708
671.259	0.0161803
671.337	0.0163959
671.415	0.0163142
671.493	0.0162575
671.571	0.0162083
671.649	0.0161526
671.727	0.0160442
671.806	0.0160902
671.884	0.0161044
671.962	0.0159929
672.040	0.0160693
672.118	0.0160798
672.196	0.0160370
672.274	0.0159599
672.352	0.0159541
672.431	0.0160088
672.509	0.0161673
672.587	0.0161056
672.665	0.0160143
672.743	0.0162217
672.821	0.0161922
672.899	0.0162632
672.977	0.0162376
673.056	0.0164069
673.134	0.0163358
673.212	0.0163847
673.290	0.0165389
673.368	0.0164832
673.446	0.0164352
673.524	0.0165792
673.602	0.0166148
673.681	0.0166887
673.759	0.0167928
673.837	0.0166616
673.915	0.0166101
673.993	0.0166006
674.071	0.0167559
674.149	0.0167719
674.227	0.0167693
674.306	0.0166917
674.384	0.0167388
674.462	0.0168264
674.540	0.0166759
674.618	0.0165734
674.696	0.0166468
674.774	0.0166982
674.852	0.0164214
674.931	0.0164524
675.009	0.0163933
675.087	0.0163018
675.165	0.0161880
675.243	0.0162579
675.321	0.0161172
675.399	0.0160508
675.477	0.0161171
675.556	0.0161449
675.634	0.0161797
675.712	0.0161945
675.790	0.0160432
675.868	0.0160678
675.946	0.0160220
676.024	0.0160863
676.102	0.0157820
676.181	0.0158624
676.259	0.0160424
676.337	0.0159676
676.415	0.0159283
676.493	0.0159728
676.571	0.0159377
676.649	0.0158974
676.727	0.0160004
676.806	0.0159722
676.884	0.0161695
676.962	0.0160526
677.040	0.0160215
677.118	0.0160483
677.196	0.0160745
677.274	0.0162843
677.352	0.0161670
677.431	0.0164685
677.509	0.0163284
677.587	0.0163355
677.665	0.0162888
677.743	0.0164729
677.821	0.0164751
677.899	0.0166190
677.977	0.0164892
678.056	0.0166167
678.134	0.0167549
678.212	0.0166122
678.290	0.0165766
678.368	0.0165406
678.446	0.0165989
678.524	0.0166095
678.602	0.0167760
678.681	0.0169070
678.759	0.0166806
678.837	0.0165943
678.915	0.0167260
678.993	0.0167250
679.071	0.0166315
679.149	0.0165283
679.227	0.0166270
679.306	0.0165973
679.384	0.0165202
679.462	0.0165324
679.540	0.0163717
679.618	0.0163714
679.696	0.0162273
679.774	0.0163338
679.852	0.0164426
679.931	0.0162569
680.009	0.0162193
680.087	0.0160942
680.165	0.0161332
680.243	0.0161041
680.321	0.0161258
680.399	0.0160221
680.477	0.0160466
680.556	0.0161057
680.634	0.0158971
680.712	0.0159539
680.790	0.0161922
680.868	0.0159077
680.946	0.0159845
681.024	0.0158707
681.102	0.0160170
681.181	0.0160107
681.259	0.0159093
681.337	0.0160766
681.415	0.0160338
681.493	0.0161877
681.571	0.0162005
681.649	0.0160838
681.727	0.0162785
681.806	0.0161844
681.884	0.0163551
681.962	0.0162517
682.040	0.0162213
682.118	0.0163891
682.196	0.0163093
682.274	0.0163759
682.352	0.0165829
682.431	0.0164679
682.509	0.0163303
682.587	0.0164319
682.665	0.0164650
682.743	0.0165345
682.821	0.0164282
682.899	0.0164463
682.977	0.0165450
683.056	0.0165232
683.134	0.0164012
683.212	0.0163406
683.290	0.0164674
683.368	0.0163483
683.446	0.0162618
683.524	0.0163577
683.602	0.0162908
683.681	0.0162908
683.759	0.0162427
683.837	0.0163012
683.915	0.0162994
683.993	0.0163125
684.071	0.0163875
684.149	0.0163046
684.227	0.0163934
684.306	0.0163058
684.384	0.0162878
684.462	0.0162476
684.540	0.0164298
684.618	0.0164775
684.696	0.0165250
684.774	0.0164524
684.852	0.0165568
684.931	0.0165759
685.009	0.0166360
685.087	0.0165664
685.165	0.0166501
685.243	0.0166248
685.321	0.0166315
685.399	0.0166036
685.477	0.0165343
685.556	0.0166318
685.634	0.0166421
685.712	0.0164622
685.790	0.0163741
685.868	0.0164108
685.946	0.0164314
686.024	0.0163243
686.102	0.0164090
686.181	0.0163644
686.259	0.0161385
686.337	0.0162336
686.415	0.0162301
686.493	0.0161375
686.571	0.0162196
686.649	0.0160287
686.727	0.0162711
686.806	0.0161482
686.884	0.0160789
686.962	0.0161089
687.040	0.0161452
687.118	0.0160445
687.196	0.0161432
687.274	0.0162706
687.352	0.0161813
687.431	0.0160173
687.509	0.0161003
687.587	0.0162492
687.665	0.0162553
687.743	0.0162076
687.821	0.0162777
687.899	0.0162568
687.977	0.0163946
688.056	0.0163822
688.134	0.0164093
688.212	0.0163462
688.290	0.0163979
688.368	0.0164765
688.446	0.0163307
688.524	0.0166136
688.602	0.0166338
688.681	0.0165158
688.759	0.0164835
688.837	0.0164755
688.915	0.0165287
688.993	0.0163075
689.071	0.0163377
689.149	0.0165288
689.227	0.0163968
689.306	0.0165319
689.384	0.0163858
689.462	0.0164784
689.540	0.0164973
689.618	0.0163783
689.696	0.0163586
689.774	0.0164532
689.852	0.0163428
689.931	0.0163836
690.009	0.0165185
690.087	0.0164169
690.165	0.0163830
690.243	0.0163394
690.321	0.0164771
690.399	0.0163686
690.477	0.0162630
690.556	0.0162135
690.634	0.0162756
690.712	0.0163254
690.790	0.0162936
690.868	0.0162363
690.946	0.0162019
691.024	0.0162698
691.102	0.0164241
691.181	0.0162653
691.259	0.0162620
691.337	0.0162582
691.415	0.0162874
691.493	0.0162945
691.571	0.0162751
691.649	0.0163106
691.727	0.0163644
691.806	0.0162195
691.884	0.0162012
691.962	0.0163106
692.040	0.0163071
692.118	0.0162634
692.196	0.0163302
692.274	0.0163568
692.352	0.0163147
692.431	0.0163393
692.509	0.0162566
692.587	0.0164201
692.665	0.0164552
692.743	0.0162702
692.821	0.0163081
692.899	0.0165014
692.977	0.0164186
693.056	0.0164201
693.134	0.0164906
693.212	0.0163375
693.290	0.0164128
693.368	0.0164307
693.446	0.0163474
693.524	0.0162714
693.602	0.0164533
693.681	0.0162003
693.759	0.0162344
693.837	0.0162901
693.915	0.0162517
693.993	0.0162463
694.071	0.0163583
694.149	0.0162027
694.227	0.0162029
694.306	0.0161536
694.384	0.0161093
694.462	0.0161895
694.540	0.0162582
694.618	0.0163595
694.696	0.0162328
694.774	0.0162350
694.852	0.0163069
694.931	0.0163010
695.009	0.0162910
695.087	0.0163530
695.165	0.0163391
695.243	0.0164051
695.321	0.0162806
695.399	0.0163761
695.477	0.0163552
695.556	0.0161861
695.634	0.0163620
695.712	0.0162502
695.790	0.0164204
695.868	0.0161894
695.946	0.0161305
696.024	0.0161893
696.102	0.0162195
696.181	0.0161935
696.259	0.0161638
696.337	0.0161062
696.415	0.0162408
696.493	0.0161704
696.571	0.0161918
696.649	0.0160466
696.727	0.0161139
696.806	0.0162479
696.884	0.0161337
696.962	0.0161465
697.040	0.0161523
697.118	0.0162797
697.196	0.0163256
697.274	0.0162534
697.352	0.0163358
697.431	0.0163879
697.509	0.0163917
697.587	0.0163976
697.665	0.0164016
697.743	0.0163884
697.821	0.0164332
697.899	0.0165395
697.977	0.0164556
698.056	0.0164101
698.134	0.0163734
698.212	0.0164722
698.290	0.0165189
698.368	0.0166479
698.446	0.0165742
698.524	0.0165343
698.602	0.0166779
698.681	0.0166640
698.759	0.0166083
698.837	0.0167715
698.915	0.0167596
698.993	0.0168116
699.071	0.0165822
699.149	0.0164787
699.227	0.0167092
699.306	0.0167396
699.384	0.0166107
699.462	0.0164809
699.540	0.0165193
699.618	0.0166411
699.696	0.0164227
699.774	0.0163142
699.852	0.0163750
699.931	0.0163113
700.009	0.0163612
700.087	0.0162706
700.165	0.0164620
700.243	0.0162457
700.321	0.0161743
700.399	0.0161891
700.477	0.0163293
700.556	0.0161393
700.634	0.0162014
700.712	0.0162181
700.790	0.0161957
700.868	0.0163572
700.946	0.0162243
701.024	0.0163183
701.102	0.0161983
701.181	0.0163467
701.259	0.0162932
701.337	0.0162225
701.415	0.0164096
701.493	0.0165230
701.571	0.0165111
701.649	0.0164231
701.727	0.0164110
701.806	0.0165122
701.884	0.0165229
701.962	0.0164136
702.040	0.0164655
702.118	0.0166236
702.196	0.0165540
702.274	0.0165939
702.352	0.0163668
702.431	0.0164411
702.509	0.0164899
702.587	0.0165147
702.665	0.0165273
702.743	0.0162901
702.821	0.0162313
702.899	0.0163949
702.977	0.0162766
703.056	0.0162490
703.134	0.0163419
703.212	0.0162654
703.290	0.0161239
703.368	0.0162129
703.446	0.0161195
703.524	0.0161636
703.602	0.0161845
703.681	0.0162569
703.759	0.0163354
703.837	0.0162804
703.915	0.0163737
703.993	0.0162924
704.071	0.0161746
704.149	0.0163249
704.227	0.0164013
704.306	0.0163511
704.384	0.0163454
704.462	0.0162891
704.540	0.0163191
704.618	0.0163963
704.696	0.0164326
704.774	0.0162991
704.852	0.0164278
704.931	0.0163248
705.009	0.0163220
705.087	0.0163995
705.165	0.0163429
705.243	0.0161827
705.321	0.0163226
705.399	0.0163647
705.477	0.0161652
705.556	0.0161798
705.634	0.0163017
705.712	0.0162612
705.790	0.0160350
705.868	0.0160732
705.946	0.0161980
706.024	0.0161016
706.102	0.0160376
706.181	0.0161476
706.259	0.0160495
706.337	0.0161335
706.415	0.0161793
706.493	0.0160960
706.571	0.0161398
706.649	0.0161615
706.727	0.0161941
706.806	0.0161718
706.884	0.0162685
706.962	0.0162095
707.040	0.0161775
707.118	0.0161923
707.196	0.0160860
707.274	0.0161024
707.352	0.0162251
707.431	0.0162666
707.509	0.0161228
707.587	0.0160940
707.665	0.0161567
707.743	0.0161193
707.821	0.0160935
707.899	0.0161487
707.977	0.0159740
708.056	0.0162870
708.134	0.0161907
708.212	0.0161500
708.290	0.0159937
708.368	0.0161789
708.446	0.0162383
708.524	0.0163374
708.602	0.0162346
708.681	0.0163105
708.759	0.0163574
708.837	0.0163889
708.915	0.0162711
708.993	0.0162844
709.071	0.0162729
709.149	0.0162229
709.227	0.0162566
709.306	0.0163179
709.384	0.0163194
709.462	0.0161123
709.540	0.0161851
709.618	0.0162351
709.696	0.0162684
709.774	0.0161122
709.852	0.0160949
709.931	0.0161708
710.009	0.0162454
710.087	0.0161340
710.165	0.0162264
710.243	0.0161315
710.321	0.0162218
710.399	0.0163102
710.477	0.0162144
710.556	0.0162077
710.634	0.0162122
710.712	0.0163140
710.790	0.0162796
710.868	0.0163319
710.946	0.0164516
711.024	0.0164407
711.102	0.0163004
711.181	0.0163744
711.259	0.0164207
711.337	0.0164615
711.415	0.0163873
711.493	0.0164531
711.571	0.0164639
711.649	0.0163335
711.727	0.0163708
711.806	0.0164966
711.884	0.0164548
711.962	0.0166045
712.040	0.0162735
712.118	0.0164526
712.196	0.0166564
712.274	0.0165742
712.352	0.0166229
712.431	0.0166143
712.509	0.0165027
712.587	0.0166300
712.665	0.0167673
712.743	0.0167090
712.821	0.0166698
712.899	0.0165501
712.977	0.0166401
713.056	0.0166843
713.134	0.0165593
713.212	0.0164043
713.290	0.0165493
713.368	0.0166080
713.446	0.0164794
713.524	0.0163940
713.602	0.0163124
713.681	0.0163910
713.759	0.0162814
713.837	0.0163148
713.915	0.0163132
713.993	0.0162733
714.071	0.0164934
714.149	0.0164758
714.227	0.0163007
714.306	0.0163940
714.384	0.0164124
714.462	0.0164835
714.540	0.0165350
714.618	0.0164635
714.696	0.0165779
714.774	0.0164399
714.852	0.0164226
714.931	0.0162661
715.009	0.0163338
715.087	0.0164777
715.165	0.0164234
715.243	0.0164780
715.321	0.0164487
715.399	0.0162791
715.477	0.0164429
715.556	0.0165278
715.634	0.0164815
715.712	0.0164036
715.790	0.0163223
715.868	0.0164768
715.946	0.0164301
716.024	0.0164482
716.102	0.0163227
716.181	0.0164057
716.259	0.0164097
716.337	0.0163496
716.415	0.0164182
716.493	0.0163454
716.571	0.0163760
716.649	0.0164495
716.727	0.0162733
716.806	0.0163028
716.884	0.0162162
716.962	0.0162200
717.040	0.0162593
717.118	0.0162552
717.196	0.0162617
717.274	0.0162880
717.352	0.0163030
717.431	0.0161958
717.509	0.0161960
717.587	0.0162867
717.665	0.0162059
717.743	0.0161449
717.821	0.0162145
717.899	0.0162592
717.977	0.0162419
718.056	0.0161963
718.134	0.0162009
718.212	0.0160799
718.290	0.0161089
718.368	0.0161690
718.446	0.0161197
718.524	0.0161974
718.602	0.0162910
718.681	0.0162245
718.759	0.0163750
718.837	0.0163945
718.915	0.0163255
718.993	0.0164674
719.071	0.0162307
719.149	0.0164769
719.227	0.0165130
719.306	0.0164565
719.384	0.0163780
719.462	0.0164292
719.540	0.0165862
719.618	0.0165809
719.696	0.0163736
719.774	0.0164303
719.852	0.0165363
719.931	0.0166367
720.009	0.0165076
720.087	0.0165948
720.165	0.0165179
720.243	0.0165570
720.321	0.0164389
720.399	0.0166926
720.477	0.0165366
720.556	0.0164806
720.634	0.0164935
720.712	0.0165462
720.790	0.0163934
720.868	0.0163910
720.946	0.0163393
721.024	0.0163952
721.102	0.0163987
721.181	0.0163103
721.259	0.0161906
721.337	0.0162077
721.415	0.0161780
721.493	0.0162093
721.571	0.0162954
721.649	0.0161063
721.727	0.0162539
721.806	0.0161832
721.884	0.0161439
721.962	0.0160220
722.040	0.0163689
722.118	0.0162567
722.196	0.0161415
722.274	0.0162978
722.352	0.0161750
722.431	0.0162988
722.509	0.0159966
722.587	0.0160675
722.665	0.0162056
722.743	0.0161177
722.821	0.0160894
722.899	0.0160454
722.977	0.0161086
723.056	0.0162651
723.134	0.0161018
723.212	0.0162354
723.290	0.0161720
723.368	0.0162565
723.446	0.0161777
723.524	0.0161759
723.602	0.0162537
723.681	0.0161310
723.759	0.0161701
723.837	0.0163345
723.915	0.0162518
723.993	0.0162160
724.071	0.0162749
724.149	0.0162376
724.227	0.0162641
724.306	0.0162476
724.384	0.0163716
724.462	0.0162581
724.540	0.0163258
724.618	0.0162766
724.696	0.0163015
724.774	0.0161377
724.852	0.0161632
724.931	0.0162836
725.009	0.0165223
725.087	0.0163136
725.165	0.0162683
725.243	0.0162970
725.321	0.0162618
725.399	0.0162906
725.477	0.0161878
725.556	0.0161832
725.634	0.0161143
725.712	0.0161358
725.790	0.0162899
725.868	0.0162218
725.946	0.0161032
726.024	0.0162535
726.102	0.0162281
726.181	0.0161963
726.259	0.0161416
726.337	0.0161522
726.415	0.0163212
726.493	0.0162518
726.571	0.0162705
726.649	0.0162298
726.727	0.0161692
726.806	0.0163069
726.884	0.0162697
726.962	0.0162655
727.040	0.0162635
727.118	0.0162609
727.196	0.0162160
727.274	0.0164259
727.352	0.0163818
727.431	0.0162920
727.509	0.0164380
727.587	0.0164218
727.665	0.0164027
727.743	0.0162273
727.821	0.0164387
727.899	0.0165184
727.977	0.0165785
728.056	0.0165932
728.134	0.0164703
728.212	0.0164425
728.290	0.0164616
728.368	0.0166360
728.446	0.0166707
728.524	0.0165546
728.602	0.0167025
728.681	0.0166116
728.759	0.0165900
728.837	0.0165605
728.915	0.0164446
728.993	0.0164008
729.071	0.0165153
729.149	0.0165411
729.227	0.0165571
729.306	0.0165475
729.384	0.0164457
729.462	0.0163999
729.540	0.0165657
729.618	0.0163514
729.696	0.0164285
729.774	0.0165697
729.852	0.0165361
729.931	0.0164110
730.009	0.0164190
730.087	0.0165578
730.165	0.0165511
730.243	0.0165228
730.321	0.0163932
730.399	0.0165065
730.477	0.0165531
730.556	0.0165502
730.634	0.0165372
730.712	0.0165523
730.790	0.0166008
730.868	0.0164310
730.946	0.0164548
731.024	0.0164955
731.102	0.0163982
731.181	0.0164899
731.259	0.0163920
731.337	0.0164211
731.415	0.0163982
731.493	0.0164558
731.571	0.0164891
731.649	0.0164339
731.727	0.0162722
731.806	0.0161470
731.884	0.0162505
731.962	0.0162383
732.040	0.0162093
732.118	0.0162870
732.196	0.0161652
732.274	0.0162827
732.352	0.0161103
732.431	0.0162375
732.509	0.0162957
732.587	0.0162464
732.665	0.0162389
732.743	0.0162772
732.821	0.0161868
732.899	0.0163540
732.977	0.0163404
733.056	0.0162377
733.134	0.0163573
733.212	0.0162577
733.290	0.0161739
733.368	0.0162188
733.446	0.0163593
733.524	0.0163847
733.602	0.0162391
733.681	0.0163046
733.759	0.0162642
733.837	0.0162319
733.915	0.0162474
733.993	0.0163136
734.071	0.0162845
734.149	0.0163474
734.227	0.0162691
734.306	0.0162749
734.384	0.0162395
734.462	0.0163532
734.540	0.0163555
734.618	0.0163510
734.696	0.0164229
734.774	0.0162604
734.852	0.0164777
734.931	0.0164679
735.009	0.0163454
735.087	0.0163299
735.165	0.0162642
735.243	0.0163225
735.321	0.0164052
735.399	0.0162899
735.477	0.0163227
735.556	0.0163845
735.634	0.0163428
735.712	0.0164084
735.790	0.0163312
735.868	0.0165176
735.946	0.0163924
736.024	0.0164725
736.102	0.0162747
736.181	0.0163198
736.259	0.0164120
736.337	0.0165150
736.415	0.0163085
736.493	0.0163154
736.571	0.0164163
736.649	0.0164319
736.727	0.0163748
736.806	0.0163982
736.884	0.0164142
736.962	0.0163705
737.040	0.0163501
737.118	0.0163345
737.196	0.0164319
737.274	0.0165025
737.352	0.0163648
737.431	0.0162846
737.509	0.0164760
737.587	0.0165074
737.665	0.0164204
737.743	0.0164150
737.821	0.0163581
737.899	0.0163007
737.977	0.0164183
738.056	0.0164333
738.134	0.0163645
738.212	0.0164603
738.290	0.0165848
738.368	0.0164851
738.446	0.0162829
738.524	0.0164265
738.602	0.0163118
738.681	0.0163425
738.759	0.0162607
738.837	0.0162440
738.915	0.0162000
738.993	0.0164214
739.071	0.0163912
739.149	0.0162226
739.227	0.0160973
739.306	0.0161966
739.384	0.0162054
739.462	0.0162623
739.540	0.0162302
739.618	0.0161607
739.696	0.0162966
739.774	0.0162426
739.852	0.0160822
739.931	0.0160322
740.009	0.0161488
740.087	0.0160911
740.165	0.0162229
740.243	0.0161958
740.321	0.0161100
740.399	0.0162103
740.477	0.0161048
740.556	0.0161462
740.634	0.0162371
740.712	0.0161877
740.790	0.0160884
740.868	0.0161327
740.946	0.0163120
741.024	0.0162537
741.102	0.0163812
741.181	0.0163564
741.259	0.0161885
741.337	0.0163412
741.415	0.0163274
741.493	0.0161810
741.571	0.0163464
741.649	0.0163158
741.727	0.0162547
741.806	0.0163741
741.884	0.0164478
741.962	0.0163560
742.040	0.0163369
742.118	0.0162997
742.196	0.0164751
742.274	0.0163337
742.352	0.0164023
742.431	0.0164792
742.509	0.0165022
742.587	0.0164155
742.665	0.0163319
742.743	0.0164183
742.821	0.0164001
742.899	0.0165140
742.977	0.0164371
743.056	0.0164427
743.134	0.0163927
743.212	0.0164280
743.290	0.0165760
743.368	0.0164861
743.446	0.0164090
743.524	0.0164278
743.602	0.0165084
743.681	0.0165289
743.759	0.0165052
743.837	0.0164934
743.915	0.0164138
743.993	0.0165607
744.071	0.0164835
744.149	0.0165369
744.227	0.0165051
744.306	0.0164988
744.384	0.0164063
744.462	0.0164407
744.540	0.0165299
744.618	0.0164132
744.696	0.0164154
744.774	0.0164481
744.852	0.0164014
744.931	0.0164108
745.009	0.0163756
745.087	0.0164601
745.165	0.0163984
745.243	0.0164831
745.321	0.0164325
745.399	0.0164772
745.477	0.0165575
745.556	0.0165247
745.634	0.0164074
745.712	0.0162592
745.790	0.0164088
745.868	0.0165199
745.946	0.0164339
746.024	0.0164420
746.102	0.0163827
746.181	0.0163475
746.259	0.0163754
746.337	0.0164873
746.415	0.0164040
746.493	0.0163242
746.571	0.0165163
746.649	0.0164605
746.727	0.0162624
746.806	0.0164188
746.884	0.0163661
746.962	0.0165364
747.040	0.0164638
747.118	0.0164188
747.196	0.0165369
747.274	0.0163179
747.352	0.0164288
747.431	0.0165171
747.509	0.0165165
747.587	0.0163983
747.665	0.0164612
747.743	0.0163367
747.821	0.0163631
747.899	0.0164609
747.977	0.0162827
748.056	0.0163335
748.134	0.0164709
748.212	0.0165750
748.290	0.0164757
748.368	0.0165565
748.446	0.0164899
748.524	0.0164254
748.602	0.0164231
748.681	0.0165787
748.759	0.0163678
748.837	0.0163425
748.915	0.0162314
748.993	0.0165144
749.071	0.0164052
749.149	0.0164247
749.227	0.0163785
749.306	0.0163406
749.384	0.0163971
749.462	0.0164857
749.540	0.0163335
749.618	0.0164664
749.696	0.0164182
749.774	0.0164292
749.852	0.0165357
749.931	0.0163493
750.009	0.0164568
750.087	0.0164642
750.165	0.0164646
750.243	0.0164629
750.321	0.0163951
750.399	0.0164766
750.477	0.0164136
750.556	0.0163425
750.634	0.0163615
750.712	0.0162773
750.790	0.0164020
750.868	0.0164319
750.946	0.0164265
751.024	0.0164490
751.102	0.0163292
751.181	0.0163098
751.259	0.0164194
751.337	0.0163466
751.415	0.0161880
751.493	0.0164339
751.571	0.0165026
751.649	0.0163808
751.727	0.0162466
751.806	0.0162784
751.884	0.0162765
751.962	0.0162453
752.040	0.0162765
752.118	0.0162939
752.196	0.0163211
752.274	0.0163170
752.352	0.0162206
752.431	0.0160961
752.509	0.0162663
752.587	0.0164144
752.665	0.0162163
752.743	0.0162350
752.821	0.0163245
752.899	0.0161163
752.977	0.0162785
753.056	0.0164326
753.134	0.0163212
753.212	0.0162299
753.290	0.0162600
753.368	0.0162943
753.446	0.0163373
753.524	0.0163502
753.602	0.0161269
753.681	0.0162550
753.759	0.0162534
753.837	0.0161619
753.915	0.0162148
753.993	0.0162100
754.071	0.0162128
754.149	0.0162763
754.227	0.0162593
754.306	0.0160910
754.384	0.0160880
754.462	0.0162582
754.540	0.0162060
754.618	0.0162611
754.696	0.0161134
754.774	0.0162731
754.852	0.0162229
754.931	0.0163177
755.009	0.0161378
755.087	0.0161465
755.165	0.0161599
755.243	0.0162226
755.321	0.0163166
755.399	0.0163247
755.477	0.0162664
755.556	0.0161710
755.634	0.0162893
755.712	0.0162796
755.790	0.0163170
755.868	0.0164106
755.946	0.0164442
756.024	0.0163723
756.102	0.0162526
756.181	0.0162653
756.259	0.0163343
756.337	0.0164437
756.415	0.0164947
756.493	0.0163967
756.571	0.0162794
756.649	0.0163434
756.727	0.0162506
756.806	0.0163943
756.884	0.0164609
756.962	0.0164230
757.040	0.0164977
757.118	0.0163009
757.196	0.0163395
757.274	0.0164464
757.352	0.0162763
757.431	0.0163332
757.509	0.0163029
757.587	0.0165460
757.665	0.0164410
757.743	0.0163853
757.821	0.0163809
757.899	0.0164010
757.977	0.0164597
758.056	0.0163701
758.134	0.0164005
758.212	0.0165767
758.290	0.0164752
758.368	0.0164143
758.446	0.0163256
758.524	0.0163540
758.602	0.0163895
758.681	0.0162581
758.759	0.0164080
758.837	0.0162786
758.915	0.0165156
758.993	0.0163136
759.071	0.0162781
759.149	0.0164373
759.227	0.0164150
759.306	0.0162827
759.384	0.0163271
759.462	0.0164359
759.540	0.0162851
759.618	0.0163018
759.696	0.0163279
759.774	0.0162106
759.852	0.0163331
759.931	0.0162714
760.009	0.0161915
760.087	0.0161852
760.165	0.0162026
760.243	0.0163624
760.321	0.0163846
760.399	0.0163345
760.477	0.0161543
760.556	0.0162757
760.634	0.0163287
760.712	0.0163130
760.790	0.0162878
760.868	0.0162245
760.946	0.0161578
761.024	0.0165303
761.102	0.0163204
761.181	0.0163261
761.259	0.0163216
761.337	0.0162945
761.415	0.0162626
761.493	0.0163392
761.571	0.0163669
761.649	0.0164172
761.727	0.0162856
761.806	0.0162234
761.884	0.0163023
761.962	0.0162091
762.040	0.0163069
762.118	0.0162569
762.196	0.0161928
762.274	0.0160583
762.352	0.0162016
762.431	0.0161684
762.509	0.0162685
762.587	0.0162939
762.665	0.0162076
762.743	0.0161275
762.821	0.0162040
762.899	0.0162400
762.977	0.0162171
763.056	0.0161617
763.134	0.0160538
763.212	0.0161942
763.290	0.0163107
763.368	0.0161705
763.446	0.0163593
763.524	0.0162602
763.602	0.0162105
763.681	0.0162330
763.759	0.0163656
763.837	0.0161971
763.915	0.0164008
763.993	0.0163478
764.071	0.0163869
764.149	0.0162909
764.227	0.0163410
764.306	0.0164956
764.384	0.0165148
764.462	0.0162319
764.540	0.0165791
764.618	0.0164498
764.696	0.0164377
764.774	0.0164026
764.852	0.0164466
764.931	0.0165813
765.009	0.0163923
765.087	0.0164526
765.165	0.0166390
765.243	0.0165765
765.321	0.0165264
765.399	0.0165305
765.477	0.0165927
765.556	0.0166753
765.634	0.0165952
765.712	0.0165750
765.790	0.0166416
765.868	0.0166265
765.946	0.0165744
766.024	0.0165658
766.102	0.0166119
766.181	0.0166095
766.259	0.0165768
766.337	0.0165408
766.415	0.0166220
766.493	0.0165333
766.571	0.0164960
766.649	0.0166843
766.727	0.0167013
766.806	0.0165274
766.884	0.0166034
766.962	0.0164798
767.040	0.0165514
767.118	0.0165665
767.196	0.0165067
767.274	0.0166730
767.352	0.0165575
767.431	0.0165329
767.509	0.0166146
767.587	0.0165044
767.665	0.0165630
767.743	0.0165603
767.821	0.0164296
767.899	0.0164887
767.977	0.0164185
768.056	0.0165173
768.134	0.0164213
768.212	0.0163607
768.290	0.0164373
768.368	0.0164470
768.446	0.0164001
768.524	0.0163802
768.602	0.0163354
768.681	0.0162056
768.759	0.0163632
768.837	0.0163313
768.915	0.0163100
768.993	0.0161983
769.071	0.0162801
769.149	0.0161729
769.227	0.0163094
769.306	0.0161334
769.384	0.0160669
769.462	0.0161095
769.540	0.0160516
769.618	0.0161102
769.696	0.0162013
769.774	0.0162268
769.852	0.0161047
769.931	0.0161963
770.009	0.0161924
770.087	0.0161919
770.165	0.0161115
770.243	0.0162335
770.321	0.0162395
770.399	0.0163152
770.477	0.0163433
770.556	0.0161585
770.634	0.0162996
770.712	0.0162250
770.790	0.0160995
770.868	0.0161725
770.946	0.0163638
771.024	0.0162289
771.102	0.0162872
771.181	0.0163419
771.259	0.0163110
771.337	0.0162688
771.415	0.0161674
771.493	0.0162673
771.571	0.0162870
771.649	0.0162201
771.727	0.0162350
771.806	0.0161502
771.884	0.0162487
771.962	0.0162464
772.040	0.0164308
772.118	0.0163833
772.196	0.0161929
772.274	0.0163241
772.352	0.0163953
772.431	0.0163402
772.509	0.0162551
772.587	0.0163011
772.665	0.0164307
772.743	0.0164072
772.821	0.0163374
772.899	0.0162038
772.977	0.0163297
773.056	0.0163054
773.134	0.0162135
773.212	0.0162505
773.290	0.0164152
773.368	0.0163504
773.446	0.0163438
773.524	0.0163190
773.602	0.0163033
773.681	0.0164568
773.759	0.0164795
773.837	0.0164461
773.915	0.0162947
773.993	0.0163789
774.071	0.0163748
774.149	0.0163403
774.227	0.0164549
774.306	0.0163052
774.384	0.0164603
774.462	0.0161262
774.540	0.0164011
774.618	0.0166647
774.696	0.0164147
774.774	0.0164654
774.852	0.0166306
774.931	0.0164433
775.009	0.0164233
775.087	0.0164986
775.165	0.0164564
775.243	0.0164134
775.321	0.0166006
775.399	0.0163593
775.477	0.0164344
775.556	0.0165427
775.634	0.0165401
775.712	0.0163820
775.790	0.0165394
775.868	0.0164078
775.946	0.0164746
776.024	0.0164495
776.102	0.0164863
776.181	0.0163882
776.259	0.0164417
776.337	0.0165073
776.415	0.0164521
776.493	0.0164545
776.571	0.0164198
776.649	0.0164372
776.727	0.0164148
776.806	0.0165617
776.884	0.0164091
776.962	0.0163927
777.040	0.0164413
777.118	0.0162518
777.196	0.0163942
777.274	0.0163357
777.352	0.0162745
777.431	0.0162679
777.509	0.0163505
777.587	0.0162882
777.665	0.0162802
777.743	0.0163545
777.821	0.0163013
777.899	0.0163204
777.977	0.0163433
778.056	0.0162157
778.134	0.0162918
778.212	0.0162963
778.290	0.0163940
778.368	0.0164337
778.446	0.0163071
778.524	0.0162920
778.602	0.0162542
778.681	0.0164204
778.759	0.0163541
778.837	0.0161755
778.915	0.0163613
778.993	0.0163513
779.071	0.0162473
779.149	0.0163531
779.227	0.0163564
779.306	0.0162629
779.384	0.0163856
779.462	0.0162348
779.540	0.0163132
779.618	0.0163502
779.696	0.0163325
779.774	0.0162267
779.852	0.0162429
779.931	0.0163613
780.009	0.0163013
780.087	0.0162086
780.165	0.0162582
780.243	0.0162913
780.321	0.0162143
780.399	0.0162163
780.477	0.0163257
780.556	0.0163029
780.634	0.0162184
780.712	0.0163722
780.790	0.0162162
780.868	0.0163310
780.946	0.0162424
781.024	0.0162126
781.102	0.0162527
781.181	0.0162682
781.259	0.0161649
781.337	0.0161752
781.415	0.0163062
781.493	0.0162171
781.571	0.0163107
781.649	0.0163424
781.727	0.0162967
781.806	0.0162303
781.884	0.0163777
781.962	0.0162088
782.040	0.0161621
782.118	0.0162353
782.196	0.0162118
782.274	0.0162524
782.352	0.0162424
782.431	0.0161373
782.509	0.0162581
782.587	0.0162359
782.665	0.0161174
782.743	0.0163357
782.821	0.0162147
782.899	0.0162234
782.977	0.0162422
783.056	0.0161908
783.134	0.0162711
783.212	0.0162412
783.290	0.0162462
783.368	0.0162197
783.446	0.0162839
783.524	0.0164100
783.602	0.0162927
783.681	0.0161755
783.759	0.0162460
783.837	0.0163909
783.915	0.0163551
783.993	0.0162813
784.071	0.0162817
784.149	0.0163351
784.227	0.0162745
784.306	0.0164109
784.384	0.0164054
784.462	0.0162592
784.540	0.0163361
784.618	0.0164478
784.696	0.0164727
784.774	0.0164031
784.852	0.0164925
784.931	0.0165444
785.009	0.0164413
785.087	0.0163936
785.165	0.0165323
785.243	0.0164877
785.321	0.0163801
785.399	0.0164919
785.477	0.0163689
785.556	0.0165446
785.634	0.0165386
785.712	0.0163134
785.790	0.0165134
785.868	0.0164637
785.946	0.0164672
786.024	0.0165343
786.102	0.0165575
786.181	0.0164870
786.259	0.0163467
786.337	0.0164039
786.415	0.0165073
786.493	0.0165097
786.571	0.0165518
786.649	0.0163661
786.727	0.0165138
786.806	0.0165054
786.884	0.0164706
786.962	0.0164422
787.040	0.0164077
787.118	0.0163711
787.196	0.0165423
787.274	0.0164441
787.352	0.0164493
787.431	0.0164784
787.509	0.0164439
787.587	0.0163670
787.665	0.0162831
787.743	0.0162585
787.821	0.0163847
787.899	0.0164388
787.977	0.0164793
788.056	0.0164336
788.134	0.0163026
788.212	0.0163591
788.290	0.0164916
788.368	0.0163513
788.446	0.0164767
788.524	0.0163889
788.602	0.0163554
788.681	0.0163407
788.759	0.0162742
788.837	0.0163461
788.915	0.0162421
788.993	0.0161922
789.071	0.0162426
789.149	0.0161571
789.227	0.0161574
789.306	0.0162168
789.384	0.0163451
789.462	0.0162973
789.540	0.0162534
789.618	0.0161420
789.696	0.0163432
789.774	0.0162302
789.852	0.0162697
789.931	0.0162845
790.009	0.0160625
790.087	0.0160929
790.165	0.0162898
790.243	0.0162607
790.321	0.0161539
790.399	0.0161612
790.477	0.0161963
790.556	0.0162252
790.634	0.0162646
790.712	0.0161866
790.790	0.0162491
790.868	0.0162358
790.946	0.0161572
791.024	0.0162164
791.102	0.0161245
791.181	0.0162027
791.259	0.0161756
791.337	0.0162527
791.415	0.0161589
791.493	0.0162267
791.571	0.0163279
791.649	0.0160023
791.727	0.0161347
791.806	0.0162244
791.884	0.0161346
791.962	0.0161060
792.040	0.0161890
792.118	0.0161446
792.196	0.0163164
792.274	0.0161895
792.352	0.0161684
792.431	0.0164352
792.509	0.0162904
792.587	0.0162835
792.665	0.0163311
792.743	0.0163763
792.821	0.0162009
792.899	0.0162479
792.977	0.0164645
793.056	0.0163196
793.134	0.0163110
793.212	0.0163155
793.290	0.0162988
793.368	0.0164836
793.446	0.0164421
793.524	0.0163109
793.602	0.0163573
793.681	0.0163734
793.759	0.0161922
793.837	0.0161456
793.915	0.0164301
793.993	0.0163525
794.071	0.0163708
794.149	0.0164874
794.227	0.0163559
794.306	0.0162651
794.384	0.0163283
794.462	0.0164654
794.540	0.0162750
794.618	0.0162997
794.696	0.0163306
794.774	0.0164993
794.852	0.0163942
794.931	0.0163615
795.009	0.0163970
795.087	0.0163366
795.165	0.0163228
795.243	0.0163290
795.321	0.0163609
795.399	0.0163551
795.477	0.0164210
795.556	0.0164610
795.634	0.0164022
795.712	0.0163715
795.790	0.0164070
795.868	0.0164704
795.946	0.0164455
796.024	0.0164028
796.102	0.0164657
796.181	0.0164301
796.259	0.0162584
796.337	0.0165105
796.415	0.0165714
796.493	0.0164936
796.571	0.0165541
796.649	0.0164808
796.727	0.0163824
796.806	0.0163342
796.884	0.0164970
796.962	0.0166187
797.040	0.0164448
797.118	0.0164025
797.196	0.0165983
797.274	0.0164252
797.352	0.0163699
797.431	0.0165071
797.509	0.0164342
797.587	0.0163715
797.665	0.0164172
797.743	0.0163670
797.821	0.0162644
797.899	0.0163985
797.977	0.0164095
798.056	0.0162988
798.134	0.0163213
798.212	0.0163311
798.290	0.0163852
798.368	0.0164239
798.446	0.0164587
798.524	0.0163502
798.602	0.0163172
798.681	0.0163602
798.759	0.0164626
798.837	0.0165301
798.915	0.0164002
798.993	0.0164417
799.071	0.0164056
799.149	0.0163998
799.227	0.0164165
799.306	0.0163241
799.384	0.0163142
799.462	0.0163338
799.540	0.0163970
799.618	0.0165115
799.696	0.0163380
799.774	0.0164877
799.852	0.0164627
799.931	0.0163657
800.009	0.0163094
800.087	0.0162955
800.165	0.0164619
800.243	0.0163752
800.321	0.0163658
800.399	0.0163631
800.477	0.0162946
800.556	0.0163703
800.634	0.0164622
800.712	0.0163357
800.790	0.0162815
800.868	0.0163044
800.946	0.0163737
801.024	0.0165745
801.102	0.0163557
801.181	0.0164581
801.259	0.0163264
801.337	0.0162698
801.415	0.0164425
801.493	0.0164690
801.571	0.0164221
801.649	0.0163860
801.727	0.0163673
801.806	0.0163600
801.884	0.0163477
801.962	0.0164175
802.040	0.0163783
802.118	0.0165091
802.196	0.0162785
802.274	0.0163117
802.352	0.0162807
802.431	0.0164572
802.509	0.0163075
802.587	0.0164397
802.665	0.0164073
802.743	0.0162364
802.821	0.0163219
802.899	0.0164044
802.977	0.0164315
803.056	0.0164214
803.134	0.0163569
803.212	0.0163905
803.290	0.0162861
803.368	0.0163515
803.446	0.0162914
803.524	0.0161752
803.602	0.0162006
803.681	0.0162894
803.759	0.0163873
803.837	0.0164064
803.915	0.0160950
803.993	0.0162991
804.071	0.0162333
804.149	0.0162551
804.227	0.0161843
804.306	0.0163961
804.384	0.0162843
804.462	0.0162211
804.540	0.0161608
804.618	0.0163830
804.696	0.0163628
804.774	0.0162071
804.852	0.0163178
804.931	0.0163640
805.009	0.0161536
805.087	0.0162733
805.165	0.0162445
805.243	0.0161362
805.321	0.0164086
805.399	0.0163963
805.477	0.0162573
805.556	0.0162550
805.634	0.0164140
805.712	0.0161967
805.790	0.0162977
805.868	0.0163394
805.946	0.0164103
806.024	0.0163699
806.102	0.0163188
806.181	0.0163180
806.259	0.0163770
806.337	0.0164526
806.415	0.0164302
806.493	0.0163733
806.571	0.0163385
806.649	0.0163016
806.727	0.0162389
806.806	0.0163773
806.884	0.0163930
806.962	0.0163607
807.040	0.0163057
807.118	0.0163190
807.196	0.0163830
807.274	0.0163296
807.352	0.0162834
807.431	0.0164648
807.509	0.0164377
807.587	0.0163272
807.665	0.0163635
807.743	0.0164559
807.821	0.0163477
807.899	0.0163626
807.977	0.0164356
808.056	0.0162984
808.134	0.0164574
808.212	0.0164619
808.290	0.0163927
808.368	0.0163816
808.446	0.0164324
808.524	0.0163695
808.602	0.0164928
808.681	0.0165271
808.759	0.0164586
808.837	0.0164941
808.915	0.0165430
808.993	0.0164388
809.071	0.0164725
809.149	0.0163525
809.227	0.0164484
809.306	0.0165060
809.384	0.0165238
809.462	0.0166215
809.540	0.0165421
809.618	0.0164734
809.696	0.0165717
809.774	0.0165414
809.852	0.0163995
809.931	0.0165064
810.009	0.0165903
810.087	0.0165747
810.165	0.0164793
810.243	0.0163908
810.321	0.0164777
810.399	0.0164783
810.477	0.0164764
810.556	0.0164264
810.634	0.0165734
810.712	0.0163801
810.790	0.0165366
810.868	0.0163286
810.946	0.0164871
811.024	0.0164725
811.102	0.0163599
811.181	0.0165011
811.259	0.0164635
811.337	0.0164394
811.415	0.0164976
811.493	0.0162557
811.571	0.0162016
811.649	0.0164111
811.727	0.0163377
811.806	0.0163656
811.884	0.0162585
811.962	0.0162179
812.040	0.0162078
812.118	0.0161518
812.196	0.0163808
812.274	0.0164521
812.352	0.0163148
812.431	0.0161685
812.509	0.0162067
812.587	0.0162264
812.665	0.0162311
812.743	0.0162166
812.821	0.0161963
812.899	0.0162713
812.977	0.0163508
813.056	0.0161317
813.134	0.0162171
813.212	0.0163469
813.290	0.0162266
813.368	0.0162303
813.446	0.0162199
813.524	0.0163361
813.602	0.0162695
813.681	0.0162175
813.759	0.0161965
813.837	0.0162339
813.915	0.0161796
813.993	0.0162730
814.071	0.0162601
814.149	0.0163271
814.227	0.0161810
814.306	0.0161970
814.384	0.0162080
814.462	0.0162220
814.540	0.0162352
814.618	0.0163715
814.696	0.0162252
814.774	0.0162003
814.852	0.0163140
814.931	0.0162644
815.009	0.0162226
815.087	0.0160950
815.165	0.0162304
815.243	0.0162196
815.321	0.0162933
815.399	0.0161744
815.477	0.0161459
815.556	0.0160914
815.634	0.0162231
815.712	0.0163013
815.790	0.0162283
815.868	0.0161791
815.946	0.0161775
816.024	0.0163291
816.102	0.0161829
816.181	0.0162553
816.259	0.0162975
816.337	0.0162229
816.415	0.0162072
816.493	0.0163441
816.571	0.0164906
816.649	0.0162122
816.727	0.0162421
816.806	0.0162459
816.884	0.0162408
816.962	0.0162687
817.040	0.0163342
817.118	0.0163556
817.196	0.0163650
817.274	0.0162221
817.352	0.0162522
817.431	0.0163691
817.509	0.0162381
817.587	0.0164079
817.665	0.0165726
817.743	0.0164946
817.821	0.0164487
817.899	0.0164279
817.977	0.0165800
818.056	0.0164067
818.134	0.0165404
818.212	0.0164721
818.290	0.0164281
818.368	0.0163612
818.446	0.0164556
818.524	0.0163702
818.602	0.0164986
818.681	0.0164972
818.759	0.0165178
818.837	0.0164697
818.915	0.0165072
818.993	0.0165143
819.071	0.0164015
819.149	0.0164929
819.227	0.0165191
819.306	0.0164727
819.384	0.0165214
819.462	0.0164811
819.540	0.0163970
819.618	0.0162641
819.696	0.0163172
819.774	0.0164054
819.852	0.0164708
819.931	0.0163660
820.009	0.0162914
820.087	0.0163783
820.165	0.0164061
820.243	0.0163583
820.321	0.0163199
820.399	0.0163996
820.477	0.0163120
820.556	0.0164497
820.634	0.0164145
820.712	0.0163883
820.790	0.0162873
820.868	0.0163116
820.946	0.0163468
821.024	0.0162401
821.102	0.0163461
821.181	0.0163769
821.259	0.0164966
821.337	0.0162401
821.415	0.0163931
821.493	0.0163857
821.571	0.0164129
821.649	0.0164518
821.727	0.0163110
821.806	0.0163034
821.884	0.0163226
821.962	0.0163368
822.040	0.0164849
822.118	0.0164351
822.196	0.0163145
822.274	0.0164697
822.352	0.0163821
822.431	0.0163168
822.509	0.0163125
822.587	0.0164352
822.665	0.0164510
822.743	0.0163794
822.821	0.0163938
822.899	0.0164436
822.977	0.0162621
823.056	0.0162137
823.134	0.0162526
823.212	0.0163059
823.290	0.0163573
823.368	0.0163087
823.446	0.0163108
823.524	0.0162615
823.602	0.0162791
823.681	0.0162768
823.759	0.0163796
823.837	0.0161968
823.915	0.0163471
823.993	0.0163116
824.071	0.0161581
824.149	0.0162159
824.227	0.0163264
824.306	0.0163972
824.384	0.0162875
824.462	0.0162770
824.540	0.0161946
824.618	0.0163202
824.696	0.0161724
824.774	0.0163120
824.852	0.0163224
824.931	0.0162644
825.009	0.0163777
825.087	0.0161992
825.165	0.0163551
825.243	0.0164279
825.321	0.0164288
825.399	0.0162503
825.477	0.0162366
825.556	0.0162476
825.634	0.0162788
825.712	0.0161533
825.790	0.0163026
825.868	0.0162060
825.946	0.0162944
826.024	0.0163961
826.102	0.0161657
826.181	0.0162572
826.259	0.0162672
826.337	0.0161456
826.415	0.0164440
826.493	0.0161830
826.571	0.0162563
826.649	0.0163578
826.727	0.0164044
826.806	0.0162313
826.884	0.0162305
826.962	0.0164610
827.040	0.0164578
827.118	0.0164262
827.196	0.0165197
827.274	0.0163908
827.352	0.0165432
827.431	0.0164407
827.509	0.0164919
827.587	0.0165333
827.665	0.0164579
827.743	0.0163592
827.821	0.0165304
827.899	0.0165646
827.977	0.0163941
828.056	0.0165111
828.134	0.0166727
828.212	0.0165252
828.290	0.0166519
828.368	0.0165450
828.446	0.0166174
828.524	0.0166573
828.602	0.0166176
828.681	0.0166677
828.759	0.0164622
828.837	0.0165498
828.915	0.0166730
828.993	0.0164362
829.071	0.0165397
829.149	0.0165122
829.227	0.0164394
829.306	0.0165246
829.384	0.0165183
829.462	0.0163162
829.540	0.0163709
829.618	0.0163586
829.696	0.0162560
829.774	0.0162733
829.852	0.0164423
829.931	0.0165006
830.009	0.0162902
830.087	0.0162888
830.165	0.0162543
830.243	0.0163458
830.321	0.0163206
830.399	0.0163960
830.477	0.0163145
830.556	0.0164441
830.634	0.0163884
830.712	0.0163467
830.790	0.0165740
830.868	0.0164348
830.946	0.0163847
831.024	0.0164503
831.102	0.0164973
831.181	0.0164253
831.259	0.0163778
831.337	0.0164545
831.415	0.0164584
831.493	0.0164418
831.571	0.0165157
831.649	0.0163122
831.727	0.0164188
831.806	0.0163721
831.884	0.0163589
831.962	0.0163754
832.040	0.0162820
832.118	0.0163796
832.196	0.0164581
832.274	0.0165065
832.352	0.0164902
832.431	0.0164555
832.509	0.0164995
832.587	0.0163813
832.665	0.0164063
832.743	0.0162975
832.821	0.0163359
832.899	0.0162160
832.977	0.0162551
833.056	0.0162471
833.134	0.0162514
833.212	0.0162542
833.290	0.0163036
833.368	0.0162479
833.446	0.0161421
833.524	0.0162852
833.602	0.0162439
833.681	0.0162538
833.759	0.0162807
833.837	0.0162227
833.915	0.0161691
833.993	0.0162012
834.071	0.0162286
834.149	0.0163745
834.227	0.0160800
834.306	0.0160751
834.384	0.0162011
834.462	0.0162607
834.540	0.0162843
834.618	0.0162049
834.696	0.0161687
834.774	0.0162920
834.852	0.0162103
834.931	0.0162522
835.009	0.0162855
835.087	0.0163156
835.165	0.0162869
835.243	0.0162495
835.321	0.0162729
835.399	0.0162578
835.477	0.0161830
835.556	0.0163209
835.634	0.0161876
835.712	0.0162749
835.790	0.0161100
835.868	0.0162206
835.946	0.0163119
836.024	0.0164295
836.102	0.0162889
836.181	0.0162254
836.259	0.0163711
836.337	0.0163035
836.415	0.0163117
836.493	0.0162530
836.571	0.0162569
836.649	0.0162082
836.727	0.0162830
836.806	0.0162038
836.884	0.0162157
836.962	0.0162705
837.040	0.0161663
837.118	0.0162505
837.196	0.0162897
837.274	0.0163117
837.352	0.0162620
837.431	0.0162550
837.509	0.0162583
837.587	0.0162852
837.665	0.0162560
837.743	0.0164014
837.821	0.0163463
837.899	0.0162281
837.977	0.0162544
838.056	0.0162501
838.134	0.0162724
838.212	0.0161852
838.290	0.0163059
838.368	0.0163712
838.446	0.0162410
838.524	0.0161452
838.602	0.0161956
838.681	0.0162841
838.759	0.0162585
838.837	0.0161728
838.915	0.0161891
838.993	0.0163013
839.071	0.0161861
839.149	0.0162420
839.227	0.0164182
839.306	0.0163239
839.384	0.0163391
839.462	0.0163731
839.540	0.0163870
839.618	0.0163615
839.696	0.0161028
839.774	0.0164114
839.852	0.0163523
839.931	0.0164053
840.009	0.0163084
840.087	0.0163149
840.165	0.0163449
840.243	0.0164159
840.321	0.0162845
840.399	0.0163712
840.477	0.0163382
840.556	0.0162621
840.634	0.0163171
840.712	0.0163172
840.790	0.0162019
840.868	0.0162306
840.946	0.0162405
841.024	0.0162241
841.102	0.0161279
841.181	0.0162579
841.259	0.0162480
841.337	0.0162757
841.415	0.0163193
841.493	0.0162279
841.571	0.0163271
841.649	0.0162878
841.727	0.0163348
841.806	0.0163391
841.884	0.0163479
841.962	0.0162566
842.040	0.0165018
842.118	0.0165408
842.196	0.0165434
842.274	0.0164830
842.352	0.0164267
842.431	0.0165325
842.509	0.0165853
842.587	0.0165475
842.665	0.0165573
842.743	0.0166750
842.821	0.0165034
842.899	0.0165511
842.977	0.0165527
843.056	0.0164680
843.134	0.0166045
843.212	0.0166213
843.290	0.0166962
843.368	0.0166912
843.446	0.0166375
843.524	0.0166927
843.602	0.0165018
843.681	0.0164427
843.759	0.0167124
843.837	0.0166358
843.915	0.0167680
843.993	0.0166608
844.071	0.0166434
844.149	0.0166424
844.227	0.0165052
844.306	0.0166709
844.384	0.0165787
844.462	0.0167117
844.540	0.0166725
844.618	0.0165011
844.696	0.0165440
844.774	0.0164111
844.852	0.0164412
844.931	0.0166372
845.009	0.0164485
845.087	0.0164065
845.165	0.0166149
845.243	0.0163777
845.321	0.0163855
845.399	0.0164294
845.477	0.0164085
845.556	0.0164384
845.634	0.0164167
845.712	0.0164601
845.790	0.0162717
845.868	0.0163142
845.946	0.0163095
846.024	0.0163167
846.102	0.0163680
846.181	0.0163153
846.259	0.0162794
846.337	0.0161870
846.415	0.0162175
846.493	0.0162026
846.571	0.0162225
846.649	0.0160085
846.727	0.0160292
846.806	0.0160931
846.884	0.0162400
846.962	0.0160654
847.040	0.0162349
847.118	0.0162704
847.196	0.0161793
847.274	0.0162273
847.352	0.0163030
847.431	0.0161645
847.509	0.0162651
847.587	0.0164067
847.665	0.0160439
847.743	0.0163280
847.821	0.0162643
847.899	0.0161959
847.977	0.0163341
848.056	0.0161591
848.134	0.0162012
848.212	0.0163671
848.290	0.0164606
848.368	0.0163081
848.446	0.0162415
848.524	0.0162976
848.602	0.0163099
848.681	0.0162606
848.759	0.0164516
848.837	0.0163060
848.915	0.0162868
848.993	0.0162975
849.071	0.0162794
849.149	0.0162933
849.227	0.0163293
849.306	0.0162695
849.384	0.0162539
849.462	0.0163633
849.540	0.0163473
849.618	0.0163001
849.696	0.0163271
849.774	0.0163899
849.852	0.0161916
849.931	0.0163350
850.009	0.0163042
850.087	0.0161745
850.165	0.0163028
850.243	0.0164140
850.321	0.0164032
850.399	0.0163886
850.477	0.0162730
850.556	0.0163860
850.634	0.0164355
850.712	0.0163653
850.790	0.0163768
850.868	0.0164760
850.946	0.0164566
851.024	0.0164319
851.102	0.0164416
851.181	0.0163819
851.259	0.0163580
851.337	0.0165434
851.415	0.0165173
851.493	0.0165603
851.571	0.0164307
851.649	0.0164301
851.727	0.0165024
851.806	0.0166152
851.884	0.0164639
851.962	0.0165077
852.040	0.0165015
852.118	0.0164077
852.196	0.0164295
852.274	0.0165381
852.352	0.0165566
852.431	0.0164277
852.509	0.0164415
852.587	0.0164914
852.665	0.0165064
852.743	0.0164508
852.821	0.0163692
852.899	0.0166661
852.977	0.0165793
853.056	0.0164288
853.134	0.0165101
853.212	0.0163968
853.290	0.0163087
853.368	0.0164549
853.446	0.0165253
853.524	0.0164625
853.602	0.0163942
853.681	0.0165155
853.759	0.0163810
853.837	0.0165083
853.915	0.0164079
853.993	0.0163885
854.071	0.0163987
854.149	0.0163367
854.227	0.0162695
854.306	0.0164462
854.384	0.0163552
854.462	0.0164757
854.540	0.0162802
854.618	0.0162875
854.696	0.0164052
854.774	0.0162920
854.852	0.0164050
854.931	0.0164240
855.009	0.0163743
855.087	0.0164250
855.165	0.0163888
855.243	0.0164015
855.321	0.0164152
855.399	0.0164192
855.477	0.0163946
855.556	0.0164784
855.634	0.0163894
855.712	0.0163265
855.790	0.0163026
855.868	0.0163339
855.946	0.0163531
856.024	0.0163696
856.102	0.0161782
856.181	0.0163976
856.259	0.0163850
856.337	0.0163017
856.415	0.0162252
856.493	0.0162256
856.571	0.0162384
856.649	0.0163844
856.727	0.0162241
856.806	0.0162632
856.884	0.0164298
856.962	0.0161964
857.040	0.0163093
857.118	0.0163400
857.196	0.0165311
857.274	0.0164485
857.352	0.0165375
857.431	0.0163522
857.509	0.0163123
857.587	0.0163559
857.665	0.0163657
857.743	0.0162380
857.821	0.0163927
857.899	0.0164115
857.977	0.0165063
858.056	0.0164310
858.134	0.0164181
858.212	0.0164150
858.290	0.0163432
858.368	0.0162777
858.446	0.0163486
858.524	0.0163615
858.602	0.0164276
858.681	0.0163484
858.759	0.0163496
858.837	0.0163174
858.915	0.0163493
858.993	0.0162781
859.071	0.0163099
859.149	0.0162491
859.227	0.0162204
859.306	0.0162801
859.384	0.0162864
859.462	0.0161988
859.540	0.0162093
859.618	0.0161106
859.696	0.0162772
859.774	0.0162016
859.852	0.0161275
859.931	0.0162397
860.009	0.0162400
860.087	0.0162555
860.165	0.0160032
860.243	0.0161088
860.321	0.0161145
860.399	0.0161798
860.477	0.0162089
860.556	0.0162468
860.634	0.0160973
860.712	0.0161913
860.790	0.0162057
860.868	0.0160986
860.946	0.0162526
861.024	0.0163361
861.102	0.0163897
861.181	0.0161864
861.259	0.0162971
861.337	0.0162682
861.415	0.0162495
861.493	0.0163776
861.571	0.0163862
861.649	0.0164616
861.727	0.0163218
861.806	0.0164629
861.884	0.0165611
861.962	0.0165208
862.040	0.0164745
862.118	0.0164371
862.196	0.0165582
862.274	0.0164248
862.352	0.0163526
862.431	0.0164556
862.509	0.0164182
862.587	0.0165195
862.665	0.0165327
862.743	0.0164338
862.821	0.0163959
862.899	0.0165171
862.977	0.0163625
863.056	0.0164444
863.134	0.0164265
863.212	0.0163831
863.290	0.0164938
863.368	0.0163811
863.446	0.0162488
863.524	0.0164123
863.602	0.0164465
863.681	0.0164356
863.759	0.0162882
863.837	0.0161973
863.915	0.0163013
863.993	0.0163529
864.071	0.0163754
864.149	0.0163978
864.227	0.0162693
864.306	0.0163020
864.384	0.0162955
864.462	0.0164428
864.540	0.0163610
864.618	0.0163667
864.696	0.0164120
864.774	0.0162240
864.852	0.0163056
864.931	0.0164005
865.009	0.0163379
865.087	0.0162637
865.165	0.0163724
865.243	0.0164030
865.321	0.0163628
865.399	0.0165105
865.477	0.0163571
865.556	0.0164959
865.634	0.0163291
865.712	0.0163197
865.790	0.0164123
865.868	0.0164601
865.946	0.0163787
866.024	0.0165865
866.102	0.0163943
866.181	0.0164451
866.259	0.0163889
866.337	0.0165601
866.415	0.0163795
866.493	0.0163065
866.571	0.0163982
866.649	0.0163614
866.727	0.0163547
866.806	0.0163918
866.884	0.0163420
866.962	0.0162502
867.040	0.0163992
867.118	0.0163269
867.196	0.0164086
867.274	0.0164365
867.352	0.0165273
867.431	0.0163731
867.509	0.0163741
867.587	0.0163739
867.665	0.0162633
867.743	0.0164476
867.821	0.0164774
867.899	0.0164497
867.977	0.0164109
868.056	0.0163858
868.134	0.0163361
868.212	0.0164996
868.290	0.0162507
868.368	0.0163670
868.446	0.0162798
868.524	0.0163838
868.602	0.0163683
868.681	0.0163448
868.759	0.0163124
868.837	0.0161919
868.915	0.0161449
868.993	0.0162930
869.071	0.0163717
869.149	0.0162128
869.227	0.0163251
869.306	0.0161484
869.384	0.0162594
869.462	0.0163200
869.540	0.0162677
869.618	0.0162543
869.696	0.0162149
869.774	0.0163208
869.852	0.0162798
869.931	0.0162516
870.009	0.0163034
870.087	0.0163435
870.165	0.0164153
870.243	0.0162473
870.321	0.0161440
870.399	0.0163832
870.477	0.0162127
870.556	0.0163328
870.634	0.0162727
870.712	0.0162346
870.790	0.0162093
870.868	0.0162872
870.946	0.0164121
871.024	0.0162724
871.102	0.0164325
871.181	0.0162667
871.259	0.0163248
871.337	0.0162546
871.415	0.0162093
871.493	0.0163224
871.571	0.0163689
871.649	0.0163000
871.727	0.0163607
871.806	0.0162752
871.884	0.0164072
871.962	0.0163358
872.040	0.0163596
872.118	0.0164179
872.196	0.0164376
872.274	0.0164217
872.352	0.0164252
872.431	0.0164463
872.509	0.0164194
872.587	0.0165165
872.665	0.0165282
872.743	0.0164523
872.821	0.0163298
872.899	0.0164840
872.977	0.0164678
873.056	0.0163956
873.134	0.0165453
873.212	0.0164911
873.290	0.0165652
873.368	0.0165479
873.446	0.0165057
873.524	0.0165474
873.602	0.0164503
873.681	0.0165467
873.759	0.0164536
873.837	0.0164611
873.915	0.0164722
873.993	0.0165889
874.071	0.0165387
874.149	0.0165181
874.227	0.0166043
874.306	0.0165059
874.384	0.0164737
874.462	0.0164884
874.540	0.0165003
874.618	0.0165408
874.696	0.0165453
874.774	0.0163794
874.852	0.0165429
874.931	0.0164131
875.009	0.0162744
875.087	0.0162765
875.165	0.0164429
875.243	0.0164301
875.321	0.0165199
875.399	0.0165382
875.477	0.0163649
875.556	0.0164587
875.634	0.0164563
875.712	0.0164888
875.790	0.0165465
875.868	0.0165009
875.946	0.0163689
876.024	0.0163253
876.102	0.0163135
876.181	0.0162638
876.259	0.0162822
876.337	0.0163351
876.415	0.0161594
876.493	0.0163213
876.571	0.0163287
876.649	0.0162029
876.727	0.0162428
876.806	0.0163399
876.884	0.0163242
876.962	0.0163313
877.040	0.0162080
877.118	0.0161665
877.196	0.0161245
877.274	0.0162164
877.352	0.0161178
877.431	0.0161913
877.509	0.0163496
877.587	0.0162514
877.665	0.0162553
877.743	0.0162458
877.821	0.0163100
877.899	0.0161922
877.977	0.0162723
878.056	0.0162417
878.134	0.0160821
878.212	0.0162891
878.290	0.0164324
878.368	0.0162442
878.446	0.0161195
878.524	0.0162342
878.602	0.0162786
878.681	0.0163674
878.759	0.0163315
878.837	0.0164368
878.915	0.0162390
878.993	0.0163653
879.071	0.0163108
879.149	0.0163772
879.227	0.0161966
879.306	0.0164068
879.384	0.0162763
879.462	0.0162055
879.540	0.0163637
879.618	0.0163472
879.696	0.0163927
879.774	0.0163148
879.852	0.0163695
879.931	0.0163625
880.009	0.0163968
880.087	0.0163960
880.165	0.0162885
880.243	0.0162806
880.321	0.0163825
880.399	0.0162572
880.477	0.0162019
880.556	0.0163141
880.634	0.0163385
880.712	0.0162440
880.790	0.0163641
880.868	0.0163582
880.946	0.0162182
881.024	0.0163504
881.102	0.0162984
881.181	0.0162289
881.259	0.0164951
881.337	0.0163952
881.415	0.0163609
881.493	0.0163350
881.571	0.0163416
881.649	0.0164958
881.727	0.0162610
881.806	0.0162920
881.884	0.0164145
881.962	0.0164152
882.040	0.0162652
882.118	0.0162262
882.196	0.0163835
882.274	0.0164436
882.352	0.0163841
882.431	0.0164243
882.509	0.0164280
882.587	0.0165285
882.665	0.0163662
882.743	0.0163306
882.821	0.0164823
882.899	0.0164223
882.977	0.0162111
883.056	0.0164609
883.134	0.0165368
883.212	0.0163638
883.290	0.0163586
883.368	0.0164223
883.446	0.0163552
883.524	0.0164227
883.602	0.0165504
883.681	0.0161325
883.759	0.0162818
883.837	0.0163978
883.915	0.0163950
883.993	0.0164276
884.071	0.0165168
884.149	0.0163789
884.227	0.0164708
884.306	0.0164357
884.384	0.0164613
884.462	0.0164268
884.540	0.0163616
884.618	0.0164750
884.696	0.0163558
884.774	0.0165083
884.852	0.0164139
884.931	0.0162595
885.009	0.0164325
885.087	0.0164173
885.165	0.0163338
885.243	0.0164021
885.321	0.0164467
885.399	0.0163587
885.477	0.0164018
885.556	0.0165126
885.634	0.0163649
885.712	0.0163233
885.790	0.0164977
885.868	0.0163963
885.946	0.0163623
886.024	0.0164005
886.102	0.0163217
886.181	0.0163734
886.259	0.0164070
886.337	0.0164494
886.415	0.0164337
886.493	0.0164167
886.571	0.0163836
886.649	0.0164054
886.727	0.0164835
886.806	0.0164483
886.884	0.0164794
886.962	0.0164062
887.040	0.0163303
887.118	0.0165103
887.196	0.0165558
887.274	0.0165130
887.352	0.0165471
887.431	0.0164899
887.509	0.0165984
887.587	0.0164806
887.665	0.0164536
887.743	0.0165205
887.821	0.0164898
887.899	0.0165291
887.977	0.0163105
888.056	0.0163873
888.134	0.0164158
888.212	0.0164180
888.290	0.0165616
888.368	0.0163168
888.446	0.0164819
888.524	0.0163453
888.602	0.0164416
888.681	0.0163558
888.759	0.0164303
888.837	0.0163010
888.915	0.0163419
888.993	0.0162258
889.071	0.0162611
889.149	0.0162418
889.227	0.0162236
889.306	0.0161938
889.384	0.0161839
889.462	0.0162851
889.540	0.0162859
889.618	0.0162437
889.696	0.0161604
889.774	0.0163264
889.852	0.0164030
889.931	0.0161535
890.009	0.0162836
890.087	0.0163143
890.165	0.0164805
890.243	0.0163626
890.321	0.0164644
890.399	0.0164518
890.477	0.0164389
890.556	0.0165218
890.634	0.0164558
890.712	0.0164381
890.790	0.0163176
890.868	0.0164452
890.946	0.0164416
891.024	0.0163547
891.102	0.0164889
891.181	0.0163390
891.259	0.0162854
891.337	0.0164407
891.415	0.0163783
891.493	0.0162679
891.571	0.0164066
891.649	0.0163964
891.727	0.0163737
891.806	0.0163724
891.884	0.0163517
891.962	0.0165114
892.040	0.0162873
892.118	0.0163442
892.196	0.0162617
892.274	0.0163042
892.352	0.0163972
892.431	0.0163956
892.509	0.0164041
892.587	0.0163140
892.665	0.0163586
892.743	0.0162457
892.821	0.0164180
892.899	0.0162399
892.977	0.0162650
893.056	0.0163210
893.134	0.0163051
893.212	0.0162943
893.290	0.0162375
893.368	0.0164291
893.446	0.0162803
893.524	0.0164088
893.602	0.0163440
893.681	0.0163467
893.759	0.0163370
893.837	0.0162041
893.915	0.0161925
893.993	0.0162788
894.071	0.0163268
894.149	0.0162586
894.227	0.0162759
894.306	0.0163504
894.384	0.0162414
894.462	0.0163259
894.540	0.0162565
894.618	0.0163114
894.696	0.0163572
894.774	0.0162871
894.852	0.0163648
894.931	0.0163068
895.009	0.0162018
895.087	0.0162042
895.165	0.0162784
895.243	0.0163170
895.321	0.0162306
895.399	0.0163416
895.477	0.0164192
895.556	0.0162621
895.634	0.0163110
895.712	0.0161715
895.790	0.0164095
895.868	0.0163308
895.946	0.0162505
896.024	0.0162324
896.102	0.0163880
896.181	0.0163953
896.259	0.0163103
896.337	0.0162981
896.415	0.0162145
896.493	0.0163947
896.571	0.0163087
896.649	0.0163444
896.727	0.0162922
896.806	0.0163674
896.884	0.0164052
896.962	0.0163089
897.040	0.0163128
897.118	0.0163059
897.196	0.0164806
897.274	0.0165081
897.352	0.0163630
897.431	0.0163931
897.509	0.0164254
897.587	0.0164125
897.665	0.0164836
897.743	0.0164822
897.821	0.0163813
897.899	0.0165063
897.977	0.0164425
898.056	0.0164742
898.134	0.0163390
898.212	0.0164730
898.290	0.0164773
898.368	0.0164976
898.446	0.0165962
898.524	0.0165308
898.602	0.0164154
898.681	0.0164394
898.759	0.0164597
898.837	0.0164088
898.915	0.0165324
898.993	0.0165078
899.071	0.0162568
899.149	0.0165127
899.227	0.0165154
899.306	0.0165128
899.384	0.0164427
899.462	0.0164143
899.540	0.0163979
899.618	0.0163358
899.696	0.0164429
899.774	0.0164635
899.852	0.0165079
899.931	0.0162728
900.009	0.0162305
900.087	0.0163626
900.165	0.0163593
900.243	0.0163050
900.321	0.0164053
900.399	0.0162905
900.477	0.0162926
900.556	0.0163356
900.634	0.0163520
900.712	0.0161894
900.790	0.0164462
900.868	0.0164328
900.946	0.0162349
901.024	0.0163795
901.102	0.0162280
901.181	0.0162517
901.259	0.0164035
901.337	0.0163459
901.415	0.0165294
901.493	0.0162138
901.571	0.0163199
901.649	0.0164505
901.727	0.0164761
901.806	0.0164532
901.884	0.0163374
901.962	0.0163234
902.040	0.0163222
902.118	0.0163567
902.196	0.0163275
902.274	0.0163842
902.352	0.0163534
902.431	0.0165219
902.509	0.0163327
902.587	0.0163591
902.665	0.0164143
902.743	0.0164194
902.821	0.0164198
902.899	0.0163708
902.977	0.0162069
903.056	0.0162441
903.134	0.0164329
903.212	0.0163485
903.290	0.0164181
903.368	0.0163563
903.446	0.0164497
903.524	0.0163147
903.602	0.0163025
903.681	0.0163120
903.759	0.0163174
903.837	0.0163354
903.915	0.0164116
903.993	0.0162461
904.071	0.0162347
904.149	0.0163303
904.227	0.0163753
904.306	0.0164326
904.384	0.0162769
904.462	0.0163775
904.540	0.0164100
904.618	0.0163362
904.696	0.0162438
904.774	0.0162946
904.852	0.0162740
904.931	0.0164400
905.009	0.0163537
905.087	0.0162786
905.165	0.0163172
905.243	0.0162666
905.321	0.0162650
905.399	0.0163727
905.477	0.0162988
905.556	0.0161998
905.634	0.0161997
905.712	0.0163328
905.790	0.0162887
905.868	0.0162981
905.946	0.0163447
906.024	0.0163457
906.102	0.0163171
906.181	0.0162901
906.259	0.0163662
906.337	0.0162055
906.415	0.0161350
906.493	0.0162780
906.571	0.0163612
906.649	0.0162109
906.727	0.0162396
906.806	0.0162122
906.884	0.0161723
906.962	0.0161439
907.040	0.0161386
907.118	0.0162169
907.196	0.0162076
907.274	0.0161948
907.352	0.0161874
907.431	0.0162462
907.509	0.0161114
907.587	0.0162113
907.665	0.0162993
907.743	0.0163229
907.821	0.0162332
907.899	0.0161964
907.977	0.0162424
908.056	0.0163712
908.134	0.0163600
908.212	0.0163925
908.290	0.0162350
908.368	0.0163630
908.446	0.0162909
908.524	0.0163553
908.602	0.0163636
908.681	0.0163108
908.759	0.0161990
908.837	0.0163501
908.915	0.0163367
908.993	0.0163052
909.071	0.0162829
909.149	0.0164961
909.227	0.0163755
909.306	0.0164050
909.384	0.0164377
909.462	0.0164224
909.540	0.0164647
909.618	0.0164086
909.696	0.0164352
909.774	0.0163591
909.852	0.0164504
909.931	0.0164424
910.009	0.0164490
910.087	0.0164016
910.165	0.0163844
910.243	0.0164303
910.321	0.0164147
910.399	0.0164017
910.477	0.0163279
910.556	0.0164284
910.634	0.0165680
910.712	0.0162329
910.790	0.0164134
910.868	0.0164019
910.946	0.0162842
911.024	0.0163148
911.102	0.0163843
911.181	0.0164761
911.259	0.0162113
911.337	0.0162654
911.415	0.0162144
911.493	0.0163313
911.571	0.0163889
911.649	0.0163576
911.727	0.0164174
911.806	0.0163940
911.884	0.0163242
911.962	0.0164391
912.040	0.0163659
912.118	0.0163635
912.196	0.0163563
912.274	0.0164610
912.352	0.0164277
912.431	0.0162263
912.509	0.0164455
912.587	0.0165112
912.665	0.0162641
912.743	0.0163805
912.821	0.0162642
912.899	0.0163165
912.977	0.0163443
913.056	0.0163406
913.134	0.0162297
913.212	0.0161759
913.290	0.0162679
913.368	0.0161701
913.446	0.0162426
913.524	0.0163022
913.602	0.0162497
913.681	0.0162788
913.759	0.0163491
913.837	0.0163754
913.915	0.0162551
913.993	0.0162370
914.071	0.0161831
914.149	0.0161969
914.227	0.0161859
914.306	0.0163538
914.384	0.0162930
914.462	0.0162488
914.540	0.0162074
914.618	0.0162856
914.696	0.0163004
914.774	0.0163519
914.852	0.0162942
914.931	0.0163448
915.009	0.0162672
915.087	0.0162832
915.165	0.0162981
915.243	0.0163744
915.321	0.0162449
915.399	0.0162914
915.477	0.0162620
915.556	0.0162671
915.634	0.0163397
915.712	0.0163788
915.790	0.0162107
915.868	0.0164176
915.946	0.0161918
916.024	0.0164296
916.102	0.0163010
916.181	0.0162182
916.259	0.0162849
916.337	0.0162016
916.415	0.0163089
916.493	0.0163351
916.571	0.0162358
916.649	0.0162491
916.727	0.0162010
916.806	0.0161373
916.884	0.0161821
916.962	0.0163337
917.040	0.0162566
917.118	0.0162994
917.196	0.0161617
917.274	0.0161488
917.352	0.0161516
917.431	0.0164182
917.509	0.0164201
917.587	0.0161752
917.665	0.0162801
917.743	0.0164226
917.821	0.0163106
917.899	0.0163708
917.977	0.0162725
918.056	0.0163257
918.134	0.0162313
918.212	0.0163371
918.290	0.0162916
918.368	0.0163591
918.446	0.0163443
918.524	0.0162933
918.602	0.0164276
918.681	0.0162633
918.759	0.0164127
918.837	0.0164082
918.915	0.0163636
918.993	0.0161998
919.071	0.0163885
919.149	0.0163931
919.227	0.0163219
919.306	0.0162952
919.384	0.0162676
919.462	0.0163701
919.540	0.0164342
919.618	0.0162921
919.696	0.0162769
919.774	0.0163196
919.852	0.0162429
919.931	0.0161928
920.009	0.0162624
920.087	0.0162204
920.165	0.0162099
920.243	0.0161671
920.321	0.0162495
920.399	0.0162343
920.477	0.0162885
920.556	0.0162595
920.634	0.0161657
920.712	0.0161363
920.790	0.0161127
920.868	0.0162077
920.946	0.0162393
921.024	0.0162617
921.102	0.0162567
921.181	0.0162187
921.259	0.0161319
921.337	0.0161839
921.415	0.0162393
921.493	0.0161943
921.571	0.0162531
921.649	0.0162562
921.727	0.0163831
921.806	0.0161915
921.884	0.0164101
921.962	0.0164028
922.040	0.0162584
922.118	0.0163455
922.196	0.0162830
922.274	0.0162180
922.352	0.0162712
922.431	0.0163824
922.509	0.0164466
922.587	0.0163722
922.665	0.0163559
922.743	0.0163670
922.821	0.0163495
922.899	0.0164038
922.977	0.0164269
923.056	0.0164642
923.134	0.0165685
923.212	0.0164980
923.290	0.0164508
923.368	0.0164661
923.446	0.0164783
923.524	0.0164526
923.602	0.0163646
923.681	0.0164668
923.759	0.0163726
923.837	0.0164088
923.915	0.0165395
923.993	0.0164897
924.071	0.0163715
924.149	0.0164725
924.227	0.0164443
924.306	0.0163529
924.384	0.0164029
924.462	0.0164330
924.540	0.0163831
924.618	0.0165555
924.696	0.0164048
924.774	0.0162920
924.852	0.0162780
924.931	0.0162803
925.009	0.0162325
925.087	0.0163551
925.165	0.0163445
925.243	0.0163445
925.321	0.0163779
925.399	0.0163700
925.477	0.0163178
925.556	0.0163128
925.634	0.0162637
925.712	0.0163103
925.790	0.0163641
925.868	0.0163629
925.946	0.0163212
926.024	0.0163361
926.102	0.0163648
926.181	0.0163568
926.259	0.0163225
926.337	0.0162756
926.415	0.0162007
926.493	0.0161066
926.571	0.0164196
926.649	0.0163787
926.727	0.0162708
926.806	0.0163354
926.884	0.0162216
926.962	0.0163853
927.040	0.0163840
927.118	0.0162776
927.196	0.0164185
927.274	0.0163255
927.352	0.0163686
927.431	0.0162450
927.509	0.0163323
927.587	0.0162328
927.665	0.0162749
927.743	0.0162399
927.821	0.0163294
927.899	0.0164227
927.977	0.0162801
928.056	0.0163061
928.134	0.0161752
928.212	0.0162557
928.290	0.0161582
928.368	0.0162792
928.446	0.0161260
928.524	0.0161868
928.602	0.0162662
928.681	0.0161794
928.759	0.0163403
928.837	0.0161079
928.915	0.0160976
928.993	0.0162260
929.071	0.0162435
929.149	0.0162656
929.227	0.0162973
929.306	0.0161882
929.384	0.0163284
929.462	0.0161805
929.540	0.0162428
929.618	0.0162099
929.696	0.0161722
929.774	0.0160793
929.852	0.0161858
929.931	0.0162396
