05/19/2022	01:10:49	Ver.	4.1	UNKNOWN
Optical Delay	610.008675	Delta X		0.078125	Sweeps	1	Scan Rate	0/0
Coordinates	Axis 1	NaN	Axis 2	NaN	Axis 3	NaN	Axis 4	NaN	Axis 5	NaN	Axis 6	0.000000
TX Power	0.000000	RX Power	0.000000

610.009	0.0164891
610.087	0.0163848
610.165	0.0163942
610.243	0.0165211
610.321	0.0164699
610.399	0.0163596
610.477	0.0165166
610.556	0.0163919
610.634	0.0162512
610.712	0.0164727
610.790	0.0163300
610.868	0.0162804
610.946	0.0164279
611.024	0.0163950
611.102	0.0163359
611.181	0.0163609
611.259	0.0162769
611.337	0.0163498
611.415	0.0163440
611.493	0.0164074
611.571	0.0163597
611.649	0.0163424
611.727	0.0163687
611.806	0.0163465
611.884	0.0163951
611.962	0.0162463
612.040	0.0162877
612.118	0.0163268
612.196	0.0162798
612.274	0.0164153
612.352	0.0163107
612.431	0.0162914
612.509	0.0162629
612.587	0.0163338
612.665	0.0164196
612.743	0.0163552
612.821	0.0163643
612.899	0.0163226
612.977	0.0163670
613.056	0.0163927
613.134	0.0163654
613.212	0.0164840
613.290	0.0165089
613.368	0.0164912
613.446	0.0163152
613.524	0.0164052
613.602	0.0163718
613.681	0.0163048
613.759	0.0163492
613.837	0.0164692
613.915	0.0165045
613.993	0.0163531
614.071	0.0164227
614.149	0.0163783
614.227	0.0163759
614.306	0.0162868
614.384	0.0163881
614.462	0.0163527
614.540	0.0163169
614.618	0.0163914
614.696	0.0163544
614.774	0.0164360
614.852	0.0163976
614.931	0.0162614
615.009	0.0163467
615.087	0.0164410
615.165	0.0163139
615.243	0.0162339
615.321	0.0164445
615.399	0.0163059
615.477	0.0161585
615.556	0.0162280
615.634	0.0161671
615.712	0.0162888
615.790	0.0163697
615.868	0.0163232
615.946	0.0162537
616.024	0.0162453
616.102	0.0162360
616.181	0.0162639
616.259	0.0161171
616.337	0.0160729
616.415	0.0161167
616.493	0.0162494
616.571	0.0163727
616.649	0.0162626
616.727	0.0161639
616.806	0.0162787
616.884	0.0162251
616.962	0.0162735
617.040	0.0162015
617.118	0.0160995
617.196	0.0162167
617.274	0.0162759
617.352	0.0162311
617.431	0.0164716
617.509	0.0163113
617.587	0.0162810
617.665	0.0163424
617.743	0.0162629
617.821	0.0163490
617.899	0.0162291
617.977	0.0162544
618.056	0.0162342
618.134	0.0163660
618.212	0.0163883
618.290	0.0162522
618.368	0.0163525
618.446	0.0163789
618.524	0.0164332
618.602	0.0161925
618.681	0.0163956
618.759	0.0163463
618.837	0.0163173
618.915	0.0161474
618.993	0.0162798
619.071	0.0163372
619.149	0.0162102
619.227	0.0162666
619.306	0.0164120
619.384	0.0163018
619.462	0.0161840
619.540	0.0162809
619.618	0.0162800
619.696	0.0163699
619.774	0.0162603
619.852	0.0163463
619.931	0.0163091
620.009	0.0161160
620.087	0.0162187
620.165	0.0163494
620.243	0.0162097
620.321	0.0162333
620.399	0.0162808
620.477	0.0163284
620.556	0.0163676
620.634	0.0163030
620.712	0.0162563
620.790	0.0163076
620.868	0.0163175
620.946	0.0163667
621.024	0.0162801
621.102	0.0162558
621.181	0.0163162
621.259	0.0162936
621.337	0.0162141
621.415	0.0161702
621.493	0.0160948
621.571	0.0161399
621.649	0.0162663
621.727	0.0162560
621.806	0.0161949
621.884	0.0162735
621.962	0.0163293
622.040	0.0161258
622.118	0.0163019
622.196	0.0163040
622.274	0.0163924
622.352	0.0163834
622.431	0.0163355
622.509	0.0162350
622.587	0.0162428
622.665	0.0163249
622.743	0.0164233
622.821	0.0163226
622.899	0.0163372
622.977	0.0162401
623.056	0.0163795
623.134	0.0163365
623.212	0.0163914
623.290	0.0163205
623.368	0.0165207
623.446	0.0163766
623.524	0.0163946
623.602	0.0164190
623.681	0.0164391
623.759	0.0164939
623.837	0.0164646
623.915	0.0165047
623.993	0.0164864
624.071	0.0164277
624.149	0.0165263
624.227	0.0166177
624.306	0.0165270
624.384	0.0166171
624.462	0.0165265
624.540	0.0165680
624.618	0.0165406
624.696	0.0163480
624.774	0.0165039
624.852	0.0165878
624.931	0.0165611
625.009	0.0165398
625.087	0.0165506
625.165	0.0166161
625.243	0.0165228
625.321	0.0165424
625.399	0.0165338
625.477	0.0164418
625.556	0.0165322
625.634	0.0166315
625.712	0.0164603
625.790	0.0164336
625.868	0.0164986
625.946	0.0166614
626.024	0.0165916
626.102	0.0165707
626.181	0.0165208
626.259	0.0164035
626.337	0.0164987
626.415	0.0164094
626.493	0.0164275
626.571	0.0164358
626.649	0.0164938
626.727	0.0165725
626.806	0.0165100
626.884	0.0163947
626.962	0.0164715
627.040	0.0164339
627.118	0.0164294
627.196	0.0163904
627.274	0.0164069
627.352	0.0163354
627.431	0.0164813
627.509	0.0164270
627.587	0.0165218
627.665	0.0163835
627.743	0.0164258
627.821	0.0164856
627.899	0.0164217
627.977	0.0163013
628.056	0.0162934
628.134	0.0163877
628.212	0.0162366
628.290	0.0163857
628.368	0.0164188
628.446	0.0163956
628.524	0.0163902
628.602	0.0164816
628.681	0.0163106
628.759	0.0163018
628.837	0.0163761
628.915	0.0163544
628.993	0.0162279
629.071	0.0163406
629.149	0.0163776
629.227	0.0165370
629.306	0.0163579
629.384	0.0164415
629.462	0.0163887
629.540	0.0165185
629.618	0.0164940
629.696	0.0164386
629.774	0.0165725
629.852	0.0164498
629.931	0.0164875
630.009	0.0165611
630.087	0.0164986
630.165	0.0166120
630.243	0.0164078
630.321	0.0164581
630.399	0.0163617
630.477	0.0165087
630.556	0.0165131
630.634	0.0165332
630.712	0.0164458
630.790	0.0164700
630.868	0.0165457
630.946	0.0164880
631.024	0.0163780
631.102	0.0164212
631.181	0.0163830
631.259	0.0165417
631.337	0.0164658
631.415	0.0164516
631.493	0.0163481
631.571	0.0163662
631.649	0.0165139
631.727	0.0162478
631.806	0.0162489
631.884	0.0162862
631.962	0.0163562
632.040	0.0162537
632.118	0.0161133
632.196	0.0161864
632.274	0.0161809
632.352	0.0161913
632.431	0.0162085
632.509	0.0160926
632.587	0.0161236
632.665	0.0162611
632.743	0.0162277
632.821	0.0160870
632.899	0.0162421
632.977	0.0162608
633.056	0.0162788
633.134	0.0162251
633.212	0.0163091
633.290	0.0162527
633.368	0.0163002
633.446	0.0164481
633.524	0.0165388
633.602	0.0164207
633.681	0.0164539
633.759	0.0164844
633.837	0.0165014
633.915	0.0164130
633.993	0.0165022
634.071	0.0165262
634.149	0.0164011
634.227	0.0165105
634.306	0.0164927
634.384	0.0165560
634.462	0.0164386
634.540	0.0165668
634.618	0.0165825
634.696	0.0164440
634.774	0.0164676
634.852	0.0165457
634.931	0.0165491
635.009	0.0164740
635.087	0.0164546
635.165	0.0164434
635.243	0.0163247
635.321	0.0165585
635.399	0.0164965
635.477	0.0162905
635.556	0.0162066
635.634	0.0163162
635.712	0.0162429
635.790	0.0163421
635.868	0.0161546
635.946	0.0161150
636.024	0.0161267
636.102	0.0161976
636.181	0.0161209
636.259	0.0160302
636.337	0.0161099
636.415	0.0161256
636.493	0.0161968
636.571	0.0160180
636.649	0.0160172
636.727	0.0162112
636.806	0.0160743
636.884	0.0163177
636.962	0.0162084
637.040	0.0160860
637.118	0.0163953
637.196	0.0161434
637.274	0.0161379
637.352	0.0163434
637.431	0.0161077
637.509	0.0163540
637.587	0.0164598
637.665	0.0163409
637.743	0.0163602
637.821	0.0162803
637.899	0.0165176
637.977	0.0165072
638.056	0.0166217
638.134	0.0165751
638.212	0.0166129
638.290	0.0166657
638.368	0.0166466
638.446	0.0165977
638.524	0.0167529
638.602	0.0167701
638.681	0.0166271
638.759	0.0166660
638.837	0.0165758
638.915	0.0166482
638.993	0.0166795
639.071	0.0166515
639.149	0.0167296
639.227	0.0164123
639.306	0.0165334
639.384	0.0165520
639.462	0.0164987
639.540	0.0164723
639.618	0.0164904
639.696	0.0164330
639.774	0.0164081
639.852	0.0163054
639.931	0.0161958
640.009	0.0162086
640.087	0.0160417
640.165	0.0161858
640.243	0.0161276
640.321	0.0161575
640.399	0.0161930
640.477	0.0160696
640.556	0.0159603
640.634	0.0160452
640.712	0.0161005
640.790	0.0159883
640.868	0.0160007
640.946	0.0159431
641.024	0.0160240
641.102	0.0159286
641.181	0.0160826
641.259	0.0160239
641.337	0.0160089
641.415	0.0159698
641.493	0.0160799
641.571	0.0159983
641.649	0.0162768
641.727	0.0162527
641.806	0.0162849
641.884	0.0163311
641.962	0.0161567
642.040	0.0163113
642.118	0.0162743
642.196	0.0162644
642.274	0.0161887
642.352	0.0163921
642.431	0.0163732
642.509	0.0163064
642.587	0.0163486
642.665	0.0164439
642.743	0.0164017
642.821	0.0164544
642.899	0.0163868
642.977	0.0164400
643.056	0.0163457
643.134	0.0164067
643.212	0.0164950
643.290	0.0165742
643.368	0.0164273
643.446	0.0164357
643.524	0.0164684
643.602	0.0164378
643.681	0.0163243
643.759	0.0163138
643.837	0.0162612
643.915	0.0162686
643.993	0.0162540
644.071	0.0161765
644.149	0.0161706
644.227	0.0162405
644.306	0.0161891
644.384	0.0161414
644.462	0.0162129
644.540	0.0162994
644.618	0.0162453
644.696	0.0162207
644.774	0.0162036
644.852	0.0163596
644.931	0.0161670
645.009	0.0162651
645.087	0.0163120
645.165	0.0162527
645.243	0.0162444
645.321	0.0162575
645.399	0.0161660
645.477	0.0163540
645.556	0.0162784
645.634	0.0161820
645.712	0.0161974
645.790	0.0162272
645.868	0.0161488
645.946	0.0160685
646.024	0.0161340
646.102	0.0160773
646.181	0.0162583
646.259	0.0160053
646.337	0.0160867
646.415	0.0160364
646.493	0.0160109
646.571	0.0161448
646.649	0.0160587
646.727	0.0160442
646.806	0.0160000
646.884	0.0160625
646.962	0.0160278
647.040	0.0160983
647.118	0.0160915
647.196	0.0160690
647.274	0.0161331
647.352	0.0161974
647.431	0.0162331
647.509	0.0163335
647.587	0.0162659
647.665	0.0163541
647.743	0.0164496
647.821	0.0165757
647.899	0.0164414
647.977	0.0165179
648.056	0.0165634
648.134	0.0164428
648.212	0.0165736
648.290	0.0165008
648.368	0.0167310
648.446	0.0168312
648.524	0.0168332
648.602	0.0167766
648.681	0.0168410
648.759	0.0169406
648.837	0.0168466
648.915	0.0168767
648.993	0.0168226
649.071	0.0168788
649.149	0.0169691
649.227	0.0169410
649.306	0.0170448
649.384	0.0169136
649.462	0.0169259
649.540	0.0167985
649.618	0.0167879
649.696	0.0170005
649.774	0.0167731
649.852	0.0168716
649.931	0.0168200
650.009	0.0168053
650.087	0.0169112
650.165	0.0167268
650.243	0.0165899
650.321	0.0166940
650.399	0.0167229
650.477	0.0166556
650.556	0.0166138
650.634	0.0165521
650.712	0.0164235
650.790	0.0165194
650.868	0.0162982
650.946	0.0164337
651.024	0.0164353
651.102	0.0163212
651.181	0.0162299
651.259	0.0162190
651.337	0.0161290
651.415	0.0161520
651.493	0.0160809
651.571	0.0161319
651.649	0.0160435
651.727	0.0160623
651.806	0.0160213
651.884	0.0160370
651.962	0.0158305
652.040	0.0159853
652.118	0.0160629
652.196	0.0160116
652.274	0.0160047
652.352	0.0159509
652.431	0.0159769
652.509	0.0161246
652.587	0.0159772
652.665	0.0160338
652.743	0.0161193
652.821	0.0161350
652.899	0.0160653
652.977	0.0161150
653.056	0.0161132
653.134	0.0161449
653.212	0.0162128
653.290	0.0163747
653.368	0.0163589
653.446	0.0162122
653.524	0.0162688
653.602	0.0162860
653.681	0.0162746
653.759	0.0163911
653.837	0.0164474
653.915	0.0163937
653.993	0.0165630
654.071	0.0165974
654.149	0.0164576
654.227	0.0165855
654.306	0.0166531
654.384	0.0165284
654.462	0.0165671
654.540	0.0165574
654.618	0.0165816
654.696	0.0165866
654.774	0.0164382
654.852	0.0165110
654.931	0.0164728
655.009	0.0165222
655.087	0.0163728
655.165	0.0163763
655.243	0.0162930
655.321	0.0162235
655.399	0.0161818
655.477	0.0161602
655.556	0.0162166
655.634	0.0161415
655.712	0.0160943
655.790	0.0160322
655.868	0.0159562
655.946	0.0161211
656.024	0.0159883
656.102	0.0159721
656.181	0.0161188
656.259	0.0160160
656.337	0.0159232
656.415	0.0160082
656.493	0.0159725
656.571	0.0158984
656.649	0.0159051
656.727	0.0160498
656.806	0.0157896
656.884	0.0158814
656.962	0.0161133
657.040	0.0160254
657.118	0.0161084
657.196	0.0161543
657.274	0.0163245
657.352	0.0163854
657.431	0.0162670
657.509	0.0164131
657.587	0.0162780
657.665	0.0164526
657.743	0.0165655
657.821	0.0165340
657.899	0.0164712
657.977	0.0165257
658.056	0.0166483
658.134	0.0165434
658.212	0.0167317
658.290	0.0166831
658.368	0.0166274
658.446	0.0167674
658.524	0.0167097
658.602	0.0166642
658.681	0.0167863
658.759	0.0165353
658.837	0.0167143
658.915	0.0168504
658.993	0.0166082
659.071	0.0165572
659.149	0.0167035
659.227	0.0165956
659.306	0.0165759
659.384	0.0164742
659.462	0.0165876
659.540	0.0165241
659.618	0.0164239
659.696	0.0163777
659.774	0.0165823
659.852	0.0163963
659.931	0.0163345
660.009	0.0163544
660.087	0.0163565
660.165	0.0163019
660.243	0.0164125
660.321	0.0162909
660.399	0.0164857
660.477	0.0163981
660.556	0.0164567
660.634	0.0163259
660.712	0.0163621
660.790	0.0163856
660.868	0.0163037
660.946	0.0164326
661.024	0.0163338
661.102	0.0163577
661.181	0.0164092
661.259	0.0162000
661.337	0.0163526
661.415	0.0164288
661.493	0.0163905
661.571	0.0163338
661.649	0.0164370
661.727	0.0163853
661.806	0.0164233
661.884	0.0162482
661.962	0.0162415
662.040	0.0163326
662.118	0.0161433
662.196	0.0162216
662.274	0.0164260
662.352	0.0163276
662.431	0.0162508
662.509	0.0162251
662.587	0.0163673
662.665	0.0162549
662.743	0.0163378
662.821	0.0162260
662.899	0.0161703
662.977	0.0163490
663.056	0.0162762
663.134	0.0162234
663.212	0.0163732
663.290	0.0161254
663.368	0.0162328
663.446	0.0163505
663.524	0.0162150
663.602	0.0161484
663.681	0.0162418
663.759	0.0163002
663.837	0.0163011
663.915	0.0162646
663.993	0.0164421
664.071	0.0163207
664.149	0.0163730
664.227	0.0164886
664.306	0.0164349
664.384	0.0163710
664.462	0.0164509
664.540	0.0165114
664.618	0.0164988
664.696	0.0164699
664.774	0.0166221
664.852	0.0164876
664.931	0.0165422
665.009	0.0164231
665.087	0.0165659
665.165	0.0166327
665.243	0.0164761
665.321	0.0164523
665.399	0.0165955
665.477	0.0164998
665.556	0.0164669
665.634	0.0163357
665.712	0.0163479
665.790	0.0162868
665.868	0.0162633
665.946	0.0163413
666.024	0.0163015
666.102	0.0162670
666.181	0.0162796
666.259	0.0161518
666.337	0.0161539
666.415	0.0161626
666.493	0.0161507
666.571	0.0161593
666.649	0.0162448
666.727	0.0162614
666.806	0.0161269
666.884	0.0162733
666.962	0.0161626
667.040	0.0162324
667.118	0.0161230
667.196	0.0161840
667.274	0.0162439
667.352	0.0161135
667.431	0.0161864
667.509	0.0163231
667.587	0.0162328
667.665	0.0163245
667.743	0.0162661
667.821	0.0161845
667.899	0.0162622
667.977	0.0160619
668.056	0.0162355
668.134	0.0162081
668.212	0.0163418
668.290	0.0163593
668.368	0.0163051
668.446	0.0163992
668.524	0.0163062
668.602	0.0164565
668.681	0.0164973
668.759	0.0164873
668.837	0.0163344
668.915	0.0165595
668.993	0.0164773
669.071	0.0165024
669.149	0.0164677
669.227	0.0165567
669.306	0.0164664
669.384	0.0165615
669.462	0.0164007
669.540	0.0166045
669.618	0.0165432
669.696	0.0164832
669.774	0.0164501
669.852	0.0165078
669.931	0.0165596
670.009	0.0165266
670.087	0.0165252
670.165	0.0164455
670.243	0.0163310
670.321	0.0164845
670.399	0.0165607
670.477	0.0162234
670.556	0.0163462
670.634	0.0163292
670.712	0.0162180
670.790	0.0162212
670.868	0.0161890
670.946	0.0160465
671.024	0.0161709
671.102	0.0161134
671.181	0.0160104
671.259	0.0160812
671.337	0.0161037
671.415	0.0161942
671.493	0.0162254
671.571	0.0161732
671.649	0.0162637
671.727	0.0162301
671.806	0.0162044
671.884	0.0163189
671.962	0.0164452
672.040	0.0162457
672.118	0.0163144
672.196	0.0164899
672.274	0.0165339
672.352	0.0163921
672.431	0.0165041
672.509	0.0164831
672.587	0.0166281
672.665	0.0166425
672.743	0.0166368
672.821	0.0166164
672.899	0.0165598
672.977	0.0167045
673.056	0.0166365
673.134	0.0167216
673.212	0.0166243
673.290	0.0166522
673.368	0.0167975
673.446	0.0167001
673.524	0.0166367
673.602	0.0165620
673.681	0.0164865
673.759	0.0165225
673.837	0.0165382
673.915	0.0164065
673.993	0.0164182
674.071	0.0164400
674.149	0.0162453
674.227	0.0163300
674.306	0.0163509
674.384	0.0161603
674.462	0.0161359
674.540	0.0160107
674.618	0.0159769
674.696	0.0160647
674.774	0.0160226
674.852	0.0159342
674.931	0.0160477
675.009	0.0158662
675.087	0.0158608
675.165	0.0158931
675.243	0.0157851
675.321	0.0158054
675.399	0.0158983
675.477	0.0158479
675.556	0.0158342
675.634	0.0159348
675.712	0.0159041
675.790	0.0160578
675.868	0.0161064
675.946	0.0161283
676.024	0.0161375
676.102	0.0161462
676.181	0.0161770
676.259	0.0161958
676.337	0.0162172
676.415	0.0162048
676.493	0.0164021
676.571	0.0164772
676.649	0.0164236
676.727	0.0164970
676.806	0.0164968
676.884	0.0166124
676.962	0.0166888
677.040	0.0166538
677.118	0.0166309
677.196	0.0167290
677.274	0.0166478
677.352	0.0166299
677.431	0.0167867
677.509	0.0167868
677.587	0.0166454
677.665	0.0167727
677.743	0.0167677
677.821	0.0166659
677.899	0.0166692
677.977	0.0168350
678.056	0.0166932
678.134	0.0167841
678.212	0.0167362
678.290	0.0165497
678.368	0.0166725
678.446	0.0165368
678.524	0.0165513
678.602	0.0164665
678.681	0.0163876
678.759	0.0164001
678.837	0.0162793
678.915	0.0162777
678.993	0.0162788
679.071	0.0161777
679.149	0.0161784
679.227	0.0162864
679.306	0.0162103
679.384	0.0158997
679.462	0.0159979
679.540	0.0160754
679.618	0.0159950
679.696	0.0159011
679.774	0.0160480
679.852	0.0160095
679.931	0.0159220
680.009	0.0160287
680.087	0.0159120
680.165	0.0161108
680.243	0.0160265
680.321	0.0159531
680.399	0.0159686
680.477	0.0160812
680.556	0.0161263
680.634	0.0161214
680.712	0.0161096
680.790	0.0161798
680.868	0.0162574
680.946	0.0162373
681.024	0.0163825
681.102	0.0163415
681.181	0.0164732
681.259	0.0164201
681.337	0.0164597
681.415	0.0164407
681.493	0.0165753
681.571	0.0167133
681.649	0.0166080
681.727	0.0165858
681.806	0.0165446
681.884	0.0165397
681.962	0.0165444
682.040	0.0165915
682.118	0.0166551
682.196	0.0166373
682.274	0.0165075
682.352	0.0164086
682.431	0.0166100
682.509	0.0165475
682.587	0.0166315
682.665	0.0164758
682.743	0.0165209
682.821	0.0165459
682.899	0.0164491
682.977	0.0165302
683.056	0.0163937
683.134	0.0164348
683.212	0.0163895
683.290	0.0164896
683.368	0.0164416
683.446	0.0163483
683.524	0.0164574
683.602	0.0164421
683.681	0.0164328
683.759	0.0164294
683.837	0.0164125
683.915	0.0165719
683.993	0.0165929
684.071	0.0163719
684.149	0.0165277
684.227	0.0165130
684.306	0.0164539
684.384	0.0164552
684.462	0.0166062
684.540	0.0166593
684.618	0.0166366
684.696	0.0164390
684.774	0.0164314
684.852	0.0164091
684.931	0.0164915
685.009	0.0163243
685.087	0.0163088
685.165	0.0164368
685.243	0.0162912
685.321	0.0161437
685.399	0.0162341
685.477	0.0161034
685.556	0.0161263
685.634	0.0160750
685.712	0.0160275
685.790	0.0161080
685.868	0.0160013
685.946	0.0160236
686.024	0.0158559
686.102	0.0158126
686.181	0.0159377
686.259	0.0160014
686.337	0.0160094
686.415	0.0159574
686.493	0.0159306
686.571	0.0160452
686.649	0.0161557
686.727	0.0161867
686.806	0.0162059
686.884	0.0161445
686.962	0.0162800
687.040	0.0163433
687.118	0.0163211
687.196	0.0164574
687.274	0.0166161
687.352	0.0164590
687.431	0.0166000
687.509	0.0166045
687.587	0.0165141
687.665	0.0165777
687.743	0.0165858
687.821	0.0166814
687.899	0.0166292
687.977	0.0167199
688.056	0.0166856
688.134	0.0166673
688.212	0.0166541
688.290	0.0167081
688.368	0.0166005
688.446	0.0167632
688.524	0.0164812
688.602	0.0166370
688.681	0.0165240
688.759	0.0164912
688.837	0.0165914
688.915	0.0163822
688.993	0.0164287
689.071	0.0164230
689.149	0.0164584
689.227	0.0162546
689.306	0.0164040
689.384	0.0163293
689.462	0.0161044
689.540	0.0162621
689.618	0.0161849
689.696	0.0162901
689.774	0.0161555
689.852	0.0161818
689.931	0.0160809
690.009	0.0161539
690.087	0.0161996
690.165	0.0160841
690.243	0.0163007
690.321	0.0161146
690.399	0.0161590
690.477	0.0162448
690.556	0.0163109
690.634	0.0163503
690.712	0.0162921
690.790	0.0162373
690.868	0.0163136
690.946	0.0162307
691.024	0.0163990
691.102	0.0163325
691.181	0.0163212
691.259	0.0163986
691.337	0.0163506
691.415	0.0163661
691.493	0.0165171
691.571	0.0165226
691.649	0.0164259
691.727	0.0163829
691.806	0.0165520
691.884	0.0165148
691.962	0.0165559
692.040	0.0163786
692.118	0.0165922
692.196	0.0165131
692.274	0.0164832
692.352	0.0164966
692.431	0.0164613
692.509	0.0163879
692.587	0.0163846
692.665	0.0163759
692.743	0.0163624
692.821	0.0163431
692.899	0.0165026
692.977	0.0163202
693.056	0.0163726
693.134	0.0161944
693.212	0.0162907
693.290	0.0162346
693.368	0.0163554
693.446	0.0162680
693.524	0.0163473
693.602	0.0162756
693.681	0.0162971
693.759	0.0162597
693.837	0.0163844
693.915	0.0163762
693.993	0.0163207
694.071	0.0162155
694.149	0.0163400
694.227	0.0164217
694.306	0.0162872
694.384	0.0162610
694.462	0.0164343
694.540	0.0162664
694.618	0.0162939
694.696	0.0164138
694.774	0.0163362
694.852	0.0162935
694.931	0.0162679
695.009	0.0161764
695.087	0.0161772
695.165	0.0161871
695.243	0.0162247
695.321	0.0163131
695.399	0.0161845
695.477	0.0161594
695.556	0.0162122
695.634	0.0162573
695.712	0.0161217
695.790	0.0161684
695.868	0.0162304
695.946	0.0162702
696.024	0.0162874
696.102	0.0162090
696.181	0.0164306
696.259	0.0164146
696.337	0.0163618
696.415	0.0163064
696.493	0.0164913
696.571	0.0163171
696.649	0.0166013
696.727	0.0165646
696.806	0.0164458
696.884	0.0165657
696.962	0.0164452
697.040	0.0165705
697.118	0.0165189
697.196	0.0166485
697.274	0.0166547
697.352	0.0166462
697.431	0.0166794
697.509	0.0167553
697.587	0.0167544
697.665	0.0167883
697.743	0.0167976
697.821	0.0168349
697.899	0.0167500
697.977	0.0168536
698.056	0.0168644
698.134	0.0168021
698.212	0.0167290
698.290	0.0167175
698.368	0.0166200
698.446	0.0167273
698.524	0.0166248
698.602	0.0166904
698.681	0.0165234
698.759	0.0164076
698.837	0.0163828
698.915	0.0164098
698.993	0.0164034
699.071	0.0165620
699.149	0.0162795
699.227	0.0161571
699.306	0.0161680
699.384	0.0163045
699.462	0.0160350
699.540	0.0160974
699.618	0.0159757
699.696	0.0159974
699.774	0.0159793
699.852	0.0159756
699.931	0.0159778
700.009	0.0160265
700.087	0.0159882
700.165	0.0161420
700.243	0.0159651
700.321	0.0160311
700.399	0.0160180
700.477	0.0160398
700.556	0.0161249
700.634	0.0162482
700.712	0.0162278
700.790	0.0161929
700.868	0.0161930
700.946	0.0162151
701.024	0.0163368
701.102	0.0163592
701.181	0.0164023
701.259	0.0162743
701.337	0.0162701
701.415	0.0163110
701.493	0.0162307
701.571	0.0161756
701.649	0.0161773
701.727	0.0163821
701.806	0.0161642
701.884	0.0162202
701.962	0.0163144
702.040	0.0162511
702.118	0.0160399
702.196	0.0162975
702.274	0.0163188
702.352	0.0163528
702.431	0.0162343
702.509	0.0163030
702.587	0.0162489
702.665	0.0162673
702.743	0.0161235
702.821	0.0161134
702.899	0.0161881
702.977	0.0162142
703.056	0.0161925
703.134	0.0162048
703.212	0.0163010
703.290	0.0162202
703.368	0.0164787
703.446	0.0163161
703.524	0.0164010
703.602	0.0164334
703.681	0.0164046
703.759	0.0162706
703.837	0.0164575
703.915	0.0164871
703.993	0.0163193
704.071	0.0163714
704.149	0.0165232
704.227	0.0164150
704.306	0.0163662
704.384	0.0165166
704.462	0.0165060
704.540	0.0163773
704.618	0.0163214
704.696	0.0164571
704.774	0.0164596
704.852	0.0164079
704.931	0.0163424
705.009	0.0165852
705.087	0.0163477
705.165	0.0163489
705.243	0.0163625
705.321	0.0162978
705.399	0.0162244
705.477	0.0163284
705.556	0.0163092
705.634	0.0161785
705.712	0.0162196
705.790	0.0162259
705.868	0.0161491
705.946	0.0161132
706.024	0.0161430
706.102	0.0161496
706.181	0.0162280
706.259	0.0161269
706.337	0.0161982
706.415	0.0161536
706.493	0.0162154
706.571	0.0162299
706.649	0.0161995
706.727	0.0162799
706.806	0.0162258
706.884	0.0161755
706.962	0.0161484
707.040	0.0160918
707.118	0.0160702
707.196	0.0161497
707.274	0.0161720
707.352	0.0160998
707.431	0.0159530
707.509	0.0162667
707.587	0.0162373
707.665	0.0162100
707.743	0.0163567
707.821	0.0163062
707.899	0.0162872
707.977	0.0163473
708.056	0.0166482
708.134	0.0166616
708.212	0.0165003
708.290	0.0165954
708.368	0.0166096
708.446	0.0166134
708.524	0.0167925
708.602	0.0167213
708.681	0.0166168
708.759	0.0165218
708.837	0.0166798
708.915	0.0168085
708.993	0.0168237
709.071	0.0166779
709.149	0.0166324
709.227	0.0166093
709.306	0.0166153
709.384	0.0166080
709.462	0.0168785
709.540	0.0166128
709.618	0.0166216
709.696	0.0166572
709.774	0.0166872
709.852	0.0166954
709.931	0.0167943
710.009	0.0165990
710.087	0.0166762
710.165	0.0166421
710.243	0.0166215
710.321	0.0166228
710.399	0.0166248
710.477	0.0166381
710.556	0.0166166
710.634	0.0166336
710.712	0.0165839
710.790	0.0164388
710.868	0.0163754
710.946	0.0165823
711.024	0.0165614
711.102	0.0165224
711.181	0.0165839
711.259	0.0164407
711.337	0.0164256
711.415	0.0163849
711.493	0.0164074
711.571	0.0163612
711.649	0.0165054
711.727	0.0164515
711.806	0.0163965
711.884	0.0164933
711.962	0.0163685
712.040	0.0163744
712.118	0.0164068
712.196	0.0163809
712.274	0.0164784
712.352	0.0164300
712.431	0.0163777
712.509	0.0162571
712.587	0.0163376
712.665	0.0164413
712.743	0.0164706
712.821	0.0163715
712.899	0.0163684
712.977	0.0162628
713.056	0.0164980
713.134	0.0163359
713.212	0.0163692
713.290	0.0163195
713.368	0.0162196
713.446	0.0163374
713.524	0.0162390
713.602	0.0162636
713.681	0.0162540
713.759	0.0162433
713.837	0.0163318
713.915	0.0162679
713.993	0.0162771
714.071	0.0161340
714.149	0.0162621
714.227	0.0162775
714.306	0.0162720
714.384	0.0162891
714.462	0.0163249
714.540	0.0162707
714.618	0.0163269
714.696	0.0162894
714.774	0.0162164
714.852	0.0164562
714.931	0.0164322
715.009	0.0163538
715.087	0.0163026
715.165	0.0164262
715.243	0.0163119
715.321	0.0164322
715.399	0.0164707
715.477	0.0162794
715.556	0.0162445
715.634	0.0163538
715.712	0.0163897
715.790	0.0165325
715.868	0.0165269
715.946	0.0164107
716.024	0.0165588
716.102	0.0165533
716.181	0.0164481
716.259	0.0164896
716.337	0.0165152
716.415	0.0165348
716.493	0.0163701
716.571	0.0166105
716.649	0.0165387
716.727	0.0163596
716.806	0.0165090
716.884	0.0165561
716.962	0.0165585
717.040	0.0164029
717.118	0.0165218
717.196	0.0164900
717.274	0.0163871
717.352	0.0164006
717.431	0.0163436
717.509	0.0164031
717.587	0.0165352
717.665	0.0163192
717.743	0.0164160
717.821	0.0163206
717.899	0.0162563
717.977	0.0163799
718.056	0.0164716
718.134	0.0163698
718.212	0.0163456
718.290	0.0162733
718.368	0.0162798
718.446	0.0161671
718.524	0.0163311
718.602	0.0162458
718.681	0.0162404
718.759	0.0163116
718.837	0.0163168
718.915	0.0162510
718.993	0.0163110
719.071	0.0163760
719.149	0.0162077
719.227	0.0164005
719.306	0.0163330
719.384	0.0163070
719.462	0.0162940
719.540	0.0162165
719.618	0.0162643
719.696	0.0162936
719.774	0.0162706
719.852	0.0161514
719.931	0.0162172
720.009	0.0162595
720.087	0.0162234
720.165	0.0161604
720.243	0.0161813
720.321	0.0162584
720.399	0.0163301
720.477	0.0161516
720.556	0.0161279
720.634	0.0162196
720.712	0.0162329
720.790	0.0161537
720.868	0.0161780
720.946	0.0163455
721.024	0.0163341
721.102	0.0164039
721.181	0.0163802
721.259	0.0163748
721.337	0.0162778
721.415	0.0163380
721.493	0.0162202
721.571	0.0163062
721.649	0.0163784
721.727	0.0163223
721.806	0.0162024
721.884	0.0163078
721.962	0.0162813
722.040	0.0163197
722.118	0.0162877
722.196	0.0163592
722.274	0.0162157
722.352	0.0163645
722.431	0.0163050
722.509	0.0161984
722.587	0.0162620
722.665	0.0163530
722.743	0.0163254
722.821	0.0162688
722.899	0.0164284
722.977	0.0163770
723.056	0.0163442
723.134	0.0163351
723.212	0.0163052
723.290	0.0163648
723.368	0.0163625
723.446	0.0162749
723.524	0.0162203
723.602	0.0163865
723.681	0.0163109
723.759	0.0163850
723.837	0.0163528
723.915	0.0162995
723.993	0.0164057
724.071	0.0164207
724.149	0.0163331
724.227	0.0163325
724.306	0.0163826
724.384	0.0163062
724.462	0.0164070
724.540	0.0165014
724.618	0.0165253
724.696	0.0164114
724.774	0.0164391
724.852	0.0163547
724.931	0.0164168
725.009	0.0164414
725.087	0.0164315
725.165	0.0164098
725.243	0.0162575
725.321	0.0163184
725.399	0.0164608
725.477	0.0164442
725.556	0.0164044
725.634	0.0164830
725.712	0.0163739
725.790	0.0163277
725.868	0.0163044
725.946	0.0163886
726.024	0.0165776
726.102	0.0163326
726.181	0.0165195
726.259	0.0164897
726.337	0.0164987
726.415	0.0165601
726.493	0.0166471
726.571	0.0164028
726.649	0.0165414
726.727	0.0166143
726.806	0.0165468
726.884	0.0165762
726.962	0.0167272
727.040	0.0165400
727.118	0.0166457
727.196	0.0167301
727.274	0.0167099
727.352	0.0168784
727.431	0.0166286
727.509	0.0167503
727.587	0.0166974
727.665	0.0166296
727.743	0.0167175
727.821	0.0165958
727.899	0.0168343
727.977	0.0166962
728.056	0.0166022
728.134	0.0166091
728.212	0.0166996
728.290	0.0166488
728.368	0.0165847
728.446	0.0165706
728.524	0.0164802
728.602	0.0164494
728.681	0.0163889
728.759	0.0163997
728.837	0.0164062
728.915	0.0163309
728.993	0.0164144
729.071	0.0162553
729.149	0.0161379
729.227	0.0161723
729.306	0.0161806
729.384	0.0161592
729.462	0.0161998
729.540	0.0162669
729.618	0.0161293
729.696	0.0160728
729.774	0.0161510
729.852	0.0161155
729.931	0.0160425
730.009	0.0161337
730.087	0.0161807
730.165	0.0161296
730.243	0.0162251
730.321	0.0162255
730.399	0.0161510
730.477	0.0160475
730.556	0.0161820
730.634	0.0161234
730.712	0.0162277
730.790	0.0161898
730.868	0.0161175
730.946	0.0163033
731.024	0.0160612
731.102	0.0162783
731.181	0.0161761
731.259	0.0162225
731.337	0.0163694
731.415	0.0163589
731.493	0.0163236
731.571	0.0163866
731.649	0.0163651
731.727	0.0164453
731.806	0.0164057
731.884	0.0164808
731.962	0.0164219
732.040	0.0164518
732.118	0.0165457
732.196	0.0165088
732.274	0.0164267
732.352	0.0164619
732.431	0.0165220
732.509	0.0164784
732.587	0.0165380
732.665	0.0163718
732.743	0.0165109
732.821	0.0165767
732.899	0.0165228
732.977	0.0165073
733.056	0.0165279
733.134	0.0165653
733.212	0.0165549
733.290	0.0164825
733.368	0.0165636
733.446	0.0165334
733.524	0.0166000
733.602	0.0165784
733.681	0.0167709
733.759	0.0166150
733.837	0.0166643
733.915	0.0164767
733.993	0.0165750
734.071	0.0164227
734.149	0.0166505
734.227	0.0166112
734.306	0.0165638
734.384	0.0163937
734.462	0.0164400
734.540	0.0164445
734.618	0.0164953
734.696	0.0163927
734.774	0.0163420
734.852	0.0163194
734.931	0.0164071
735.009	0.0163635
735.087	0.0163535
735.165	0.0162994
735.243	0.0162672
735.321	0.0162777
735.399	0.0162815
735.477	0.0163680
735.556	0.0163009
735.634	0.0162715
735.712	0.0162748
735.790	0.0162557
735.868	0.0162268
735.946	0.0162874
736.024	0.0162950
736.102	0.0162923
736.181	0.0161005
736.259	0.0162534
736.337	0.0162639
736.415	0.0162192
736.493	0.0161156
736.571	0.0163205
736.649	0.0160948
736.727	0.0161743
736.806	0.0162507
736.884	0.0161961
736.962	0.0162510
737.040	0.0162707
737.118	0.0162307
737.196	0.0162088
737.274	0.0163074
737.352	0.0161696
737.431	0.0162976
737.509	0.0161710
737.587	0.0163443
737.665	0.0162619
737.743	0.0162200
737.821	0.0163570
737.899	0.0163555
737.977	0.0163943
738.056	0.0163719
738.134	0.0162294
738.212	0.0162235
738.290	0.0162806
738.368	0.0163499
738.446	0.0163837
738.524	0.0163428
738.602	0.0162940
738.681	0.0164339
738.759	0.0163556
738.837	0.0164403
738.915	0.0163780
738.993	0.0163730
739.071	0.0164253
739.149	0.0165134
739.227	0.0165414
739.306	0.0164523
739.384	0.0164164
739.462	0.0164946
739.540	0.0164493
739.618	0.0166080
739.696	0.0165955
739.774	0.0165776
739.852	0.0164995
739.931	0.0165378
740.009	0.0167294
740.087	0.0165707
740.165	0.0165514
740.243	0.0165686
740.321	0.0165540
740.399	0.0166650
740.477	0.0166217
740.556	0.0165424
740.634	0.0167827
740.712	0.0165701
740.790	0.0165492
740.868	0.0166124
740.946	0.0166753
741.024	0.0166816
741.102	0.0166779
741.181	0.0165617
741.259	0.0166730
741.337	0.0166748
741.415	0.0164962
741.493	0.0163631
741.571	0.0165053
741.649	0.0165491
741.727	0.0165427
741.806	0.0164731
741.884	0.0165045
741.962	0.0164003
742.040	0.0163971
742.118	0.0164754
742.196	0.0164760
742.274	0.0163806
742.352	0.0164328
742.431	0.0165278
742.509	0.0163298
742.587	0.0164030
742.665	0.0165115
742.743	0.0163889
742.821	0.0163669
742.899	0.0164930
742.977	0.0163559
743.056	0.0163907
743.134	0.0165176
743.212	0.0164622
743.290	0.0164780
743.368	0.0166108
743.446	0.0165002
743.524	0.0163229
743.602	0.0165887
743.681	0.0166348
743.759	0.0166230
743.837	0.0164000
743.915	0.0164977
743.993	0.0164811
744.071	0.0164268
744.149	0.0165432
744.227	0.0163927
744.306	0.0165734
744.384	0.0164436
744.462	0.0164351
744.540	0.0165815
744.618	0.0166121
744.696	0.0163832
744.774	0.0164272
744.852	0.0166499
744.931	0.0165417
745.009	0.0164817
745.087	0.0164958
745.165	0.0165006
745.243	0.0165570
745.321	0.0166653
745.399	0.0165388
745.477	0.0165467
745.556	0.0165182
745.634	0.0164423
745.712	0.0165167
745.790	0.0165656
745.868	0.0165607
745.946	0.0164484
746.024	0.0164793
746.102	0.0164118
746.181	0.0164635
746.259	0.0163976
746.337	0.0164336
746.415	0.0165515
746.493	0.0163802
746.571	0.0163972
746.649	0.0165373
746.727	0.0165592
746.806	0.0163986
746.884	0.0163716
746.962	0.0164583
747.040	0.0164258
747.118	0.0163740
747.196	0.0164759
747.274	0.0162932
747.352	0.0165341
747.431	0.0166477
747.509	0.0163824
747.587	0.0163718
747.665	0.0164305
747.743	0.0163792
747.821	0.0164232
747.899	0.0164462
747.977	0.0165574
748.056	0.0163698
748.134	0.0163524
748.212	0.0163920
748.290	0.0163509
748.368	0.0163634
748.446	0.0164008
748.524	0.0163600
748.602	0.0163616
748.681	0.0163882
748.759	0.0164335
748.837	0.0163639
748.915	0.0163556
748.993	0.0161984
749.071	0.0161852
749.149	0.0163079
749.227	0.0162496
749.306	0.0162808
749.384	0.0163026
749.462	0.0162676
749.540	0.0161852
749.618	0.0162743
749.696	0.0161619
749.774	0.0161230
749.852	0.0161693
749.931	0.0162688
750.009	0.0163334
750.087	0.0162336
750.165	0.0161548
750.243	0.0161953
750.321	0.0162886
750.399	0.0162470
750.477	0.0162238
750.556	0.0162589
750.634	0.0162647
750.712	0.0162420
750.790	0.0163168
750.868	0.0163905
750.946	0.0163286
751.024	0.0162563
751.102	0.0162453
751.181	0.0162975
751.259	0.0163250
751.337	0.0162272
751.415	0.0163099
751.493	0.0162118
751.571	0.0162874
751.649	0.0163261
751.727	0.0163182
751.806	0.0163421
751.884	0.0162997
751.962	0.0162339
752.040	0.0162080
752.118	0.0162695
752.196	0.0163830
752.274	0.0164413
752.352	0.0163247
752.431	0.0162123
752.509	0.0163136
752.587	0.0164057
752.665	0.0163251
752.743	0.0164085
752.821	0.0164742
752.899	0.0164097
752.977	0.0163214
753.056	0.0164285
753.134	0.0164227
753.212	0.0162868
753.290	0.0163061
753.368	0.0163239
753.446	0.0164915
753.524	0.0164471
753.602	0.0162739
753.681	0.0163414
753.759	0.0164350
753.837	0.0164527
753.915	0.0165576
753.993	0.0164335
754.071	0.0164580
754.149	0.0164806
754.227	0.0165131
754.306	0.0164300
754.384	0.0164991
754.462	0.0165110
754.540	0.0163827
754.618	0.0163969
754.696	0.0163857
754.774	0.0164957
754.852	0.0164315
754.931	0.0163869
755.009	0.0163420
755.087	0.0164198
755.165	0.0164382
755.243	0.0164758
755.321	0.0162612
755.399	0.0164363
755.477	0.0163722
755.556	0.0164063
755.634	0.0164043
755.712	0.0163950
755.790	0.0163899
755.868	0.0163667
755.946	0.0161579
756.024	0.0163818
756.102	0.0164648
756.181	0.0162725
756.259	0.0162758
756.337	0.0163472
756.415	0.0164526
756.493	0.0163017
756.571	0.0162512
756.649	0.0163080
756.727	0.0161550
756.806	0.0161983
756.884	0.0163686
756.962	0.0163199
757.040	0.0163499
757.118	0.0162595
757.196	0.0162547
757.274	0.0164029
757.352	0.0163993
757.431	0.0162376
757.509	0.0163139
757.587	0.0164378
757.665	0.0163403
757.743	0.0162495
757.821	0.0163150
757.899	0.0163357
757.977	0.0163004
758.056	0.0164181
758.134	0.0162029
758.212	0.0162865
758.290	0.0164809
758.368	0.0162814
758.446	0.0161759
758.524	0.0163241
758.602	0.0163566
758.681	0.0163188
758.759	0.0163090
758.837	0.0162381
758.915	0.0163492
758.993	0.0163440
759.071	0.0163124
759.149	0.0162575
759.227	0.0160909
759.306	0.0162431
759.384	0.0162054
759.462	0.0162669
759.540	0.0162271
759.618	0.0162336
759.696	0.0160547
759.774	0.0162531
759.852	0.0162611
759.931	0.0161897
760.009	0.0162280
760.087	0.0163328
760.165	0.0162308
760.243	0.0163653
760.321	0.0162389
760.399	0.0162964
760.477	0.0163229
760.556	0.0162602
760.634	0.0163340
760.712	0.0163551
760.790	0.0163966
760.868	0.0164772
760.946	0.0164084
761.024	0.0164516
761.102	0.0163248
761.181	0.0165319
761.259	0.0164676
761.337	0.0163753
761.415	0.0165140
761.493	0.0165047
761.571	0.0164791
761.649	0.0164460
761.727	0.0165119
761.806	0.0165626
761.884	0.0167100
761.962	0.0165339
762.040	0.0166204
762.118	0.0165071
762.196	0.0165596
762.274	0.0164466
762.352	0.0165488
762.431	0.0165726
762.509	0.0165305
762.587	0.0165882
762.665	0.0164710
762.743	0.0165228
762.821	0.0165868
762.899	0.0164697
762.977	0.0165502
763.056	0.0166472
763.134	0.0166493
763.212	0.0165580
763.290	0.0164948
763.368	0.0164013
763.446	0.0164254
763.524	0.0164239
763.602	0.0164883
763.681	0.0165385
763.759	0.0167017
763.837	0.0164626
763.915	0.0164294
763.993	0.0165003
764.071	0.0163795
764.149	0.0164587
764.227	0.0164130
764.306	0.0164094
764.384	0.0165137
764.462	0.0164310
764.540	0.0164672
764.618	0.0165593
764.696	0.0166226
764.774	0.0163954
764.852	0.0165150
764.931	0.0164466
765.009	0.0164913
765.087	0.0163172
765.165	0.0163943
765.243	0.0163842
765.321	0.0165352
765.399	0.0164452
765.477	0.0165392
765.556	0.0163352
765.634	0.0163108
765.712	0.0163558
765.790	0.0164120
765.868	0.0164120
765.946	0.0164671
766.024	0.0162011
766.102	0.0162594
766.181	0.0162742
766.259	0.0163718
766.337	0.0163781
766.415	0.0163808
766.493	0.0162206
766.571	0.0164426
766.649	0.0162972
766.727	0.0162149
766.806	0.0162439
766.884	0.0163182
766.962	0.0162853
767.040	0.0163132
767.118	0.0162951
767.196	0.0162487
767.274	0.0164298
767.352	0.0162015
767.431	0.0161995
767.509	0.0162531
767.587	0.0164199
767.665	0.0163235
767.743	0.0162955
767.821	0.0162273
767.899	0.0163087
767.977	0.0162323
768.056	0.0162642
768.134	0.0161465
768.212	0.0161552
768.290	0.0161714
768.368	0.0163998
768.446	0.0162099
768.524	0.0161995
768.602	0.0162330
768.681	0.0163113
768.759	0.0161811
768.837	0.0163029
768.915	0.0162622
768.993	0.0162848
769.071	0.0161346
769.149	0.0162862
769.227	0.0162605
769.306	0.0164265
769.384	0.0163767
769.462	0.0162572
769.540	0.0163406
769.618	0.0164362
769.696	0.0164867
769.774	0.0163125
769.852	0.0164677
769.931	0.0164044
770.009	0.0163241
770.087	0.0163333
770.165	0.0162563
770.243	0.0163930
770.321	0.0163427
770.399	0.0163362
770.477	0.0163448
770.556	0.0163245
770.634	0.0163309
770.712	0.0162630
770.790	0.0163461
770.868	0.0164668
770.946	0.0164577
771.024	0.0164163
771.102	0.0164046
771.181	0.0163690
771.259	0.0164819
771.337	0.0163780
771.415	0.0164532
771.493	0.0164878
771.571	0.0164387
771.649	0.0163911
771.727	0.0164079
771.806	0.0163585
771.884	0.0164176
771.962	0.0164656
772.040	0.0163507
772.118	0.0164828
772.196	0.0165413
772.274	0.0164637
772.352	0.0165073
772.431	0.0163706
772.509	0.0163520
772.587	0.0164373
772.665	0.0163966
772.743	0.0164642
772.821	0.0163857
772.899	0.0164412
772.977	0.0164008
773.056	0.0162826
773.134	0.0164326
773.212	0.0165012
773.290	0.0164205
773.368	0.0164759
773.446	0.0163747
773.524	0.0165609
773.602	0.0164700
773.681	0.0164774
773.759	0.0164444
773.837	0.0163733
773.915	0.0165128
773.993	0.0164382
774.071	0.0165916
774.149	0.0163857
774.227	0.0163627
774.306	0.0163458
774.384	0.0165304
774.462	0.0163937
774.540	0.0164494
774.618	0.0165266
774.696	0.0163941
774.774	0.0166370
774.852	0.0164648
774.931	0.0163306
775.009	0.0164128
775.087	0.0164678
775.165	0.0163567
775.243	0.0161988
775.321	0.0164311
775.399	0.0163190
775.477	0.0163920
775.556	0.0162469
775.634	0.0162759
775.712	0.0161687
775.790	0.0163599
775.868	0.0161821
775.946	0.0161364
776.024	0.0162678
776.102	0.0161428
776.181	0.0162222
776.259	0.0160772
776.337	0.0161975
776.415	0.0162523
776.493	0.0162263
776.571	0.0161890
776.649	0.0161137
776.727	0.0162167
776.806	0.0162872
776.884	0.0162864
776.962	0.0163172
777.040	0.0162563
777.118	0.0161325
777.196	0.0160873
777.274	0.0163973
777.352	0.0162771
777.431	0.0162534
777.509	0.0162614
777.587	0.0164264
777.665	0.0163538
777.743	0.0162751
777.821	0.0163509
777.899	0.0162811
777.977	0.0162624
778.056	0.0161195
778.134	0.0163248
778.212	0.0163109
778.290	0.0163371
778.368	0.0163432
778.446	0.0162454
778.524	0.0162577
778.602	0.0163962
778.681	0.0163113
778.759	0.0162722
778.837	0.0163518
778.915	0.0163442
778.993	0.0161066
779.071	0.0164002
779.149	0.0163538
779.227	0.0163756
779.306	0.0163884
779.384	0.0162463
779.462	0.0162549
779.540	0.0164880
779.618	0.0163560
779.696	0.0163688
779.774	0.0164317
779.852	0.0163039
779.931	0.0165032
780.009	0.0164883
780.087	0.0164808
780.165	0.0164715
780.243	0.0163877
780.321	0.0164668
780.399	0.0165128
780.477	0.0163602
780.556	0.0165887
780.634	0.0164641
780.712	0.0164877
780.790	0.0164387
780.868	0.0166204
780.946	0.0164845
781.024	0.0165999
781.102	0.0165530
781.181	0.0164539
781.259	0.0164491
781.337	0.0166527
781.415	0.0166386
781.493	0.0164163
781.571	0.0165079
781.649	0.0165084
781.727	0.0164194
781.806	0.0165497
781.884	0.0164219
781.962	0.0163587
782.040	0.0163832
782.118	0.0164352
782.196	0.0163677
782.274	0.0164736
782.352	0.0164006
782.431	0.0163832
782.509	0.0163901
782.587	0.0164862
782.665	0.0163074
782.743	0.0163711
782.821	0.0163648
782.899	0.0163029
782.977	0.0162917
783.056	0.0163493
783.134	0.0163992
783.212	0.0163473
783.290	0.0163036
783.368	0.0164040
783.446	0.0163309
783.524	0.0162902
783.602	0.0163167
783.681	0.0162806
783.759	0.0162321
783.837	0.0163415
783.915	0.0165140
783.993	0.0163715
784.071	0.0164011
784.149	0.0162917
784.227	0.0163058
784.306	0.0164803
784.384	0.0163637
784.462	0.0163373
784.540	0.0164668
784.618	0.0162925
784.696	0.0163381
784.774	0.0163522
784.852	0.0163639
784.931	0.0162744
785.009	0.0164675
785.087	0.0162688
785.165	0.0163560
785.243	0.0164597
785.321	0.0164442
785.399	0.0163631
785.477	0.0164834
785.556	0.0164361
785.634	0.0164233
785.712	0.0162679
785.790	0.0163791
785.868	0.0163586
785.946	0.0163892
786.024	0.0165243
786.102	0.0163905
786.181	0.0163013
786.259	0.0165188
786.337	0.0162605
786.415	0.0163213
786.493	0.0164449
786.571	0.0164009
786.649	0.0163940
786.727	0.0164565
786.806	0.0163855
786.884	0.0163976
786.962	0.0164085
787.040	0.0163237
787.118	0.0162978
787.196	0.0162801
787.274	0.0163957
787.352	0.0163343
787.431	0.0163013
787.509	0.0162846
787.587	0.0163256
787.665	0.0162612
787.743	0.0162059
787.821	0.0162292
787.899	0.0162728
787.977	0.0162091
788.056	0.0161662
788.134	0.0162084
788.212	0.0160703
788.290	0.0161744
788.368	0.0162730
788.446	0.0161314
788.524	0.0160895
788.602	0.0162221
788.681	0.0162746
788.759	0.0162063
788.837	0.0163317
788.915	0.0162488
788.993	0.0160916
789.071	0.0161319
789.149	0.0162502
789.227	0.0162064
789.306	0.0161218
789.384	0.0162040
789.462	0.0162786
789.540	0.0162724
789.618	0.0161308
789.696	0.0162159
789.774	0.0162244
789.852	0.0161666
789.931	0.0160820
790.009	0.0161349
790.087	0.0162556
790.165	0.0162292
790.243	0.0161974
790.321	0.0161259
790.399	0.0161585
790.477	0.0161915
790.556	0.0161139
790.634	0.0161932
790.712	0.0162925
790.790	0.0162717
790.868	0.0162032
790.946	0.0163419
791.024	0.0163657
791.102	0.0162930
791.181	0.0164207
791.259	0.0163345
791.337	0.0163770
791.415	0.0164615
791.493	0.0163842
791.571	0.0163434
791.649	0.0163140
791.727	0.0163665
791.806	0.0165280
791.884	0.0164196
791.962	0.0164775
792.040	0.0165364
792.118	0.0164437
792.196	0.0164352
792.274	0.0165201
792.352	0.0165073
792.431	0.0164532
792.509	0.0164639
792.587	0.0165099
792.665	0.0165923
792.743	0.0164577
792.821	0.0163192
792.899	0.0163809
792.977	0.0165845
793.056	0.0164246
793.134	0.0162764
793.212	0.0164979
793.290	0.0165050
793.368	0.0165072
793.446	0.0164588
793.524	0.0165748
793.602	0.0163802
793.681	0.0162765
793.759	0.0164197
793.837	0.0165355
793.915	0.0164016
793.993	0.0162951
794.071	0.0164763
794.149	0.0165253
794.227	0.0163577
794.306	0.0163312
794.384	0.0163574
794.462	0.0164959
794.540	0.0164259
794.618	0.0164924
794.696	0.0163566
794.774	0.0163818
794.852	0.0163885
794.931	0.0163593
795.009	0.0163801
795.087	0.0163444
795.165	0.0164570
795.243	0.0164071
795.321	0.0162715
795.399	0.0164008
795.477	0.0164518
795.556	0.0164015
795.634	0.0163993
795.712	0.0165016
795.790	0.0163246
795.868	0.0164742
795.946	0.0163976
796.024	0.0164513
796.102	0.0165069
796.181	0.0164484
796.259	0.0164383
796.337	0.0164807
796.415	0.0165093
796.493	0.0164585
796.571	0.0163451
796.649	0.0164383
796.727	0.0163966
796.806	0.0162723
796.884	0.0164260
796.962	0.0164936
797.040	0.0163659
797.118	0.0162145
797.196	0.0162610
797.274	0.0162256
797.352	0.0163150
797.431	0.0162225
797.509	0.0162171
797.587	0.0162595
797.665	0.0163465
797.743	0.0163728
797.821	0.0163404
797.899	0.0162637
797.977	0.0162386
798.056	0.0163620
798.134	0.0163451
798.212	0.0163615
798.290	0.0163685
798.368	0.0161716
798.446	0.0163099
798.524	0.0164488
798.602	0.0164183
798.681	0.0161182
798.759	0.0163627
798.837	0.0165041
798.915	0.0162803
798.993	0.0163927
799.071	0.0162114
799.149	0.0163835
799.227	0.0164286
799.306	0.0162537
799.384	0.0164121
799.462	0.0163856
799.540	0.0163285
799.618	0.0164162
799.696	0.0164812
799.774	0.0163998
799.852	0.0163489
799.931	0.0163327
800.009	0.0164167
800.087	0.0163750
800.165	0.0164698
800.243	0.0163581
800.321	0.0162119
800.399	0.0162543
800.477	0.0161221
800.556	0.0164193
800.634	0.0163398
800.712	0.0163707
800.790	0.0164626
800.868	0.0163939
800.946	0.0163628
801.024	0.0163689
801.102	0.0162302
801.181	0.0163115
801.259	0.0161819
801.337	0.0162558
801.415	0.0163988
801.493	0.0162695
801.571	0.0164152
801.649	0.0163527
801.727	0.0162750
801.806	0.0162823
801.884	0.0162962
801.962	0.0163730
802.040	0.0162936
802.118	0.0161739
802.196	0.0162329
802.274	0.0164033
802.352	0.0162298
802.431	0.0161968
802.509	0.0161671
802.587	0.0162601
802.665	0.0163074
802.743	0.0163512
802.821	0.0162561
802.899	0.0162040
802.977	0.0163189
803.056	0.0162986
803.134	0.0163122
803.212	0.0160873
803.290	0.0163660
803.368	0.0161668
803.446	0.0162501
803.524	0.0162280
803.602	0.0162518
803.681	0.0162072
803.759	0.0161816
803.837	0.0163451
803.915	0.0162694
803.993	0.0164150
804.071	0.0162452
804.149	0.0163116
804.227	0.0162729
804.306	0.0162875
804.384	0.0161790
804.462	0.0163638
804.540	0.0162171
804.618	0.0161911
804.696	0.0163737
804.774	0.0162422
804.852	0.0163145
804.931	0.0162616
805.009	0.0164233
805.087	0.0162962
805.165	0.0163695
805.243	0.0162669
805.321	0.0163091
805.399	0.0162746
805.477	0.0163563
805.556	0.0164944
805.634	0.0163329
805.712	0.0162365
805.790	0.0165263
805.868	0.0164713
805.946	0.0164216
806.024	0.0163654
806.102	0.0163792
806.181	0.0165903
806.259	0.0164118
806.337	0.0164866
806.415	0.0165826
806.493	0.0165343
806.571	0.0165446
806.649	0.0164159
806.727	0.0166030
806.806	0.0165497
806.884	0.0165265
806.962	0.0165002
807.040	0.0165717
807.118	0.0164500
807.196	0.0164675
807.274	0.0164201
807.352	0.0165712
807.431	0.0163898
807.509	0.0163199
807.587	0.0164442
807.665	0.0164876
807.743	0.0164374
807.821	0.0165527
807.899	0.0164508
807.977	0.0165000
808.056	0.0164880
808.134	0.0164768
808.212	0.0163866
808.290	0.0164455
808.368	0.0163434
808.446	0.0163547
808.524	0.0164632
808.602	0.0164029
808.681	0.0163670
808.759	0.0163242
808.837	0.0162698
808.915	0.0163482
808.993	0.0162691
809.071	0.0163403
809.149	0.0162232
809.227	0.0164157
809.306	0.0163872
809.384	0.0163762
809.462	0.0163284
809.540	0.0163374
809.618	0.0162875
809.696	0.0162444
809.774	0.0161844
809.852	0.0163467
809.931	0.0162281
810.009	0.0164011
810.087	0.0163146
810.165	0.0162212
810.243	0.0160690
810.321	0.0163419
810.399	0.0162532
810.477	0.0162225
810.556	0.0162638
810.634	0.0162688
810.712	0.0162976
810.790	0.0162845
810.868	0.0162657
810.946	0.0163441
811.024	0.0162065
811.102	0.0163237
811.181	0.0162320
811.259	0.0162078
811.337	0.0163389
811.415	0.0161464
811.493	0.0162244
811.571	0.0161244
811.649	0.0161386
811.727	0.0161694
811.806	0.0161605
811.884	0.0161303
811.962	0.0160985
812.040	0.0161267
812.118	0.0160295
812.196	0.0161094
812.274	0.0160839
812.352	0.0161948
812.431	0.0161974
812.509	0.0160508
812.587	0.0160699
812.665	0.0160912
812.743	0.0162016
812.821	0.0161745
812.899	0.0161828
812.977	0.0162362
813.056	0.0161587
813.134	0.0161423
813.212	0.0162118
813.290	0.0163419
813.368	0.0161716
813.446	0.0161775
813.524	0.0163059
813.602	0.0162106
813.681	0.0162837
813.759	0.0163434
813.837	0.0163371
813.915	0.0162955
813.993	0.0162357
814.071	0.0162532
814.149	0.0162445
814.227	0.0164078
814.306	0.0164458
814.384	0.0163246
814.462	0.0163747
814.540	0.0164343
814.618	0.0164983
814.696	0.0163437
814.774	0.0163550
814.852	0.0164253
814.931	0.0164705
815.009	0.0164623
815.087	0.0163482
815.165	0.0163696
815.243	0.0165041
815.321	0.0165317
815.399	0.0164386
815.477	0.0164622
815.556	0.0164783
815.634	0.0164550
815.712	0.0163277
815.790	0.0165842
815.868	0.0164790
815.946	0.0165936
816.024	0.0166099
816.102	0.0164738
816.181	0.0164085
816.259	0.0165919
816.337	0.0164878
816.415	0.0164902
816.493	0.0164458
816.571	0.0165009
816.649	0.0165717
816.727	0.0166067
816.806	0.0164508
816.884	0.0162942
816.962	0.0164525
817.040	0.0164796
817.118	0.0163767
817.196	0.0164256
817.274	0.0164960
817.352	0.0164447
817.431	0.0163145
817.509	0.0163879
817.587	0.0164590
817.665	0.0164320
817.743	0.0163918
817.821	0.0165163
817.899	0.0163991
817.977	0.0164548
818.056	0.0164764
818.134	0.0163346
818.212	0.0164239
818.290	0.0164090
818.368	0.0164407
818.446	0.0164413
818.524	0.0165034
818.602	0.0163494
818.681	0.0164526
818.759	0.0163538
818.837	0.0163470
818.915	0.0163549
818.993	0.0161968
819.071	0.0163116
819.149	0.0162411
819.227	0.0162572
819.306	0.0163262
819.384	0.0164209
819.462	0.0163432
819.540	0.0161774
819.618	0.0162885
819.696	0.0163087
819.774	0.0163246
819.852	0.0162038
819.931	0.0162476
820.009	0.0164371
820.087	0.0163435
820.165	0.0162051
820.243	0.0160966
820.321	0.0161450
820.399	0.0161829
820.477	0.0161586
820.556	0.0162271
820.634	0.0162247
820.712	0.0162313
820.790	0.0161427
820.868	0.0162279
820.946	0.0161559
821.024	0.0162045
821.102	0.0161961
821.181	0.0162315
821.259	0.0163286
821.337	0.0161389
821.415	0.0163404
821.493	0.0162857
821.571	0.0161463
821.649	0.0163449
821.727	0.0162906
821.806	0.0163404
821.884	0.0163444
821.962	0.0162936
822.040	0.0162769
822.118	0.0164468
822.196	0.0162910
822.274	0.0162901
822.352	0.0162350
822.431	0.0164683
822.509	0.0163617
822.587	0.0163103
822.665	0.0163419
822.743	0.0165392
822.821	0.0164780
822.899	0.0163638
822.977	0.0165511
823.056	0.0164402
823.134	0.0163934
823.212	0.0165391
823.290	0.0163615
823.368	0.0164982
823.446	0.0165330
823.524	0.0164893
823.602	0.0165092
823.681	0.0164611
823.759	0.0165307
823.837	0.0164963
823.915	0.0164210
823.993	0.0164860
824.071	0.0165264
824.149	0.0165442
824.227	0.0165727
824.306	0.0165653
824.384	0.0164594
824.462	0.0165112
824.540	0.0165176
824.618	0.0164795
824.696	0.0164742
824.774	0.0162676
824.852	0.0164431
824.931	0.0165453
825.009	0.0164156
825.087	0.0164526
825.165	0.0165455
825.243	0.0164861
825.321	0.0163847
825.399	0.0164523
825.477	0.0164414
825.556	0.0165050
825.634	0.0163282
825.712	0.0163615
825.790	0.0165557
825.868	0.0164726
825.946	0.0165128
826.024	0.0164833
826.102	0.0163273
826.181	0.0163488
826.259	0.0166469
826.337	0.0164297
826.415	0.0164288
826.493	0.0164283
826.571	0.0165223
826.649	0.0163531
826.727	0.0163729
826.806	0.0163322
826.884	0.0164735
826.962	0.0163466
827.040	0.0164811
827.118	0.0164547
827.196	0.0163885
827.274	0.0162994
827.352	0.0164825
827.431	0.0165513
827.509	0.0163936
827.587	0.0163818
827.665	0.0164664
827.743	0.0165781
827.821	0.0164785
827.899	0.0163885
827.977	0.0163912
828.056	0.0163315
828.134	0.0164404
828.212	0.0162157
828.290	0.0163831
828.368	0.0163407
828.446	0.0163752
828.524	0.0162735
828.602	0.0162269
828.681	0.0164173
828.759	0.0163001
828.837	0.0163696
828.915	0.0163156
828.993	0.0162417
829.071	0.0162076
829.149	0.0164291
829.227	0.0162903
829.306	0.0163221
829.384	0.0163873
829.462	0.0162009
829.540	0.0163678
829.618	0.0163207
829.696	0.0162945
829.774	0.0162607
829.852	0.0162749
829.931	0.0164178
830.009	0.0163689
830.087	0.0162832
830.165	0.0163810
830.243	0.0162782
830.321	0.0164023
830.399	0.0165574
830.477	0.0161964
830.556	0.0164307
830.634	0.0163860
830.712	0.0164274
830.790	0.0163697
830.868	0.0163797
830.946	0.0165607
831.024	0.0163393
831.102	0.0161915
831.181	0.0162569
831.259	0.0163390
831.337	0.0162978
831.415	0.0163498
831.493	0.0164381
831.571	0.0163906
831.649	0.0162930
831.727	0.0162824
831.806	0.0162193
831.884	0.0164288
831.962	0.0162993
832.040	0.0162788
832.118	0.0163718
832.196	0.0163020
832.274	0.0163170
832.352	0.0162206
832.431	0.0162070
832.509	0.0162690
832.587	0.0162428
832.665	0.0163353
832.743	0.0162428
832.821	0.0163059
832.899	0.0162005
832.977	0.0162089
833.056	0.0162372
833.134	0.0161316
833.212	0.0161948
833.290	0.0162483
833.368	0.0162212
833.446	0.0162694
833.524	0.0161819
833.602	0.0164009
833.681	0.0163461
833.759	0.0161588
833.837	0.0162775
833.915	0.0163268
833.993	0.0162184
834.071	0.0163048
834.149	0.0164891
834.227	0.0163636
834.306	0.0163058
834.384	0.0161877
834.462	0.0163788
834.540	0.0162366
834.618	0.0162386
834.696	0.0163436
834.774	0.0161288
834.852	0.0161980
834.931	0.0160078
835.009	0.0161931
835.087	0.0161304
835.165	0.0161740
835.243	0.0162308
835.321	0.0161119
835.399	0.0161037
835.477	0.0162761
835.556	0.0161846
835.634	0.0162196
835.712	0.0162418
835.790	0.0162354
835.868	0.0162343
835.946	0.0161787
836.024	0.0162592
836.102	0.0162053
836.181	0.0163129
836.259	0.0163152
836.337	0.0161802
836.415	0.0162643
836.493	0.0162885
836.571	0.0162258
836.649	0.0163570
836.727	0.0162625
836.806	0.0161343
836.884	0.0163485
836.962	0.0162871
837.040	0.0162206
837.118	0.0163921
837.196	0.0162656
837.274	0.0163607
837.352	0.0163602
837.431	0.0162306
837.509	0.0163499
837.587	0.0161296
837.665	0.0162771
837.743	0.0162536
837.821	0.0159972
837.899	0.0162688
837.977	0.0164336
838.056	0.0163741
838.134	0.0162875
838.212	0.0163035
838.290	0.0163059
838.368	0.0164585
838.446	0.0164636
838.524	0.0164565
838.602	0.0163818
838.681	0.0164803
838.759	0.0164748
838.837	0.0165054
838.915	0.0165128
838.993	0.0165742
839.071	0.0165875
839.149	0.0165125
839.227	0.0165823
839.306	0.0166551
839.384	0.0166800
839.462	0.0167419
839.540	0.0166703
839.618	0.0168050
839.696	0.0168189
839.774	0.0166949
839.852	0.0167286
839.931	0.0166628
840.009	0.0167886
840.087	0.0167265
840.165	0.0166189
840.243	0.0166709
840.321	0.0166684
840.399	0.0166841
840.477	0.0165153
840.556	0.0166821
840.634	0.0166499
840.712	0.0166293
840.790	0.0165414
840.868	0.0166280
840.946	0.0166441
841.024	0.0165865
841.102	0.0166128
841.181	0.0167243
841.259	0.0165636
841.337	0.0166367
841.415	0.0165390
841.493	0.0165834
841.571	0.0164569
841.649	0.0164159
841.727	0.0163979
841.806	0.0164520
841.884	0.0163698
841.962	0.0162807
842.040	0.0162880
842.118	0.0163718
842.196	0.0164153
842.274	0.0163146
842.352	0.0163026
842.431	0.0162759
842.509	0.0162328
842.587	0.0162154
842.665	0.0161836
842.743	0.0162583
842.821	0.0163538
842.899	0.0162500
842.977	0.0162680
843.056	0.0161279
843.134	0.0161141
843.212	0.0160106
843.290	0.0162558
843.368	0.0161076
843.446	0.0160542
843.524	0.0161792
843.602	0.0161761
843.681	0.0161825
843.759	0.0161050
843.837	0.0160986
843.915	0.0161558
843.993	0.0161713
844.071	0.0162085
844.149	0.0160577
844.227	0.0162224
844.306	0.0163029
844.384	0.0161964
844.462	0.0162299
844.540	0.0163110
844.618	0.0162648
844.696	0.0162552
844.774	0.0163665
844.852	0.0162166
844.931	0.0163976
845.009	0.0163761
845.087	0.0162247
845.165	0.0164035
845.243	0.0164208
845.321	0.0163197
845.399	0.0164195
845.477	0.0165064
845.556	0.0164297
845.634	0.0163631
845.712	0.0165035
845.790	0.0163914
845.868	0.0165411
845.946	0.0163390
846.024	0.0163117
846.102	0.0163767
846.181	0.0164638
846.259	0.0163831
846.337	0.0164944
846.415	0.0163438
846.493	0.0163689
846.571	0.0165051
846.649	0.0164704
846.727	0.0164362
846.806	0.0165084
846.884	0.0164630
846.962	0.0162087
847.040	0.0163998
847.118	0.0164680
847.196	0.0164384
847.274	0.0166256
847.352	0.0166901
847.431	0.0164874
847.509	0.0163766
847.587	0.0164437
847.665	0.0164897
847.743	0.0164250
847.821	0.0164602
847.899	0.0164928
847.977	0.0165801
848.056	0.0164719
848.134	0.0164220
848.212	0.0163555
848.290	0.0163673
848.368	0.0164984
848.446	0.0164961
848.524	0.0163844
848.602	0.0164318
848.681	0.0164770
848.759	0.0164432
848.837	0.0164310
848.915	0.0163663
848.993	0.0164421
849.071	0.0164391
849.149	0.0163431
849.227	0.0162983
849.306	0.0162978
849.384	0.0163927
849.462	0.0164120
849.540	0.0163426
849.618	0.0164019
849.696	0.0164307
849.774	0.0164809
849.852	0.0165414
849.931	0.0165018
850.009	0.0165318
850.087	0.0164408
850.165	0.0163718
850.243	0.0164567
850.321	0.0165533
850.399	0.0164590
850.477	0.0164853
850.556	0.0166019
850.634	0.0164577
850.712	0.0164780
850.790	0.0164284
850.868	0.0166348
850.946	0.0165199
851.024	0.0164745
851.102	0.0164541
851.181	0.0165472
851.259	0.0166508
851.337	0.0164833
851.415	0.0165491
851.493	0.0164947
851.571	0.0164884
851.649	0.0164169
851.727	0.0164204
851.806	0.0165624
851.884	0.0166057
851.962	0.0163908
852.040	0.0163567
852.118	0.0164134
852.196	0.0165436
852.274	0.0165595
852.352	0.0164455
852.431	0.0163776
852.509	0.0163376
852.587	0.0164289
852.665	0.0163833
852.743	0.0163593
852.821	0.0162547
852.899	0.0164046
852.977	0.0162592
853.056	0.0163711
853.134	0.0163778
853.212	0.0162817
853.290	0.0163595
853.368	0.0164304
853.446	0.0161932
853.524	0.0163847
853.602	0.0163943
853.681	0.0164423
853.759	0.0162955
853.837	0.0164298
853.915	0.0162831
853.993	0.0163719
854.071	0.0162813
854.149	0.0163313
854.227	0.0161930
854.306	0.0161639
854.384	0.0163398
854.462	0.0163569
854.540	0.0163454
854.618	0.0162581
854.696	0.0163896
854.774	0.0162582
854.852	0.0162525
854.931	0.0162988
855.009	0.0162714
855.087	0.0162895
855.165	0.0162240
855.243	0.0161258
855.321	0.0163140
855.399	0.0162392
855.477	0.0162946
855.556	0.0161599
855.634	0.0161398
855.712	0.0161553
855.790	0.0163380
855.868	0.0162857
855.946	0.0162473
856.024	0.0162463
856.102	0.0161961
856.181	0.0162457
856.259	0.0161212
856.337	0.0162698
856.415	0.0162405
856.493	0.0161451
856.571	0.0161697
856.649	0.0162510
856.727	0.0162451
856.806	0.0161625
856.884	0.0163142
856.962	0.0163729
857.040	0.0162407
857.118	0.0163340
857.196	0.0163226
857.274	0.0162831
857.352	0.0162565
857.431	0.0163351
857.509	0.0162439
857.587	0.0163441
857.665	0.0163103
857.743	0.0164190
857.821	0.0164819
857.899	0.0163472
857.977	0.0163258
858.056	0.0164641
858.134	0.0165170
858.212	0.0163242
858.290	0.0164640
858.368	0.0165347
858.446	0.0164726
858.524	0.0163260
858.602	0.0164446
858.681	0.0165086
858.759	0.0163303
858.837	0.0164644
858.915	0.0163537
858.993	0.0162495
859.071	0.0163790
859.149	0.0163812
859.227	0.0165263
859.306	0.0164570
859.384	0.0164252
859.462	0.0163107
859.540	0.0162946
859.618	0.0164343
859.696	0.0164308
859.774	0.0165078
859.852	0.0164472
859.931	0.0165546
860.009	0.0163927
860.087	0.0164111
860.165	0.0164522
860.243	0.0164753
860.321	0.0163675
860.399	0.0164689
860.477	0.0164079
860.556	0.0164410
860.634	0.0165460
860.712	0.0164104
860.790	0.0163837
860.868	0.0166656
860.946	0.0165930
861.024	0.0163609
861.102	0.0162943
861.181	0.0165600
861.259	0.0165919
861.337	0.0164375
861.415	0.0166134
861.493	0.0164748
861.571	0.0165946
861.649	0.0163667
861.727	0.0164213
861.806	0.0164539
861.884	0.0165065
861.962	0.0165771
862.040	0.0163790
862.118	0.0165179
862.196	0.0163600
862.274	0.0163443
862.352	0.0164006
862.431	0.0165000
862.509	0.0163583
862.587	0.0163159
862.665	0.0165578
862.743	0.0163617
862.821	0.0163722
862.899	0.0164742
862.977	0.0163451
863.056	0.0162711
863.134	0.0163294
863.212	0.0162482
863.290	0.0164074
863.368	0.0164080
863.446	0.0163763
863.524	0.0164439
863.602	0.0163416
863.681	0.0163969
863.759	0.0163628
863.837	0.0163473
863.915	0.0164574
863.993	0.0163773
864.071	0.0163023
864.149	0.0163405
864.227	0.0164862
864.306	0.0163892
864.384	0.0163758
864.462	0.0164114
864.540	0.0162894
864.618	0.0163563
864.696	0.0164341
864.774	0.0163319
864.852	0.0164383
864.931	0.0163850
865.009	0.0163409
865.087	0.0163469
865.165	0.0164080
865.243	0.0164080
865.321	0.0162979
865.399	0.0163891
865.477	0.0162842
865.556	0.0162731
865.634	0.0162177
865.712	0.0164429
865.790	0.0163730
865.868	0.0162305
865.946	0.0163863
866.024	0.0163342
866.102	0.0162927
866.181	0.0164000
866.259	0.0164526
866.337	0.0164304
866.415	0.0163000
866.493	0.0163965
866.571	0.0164627
866.649	0.0164433
866.727	0.0162998
866.806	0.0162858
866.884	0.0162419
866.962	0.0162828
867.040	0.0163992
867.118	0.0164031
867.196	0.0162272
867.274	0.0164082
867.352	0.0162254
867.431	0.0163030
867.509	0.0162994
867.587	0.0164120
867.665	0.0164134
867.743	0.0163432
867.821	0.0163808
867.899	0.0162736
867.977	0.0165305
868.056	0.0164134
868.134	0.0163400
868.212	0.0163464
868.290	0.0164064
868.368	0.0164030
868.446	0.0163306
868.524	0.0163982
868.602	0.0162807
868.681	0.0164169
868.759	0.0164279
868.837	0.0163438
868.915	0.0165176
868.993	0.0163940
869.071	0.0165160
869.149	0.0165056
869.227	0.0164358
869.306	0.0164944
869.384	0.0165137
869.462	0.0164267
869.540	0.0163950
869.618	0.0163868
869.696	0.0164476
869.774	0.0165174
869.852	0.0165431
869.931	0.0164233
870.009	0.0164097
870.087	0.0165949
870.165	0.0163928
870.243	0.0164256
870.321	0.0164747
870.399	0.0165327
870.477	0.0164904
870.556	0.0163654
870.634	0.0164435
870.712	0.0165445
870.790	0.0164379
870.868	0.0164262
870.946	0.0164867
871.024	0.0165280
871.102	0.0164393
871.181	0.0164591
871.259	0.0165686
871.337	0.0165168
871.415	0.0165054
871.493	0.0162627
871.571	0.0163501
871.649	0.0165183
871.727	0.0164793
871.806	0.0163524
871.884	0.0163964
871.962	0.0165109
872.040	0.0165366
872.118	0.0163455
872.196	0.0162702
872.274	0.0162775
872.352	0.0164174
872.431	0.0162824
872.509	0.0163992
872.587	0.0163805
872.665	0.0162672
872.743	0.0163235
872.821	0.0162318
872.899	0.0162585
872.977	0.0161839
873.056	0.0162468
873.134	0.0163036
873.212	0.0163722
873.290	0.0163264
873.368	0.0162663
873.446	0.0163824
873.524	0.0161472
873.602	0.0161736
873.681	0.0162576
873.759	0.0162259
873.837	0.0161150
873.915	0.0162710
873.993	0.0162963
874.071	0.0161853
874.149	0.0161810
874.227	0.0161385
874.306	0.0161834
874.384	0.0161683
874.462	0.0163541
874.540	0.0163537
874.618	0.0163004
874.696	0.0161261
874.774	0.0161572
874.852	0.0161826
874.931	0.0163147
875.009	0.0162202
875.087	0.0162288
875.165	0.0163270
875.243	0.0163480
875.321	0.0162352
875.399	0.0164629
875.477	0.0163803
875.556	0.0161835
875.634	0.0162903
875.712	0.0164902
875.790	0.0162234
875.868	0.0163126
875.946	0.0163188
876.024	0.0162798
876.102	0.0164510
876.181	0.0164278
876.259	0.0163148
876.337	0.0163539
876.415	0.0164007
876.493	0.0164122
876.571	0.0163162
876.649	0.0162137
876.727	0.0163441
876.806	0.0163450
876.884	0.0163208
876.962	0.0162458
877.040	0.0162659
877.118	0.0163139
877.196	0.0163326
877.274	0.0162964
877.352	0.0164031
877.431	0.0163216
877.509	0.0163179
877.587	0.0163184
877.665	0.0163463
877.743	0.0163822
877.821	0.0165105
877.899	0.0164384
877.977	0.0163402
878.056	0.0164443
878.134	0.0163578
878.212	0.0163503
878.290	0.0164381
878.368	0.0163540
878.446	0.0163955
878.524	0.0163680
878.602	0.0162842
878.681	0.0164227
878.759	0.0164278
878.837	0.0162836
878.915	0.0164432
878.993	0.0162734
879.071	0.0162324
879.149	0.0164552
879.227	0.0163720
879.306	0.0163210
879.384	0.0162408
879.462	0.0162866
879.540	0.0163825
879.618	0.0163656
879.696	0.0162833
879.774	0.0162170
879.852	0.0163625
879.931	0.0163313
880.009	0.0163068
880.087	0.0162990
880.165	0.0163280
880.243	0.0165365
880.321	0.0164230
880.399	0.0163696
880.477	0.0164806
880.556	0.0164223
880.634	0.0163478
880.712	0.0162875
880.790	0.0164874
880.868	0.0164639
880.946	0.0165036
881.024	0.0164625
881.102	0.0164580
881.181	0.0162729
881.259	0.0163541
881.337	0.0164071
881.415	0.0164109
881.493	0.0165182
881.571	0.0164153
881.649	0.0165078
881.727	0.0164919
881.806	0.0165285
881.884	0.0163950
881.962	0.0163699
882.040	0.0164007
882.118	0.0163826
882.196	0.0164822
882.274	0.0164314
882.352	0.0163663
882.431	0.0163844
882.509	0.0163877
882.587	0.0164048
882.665	0.0163739
882.743	0.0164277
882.821	0.0163501
882.899	0.0162974
882.977	0.0164164
883.056	0.0163651
883.134	0.0163786
883.212	0.0164575
883.290	0.0163726
883.368	0.0164031
883.446	0.0164374
883.524	0.0164819
883.602	0.0162135
883.681	0.0164473
883.759	0.0164127
883.837	0.0163858
883.915	0.0163757
883.993	0.0163991
884.071	0.0164841
884.149	0.0165465
884.227	0.0165167
884.306	0.0164222
884.384	0.0165759
884.462	0.0165703
884.540	0.0164233
884.618	0.0164938
884.696	0.0164257
884.774	0.0164352
884.852	0.0164397
884.931	0.0164412
885.009	0.0164674
885.087	0.0163931
885.165	0.0163876
885.243	0.0163863
885.321	0.0163754
885.399	0.0164084
885.477	0.0163068
885.556	0.0163568
885.634	0.0162400
885.712	0.0163792
885.790	0.0164287
885.868	0.0162607
885.946	0.0164110
886.024	0.0163283
886.102	0.0164027
886.181	0.0164560
886.259	0.0163329
886.337	0.0163657
886.415	0.0163050
886.493	0.0163710
886.571	0.0163673
886.649	0.0163440
886.727	0.0164062
886.806	0.0163683
886.884	0.0163864
886.962	0.0163772
887.040	0.0165267
887.118	0.0163649
887.196	0.0164681
887.274	0.0164183
887.352	0.0164857
887.431	0.0164859
887.509	0.0165070
887.587	0.0164832
887.665	0.0163994
887.743	0.0164857
887.821	0.0163165
887.899	0.0163603
887.977	0.0164764
888.056	0.0162968
888.134	0.0164207
888.212	0.0163209
888.290	0.0163631
888.368	0.0163954
888.446	0.0162902
888.524	0.0164999
888.602	0.0163813
888.681	0.0163979
888.759	0.0162519
888.837	0.0163409
888.915	0.0163556
888.993	0.0163718
889.071	0.0163292
889.149	0.0163027
889.227	0.0162965
889.306	0.0164145
889.384	0.0164352
889.462	0.0162740
889.540	0.0164251
889.618	0.0164465
889.696	0.0163361
889.774	0.0163340
889.852	0.0163930
889.931	0.0164072
890.009	0.0162999
890.087	0.0161842
890.165	0.0164124
890.243	0.0163713
890.321	0.0163081
890.399	0.0163873
890.477	0.0163092
890.556	0.0163414
890.634	0.0162379
890.712	0.0162677
890.790	0.0163836
890.868	0.0162956
890.946	0.0163316
891.024	0.0162262
891.102	0.0162462
891.181	0.0162486
891.259	0.0162524
891.337	0.0162273
891.415	0.0161826
891.493	0.0164218
891.571	0.0163995
891.649	0.0161795
891.727	0.0162960
891.806	0.0161707
891.884	0.0163947
891.962	0.0163124
892.040	0.0162552
892.118	0.0161889
892.196	0.0163044
892.274	0.0162969
892.352	0.0164102
892.431	0.0162925
892.509	0.0162759
892.587	0.0164302
892.665	0.0164236
892.743	0.0163017
892.821	0.0163750
892.899	0.0163345
892.977	0.0163654
893.056	0.0162512
893.134	0.0162849
893.212	0.0164233
893.290	0.0165515
893.368	0.0163541
893.446	0.0164072
893.524	0.0164716
893.602	0.0163519
893.681	0.0164091
893.759	0.0164714
893.837	0.0164162
893.915	0.0163690
893.993	0.0164823
894.071	0.0165018
894.149	0.0164843
894.227	0.0164297
894.306	0.0164593
894.384	0.0164553
894.462	0.0164193
894.540	0.0164471
894.618	0.0165181
894.696	0.0165196
894.774	0.0164397
894.852	0.0164103
894.931	0.0165250
895.009	0.0165654
895.087	0.0165199
895.165	0.0164420
895.243	0.0165001
895.321	0.0163592
895.399	0.0165147
895.477	0.0164523
895.556	0.0164481
895.634	0.0165549
895.712	0.0164268
895.790	0.0166074
895.868	0.0163544
895.946	0.0164306
896.024	0.0165460
896.102	0.0165496
896.181	0.0164328
896.259	0.0165541
896.337	0.0164874
896.415	0.0163105
896.493	0.0162662
896.571	0.0163375
896.649	0.0162077
896.727	0.0162807
896.806	0.0164330
896.884	0.0162303
896.962	0.0162128
897.040	0.0162249
897.118	0.0162965
897.196	0.0163805
897.274	0.0161856
897.352	0.0163187
897.431	0.0162890
897.509	0.0162005
897.587	0.0162273
897.665	0.0163737
897.743	0.0161644
897.821	0.0162167
897.899	0.0163795
897.977	0.0162968
898.056	0.0162433
898.134	0.0163895
898.212	0.0164177
898.290	0.0163027
898.368	0.0162911
898.446	0.0164045
898.524	0.0163526
898.602	0.0164507
898.681	0.0165846
898.759	0.0164070
898.837	0.0163569
898.915	0.0163622
898.993	0.0164808
899.071	0.0164413
899.149	0.0163219
899.227	0.0164775
899.306	0.0163174
899.384	0.0163771
899.462	0.0163850
899.540	0.0163393
899.618	0.0164930
899.696	0.0164600
899.774	0.0165086
899.852	0.0165151
899.931	0.0164104
900.009	0.0164722
900.087	0.0165569
900.165	0.0164857
900.243	0.0164767
900.321	0.0165807
900.399	0.0164351
900.477	0.0163587
900.556	0.0164597
900.634	0.0164903
900.712	0.0163897
900.790	0.0163193
900.868	0.0164105
900.946	0.0164615
901.024	0.0165587
901.102	0.0164094
901.181	0.0162958
901.259	0.0162560
901.337	0.0163448
901.415	0.0163811
901.493	0.0164936
901.571	0.0162148
901.649	0.0162763
901.727	0.0162902
901.806	0.0164607
901.884	0.0163142
901.962	0.0163934
902.040	0.0163060
902.118	0.0162167
902.196	0.0162016
902.274	0.0163510
902.352	0.0162215
902.431	0.0161555
902.509	0.0162123
902.587	0.0161709
902.665	0.0161586
902.743	0.0161780
902.821	0.0163177
902.899	0.0162926
902.977	0.0162577
903.056	0.0161974
903.134	0.0161599
903.212	0.0161835
903.290	0.0161817
903.368	0.0162762
903.446	0.0162238
903.524	0.0162993
903.602	0.0162705
903.681	0.0161880
903.759	0.0162918
903.837	0.0161221
903.915	0.0163155
903.993	0.0162655
904.071	0.0164091
904.149	0.0163119
904.227	0.0161806
904.306	0.0162069
904.384	0.0163486
904.462	0.0164019
904.540	0.0163864
904.618	0.0164285
904.696	0.0164197
904.774	0.0163357
904.852	0.0164406
904.931	0.0163800
905.009	0.0163744
905.087	0.0163162
905.165	0.0163694
905.243	0.0164861
905.321	0.0164458
905.399	0.0163585
905.477	0.0164201
905.556	0.0164465
905.634	0.0162849
905.712	0.0162795
905.790	0.0163595
905.868	0.0163754
905.946	0.0163049
906.024	0.0165434
906.102	0.0163061
906.181	0.0164754
906.259	0.0165517
906.337	0.0164428
906.415	0.0164472
906.493	0.0165005
906.571	0.0164930
906.649	0.0164067
906.727	0.0164630
906.806	0.0165213
906.884	0.0165356
906.962	0.0164678
907.040	0.0164243
907.118	0.0163006
907.196	0.0165082
907.274	0.0163744
907.352	0.0163490
907.431	0.0164025
907.509	0.0163678
907.587	0.0164253
907.665	0.0164654
907.743	0.0162864
907.821	0.0163755
907.899	0.0163382
907.977	0.0163457
908.056	0.0164001
908.134	0.0164047
908.212	0.0164746
908.290	0.0164076
908.368	0.0163209
908.446	0.0163956
908.524	0.0163152
908.602	0.0164471
908.681	0.0162096
908.759	0.0162177
908.837	0.0163985
908.915	0.0164147
908.993	0.0162874
909.071	0.0164086
909.149	0.0164423
909.227	0.0163836
909.306	0.0164200
909.384	0.0163264
909.462	0.0162857
909.540	0.0163690
909.618	0.0164079
909.696	0.0162894
909.774	0.0161880
909.852	0.0162772
909.931	0.0161933
910.009	0.0162132
910.087	0.0162516
910.165	0.0163666
910.243	0.0162729
910.321	0.0163364
910.399	0.0162713
910.477	0.0163889
910.556	0.0163448
910.634	0.0163170
910.712	0.0163808
910.790	0.0162836
910.868	0.0164087
910.946	0.0163069
911.024	0.0163528
911.102	0.0164140
911.181	0.0163770
911.259	0.0163189
911.337	0.0163097
911.415	0.0161879
911.493	0.0162724
911.571	0.0163641
911.649	0.0163757
911.727	0.0162888
911.806	0.0164167
911.884	0.0164812
911.962	0.0163702
912.040	0.0164114
912.118	0.0164584
912.196	0.0165106
912.274	0.0163692
912.352	0.0164118
912.431	0.0165033
912.509	0.0164066
912.587	0.0164620
912.665	0.0163271
912.743	0.0163852
912.821	0.0163040
912.899	0.0164096
912.977	0.0163739
913.056	0.0163361
913.134	0.0163016
913.212	0.0162559
913.290	0.0163563
913.368	0.0163052
913.446	0.0162756
913.524	0.0163087
913.602	0.0162753
913.681	0.0161993
913.759	0.0161233
913.837	0.0160917
913.915	0.0161974
913.993	0.0162471
914.071	0.0162820
914.149	0.0162192
914.227	0.0161680
914.306	0.0162210
914.384	0.0162100
914.462	0.0162774
914.540	0.0162835
914.618	0.0162814
914.696	0.0161636
914.774	0.0161607
914.852	0.0161721
914.931	0.0163146
915.009	0.0162794
915.087	0.0160780
915.165	0.0162658
915.243	0.0161253
915.321	0.0161518
915.399	0.0162798
915.477	0.0162238
915.556	0.0161959
915.634	0.0164224
915.712	0.0162962
915.790	0.0162859
915.868	0.0163969
915.946	0.0162151
916.024	0.0163218
916.102	0.0164063
916.181	0.0164944
916.259	0.0162506
916.337	0.0163631
916.415	0.0165387
916.493	0.0163735
916.571	0.0164272
916.649	0.0162430
916.727	0.0162110
916.806	0.0163982
916.884	0.0164038
916.962	0.0161629
917.040	0.0161965
917.118	0.0162569
917.196	0.0163393
917.274	0.0161784
917.352	0.0162263
917.431	0.0162458
917.509	0.0162189
917.587	0.0161836
917.665	0.0163575
917.743	0.0162364
917.821	0.0162277
917.899	0.0163112
917.977	0.0163277
918.056	0.0163275
918.134	0.0164753
918.212	0.0161979
918.290	0.0163279
918.368	0.0164317
918.446	0.0164243
918.524	0.0162621
918.602	0.0164044
918.681	0.0163474
918.759	0.0164111
918.837	0.0163493
918.915	0.0164539
918.993	0.0163402
919.071	0.0164952
919.149	0.0164577
919.227	0.0165536
919.306	0.0164028
919.384	0.0165616
919.462	0.0165191
919.540	0.0164241
919.618	0.0164500
919.696	0.0164442
919.774	0.0165664
919.852	0.0164629
919.931	0.0163553
920.009	0.0163702
920.087	0.0164137
920.165	0.0165742
920.243	0.0165198
920.321	0.0163590
920.399	0.0163429
920.477	0.0163946
920.556	0.0163756
920.634	0.0163172
920.712	0.0163684
920.790	0.0164269
920.868	0.0163388
920.946	0.0164088
921.024	0.0163537
921.102	0.0162912
921.181	0.0163815
921.259	0.0163676
921.337	0.0163166
921.415	0.0162536
921.493	0.0164594
921.571	0.0163864
921.649	0.0163280
921.727	0.0163708
921.806	0.0164012
921.884	0.0163297
921.962	0.0163125
922.040	0.0162490
922.118	0.0163544
922.196	0.0163471
922.274	0.0162076
922.352	0.0162602
922.431	0.0164117
922.509	0.0163460
922.587	0.0163518
922.665	0.0164664
922.743	0.0163561
922.821	0.0162383
922.899	0.0164371
922.977	0.0164257
923.056	0.0163991
923.134	0.0162057
923.212	0.0163953
923.290	0.0163668
923.368	0.0164518
923.446	0.0163257
923.524	0.0163695
923.602	0.0164314
923.681	0.0163754
923.759	0.0163239
923.837	0.0163187
923.915	0.0162825
923.993	0.0164396
924.071	0.0163832
924.149	0.0163393
924.227	0.0162076
924.306	0.0163856
924.384	0.0162345
924.462	0.0163023
924.540	0.0164096
924.618	0.0161816
924.696	0.0162029
924.774	0.0162346
924.852	0.0161123
924.931	0.0162550
925.009	0.0162157
925.087	0.0162849
925.165	0.0161678
925.243	0.0161839
925.321	0.0161694
925.399	0.0162399
925.477	0.0160983
925.556	0.0161206
925.634	0.0162551
925.712	0.0162146
925.790	0.0161561
925.868	0.0161225
925.946	0.0161127
926.024	0.0161957
926.102	0.0163445
926.181	0.0161630
926.259	0.0161608
926.337	0.0161915
926.415	0.0162611
926.493	0.0162717
926.571	0.0161948
926.649	0.0161857
926.727	0.0163028
926.806	0.0162363
926.884	0.0163107
926.962	0.0162360
927.040	0.0162847
927.118	0.0163796
927.196	0.0164052
927.274	0.0161884
927.352	0.0163143
927.431	0.0162840
927.509	0.0163529
927.587	0.0163363
927.665	0.0164527
927.743	0.0166030
927.821	0.0164865
927.899	0.0163570
927.977	0.0164388
928.056	0.0165037
928.134	0.0165298
928.212	0.0165405
928.290	0.0163329
928.368	0.0165931
928.446	0.0166187
928.524	0.0165598
928.602	0.0164770
928.681	0.0164549
928.759	0.0163702
928.837	0.0164905
928.915	0.0165126
928.993	0.0163737
929.071	0.0164503
929.149	0.0164322
929.227	0.0164034
929.306	0.0165626
929.384	0.0164045
929.462	0.0164460
929.540	0.0163826
929.618	0.0164699
929.696	0.0162636
929.774	0.0164439
929.852	0.0165569
929.931	0.0164836
