05/19/2022	01:11:09	Ver.	4.1	UNKNOWN
Optical Delay	610.008675	Delta X		0.078125	Sweeps	1	Scan Rate	0/0
Coordinates	Axis 1	NaN	Axis 2	NaN	Axis 3	NaN	Axis 4	NaN	Axis 5	NaN	Axis 6	0.000000
TX Power	0.000000	RX Power	0.000000

610.009	0.0162805
610.087	0.0161824
610.165	0.0162621
610.243	0.0163602
610.321	0.0162453
610.399	0.0162483
610.477	0.0162046
610.556	0.0161486
610.634	0.0162156
610.712	0.0161544
610.790	0.0162574
610.868	0.0161980
610.946	0.0160216
611.024	0.0162235
611.102	0.0161860
611.181	0.0162094
611.259	0.0160941
611.337	0.0159877
611.415	0.0162152
611.493	0.0162991
611.571	0.0161633
611.649	0.0161101
611.727	0.0162059
611.806	0.0161516
611.884	0.0160722
611.962	0.0161428
612.040	0.0160880
612.118	0.0161411
612.196	0.0161320
612.274	0.0161409
612.352	0.0162067
612.431	0.0160898
612.509	0.0162842
612.587	0.0160569
612.665	0.0160751
612.743	0.0161123
612.821	0.0160880
612.899	0.0160767
612.977	0.0160496
613.056	0.0160026
613.134	0.0160242
613.212	0.0161084
613.290	0.0162621
613.368	0.0158692
613.446	0.0159834
613.524	0.0162576
613.602	0.0160934
613.681	0.0161160
613.759	0.0161919
613.837	0.0160979
613.915	0.0160829
613.993	0.0161061
614.071	0.0162800
614.149	0.0161753
614.227	0.0161475
614.306	0.0161147
614.384	0.0161777
614.462	0.0160853
614.540	0.0160996
614.618	0.0161787
614.696	0.0161426
614.774	0.0160826
614.852	0.0161103
614.931	0.0162387
615.009	0.0161896
615.087	0.0161654
615.165	0.0161568
615.243	0.0160577
615.321	0.0160812
615.399	0.0161020
615.477	0.0161408
615.556	0.0160175
615.634	0.0160479
615.712	0.0160712
615.790	0.0160959
615.868	0.0161354
615.946	0.0161309
616.024	0.0160793
616.102	0.0161219
616.181	0.0161337
616.259	0.0160979
616.337	0.0161352
616.415	0.0160130
616.493	0.0160681
616.571	0.0162964
616.649	0.0161095
616.727	0.0160896
616.806	0.0161672
616.884	0.0160613
616.962	0.0160349
617.040	0.0161864
617.118	0.0161340
617.196	0.0161813
617.274	0.0161457
617.352	0.0162331
617.431	0.0162273
617.509	0.0162649
617.587	0.0162757
617.665	0.0162551
617.743	0.0161880
617.821	0.0162232
617.899	0.0161870
617.977	0.0162004
618.056	0.0161356
618.134	0.0162494
618.212	0.0161272
618.290	0.0162232
618.368	0.0161301
618.446	0.0160841
618.524	0.0161314
618.602	0.0162039
618.681	0.0161485
618.759	0.0161435
618.837	0.0162621
618.915	0.0161249
618.993	0.0161337
619.071	0.0160939
619.149	0.0161427
619.227	0.0162119
619.306	0.0163324
619.384	0.0161375
619.462	0.0161548
619.540	0.0162611
619.618	0.0162774
619.696	0.0162255
619.774	0.0163369
619.852	0.0161800
619.931	0.0162747
620.009	0.0162994
620.087	0.0162139
620.165	0.0161901
620.243	0.0162141
620.321	0.0162668
620.399	0.0163391
620.477	0.0162437
620.556	0.0163335
620.634	0.0162307
620.712	0.0162420
620.790	0.0163528
620.868	0.0163888
620.946	0.0163691
621.024	0.0164182
621.102	0.0163103
621.181	0.0163344
621.259	0.0162822
621.337	0.0163009
621.415	0.0163828
621.493	0.0165073
621.571	0.0164858
621.649	0.0162703
621.727	0.0163824
621.806	0.0166192
621.884	0.0164398
621.962	0.0163581
622.040	0.0163692
622.118	0.0163118
622.196	0.0165816
622.274	0.0164606
622.352	0.0166483
622.431	0.0164169
622.509	0.0164430
622.587	0.0163577
622.665	0.0163067
622.743	0.0162448
622.821	0.0163712
622.899	0.0163614
622.977	0.0163683
623.056	0.0163779
623.134	0.0162473
623.212	0.0161488
623.290	0.0164028
623.368	0.0164188
623.446	0.0162202
623.524	0.0162280
623.602	0.0164013
623.681	0.0163306
623.759	0.0162075
623.837	0.0161626
623.915	0.0162735
623.993	0.0163661
624.071	0.0162937
624.149	0.0162879
624.227	0.0163509
624.306	0.0163457
624.384	0.0163066
624.462	0.0163147
624.540	0.0163173
624.618	0.0162907
624.696	0.0163952
624.774	0.0164500
624.852	0.0163453
624.931	0.0163692
625.009	0.0164668
625.087	0.0164386
625.165	0.0164502
625.243	0.0163065
625.321	0.0163941
625.399	0.0163391
625.477	0.0162626
625.556	0.0163776
625.634	0.0162646
625.712	0.0163765
625.790	0.0164069
625.868	0.0163048
625.946	0.0162256
626.024	0.0163322
626.102	0.0164259
626.181	0.0162625
626.259	0.0161042
626.337	0.0162988
626.415	0.0163159
626.493	0.0162956
626.571	0.0161915
626.649	0.0162038
626.727	0.0161227
626.806	0.0161668
626.884	0.0162938
626.962	0.0161853
627.040	0.0161705
627.118	0.0162515
627.196	0.0162224
627.274	0.0160976
627.352	0.0161998
627.431	0.0162621
627.509	0.0162804
627.587	0.0162254
627.665	0.0162791
627.743	0.0162920
627.821	0.0162924
627.899	0.0162109
627.977	0.0163065
628.056	0.0163000
628.134	0.0162486
628.212	0.0163186
628.290	0.0162139
628.368	0.0161510
628.446	0.0161008
628.524	0.0162222
628.602	0.0161789
628.681	0.0159918
628.759	0.0162106
628.837	0.0161855
628.915	0.0161104
628.993	0.0162354
629.071	0.0163732
629.149	0.0162339
629.227	0.0161395
629.306	0.0164735
629.384	0.0163660
629.462	0.0163014
629.540	0.0163200
629.618	0.0162952
629.696	0.0164031
629.774	0.0164267
629.852	0.0163055
629.931	0.0162172
630.009	0.0163664
630.087	0.0165530
630.165	0.0165045
630.243	0.0163907
630.321	0.0164922
630.399	0.0164295
630.477	0.0161800
630.556	0.0164433
630.634	0.0163206
630.712	0.0163393
630.790	0.0164703
630.868	0.0163927
630.946	0.0162108
631.024	0.0162568
631.102	0.0163245
631.181	0.0162799
631.259	0.0161845
631.337	0.0161608
631.415	0.0163013
631.493	0.0162004
631.571	0.0162228
631.649	0.0162604
631.727	0.0160694
631.806	0.0160357
631.884	0.0160137
631.962	0.0160633
632.040	0.0161243
632.118	0.0159515
632.196	0.0161127
632.274	0.0161390
632.352	0.0160268
632.431	0.0160302
632.509	0.0159112
632.587	0.0161728
632.665	0.0160009
632.743	0.0160494
632.821	0.0160817
632.899	0.0161089
632.977	0.0162456
633.056	0.0161369
633.134	0.0162343
633.212	0.0162655
633.290	0.0160576
633.368	0.0162323
633.446	0.0163755
633.524	0.0164800
633.602	0.0163778
633.681	0.0163565
633.759	0.0163610
633.837	0.0165329
633.915	0.0164502
633.993	0.0164052
634.071	0.0164556
634.149	0.0164869
634.227	0.0164382
634.306	0.0165041
634.384	0.0165726
634.462	0.0163906
634.540	0.0165590
634.618	0.0165686
634.696	0.0164182
634.774	0.0164597
634.852	0.0163209
634.931	0.0163850
635.009	0.0163187
635.087	0.0163338
635.165	0.0163249
635.243	0.0163774
635.321	0.0164905
635.399	0.0164063
635.477	0.0163715
635.556	0.0161113
635.634	0.0162235
635.712	0.0161383
635.790	0.0161942
635.868	0.0162098
635.946	0.0160979
636.024	0.0159476
636.102	0.0160284
636.181	0.0159133
636.259	0.0158574
636.337	0.0159177
636.415	0.0160879
636.493	0.0158096
636.571	0.0157983
636.649	0.0159143
636.727	0.0160089
636.806	0.0159142
636.884	0.0160102
636.962	0.0158119
637.040	0.0159702
637.118	0.0158718
637.196	0.0159938
637.274	0.0160477
637.352	0.0159698
637.431	0.0159928
637.509	0.0159698
637.587	0.0159638
637.665	0.0161421
637.743	0.0161929
637.821	0.0161214
637.899	0.0161580
637.977	0.0161582
638.056	0.0162838
638.134	0.0163268
638.212	0.0162154
638.290	0.0163193
638.368	0.0162994
638.446	0.0164009
638.524	0.0163740
638.602	0.0164249
638.681	0.0163474
638.759	0.0163640
638.837	0.0164130
638.915	0.0164033
638.993	0.0164449
639.071	0.0165082
639.149	0.0163828
639.227	0.0163975
639.306	0.0162350
639.384	0.0163824
639.462	0.0163166
639.540	0.0163081
639.618	0.0161837
639.696	0.0161128
639.774	0.0160964
639.852	0.0160617
639.931	0.0160779
640.009	0.0160015
640.087	0.0159531
640.165	0.0160004
640.243	0.0158780
640.321	0.0159370
640.399	0.0157507
640.477	0.0156523
640.556	0.0158015
640.634	0.0157467
640.712	0.0157966
640.790	0.0157262
640.868	0.0158364
640.946	0.0157561
641.024	0.0157951
641.102	0.0158422
641.181	0.0158607
641.259	0.0157144
641.337	0.0158426
641.415	0.0160076
641.493	0.0159122
641.571	0.0160931
641.649	0.0160349
641.727	0.0160278
641.806	0.0161434
641.884	0.0161011
641.962	0.0162362
642.040	0.0161349
642.118	0.0160643
642.196	0.0161435
642.274	0.0161230
642.352	0.0162508
642.431	0.0162715
642.509	0.0161545
642.587	0.0162341
642.665	0.0162653
642.743	0.0162451
642.821	0.0162532
642.899	0.0162885
642.977	0.0164176
643.056	0.0162866
643.134	0.0162708
643.212	0.0162655
643.290	0.0163181
643.368	0.0162180
643.446	0.0163670
643.524	0.0163394
643.602	0.0160806
643.681	0.0162305
643.759	0.0163770
643.837	0.0163804
643.915	0.0161813
643.993	0.0163360
644.071	0.0163086
644.149	0.0163328
644.227	0.0162820
644.306	0.0163277
644.384	0.0162887
644.462	0.0163109
644.540	0.0164410
644.618	0.0164858
644.696	0.0165366
644.774	0.0163959
644.852	0.0164796
644.931	0.0164764
645.009	0.0166196
645.087	0.0166911
645.165	0.0167153
645.243	0.0166576
645.321	0.0165586
645.399	0.0166592
645.477	0.0166503
645.556	0.0166300
645.634	0.0164729
645.712	0.0165314
645.790	0.0166774
645.868	0.0165080
645.946	0.0164870
646.024	0.0165289
646.102	0.0166189
646.181	0.0166531
646.259	0.0163816
646.337	0.0164429
646.415	0.0164071
646.493	0.0164783
646.571	0.0163922
646.649	0.0164178
646.727	0.0163475
646.806	0.0163448
646.884	0.0163763
646.962	0.0162412
647.040	0.0162933
647.118	0.0161344
647.196	0.0162453
647.274	0.0162062
647.352	0.0162321
647.431	0.0161799
647.509	0.0161416
647.587	0.0163248
647.665	0.0162193
647.743	0.0162405
647.821	0.0163259
647.899	0.0162556
647.977	0.0162243
648.056	0.0163376
648.134	0.0161198
648.212	0.0162481
648.290	0.0163826
648.368	0.0163075
648.446	0.0162949
648.524	0.0163361
648.602	0.0163167
648.681	0.0163750
648.759	0.0165633
648.837	0.0163056
648.915	0.0162643
648.993	0.0163206
649.071	0.0164677
649.149	0.0164209
649.227	0.0163720
649.306	0.0163007
649.384	0.0163693
649.462	0.0163558
649.540	0.0163290
649.618	0.0162446
649.696	0.0163924
649.774	0.0162753
649.852	0.0162522
649.931	0.0161199
650.009	0.0163677
650.087	0.0162144
650.165	0.0161418
650.243	0.0161128
650.321	0.0161224
650.399	0.0161030
650.477	0.0160674
650.556	0.0159868
650.634	0.0158844
650.712	0.0160188
650.790	0.0159632
650.868	0.0159694
650.946	0.0160665
651.024	0.0158224
651.102	0.0158987
651.181	0.0158470
651.259	0.0158012
651.337	0.0158324
651.415	0.0156804
651.493	0.0157077
651.571	0.0158485
651.649	0.0156954
651.727	0.0157883
651.806	0.0156962
651.884	0.0157209
651.962	0.0158746
652.040	0.0156902
652.118	0.0158295
652.196	0.0156697
652.274	0.0157262
652.352	0.0157939
652.431	0.0156587
652.509	0.0158585
652.587	0.0160287
652.665	0.0159195
652.743	0.0160143
652.821	0.0161086
652.899	0.0161774
652.977	0.0160381
653.056	0.0162631
653.134	0.0162326
653.212	0.0163132
653.290	0.0163109
653.368	0.0162962
653.446	0.0163422
653.524	0.0165381
653.602	0.0165253
653.681	0.0164103
653.759	0.0165094
653.837	0.0165536
653.915	0.0167097
653.993	0.0166181
654.071	0.0167815
654.149	0.0166803
654.227	0.0168082
654.306	0.0168436
654.384	0.0169328
654.462	0.0166886
654.540	0.0165937
654.618	0.0167524
654.696	0.0167414
654.774	0.0166663
654.852	0.0166518
654.931	0.0165060
655.009	0.0166320
655.087	0.0166429
655.165	0.0164533
655.243	0.0166946
655.321	0.0165035
655.399	0.0163955
655.477	0.0163062
655.556	0.0163454
655.634	0.0163387
655.712	0.0162149
655.790	0.0163437
655.868	0.0162801
655.946	0.0161678
656.024	0.0161104
656.102	0.0159495
656.181	0.0158241
656.259	0.0158753
656.337	0.0159373
656.415	0.0158450
656.493	0.0157559
656.571	0.0156879
656.649	0.0157691
656.727	0.0158641
656.806	0.0158007
656.884	0.0157835
656.962	0.0157405
657.040	0.0159078
657.118	0.0159273
657.196	0.0158746
657.274	0.0160300
657.352	0.0159509
657.431	0.0160596
657.509	0.0161314
657.587	0.0160954
657.665	0.0161777
657.743	0.0162314
657.821	0.0161580
657.899	0.0162251
657.977	0.0161680
658.056	0.0163133
658.134	0.0162469
658.212	0.0165209
658.290	0.0164124
658.368	0.0164175
658.446	0.0164144
658.524	0.0165342
658.602	0.0166046
658.681	0.0165377
658.759	0.0165958
658.837	0.0165585
658.915	0.0164861
658.993	0.0166682
659.071	0.0165196
659.149	0.0164209
659.227	0.0166117
659.306	0.0165174
659.384	0.0164742
659.462	0.0163326
659.540	0.0164069
659.618	0.0163710
659.696	0.0164046
659.774	0.0163190
659.852	0.0164435
659.931	0.0163387
660.009	0.0162958
660.087	0.0162478
660.165	0.0163222
660.243	0.0162157
660.321	0.0161838
660.399	0.0161718
660.477	0.0160548
660.556	0.0161078
660.634	0.0160759
660.712	0.0161936
660.790	0.0159711
660.868	0.0161333
660.946	0.0161127
661.024	0.0162228
661.102	0.0160802
661.181	0.0159985
661.259	0.0160972
661.337	0.0161021
661.415	0.0160478
661.493	0.0161488
661.571	0.0162125
661.649	0.0159783
661.727	0.0159389
661.806	0.0160447
661.884	0.0159766
661.962	0.0159986
662.040	0.0160320
662.118	0.0161671
662.196	0.0161248
662.274	0.0159921
662.352	0.0161153
662.431	0.0161715
662.509	0.0160117
662.587	0.0160552
662.665	0.0159226
662.743	0.0161349
662.821	0.0161036
662.899	0.0160093
662.977	0.0160400
663.056	0.0160193
663.134	0.0159941
663.212	0.0160403
663.290	0.0159629
663.368	0.0161938
663.446	0.0159453
663.524	0.0158990
663.602	0.0160701
663.681	0.0160730
663.759	0.0160126
663.837	0.0161008
663.915	0.0161644
663.993	0.0162074
664.071	0.0160899
664.149	0.0162040
664.227	0.0163094
664.306	0.0162784
664.384	0.0162799
664.462	0.0163559
664.540	0.0163136
664.618	0.0163486
664.696	0.0164636
664.774	0.0164307
664.852	0.0164356
664.931	0.0162822
665.009	0.0163442
665.087	0.0163729
665.165	0.0165900
665.243	0.0164886
665.321	0.0162888
665.399	0.0163733
665.477	0.0164388
665.556	0.0164290
665.634	0.0164733
665.712	0.0164842
665.790	0.0162994
665.868	0.0163721
665.946	0.0163058
666.024	0.0161501
666.102	0.0161771
666.181	0.0161277
666.259	0.0161410
666.337	0.0162777
666.415	0.0161358
666.493	0.0160908
666.571	0.0161912
666.649	0.0161947
666.727	0.0162108
666.806	0.0161456
666.884	0.0162668
666.962	0.0161787
667.040	0.0161916
667.118	0.0162214
667.196	0.0161768
667.274	0.0161798
667.352	0.0161411
667.431	0.0160913
667.509	0.0162595
667.587	0.0161235
667.665	0.0161481
667.743	0.0163387
667.821	0.0160963
667.899	0.0161878
667.977	0.0161922
668.056	0.0160978
668.134	0.0163695
668.212	0.0161913
668.290	0.0161916
668.368	0.0161642
668.446	0.0162322
668.524	0.0163723
668.602	0.0162623
668.681	0.0162677
668.759	0.0161793
668.837	0.0161630
668.915	0.0162228
668.993	0.0162495
669.071	0.0162341
669.149	0.0162785
669.227	0.0163528
669.306	0.0163040
669.384	0.0163632
669.462	0.0163699
669.540	0.0162169
669.618	0.0163443
669.696	0.0163932
669.774	0.0162566
669.852	0.0163803
669.931	0.0163621
670.009	0.0162592
670.087	0.0162134
670.165	0.0162469
670.243	0.0161888
670.321	0.0162541
670.399	0.0163412
670.477	0.0163275
670.556	0.0162210
670.634	0.0161757
670.712	0.0161185
670.790	0.0160331
670.868	0.0160429
670.946	0.0160597
671.024	0.0159030
671.102	0.0159028
671.181	0.0159382
671.259	0.0158368
671.337	0.0159344
671.415	0.0156828
671.493	0.0157877
671.571	0.0160229
671.649	0.0159798
671.727	0.0159212
671.806	0.0158460
671.884	0.0159238
671.962	0.0159357
672.040	0.0160725
672.118	0.0161263
672.196	0.0158810
672.274	0.0160789
672.352	0.0162463
672.431	0.0162341
672.509	0.0163676
672.587	0.0163005
672.665	0.0164069
672.743	0.0163285
672.821	0.0163282
672.899	0.0163415
672.977	0.0164716
673.056	0.0165950
673.134	0.0165263
673.212	0.0167142
673.290	0.0165527
673.368	0.0165503
673.446	0.0165752
673.524	0.0165597
673.602	0.0165218
673.681	0.0165477
673.759	0.0164948
673.837	0.0165697
673.915	0.0164555
673.993	0.0163136
674.071	0.0162745
674.149	0.0162459
674.227	0.0163091
674.306	0.0162894
674.384	0.0162678
674.462	0.0162321
674.540	0.0161430
674.618	0.0159867
674.696	0.0159483
674.774	0.0161462
674.852	0.0158625
674.931	0.0158926
675.009	0.0160112
675.087	0.0160144
675.165	0.0158739
675.243	0.0158102
675.321	0.0157868
675.399	0.0159421
675.477	0.0158528
675.556	0.0159258
675.634	0.0157792
675.712	0.0158057
675.790	0.0159177
675.868	0.0159458
675.946	0.0158598
676.024	0.0160214
676.102	0.0159483
676.181	0.0160738
676.259	0.0160455
676.337	0.0159691
676.415	0.0161229
676.493	0.0160786
676.571	0.0162228
676.649	0.0161412
676.727	0.0161539
676.806	0.0162428
676.884	0.0162762
676.962	0.0164860
677.040	0.0164130
677.118	0.0163077
677.196	0.0164140
677.274	0.0165965
677.352	0.0164812
677.431	0.0162938
677.509	0.0166449
677.587	0.0165858
677.665	0.0166390
677.743	0.0166725
677.821	0.0166144
677.899	0.0167216
677.977	0.0166328
678.056	0.0165681
678.134	0.0165259
678.212	0.0166149
678.290	0.0165491
678.368	0.0164606
678.446	0.0164802
678.524	0.0164696
678.602	0.0165298
678.681	0.0164658
678.759	0.0165235
678.837	0.0164376
678.915	0.0162570
678.993	0.0163595
679.071	0.0162986
679.149	0.0162344
679.227	0.0161737
679.306	0.0161460
679.384	0.0160612
679.462	0.0160172
679.540	0.0160522
679.618	0.0160077
679.696	0.0158865
679.774	0.0159112
679.852	0.0160029
679.931	0.0160175
680.009	0.0159586
680.087	0.0157977
680.165	0.0158468
680.243	0.0158159
680.321	0.0158228
680.399	0.0158268
680.477	0.0158355
680.556	0.0158329
680.634	0.0158463
680.712	0.0159286
680.790	0.0158372
680.868	0.0158629
680.946	0.0160071
681.024	0.0160690
681.102	0.0161754
681.181	0.0161526
681.259	0.0162113
681.337	0.0161865
681.415	0.0163103
681.493	0.0162059
681.571	0.0163293
681.649	0.0161659
681.727	0.0162539
681.806	0.0163770
681.884	0.0164416
681.962	0.0163232
682.040	0.0163049
682.118	0.0163503
682.196	0.0164593
682.274	0.0163700
682.352	0.0163265
682.431	0.0163537
682.509	0.0164626
682.587	0.0163765
682.665	0.0162529
682.743	0.0162648
682.821	0.0162567
682.899	0.0163464
682.977	0.0162310
683.056	0.0162561
683.134	0.0162989
683.212	0.0161745
683.290	0.0161684
683.368	0.0161743
683.446	0.0161784
683.524	0.0160306
683.602	0.0161467
683.681	0.0162418
683.759	0.0161547
683.837	0.0160078
683.915	0.0161398
683.993	0.0162142
684.071	0.0161473
684.149	0.0162463
684.227	0.0163216
684.306	0.0162496
684.384	0.0162204
684.462	0.0162724
684.540	0.0163591
684.618	0.0164698
684.696	0.0165981
684.774	0.0164211
684.852	0.0164125
684.931	0.0164935
685.009	0.0162996
685.087	0.0162607
685.165	0.0163393
685.243	0.0163005
685.321	0.0162853
685.399	0.0163548
685.477	0.0162490
685.556	0.0161755
685.634	0.0161445
685.712	0.0161633
685.790	0.0160922
685.868	0.0159826
685.946	0.0159418
686.024	0.0160757
686.102	0.0159534
686.181	0.0159547
686.259	0.0158231
686.337	0.0158407
686.415	0.0159657
686.493	0.0158894
686.571	0.0157912
686.649	0.0159994
686.727	0.0159272
686.806	0.0159550
686.884	0.0159703
686.962	0.0159663
687.040	0.0160098
687.118	0.0161440
687.196	0.0162201
687.274	0.0162792
687.352	0.0162620
687.431	0.0162514
687.509	0.0162095
687.587	0.0163125
687.665	0.0162868
687.743	0.0163412
687.821	0.0163390
687.899	0.0164593
687.977	0.0165004
688.056	0.0164365
688.134	0.0164597
688.212	0.0165393
688.290	0.0165403
688.368	0.0165419
688.446	0.0164893
688.524	0.0164352
688.602	0.0165311
688.681	0.0165438
688.759	0.0165071
688.837	0.0165503
688.915	0.0163770
688.993	0.0165547
689.071	0.0164181
689.149	0.0164050
689.227	0.0163517
689.306	0.0163084
689.384	0.0162678
689.462	0.0161729
689.540	0.0163332
689.618	0.0162322
689.696	0.0160882
689.774	0.0161616
689.852	0.0160488
689.931	0.0160876
690.009	0.0161178
690.087	0.0160574
690.165	0.0160146
690.243	0.0160127
690.321	0.0158813
690.399	0.0158274
690.477	0.0159669
690.556	0.0159695
690.634	0.0158841
690.712	0.0159158
690.790	0.0159138
690.868	0.0159424
690.946	0.0160435
691.024	0.0159212
691.102	0.0159898
691.181	0.0160220
691.259	0.0160874
691.337	0.0160040
691.415	0.0161530
691.493	0.0160020
691.571	0.0161312
691.649	0.0161608
691.727	0.0160905
691.806	0.0160991
691.884	0.0160737
691.962	0.0161004
692.040	0.0162905
692.118	0.0162635
692.196	0.0161638
692.274	0.0162317
692.352	0.0163422
692.431	0.0163052
692.509	0.0164575
692.587	0.0163981
692.665	0.0163970
692.743	0.0165100
692.821	0.0164093
692.899	0.0163126
692.977	0.0163320
693.056	0.0164738
693.134	0.0164131
693.212	0.0164182
693.290	0.0164143
693.368	0.0163641
693.446	0.0163177
693.524	0.0163554
693.602	0.0161797
693.681	0.0163159
693.759	0.0163725
693.837	0.0163081
693.915	0.0163298
693.993	0.0163161
694.071	0.0162098
694.149	0.0162610
694.227	0.0161975
694.306	0.0161741
694.384	0.0161810
694.462	0.0164044
694.540	0.0162830
694.618	0.0163992
694.696	0.0164014
694.774	0.0163261
694.852	0.0163042
694.931	0.0164247
695.009	0.0164597
695.087	0.0164153
695.165	0.0163709
695.243	0.0163335
695.321	0.0163953
695.399	0.0164516
695.477	0.0164410
695.556	0.0164070
695.634	0.0163144
695.712	0.0162894
695.790	0.0162495
695.868	0.0161894
695.946	0.0162939
696.024	0.0162625
696.102	0.0164073
696.181	0.0161860
696.259	0.0162236
696.337	0.0161476
696.415	0.0160573
696.493	0.0160999
696.571	0.0160868
696.649	0.0161057
696.727	0.0162173
696.806	0.0160669
696.884	0.0161959
696.962	0.0162080
697.040	0.0161050
697.118	0.0162584
697.196	0.0161862
697.274	0.0162665
697.352	0.0161981
697.431	0.0160529
697.509	0.0160986
697.587	0.0163696
697.665	0.0163441
697.743	0.0162092
697.821	0.0162892
697.899	0.0161791
697.977	0.0163969
698.056	0.0162871
698.134	0.0162387
698.212	0.0164124
698.290	0.0162905
698.368	0.0162374
698.446	0.0164504
698.524	0.0164315
698.602	0.0163565
698.681	0.0163015
698.759	0.0161982
698.837	0.0163883
698.915	0.0164713
698.993	0.0163386
699.071	0.0164173
699.149	0.0163409
699.227	0.0162031
699.306	0.0162746
699.384	0.0162289
699.462	0.0161919
699.540	0.0161563
699.618	0.0161575
699.696	0.0160703
699.774	0.0159971
699.852	0.0161233
699.931	0.0159764
700.009	0.0160055
700.087	0.0159856
700.165	0.0158744
700.243	0.0157851
700.321	0.0158999
700.399	0.0161062
700.477	0.0159968
700.556	0.0159103
700.634	0.0159892
700.712	0.0161951
700.790	0.0161485
700.868	0.0161168
700.946	0.0161605
701.024	0.0161388
701.102	0.0160417
701.181	0.0160289
701.259	0.0160229
701.337	0.0160572
701.415	0.0161484
701.493	0.0161358
701.571	0.0161906
701.649	0.0161909
701.727	0.0162666
701.806	0.0162687
701.884	0.0163052
701.962	0.0162563
702.040	0.0162791
702.118	0.0162442
702.196	0.0162562
702.274	0.0161555
702.352	0.0163358
702.431	0.0161393
702.509	0.0162817
702.587	0.0162472
702.665	0.0161104
702.743	0.0161022
702.821	0.0161053
702.899	0.0159805
702.977	0.0161698
703.056	0.0160575
703.134	0.0160815
703.212	0.0160626
703.290	0.0160715
703.368	0.0160217
703.446	0.0162142
703.524	0.0162141
703.602	0.0161422
703.681	0.0159917
703.759	0.0162242
703.837	0.0162211
703.915	0.0161343
703.993	0.0161353
704.071	0.0163437
704.149	0.0161607
704.227	0.0161160
704.306	0.0163741
704.384	0.0162474
704.462	0.0162700
704.540	0.0163450
704.618	0.0162032
704.696	0.0163725
704.774	0.0162389
704.852	0.0162287
704.931	0.0164224
705.009	0.0163555
705.087	0.0164252
705.165	0.0164612
705.243	0.0164257
705.321	0.0165166
705.399	0.0166319
705.477	0.0165550
705.556	0.0165025
705.634	0.0164982
705.712	0.0164347
705.790	0.0165675
705.868	0.0166383
705.946	0.0164468
706.024	0.0163562
706.102	0.0163821
706.181	0.0164174
706.259	0.0163641
706.337	0.0164497
706.415	0.0164009
706.493	0.0161661
706.571	0.0163835
706.649	0.0163229
706.727	0.0163541
706.806	0.0164655
706.884	0.0163882
706.962	0.0163267
707.040	0.0164100
707.118	0.0163637
707.196	0.0163801
707.274	0.0164346
707.352	0.0162756
707.431	0.0162473
707.509	0.0162354
707.587	0.0161820
707.665	0.0161299
707.743	0.0161392
707.821	0.0160936
707.899	0.0160779
707.977	0.0160655
708.056	0.0158289
708.134	0.0161107
708.212	0.0160977
708.290	0.0161179
708.368	0.0160752
708.446	0.0160267
708.524	0.0161310
708.602	0.0160789
708.681	0.0159837
708.759	0.0161085
708.837	0.0162347
708.915	0.0162833
708.993	0.0161311
709.071	0.0162755
709.149	0.0162079
709.227	0.0161752
709.306	0.0162270
709.384	0.0162892
709.462	0.0163728
709.540	0.0162498
709.618	0.0162834
709.696	0.0162280
709.774	0.0161663
709.852	0.0162797
709.931	0.0162588
710.009	0.0162643
710.087	0.0163261
710.165	0.0161398
710.243	0.0163899
710.321	0.0161664
710.399	0.0163017
710.477	0.0163992
710.556	0.0163520
710.634	0.0162789
710.712	0.0162891
710.790	0.0163232
710.868	0.0162917
710.946	0.0163065
711.024	0.0163402
711.102	0.0163593
711.181	0.0162769
711.259	0.0163375
711.337	0.0162453
711.415	0.0163287
711.493	0.0163781
711.571	0.0163380
711.649	0.0161865
711.727	0.0163779
711.806	0.0163927
711.884	0.0163216
711.962	0.0162273
712.040	0.0162276
712.118	0.0161500
712.196	0.0162295
712.274	0.0163194
712.352	0.0162789
712.431	0.0162598
712.509	0.0162225
712.587	0.0162791
712.665	0.0164828
712.743	0.0164403
712.821	0.0164677
712.899	0.0164674
712.977	0.0163363
713.056	0.0164008
713.134	0.0165591
713.212	0.0164050
713.290	0.0164178
713.368	0.0164591
713.446	0.0165045
713.524	0.0165340
713.602	0.0164550
713.681	0.0163972
713.759	0.0165586
713.837	0.0165149
713.915	0.0162988
713.993	0.0163111
714.071	0.0163425
714.149	0.0162545
714.227	0.0161140
714.306	0.0160931
714.384	0.0161391
714.462	0.0162233
714.540	0.0161304
714.618	0.0162110
714.696	0.0161825
714.774	0.0159692
714.852	0.0159968
714.931	0.0162046
715.009	0.0160900
715.087	0.0159787
715.165	0.0160425
715.243	0.0159924
715.321	0.0159679
715.399	0.0159111
715.477	0.0160051
715.556	0.0161274
715.634	0.0160047
715.712	0.0160748
715.790	0.0161055
715.868	0.0159679
715.946	0.0160910
716.024	0.0161912
716.102	0.0161118
716.181	0.0160472
716.259	0.0161343
716.337	0.0160335
716.415	0.0160283
716.493	0.0160597
716.571	0.0160428
716.649	0.0161842
716.727	0.0160833
716.806	0.0160552
716.884	0.0162113
716.962	0.0163364
717.040	0.0162363
717.118	0.0161105
717.196	0.0162335
717.274	0.0163028
717.352	0.0162800
717.431	0.0162357
717.509	0.0163755
717.587	0.0163074
717.665	0.0162930
717.743	0.0163046
717.821	0.0162791
717.899	0.0161425
717.977	0.0160898
718.056	0.0163357
718.134	0.0162215
718.212	0.0161790
718.290	0.0162220
718.368	0.0162062
718.446	0.0161171
718.524	0.0161285
718.602	0.0160197
718.681	0.0160901
718.759	0.0160438
718.837	0.0160703
718.915	0.0160984
718.993	0.0160468
719.071	0.0160899
719.149	0.0161010
719.227	0.0159877
719.306	0.0161414
719.384	0.0160658
719.462	0.0162817
719.540	0.0161771
719.618	0.0161405
719.696	0.0162169
719.774	0.0161928
719.852	0.0163629
719.931	0.0162032
720.009	0.0161288
720.087	0.0162090
720.165	0.0162639
720.243	0.0162376
720.321	0.0162547
720.399	0.0162132
720.477	0.0163299
720.556	0.0162415
720.634	0.0163567
720.712	0.0163098
720.790	0.0163776
720.868	0.0162730
720.946	0.0164206
721.024	0.0163279
721.102	0.0162260
721.181	0.0163091
721.259	0.0163772
721.337	0.0161794
721.415	0.0162109
721.493	0.0162148
721.571	0.0160976
721.649	0.0161662
721.727	0.0162094
721.806	0.0162997
721.884	0.0161634
721.962	0.0163509
722.040	0.0163152
722.118	0.0163091
722.196	0.0163143
722.274	0.0162939
722.352	0.0162090
722.431	0.0161340
722.509	0.0163068
722.587	0.0164140
722.665	0.0163040
722.743	0.0162506
722.821	0.0164558
722.899	0.0163892
722.977	0.0163735
723.056	0.0163580
723.134	0.0164390
723.212	0.0163803
723.290	0.0164377
723.368	0.0165113
723.446	0.0165293
723.524	0.0163523
723.602	0.0163451
723.681	0.0165568
723.759	0.0166974
723.837	0.0164355
723.915	0.0165055
723.993	0.0164281
724.071	0.0164680
724.149	0.0164087
724.227	0.0166181
724.306	0.0163885
724.384	0.0164121
724.462	0.0163338
724.540	0.0163073
724.618	0.0163946
724.696	0.0164123
724.774	0.0163719
724.852	0.0164211
724.931	0.0164000
725.009	0.0164225
725.087	0.0162172
725.165	0.0162643
725.243	0.0163013
725.321	0.0163210
725.399	0.0162042
725.477	0.0162291
725.556	0.0161708
725.634	0.0162759
725.712	0.0161661
725.790	0.0161662
725.868	0.0161152
725.946	0.0160185
726.024	0.0161721
726.102	0.0160249
726.181	0.0158428
726.259	0.0160112
726.337	0.0159975
726.415	0.0157836
726.493	0.0159078
726.571	0.0160314
726.649	0.0159863
726.727	0.0159689
726.806	0.0159375
726.884	0.0160577
726.962	0.0160578
727.040	0.0159284
727.118	0.0158984
727.196	0.0161344
727.274	0.0161263
727.352	0.0160915
727.431	0.0161978
727.509	0.0159896
727.587	0.0160006
727.665	0.0160619
727.743	0.0160997
727.821	0.0161769
727.899	0.0162291
727.977	0.0161466
728.056	0.0162140
728.134	0.0161686
728.212	0.0163112
728.290	0.0163529
728.368	0.0162901
728.446	0.0161501
728.524	0.0163352
728.602	0.0163679
728.681	0.0163244
728.759	0.0162175
728.837	0.0164248
728.915	0.0163654
728.993	0.0162429
729.071	0.0162694
729.149	0.0165579
729.227	0.0164681
729.306	0.0162421
729.384	0.0163787
729.462	0.0162974
729.540	0.0163760
729.618	0.0163509
729.696	0.0161718
729.774	0.0162684
729.852	0.0162357
729.931	0.0162678
730.009	0.0161876
730.087	0.0161945
730.165	0.0160310
730.243	0.0161179
730.321	0.0162542
730.399	0.0162705
730.477	0.0161063
730.556	0.0161988
730.634	0.0162837
730.712	0.0162803
730.790	0.0161966
730.868	0.0161806
730.946	0.0163624
731.024	0.0162373
731.102	0.0161736
731.181	0.0162162
731.259	0.0163374
731.337	0.0162101
731.415	0.0162050
731.493	0.0162199
731.571	0.0161320
731.649	0.0161611
731.727	0.0161909
731.806	0.0160500
731.884	0.0163399
731.962	0.0162082
732.040	0.0161351
732.118	0.0161133
732.196	0.0161087
732.274	0.0161970
732.352	0.0161748
732.431	0.0161040
732.509	0.0160680
732.587	0.0160725
732.665	0.0162304
732.743	0.0162386
732.821	0.0160970
732.899	0.0160490
732.977	0.0160076
733.056	0.0161794
733.134	0.0160177
733.212	0.0160899
733.290	0.0161508
733.368	0.0161648
733.446	0.0160304
733.524	0.0161697
733.602	0.0163281
733.681	0.0160528
733.759	0.0161739
733.837	0.0162542
733.915	0.0161182
733.993	0.0162363
734.071	0.0163190
734.149	0.0162716
734.227	0.0161642
734.306	0.0160865
734.384	0.0162808
734.462	0.0163537
734.540	0.0162280
734.618	0.0161806
734.696	0.0161163
734.774	0.0160991
734.852	0.0161205
734.931	0.0161284
735.009	0.0161044
735.087	0.0161160
735.165	0.0161091
735.243	0.0161530
735.321	0.0161481
735.399	0.0163276
735.477	0.0162354
735.556	0.0162483
735.634	0.0162346
735.712	0.0162218
735.790	0.0162772
735.868	0.0162990
735.946	0.0162828
736.024	0.0163843
736.102	0.0162693
736.181	0.0163357
736.259	0.0163382
736.337	0.0162385
736.415	0.0165127
736.493	0.0164944
736.571	0.0163149
736.649	0.0164680
736.727	0.0163973
736.806	0.0162842
736.884	0.0163727
736.962	0.0163149
737.040	0.0163665
737.118	0.0162624
737.196	0.0162362
737.274	0.0163160
737.352	0.0161756
737.431	0.0163821
737.509	0.0163624
737.587	0.0163168
737.665	0.0164609
737.743	0.0164174
737.821	0.0163073
737.899	0.0162276
737.977	0.0162988
738.056	0.0163284
738.134	0.0163046
738.212	0.0163214
738.290	0.0161536
738.368	0.0163046
738.446	0.0162047
738.524	0.0162002
738.602	0.0163730
738.681	0.0162395
738.759	0.0162520
738.837	0.0163691
738.915	0.0162438
738.993	0.0162429
739.071	0.0162205
739.149	0.0163559
739.227	0.0161797
739.306	0.0161944
739.384	0.0162899
739.462	0.0162540
739.540	0.0162163
739.618	0.0162403
739.696	0.0161868
739.774	0.0163272
739.852	0.0164562
739.931	0.0162326
740.009	0.0163735
740.087	0.0163432
740.165	0.0162315
740.243	0.0163270
740.321	0.0163450
740.399	0.0163180
740.477	0.0165102
740.556	0.0163550
740.634	0.0162509
740.712	0.0163371
740.790	0.0163382
740.868	0.0163273
740.946	0.0163519
741.024	0.0164462
741.102	0.0164129
741.181	0.0163776
741.259	0.0164360
741.337	0.0164912
741.415	0.0163672
741.493	0.0164463
741.571	0.0164436
741.649	0.0163673
741.727	0.0164943
741.806	0.0165878
741.884	0.0165038
741.962	0.0164318
742.040	0.0162362
742.118	0.0163396
742.196	0.0163330
742.274	0.0162738
742.352	0.0162599
742.431	0.0163248
742.509	0.0162647
742.587	0.0162551
742.665	0.0163406
742.743	0.0161812
742.821	0.0161620
742.899	0.0161700
742.977	0.0162589
743.056	0.0163322
743.134	0.0161600
743.212	0.0161155
743.290	0.0161414
743.368	0.0161819
743.446	0.0163094
743.524	0.0162566
743.602	0.0162166
743.681	0.0162856
743.759	0.0162846
743.837	0.0163346
743.915	0.0162032
743.993	0.0162621
744.071	0.0162004
744.149	0.0162861
744.227	0.0163035
744.306	0.0162195
744.384	0.0161806
744.462	0.0163131
744.540	0.0162988
744.618	0.0162994
744.696	0.0162025
744.774	0.0161153
744.852	0.0162173
744.931	0.0162224
745.009	0.0162341
745.087	0.0162359
745.165	0.0161376
745.243	0.0161330
745.321	0.0161661
745.399	0.0161929
745.477	0.0161720
745.556	0.0160400
745.634	0.0160924
745.712	0.0161887
745.790	0.0161764
745.868	0.0162821
745.946	0.0160878
746.024	0.0160107
746.102	0.0161039
746.181	0.0161687
746.259	0.0161637
746.337	0.0160395
746.415	0.0161088
746.493	0.0161594
746.571	0.0160420
746.649	0.0161694
746.727	0.0161531
746.806	0.0161806
746.884	0.0161111
746.962	0.0162275
747.040	0.0161255
747.118	0.0160374
747.196	0.0162145
747.274	0.0161991
747.352	0.0162074
747.431	0.0160929
747.509	0.0161951
747.587	0.0160460
747.665	0.0161304
747.743	0.0163081
747.821	0.0163086
747.899	0.0162204
747.977	0.0160778
748.056	0.0161710
748.134	0.0161079
748.212	0.0161076
748.290	0.0160597
748.368	0.0161652
748.446	0.0162658
748.524	0.0162782
748.602	0.0161710
748.681	0.0162396
748.759	0.0162492
748.837	0.0161721
748.915	0.0163821
748.993	0.0162672
749.071	0.0160787
749.149	0.0163483
749.227	0.0163421
749.306	0.0163693
749.384	0.0162447
749.462	0.0161452
749.540	0.0163049
749.618	0.0162302
749.696	0.0164019
749.774	0.0163195
749.852	0.0164248
749.931	0.0164137
750.009	0.0163641
750.087	0.0163084
750.165	0.0162995
750.243	0.0163481
750.321	0.0163479
750.399	0.0163617
750.477	0.0164146
750.556	0.0164825
750.634	0.0162480
750.712	0.0162320
750.790	0.0164543
750.868	0.0165284
750.946	0.0163786
751.024	0.0164265
751.102	0.0164624
751.181	0.0163527
751.259	0.0162035
751.337	0.0163301
751.415	0.0164393
751.493	0.0163966
751.571	0.0161552
751.649	0.0163875
751.727	0.0163492
751.806	0.0163023
751.884	0.0163879
751.962	0.0161322
752.040	0.0161961
752.118	0.0162446
752.196	0.0162435
752.274	0.0161820
752.352	0.0162858
752.431	0.0162045
752.509	0.0162852
752.587	0.0160872
752.665	0.0160500
752.743	0.0160477
752.821	0.0162606
752.899	0.0160902
752.977	0.0161762
753.056	0.0162140
753.134	0.0161739
753.212	0.0160899
753.290	0.0159991
753.368	0.0162283
753.446	0.0160571
753.524	0.0160822
753.602	0.0160767
753.681	0.0160506
753.759	0.0162012
753.837	0.0162259
753.915	0.0159636
753.993	0.0160960
754.071	0.0160950
754.149	0.0160804
754.227	0.0160280
754.306	0.0161038
754.384	0.0161502
754.462	0.0160722
754.540	0.0160768
754.618	0.0160301
754.696	0.0161124
754.774	0.0160451
754.852	0.0160456
754.931	0.0160885
755.009	0.0161189
755.087	0.0160844
755.165	0.0159637
755.243	0.0161366
755.321	0.0161446
755.399	0.0160818
755.477	0.0160857
755.556	0.0161908
755.634	0.0161826
755.712	0.0161240
755.790	0.0161700
755.868	0.0161269
755.946	0.0160449
756.024	0.0161132
756.102	0.0162244
756.181	0.0162617
756.259	0.0160316
756.337	0.0161589
756.415	0.0161647
756.493	0.0160487
756.571	0.0161746
756.649	0.0161317
756.727	0.0161652
756.806	0.0161977
756.884	0.0161722
756.962	0.0162441
757.040	0.0162299
757.118	0.0162950
757.196	0.0162601
757.274	0.0162050
757.352	0.0161054
757.431	0.0163591
757.509	0.0164085
757.587	0.0162814
757.665	0.0163094
757.743	0.0163211
757.821	0.0163084
757.899	0.0163138
757.977	0.0162405
758.056	0.0165282
758.134	0.0163344
758.212	0.0163530
758.290	0.0163932
758.368	0.0163383
758.446	0.0166479
758.524	0.0163794
758.602	0.0164312
758.681	0.0163066
758.759	0.0163241
758.837	0.0164445
758.915	0.0164883
758.993	0.0164859
759.071	0.0165212
759.149	0.0164511
759.227	0.0163921
759.306	0.0164366
759.384	0.0164304
759.462	0.0165868
759.540	0.0165331
759.618	0.0164274
759.696	0.0165681
759.774	0.0164871
759.852	0.0164732
759.931	0.0165913
760.009	0.0163760
760.087	0.0164561
760.165	0.0164336
760.243	0.0164859
760.321	0.0163966
760.399	0.0163448
760.477	0.0164493
760.556	0.0163830
760.634	0.0165113
760.712	0.0163541
760.790	0.0164030
760.868	0.0163092
760.946	0.0163942
761.024	0.0164864
761.102	0.0163757
761.181	0.0163818
761.259	0.0163807
761.337	0.0162935
761.415	0.0163582
761.493	0.0163270
761.571	0.0162000
761.649	0.0162685
761.727	0.0163006
761.806	0.0162239
761.884	0.0162186
761.962	0.0162513
762.040	0.0160632
762.118	0.0162019
762.196	0.0162752
762.274	0.0162315
762.352	0.0161835
762.431	0.0160789
762.509	0.0162819
762.587	0.0161844
762.665	0.0161972
762.743	0.0160994
762.821	0.0161354
762.899	0.0161558
762.977	0.0161800
763.056	0.0161306
763.134	0.0161092
763.212	0.0161454
763.290	0.0161623
763.368	0.0161197
763.446	0.0161216
763.524	0.0162268
763.602	0.0163004
763.681	0.0161315
763.759	0.0161542
763.837	0.0161193
763.915	0.0161977
763.993	0.0162199
764.071	0.0162465
764.149	0.0161732
764.227	0.0162230
764.306	0.0162293
764.384	0.0161038
764.462	0.0161086
764.540	0.0160947
764.618	0.0162837
764.696	0.0162841
764.774	0.0162119
764.852	0.0162221
764.931	0.0160977
765.009	0.0161286
765.087	0.0161304
765.165	0.0160224
765.243	0.0162336
765.321	0.0161033
765.399	0.0161443
765.477	0.0161983
765.556	0.0160384
765.634	0.0161170
765.712	0.0161909
765.790	0.0159888
765.868	0.0161532
765.946	0.0162746
766.024	0.0161349
766.102	0.0162023
766.181	0.0160905
766.259	0.0161426
766.337	0.0161120
766.415	0.0160774
766.493	0.0161423
766.571	0.0160007
766.649	0.0161027
766.727	0.0160680
766.806	0.0161559
766.884	0.0161353
766.962	0.0161565
767.040	0.0160132
767.118	0.0161661
767.196	0.0161601
767.274	0.0161117
767.352	0.0161328
767.431	0.0160913
767.509	0.0161401
767.587	0.0160238
767.665	0.0161063
767.743	0.0161060
767.821	0.0160719
767.899	0.0161473
767.977	0.0161485
768.056	0.0162192
768.134	0.0162594
768.212	0.0161102
768.290	0.0163712
768.368	0.0161655
768.446	0.0161938
768.524	0.0162415
768.602	0.0162695
768.681	0.0162302
768.759	0.0162549
768.837	0.0161782
768.915	0.0163436
768.993	0.0163794
769.071	0.0162800
769.149	0.0161122
769.227	0.0163483
769.306	0.0162411
769.384	0.0162507
769.462	0.0162469
769.540	0.0163161
769.618	0.0162760
769.696	0.0163887
769.774	0.0162841
769.852	0.0162740
769.931	0.0163201
770.009	0.0164268
770.087	0.0161909
770.165	0.0162328
770.243	0.0161642
770.321	0.0163824
770.399	0.0163145
770.477	0.0162621
770.556	0.0161644
770.634	0.0162700
770.712	0.0162550
770.790	0.0164024
770.868	0.0163707
770.946	0.0162550
771.024	0.0162489
771.102	0.0163008
771.181	0.0162461
771.259	0.0163566
771.337	0.0162807
771.415	0.0163296
771.493	0.0162688
771.571	0.0162190
771.649	0.0162062
771.727	0.0161524
771.806	0.0162686
771.884	0.0163087
771.962	0.0161563
772.040	0.0161613
772.118	0.0160812
772.196	0.0161317
772.274	0.0162886
772.352	0.0162808
772.431	0.0162986
772.509	0.0161680
772.587	0.0161712
772.665	0.0160567
772.743	0.0162463
772.821	0.0161971
772.899	0.0161841
772.977	0.0162747
773.056	0.0160674
773.134	0.0160866
773.212	0.0162421
773.290	0.0162017
773.368	0.0160942
773.446	0.0161112
773.524	0.0161999
773.602	0.0161820
773.681	0.0160907
773.759	0.0161942
773.837	0.0161615
773.915	0.0162776
773.993	0.0162452
774.071	0.0162035
774.149	0.0162353
774.227	0.0162143
774.306	0.0160854
774.384	0.0162306
774.462	0.0162633
774.540	0.0161727
774.618	0.0162191
774.696	0.0161804
774.774	0.0161291
774.852	0.0161043
774.931	0.0160817
775.009	0.0161825
775.087	0.0161850
775.165	0.0160501
775.243	0.0161161
775.321	0.0162314
775.399	0.0160056
775.477	0.0160786
775.556	0.0160396
775.634	0.0159550
775.712	0.0160503
775.790	0.0159924
775.868	0.0160588
775.946	0.0162170
776.024	0.0160004
776.102	0.0159898
776.181	0.0161469
776.259	0.0161056
776.337	0.0161354
776.415	0.0161245
776.493	0.0161102
776.571	0.0161472
776.649	0.0161381
776.727	0.0162421
776.806	0.0162981
776.884	0.0160760
776.962	0.0162273
777.040	0.0161220
777.118	0.0161903
777.196	0.0162576
777.274	0.0165179
777.352	0.0163182
777.431	0.0161351
777.509	0.0162563
777.587	0.0164045
777.665	0.0162991
777.743	0.0162807
777.821	0.0163354
777.899	0.0162900
777.977	0.0162789
778.056	0.0163530
778.134	0.0162766
778.212	0.0165176
778.290	0.0164303
778.368	0.0163031
778.446	0.0163773
778.524	0.0163549
778.602	0.0164678
778.681	0.0164661
778.759	0.0162966
778.837	0.0164331
778.915	0.0163525
778.993	0.0163715
779.071	0.0163237
779.149	0.0163682
779.227	0.0164326
779.306	0.0165142
779.384	0.0164220
779.462	0.0164040
779.540	0.0163869
779.618	0.0164746
779.696	0.0164742
779.774	0.0163163
779.852	0.0164451
779.931	0.0164352
780.009	0.0165450
780.087	0.0163551
780.165	0.0163270
780.243	0.0165063
780.321	0.0163808
780.399	0.0163153
780.477	0.0164178
780.556	0.0164073
780.634	0.0163837
780.712	0.0164158
780.790	0.0163124
780.868	0.0163025
780.946	0.0162495
781.024	0.0163268
781.102	0.0162851
781.181	0.0162377
781.259	0.0163482
781.337	0.0163375
781.415	0.0162149
781.493	0.0162555
781.571	0.0161976
781.649	0.0162549
781.727	0.0161707
781.806	0.0160995
781.884	0.0160921
781.962	0.0161448
782.040	0.0161841
782.118	0.0161407
782.196	0.0161354
782.274	0.0160907
782.352	0.0160548
782.431	0.0160059
782.509	0.0160563
782.587	0.0160772
782.665	0.0160764
782.743	0.0160866
782.821	0.0159945
782.899	0.0161073
782.977	0.0161601
783.056	0.0162511
783.134	0.0159758
783.212	0.0160693
783.290	0.0160403
783.368	0.0160470
783.446	0.0159407
783.524	0.0159636
783.602	0.0161976
783.681	0.0161753
783.759	0.0160627
783.837	0.0159729
783.915	0.0162220
783.993	0.0159772
784.071	0.0159840
784.149	0.0161226
784.227	0.0159453
784.306	0.0160880
784.384	0.0160177
784.462	0.0161806
784.540	0.0161349
784.618	0.0160071
784.696	0.0160926
784.774	0.0162196
784.852	0.0161445
784.931	0.0161736
785.009	0.0162893
785.087	0.0162551
785.165	0.0162760
785.243	0.0161889
785.321	0.0161231
785.399	0.0161707
785.477	0.0161431
785.556	0.0160912
785.634	0.0161227
785.712	0.0162751
785.790	0.0162398
785.868	0.0161821
785.946	0.0161069
786.024	0.0163348
786.102	0.0163506
786.181	0.0161913
786.259	0.0160798
786.337	0.0161020
786.415	0.0161975
786.493	0.0161295
786.571	0.0160649
786.649	0.0162041
786.727	0.0161197
786.806	0.0161866
786.884	0.0160933
786.962	0.0160854
787.040	0.0162241
787.118	0.0161067
787.196	0.0161263
787.274	0.0160800
787.352	0.0161186
787.431	0.0162025
787.509	0.0162827
787.587	0.0161222
787.665	0.0161401
787.743	0.0162372
787.821	0.0161388
787.899	0.0160953
787.977	0.0161576
788.056	0.0161855
788.134	0.0161976
788.212	0.0162780
788.290	0.0162521
788.368	0.0160001
788.446	0.0161168
788.524	0.0162541
788.602	0.0163031
788.681	0.0161329
788.759	0.0162174
788.837	0.0161663
788.915	0.0162740
788.993	0.0161313
789.071	0.0162133
789.149	0.0161896
789.227	0.0160875
789.306	0.0160875
789.384	0.0161935
789.462	0.0160426
789.540	0.0160680
789.618	0.0162550
789.696	0.0161889
789.774	0.0160287
789.852	0.0161268
789.931	0.0161638
790.009	0.0161476
790.087	0.0161565
790.165	0.0161798
790.243	0.0161066
790.321	0.0161499
790.399	0.0161781
790.477	0.0162061
790.556	0.0163235
790.634	0.0163534
790.712	0.0161423
790.790	0.0162347
790.868	0.0162135
790.946	0.0162096
791.024	0.0162111
791.102	0.0162414
791.181	0.0162271
791.259	0.0162387
791.337	0.0162122
791.415	0.0163689
791.493	0.0163141
791.571	0.0161028
791.649	0.0163087
791.727	0.0163271
791.806	0.0163122
791.884	0.0163280
791.962	0.0162208
792.040	0.0162411
792.118	0.0164005
792.196	0.0163119
792.274	0.0164288
792.352	0.0162871
792.431	0.0163139
792.509	0.0165414
792.587	0.0163670
792.665	0.0164137
792.743	0.0163701
792.821	0.0164289
792.899	0.0163754
792.977	0.0164350
793.056	0.0164089
793.134	0.0163853
793.212	0.0161556
793.290	0.0163245
793.368	0.0162765
793.446	0.0163686
793.524	0.0161719
793.602	0.0160363
793.681	0.0162994
793.759	0.0162341
793.837	0.0162228
793.915	0.0161932
793.993	0.0160854
794.071	0.0162484
794.149	0.0162160
794.227	0.0162284
794.306	0.0162708
794.384	0.0162176
794.462	0.0162680
794.540	0.0161406
794.618	0.0161544
794.696	0.0162088
794.774	0.0162698
794.852	0.0160419
794.931	0.0162408
795.009	0.0162339
795.087	0.0160989
795.165	0.0161452
795.243	0.0161241
795.321	0.0161028
795.399	0.0161986
795.477	0.0161308
795.556	0.0161209
795.634	0.0161943
795.712	0.0161286
795.790	0.0160833
795.868	0.0160770
795.946	0.0160438
796.024	0.0161917
796.102	0.0161388
796.181	0.0160940
796.259	0.0160571
796.337	0.0162403
796.415	0.0160538
796.493	0.0161049
796.571	0.0161715
796.649	0.0161235
796.727	0.0160365
796.806	0.0161155
796.884	0.0161224
796.962	0.0161073
797.040	0.0160332
797.118	0.0161322
797.196	0.0161109
797.274	0.0161018
797.352	0.0160403
797.431	0.0159369
797.509	0.0159961
797.587	0.0161872
797.665	0.0161239
797.743	0.0161542
797.821	0.0160211
797.899	0.0161646
797.977	0.0159771
798.056	0.0160104
798.134	0.0159412
798.212	0.0161299
798.290	0.0161013
798.368	0.0160496
798.446	0.0160587
798.524	0.0159972
798.602	0.0161578
798.681	0.0161954
798.759	0.0161117
798.837	0.0160342
798.915	0.0160333
798.993	0.0161205
799.071	0.0162489
799.149	0.0160372
799.227	0.0161250
799.306	0.0161018
799.384	0.0161832
799.462	0.0161089
799.540	0.0161547
799.618	0.0160356
799.696	0.0163194
799.774	0.0161797
799.852	0.0162233
799.931	0.0162318
800.009	0.0163379
800.087	0.0162376
800.165	0.0163599
800.243	0.0162070
800.321	0.0160797
800.399	0.0161559
800.477	0.0163025
800.556	0.0163195
800.634	0.0163515
800.712	0.0162762
800.790	0.0163026
800.868	0.0162327
800.946	0.0163084
801.024	0.0161797
801.102	0.0162862
801.181	0.0162720
801.259	0.0164084
801.337	0.0163913
801.415	0.0163637
801.493	0.0164162
801.571	0.0165586
801.649	0.0164834
801.727	0.0164774
801.806	0.0165643
801.884	0.0164385
801.962	0.0165258
802.040	0.0164473
802.118	0.0164307
802.196	0.0163697
802.274	0.0164341
802.352	0.0165654
802.431	0.0164589
802.509	0.0163292
802.587	0.0164137
802.665	0.0164871
802.743	0.0163866
802.821	0.0165027
802.899	0.0164742
802.977	0.0165250
803.056	0.0163887
803.134	0.0163837
803.212	0.0164510
803.290	0.0163806
803.368	0.0164189
803.446	0.0165463
803.524	0.0163705
803.602	0.0163811
803.681	0.0163618
803.759	0.0163576
803.837	0.0163086
803.915	0.0162930
803.993	0.0163089
804.071	0.0162769
804.149	0.0161678
804.227	0.0161794
804.306	0.0161961
804.384	0.0161642
804.462	0.0160653
804.540	0.0161269
804.618	0.0161641
804.696	0.0163034
804.774	0.0161358
804.852	0.0161361
804.931	0.0160709
805.009	0.0162250
805.087	0.0161936
805.165	0.0161443
805.243	0.0160899
805.321	0.0161057
805.399	0.0161024
805.477	0.0160933
805.556	0.0162415
805.634	0.0161434
805.712	0.0161333
805.790	0.0160620
805.868	0.0162177
805.946	0.0160110
806.024	0.0161333
806.102	0.0161283
806.181	0.0161469
806.259	0.0160554
806.337	0.0160956
806.415	0.0161777
806.493	0.0163280
806.571	0.0161983
806.649	0.0161018
806.727	0.0162003
806.806	0.0161566
806.884	0.0163653
806.962	0.0161881
807.040	0.0162106
807.118	0.0161538
807.196	0.0162322
807.274	0.0162306
807.352	0.0162849
807.431	0.0161596
807.509	0.0161351
807.587	0.0161137
807.665	0.0161978
807.743	0.0162666
807.821	0.0160420
807.899	0.0161147
807.977	0.0161824
808.056	0.0160191
808.134	0.0159196
808.212	0.0160130
808.290	0.0161263
808.368	0.0160760
808.446	0.0160290
808.524	0.0158907
808.602	0.0159876
808.681	0.0160054
808.759	0.0159363
808.837	0.0159665
808.915	0.0160331
808.993	0.0159715
809.071	0.0159428
809.149	0.0160072
809.227	0.0159456
809.306	0.0160140
809.384	0.0161006
809.462	0.0161874
809.540	0.0161777
809.618	0.0160358
809.696	0.0159972
809.774	0.0160492
809.852	0.0160258
809.931	0.0161344
810.009	0.0160565
810.087	0.0161697
810.165	0.0161069
810.243	0.0161578
810.321	0.0161232
810.399	0.0162251
810.477	0.0160291
810.556	0.0160855
810.634	0.0162165
810.712	0.0161612
810.790	0.0161149
810.868	0.0160102
810.946	0.0163346
811.024	0.0162788
811.102	0.0160805
811.181	0.0163385
811.259	0.0161623
811.337	0.0161716
811.415	0.0162197
811.493	0.0162168
811.571	0.0163242
811.649	0.0162901
811.727	0.0162794
811.806	0.0162692
811.884	0.0161505
811.962	0.0162041
812.040	0.0163177
812.118	0.0164243
812.196	0.0163621
812.274	0.0163456
812.352	0.0163490
812.431	0.0162411
812.509	0.0163326
812.587	0.0162479
812.665	0.0163719
812.743	0.0163218
812.821	0.0163408
812.899	0.0162335
812.977	0.0162350
813.056	0.0162389
813.134	0.0162022
813.212	0.0163053
813.290	0.0163498
813.368	0.0163122
813.446	0.0161623
813.524	0.0162755
813.602	0.0162147
813.681	0.0164903
813.759	0.0163877
813.837	0.0162379
813.915	0.0162669
813.993	0.0163717
814.071	0.0162741
814.149	0.0163603
814.227	0.0162695
814.306	0.0162254
814.384	0.0164269
814.462	0.0162859
814.540	0.0164204
814.618	0.0164534
814.696	0.0163754
814.774	0.0163884
814.852	0.0164632
814.931	0.0164370
815.009	0.0164459
815.087	0.0163107
815.165	0.0163000
815.243	0.0162977
815.321	0.0163315
815.399	0.0163892
815.477	0.0162393
815.556	0.0163692
815.634	0.0163639
815.712	0.0164173
815.790	0.0161777
815.868	0.0162075
815.946	0.0163578
816.024	0.0162126
816.102	0.0161250
816.181	0.0162572
816.259	0.0163281
816.337	0.0162605
816.415	0.0163403
816.493	0.0161118
816.571	0.0162365
816.649	0.0161830
816.727	0.0161856
816.806	0.0161800
816.884	0.0160591
816.962	0.0160417
817.040	0.0161567
817.118	0.0160335
817.196	0.0160870
817.274	0.0160417
817.352	0.0162053
817.431	0.0160252
817.509	0.0160817
817.587	0.0159792
817.665	0.0160331
817.743	0.0160098
817.821	0.0160410
817.899	0.0160470
817.977	0.0161060
818.056	0.0161140
818.134	0.0162238
818.212	0.0161548
818.290	0.0161066
818.368	0.0161734
818.446	0.0162728
818.524	0.0161286
818.602	0.0160194
818.681	0.0160366
818.759	0.0161605
818.837	0.0160635
818.915	0.0161265
818.993	0.0162080
819.071	0.0162064
819.149	0.0162497
819.227	0.0162794
819.306	0.0163132
819.384	0.0162194
819.462	0.0162670
819.540	0.0162747
819.618	0.0163393
819.696	0.0161959
819.774	0.0161284
819.852	0.0162281
819.931	0.0162567
820.009	0.0161462
820.087	0.0162310
820.165	0.0162486
820.243	0.0163466
820.321	0.0163251
820.399	0.0162986
820.477	0.0162779
820.556	0.0165279
820.634	0.0163271
820.712	0.0163421
820.790	0.0163250
820.868	0.0163154
820.946	0.0162852
821.024	0.0163460
821.102	0.0163922
821.181	0.0162807
821.259	0.0164021
821.337	0.0165520
821.415	0.0163069
821.493	0.0164314
821.571	0.0164162
821.649	0.0164642
821.727	0.0164078
821.806	0.0162831
821.884	0.0163732
821.962	0.0165137
822.040	0.0165736
822.118	0.0163072
822.196	0.0163628
822.274	0.0164283
822.352	0.0165352
822.431	0.0163297
822.509	0.0163881
822.587	0.0164425
822.665	0.0163432
822.743	0.0164072
822.821	0.0164498
822.899	0.0163617
822.977	0.0164048
823.056	0.0164232
823.134	0.0163153
823.212	0.0163469
823.290	0.0161974
823.368	0.0164272
823.446	0.0163011
823.524	0.0163103
823.602	0.0163534
823.681	0.0163737
823.759	0.0162466
823.837	0.0163260
823.915	0.0162521
823.993	0.0163735
824.071	0.0161893
824.149	0.0161786
824.227	0.0163677
824.306	0.0161541
824.384	0.0161472
824.462	0.0162074
824.540	0.0162615
824.618	0.0162360
824.696	0.0161621
824.774	0.0160956
824.852	0.0162020
824.931	0.0162988
825.009	0.0162309
825.087	0.0161820
825.165	0.0161749
825.243	0.0161110
825.321	0.0161552
825.399	0.0160578
825.477	0.0162442
825.556	0.0162958
825.634	0.0161045
825.712	0.0160725
825.790	0.0162237
825.868	0.0160806
825.946	0.0161329
826.024	0.0161087
826.102	0.0162783
826.181	0.0162894
826.259	0.0160603
826.337	0.0161367
826.415	0.0161637
826.493	0.0161423
826.571	0.0162051
826.649	0.0161250
826.727	0.0161196
826.806	0.0161983
826.884	0.0162711
826.962	0.0161480
827.040	0.0161255
827.118	0.0160715
827.196	0.0162301
827.274	0.0161441
827.352	0.0160786
827.431	0.0161393
827.509	0.0159682
827.587	0.0161796
827.665	0.0160043
827.743	0.0160738
827.821	0.0162093
827.899	0.0161302
827.977	0.0159948
828.056	0.0161263
828.134	0.0160516
828.212	0.0161082
828.290	0.0160733
828.368	0.0161259
828.446	0.0161086
828.524	0.0159933
828.602	0.0160529
828.681	0.0161166
828.759	0.0162649
828.837	0.0162427
828.915	0.0161627
828.993	0.0161161
829.071	0.0160387
829.149	0.0160938
829.227	0.0160081
829.306	0.0160919
829.384	0.0162591
829.462	0.0161491
829.540	0.0160977
829.618	0.0162561
829.696	0.0162050
829.774	0.0162245
829.852	0.0160774
829.931	0.0161031
830.009	0.0161740
830.087	0.0161974
830.165	0.0161073
830.243	0.0159634
830.321	0.0161982
830.399	0.0161779
830.477	0.0161752
830.556	0.0161591
830.634	0.0162024
830.712	0.0161890
830.790	0.0161995
830.868	0.0161472
830.946	0.0160703
831.024	0.0161415
831.102	0.0161430
831.181	0.0161268
831.259	0.0161443
831.337	0.0162081
831.415	0.0160747
831.493	0.0161774
831.571	0.0161991
831.649	0.0161561
831.727	0.0160617
831.806	0.0161840
831.884	0.0161848
831.962	0.0159801
832.040	0.0161765
832.118	0.0161102
832.196	0.0160810
832.274	0.0159863
832.352	0.0160378
832.431	0.0162285
832.509	0.0161715
832.587	0.0161164
832.665	0.0160863
832.743	0.0160900
832.821	0.0161025
832.899	0.0161762
832.977	0.0161655
833.056	0.0161621
833.134	0.0160899
833.212	0.0161004
833.290	0.0159762
833.368	0.0160857
833.446	0.0160645
833.524	0.0160864
833.602	0.0160828
833.681	0.0161925
833.759	0.0160768
833.837	0.0160548
833.915	0.0161344
833.993	0.0161682
834.071	0.0162122
834.149	0.0164169
834.227	0.0162318
834.306	0.0160976
834.384	0.0160892
834.462	0.0162985
834.540	0.0162258
834.618	0.0162923
834.696	0.0161897
834.774	0.0162454
834.852	0.0164242
834.931	0.0163379
835.009	0.0163294
835.087	0.0162700
835.165	0.0162455
835.243	0.0162497
835.321	0.0164185
835.399	0.0162910
835.477	0.0164628
835.556	0.0163618
835.634	0.0163846
835.712	0.0165897
835.790	0.0163733
835.868	0.0164018
835.946	0.0163177
836.024	0.0163556
836.102	0.0164768
836.181	0.0164638
836.259	0.0164552
836.337	0.0165449
836.415	0.0165290
836.493	0.0164686
836.571	0.0165421
836.649	0.0165699
836.727	0.0163638
836.806	0.0164283
836.884	0.0166230
836.962	0.0165607
837.040	0.0164210
837.118	0.0164228
837.196	0.0166617
837.274	0.0165260
837.352	0.0165382
837.431	0.0165130
837.509	0.0165237
837.587	0.0165552
837.665	0.0165868
837.743	0.0163984
837.821	0.0164989
837.899	0.0164204
837.977	0.0164808
838.056	0.0165245
838.134	0.0165625
838.212	0.0162593
838.290	0.0163112
838.368	0.0162253
838.446	0.0164102
838.524	0.0163171
838.602	0.0162843
838.681	0.0162487
838.759	0.0162658
838.837	0.0161723
838.915	0.0162574
838.993	0.0162273
839.071	0.0160451
839.149	0.0160680
839.227	0.0160601
839.306	0.0160838
839.384	0.0161057
839.462	0.0161415
839.540	0.0161200
839.618	0.0159673
839.696	0.0160154
839.774	0.0160856
839.852	0.0161816
839.931	0.0161673
840.009	0.0161425
840.087	0.0160928
840.165	0.0160052
840.243	0.0159652
840.321	0.0160625
840.399	0.0161969
840.477	0.0161812
840.556	0.0162238
840.634	0.0160991
840.712	0.0161615
840.790	0.0161915
840.868	0.0162322
840.946	0.0161963
841.024	0.0161320
841.102	0.0161195
841.181	0.0161448
841.259	0.0161436
841.337	0.0161793
841.415	0.0162180
841.493	0.0161949
841.571	0.0162350
841.649	0.0160439
841.727	0.0162048
841.806	0.0164501
841.884	0.0162109
841.962	0.0161697
842.040	0.0162088
842.118	0.0162280
842.196	0.0162280
842.274	0.0163570
842.352	0.0163232
842.431	0.0163266
842.509	0.0162263
842.587	0.0161011
842.665	0.0162222
842.743	0.0161367
842.821	0.0161593
842.899	0.0162749
842.977	0.0161720
843.056	0.0162234
843.134	0.0162337
843.212	0.0161966
843.290	0.0163457
843.368	0.0161858
843.446	0.0161839
843.524	0.0162090
843.602	0.0161506
843.681	0.0161624
843.759	0.0161990
843.837	0.0162041
843.915	0.0163442
843.993	0.0162016
844.071	0.0163373
844.149	0.0161576
844.227	0.0162370
844.306	0.0163386
844.384	0.0163747
844.462	0.0162588
844.540	0.0163445
844.618	0.0162352
844.696	0.0164489
844.774	0.0162971
844.852	0.0162084
844.931	0.0163099
845.009	0.0163518
845.087	0.0163407
845.165	0.0163359
845.243	0.0162623
845.321	0.0162771
845.399	0.0164405
845.477	0.0163259
845.556	0.0162965
845.634	0.0163060
845.712	0.0163200
845.790	0.0163746
845.868	0.0163776
845.946	0.0161661
846.024	0.0163012
846.102	0.0161765
846.181	0.0162866
846.259	0.0163247
846.337	0.0162412
846.415	0.0160962
846.493	0.0161905
846.571	0.0162945
846.649	0.0163734
846.727	0.0162437
846.806	0.0163103
846.884	0.0163624
846.962	0.0164646
847.040	0.0162106
847.118	0.0162363
847.196	0.0163860
847.274	0.0163522
847.352	0.0164690
847.431	0.0164777
847.509	0.0163595
847.587	0.0164176
847.665	0.0163538
847.743	0.0162510
847.821	0.0163421
847.899	0.0163811
847.977	0.0164445
848.056	0.0162227
848.134	0.0161985
848.212	0.0162500
848.290	0.0163191
848.368	0.0163186
848.446	0.0162647
848.524	0.0162737
848.602	0.0163433
848.681	0.0162418
848.759	0.0163173
848.837	0.0162307
848.915	0.0161164
848.993	0.0161850
849.071	0.0163429
849.149	0.0162485
849.227	0.0161568
849.306	0.0163813
849.384	0.0161902
849.462	0.0161572
849.540	0.0160461
849.618	0.0162389
849.696	0.0162703
849.774	0.0162150
849.852	0.0161949
849.931	0.0161832
850.009	0.0161909
850.087	0.0161487
850.165	0.0162382
850.243	0.0163441
850.321	0.0162762
850.399	0.0162174
850.477	0.0161869
850.556	0.0162681
850.634	0.0162049
850.712	0.0161234
850.790	0.0161137
850.868	0.0163390
850.946	0.0162354
851.024	0.0162437
851.102	0.0163677
851.181	0.0162284
851.259	0.0161675
851.337	0.0161691
851.415	0.0162405
851.493	0.0162997
851.571	0.0161627
851.649	0.0162300
851.727	0.0162440
851.806	0.0163347
851.884	0.0161930
851.962	0.0161362
852.040	0.0161830
852.118	0.0160548
852.196	0.0160518
852.274	0.0161938
852.352	0.0161313
852.431	0.0162074
852.509	0.0160786
852.587	0.0160165
852.665	0.0160559
852.743	0.0160849
852.821	0.0161013
852.899	0.0161217
852.977	0.0161008
853.056	0.0160863
853.134	0.0161085
853.212	0.0160520
853.290	0.0161720
853.368	0.0161295
853.446	0.0161742
853.524	0.0161869
853.602	0.0161559
853.681	0.0161823
853.759	0.0163038
853.837	0.0160818
853.915	0.0160531
853.993	0.0162170
854.071	0.0162434
854.149	0.0163100
854.227	0.0162652
854.306	0.0163200
854.384	0.0162910
854.462	0.0162907
854.540	0.0163248
854.618	0.0163160
854.696	0.0163294
854.774	0.0162692
854.852	0.0163769
854.931	0.0163296
855.009	0.0162449
855.087	0.0163078
855.165	0.0162958
855.243	0.0163029
855.321	0.0163373
855.399	0.0164274
855.477	0.0164074
855.556	0.0162750
855.634	0.0162357
855.712	0.0163609
855.790	0.0163701
855.868	0.0162247
855.946	0.0163531
856.024	0.0162031
856.102	0.0162532
856.181	0.0164279
856.259	0.0162981
856.337	0.0162529
856.415	0.0163609
856.493	0.0162848
856.571	0.0163074
856.649	0.0163058
856.727	0.0163438
856.806	0.0162644
856.884	0.0161980
856.962	0.0161485
857.040	0.0161961
857.118	0.0163474
857.196	0.0163103
857.274	0.0162287
857.352	0.0162586
857.431	0.0163007
857.509	0.0162769
857.587	0.0161504
857.665	0.0162099
857.743	0.0163376
857.821	0.0162672
857.899	0.0161797
857.977	0.0163676
858.056	0.0162649
858.134	0.0161730
858.212	0.0161796
858.290	0.0162149
858.368	0.0161677
858.446	0.0162801
858.524	0.0162372
858.602	0.0161446
858.681	0.0161908
858.759	0.0161966
858.837	0.0162304
858.915	0.0162528
858.993	0.0163472
859.071	0.0162655
859.149	0.0161831
859.227	0.0163233
859.306	0.0162250
859.384	0.0161713
859.462	0.0162870
859.540	0.0163308
859.618	0.0162953
859.696	0.0164349
859.774	0.0163392
859.852	0.0162591
859.931	0.0162637
860.009	0.0162449
860.087	0.0162656
860.165	0.0162517
860.243	0.0163201
860.321	0.0163478
860.399	0.0161392
860.477	0.0163285
860.556	0.0161916
860.634	0.0163467
860.712	0.0163797
860.790	0.0164305
860.868	0.0163272
860.946	0.0163431
861.024	0.0161867
861.102	0.0163300
861.181	0.0163501
861.259	0.0162228
861.337	0.0164357
861.415	0.0162797
861.493	0.0162997
861.571	0.0163478
861.649	0.0163364
861.727	0.0163103
861.806	0.0162886
861.884	0.0163493
861.962	0.0161979
862.040	0.0162795
862.118	0.0163310
862.196	0.0162849
862.274	0.0162408
862.352	0.0161958
862.431	0.0161916
862.509	0.0161872
862.587	0.0162784
862.665	0.0161797
862.743	0.0162077
862.821	0.0162251
862.899	0.0161532
862.977	0.0161738
863.056	0.0162161
863.134	0.0160664
863.212	0.0161612
863.290	0.0162029
863.368	0.0160831
863.446	0.0159725
863.524	0.0161865
863.602	0.0162644
863.681	0.0160791
863.759	0.0160794
863.837	0.0160989
863.915	0.0161928
863.993	0.0160635
864.071	0.0160680
864.149	0.0162374
864.227	0.0161075
864.306	0.0161867
864.384	0.0161403
864.462	0.0160253
864.540	0.0160995
864.618	0.0161579
864.696	0.0161118
864.774	0.0160484
864.852	0.0159898
864.931	0.0161872
865.009	0.0162122
865.087	0.0161446
865.165	0.0161042
865.243	0.0161440
865.321	0.0161913
865.399	0.0162288
865.477	0.0160938
865.556	0.0161279
865.634	0.0162532
865.712	0.0162800
865.790	0.0161329
865.868	0.0162704
865.946	0.0163204
866.024	0.0162896
866.102	0.0163033
866.181	0.0161888
866.259	0.0163317
866.337	0.0163524
866.415	0.0164088
866.493	0.0164456
866.571	0.0162609
866.649	0.0164123
866.727	0.0163960
866.806	0.0161894
866.884	0.0162687
866.962	0.0163560
867.040	0.0164001
867.118	0.0162033
867.196	0.0163140
867.274	0.0163519
867.352	0.0162573
867.431	0.0162325
867.509	0.0163811
867.587	0.0163583
867.665	0.0163440
867.743	0.0163100
867.821	0.0163094
867.899	0.0163194
867.977	0.0163553
868.056	0.0163264
868.134	0.0163767
868.212	0.0162727
868.290	0.0160735
868.368	0.0162569
868.446	0.0163822
868.524	0.0162092
868.602	0.0163330
868.681	0.0162726
868.759	0.0162434
868.837	0.0162038
868.915	0.0160825
868.993	0.0161659
869.071	0.0161192
869.149	0.0162254
869.227	0.0161294
869.306	0.0162273
869.384	0.0161102
869.462	0.0162224
869.540	0.0160541
869.618	0.0160000
869.696	0.0161394
869.774	0.0159979
869.852	0.0160612
869.931	0.0160641
870.009	0.0161292
870.087	0.0160831
870.165	0.0161438
870.243	0.0161745
870.321	0.0159521
870.399	0.0160743
870.477	0.0159872
870.556	0.0161246
870.634	0.0161971
870.712	0.0162138
870.790	0.0160633
870.868	0.0162106
870.946	0.0161967
871.024	0.0161112
871.102	0.0162526
871.181	0.0162686
871.259	0.0162652
871.337	0.0161646
871.415	0.0162720
871.493	0.0163402
871.571	0.0161749
871.649	0.0164050
871.727	0.0162325
871.806	0.0163796
871.884	0.0163180
871.962	0.0163560
872.040	0.0164794
872.118	0.0163910
872.196	0.0161531
872.274	0.0161768
872.352	0.0162950
872.431	0.0162910
872.509	0.0163208
872.587	0.0163161
872.665	0.0163105
872.743	0.0165116
872.821	0.0163039
872.899	0.0163644
872.977	0.0163271
873.056	0.0163434
873.134	0.0162047
873.212	0.0162781
873.290	0.0163687
873.368	0.0162499
873.446	0.0163263
873.524	0.0162510
873.602	0.0162309
873.681	0.0163631
873.759	0.0163935
873.837	0.0161970
873.915	0.0163177
873.993	0.0163127
874.071	0.0164113
874.149	0.0162916
874.227	0.0162890
874.306	0.0163294
874.384	0.0163048
874.462	0.0163237
874.540	0.0161780
874.618	0.0162765
874.696	0.0164208
874.774	0.0163225
874.852	0.0163183
874.931	0.0163331
875.009	0.0162228
875.087	0.0163091
875.165	0.0163211
875.243	0.0163570
875.321	0.0162523
875.399	0.0162406
875.477	0.0162726
875.556	0.0161584
875.634	0.0161961
875.712	0.0162830
875.790	0.0161632
875.868	0.0162943
875.946	0.0163148
876.024	0.0161617
876.102	0.0163248
876.181	0.0163130
876.259	0.0162628
876.337	0.0163180
876.415	0.0163161
876.493	0.0164044
876.571	0.0162254
876.649	0.0163318
876.727	0.0163135
876.806	0.0163519
876.884	0.0163094
876.962	0.0163103
877.040	0.0163671
877.118	0.0162170
877.196	0.0163790
877.274	0.0163371
877.352	0.0162870
877.431	0.0163826
877.509	0.0161924
877.587	0.0163974
877.665	0.0164045
877.743	0.0162149
877.821	0.0161443
877.899	0.0162411
877.977	0.0163927
878.056	0.0163112
878.134	0.0163236
878.212	0.0161975
878.290	0.0162560
878.368	0.0162056
878.446	0.0162955
878.524	0.0161646
878.602	0.0162926
878.681	0.0163111
878.759	0.0163310
878.837	0.0162547
878.915	0.0162733
878.993	0.0163422
879.071	0.0164475
879.149	0.0162688
879.227	0.0162691
879.306	0.0162372
879.384	0.0162284
879.462	0.0162657
879.540	0.0161626
879.618	0.0163509
879.696	0.0163302
879.774	0.0162441
879.852	0.0162350
879.931	0.0162466
880.009	0.0162100
880.087	0.0163368
880.165	0.0163116
880.243	0.0162865
880.321	0.0163358
880.399	0.0162841
880.477	0.0163120
880.556	0.0161591
880.634	0.0162452
880.712	0.0162723
880.790	0.0161949
880.868	0.0162564
880.946	0.0161988
881.024	0.0163207
881.102	0.0163137
881.181	0.0164532
881.259	0.0162660
881.337	0.0162952
881.415	0.0162810
881.493	0.0163081
881.571	0.0161587
881.649	0.0163100
881.727	0.0163269
881.806	0.0161790
881.884	0.0161304
881.962	0.0162218
882.040	0.0162110
882.118	0.0161783
882.196	0.0161927
882.274	0.0161318
882.352	0.0161756
882.431	0.0161718
882.509	0.0161542
882.587	0.0161019
882.665	0.0160542
882.743	0.0161901
882.821	0.0162241
882.899	0.0161951
882.977	0.0160938
883.056	0.0160832
883.134	0.0161749
883.212	0.0161250
883.290	0.0162023
883.368	0.0160111
883.446	0.0161794
883.524	0.0162395
883.602	0.0160947
883.681	0.0161179
883.759	0.0160891
883.837	0.0161433
883.915	0.0162555
883.993	0.0161008
884.071	0.0162132
884.149	0.0162176
884.227	0.0162418
884.306	0.0162424
884.384	0.0160616
884.462	0.0160883
884.540	0.0162388
884.618	0.0161201
884.696	0.0162202
884.774	0.0162078
884.852	0.0161684
884.931	0.0161109
885.009	0.0160378
885.087	0.0160798
885.165	0.0163030
885.243	0.0162272
885.321	0.0162952
885.399	0.0161394
885.477	0.0161914
885.556	0.0161772
885.634	0.0161364
885.712	0.0161383
885.790	0.0162489
885.868	0.0162225
885.946	0.0162067
886.024	0.0161249
886.102	0.0162748
886.181	0.0163695
886.259	0.0160713
886.337	0.0161194
886.415	0.0163975
886.493	0.0162636
886.571	0.0162253
886.649	0.0163934
886.727	0.0163157
886.806	0.0162280
886.884	0.0162956
886.962	0.0162755
887.040	0.0162857
887.118	0.0161245
887.196	0.0163206
887.274	0.0162220
887.352	0.0161916
887.431	0.0163447
887.509	0.0163660
887.587	0.0162813
887.665	0.0161607
887.743	0.0161924
887.821	0.0162574
887.899	0.0162646
887.977	0.0161267
888.056	0.0161134
888.134	0.0160989
888.212	0.0161242
888.290	0.0161385
888.368	0.0161108
888.446	0.0161953
888.524	0.0161705
888.602	0.0163042
888.681	0.0161344
888.759	0.0161246
888.837	0.0163042
888.915	0.0163168
888.993	0.0161259
889.071	0.0161553
889.149	0.0162061
889.227	0.0162049
889.306	0.0161559
889.384	0.0162238
889.462	0.0161897
889.540	0.0162517
889.618	0.0160585
889.696	0.0162654
889.774	0.0162942
889.852	0.0162073
889.931	0.0162726
890.009	0.0163383
890.087	0.0162386
890.165	0.0161905
890.243	0.0162785
890.321	0.0162975
890.399	0.0162467
890.477	0.0163010
890.556	0.0162607
890.634	0.0162081
890.712	0.0163158
890.790	0.0162011
890.868	0.0162417
890.946	0.0162534
891.024	0.0163755
891.102	0.0163480
891.181	0.0161522
891.259	0.0161868
891.337	0.0162268
891.415	0.0162189
891.493	0.0161969
891.571	0.0162560
891.649	0.0162086
891.727	0.0163712
891.806	0.0163243
891.884	0.0162855
891.962	0.0163747
892.040	0.0163931
892.118	0.0163167
892.196	0.0163235
892.274	0.0163730
892.352	0.0162971
892.431	0.0164023
892.509	0.0164046
892.587	0.0163484
892.665	0.0161526
892.743	0.0163369
892.821	0.0165253
892.899	0.0163017
892.977	0.0163811
893.056	0.0163516
893.134	0.0163073
893.212	0.0161974
893.290	0.0161072
893.368	0.0163044
893.446	0.0161455
893.524	0.0162432
893.602	0.0161425
893.681	0.0161421
893.759	0.0161866
893.837	0.0161877
893.915	0.0160483
893.993	0.0160868
894.071	0.0161417
894.149	0.0161264
894.227	0.0160956
894.306	0.0161533
894.384	0.0161343
894.462	0.0160953
894.540	0.0161311
894.618	0.0161216
894.696	0.0161828
894.774	0.0161169
894.852	0.0161301
894.931	0.0162948
895.009	0.0162819
895.087	0.0161436
895.165	0.0162354
895.243	0.0162093
895.321	0.0162197
895.399	0.0162753
895.477	0.0162083
895.556	0.0162138
895.634	0.0162910
895.712	0.0162467
895.790	0.0162604
895.868	0.0162356
895.946	0.0162262
896.024	0.0162446
896.102	0.0162704
896.181	0.0161767
896.259	0.0162710
896.337	0.0162148
896.415	0.0161115
896.493	0.0162482
896.571	0.0165021
896.649	0.0161897
896.727	0.0162180
896.806	0.0162914
896.884	0.0163304
896.962	0.0164362
897.040	0.0164024
897.118	0.0161879
897.196	0.0163145
897.274	0.0163271
897.352	0.0163343
897.431	0.0162293
897.509	0.0162989
897.587	0.0163085
897.665	0.0160976
897.743	0.0162925
897.821	0.0163089
897.899	0.0161827
897.977	0.0161253
898.056	0.0163327
898.134	0.0162617
898.212	0.0161539
898.290	0.0161459
898.368	0.0161402
898.446	0.0162791
898.524	0.0162268
898.602	0.0162912
898.681	0.0161632
898.759	0.0162352
898.837	0.0161604
898.915	0.0160133
898.993	0.0160802
899.071	0.0161150
899.149	0.0160847
899.227	0.0161522
899.306	0.0160663
899.384	0.0161283
899.462	0.0161696
899.540	0.0161945
899.618	0.0160816
899.696	0.0161837
899.774	0.0163015
899.852	0.0162233
899.931	0.0162115
900.009	0.0160548
900.087	0.0162803
900.165	0.0161945
900.243	0.0161847
900.321	0.0162899
900.399	0.0162753
900.477	0.0162622
900.556	0.0162692
900.634	0.0162112
900.712	0.0161938
900.790	0.0162413
900.868	0.0163590
900.946	0.0161733
901.024	0.0162251
901.102	0.0161210
901.181	0.0162785
901.259	0.0162724
901.337	0.0163174
901.415	0.0162045
901.493	0.0162286
901.571	0.0162943
901.649	0.0162823
901.727	0.0161098
901.806	0.0161179
901.884	0.0161353
901.962	0.0161238
902.040	0.0162686
902.118	0.0160976
902.196	0.0161125
902.274	0.0161353
902.352	0.0162128
902.431	0.0161018
902.509	0.0161453
902.587	0.0163155
902.665	0.0160929
902.743	0.0162863
902.821	0.0161359
902.899	0.0162701
902.977	0.0162214
903.056	0.0162823
903.134	0.0162753
903.212	0.0162620
903.290	0.0163258
903.368	0.0161920
903.446	0.0163484
903.524	0.0161533
903.602	0.0162012
903.681	0.0161275
903.759	0.0162933
903.837	0.0163286
903.915	0.0162331
903.993	0.0163435
904.071	0.0162181
904.149	0.0162581
904.227	0.0163107
904.306	0.0164030
904.384	0.0163181
904.462	0.0162652
904.540	0.0164355
904.618	0.0162939
904.696	0.0162913
904.774	0.0163362
904.852	0.0163393
904.931	0.0163946
905.009	0.0163036
905.087	0.0162602
905.165	0.0163165
905.243	0.0164879
905.321	0.0162276
905.399	0.0162317
905.477	0.0163074
905.556	0.0163808
905.634	0.0163415
905.712	0.0162971
905.790	0.0162599
905.868	0.0163651
905.946	0.0161778
906.024	0.0162273
906.102	0.0163071
906.181	0.0161875
906.259	0.0163306
906.337	0.0161442
906.415	0.0161962
906.493	0.0161116
906.571	0.0160851
906.649	0.0161593
906.727	0.0161072
906.806	0.0161452
906.884	0.0162228
906.962	0.0161736
907.040	0.0161956
907.118	0.0160457
907.196	0.0162287
907.274	0.0162077
907.352	0.0161926
907.431	0.0161742
907.509	0.0162086
907.587	0.0160538
907.665	0.0161104
907.743	0.0161951
907.821	0.0162947
907.899	0.0161262
907.977	0.0161583
908.056	0.0161964
908.134	0.0162206
908.212	0.0161717
908.290	0.0161022
908.368	0.0162003
908.446	0.0161627
908.524	0.0162324
908.602	0.0162833
908.681	0.0161376
908.759	0.0161742
908.837	0.0159732
908.915	0.0161358
908.993	0.0161744
909.071	0.0162962
909.149	0.0162486
909.227	0.0163811
909.306	0.0163048
909.384	0.0161356
909.462	0.0160159
909.540	0.0161256
909.618	0.0162007
909.696	0.0161678
909.774	0.0161359
909.852	0.0162386
909.931	0.0161529
910.009	0.0160565
910.087	0.0160741
910.165	0.0161825
910.243	0.0161919
910.321	0.0161618
910.399	0.0160838
910.477	0.0160268
910.556	0.0160986
910.634	0.0158939
910.712	0.0159833
910.790	0.0160706
910.868	0.0160047
910.946	0.0160535
911.024	0.0162315
911.102	0.0160767
911.181	0.0160130
911.259	0.0160100
911.337	0.0161362
911.415	0.0161163
911.493	0.0161278
911.571	0.0161563
911.649	0.0161725
911.727	0.0161147
911.806	0.0161671
911.884	0.0162724
911.962	0.0162045
912.040	0.0162082
912.118	0.0160915
912.196	0.0161515
912.274	0.0164178
912.352	0.0161781
912.431	0.0161613
912.509	0.0161092
912.587	0.0161786
912.665	0.0163145
912.743	0.0162756
912.821	0.0162119
912.899	0.0162830
912.977	0.0161962
913.056	0.0162788
913.134	0.0162064
913.212	0.0161517
913.290	0.0160901
913.368	0.0161641
913.446	0.0161098
913.524	0.0162515
913.602	0.0162483
913.681	0.0161251
913.759	0.0162585
913.837	0.0162575
913.915	0.0161600
913.993	0.0160867
914.071	0.0160682
914.149	0.0161174
914.227	0.0160763
914.306	0.0161592
914.384	0.0160999
914.462	0.0161860
914.540	0.0162381
914.618	0.0160698
914.696	0.0160282
914.774	0.0160866
914.852	0.0160386
914.931	0.0161877
915.009	0.0163057
915.087	0.0161426
915.165	0.0162017
915.243	0.0160712
915.321	0.0161462
915.399	0.0161510
915.477	0.0163029
915.556	0.0162035
915.634	0.0161633
915.712	0.0161901
915.790	0.0163715
915.868	0.0161839
915.946	0.0162029
916.024	0.0162459
916.102	0.0163945
916.181	0.0163116
916.259	0.0162911
916.337	0.0162524
916.415	0.0163230
916.493	0.0164852
916.571	0.0162077
916.649	0.0163959
916.727	0.0163766
916.806	0.0164139
916.884	0.0162200
916.962	0.0163441
917.040	0.0163666
917.118	0.0161649
917.196	0.0163149
917.274	0.0164214
917.352	0.0164036
917.431	0.0163286
917.509	0.0162944
917.587	0.0163358
917.665	0.0163206
917.743	0.0162229
917.821	0.0162187
917.899	0.0163010
917.977	0.0162354
918.056	0.0161594
918.134	0.0161823
918.212	0.0161996
918.290	0.0161521
918.368	0.0162563
918.446	0.0162534
918.524	0.0160701
918.602	0.0162215
918.681	0.0161702
918.759	0.0162215
918.837	0.0161803
918.915	0.0162202
918.993	0.0162740
919.071	0.0161889
919.149	0.0162625
919.227	0.0161658
919.306	0.0161314
919.384	0.0161882
919.462	0.0161570
919.540	0.0160558
919.618	0.0161430
919.696	0.0161608
919.774	0.0162103
919.852	0.0161390
919.931	0.0161903
920.009	0.0161678
920.087	0.0160754
920.165	0.0161202
920.243	0.0161472
920.321	0.0161733
920.399	0.0162222
920.477	0.0160903
920.556	0.0162254
920.634	0.0162230
920.712	0.0161358
920.790	0.0162373
920.868	0.0162791
920.946	0.0161581
921.024	0.0161375
921.102	0.0161234
921.181	0.0160426
921.259	0.0161054
921.337	0.0160988
921.415	0.0160506
921.493	0.0160977
921.571	0.0161627
921.649	0.0161181
921.727	0.0159794
921.806	0.0160278
921.884	0.0159706
921.962	0.0160869
922.040	0.0160805
922.118	0.0161962
922.196	0.0161242
922.274	0.0160446
922.352	0.0161132
922.431	0.0161745
922.509	0.0160010
922.587	0.0160195
922.665	0.0161694
922.743	0.0162306
922.821	0.0161491
922.899	0.0162804
922.977	0.0162971
923.056	0.0161948
923.134	0.0162694
923.212	0.0161931
923.290	0.0161800
923.368	0.0162632
923.446	0.0162899
923.524	0.0162376
923.602	0.0162372
923.681	0.0163207
923.759	0.0163456
923.837	0.0162801
923.915	0.0161814
923.993	0.0163785
924.071	0.0162556
924.149	0.0163780
924.227	0.0163768
924.306	0.0163832
924.384	0.0163448
924.462	0.0163433
924.540	0.0162814
924.618	0.0160750
924.696	0.0164017
924.774	0.0164130
924.852	0.0162772
924.931	0.0163197
925.009	0.0163869
925.087	0.0163328
925.165	0.0161597
925.243	0.0162309
925.321	0.0164411
925.399	0.0163421
925.477	0.0163596
925.556	0.0164064
925.634	0.0164040
925.712	0.0163911
925.790	0.0163257
925.868	0.0164307
925.946	0.0163109
926.024	0.0164014
926.102	0.0162786
926.181	0.0163679
926.259	0.0162799
926.337	0.0163092
926.415	0.0162983
926.493	0.0163862
926.571	0.0161945
926.649	0.0163570
926.727	0.0163223
926.806	0.0163699
926.884	0.0163223
926.962	0.0162686
927.040	0.0162331
927.118	0.0162650
927.196	0.0162273
927.274	0.0161208
927.352	0.0162386
927.431	0.0161513
927.509	0.0162202
927.587	0.0161776
927.665	0.0160964
927.743	0.0162637
927.821	0.0161648
927.899	0.0162814
927.977	0.0159962
928.056	0.0161611
928.134	0.0162110
928.212	0.0162356
928.290	0.0160515
928.368	0.0160126
928.446	0.0160761
928.524	0.0161067
928.602	0.0160555
928.681	0.0159911
928.759	0.0161165
928.837	0.0161509
928.915	0.0161169
928.993	0.0160361
929.071	0.0160826
929.149	0.0159838
929.227	0.0159655
929.306	0.0160902
929.384	0.0160397
929.462	0.0160672
929.540	0.0161839
929.618	0.0161472
929.696	0.0160181
929.774	0.0160798
929.852	0.0160545
929.931	0.0159441
