05/19/2022	01:11:49	Ver.	4.1	UNKNOWN
Optical Delay	610.008675	Delta X		0.078125	Sweeps	1	Scan Rate	0/0
Coordinates	Axis 1	NaN	Axis 2	NaN	Axis 3	NaN	Axis 4	NaN	Axis 5	NaN	Axis 6	0.000000
TX Power	0.000000	RX Power	0.000000

610.009	0.0164419
610.087	0.0164236
610.165	0.0164431
610.243	0.0165386
610.321	0.0165458
610.399	0.0164996
610.477	0.0164879
610.556	0.0164941
610.634	0.0165214
610.712	0.0165686
610.790	0.0164936
610.868	0.0165652
610.946	0.0164668
611.024	0.0165278
611.102	0.0164772
611.181	0.0164851
611.259	0.0164877
611.337	0.0165106
611.415	0.0164840
611.493	0.0165903
611.571	0.0166378
611.649	0.0165562
611.727	0.0164671
611.806	0.0166245
611.884	0.0166666
611.962	0.0165393
612.040	0.0166181
612.118	0.0167300
612.196	0.0167185
612.274	0.0164431
612.352	0.0166119
612.431	0.0166486
612.509	0.0165594
612.587	0.0167460
612.665	0.0166898
612.743	0.0164892
612.821	0.0166567
612.899	0.0167010
612.977	0.0166116
613.056	0.0165546
613.134	0.0167590
613.212	0.0167226
613.290	0.0167287
613.368	0.0165750
613.446	0.0166396
613.524	0.0167184
613.602	0.0165028
613.681	0.0166264
613.759	0.0167527
613.837	0.0166061
613.915	0.0167113
613.993	0.0165968
614.071	0.0166237
614.149	0.0166761
614.227	0.0166414
614.306	0.0166833
614.384	0.0165222
614.462	0.0165690
614.540	0.0164764
614.618	0.0167277
614.696	0.0166012
614.774	0.0164176
614.852	0.0167353
614.931	0.0167549
615.009	0.0166158
615.087	0.0165924
615.165	0.0166120
615.243	0.0167051
615.321	0.0167031
615.399	0.0167193
615.477	0.0167103
615.556	0.0166205
615.634	0.0165443
615.712	0.0166114
615.790	0.0166496
615.868	0.0166428
615.946	0.0166790
616.024	0.0166382
616.102	0.0166204
616.181	0.0166909
616.259	0.0165639
616.337	0.0167201
616.415	0.0166811
616.493	0.0165865
616.571	0.0167194
616.649	0.0165674
616.727	0.0164801
616.806	0.0166444
616.884	0.0166230
616.962	0.0165942
617.040	0.0164846
617.118	0.0165986
617.196	0.0167267
617.274	0.0166159
617.352	0.0165971
617.431	0.0165851
617.509	0.0165285
617.587	0.0165338
617.665	0.0166253
617.743	0.0165474
617.821	0.0163977
617.899	0.0166788
617.977	0.0166924
618.056	0.0164681
618.134	0.0165472
618.212	0.0166370
618.290	0.0165982
618.368	0.0164959
618.446	0.0165073
618.524	0.0165954
618.602	0.0167042
618.681	0.0167564
618.759	0.0164667
618.837	0.0167084
618.915	0.0166417
618.993	0.0164825
619.071	0.0166090
619.149	0.0166558
619.227	0.0164709
619.306	0.0165646
619.384	0.0165475
619.462	0.0166257
619.540	0.0166894
619.618	0.0164822
619.696	0.0164520
619.774	0.0165008
619.852	0.0165743
619.931	0.0165416
620.009	0.0165073
620.087	0.0166455
620.165	0.0166328
620.243	0.0165118
620.321	0.0164536
620.399	0.0165186
620.477	0.0165320
620.556	0.0164378
620.634	0.0167938
620.712	0.0166666
620.790	0.0165858
620.868	0.0166051
620.946	0.0166380
621.024	0.0166588
621.102	0.0166280
621.181	0.0166866
621.259	0.0167522
621.337	0.0166186
621.415	0.0163904
621.493	0.0166045
621.571	0.0164828
621.649	0.0165736
621.727	0.0167084
621.806	0.0165005
621.884	0.0165559
621.962	0.0164434
622.040	0.0167815
622.118	0.0164758
622.196	0.0165402
622.274	0.0164380
622.352	0.0165749
622.431	0.0165771
622.509	0.0165279
622.587	0.0166410
622.665	0.0165830
622.743	0.0165159
622.821	0.0166086
622.899	0.0165323
622.977	0.0165634
623.056	0.0165412
623.134	0.0166090
623.212	0.0165166
623.290	0.0165431
623.368	0.0165480
623.446	0.0163921
623.524	0.0165703
623.602	0.0165482
623.681	0.0165386
623.759	0.0165914
623.837	0.0165410
623.915	0.0167068
623.993	0.0167379
624.071	0.0166366
624.149	0.0165138
624.227	0.0164640
624.306	0.0165993
624.384	0.0165354
624.462	0.0165697
624.540	0.0166029
624.618	0.0164234
624.696	0.0165173
624.774	0.0166312
624.852	0.0167183
624.931	0.0167039
625.009	0.0166943
625.087	0.0165022
625.165	0.0165960
625.243	0.0165496
625.321	0.0164954
625.399	0.0166177
625.477	0.0165681
625.556	0.0165487
625.634	0.0165503
625.712	0.0166284
625.790	0.0165035
625.868	0.0165018
625.946	0.0166039
626.024	0.0167928
626.102	0.0166121
626.181	0.0165466
626.259	0.0165999
626.337	0.0164991
626.415	0.0164395
626.493	0.0165759
626.571	0.0165586
626.649	0.0165865
626.727	0.0164928
626.806	0.0163740
626.884	0.0164355
626.962	0.0164458
627.040	0.0164104
627.118	0.0164366
627.196	0.0163215
627.274	0.0165231
627.352	0.0164392
627.431	0.0163831
627.509	0.0165576
627.587	0.0164195
627.665	0.0164705
627.743	0.0164507
627.821	0.0165109
627.899	0.0166579
627.977	0.0163950
628.056	0.0163490
628.134	0.0165117
628.212	0.0165295
628.290	0.0164969
628.368	0.0165372
628.446	0.0164848
628.524	0.0165134
628.602	0.0163452
628.681	0.0165765
628.759	0.0166412
628.837	0.0165667
628.915	0.0165464
628.993	0.0164470
629.071	0.0165086
629.149	0.0166057
629.227	0.0165699
629.306	0.0165514
629.384	0.0165952
629.462	0.0165978
629.540	0.0164445
629.618	0.0164524
629.696	0.0165392
629.774	0.0164526
629.852	0.0164686
629.931	0.0165396
630.009	0.0165725
630.087	0.0164741
630.165	0.0163777
630.243	0.0164186
630.321	0.0164005
630.399	0.0162775
630.477	0.0163010
630.556	0.0163951
630.634	0.0163384
630.712	0.0162593
630.790	0.0162780
630.868	0.0162559
630.946	0.0162135
631.024	0.0161069
631.102	0.0162516
631.181	0.0162846
631.259	0.0161948
631.337	0.0162563
631.415	0.0162808
631.493	0.0161756
631.571	0.0164030
631.649	0.0163927
631.727	0.0164302
631.806	0.0164652
631.884	0.0163429
631.962	0.0163534
632.040	0.0163322
632.118	0.0163776
632.196	0.0164729
632.274	0.0163233
632.352	0.0163496
632.431	0.0165427
632.509	0.0165594
632.587	0.0165295
632.665	0.0164290
632.743	0.0166092
632.821	0.0166503
632.899	0.0165131
632.977	0.0166582
633.056	0.0164272
633.134	0.0166628
633.212	0.0165527
633.290	0.0163528
633.368	0.0164245
633.446	0.0165813
633.524	0.0164590
633.602	0.0164587
633.681	0.0165305
633.759	0.0165928
633.837	0.0165028
633.915	0.0164292
633.993	0.0165472
634.071	0.0164256
634.149	0.0163719
634.227	0.0164888
634.306	0.0164715
634.384	0.0164722
634.462	0.0165508
634.540	0.0165218
634.618	0.0165029
634.696	0.0163779
634.774	0.0164970
634.852	0.0164262
634.931	0.0165081
635.009	0.0163595
635.087	0.0162676
635.165	0.0162778
635.243	0.0163599
635.321	0.0164619
635.399	0.0162777
635.477	0.0163757
635.556	0.0164137
635.634	0.0163467
635.712	0.0163806
635.790	0.0163488
635.868	0.0164204
635.946	0.0164229
636.024	0.0164260
636.102	0.0164603
636.181	0.0165533
636.259	0.0164325
636.337	0.0164959
636.415	0.0166458
636.493	0.0166666
636.571	0.0166212
636.649	0.0167015
636.727	0.0166936
636.806	0.0167704
636.884	0.0167545
636.962	0.0168021
637.040	0.0169074
637.118	0.0168513
637.196	0.0168634
637.274	0.0168981
637.352	0.0169403
637.431	0.0169357
637.509	0.0170308
637.587	0.0170741
637.665	0.0170012
637.743	0.0168591
637.821	0.0168398
637.899	0.0169642
637.977	0.0168947
638.056	0.0168684
638.134	0.0169174
638.212	0.0168930
638.290	0.0168777
638.368	0.0168212
638.446	0.0168189
638.524	0.0167582
638.602	0.0167889
638.681	0.0167684
638.759	0.0166157
638.837	0.0166552
638.915	0.0164606
638.993	0.0164670
639.071	0.0164890
639.149	0.0164832
639.227	0.0164314
639.306	0.0163281
639.384	0.0162968
639.462	0.0162063
639.540	0.0163329
639.618	0.0161905
639.696	0.0162724
639.774	0.0161888
639.852	0.0162003
639.931	0.0161042
640.009	0.0160567
640.087	0.0162207
640.165	0.0163229
640.243	0.0162735
640.321	0.0161817
640.399	0.0164114
640.477	0.0162579
640.556	0.0163245
640.634	0.0164824
640.712	0.0163874
640.790	0.0164679
640.868	0.0165550
640.946	0.0166080
641.024	0.0164722
641.102	0.0165588
641.181	0.0167074
641.259	0.0167061
641.337	0.0165641
641.415	0.0165903
641.493	0.0165737
641.571	0.0167223
641.649	0.0166648
641.727	0.0166042
641.806	0.0166667
641.884	0.0167622
641.962	0.0166206
642.040	0.0165829
642.118	0.0166621
642.196	0.0166508
642.274	0.0166669
642.352	0.0166077
642.431	0.0164314
642.509	0.0164669
642.587	0.0166045
642.665	0.0164265
642.743	0.0166140
642.821	0.0165022
642.899	0.0164764
642.977	0.0164439
643.056	0.0164471
643.134	0.0163793
643.212	0.0164061
643.290	0.0164403
643.368	0.0164030
643.446	0.0161620
643.524	0.0164355
643.602	0.0163758
643.681	0.0163678
643.759	0.0164478
643.837	0.0163023
643.915	0.0162914
643.993	0.0163416
644.071	0.0163288
644.149	0.0162952
644.227	0.0163010
644.306	0.0164857
644.384	0.0163981
644.462	0.0165782
644.540	0.0164231
644.618	0.0163540
644.696	0.0164726
644.774	0.0166071
644.852	0.0164674
644.931	0.0164281
645.009	0.0165118
645.087	0.0165810
645.165	0.0164246
645.243	0.0165676
645.321	0.0165103
645.399	0.0165850
645.477	0.0163943
645.556	0.0163201
645.634	0.0164816
645.712	0.0163931
645.790	0.0163495
645.868	0.0162056
645.946	0.0162399
646.024	0.0163174
646.102	0.0164652
646.181	0.0163406
646.259	0.0162572
646.337	0.0163437
646.415	0.0163989
646.493	0.0163419
646.571	0.0164296
646.649	0.0165161
646.727	0.0164992
646.806	0.0163688
646.884	0.0164297
646.962	0.0165160
647.040	0.0166082
647.118	0.0166222
647.196	0.0165592
647.274	0.0166243
647.352	0.0164852
647.431	0.0166747
647.509	0.0166581
647.587	0.0166426
647.665	0.0166431
647.743	0.0167204
647.821	0.0166817
647.899	0.0168782
647.977	0.0169829
648.056	0.0167120
648.134	0.0166601
648.212	0.0167242
648.290	0.0168984
648.368	0.0168736
648.446	0.0169197
648.524	0.0166756
648.602	0.0167360
648.681	0.0167173
648.759	0.0166924
648.837	0.0165938
648.915	0.0167377
648.993	0.0165736
649.071	0.0166146
649.149	0.0166110
649.227	0.0165533
649.306	0.0166144
649.384	0.0165686
649.462	0.0165918
649.540	0.0164698
649.618	0.0165968
649.696	0.0164336
649.774	0.0164550
649.852	0.0164369
649.931	0.0164660
650.009	0.0162290
650.087	0.0163651
650.165	0.0162768
650.243	0.0163155
650.321	0.0162627
650.399	0.0161398
650.477	0.0165223
650.556	0.0162779
650.634	0.0163009
650.712	0.0163188
650.790	0.0163526
650.868	0.0163251
650.946	0.0164571
651.024	0.0163240
651.102	0.0162653
651.181	0.0163700
651.259	0.0162353
651.337	0.0163226
651.415	0.0162931
651.493	0.0162474
651.571	0.0162304
651.649	0.0163023
651.727	0.0163120
651.806	0.0163115
651.884	0.0164326
651.962	0.0163103
652.040	0.0163666
652.118	0.0163555
652.196	0.0163763
652.274	0.0164420
652.352	0.0164765
652.431	0.0164285
652.509	0.0164308
652.587	0.0165437
652.665	0.0165534
652.743	0.0165990
652.821	0.0165445
652.899	0.0166674
652.977	0.0166180
653.056	0.0167262
653.134	0.0167780
653.212	0.0167117
653.290	0.0168446
653.368	0.0167352
653.446	0.0166761
653.524	0.0168481
653.602	0.0168187
653.681	0.0167068
653.759	0.0167986
653.837	0.0168444
653.915	0.0168740
653.993	0.0168001
654.071	0.0166993
654.149	0.0167310
654.227	0.0168117
654.306	0.0167972
654.384	0.0166109
654.462	0.0165901
654.540	0.0165871
654.618	0.0165829
654.696	0.0166065
654.774	0.0163736
654.852	0.0166602
654.931	0.0165244
655.009	0.0163983
655.087	0.0164573
655.165	0.0163630
655.243	0.0163322
655.321	0.0163087
655.399	0.0163654
655.477	0.0162162
655.556	0.0162839
655.634	0.0162326
655.712	0.0160960
655.790	0.0161234
655.868	0.0161665
655.946	0.0160732
656.024	0.0160356
656.102	0.0161399
656.181	0.0161954
656.259	0.0161634
656.337	0.0162057
656.415	0.0160911
656.493	0.0160576
656.571	0.0161578
656.649	0.0161725
656.727	0.0161259
656.806	0.0161105
656.884	0.0162849
656.962	0.0163601
657.040	0.0164149
657.118	0.0164726
657.196	0.0164359
657.274	0.0163914
657.352	0.0164999
657.431	0.0166496
657.509	0.0167542
657.587	0.0166672
657.665	0.0165218
657.743	0.0167352
657.821	0.0167903
657.899	0.0168240
657.977	0.0167760
658.056	0.0167477
658.134	0.0168768
658.212	0.0169437
658.290	0.0169356
658.368	0.0169842
658.446	0.0169842
658.524	0.0168654
658.602	0.0167650
658.681	0.0168758
658.759	0.0169310
658.837	0.0168892
658.915	0.0167370
658.993	0.0165997
659.071	0.0166735
659.149	0.0168650
659.227	0.0167079
659.306	0.0167697
659.384	0.0165318
659.462	0.0165138
659.540	0.0165136
659.618	0.0165092
659.696	0.0164436
659.774	0.0164796
659.852	0.0163686
659.931	0.0164719
660.009	0.0164999
660.087	0.0163063
660.165	0.0162843
660.243	0.0164526
660.321	0.0161369
660.399	0.0162374
660.477	0.0163288
660.556	0.0163134
660.634	0.0161806
660.712	0.0162540
660.790	0.0162710
660.868	0.0162602
660.946	0.0162826
661.024	0.0161266
661.102	0.0161970
661.181	0.0163474
661.259	0.0162267
661.337	0.0161491
661.415	0.0161572
661.493	0.0162735
661.571	0.0163332
661.649	0.0163296
661.727	0.0163361
661.806	0.0164040
661.884	0.0163958
661.962	0.0164811
662.040	0.0164626
662.118	0.0164172
662.196	0.0164037
662.274	0.0164977
662.352	0.0164059
662.431	0.0165438
662.509	0.0164855
662.587	0.0165199
662.665	0.0164874
662.743	0.0165551
662.821	0.0164346
662.899	0.0165504
662.977	0.0164919
663.056	0.0165788
663.134	0.0164664
663.212	0.0164569
663.290	0.0165028
663.368	0.0165742
663.446	0.0165379
663.524	0.0166115
663.602	0.0166847
663.681	0.0166568
663.759	0.0166185
663.837	0.0165978
663.915	0.0164603
663.993	0.0164670
664.071	0.0165387
664.149	0.0166233
664.227	0.0164532
664.306	0.0165137
664.384	0.0165892
664.462	0.0164545
664.540	0.0166122
664.618	0.0165921
664.696	0.0166472
664.774	0.0164931
664.852	0.0164471
664.931	0.0166180
665.009	0.0165263
665.087	0.0166922
665.165	0.0165664
665.243	0.0165504
665.321	0.0165858
665.399	0.0164951
665.477	0.0164742
665.556	0.0164940
665.634	0.0165395
665.712	0.0164631
665.790	0.0164495
665.868	0.0164777
665.946	0.0164777
666.024	0.0163658
666.102	0.0164227
666.181	0.0164018
666.259	0.0163835
666.337	0.0162884
666.415	0.0163161
666.493	0.0162419
666.571	0.0162753
666.649	0.0162102
666.727	0.0162477
666.806	0.0164571
666.884	0.0164120
666.962	0.0164038
667.040	0.0164319
667.118	0.0164632
667.196	0.0165616
667.274	0.0164658
667.352	0.0163706
667.431	0.0165671
667.509	0.0164701
667.587	0.0166390
667.665	0.0164452
667.743	0.0165780
667.821	0.0166151
667.899	0.0164091
667.977	0.0164882
668.056	0.0165833
668.134	0.0164822
668.212	0.0165533
668.290	0.0166490
668.368	0.0165945
668.446	0.0165308
668.524	0.0165631
668.602	0.0165437
668.681	0.0165197
668.759	0.0166102
668.837	0.0166494
668.915	0.0166481
668.993	0.0167028
669.071	0.0165129
669.149	0.0165404
669.227	0.0166113
669.306	0.0167444
669.384	0.0167028
669.462	0.0166597
669.540	0.0164687
669.618	0.0165530
669.696	0.0165559
669.774	0.0166539
669.852	0.0166831
669.931	0.0164496
670.009	0.0164585
670.087	0.0166295
670.165	0.0165311
670.243	0.0164214
670.321	0.0165412
670.399	0.0164701
670.477	0.0162893
670.556	0.0163538
670.634	0.0163400
670.712	0.0163556
670.790	0.0163898
670.868	0.0162962
670.946	0.0163895
671.024	0.0163906
671.102	0.0162746
671.181	0.0162106
671.259	0.0162675
671.337	0.0163374
671.415	0.0163288
671.493	0.0161789
671.571	0.0161442
671.649	0.0163569
671.727	0.0164507
671.806	0.0162985
671.884	0.0164991
671.962	0.0164704
672.040	0.0164325
672.118	0.0165584
672.196	0.0165578
672.274	0.0165041
672.352	0.0166150
672.431	0.0166480
672.509	0.0167316
672.587	0.0166905
672.665	0.0166265
672.743	0.0167983
672.821	0.0168283
672.899	0.0166045
672.977	0.0168136
673.056	0.0167853
673.134	0.0167361
673.212	0.0167838
673.290	0.0167700
673.368	0.0167382
673.446	0.0167096
673.524	0.0167219
673.602	0.0167587
673.681	0.0166341
673.759	0.0165457
673.837	0.0164761
673.915	0.0165337
673.993	0.0165660
674.071	0.0165021
674.149	0.0165094
674.227	0.0161555
674.306	0.0164073
674.384	0.0162268
674.462	0.0163301
674.540	0.0163169
674.618	0.0162741
674.696	0.0161834
674.774	0.0162882
674.852	0.0161208
674.931	0.0161581
675.009	0.0162559
675.087	0.0159559
675.165	0.0161181
675.243	0.0162811
675.321	0.0162045
675.399	0.0161499
675.477	0.0162115
675.556	0.0161562
675.634	0.0164262
675.712	0.0162667
675.790	0.0163040
675.868	0.0163606
675.946	0.0164648
676.024	0.0164683
676.102	0.0164278
676.181	0.0164278
676.259	0.0165289
676.337	0.0165671
676.415	0.0165197
676.493	0.0164855
676.571	0.0165166
676.649	0.0166052
676.727	0.0165587
676.806	0.0166042
676.884	0.0167780
676.962	0.0166086
677.040	0.0165520
677.118	0.0167001
677.196	0.0167280
677.274	0.0166283
677.352	0.0167850
677.431	0.0168407
677.509	0.0166519
677.587	0.0167872
677.665	0.0168627
677.743	0.0166865
677.821	0.0167336
677.899	0.0167475
677.977	0.0167409
678.056	0.0168143
678.134	0.0168570
678.212	0.0168243
678.290	0.0168970
678.368	0.0167586
678.446	0.0165368
678.524	0.0167606
678.602	0.0167475
678.681	0.0166565
678.759	0.0166029
678.837	0.0165063
678.915	0.0165620
678.993	0.0165643
679.071	0.0165094
679.149	0.0165434
679.227	0.0164330
679.306	0.0164585
679.384	0.0164535
679.462	0.0163723
679.540	0.0162892
679.618	0.0162912
679.696	0.0162445
679.774	0.0163386
679.852	0.0162057
679.931	0.0161775
680.009	0.0161216
680.087	0.0161331
680.165	0.0164101
680.243	0.0161239
680.321	0.0162179
680.399	0.0161768
680.477	0.0161838
680.556	0.0161839
680.634	0.0161774
680.712	0.0163421
680.790	0.0163393
680.868	0.0161951
680.946	0.0161583
681.024	0.0163532
681.102	0.0163077
681.181	0.0163334
681.259	0.0163014
681.337	0.0162322
681.415	0.0163400
681.493	0.0162647
681.571	0.0165308
681.649	0.0163882
681.727	0.0164466
681.806	0.0165106
681.884	0.0165069
681.962	0.0165405
682.040	0.0165778
682.118	0.0166593
682.196	0.0166542
682.274	0.0167313
682.352	0.0166706
682.431	0.0167048
682.509	0.0167619
682.587	0.0167320
682.665	0.0167508
682.743	0.0167837
682.821	0.0168327
682.899	0.0168563
682.977	0.0166795
683.056	0.0167397
683.134	0.0166028
683.212	0.0166380
683.290	0.0165851
683.368	0.0166305
683.446	0.0166428
683.524	0.0165658
683.602	0.0165990
683.681	0.0165083
683.759	0.0163891
683.837	0.0164033
683.915	0.0164617
683.993	0.0164899
684.071	0.0163605
684.149	0.0163620
684.227	0.0163890
684.306	0.0164300
684.384	0.0165267
684.462	0.0162823
684.540	0.0164771
684.618	0.0164470
684.696	0.0163332
684.774	0.0163074
684.852	0.0165506
684.931	0.0163644
685.009	0.0165432
685.087	0.0165331
685.165	0.0164703
685.243	0.0164223
685.321	0.0166244
685.399	0.0165347
685.477	0.0165405
685.556	0.0167171
685.634	0.0165160
685.712	0.0164209
685.790	0.0165306
685.868	0.0165739
685.946	0.0164017
686.024	0.0163763
686.102	0.0163041
686.181	0.0164443
686.259	0.0164758
686.337	0.0164985
686.415	0.0164405
686.493	0.0163547
686.571	0.0163430
686.649	0.0163889
686.727	0.0165518
686.806	0.0164996
686.884	0.0163518
686.962	0.0164986
687.040	0.0164855
687.118	0.0165241
687.196	0.0165940
687.274	0.0166914
687.352	0.0165398
687.431	0.0166776
687.509	0.0166116
687.587	0.0166007
687.665	0.0166556
687.743	0.0165611
687.821	0.0167198
687.899	0.0167111
687.977	0.0166031
688.056	0.0168147
688.134	0.0168085
688.212	0.0167471
688.290	0.0168163
688.368	0.0167629
688.446	0.0168214
688.524	0.0168227
688.602	0.0167310
688.681	0.0168152
688.759	0.0166373
688.837	0.0168488
688.915	0.0168423
688.993	0.0167764
689.071	0.0167298
689.149	0.0165871
689.227	0.0164326
689.306	0.0166501
689.384	0.0165588
689.462	0.0164809
689.540	0.0164014
689.618	0.0163507
689.696	0.0163960
689.774	0.0164191
689.852	0.0163028
689.931	0.0163094
690.009	0.0161745
690.087	0.0164342
690.165	0.0162020
690.243	0.0160951
690.321	0.0162546
690.399	0.0162296
690.477	0.0162037
690.556	0.0163245
690.634	0.0163333
690.712	0.0162563
690.790	0.0162717
690.868	0.0162966
690.946	0.0163114
691.024	0.0163741
691.102	0.0163290
691.181	0.0164079
691.259	0.0161617
691.337	0.0162846
691.415	0.0163848
691.493	0.0163567
691.571	0.0163259
691.649	0.0164534
691.727	0.0164204
691.806	0.0164195
691.884	0.0164622
691.962	0.0164397
692.040	0.0164471
692.118	0.0162277
692.196	0.0164025
692.274	0.0164220
692.352	0.0164043
692.431	0.0163758
692.509	0.0165295
692.587	0.0165841
692.665	0.0166312
692.743	0.0163535
692.821	0.0164922
692.899	0.0164146
692.977	0.0165882
693.056	0.0165350
693.134	0.0164191
693.212	0.0164206
693.290	0.0165747
693.368	0.0165108
693.446	0.0166026
693.524	0.0164748
693.602	0.0165253
693.681	0.0165810
693.759	0.0164314
693.837	0.0164363
693.915	0.0162759
693.993	0.0164391
694.071	0.0163108
694.149	0.0162512
694.227	0.0162783
694.306	0.0162225
694.384	0.0162611
694.462	0.0162208
694.540	0.0160445
694.618	0.0163326
694.696	0.0160934
694.774	0.0160896
694.852	0.0161449
694.931	0.0161889
695.009	0.0161520
695.087	0.0161229
695.165	0.0163399
695.243	0.0163145
695.321	0.0164530
695.399	0.0165276
695.477	0.0164046
695.556	0.0164144
695.634	0.0165567
695.712	0.0166485
695.790	0.0165295
695.868	0.0166357
695.946	0.0167110
696.024	0.0166788
696.102	0.0166940
696.181	0.0167242
696.259	0.0167810
696.337	0.0168183
696.415	0.0168378
696.493	0.0167368
696.571	0.0167610
696.649	0.0168036
696.727	0.0166407
696.806	0.0166973
696.884	0.0166806
696.962	0.0166365
697.040	0.0167099
697.118	0.0165396
697.196	0.0166597
697.274	0.0165177
697.352	0.0164298
697.431	0.0166367
697.509	0.0165833
697.587	0.0165154
697.665	0.0165178
697.743	0.0165730
697.821	0.0166003
697.899	0.0165266
697.977	0.0165778
698.056	0.0164618
698.134	0.0164595
698.212	0.0166635
698.290	0.0164433
698.368	0.0164941
698.446	0.0164928
698.524	0.0164635
698.602	0.0163633
698.681	0.0165198
698.759	0.0165717
698.837	0.0164709
698.915	0.0165800
698.993	0.0164606
699.071	0.0164825
699.149	0.0163219
699.227	0.0165296
699.306	0.0165686
699.384	0.0166638
699.462	0.0165313
699.540	0.0166557
699.618	0.0165405
699.696	0.0167061
699.774	0.0167516
699.852	0.0168069
699.931	0.0165932
700.009	0.0165524
700.087	0.0165266
700.165	0.0166132
700.243	0.0165525
700.321	0.0164816
700.399	0.0165520
700.477	0.0165685
700.556	0.0164419
700.634	0.0164223
700.712	0.0163812
700.790	0.0164520
700.868	0.0164001
700.946	0.0164321
701.024	0.0163274
701.102	0.0163835
701.181	0.0163553
701.259	0.0165163
701.337	0.0164864
701.415	0.0163771
701.493	0.0165712
701.571	0.0164692
701.649	0.0164114
701.727	0.0164730
701.806	0.0165163
701.884	0.0163746
701.962	0.0164471
702.040	0.0165869
702.118	0.0164278
702.196	0.0163840
702.274	0.0166512
702.352	0.0166904
702.431	0.0166323
702.509	0.0166029
702.587	0.0166366
702.665	0.0167040
702.743	0.0166560
702.821	0.0167261
702.899	0.0165321
702.977	0.0167981
703.056	0.0167542
703.134	0.0166557
703.212	0.0166986
703.290	0.0167113
703.368	0.0168160
703.446	0.0168200
703.524	0.0167176
703.602	0.0166267
703.681	0.0164864
703.759	0.0165963
703.837	0.0165511
703.915	0.0165927
703.993	0.0166123
704.071	0.0165195
704.149	0.0164184
704.227	0.0164176
704.306	0.0164422
704.384	0.0165632
704.462	0.0163763
704.540	0.0165401
704.618	0.0165720
704.696	0.0163910
704.774	0.0163223
704.852	0.0162942
704.931	0.0164503
705.009	0.0163625
705.087	0.0164131
705.165	0.0162929
705.243	0.0163542
705.321	0.0162461
705.399	0.0163557
705.477	0.0164942
705.556	0.0164120
705.634	0.0165043
705.712	0.0164971
705.790	0.0166638
705.868	0.0165482
705.946	0.0164758
706.024	0.0166784
706.102	0.0167066
706.181	0.0166480
706.259	0.0165115
706.337	0.0166875
706.415	0.0166620
706.493	0.0166166
706.571	0.0166837
706.649	0.0165953
706.727	0.0165332
706.806	0.0164449
706.884	0.0165386
706.962	0.0165176
707.040	0.0164174
707.118	0.0164648
707.196	0.0163480
707.274	0.0164897
707.352	0.0164574
707.431	0.0163586
707.509	0.0163870
707.587	0.0165681
707.665	0.0164829
707.743	0.0163030
707.821	0.0162788
707.899	0.0162891
707.977	0.0163921
708.056	0.0163263
708.134	0.0163191
708.212	0.0163299
708.290	0.0164182
708.368	0.0163977
708.446	0.0163001
708.524	0.0163416
708.602	0.0163433
708.681	0.0163577
708.759	0.0162463
708.837	0.0163164
708.915	0.0163181
708.993	0.0162504
709.071	0.0162573
709.149	0.0163538
709.227	0.0163005
709.306	0.0165025
709.384	0.0164825
709.462	0.0164706
709.540	0.0164024
709.618	0.0164706
709.696	0.0165186
709.774	0.0166618
709.852	0.0165379
709.931	0.0166682
710.009	0.0165888
710.087	0.0166792
710.165	0.0167720
710.243	0.0167246
710.321	0.0166906
710.399	0.0167911
710.477	0.0167477
710.556	0.0167381
710.634	0.0166214
710.712	0.0167780
710.790	0.0167010
710.868	0.0166912
710.946	0.0166832
711.024	0.0165553
711.102	0.0165915
711.181	0.0165830
711.259	0.0166580
711.337	0.0165550
711.415	0.0165264
711.493	0.0164944
711.571	0.0164626
711.649	0.0164526
711.727	0.0163828
711.806	0.0162823
711.884	0.0163943
711.962	0.0164520
712.040	0.0164832
712.118	0.0163865
712.196	0.0163923
712.274	0.0163067
712.352	0.0163357
712.431	0.0165012
712.509	0.0162149
712.587	0.0163913
712.665	0.0164258
712.743	0.0163673
712.821	0.0164041
712.899	0.0163583
712.977	0.0162479
713.056	0.0163160
713.134	0.0164839
713.212	0.0166073
713.290	0.0165161
713.368	0.0164386
713.446	0.0164247
713.524	0.0167161
713.602	0.0165045
713.681	0.0164667
713.759	0.0166868
713.837	0.0166682
713.915	0.0166331
713.993	0.0166503
714.071	0.0167474
714.149	0.0166789
714.227	0.0168529
714.306	0.0167749
714.384	0.0166569
714.462	0.0169048
714.540	0.0167060
714.618	0.0168571
714.696	0.0168954
714.774	0.0167864
714.852	0.0167233
714.931	0.0168433
715.009	0.0166311
715.087	0.0167557
715.165	0.0165831
715.243	0.0166891
715.321	0.0167967
715.399	0.0166988
715.477	0.0166040
715.556	0.0165079
715.634	0.0165364
715.712	0.0165581
715.790	0.0166557
715.868	0.0165387
715.946	0.0165405
716.024	0.0165249
716.102	0.0164100
716.181	0.0164581
716.259	0.0165566
716.337	0.0165323
716.415	0.0164507
716.493	0.0163306
716.571	0.0164442
716.649	0.0164853
716.727	0.0165182
716.806	0.0165215
716.884	0.0165600
716.962	0.0165773
717.040	0.0165296
717.118	0.0165182
717.196	0.0165752
717.274	0.0165427
717.352	0.0165316
717.431	0.0165525
717.509	0.0164246
717.587	0.0163770
717.665	0.0165765
717.743	0.0166039
717.821	0.0165250
717.899	0.0165865
717.977	0.0165782
718.056	0.0163871
718.134	0.0164888
718.212	0.0165005
718.290	0.0166528
718.368	0.0165059
718.446	0.0165227
718.524	0.0165732
718.602	0.0166233
718.681	0.0165703
718.759	0.0165509
718.837	0.0163490
718.915	0.0162592
718.993	0.0166116
719.071	0.0165057
719.149	0.0164130
719.227	0.0164648
719.306	0.0163507
719.384	0.0163855
719.462	0.0163943
719.540	0.0165412
719.618	0.0164188
719.696	0.0162794
719.774	0.0166011
719.852	0.0163804
719.931	0.0162859
720.009	0.0164969
720.087	0.0165565
720.165	0.0164439
720.243	0.0166198
720.321	0.0165043
720.399	0.0165145
720.477	0.0163926
720.556	0.0166061
720.634	0.0166682
720.712	0.0164552
720.790	0.0165585
720.868	0.0165425
720.946	0.0165157
721.024	0.0164404
721.102	0.0164849
721.181	0.0165857
721.259	0.0165965
721.337	0.0165547
721.415	0.0164893
721.493	0.0164420
721.571	0.0164990
721.649	0.0166065
721.727	0.0164960
721.806	0.0163177
721.884	0.0165279
721.962	0.0164038
722.040	0.0164414
722.118	0.0165755
722.196	0.0165131
722.274	0.0164775
722.352	0.0164816
722.431	0.0163699
722.509	0.0164621
722.587	0.0164843
722.665	0.0163281
722.743	0.0164999
722.821	0.0165873
722.899	0.0164940
722.977	0.0164089
723.056	0.0164870
723.134	0.0164579
723.212	0.0165125
723.290	0.0164803
723.368	0.0162973
723.446	0.0164584
723.524	0.0165576
723.602	0.0164807
723.681	0.0165204
723.759	0.0164883
723.837	0.0164239
723.915	0.0164010
723.993	0.0164838
724.071	0.0165524
724.149	0.0164332
724.227	0.0163610
724.306	0.0165179
724.384	0.0166476
724.462	0.0164021
724.540	0.0164330
724.618	0.0164081
724.696	0.0164837
724.774	0.0164478
724.852	0.0163898
724.931	0.0164706
725.009	0.0164037
725.087	0.0163566
725.165	0.0164205
725.243	0.0165834
725.321	0.0164439
725.399	0.0164302
725.477	0.0164797
725.556	0.0164831
725.634	0.0165308
725.712	0.0164886
725.790	0.0164633
725.868	0.0165783
725.946	0.0164491
726.024	0.0163883
726.102	0.0162833
726.181	0.0164888
726.259	0.0163853
726.337	0.0165529
726.415	0.0165099
726.493	0.0164113
726.571	0.0166164
726.649	0.0164672
726.727	0.0164843
726.806	0.0166144
726.884	0.0165406
726.962	0.0165531
727.040	0.0165590
727.118	0.0165450
727.196	0.0165649
727.274	0.0165978
727.352	0.0166080
727.431	0.0165195
727.509	0.0165247
727.587	0.0164742
727.665	0.0164431
727.743	0.0166900
727.821	0.0165361
727.899	0.0163551
727.977	0.0165252
728.056	0.0165819
728.134	0.0165393
728.212	0.0165212
728.290	0.0167337
728.368	0.0166161
728.446	0.0165599
728.524	0.0164904
728.602	0.0165086
728.681	0.0165637
728.759	0.0169006
728.837	0.0167085
728.915	0.0166721
728.993	0.0165382
729.071	0.0165714
729.149	0.0165882
729.227	0.0164848
729.306	0.0164500
729.384	0.0165420
729.462	0.0165894
729.540	0.0165470
729.618	0.0166296
729.696	0.0164568
729.774	0.0164870
729.852	0.0164185
729.931	0.0164040
730.009	0.0165739
730.087	0.0165156
730.165	0.0165443
730.243	0.0165623
730.321	0.0164963
730.399	0.0165522
730.477	0.0166081
730.556	0.0165556
730.634	0.0165057
730.712	0.0165923
730.790	0.0163989
730.868	0.0165414
730.946	0.0166486
731.024	0.0166074
731.102	0.0165550
731.181	0.0166036
731.259	0.0166193
731.337	0.0166798
731.415	0.0166924
731.493	0.0165447
731.571	0.0167310
731.649	0.0166529
731.727	0.0166114
731.806	0.0166137
731.884	0.0166940
731.962	0.0166869
732.040	0.0166731
732.118	0.0165762
732.196	0.0165218
732.274	0.0165940
732.352	0.0167287
732.431	0.0166270
732.509	0.0165656
732.587	0.0166896
732.665	0.0167575
732.743	0.0166333
732.821	0.0165102
732.899	0.0165879
732.977	0.0166062
733.056	0.0165598
733.134	0.0166912
733.212	0.0166798
733.290	0.0164958
733.368	0.0165337
733.446	0.0165942
733.524	0.0166293
733.602	0.0164967
733.681	0.0165167
733.759	0.0166212
733.837	0.0165236
733.915	0.0164648
733.993	0.0165975
734.071	0.0164407
734.149	0.0165239
734.227	0.0167613
734.306	0.0164557
734.384	0.0164479
734.462	0.0163892
734.540	0.0165421
734.618	0.0165574
734.696	0.0165713
734.774	0.0164816
734.852	0.0164862
734.931	0.0165434
735.009	0.0165220
735.087	0.0166212
735.165	0.0164858
735.243	0.0165287
735.321	0.0165579
735.399	0.0166048
735.477	0.0166291
735.556	0.0165064
735.634	0.0164968
735.712	0.0164745
735.790	0.0165582
735.868	0.0164778
735.946	0.0165367
736.024	0.0164420
736.102	0.0165073
736.181	0.0165557
736.259	0.0165122
736.337	0.0164909
736.415	0.0164457
736.493	0.0164439
736.571	0.0164791
736.649	0.0163966
736.727	0.0165518
736.806	0.0163957
736.884	0.0164635
736.962	0.0164572
737.040	0.0164233
737.118	0.0163113
737.196	0.0164525
737.274	0.0164774
737.352	0.0164005
737.431	0.0164544
737.509	0.0165397
737.587	0.0163688
737.665	0.0164459
737.743	0.0164392
737.821	0.0164795
737.899	0.0164013
737.977	0.0163696
738.056	0.0165025
738.134	0.0165656
738.212	0.0163646
738.290	0.0163760
738.368	0.0164531
738.446	0.0163876
738.524	0.0166534
738.602	0.0164030
738.681	0.0164277
738.759	0.0164018
738.837	0.0163614
738.915	0.0164714
738.993	0.0164564
739.071	0.0165244
739.149	0.0165420
739.227	0.0164132
739.306	0.0165042
739.384	0.0165305
739.462	0.0166412
739.540	0.0164973
739.618	0.0164469
739.696	0.0165816
739.774	0.0166769
739.852	0.0165054
739.931	0.0165350
740.009	0.0164380
740.087	0.0165649
740.165	0.0165286
740.243	0.0164889
740.321	0.0164512
740.399	0.0165383
740.477	0.0164557
740.556	0.0165564
740.634	0.0165423
740.712	0.0165293
740.790	0.0164744
740.868	0.0164807
740.946	0.0163849
741.024	0.0164671
741.102	0.0163951
741.181	0.0164529
741.259	0.0165989
741.337	0.0165084
741.415	0.0166776
741.493	0.0166166
741.571	0.0164156
741.649	0.0164772
741.727	0.0165678
741.806	0.0166027
741.884	0.0166006
741.962	0.0165536
742.040	0.0165708
742.118	0.0165515
742.196	0.0164095
742.274	0.0165894
742.352	0.0166158
742.431	0.0166714
742.509	0.0165596
742.587	0.0166251
742.665	0.0164187
742.743	0.0165018
742.821	0.0165893
742.899	0.0165536
742.977	0.0164468
743.056	0.0165459
743.134	0.0166597
743.212	0.0165272
743.290	0.0165590
743.368	0.0165007
743.446	0.0165620
743.524	0.0165283
743.602	0.0165685
743.681	0.0164896
743.759	0.0164811
743.837	0.0164727
743.915	0.0164685
743.993	0.0163902
744.071	0.0164575
744.149	0.0164529
744.227	0.0165710
744.306	0.0162816
744.384	0.0163130
744.462	0.0164315
744.540	0.0164018
744.618	0.0162930
744.696	0.0164225
744.774	0.0164063
744.852	0.0164565
744.931	0.0164545
745.009	0.0165047
745.087	0.0164251
745.165	0.0164106
745.243	0.0163987
745.321	0.0164365
745.399	0.0164767
745.477	0.0164382
745.556	0.0165495
745.634	0.0164774
745.712	0.0165504
745.790	0.0164651
745.868	0.0164845
745.946	0.0165228
746.024	0.0165588
746.102	0.0164940
746.181	0.0164861
746.259	0.0164045
746.337	0.0164252
746.415	0.0165697
746.493	0.0165720
746.571	0.0165649
746.649	0.0162659
746.727	0.0164348
746.806	0.0165195
746.884	0.0165225
746.962	0.0164903
747.040	0.0163796
747.118	0.0164488
747.196	0.0164517
747.274	0.0165065
747.352	0.0165205
747.431	0.0164562
747.509	0.0164888
747.587	0.0164006
747.665	0.0165781
747.743	0.0163643
747.821	0.0163957
747.899	0.0163730
747.977	0.0164993
748.056	0.0163636
748.134	0.0165004
748.212	0.0165340
748.290	0.0163003
748.368	0.0164274
748.446	0.0163102
748.524	0.0163670
748.602	0.0165034
748.681	0.0164848
748.759	0.0165053
748.837	0.0166309
748.915	0.0166629
748.993	0.0164021
749.071	0.0164915
749.149	0.0165683
749.227	0.0166372
749.306	0.0166107
749.384	0.0165347
749.462	0.0164130
749.540	0.0164832
749.618	0.0166081
749.696	0.0165609
749.774	0.0166372
749.852	0.0165039
749.931	0.0166320
750.009	0.0166084
750.087	0.0166528
750.165	0.0166428
750.243	0.0166466
750.321	0.0166508
750.399	0.0166786
750.477	0.0166243
750.556	0.0167307
750.634	0.0166237
750.712	0.0166180
750.790	0.0165588
750.868	0.0166894
750.946	0.0165888
751.024	0.0166200
751.102	0.0166250
751.181	0.0166478
751.259	0.0166106
751.337	0.0164287
751.415	0.0164507
751.493	0.0164519
751.571	0.0165265
751.649	0.0166608
751.727	0.0165087
751.806	0.0165224
751.884	0.0165220
751.962	0.0163817
752.040	0.0165440
752.118	0.0166065
752.196	0.0165560
752.274	0.0164593
752.352	0.0164308
752.431	0.0165222
752.509	0.0165441
752.587	0.0165203
752.665	0.0166886
752.743	0.0166069
752.821	0.0164877
752.899	0.0166116
752.977	0.0164723
753.056	0.0164337
753.134	0.0164510
753.212	0.0166003
753.290	0.0164892
753.368	0.0164649
753.446	0.0165652
753.524	0.0166321
753.602	0.0165460
753.681	0.0164927
753.759	0.0166764
753.837	0.0164761
753.915	0.0166138
753.993	0.0165681
754.071	0.0164708
754.149	0.0166821
754.227	0.0167258
754.306	0.0164514
754.384	0.0165744
754.462	0.0166077
754.540	0.0165152
754.618	0.0166303
754.696	0.0164981
754.774	0.0166605
754.852	0.0164703
754.931	0.0165466
755.009	0.0164896
755.087	0.0162868
755.165	0.0165383
755.243	0.0166230
755.321	0.0165349
755.399	0.0163708
755.477	0.0164531
755.556	0.0165849
755.634	0.0165916
755.712	0.0164743
755.790	0.0166124
755.868	0.0165544
755.946	0.0164991
756.024	0.0165147
756.102	0.0164242
756.181	0.0164298
756.259	0.0164849
756.337	0.0165355
756.415	0.0164089
756.493	0.0164661
756.571	0.0164829
756.649	0.0163494
756.727	0.0163011
756.806	0.0164014
756.884	0.0163058
756.962	0.0164619
757.040	0.0162440
757.118	0.0162728
757.196	0.0163369
757.274	0.0162786
757.352	0.0162742
757.431	0.0163702
757.509	0.0163350
757.587	0.0163804
757.665	0.0163900
757.743	0.0164488
757.821	0.0164030
757.899	0.0163859
757.977	0.0165073
758.056	0.0163872
758.134	0.0163625
758.212	0.0164294
758.290	0.0164549
758.368	0.0163078
758.446	0.0164117
758.524	0.0164588
758.602	0.0165022
758.681	0.0164053
758.759	0.0164065
758.837	0.0164549
758.915	0.0165018
758.993	0.0165158
759.071	0.0164426
759.149	0.0165314
759.227	0.0165782
759.306	0.0166014
759.384	0.0165284
759.462	0.0165822
759.540	0.0165212
759.618	0.0164770
759.696	0.0165020
759.774	0.0166053
759.852	0.0166486
759.931	0.0164759
760.009	0.0165102
760.087	0.0167192
760.165	0.0165781
760.243	0.0164514
760.321	0.0165129
760.399	0.0164589
760.477	0.0164771
760.556	0.0166254
760.634	0.0164912
760.712	0.0165670
760.790	0.0164375
760.868	0.0164616
760.946	0.0164479
761.024	0.0164491
761.102	0.0164146
761.181	0.0163876
761.259	0.0164800
761.337	0.0164773
761.415	0.0162617
761.493	0.0163852
761.571	0.0164170
761.649	0.0164746
761.727	0.0164573
761.806	0.0164267
761.884	0.0163171
761.962	0.0163515
762.040	0.0164033
762.118	0.0164374
762.196	0.0164650
762.274	0.0163839
762.352	0.0163437
762.431	0.0164889
762.509	0.0164647
762.587	0.0165197
762.665	0.0164604
762.743	0.0165260
762.821	0.0164905
762.899	0.0166116
762.977	0.0165814
763.056	0.0164323
763.134	0.0164933
763.212	0.0165341
763.290	0.0165691
763.368	0.0166612
763.446	0.0164959
763.524	0.0165632
763.602	0.0165891
763.681	0.0165900
763.759	0.0165672
763.837	0.0165743
763.915	0.0165933
763.993	0.0165510
764.071	0.0165121
764.149	0.0165422
764.227	0.0164381
764.306	0.0164587
764.384	0.0165192
764.462	0.0165186
764.540	0.0165649
764.618	0.0165072
764.696	0.0165249
764.774	0.0164348
764.852	0.0164932
764.931	0.0165414
765.009	0.0165387
765.087	0.0165559
765.165	0.0165681
765.243	0.0165075
765.321	0.0164255
765.399	0.0163819
765.477	0.0165009
765.556	0.0164500
765.634	0.0163365
765.712	0.0165667
765.790	0.0165914
765.868	0.0164615
765.946	0.0165270
766.024	0.0164925
766.102	0.0164950
766.181	0.0164341
766.259	0.0164659
766.337	0.0164193
766.415	0.0164320
766.493	0.0163238
766.571	0.0163255
766.649	0.0164899
766.727	0.0164760
766.806	0.0163895
766.884	0.0164839
766.962	0.0165116
767.040	0.0165389
767.118	0.0164629
767.196	0.0165746
767.274	0.0165154
767.352	0.0165141
767.431	0.0165360
767.509	0.0165494
767.587	0.0164742
767.665	0.0165042
767.743	0.0164502
767.821	0.0164091
767.899	0.0164703
767.977	0.0164368
768.056	0.0165349
768.134	0.0165115
768.212	0.0164046
768.290	0.0165950
768.368	0.0163182
768.446	0.0164283
768.524	0.0165087
768.602	0.0163766
768.681	0.0166199
768.759	0.0165150
768.837	0.0165421
768.915	0.0164006
768.993	0.0163388
769.071	0.0164628
769.149	0.0165351
769.227	0.0164577
769.306	0.0165258
769.384	0.0166111
769.462	0.0164885
769.540	0.0163012
769.618	0.0165395
769.696	0.0166363
769.774	0.0166608
769.852	0.0165401
769.931	0.0165220
770.009	0.0165337
770.087	0.0165834
770.165	0.0165411
770.243	0.0165788
770.321	0.0166243
770.399	0.0165726
770.477	0.0166507
770.556	0.0166158
770.634	0.0166120
770.712	0.0166508
770.790	0.0166408
770.868	0.0165965
770.946	0.0166061
771.024	0.0167525
771.102	0.0166144
771.181	0.0167663
771.259	0.0167818
771.337	0.0166639
771.415	0.0165553
771.493	0.0166218
771.571	0.0165765
771.649	0.0165662
771.727	0.0165313
771.806	0.0166064
771.884	0.0165379
771.962	0.0165933
772.040	0.0165253
772.118	0.0165054
772.196	0.0166006
772.274	0.0165768
772.352	0.0166320
772.431	0.0165284
772.509	0.0165534
772.587	0.0165656
772.665	0.0165115
772.743	0.0164215
772.821	0.0163782
772.899	0.0164260
772.977	0.0164211
773.056	0.0166016
773.134	0.0165281
773.212	0.0165090
773.290	0.0166219
773.368	0.0165614
773.446	0.0165355
773.524	0.0166061
773.602	0.0165435
773.681	0.0163979
773.759	0.0165008
773.837	0.0164343
773.915	0.0164877
773.993	0.0164707
774.071	0.0163722
774.149	0.0164981
774.227	0.0165083
774.306	0.0163986
774.384	0.0164361
774.462	0.0164660
774.540	0.0165247
774.618	0.0165270
774.696	0.0164622
774.774	0.0164909
774.852	0.0162755
774.931	0.0164607
775.009	0.0165813
775.087	0.0163960
775.165	0.0164390
775.243	0.0165416
775.321	0.0163490
775.399	0.0163605
775.477	0.0163699
775.556	0.0164438
775.634	0.0165781
775.712	0.0165397
775.790	0.0164821
775.868	0.0164809
775.946	0.0164434
776.024	0.0163499
776.102	0.0165018
776.181	0.0164239
776.259	0.0163271
776.337	0.0164506
776.415	0.0165620
776.493	0.0164454
776.571	0.0164755
776.649	0.0164899
776.727	0.0164254
776.806	0.0163631
776.884	0.0162523
776.962	0.0163266
777.040	0.0163531
777.118	0.0162820
777.196	0.0164005
777.274	0.0165083
777.352	0.0163486
777.431	0.0164986
777.509	0.0164633
777.587	0.0165382
777.665	0.0164636
777.743	0.0164464
777.821	0.0163868
777.899	0.0163721
777.977	0.0163926
778.056	0.0164708
778.134	0.0165078
778.212	0.0162634
778.290	0.0163932
778.368	0.0164320
778.446	0.0164774
778.524	0.0163739
778.602	0.0165154
778.681	0.0166119
778.759	0.0164330
778.837	0.0163866
778.915	0.0163966
778.993	0.0166605
779.071	0.0167172
779.149	0.0165400
779.227	0.0164935
779.306	0.0166085
779.384	0.0165084
779.462	0.0165819
779.540	0.0165502
779.618	0.0165965
779.696	0.0164219
779.774	0.0165134
779.852	0.0165276
779.931	0.0165289
780.009	0.0166222
780.087	0.0163116
780.165	0.0164847
780.243	0.0165576
780.321	0.0164141
780.399	0.0163431
780.477	0.0164578
780.556	0.0165786
780.634	0.0165208
780.712	0.0165035
780.790	0.0164666
780.868	0.0163845
780.946	0.0165880
781.024	0.0166146
781.102	0.0163829
781.181	0.0163902
781.259	0.0163554
781.337	0.0165248
781.415	0.0165832
781.493	0.0167069
781.571	0.0165662
781.649	0.0165967
781.727	0.0163766
781.806	0.0165215
781.884	0.0163946
781.962	0.0165372
782.040	0.0164982
782.118	0.0164574
782.196	0.0163966
782.274	0.0164859
782.352	0.0165945
782.431	0.0164653
782.509	0.0164736
782.587	0.0163030
782.665	0.0164369
782.743	0.0165193
782.821	0.0164202
782.899	0.0164458
782.977	0.0165286
783.056	0.0164868
783.134	0.0166492
783.212	0.0165331
783.290	0.0165565
783.368	0.0163896
783.446	0.0165375
783.524	0.0164696
783.602	0.0164462
783.681	0.0164575
783.759	0.0164943
783.837	0.0166407
783.915	0.0165650
783.993	0.0165865
784.071	0.0164221
784.149	0.0163879
784.227	0.0164839
784.306	0.0165418
784.384	0.0166087
784.462	0.0166084
784.540	0.0166323
784.618	0.0165746
784.696	0.0165755
784.774	0.0165456
784.852	0.0165221
784.931	0.0165746
785.009	0.0165704
785.087	0.0165859
785.165	0.0165864
785.243	0.0166354
785.321	0.0166739
785.399	0.0166621
785.477	0.0166882
785.556	0.0166056
785.634	0.0165197
785.712	0.0165923
785.790	0.0166882
785.868	0.0166838
785.946	0.0165476
786.024	0.0166708
786.102	0.0166209
786.181	0.0166759
786.259	0.0167263
786.337	0.0166399
786.415	0.0166749
786.493	0.0166096
786.571	0.0166248
786.649	0.0165231
786.727	0.0166136
786.806	0.0164751
786.884	0.0166328
786.962	0.0164870
787.040	0.0163845
787.118	0.0165639
787.196	0.0165321
787.274	0.0164417
787.352	0.0164629
787.431	0.0165233
787.509	0.0164454
787.587	0.0164546
787.665	0.0164805
787.743	0.0163598
787.821	0.0164047
787.899	0.0163438
787.977	0.0165424
788.056	0.0165133
788.134	0.0164515
788.212	0.0164086
788.290	0.0163140
788.368	0.0164047
788.446	0.0163838
788.524	0.0164664
788.602	0.0164001
788.681	0.0164244
788.759	0.0165392
788.837	0.0163924
788.915	0.0163136
788.993	0.0163335
789.071	0.0164619
789.149	0.0165063
789.227	0.0163952
789.306	0.0163031
789.384	0.0163555
789.462	0.0162550
789.540	0.0163140
789.618	0.0163811
789.696	0.0163216
789.774	0.0162372
789.852	0.0162648
789.931	0.0162543
790.009	0.0162696
790.087	0.0163714
790.165	0.0164085
790.243	0.0163431
790.321	0.0163161
790.399	0.0162608
790.477	0.0163963
790.556	0.0163929
790.634	0.0163461
790.712	0.0163695
790.790	0.0163762
790.868	0.0165447
790.946	0.0164084
791.024	0.0165099
791.102	0.0165520
791.181	0.0163895
791.259	0.0164890
791.337	0.0165108
791.415	0.0163988
791.493	0.0163853
791.571	0.0165533
791.649	0.0164771
791.727	0.0164654
791.806	0.0165539
791.884	0.0165410
791.962	0.0165560
792.040	0.0166488
792.118	0.0165985
792.196	0.0167030
792.274	0.0164583
792.352	0.0165975
792.431	0.0166862
792.509	0.0166374
792.587	0.0166949
792.665	0.0165508
792.743	0.0167062
792.821	0.0167255
792.899	0.0166123
792.977	0.0166432
793.056	0.0166325
793.134	0.0165965
793.212	0.0167818
793.290	0.0164645
793.368	0.0165440
793.446	0.0166192
793.524	0.0165139
793.602	0.0165148
793.681	0.0166004
793.759	0.0165771
793.837	0.0165972
793.915	0.0164728
793.993	0.0165245
794.071	0.0168655
794.149	0.0167029
794.227	0.0164597
794.306	0.0166267
794.384	0.0166856
794.462	0.0166577
794.540	0.0166166
794.618	0.0165886
794.696	0.0165805
794.774	0.0165321
794.852	0.0165302
794.931	0.0166980
795.009	0.0166488
795.087	0.0164946
795.165	0.0165062
795.243	0.0166080
795.321	0.0165337
795.399	0.0165216
795.477	0.0166403
795.556	0.0165446
795.634	0.0166196
795.712	0.0166545
795.790	0.0165962
795.868	0.0167587
795.946	0.0166374
796.024	0.0165343
796.102	0.0165691
796.181	0.0165685
796.259	0.0164838
796.337	0.0165656
796.415	0.0166228
796.493	0.0166132
796.571	0.0164539
796.649	0.0166471
796.727	0.0165624
796.806	0.0165466
796.884	0.0165845
796.962	0.0166493
797.040	0.0165920
797.118	0.0165645
797.196	0.0165633
797.274	0.0164795
797.352	0.0165085
797.431	0.0164811
797.509	0.0164832
797.587	0.0164655
797.665	0.0165148
797.743	0.0164218
797.821	0.0164464
797.899	0.0164142
797.977	0.0165738
798.056	0.0165005
798.134	0.0163905
798.212	0.0163963
798.290	0.0162478
798.368	0.0165980
798.446	0.0163067
798.524	0.0163860
798.602	0.0164272
798.681	0.0164053
798.759	0.0163686
798.837	0.0164592
798.915	0.0163455
798.993	0.0166170
799.071	0.0164183
799.149	0.0164147
799.227	0.0165961
799.306	0.0166081
799.384	0.0163928
799.462	0.0163888
799.540	0.0164605
799.618	0.0164391
799.696	0.0165296
799.774	0.0164058
799.852	0.0163895
799.931	0.0164251
800.009	0.0164593
800.087	0.0164763
800.165	0.0163339
800.243	0.0164194
800.321	0.0165730
800.399	0.0166539
800.477	0.0164702
800.556	0.0165734
800.634	0.0165091
800.712	0.0165727
800.790	0.0164972
800.868	0.0165960
800.946	0.0165470
801.024	0.0166978
801.102	0.0164565
801.181	0.0166920
801.259	0.0167880
801.337	0.0165639
801.415	0.0164639
801.493	0.0166805
801.571	0.0165672
801.649	0.0165000
801.727	0.0165496
801.806	0.0164832
801.884	0.0166264
801.962	0.0166192
802.040	0.0165141
802.118	0.0166684
802.196	0.0165465
802.274	0.0165627
802.352	0.0165662
802.431	0.0166432
802.509	0.0165701
802.587	0.0166485
802.665	0.0166125
802.743	0.0166499
802.821	0.0164021
802.899	0.0164725
802.977	0.0164935
803.056	0.0164965
803.134	0.0165558
803.212	0.0165641
803.290	0.0164976
803.368	0.0165233
803.446	0.0165401
803.524	0.0164682
803.602	0.0165726
803.681	0.0165659
803.759	0.0166372
803.837	0.0166138
803.915	0.0165194
803.993	0.0165712
804.071	0.0165133
804.149	0.0165047
804.227	0.0166721
804.306	0.0166086
804.384	0.0165458
804.462	0.0165614
804.540	0.0164820
804.618	0.0165282
804.696	0.0165501
804.774	0.0165653
804.852	0.0166290
804.931	0.0165577
805.009	0.0166853
805.087	0.0166332
805.165	0.0166627
805.243	0.0166573
805.321	0.0164890
805.399	0.0165179
805.477	0.0166793
805.556	0.0166087
805.634	0.0166734
805.712	0.0166593
805.790	0.0166935
805.868	0.0167665
805.946	0.0167251
806.024	0.0167065
806.102	0.0166692
806.181	0.0166563
806.259	0.0164835
806.337	0.0167033
806.415	0.0167947
806.493	0.0167233
806.571	0.0166309
806.649	0.0166741
806.727	0.0165707
806.806	0.0166182
806.884	0.0166213
806.962	0.0165289
807.040	0.0165676
807.118	0.0167002
807.196	0.0165984
807.274	0.0164900
807.352	0.0166237
807.431	0.0166705
807.509	0.0165373
807.587	0.0166879
807.665	0.0165871
807.743	0.0166009
807.821	0.0165666
807.899	0.0164124
807.977	0.0165725
808.056	0.0166068
808.134	0.0166244
808.212	0.0164979
808.290	0.0163995
808.368	0.0164682
808.446	0.0165836
808.524	0.0164043
808.602	0.0165576
808.681	0.0165286
808.759	0.0164719
808.837	0.0164473
808.915	0.0164183
808.993	0.0165038
809.071	0.0164608
809.149	0.0165008
809.227	0.0166540
809.306	0.0162568
809.384	0.0164277
809.462	0.0164521
809.540	0.0164585
809.618	0.0164086
809.696	0.0164730
809.774	0.0165310
809.852	0.0164455
809.931	0.0164924
810.009	0.0164980
810.087	0.0165623
810.165	0.0165334
810.243	0.0164915
810.321	0.0164285
810.399	0.0164764
810.477	0.0164812
810.556	0.0165759
810.634	0.0164931
810.712	0.0164354
810.790	0.0164555
810.868	0.0165113
810.946	0.0165849
811.024	0.0166756
811.102	0.0165682
811.181	0.0165855
811.259	0.0165253
811.337	0.0164532
811.415	0.0167021
811.493	0.0165269
811.571	0.0163910
811.649	0.0165160
811.727	0.0164373
811.806	0.0166142
811.884	0.0165373
811.962	0.0166029
812.040	0.0166119
812.118	0.0166192
812.196	0.0166682
812.274	0.0164515
812.352	0.0164910
812.431	0.0165565
812.509	0.0165094
812.587	0.0165705
812.665	0.0164767
812.743	0.0166006
812.821	0.0166407
812.899	0.0166631
812.977	0.0166373
813.056	0.0166782
813.134	0.0166138
813.212	0.0166084
813.290	0.0165511
813.368	0.0167125
813.446	0.0168215
813.524	0.0166529
813.602	0.0166059
813.681	0.0166605
813.759	0.0166582
813.837	0.0166504
813.915	0.0166864
813.993	0.0166225
814.071	0.0166180
814.149	0.0166050
814.227	0.0166376
814.306	0.0166190
814.384	0.0165735
814.462	0.0166187
814.540	0.0165568
814.618	0.0166338
814.696	0.0164829
814.774	0.0165125
814.852	0.0165864
814.931	0.0167882
815.009	0.0166665
815.087	0.0164500
815.165	0.0165277
815.243	0.0165624
815.321	0.0164519
815.399	0.0165273
815.477	0.0164992
815.556	0.0166142
815.634	0.0165099
815.712	0.0165363
815.790	0.0165018
815.868	0.0165333
815.946	0.0164459
816.024	0.0166082
816.102	0.0163921
816.181	0.0167085
816.259	0.0165466
816.337	0.0166273
816.415	0.0165101
816.493	0.0165726
816.571	0.0164431
816.649	0.0165600
816.727	0.0166082
816.806	0.0165342
816.884	0.0166714
816.962	0.0165966
817.040	0.0165950
817.118	0.0166232
817.196	0.0165910
817.274	0.0166177
817.352	0.0166080
817.431	0.0166505
817.509	0.0166491
817.587	0.0166302
817.665	0.0165392
817.743	0.0165890
817.821	0.0165006
817.899	0.0166177
817.977	0.0164200
818.056	0.0164378
818.134	0.0165324
818.212	0.0165446
818.290	0.0165491
818.368	0.0164651
818.446	0.0164164
818.524	0.0163510
818.602	0.0163989
818.681	0.0165318
818.759	0.0163918
818.837	0.0164801
818.915	0.0165150
818.993	0.0163905
819.071	0.0164274
819.149	0.0164336
819.227	0.0164168
819.306	0.0164280
819.384	0.0164944
819.462	0.0165788
819.540	0.0164974
819.618	0.0165675
819.696	0.0164489
819.774	0.0164233
819.852	0.0163583
819.931	0.0164687
820.009	0.0165503
820.087	0.0164333
820.165	0.0164175
820.243	0.0164996
820.321	0.0165218
820.399	0.0164349
820.477	0.0163597
820.556	0.0163694
820.634	0.0165222
820.712	0.0163647
820.790	0.0163491
820.868	0.0165816
820.946	0.0165159
821.024	0.0163215
821.102	0.0164414
821.181	0.0165096
821.259	0.0164246
821.337	0.0164172
821.415	0.0164888
821.493	0.0164378
821.571	0.0164152
821.649	0.0163363
821.727	0.0163310
821.806	0.0165116
821.884	0.0165544
821.962	0.0164944
822.040	0.0163754
822.118	0.0163933
822.196	0.0164977
822.274	0.0164829
822.352	0.0163599
822.431	0.0165313
822.509	0.0165005
822.587	0.0164434
822.665	0.0164661
822.743	0.0165276
822.821	0.0165421
822.899	0.0164838
822.977	0.0165380
823.056	0.0165020
823.134	0.0164687
823.212	0.0164130
823.290	0.0164385
823.368	0.0163915
823.446	0.0165155
823.524	0.0163731
823.602	0.0164115
823.681	0.0165310
823.759	0.0164935
823.837	0.0163839
823.915	0.0163859
823.993	0.0164759
824.071	0.0164560
824.149	0.0164754
824.227	0.0165363
824.306	0.0164809
824.384	0.0164521
824.462	0.0164962
824.540	0.0165560
824.618	0.0165105
824.696	0.0163490
824.774	0.0164653
824.852	0.0165410
824.931	0.0166180
825.009	0.0165450
825.087	0.0166161
825.165	0.0166084
825.243	0.0166619
825.321	0.0164819
825.399	0.0167273
825.477	0.0168101
825.556	0.0165290
825.634	0.0165748
825.712	0.0166498
825.790	0.0165865
825.868	0.0166976
825.946	0.0165618
826.024	0.0166631
826.102	0.0166074
826.181	0.0165164
826.259	0.0165946
826.337	0.0166899
826.415	0.0165844
826.493	0.0166884
826.571	0.0166056
826.649	0.0166586
826.727	0.0166405
826.806	0.0166055
826.884	0.0166526
826.962	0.0166143
827.040	0.0165120
827.118	0.0165423
827.196	0.0165546
827.274	0.0166473
827.352	0.0167313
827.431	0.0166196
827.509	0.0166673
827.587	0.0166029
827.665	0.0166219
827.743	0.0167443
827.821	0.0165878
827.899	0.0166609
827.977	0.0165782
828.056	0.0165379
828.134	0.0166116
828.212	0.0164709
828.290	0.0166006
828.368	0.0165191
828.446	0.0166094
828.524	0.0166623
828.602	0.0165960
828.681	0.0165709
828.759	0.0164912
828.837	0.0166599
828.915	0.0165863
828.993	0.0164491
829.071	0.0164751
829.149	0.0167763
829.227	0.0167851
829.306	0.0166615
829.384	0.0166933
829.462	0.0165706
829.540	0.0166694
829.618	0.0166103
829.696	0.0166532
829.774	0.0166968
829.852	0.0165596
829.931	0.0165691
830.009	0.0167471
830.087	0.0166618
830.165	0.0166381
830.243	0.0166346
830.321	0.0165723
830.399	0.0165890
830.477	0.0166841
830.556	0.0166128
830.634	0.0165028
830.712	0.0166328
830.790	0.0166729
830.868	0.0165904
830.946	0.0165229
831.024	0.0164810
831.102	0.0164829
831.181	0.0166125
831.259	0.0165686
831.337	0.0164626
831.415	0.0164885
831.493	0.0164538
831.571	0.0164946
831.649	0.0165327
831.727	0.0164568
831.806	0.0164515
831.884	0.0165358
831.962	0.0165173
832.040	0.0164925
832.118	0.0165276
832.196	0.0165242
832.274	0.0164848
832.352	0.0166596
832.431	0.0165305
832.509	0.0165363
832.587	0.0165016
832.665	0.0166373
832.743	0.0165293
832.821	0.0163214
832.899	0.0165157
832.977	0.0164590
833.056	0.0166936
833.134	0.0164974
833.212	0.0164939
833.290	0.0164676
833.368	0.0165116
833.446	0.0164442
833.524	0.0164658
833.602	0.0164957
833.681	0.0165203
833.759	0.0165480
833.837	0.0164682
833.915	0.0164082
833.993	0.0165179
834.071	0.0165599
834.149	0.0165694
834.227	0.0165164
834.306	0.0164497
834.384	0.0165019
834.462	0.0165374
834.540	0.0165446
834.618	0.0162872
834.696	0.0164833
834.774	0.0166062
834.852	0.0163909
834.931	0.0164899
835.009	0.0164796
835.087	0.0163495
835.165	0.0165097
835.243	0.0164864
835.321	0.0164568
835.399	0.0165947
835.477	0.0164978
835.556	0.0165210
835.634	0.0164385
835.712	0.0165725
835.790	0.0164548
835.868	0.0166880
835.946	0.0166106
836.024	0.0165950
836.102	0.0164734
836.181	0.0165452
836.259	0.0163317
836.337	0.0165250
836.415	0.0164952
836.493	0.0165302
836.571	0.0166278
836.649	0.0166055
836.727	0.0166325
836.806	0.0165391
836.884	0.0164060
836.962	0.0165578
837.040	0.0166907
837.118	0.0164412
837.196	0.0164531
837.274	0.0166651
837.352	0.0166438
837.431	0.0165771
837.509	0.0166658
837.587	0.0166338
837.665	0.0165533
837.743	0.0165855
837.821	0.0166471
837.899	0.0165416
837.977	0.0165515
838.056	0.0164745
838.134	0.0164478
838.212	0.0165842
838.290	0.0164294
838.368	0.0165378
838.446	0.0164842
838.524	0.0165204
838.602	0.0165946
838.681	0.0165657
838.759	0.0166427
838.837	0.0165100
838.915	0.0165776
838.993	0.0165662
839.071	0.0165775
839.149	0.0165372
839.227	0.0167615
839.306	0.0166398
839.384	0.0166400
839.462	0.0167385
839.540	0.0166366
839.618	0.0164381
839.696	0.0166630
839.774	0.0167198
839.852	0.0165959
839.931	0.0164184
840.009	0.0166409
840.087	0.0166708
840.165	0.0166712
840.243	0.0165866
840.321	0.0165416
840.399	0.0167268
840.477	0.0166085
840.556	0.0165955
840.634	0.0166090
840.712	0.0166081
840.790	0.0164764
840.868	0.0165810
840.946	0.0164707
841.024	0.0164187
841.102	0.0165562
841.181	0.0164125
841.259	0.0164870
841.337	0.0165990
841.415	0.0165087
841.493	0.0164735
841.571	0.0165716
841.649	0.0164857
841.727	0.0164342
841.806	0.0165189
841.884	0.0163945
841.962	0.0164310
842.040	0.0164149
842.118	0.0163325
842.196	0.0164433
842.274	0.0164635
842.352	0.0164186
842.431	0.0164606
842.509	0.0164545
842.587	0.0164246
842.665	0.0165408
842.743	0.0164793
842.821	0.0164222
842.899	0.0165946
842.977	0.0165546
843.056	0.0164411
843.134	0.0165126
843.212	0.0165571
843.290	0.0165317
843.368	0.0166157
843.446	0.0165333
843.524	0.0165697
843.602	0.0165118
843.681	0.0164924
843.759	0.0164066
843.837	0.0164310
843.915	0.0165374
843.993	0.0166562
844.071	0.0164279
844.149	0.0164735
844.227	0.0166110
844.306	0.0165757
844.384	0.0166609
844.462	0.0165350
844.540	0.0165271
844.618	0.0164435
844.696	0.0165485
844.774	0.0164565
844.852	0.0165144
844.931	0.0165860
845.009	0.0163914
845.087	0.0164738
845.165	0.0164776
845.243	0.0165027
845.321	0.0165446
845.399	0.0164931
845.477	0.0165891
845.556	0.0164354
845.634	0.0164687
845.712	0.0165463
845.790	0.0165620
845.868	0.0165993
845.946	0.0165299
846.024	0.0165712
846.102	0.0165271
846.181	0.0166284
846.259	0.0164762
846.337	0.0166126
846.415	0.0166035
846.493	0.0165495
846.571	0.0165919
846.649	0.0165144
846.727	0.0165559
846.806	0.0165868
846.884	0.0165321
846.962	0.0165067
847.040	0.0164569
847.118	0.0165601
847.196	0.0164574
847.274	0.0165915
847.352	0.0166000
847.431	0.0165628
847.509	0.0164497
847.587	0.0166106
847.665	0.0165479
847.743	0.0164935
847.821	0.0165594
847.899	0.0166339
847.977	0.0164981
848.056	0.0164286
848.134	0.0165138
848.212	0.0165383
848.290	0.0164530
848.368	0.0163976
848.446	0.0165472
848.524	0.0164601
848.602	0.0162752
848.681	0.0163380
848.759	0.0166021
848.837	0.0164764
848.915	0.0165060
848.993	0.0165469
849.071	0.0166344
849.149	0.0166181
849.227	0.0165762
849.306	0.0165523
849.384	0.0165884
849.462	0.0165084
849.540	0.0165675
849.618	0.0165448
849.696	0.0165532
849.774	0.0166168
849.852	0.0166467
849.931	0.0166110
850.009	0.0165273
850.087	0.0166100
850.165	0.0166245
850.243	0.0166827
850.321	0.0165972
850.399	0.0166431
850.477	0.0165913
850.556	0.0167066
850.634	0.0166963
850.712	0.0167608
850.790	0.0166842
850.868	0.0165855
850.946	0.0167063
851.024	0.0166254
851.102	0.0166460
851.181	0.0165948
851.259	0.0166232
851.337	0.0168003
851.415	0.0166066
851.493	0.0165097
851.571	0.0166121
851.649	0.0165384
851.727	0.0165733
851.806	0.0165904
851.884	0.0165128
851.962	0.0164179
852.040	0.0165209
852.118	0.0166647
852.196	0.0166116
852.274	0.0165988
852.352	0.0164617
852.431	0.0165154
852.509	0.0164649
852.587	0.0164702
852.665	0.0165233
852.743	0.0165659
852.821	0.0165702
852.899	0.0167141
852.977	0.0165334
853.056	0.0166051
853.134	0.0165321
853.212	0.0163348
853.290	0.0165461
853.368	0.0166742
853.446	0.0164836
853.524	0.0165355
853.602	0.0166058
853.681	0.0165131
853.759	0.0165296
853.837	0.0166518
853.915	0.0164130
853.993	0.0165351
854.071	0.0165864
854.149	0.0164970
854.227	0.0164450
854.306	0.0163963
854.384	0.0165685
854.462	0.0165663
854.540	0.0164652
854.618	0.0165713
854.696	0.0163586
854.774	0.0164529
854.852	0.0164967
854.931	0.0164629
855.009	0.0165894
855.087	0.0165560
855.165	0.0163724
855.243	0.0165437
855.321	0.0165308
855.399	0.0165271
855.477	0.0165247
855.556	0.0165107
855.634	0.0164194
855.712	0.0163647
855.790	0.0165191
855.868	0.0165063
855.946	0.0164209
856.024	0.0164832
856.102	0.0165104
856.181	0.0164295
856.259	0.0164565
856.337	0.0166090
856.415	0.0165370
856.493	0.0164465
856.571	0.0164182
856.649	0.0165324
856.727	0.0166138
856.806	0.0164597
856.884	0.0165335
856.962	0.0165790
857.040	0.0164743
857.118	0.0165490
857.196	0.0164845
857.274	0.0164835
857.352	0.0165334
857.431	0.0164523
857.509	0.0164184
857.587	0.0166205
857.665	0.0165866
857.743	0.0165202
857.821	0.0165638
857.899	0.0165754
857.977	0.0165289
858.056	0.0166142
858.134	0.0165614
858.212	0.0166511
858.290	0.0165616
858.368	0.0165188
858.446	0.0164919
858.524	0.0166229
858.602	0.0166481
858.681	0.0164741
858.759	0.0164614
858.837	0.0165887
858.915	0.0166448
858.993	0.0166103
859.071	0.0165974
859.149	0.0166212
859.227	0.0164707
859.306	0.0164496
859.384	0.0166206
859.462	0.0165578
859.540	0.0166685
859.618	0.0166292
859.696	0.0165971
859.774	0.0164389
859.852	0.0165247
859.931	0.0165513
860.009	0.0165129
860.087	0.0164144
860.165	0.0166711
860.243	0.0164136
860.321	0.0166068
860.399	0.0163878
860.477	0.0165496
860.556	0.0165590
860.634	0.0165626
860.712	0.0165203
860.790	0.0165967
860.868	0.0165668
860.946	0.0165559
861.024	0.0164454
861.102	0.0166264
861.181	0.0165401
861.259	0.0165726
861.337	0.0165309
861.415	0.0164728
861.493	0.0165057
861.571	0.0165694
861.649	0.0165440
861.727	0.0166585
861.806	0.0165884
861.884	0.0165422
861.962	0.0164887
862.040	0.0164977
862.118	0.0166134
862.196	0.0165001
862.274	0.0164352
862.352	0.0163792
862.431	0.0164803
862.509	0.0164162
862.587	0.0163795
862.665	0.0164416
862.743	0.0164275
862.821	0.0165134
862.899	0.0165570
862.977	0.0164379
863.056	0.0164868
863.134	0.0165727
863.212	0.0164736
863.290	0.0164301
863.368	0.0165191
863.446	0.0164077
863.524	0.0164098
863.602	0.0166673
863.681	0.0164492
863.759	0.0165401
863.837	0.0166162
863.915	0.0165792
863.993	0.0164781
864.071	0.0164880
864.149	0.0165981
864.227	0.0165054
864.306	0.0165946
864.384	0.0166365
864.462	0.0166436
864.540	0.0166563
864.618	0.0165247
864.696	0.0164390
864.774	0.0165329
864.852	0.0166285
864.931	0.0165639
865.009	0.0165862
865.087	0.0166012
865.165	0.0166470
865.243	0.0164997
865.321	0.0164946
865.399	0.0166603
865.477	0.0163652
865.556	0.0165881
865.634	0.0165073
865.712	0.0165103
865.790	0.0164827
865.868	0.0165692
865.946	0.0166433
866.024	0.0166156
866.102	0.0164818
866.181	0.0164948
866.259	0.0164481
866.337	0.0166435
866.415	0.0165239
866.493	0.0164378
866.571	0.0164984
866.649	0.0163919
866.727	0.0163509
866.806	0.0165106
866.884	0.0164281
866.962	0.0164780
867.040	0.0163564
867.118	0.0165593
867.196	0.0164788
867.274	0.0164801
867.352	0.0164227
867.431	0.0166031
867.509	0.0166297
867.587	0.0166120
867.665	0.0165464
867.743	0.0165602
867.821	0.0165247
867.899	0.0165437
867.977	0.0165829
868.056	0.0165991
868.134	0.0165727
868.212	0.0164974
868.290	0.0166884
868.368	0.0166247
868.446	0.0165608
868.524	0.0165554
868.602	0.0165083
868.681	0.0164237
868.759	0.0165001
868.837	0.0165987
868.915	0.0165714
868.993	0.0165459
869.071	0.0165773
869.149	0.0166519
869.227	0.0165798
869.306	0.0164777
869.384	0.0166230
869.462	0.0165430
869.540	0.0165085
869.618	0.0166576
869.696	0.0166142
869.774	0.0167112
869.852	0.0165013
869.931	0.0164420
870.009	0.0165549
870.087	0.0165327
870.165	0.0164522
870.243	0.0164506
870.321	0.0165614
870.399	0.0164527
870.477	0.0164306
870.556	0.0164397
870.634	0.0165840
870.712	0.0167405
870.790	0.0165248
870.868	0.0164983
870.946	0.0165913
871.024	0.0166061
871.102	0.0165894
871.181	0.0166656
871.259	0.0165404
871.337	0.0166260
871.415	0.0165142
871.493	0.0166280
871.571	0.0166172
871.649	0.0166781
871.727	0.0165260
871.806	0.0165887
871.884	0.0166360
871.962	0.0164939
872.040	0.0165130
872.118	0.0165840
872.196	0.0165466
872.274	0.0165672
872.352	0.0165456
872.431	0.0165605
872.509	0.0165383
872.587	0.0164539
872.665	0.0164690
872.743	0.0164291
872.821	0.0165751
872.899	0.0164403
872.977	0.0165145
873.056	0.0164600
873.134	0.0165726
873.212	0.0166190
873.290	0.0166505
873.368	0.0164442
873.446	0.0163856
873.524	0.0166192
873.602	0.0165803
873.681	0.0166801
873.759	0.0165907
873.837	0.0166331
873.915	0.0165981
873.993	0.0164567
874.071	0.0167178
874.149	0.0164114
874.227	0.0166058
874.306	0.0165155
874.384	0.0164547
874.462	0.0165763
874.540	0.0165250
874.618	0.0165250
874.696	0.0165508
874.774	0.0164248
874.852	0.0165604
874.931	0.0167402
875.009	0.0165400
875.087	0.0164734
875.165	0.0165383
875.243	0.0165265
875.321	0.0166500
875.399	0.0165415
875.477	0.0164999
875.556	0.0165772
875.634	0.0164861
875.712	0.0165226
875.790	0.0165478
875.868	0.0165449
875.946	0.0164911
876.024	0.0165917
876.102	0.0166333
876.181	0.0166294
876.259	0.0164652
876.337	0.0166114
876.415	0.0166002
876.493	0.0165392
876.571	0.0165687
876.649	0.0165543
876.727	0.0165508
876.806	0.0166658
876.884	0.0166324
876.962	0.0164565
877.040	0.0165289
877.118	0.0164602
877.196	0.0164483
877.274	0.0166814
877.352	0.0165772
877.431	0.0165610
877.509	0.0164709
877.587	0.0165392
877.665	0.0164768
877.743	0.0165260
877.821	0.0164573
877.899	0.0164974
877.977	0.0164937
878.056	0.0164595
878.134	0.0163342
878.212	0.0164207
878.290	0.0164734
878.368	0.0165302
878.446	0.0164649
878.524	0.0164928
878.602	0.0165019
878.681	0.0164648
878.759	0.0165047
878.837	0.0163018
878.915	0.0165302
878.993	0.0165170
879.071	0.0165798
879.149	0.0164857
879.227	0.0164848
879.306	0.0165585
879.384	0.0164743
879.462	0.0165708
879.540	0.0164258
879.618	0.0165369
879.696	0.0164932
879.774	0.0165166
879.852	0.0165586
879.931	0.0165749
880.009	0.0165070
880.087	0.0166257
880.165	0.0165713
880.243	0.0166066
880.321	0.0164859
880.399	0.0164552
880.477	0.0164914
880.556	0.0166191
880.634	0.0166692
880.712	0.0165990
880.790	0.0165398
880.868	0.0165520
880.946	0.0165186
881.024	0.0164987
881.102	0.0166825
881.181	0.0165501
881.259	0.0164780
881.337	0.0165410
881.415	0.0166300
881.493	0.0166200
881.571	0.0165801
881.649	0.0165660
881.727	0.0166411
881.806	0.0166933
881.884	0.0164915
881.962	0.0166135
882.040	0.0165636
882.118	0.0166862
882.196	0.0165339
882.274	0.0165701
882.352	0.0164687
882.431	0.0165878
882.509	0.0165440
882.587	0.0166016
882.665	0.0165392
882.743	0.0164493
882.821	0.0166426
882.899	0.0165008
882.977	0.0165700
883.056	0.0165200
883.134	0.0164945
883.212	0.0165241
883.290	0.0166148
883.368	0.0165111
883.446	0.0165256
883.524	0.0165788
883.602	0.0166441
883.681	0.0166738
883.759	0.0165097
883.837	0.0165439
883.915	0.0165780
883.993	0.0164822
884.071	0.0164716
884.149	0.0165176
884.227	0.0166168
884.306	0.0165091
884.384	0.0165625
884.462	0.0164415
884.540	0.0165125
884.618	0.0165511
884.696	0.0165987
884.774	0.0165430
884.852	0.0165621
884.931	0.0164786
885.009	0.0164887
885.087	0.0164886
885.165	0.0164558
885.243	0.0164816
885.321	0.0164901
885.399	0.0163989
885.477	0.0163803
885.556	0.0166110
885.634	0.0165745
885.712	0.0165607
885.790	0.0166520
885.868	0.0165418
885.946	0.0164046
886.024	0.0164897
886.102	0.0166635
886.181	0.0166142
886.259	0.0164965
886.337	0.0164234
886.415	0.0166462
886.493	0.0166325
886.571	0.0166182
886.649	0.0166690
886.727	0.0166324
886.806	0.0165620
886.884	0.0166189
886.962	0.0165595
887.040	0.0164553
887.118	0.0165420
887.196	0.0166314
887.274	0.0164685
887.352	0.0166183
887.431	0.0166400
887.509	0.0166547
887.587	0.0166020
887.665	0.0164925
887.743	0.0165398
887.821	0.0166624
887.899	0.0166150
887.977	0.0165972
888.056	0.0165148
888.134	0.0164709
888.212	0.0165655
888.290	0.0164687
888.368	0.0164648
888.446	0.0164108
888.524	0.0165969
888.602	0.0164115
888.681	0.0164523
888.759	0.0165281
888.837	0.0164683
888.915	0.0164996
888.993	0.0166032
889.071	0.0165485
889.149	0.0165337
889.227	0.0165294
889.306	0.0165169
889.384	0.0164919
889.462	0.0165618
889.540	0.0166022
889.618	0.0165273
889.696	0.0164750
889.774	0.0164992
889.852	0.0165414
889.931	0.0165322
890.009	0.0164377
890.087	0.0165284
890.165	0.0165669
890.243	0.0165556
890.321	0.0163763
890.399	0.0165139
890.477	0.0164796
890.556	0.0164725
890.634	0.0165019
890.712	0.0164872
890.790	0.0164856
890.868	0.0164428
890.946	0.0163780
891.024	0.0164896
891.102	0.0164934
891.181	0.0164576
891.259	0.0165695
891.337	0.0165291
891.415	0.0165551
891.493	0.0164355
891.571	0.0164599
891.649	0.0164307
891.727	0.0164531
891.806	0.0165105
891.884	0.0165952
891.962	0.0164619
892.040	0.0165154
892.118	0.0165042
892.196	0.0165202
892.274	0.0165368
892.352	0.0163664
892.431	0.0165366
892.509	0.0166469
892.587	0.0165301
892.665	0.0164316
892.743	0.0165689
892.821	0.0164118
892.899	0.0165266
892.977	0.0164158
893.056	0.0166019
893.134	0.0164719
893.212	0.0164542
893.290	0.0165311
893.368	0.0164880
893.446	0.0165373
893.524	0.0164296
893.602	0.0164380
893.681	0.0163553
893.759	0.0165117
893.837	0.0165845
893.915	0.0164697
893.993	0.0164007
894.071	0.0163255
894.149	0.0165455
894.227	0.0165604
894.306	0.0164774
894.384	0.0165167
894.462	0.0164983
894.540	0.0165565
894.618	0.0166277
894.696	0.0165653
894.774	0.0166956
894.852	0.0165623
894.931	0.0167440
895.009	0.0166178
895.087	0.0166451
895.165	0.0166518
895.243	0.0168348
895.321	0.0165866
895.399	0.0165353
895.477	0.0166051
895.556	0.0167712
895.634	0.0165854
895.712	0.0165776
895.790	0.0166619
895.868	0.0166082
895.946	0.0164874
896.024	0.0166148
896.102	0.0167012
896.181	0.0165675
896.259	0.0165121
896.337	0.0166825
896.415	0.0165788
896.493	0.0166547
896.571	0.0166083
896.649	0.0166264
896.727	0.0164554
896.806	0.0166103
896.884	0.0166142
896.962	0.0166369
897.040	0.0166083
897.118	0.0166730
897.196	0.0166025
897.274	0.0165706
897.352	0.0166586
897.431	0.0166054
897.509	0.0165916
897.587	0.0166126
897.665	0.0166463
897.743	0.0165041
897.821	0.0165517
897.899	0.0163960
897.977	0.0164861
898.056	0.0165981
898.134	0.0165453
898.212	0.0164638
898.290	0.0163999
898.368	0.0165589
898.446	0.0164445
898.524	0.0165405
898.602	0.0166372
898.681	0.0166073
898.759	0.0165639
898.837	0.0165009
898.915	0.0165756
898.993	0.0165531
899.071	0.0164126
899.149	0.0165730
899.227	0.0164164
899.306	0.0164289
899.384	0.0166169
899.462	0.0164142
899.540	0.0164984
899.618	0.0165731
899.696	0.0164622
899.774	0.0165392
899.852	0.0164254
899.931	0.0165231
900.009	0.0165866
900.087	0.0165633
900.165	0.0165090
900.243	0.0166256
900.321	0.0165949
900.399	0.0166010
900.477	0.0165162
900.556	0.0165529
900.634	0.0164184
900.712	0.0165797
900.790	0.0164704
900.868	0.0164195
900.946	0.0164455
901.024	0.0165830
901.102	0.0162493
901.181	0.0165695
901.259	0.0164948
901.337	0.0164766
901.415	0.0164269
901.493	0.0163329
901.571	0.0163834
901.649	0.0162269
901.727	0.0165280
901.806	0.0164923
901.884	0.0164542
901.962	0.0164584
902.040	0.0164491
902.118	0.0163798
902.196	0.0164115
902.274	0.0164757
902.352	0.0164426
902.431	0.0164004
902.509	0.0164539
902.587	0.0165144
902.665	0.0163790
902.743	0.0163568
902.821	0.0164110
902.899	0.0165270
902.977	0.0165012
903.056	0.0165702
903.134	0.0165190
903.212	0.0165292
903.290	0.0165776
903.368	0.0165193
903.446	0.0166301
903.524	0.0165280
903.602	0.0165672
903.681	0.0165421
903.759	0.0164593
903.837	0.0164785
903.915	0.0164569
903.993	0.0165581
904.071	0.0165276
904.149	0.0165311
904.227	0.0165070
904.306	0.0165247
904.384	0.0164902
904.462	0.0164861
904.540	0.0164667
904.618	0.0164658
904.696	0.0165225
904.774	0.0163940
904.852	0.0163734
904.931	0.0164627
905.009	0.0164326
905.087	0.0165490
905.165	0.0165773
905.243	0.0166490
905.321	0.0165434
905.399	0.0166139
905.477	0.0166092
905.556	0.0166296
905.634	0.0165587
905.712	0.0164354
905.790	0.0166314
905.868	0.0165925
905.946	0.0165484
906.024	0.0165546
906.102	0.0164594
906.181	0.0166339
906.259	0.0165076
906.337	0.0164780
906.415	0.0165096
906.493	0.0165279
906.571	0.0165492
906.649	0.0164813
906.727	0.0166665
906.806	0.0164850
906.884	0.0164576
906.962	0.0163847
907.040	0.0164510
907.118	0.0165195
907.196	0.0163373
907.274	0.0164687
907.352	0.0165680
907.431	0.0164555
907.509	0.0165324
907.587	0.0165454
907.665	0.0163890
907.743	0.0164407
907.821	0.0164996
907.899	0.0164452
907.977	0.0163903
908.056	0.0163505
908.134	0.0164346
908.212	0.0163850
908.290	0.0163867
908.368	0.0164767
908.446	0.0163741
908.524	0.0163246
908.602	0.0165796
908.681	0.0163725
908.759	0.0164633
908.837	0.0164529
908.915	0.0162947
908.993	0.0164160
909.071	0.0162951
909.149	0.0164352
909.227	0.0164084
909.306	0.0164059
909.384	0.0164388
909.462	0.0165242
909.540	0.0164095
909.618	0.0165731
909.696	0.0163650
909.774	0.0164916
909.852	0.0164713
909.931	0.0163796
910.009	0.0167786
910.087	0.0165102
910.165	0.0165115
910.243	0.0165102
910.321	0.0165594
910.399	0.0164853
910.477	0.0165801
910.556	0.0165689
910.634	0.0165162
910.712	0.0163368
910.790	0.0165227
910.868	0.0164754
910.946	0.0163829
911.024	0.0165933
911.102	0.0163853
911.181	0.0164335
911.259	0.0164272
911.337	0.0163738
911.415	0.0164507
911.493	0.0165747
911.571	0.0164439
911.649	0.0164360
911.727	0.0164584
911.806	0.0164265
911.884	0.0164533
911.962	0.0164433
912.040	0.0162412
912.118	0.0164278
912.196	0.0163661
912.274	0.0162968
912.352	0.0164384
912.431	0.0165175
912.509	0.0163466
912.587	0.0164060
912.665	0.0163808
912.743	0.0163843
912.821	0.0163799
912.899	0.0164270
912.977	0.0164789
913.056	0.0162938
913.134	0.0162620
913.212	0.0164448
913.290	0.0163557
913.368	0.0163289
913.446	0.0161838
913.524	0.0163904
913.602	0.0164755
913.681	0.0162949
913.759	0.0164032
913.837	0.0164487
913.915	0.0162484
913.993	0.0164745
914.071	0.0164252
914.149	0.0164638
914.227	0.0164082
914.306	0.0164994
914.384	0.0164510
914.462	0.0164977
914.540	0.0166048
914.618	0.0164904
914.696	0.0164890
914.774	0.0166447
914.852	0.0165372
914.931	0.0164739
915.009	0.0165424
915.087	0.0163874
915.165	0.0164384
915.243	0.0165742
915.321	0.0165918
915.399	0.0164558
915.477	0.0166069
915.556	0.0166702
915.634	0.0165639
915.712	0.0166682
915.790	0.0165028
915.868	0.0164559
915.946	0.0165788
916.024	0.0165100
916.102	0.0164805
916.181	0.0165463
916.259	0.0164871
916.337	0.0163322
916.415	0.0164661
916.493	0.0164814
916.571	0.0163881
916.649	0.0164822
916.727	0.0165166
916.806	0.0164571
916.884	0.0164085
916.962	0.0163825
917.040	0.0165378
917.118	0.0163890
917.196	0.0165659
917.274	0.0164884
917.352	0.0165752
917.431	0.0165434
917.509	0.0164568
917.587	0.0164553
917.665	0.0164864
917.743	0.0165732
917.821	0.0163646
917.899	0.0164868
917.977	0.0164450
918.056	0.0166193
918.134	0.0165313
918.212	0.0162982
918.290	0.0164651
918.368	0.0166168
918.446	0.0164261
918.524	0.0164301
918.602	0.0166048
918.681	0.0164226
918.759	0.0164359
918.837	0.0165273
918.915	0.0165678
918.993	0.0165032
919.071	0.0163292
919.149	0.0165210
919.227	0.0164096
919.306	0.0163888
919.384	0.0164709
919.462	0.0164633
919.540	0.0165044
919.618	0.0163232
919.696	0.0165848
919.774	0.0164224
919.852	0.0165997
919.931	0.0165909
920.009	0.0163877
920.087	0.0165058
920.165	0.0165291
920.243	0.0163879
920.321	0.0165169
920.399	0.0164986
920.477	0.0165720
920.556	0.0166013
920.634	0.0165071
920.712	0.0164925
920.790	0.0163673
920.868	0.0164967
920.946	0.0163519
921.024	0.0165083
921.102	0.0163963
921.181	0.0163976
921.259	0.0162634
921.337	0.0164121
921.415	0.0164082
921.493	0.0163679
921.571	0.0164986
921.649	0.0164467
921.727	0.0163664
921.806	0.0163694
921.884	0.0162690
921.962	0.0165160
922.040	0.0164870
922.118	0.0164703
922.196	0.0165009
922.274	0.0163589
922.352	0.0164436
922.431	0.0165810
922.509	0.0166413
922.587	0.0164960
922.665	0.0166170
922.743	0.0164293
922.821	0.0164733
922.899	0.0164160
922.977	0.0165868
923.056	0.0165762
923.134	0.0164943
923.212	0.0164027
923.290	0.0165024
923.368	0.0164780
923.446	0.0163510
923.524	0.0165431
923.602	0.0164297
923.681	0.0165200
923.759	0.0164565
923.837	0.0163602
923.915	0.0166309
923.993	0.0163876
924.071	0.0164729
924.149	0.0162653
924.227	0.0164454
924.306	0.0164867
924.384	0.0163837
924.462	0.0164301
924.540	0.0163795
924.618	0.0164309
924.696	0.0164468
924.774	0.0163882
924.852	0.0164436
924.931	0.0165566
925.009	0.0163300
925.087	0.0164133
925.165	0.0163761
925.243	0.0164992
925.321	0.0164634
925.399	0.0163795
925.477	0.0165090
925.556	0.0164863
925.634	0.0164991
925.712	0.0165788
925.790	0.0164773
925.868	0.0164925
925.946	0.0164042
926.024	0.0165060
926.102	0.0165347
926.181	0.0165063
926.259	0.0165260
926.337	0.0166115
926.415	0.0165088
926.493	0.0166498
926.571	0.0167720
926.649	0.0167204
926.727	0.0165516
926.806	0.0165172
926.884	0.0167512
926.962	0.0167839
927.040	0.0165273
927.118	0.0166449
927.196	0.0165817
927.274	0.0165350
927.352	0.0167783
927.431	0.0165643
927.509	0.0166895
927.587	0.0166383
927.665	0.0165748
927.743	0.0165128
927.821	0.0164790
927.899	0.0167201
927.977	0.0165671
928.056	0.0165513
928.134	0.0165689
928.212	0.0166396
928.290	0.0165849
928.368	0.0165565
928.446	0.0164317
928.524	0.0166415
928.602	0.0166354
928.681	0.0164761
928.759	0.0166261
928.837	0.0165739
928.915	0.0167429
928.993	0.0165472
929.071	0.0165574
929.149	0.0167868
929.227	0.0166389
929.306	0.0167151
929.384	0.0165967
929.462	0.0165229
929.540	0.0166688
929.618	0.0167290
929.696	0.0165438
929.774	0.0166244
929.852	0.0166079
929.931	0.0164627
