05/19/2022	01:12:09	Ver.	4.1	UNKNOWN
Optical Delay	610.008675	Delta X		0.078125	Sweeps	1	Scan Rate	0/0
Coordinates	Axis 1	NaN	Axis 2	NaN	Axis 3	NaN	Axis 4	NaN	Axis 5	NaN	Axis 6	0.000000
TX Power	0.000000	RX Power	0.000000

610.009	0.0165580
610.087	0.0166736
610.165	0.0165201
610.243	0.0165642
610.321	0.0166000
610.399	0.0165795
610.477	0.0165693
610.556	0.0164794
610.634	0.0165504
610.712	0.0165801
610.790	0.0165459
610.868	0.0164754
610.946	0.0165244
611.024	0.0164819
611.102	0.0166953
611.181	0.0164124
611.259	0.0165475
611.337	0.0165289
611.415	0.0164236
611.493	0.0165007
611.571	0.0165253
611.649	0.0164619
611.727	0.0164854
611.806	0.0164380
611.884	0.0166163
611.962	0.0164911
612.040	0.0165414
612.118	0.0164635
612.196	0.0163811
612.274	0.0165585
612.352	0.0164436
612.431	0.0165202
612.509	0.0164880
612.587	0.0164841
612.665	0.0164784
612.743	0.0165174
612.821	0.0165038
612.899	0.0164926
612.977	0.0164803
613.056	0.0164103
613.134	0.0165926
613.212	0.0164438
613.290	0.0163794
613.368	0.0164737
613.446	0.0165320
613.524	0.0163754
613.602	0.0163496
613.681	0.0164008
613.759	0.0164624
613.837	0.0164501
613.915	0.0163476
613.993	0.0164040
614.071	0.0164149
614.149	0.0164208
614.227	0.0163686
614.306	0.0166631
614.384	0.0164288
614.462	0.0163843
614.540	0.0163965
614.618	0.0162980
614.696	0.0164735
614.774	0.0164226
614.852	0.0164654
614.931	0.0163938
615.009	0.0164114
615.087	0.0164314
615.165	0.0164343
615.243	0.0165182
615.321	0.0164364
615.399	0.0164349
615.477	0.0164789
615.556	0.0164259
615.634	0.0165720
615.712	0.0165142
615.790	0.0164686
615.868	0.0165477
615.946	0.0165760
616.024	0.0165398
616.102	0.0164330
616.181	0.0166130
616.259	0.0166447
616.337	0.0165219
616.415	0.0166438
616.493	0.0166277
616.571	0.0166903
616.649	0.0164999
616.727	0.0165946
616.806	0.0165023
616.884	0.0165979
616.962	0.0166399
617.040	0.0165201
617.118	0.0165288
617.196	0.0164316
617.274	0.0164503
617.352	0.0165749
617.431	0.0165122
617.509	0.0166539
617.587	0.0167425
617.665	0.0165274
617.743	0.0166580
617.821	0.0165521
617.899	0.0165246
617.977	0.0165463
618.056	0.0166309
618.134	0.0166479
618.212	0.0164986
618.290	0.0164700
618.368	0.0165249
618.446	0.0166567
618.524	0.0164825
618.602	0.0164600
618.681	0.0164332
618.759	0.0164414
618.837	0.0164278
618.915	0.0163219
618.993	0.0162711
619.071	0.0163992
619.149	0.0163716
619.227	0.0163184
619.306	0.0162040
619.384	0.0162537
619.462	0.0165089
619.540	0.0164400
619.618	0.0163213
619.696	0.0162293
619.774	0.0162730
619.852	0.0163076
619.931	0.0163554
620.009	0.0164510
620.087	0.0164064
620.165	0.0164211
620.243	0.0164217
620.321	0.0165177
620.399	0.0164256
620.477	0.0164201
620.556	0.0164960
620.634	0.0164888
620.712	0.0164342
620.790	0.0165076
620.868	0.0164569
620.946	0.0164771
621.024	0.0166285
621.102	0.0165005
621.181	0.0165237
621.259	0.0164123
621.337	0.0164358
621.415	0.0165369
621.493	0.0164187
621.571	0.0163864
621.649	0.0165219
621.727	0.0165608
621.806	0.0165429
621.884	0.0165993
621.962	0.0166618
622.040	0.0165002
622.118	0.0165173
622.196	0.0166055
622.274	0.0163693
622.352	0.0165314
622.431	0.0166133
622.509	0.0166455
622.587	0.0164606
622.665	0.0163910
622.743	0.0164285
622.821	0.0164873
622.899	0.0164870
622.977	0.0163621
623.056	0.0164922
623.134	0.0163422
623.212	0.0163264
623.290	0.0163316
623.368	0.0162605
623.446	0.0162704
623.524	0.0162611
623.602	0.0164185
623.681	0.0162796
623.759	0.0162412
623.837	0.0161911
623.915	0.0162431
623.993	0.0162617
624.071	0.0163468
624.149	0.0164223
624.227	0.0163585
624.306	0.0162282
624.384	0.0162590
624.462	0.0163385
624.540	0.0163150
624.618	0.0163038
624.696	0.0163045
624.774	0.0163311
624.852	0.0164265
624.931	0.0163959
625.009	0.0162218
625.087	0.0163360
625.165	0.0163053
625.243	0.0164011
625.321	0.0164005
625.399	0.0162881
625.477	0.0163684
625.556	0.0162595
625.634	0.0160885
625.712	0.0163775
625.790	0.0161784
625.868	0.0162853
625.946	0.0162474
626.024	0.0162900
626.102	0.0163239
626.181	0.0163261
626.259	0.0164833
626.337	0.0163795
626.415	0.0163358
626.493	0.0164957
626.571	0.0163698
626.649	0.0163561
626.727	0.0164671
626.806	0.0164352
626.884	0.0164059
626.962	0.0164523
627.040	0.0164009
627.118	0.0165774
627.196	0.0166006
627.274	0.0164471
627.352	0.0167554
627.431	0.0164991
627.509	0.0165865
627.587	0.0165530
627.665	0.0164979
627.743	0.0164141
627.821	0.0163918
627.899	0.0163980
627.977	0.0166924
628.056	0.0164554
628.134	0.0164191
628.212	0.0164812
628.290	0.0165506
628.368	0.0164291
628.446	0.0163340
628.524	0.0162960
628.602	0.0162258
628.681	0.0162482
628.759	0.0162805
628.837	0.0162879
628.915	0.0161478
628.993	0.0161466
629.071	0.0161365
629.149	0.0162641
629.227	0.0162315
629.306	0.0160884
629.384	0.0161773
629.462	0.0161139
629.540	0.0161987
629.618	0.0161660
629.696	0.0161964
629.774	0.0162125
629.852	0.0161725
629.931	0.0162446
630.009	0.0161188
630.087	0.0163348
630.165	0.0162146
630.243	0.0161512
630.321	0.0163570
630.399	0.0164226
630.477	0.0163755
630.556	0.0164011
630.634	0.0164578
630.712	0.0164352
630.790	0.0164726
630.868	0.0165085
630.946	0.0166192
631.024	0.0167142
631.102	0.0166305
631.181	0.0167088
631.259	0.0169321
631.337	0.0168682
631.415	0.0169176
631.493	0.0169327
631.571	0.0168939
631.649	0.0169665
631.727	0.0169909
631.806	0.0169456
631.884	0.0170483
631.962	0.0169699
632.040	0.0169911
632.118	0.0169691
632.196	0.0169808
632.274	0.0168907
632.352	0.0168513
632.431	0.0168772
632.509	0.0168489
632.587	0.0168994
632.665	0.0168540
632.743	0.0168085
632.821	0.0167040
632.899	0.0168729
632.977	0.0165047
633.056	0.0168044
633.134	0.0167445
633.212	0.0167530
633.290	0.0165554
633.368	0.0166476
633.446	0.0164545
633.524	0.0164980
633.602	0.0163903
633.681	0.0163419
633.759	0.0162265
633.837	0.0162983
633.915	0.0163042
633.993	0.0161748
634.071	0.0161669
634.149	0.0161459
634.227	0.0162711
634.306	0.0160073
634.384	0.0160525
634.462	0.0161212
634.540	0.0160973
634.618	0.0161582
634.696	0.0161060
634.774	0.0161048
634.852	0.0159697
634.931	0.0160902
635.009	0.0162582
635.087	0.0163200
635.165	0.0161304
635.243	0.0162459
635.321	0.0163287
635.399	0.0163519
635.477	0.0163297
635.556	0.0164075
635.634	0.0163026
635.712	0.0165760
635.790	0.0165260
635.868	0.0165984
635.946	0.0166073
636.024	0.0165578
636.102	0.0166364
636.181	0.0168828
636.259	0.0167953
636.337	0.0168452
636.415	0.0169460
636.493	0.0168025
636.571	0.0166898
636.649	0.0166413
636.727	0.0167710
636.806	0.0167873
636.884	0.0165582
636.962	0.0165878
637.040	0.0166833
637.118	0.0166940
637.196	0.0165388
637.274	0.0165958
637.352	0.0164871
637.431	0.0165194
637.509	0.0164258
637.587	0.0164727
637.665	0.0164389
637.743	0.0163940
637.821	0.0161847
637.899	0.0162395
637.977	0.0162534
638.056	0.0160635
638.134	0.0161110
638.212	0.0160712
638.290	0.0158958
638.368	0.0159885
638.446	0.0158725
638.524	0.0159177
638.602	0.0159033
638.681	0.0157134
638.759	0.0158247
638.837	0.0159799
638.915	0.0158656
638.993	0.0159084
639.071	0.0159897
639.149	0.0160400
639.227	0.0160178
639.306	0.0161013
639.384	0.0160548
639.462	0.0163105
639.540	0.0163227
639.618	0.0164211
639.696	0.0165544
639.774	0.0164533
639.852	0.0165608
639.931	0.0166505
640.009	0.0167699
640.087	0.0167957
640.165	0.0166721
640.243	0.0167212
640.321	0.0167914
640.399	0.0169058
640.477	0.0170022
640.556	0.0169621
640.634	0.0169630
640.712	0.0169444
640.790	0.0168134
640.868	0.0170760
640.946	0.0171011
641.024	0.0170117
641.102	0.0169543
641.181	0.0169115
641.259	0.0169473
641.337	0.0168151
641.415	0.0167715
641.493	0.0165726
641.571	0.0166315
641.649	0.0166351
641.727	0.0166398
641.806	0.0165891
641.884	0.0165182
641.962	0.0164691
642.040	0.0165280
642.118	0.0164474
642.196	0.0163593
642.274	0.0163669
642.352	0.0163857
642.431	0.0164250
642.509	0.0161939
642.587	0.0161518
642.665	0.0163081
642.743	0.0161585
642.821	0.0160374
642.899	0.0162692
642.977	0.0161393
643.056	0.0162047
643.134	0.0162331
643.212	0.0161158
643.290	0.0162124
643.368	0.0162321
643.446	0.0162495
643.524	0.0161864
643.602	0.0162443
643.681	0.0162634
643.759	0.0162724
643.837	0.0162811
643.915	0.0162367
643.993	0.0164333
644.071	0.0164696
644.149	0.0164521
644.227	0.0164517
644.306	0.0164712
644.384	0.0165337
644.462	0.0164812
644.540	0.0164767
644.618	0.0165134
644.696	0.0165150
644.774	0.0165682
644.852	0.0165376
644.931	0.0165107
645.009	0.0165820
645.087	0.0165012
645.165	0.0164806
645.243	0.0165051
645.321	0.0164055
645.399	0.0164343
645.477	0.0166759
645.556	0.0166603
645.634	0.0166110
645.712	0.0164723
645.790	0.0165553
645.868	0.0165694
645.946	0.0164051
646.024	0.0165865
646.102	0.0165539
646.181	0.0165767
646.259	0.0165143
646.337	0.0167097
646.415	0.0167695
646.493	0.0166450
646.571	0.0165811
646.649	0.0164723
646.727	0.0165973
646.806	0.0166775
646.884	0.0166012
646.962	0.0165879
647.040	0.0166885
647.118	0.0165561
647.196	0.0164885
647.274	0.0165899
647.352	0.0165689
647.431	0.0165154
647.509	0.0164993
647.587	0.0165019
647.665	0.0163547
647.743	0.0163455
647.821	0.0164141
647.899	0.0162878
647.977	0.0163741
648.056	0.0163520
648.134	0.0162775
648.212	0.0163130
648.290	0.0162215
648.368	0.0162044
648.446	0.0163663
648.524	0.0164220
648.602	0.0163444
648.681	0.0162098
648.759	0.0161546
648.837	0.0163824
648.915	0.0162174
648.993	0.0160876
649.071	0.0162025
649.149	0.0162202
649.227	0.0160948
649.306	0.0161807
649.384	0.0161654
649.462	0.0161509
649.540	0.0161593
649.618	0.0160876
649.696	0.0159716
649.774	0.0160598
649.852	0.0161641
649.931	0.0162111
650.009	0.0161317
650.087	0.0162011
650.165	0.0162484
650.243	0.0161977
650.321	0.0163039
650.399	0.0162454
650.477	0.0162127
650.556	0.0162809
650.634	0.0162573
650.712	0.0162626
650.790	0.0162156
650.868	0.0163780
650.946	0.0163737
651.024	0.0165324
651.102	0.0161608
651.181	0.0164216
651.259	0.0164736
651.337	0.0164921
651.415	0.0164312
651.493	0.0164403
651.571	0.0166047
651.649	0.0165083
651.727	0.0165562
651.806	0.0165314
651.884	0.0165611
651.962	0.0166607
652.040	0.0166763
652.118	0.0166265
652.196	0.0167504
652.274	0.0165410
652.352	0.0168529
652.431	0.0168100
652.509	0.0166033
652.587	0.0167309
652.665	0.0168068
652.743	0.0168727
652.821	0.0168294
652.899	0.0167828
652.977	0.0167278
653.056	0.0167794
653.134	0.0167902
653.212	0.0166610
653.290	0.0166786
653.368	0.0167022
653.446	0.0166959
653.524	0.0167208
653.602	0.0167373
653.681	0.0165057
653.759	0.0165084
653.837	0.0164842
653.915	0.0164748
653.993	0.0164703
654.071	0.0163875
654.149	0.0163898
654.227	0.0163929
654.306	0.0163519
654.384	0.0163408
654.462	0.0160434
654.540	0.0161492
654.618	0.0160493
654.696	0.0161372
654.774	0.0160672
654.852	0.0159362
654.931	0.0160529
655.009	0.0159716
655.087	0.0158151
655.165	0.0159357
655.243	0.0158752
655.321	0.0160271
655.399	0.0159549
655.477	0.0159387
655.556	0.0159634
655.634	0.0159724
655.712	0.0158810
655.790	0.0159109
655.868	0.0159578
655.946	0.0161037
656.024	0.0161418
656.102	0.0161648
656.181	0.0161291
656.259	0.0162674
656.337	0.0161313
656.415	0.0162587
656.493	0.0163195
656.571	0.0163232
656.649	0.0164324
656.727	0.0165302
656.806	0.0165330
656.884	0.0165155
656.962	0.0167960
657.040	0.0166668
657.118	0.0166504
657.196	0.0167194
657.274	0.0168506
657.352	0.0166438
657.431	0.0168456
657.509	0.0168898
657.587	0.0168359
657.665	0.0169292
657.743	0.0169789
657.821	0.0169524
657.899	0.0167134
657.977	0.0168181
658.056	0.0169696
658.134	0.0168229
658.212	0.0166863
658.290	0.0167648
658.368	0.0167199
658.446	0.0167224
658.524	0.0166078
658.602	0.0165445
658.681	0.0165097
658.759	0.0164771
658.837	0.0163708
658.915	0.0163502
658.993	0.0164160
659.071	0.0163163
659.149	0.0163509
659.227	0.0162234
659.306	0.0162274
659.384	0.0161708
659.462	0.0161211
659.540	0.0161154
659.618	0.0160657
659.696	0.0160784
659.774	0.0160497
659.852	0.0160784
659.931	0.0159304
660.009	0.0160515
660.087	0.0159664
660.165	0.0160974
660.243	0.0161017
660.321	0.0159001
660.399	0.0160941
660.477	0.0161401
660.556	0.0161296
660.634	0.0158910
660.712	0.0161079
660.790	0.0160395
660.868	0.0160892
660.946	0.0161454
661.024	0.0162318
661.102	0.0162161
661.181	0.0163976
661.259	0.0162145
661.337	0.0163384
661.415	0.0164919
661.493	0.0164653
661.571	0.0164302
661.649	0.0165154
661.727	0.0165302
661.806	0.0165408
661.884	0.0165903
661.962	0.0166747
662.040	0.0166295
662.118	0.0166775
662.196	0.0165827
662.274	0.0165849
662.352	0.0167180
662.431	0.0166316
662.509	0.0167657
662.587	0.0166970
662.665	0.0166590
662.743	0.0166302
662.821	0.0168012
662.899	0.0166920
662.977	0.0165509
663.056	0.0167532
663.134	0.0166866
663.212	0.0167376
663.290	0.0169000
663.368	0.0166608
663.446	0.0166286
663.524	0.0166325
663.602	0.0165308
663.681	0.0166321
663.759	0.0165349
663.837	0.0163968
663.915	0.0165255
663.993	0.0163835
664.071	0.0163051
664.149	0.0164215
664.227	0.0164404
664.306	0.0163265
664.384	0.0164030
664.462	0.0165323
664.540	0.0164908
664.618	0.0163891
664.696	0.0163718
664.774	0.0164460
664.852	0.0163113
664.931	0.0163433
665.009	0.0161948
665.087	0.0163357
665.165	0.0163200
665.243	0.0162598
665.321	0.0161521
665.399	0.0161541
665.477	0.0161619
665.556	0.0162286
665.634	0.0161707
665.712	0.0160479
665.790	0.0160529
665.868	0.0160760
665.946	0.0160950
666.024	0.0162912
666.102	0.0161819
666.181	0.0162545
666.259	0.0162285
666.337	0.0162592
666.415	0.0163724
666.493	0.0164138
666.571	0.0163475
666.649	0.0163035
666.727	0.0163010
666.806	0.0164835
666.884	0.0164607
666.962	0.0165600
667.040	0.0166640
667.118	0.0165614
667.196	0.0164131
667.274	0.0165450
667.352	0.0167382
667.431	0.0164860
667.509	0.0164824
667.587	0.0163683
667.665	0.0165617
667.743	0.0166773
667.821	0.0166236
667.899	0.0166914
667.977	0.0166823
668.056	0.0166019
668.134	0.0165349
668.212	0.0165824
668.290	0.0165330
668.368	0.0165734
668.446	0.0167228
668.524	0.0165488
668.602	0.0165999
668.681	0.0165627
668.759	0.0165757
668.837	0.0164875
668.915	0.0165305
668.993	0.0166140
669.071	0.0164091
669.149	0.0163528
669.227	0.0163859
669.306	0.0163440
669.384	0.0163178
669.462	0.0164152
669.540	0.0162675
669.618	0.0163780
669.696	0.0163721
669.774	0.0162635
669.852	0.0162349
669.931	0.0162659
670.009	0.0162589
670.087	0.0162160
670.165	0.0161420
670.243	0.0160786
670.321	0.0161552
670.399	0.0161345
670.477	0.0161191
670.556	0.0162086
670.634	0.0161565
670.712	0.0161285
670.790	0.0161359
670.868	0.0162037
670.946	0.0162752
671.024	0.0162624
671.102	0.0161322
671.181	0.0162126
671.259	0.0162706
671.337	0.0163683
671.415	0.0164224
671.493	0.0162503
671.571	0.0164967
671.649	0.0164511
671.727	0.0166688
671.806	0.0164835
671.884	0.0166048
671.962	0.0167497
672.040	0.0167788
672.118	0.0166307
672.196	0.0167932
672.274	0.0167273
672.352	0.0167815
672.431	0.0168380
672.509	0.0167694
672.587	0.0168980
672.665	0.0167854
672.743	0.0166701
672.821	0.0166946
672.899	0.0165789
672.977	0.0168095
673.056	0.0167014
673.134	0.0167073
673.212	0.0166496
673.290	0.0165099
673.368	0.0164923
673.446	0.0165292
673.524	0.0164792
673.602	0.0164709
673.681	0.0164285
673.759	0.0163747
673.837	0.0163581
673.915	0.0162944
673.993	0.0163993
674.071	0.0160864
674.149	0.0162541
674.227	0.0161729
674.306	0.0161484
674.384	0.0161281
674.462	0.0163136
674.540	0.0161609
674.618	0.0161567
674.696	0.0162429
674.774	0.0163681
674.852	0.0161962
674.931	0.0161919
675.009	0.0161448
675.087	0.0162626
675.165	0.0162624
675.243	0.0163053
675.321	0.0163789
675.399	0.0163334
675.477	0.0162226
675.556	0.0163282
675.634	0.0164463
675.712	0.0163288
675.790	0.0162888
675.868	0.0163573
675.946	0.0162677
676.024	0.0163723
676.102	0.0164333
676.181	0.0162671
676.259	0.0163193
676.337	0.0163479
676.415	0.0164144
676.493	0.0163393
676.571	0.0162811
676.649	0.0164645
676.727	0.0165296
676.806	0.0165297
676.884	0.0163522
676.962	0.0164471
677.040	0.0166486
677.118	0.0166299
677.196	0.0165822
677.274	0.0165928
677.352	0.0165431
677.431	0.0166207
677.509	0.0165917
677.587	0.0166095
677.665	0.0164456
677.743	0.0164443
677.821	0.0165794
677.899	0.0164956
677.977	0.0164708
678.056	0.0164295
678.134	0.0163940
678.212	0.0164346
678.290	0.0163434
678.368	0.0165190
678.446	0.0164219
678.524	0.0163312
678.602	0.0164085
678.681	0.0164034
678.759	0.0163150
678.837	0.0162799
678.915	0.0163215
678.993	0.0161359
679.071	0.0161815
679.149	0.0162356
679.227	0.0162930
679.306	0.0162263
679.384	0.0161845
679.462	0.0162391
679.540	0.0161425
679.618	0.0161194
679.696	0.0162253
679.774	0.0160432
679.852	0.0162557
679.931	0.0162594
680.009	0.0161473
680.087	0.0160540
680.165	0.0161946
680.243	0.0162683
680.321	0.0162154
680.399	0.0163024
680.477	0.0162624
680.556	0.0162341
680.634	0.0162263
680.712	0.0164206
680.790	0.0163212
680.868	0.0163508
680.946	0.0164272
681.024	0.0165008
681.102	0.0164697
681.181	0.0164336
681.259	0.0166215
681.337	0.0166338
681.415	0.0165675
681.493	0.0167275
681.571	0.0167175
681.649	0.0167970
681.727	0.0167930
681.806	0.0169038
681.884	0.0168533
681.962	0.0168180
682.040	0.0168275
682.118	0.0167828
682.196	0.0167540
682.274	0.0169910
682.352	0.0169376
682.431	0.0167912
682.509	0.0167936
682.587	0.0167948
682.665	0.0167603
682.743	0.0168546
682.821	0.0167236
682.899	0.0166997
682.977	0.0166851
683.056	0.0165898
683.134	0.0165046
683.212	0.0164543
683.290	0.0164394
683.368	0.0162688
683.446	0.0161562
683.524	0.0161722
683.602	0.0162923
683.681	0.0161844
683.759	0.0161339
683.837	0.0160418
683.915	0.0161243
683.993	0.0161328
684.071	0.0161353
684.149	0.0160438
684.227	0.0161420
684.306	0.0161156
684.384	0.0161527
684.462	0.0163029
684.540	0.0161055
684.618	0.0161996
684.696	0.0162524
684.774	0.0161671
684.852	0.0163511
684.931	0.0162410
685.009	0.0161600
685.087	0.0161063
685.165	0.0160728
685.243	0.0162363
685.321	0.0163358
685.399	0.0162411
685.477	0.0161951
685.556	0.0162534
685.634	0.0161526
685.712	0.0162911
685.790	0.0162534
685.868	0.0163023
685.946	0.0163063
686.024	0.0164135
686.102	0.0163610
686.181	0.0163063
686.259	0.0163976
686.337	0.0163828
686.415	0.0161864
686.493	0.0164076
686.571	0.0164486
686.649	0.0165482
686.727	0.0164599
686.806	0.0164767
686.884	0.0163786
686.962	0.0163062
687.040	0.0164803
687.118	0.0165109
687.196	0.0164850
687.274	0.0165852
687.352	0.0166228
687.431	0.0165824
687.509	0.0165215
687.587	0.0164301
687.665	0.0164687
687.743	0.0164850
687.821	0.0165100
687.899	0.0165022
687.977	0.0164868
688.056	0.0163483
688.134	0.0163444
688.212	0.0164790
688.290	0.0164158
688.368	0.0163459
688.446	0.0164478
688.524	0.0163609
688.602	0.0163490
688.681	0.0165040
688.759	0.0163860
688.837	0.0163914
688.915	0.0164285
688.993	0.0163599
689.071	0.0162901
689.149	0.0163663
689.227	0.0162917
689.306	0.0162465
689.384	0.0160858
689.462	0.0160252
689.540	0.0161021
689.618	0.0159959
689.696	0.0161563
689.774	0.0160536
689.852	0.0159220
689.931	0.0159512
690.009	0.0158708
690.087	0.0160976
690.165	0.0159124
690.243	0.0159914
690.321	0.0161881
690.399	0.0161096
690.477	0.0162067
690.556	0.0161369
690.634	0.0162732
690.712	0.0163584
690.790	0.0163458
690.868	0.0164158
690.946	0.0164581
691.024	0.0164111
691.102	0.0165461
691.181	0.0164955
691.259	0.0165724
691.337	0.0166684
691.415	0.0166088
691.493	0.0166348
691.571	0.0166698
691.649	0.0167686
691.727	0.0168476
691.806	0.0167413
691.884	0.0168267
691.962	0.0170609
692.040	0.0169205
692.118	0.0168990
692.196	0.0170492
692.274	0.0171519
692.352	0.0169374
692.431	0.0170561
692.509	0.0170188
692.587	0.0169453
692.665	0.0169456
692.743	0.0169509
692.821	0.0169279
692.899	0.0169190
692.977	0.0168147
693.056	0.0167697
693.134	0.0168094
693.212	0.0167986
693.290	0.0166535
693.368	0.0166142
693.446	0.0166259
693.524	0.0166505
693.602	0.0164684
693.681	0.0164112
693.759	0.0165669
693.837	0.0162826
693.915	0.0162301
693.993	0.0162817
694.071	0.0161506
694.149	0.0162766
694.227	0.0160983
694.306	0.0160676
694.384	0.0160795
694.462	0.0159051
694.540	0.0160453
694.618	0.0160201
694.696	0.0159438
694.774	0.0159740
694.852	0.0161412
694.931	0.0161440
695.009	0.0159890
695.087	0.0161106
695.165	0.0160764
695.243	0.0162678
695.321	0.0162154
695.399	0.0161249
695.477	0.0162480
695.556	0.0163831
695.634	0.0164238
695.712	0.0164464
695.790	0.0164792
695.868	0.0165924
695.946	0.0166544
696.024	0.0165373
696.102	0.0164449
696.181	0.0165366
696.259	0.0166419
696.337	0.0166915
696.415	0.0166953
696.493	0.0166545
696.571	0.0167046
696.649	0.0166612
696.727	0.0166523
696.806	0.0166463
696.884	0.0167001
696.962	0.0167053
697.040	0.0165852
697.118	0.0166628
697.196	0.0166067
697.274	0.0165168
697.352	0.0164848
697.431	0.0166074
697.509	0.0165668
697.587	0.0165352
697.665	0.0164306
697.743	0.0164285
697.821	0.0164612
697.899	0.0165053
697.977	0.0164476
698.056	0.0165192
698.134	0.0163306
698.212	0.0164736
698.290	0.0166798
698.368	0.0165655
698.446	0.0165173
698.524	0.0166492
698.602	0.0166167
698.681	0.0166058
698.759	0.0164602
698.837	0.0166426
698.915	0.0166385
698.993	0.0165046
699.071	0.0165775
699.149	0.0166209
699.227	0.0166673
699.306	0.0166072
699.384	0.0166322
699.462	0.0165568
699.540	0.0165857
699.618	0.0165594
699.696	0.0165226
699.774	0.0165063
699.852	0.0165253
699.931	0.0165797
700.009	0.0164902
700.087	0.0163515
700.165	0.0163908
700.243	0.0163941
700.321	0.0162099
700.399	0.0161447
700.477	0.0162943
700.556	0.0162317
700.634	0.0160843
700.712	0.0160715
700.790	0.0163321
700.868	0.0161265
700.946	0.0159579
701.024	0.0161251
701.102	0.0161758
701.181	0.0160536
701.259	0.0159101
701.337	0.0160808
701.415	0.0162358
701.493	0.0161471
701.571	0.0161075
701.649	0.0162032
701.727	0.0161214
701.806	0.0162321
701.884	0.0163320
701.962	0.0163135
702.040	0.0161976
702.118	0.0162976
702.196	0.0162626
702.274	0.0163462
702.352	0.0165070
702.431	0.0165812
702.509	0.0164515
702.587	0.0165944
702.665	0.0165638
702.743	0.0166091
702.821	0.0165497
702.899	0.0165125
702.977	0.0165591
703.056	0.0165903
703.134	0.0165064
703.212	0.0166193
703.290	0.0165766
703.368	0.0165646
703.446	0.0163769
703.524	0.0163239
703.602	0.0164713
703.681	0.0163985
703.759	0.0165945
703.837	0.0165886
703.915	0.0164047
703.993	0.0163154
704.071	0.0162733
704.149	0.0163283
704.227	0.0162429
704.306	0.0163593
704.384	0.0162304
704.462	0.0162446
704.540	0.0161648
704.618	0.0164090
704.696	0.0162173
704.774	0.0162755
704.852	0.0163240
704.931	0.0162334
705.009	0.0161784
705.087	0.0161942
705.165	0.0162766
705.243	0.0163091
705.321	0.0164380
705.399	0.0162767
705.477	0.0161518
705.556	0.0163745
705.634	0.0164086
705.712	0.0164999
705.790	0.0164474
705.868	0.0163737
705.946	0.0165450
706.024	0.0166868
706.102	0.0166953
706.181	0.0166711
706.259	0.0166578
706.337	0.0166122
706.415	0.0167361
706.493	0.0165691
706.571	0.0165826
706.649	0.0166573
706.727	0.0164941
706.806	0.0165745
706.884	0.0165195
706.962	0.0165373
707.040	0.0164154
707.118	0.0164802
707.196	0.0163612
707.274	0.0163142
707.352	0.0161395
707.431	0.0162740
707.509	0.0161444
707.587	0.0162601
707.665	0.0162980
707.743	0.0162143
707.821	0.0163985
707.899	0.0162559
707.977	0.0163136
708.056	0.0163260
708.134	0.0163935
708.212	0.0164731
708.290	0.0163869
708.368	0.0162662
708.446	0.0165067
708.524	0.0165308
708.602	0.0164669
708.681	0.0167034
708.759	0.0166561
708.837	0.0165920
708.915	0.0166886
708.993	0.0166601
709.071	0.0165622
709.149	0.0166989
709.227	0.0164687
709.306	0.0168075
709.384	0.0167494
709.462	0.0167545
709.540	0.0165902
709.618	0.0166954
709.696	0.0169476
709.774	0.0167652
709.852	0.0167367
709.931	0.0168787
710.009	0.0169767
710.087	0.0169489
710.165	0.0169050
710.243	0.0168166
710.321	0.0169785
710.399	0.0170930
710.477	0.0169632
710.556	0.0169168
710.634	0.0168284
710.712	0.0168953
710.790	0.0168914
710.868	0.0168114
710.946	0.0166611
711.024	0.0167215
711.102	0.0166729
711.181	0.0166956
711.259	0.0166382
711.337	0.0164973
711.415	0.0164985
711.493	0.0165293
711.571	0.0164879
711.649	0.0162203
711.727	0.0162883
711.806	0.0164423
711.884	0.0162051
711.962	0.0161964
712.040	0.0162845
712.118	0.0162292
712.196	0.0161736
712.274	0.0160737
712.352	0.0161971
712.431	0.0162022
712.509	0.0160544
712.587	0.0161230
712.665	0.0161138
712.743	0.0160823
712.821	0.0160358
712.899	0.0160603
712.977	0.0160370
713.056	0.0161831
713.134	0.0160711
713.212	0.0160706
713.290	0.0160276
713.368	0.0161531
713.446	0.0161983
713.524	0.0163045
713.602	0.0162750
713.681	0.0161974
713.759	0.0162838
713.837	0.0162802
713.915	0.0163358
713.993	0.0164120
714.071	0.0163583
714.149	0.0164572
714.227	0.0163809
714.306	0.0164822
714.384	0.0164226
714.462	0.0163952
714.540	0.0163120
714.618	0.0165579
714.696	0.0164896
714.774	0.0165445
714.852	0.0164776
714.931	0.0165199
715.009	0.0165542
715.087	0.0165867
715.165	0.0167551
715.243	0.0165628
715.321	0.0165434
715.399	0.0166103
715.477	0.0166879
715.556	0.0165223
715.634	0.0164274
715.712	0.0165072
715.790	0.0164558
715.868	0.0165742
715.946	0.0165314
716.024	0.0165379
716.102	0.0164529
716.181	0.0163918
716.259	0.0162523
716.337	0.0163535
716.415	0.0165355
716.493	0.0164114
716.571	0.0164403
716.649	0.0162850
716.727	0.0164302
716.806	0.0165150
716.884	0.0165042
716.962	0.0163480
717.040	0.0164780
717.118	0.0165309
717.196	0.0165282
717.274	0.0165086
717.352	0.0164955
717.431	0.0165434
717.509	0.0164351
717.587	0.0165819
717.665	0.0164986
717.743	0.0164054
717.821	0.0164644
717.899	0.0165246
717.977	0.0163538
718.056	0.0164138
718.134	0.0165245
718.212	0.0163163
718.290	0.0164298
718.368	0.0164305
718.446	0.0163818
718.524	0.0163820
718.602	0.0164848
718.681	0.0164508
718.759	0.0164160
718.837	0.0163663
718.915	0.0164051
718.993	0.0164177
719.071	0.0164285
719.149	0.0163553
719.227	0.0163896
719.306	0.0162457
719.384	0.0162888
719.462	0.0163638
719.540	0.0162292
719.618	0.0163397
719.696	0.0163325
719.774	0.0163274
719.852	0.0162095
719.931	0.0162840
720.009	0.0161572
720.087	0.0161620
720.165	0.0162299
720.243	0.0163603
720.321	0.0162009
720.399	0.0161594
720.477	0.0162944
720.556	0.0163441
720.634	0.0162362
720.712	0.0163017
720.790	0.0163375
720.868	0.0163774
720.946	0.0164150
721.024	0.0164474
721.102	0.0165163
721.181	0.0164659
721.259	0.0164522
721.337	0.0164597
721.415	0.0165355
721.493	0.0165243
721.571	0.0165154
721.649	0.0165011
721.727	0.0166093
721.806	0.0166520
721.884	0.0165625
721.962	0.0166000
722.040	0.0166671
722.118	0.0165856
722.196	0.0166325
722.274	0.0168131
722.352	0.0167121
722.431	0.0167137
722.509	0.0166463
722.587	0.0165155
722.665	0.0167309
722.743	0.0167677
722.821	0.0166928
722.899	0.0165994
722.977	0.0165300
723.056	0.0166836
723.134	0.0167346
723.212	0.0166022
723.290	0.0165242
723.368	0.0165270
723.446	0.0165681
723.524	0.0166883
723.602	0.0165660
723.681	0.0165173
723.759	0.0165320
723.837	0.0164491
723.915	0.0164851
723.993	0.0165340
724.071	0.0166998
724.149	0.0166236
724.227	0.0164300
724.306	0.0165350
724.384	0.0165041
724.462	0.0165464
724.540	0.0163953
724.618	0.0165520
724.696	0.0166351
724.774	0.0164718
724.852	0.0164410
724.931	0.0164951
725.009	0.0165024
725.087	0.0163953
725.165	0.0164430
725.243	0.0164288
725.321	0.0165776
725.399	0.0163545
725.477	0.0164017
725.556	0.0164193
725.634	0.0165365
725.712	0.0165895
725.790	0.0164815
725.868	0.0165633
725.946	0.0163888
726.024	0.0165500
726.102	0.0164923
726.181	0.0164630
726.259	0.0165746
726.337	0.0166110
726.415	0.0166174
726.493	0.0166628
726.571	0.0166349
726.649	0.0166201
726.727	0.0165292
726.806	0.0164755
726.884	0.0165958
726.962	0.0167640
727.040	0.0165572
727.118	0.0164848
727.196	0.0165303
727.274	0.0165264
727.352	0.0165556
727.431	0.0165016
727.509	0.0163640
727.587	0.0166283
727.665	0.0164286
727.743	0.0163702
727.821	0.0164567
727.899	0.0164451
727.977	0.0165519
728.056	0.0165853
728.134	0.0162588
728.212	0.0164298
728.290	0.0164846
728.368	0.0165188
728.446	0.0165547
728.524	0.0165369
728.602	0.0164977
728.681	0.0164607
728.759	0.0165619
728.837	0.0164871
728.915	0.0165071
728.993	0.0165207
729.071	0.0165300
729.149	0.0165282
729.227	0.0163428
729.306	0.0163319
729.384	0.0163352
729.462	0.0162297
729.540	0.0163747
729.618	0.0162740
729.696	0.0163457
729.774	0.0162044
729.852	0.0163969
729.931	0.0163422
730.009	0.0163096
730.087	0.0162685
730.165	0.0164861
730.243	0.0163546
730.321	0.0164436
730.399	0.0163947
730.477	0.0164914
730.556	0.0163436
730.634	0.0163998
730.712	0.0164555
730.790	0.0164125
730.868	0.0164581
730.946	0.0164166
731.024	0.0165144
731.102	0.0165296
731.181	0.0165692
731.259	0.0165511
731.337	0.0164068
731.415	0.0165336
731.493	0.0164674
731.571	0.0164442
731.649	0.0164394
731.727	0.0164955
731.806	0.0165624
731.884	0.0166138
731.962	0.0165205
732.040	0.0165992
732.118	0.0165553
732.196	0.0164978
732.274	0.0165386
732.352	0.0165817
732.431	0.0164104
732.509	0.0164131
732.587	0.0163796
732.665	0.0163753
732.743	0.0163437
732.821	0.0164120
732.899	0.0163309
732.977	0.0164512
733.056	0.0164734
733.134	0.0164011
733.212	0.0162321
733.290	0.0163718
733.368	0.0163143
733.446	0.0163289
733.524	0.0162740
733.602	0.0163393
733.681	0.0163073
733.759	0.0163372
733.837	0.0162414
733.915	0.0163903
733.993	0.0162334
734.071	0.0163640
734.149	0.0164309
734.227	0.0163033
734.306	0.0164826
734.384	0.0162225
734.462	0.0162827
734.540	0.0163349
734.618	0.0165142
734.696	0.0164837
734.774	0.0163708
734.852	0.0163834
734.931	0.0164638
735.009	0.0163824
735.087	0.0164649
735.165	0.0165279
735.243	0.0164510
735.321	0.0164369
735.399	0.0163994
735.477	0.0165811
735.556	0.0164230
735.634	0.0164133
735.712	0.0165820
735.790	0.0165145
735.868	0.0165327
735.946	0.0165244
736.024	0.0163966
736.102	0.0166171
736.181	0.0165247
736.259	0.0165919
736.337	0.0165529
736.415	0.0166090
736.493	0.0165730
736.571	0.0165217
736.649	0.0166425
736.727	0.0166524
736.806	0.0166122
736.884	0.0165736
736.962	0.0166441
737.040	0.0166971
737.118	0.0165723
737.196	0.0166215
737.274	0.0166208
737.352	0.0166333
737.431	0.0166222
737.509	0.0165064
737.587	0.0166071
737.665	0.0165675
737.743	0.0165010
737.821	0.0165344
737.899	0.0166186
737.977	0.0164648
738.056	0.0164555
738.134	0.0163763
738.212	0.0163052
738.290	0.0163772
738.368	0.0164539
738.446	0.0164181
738.524	0.0163148
738.602	0.0163193
738.681	0.0163850
738.759	0.0163352
738.837	0.0163493
738.915	0.0163358
738.993	0.0163278
739.071	0.0162439
739.149	0.0163197
739.227	0.0162018
739.306	0.0162587
739.384	0.0163035
739.462	0.0162927
739.540	0.0161761
739.618	0.0162080
739.696	0.0161344
739.774	0.0162862
739.852	0.0162373
739.931	0.0161107
740.009	0.0162881
740.087	0.0163506
740.165	0.0162383
740.243	0.0162667
740.321	0.0161634
740.399	0.0161362
740.477	0.0161805
740.556	0.0162791
740.634	0.0163316
740.712	0.0164385
740.790	0.0162951
740.868	0.0162121
740.946	0.0162145
741.024	0.0163338
741.102	0.0163474
741.181	0.0162269
741.259	0.0162811
741.337	0.0164729
741.415	0.0162802
741.493	0.0164304
741.571	0.0164191
741.649	0.0165433
741.727	0.0165802
741.806	0.0164477
741.884	0.0162867
741.962	0.0164758
742.040	0.0164636
742.118	0.0164010
742.196	0.0164035
742.274	0.0164538
742.352	0.0165032
742.431	0.0164844
742.509	0.0165282
742.587	0.0163673
742.665	0.0164168
742.743	0.0165947
742.821	0.0165099
742.899	0.0165052
742.977	0.0164809
743.056	0.0163428
743.134	0.0164256
743.212	0.0164194
743.290	0.0163165
743.368	0.0163921
743.446	0.0163873
743.524	0.0163347
743.602	0.0164032
743.681	0.0164765
743.759	0.0163876
743.837	0.0165893
743.915	0.0164812
743.993	0.0164669
744.071	0.0164927
744.149	0.0163536
744.227	0.0164245
744.306	0.0164046
744.384	0.0164406
744.462	0.0163741
744.540	0.0164987
744.618	0.0165677
744.696	0.0164074
744.774	0.0163432
744.852	0.0165468
744.931	0.0165559
745.009	0.0164369
745.087	0.0164783
745.165	0.0165674
745.243	0.0166035
745.321	0.0165568
745.399	0.0165934
745.477	0.0165638
745.556	0.0166424
745.634	0.0165813
745.712	0.0164617
745.790	0.0165941
745.868	0.0166721
745.946	0.0165134
746.024	0.0165282
746.102	0.0166106
746.181	0.0166013
746.259	0.0165178
746.337	0.0165052
746.415	0.0165133
746.493	0.0165427
746.571	0.0165702
746.649	0.0166209
746.727	0.0165951
746.806	0.0165849
746.884	0.0164584
746.962	0.0166626
747.040	0.0165913
747.118	0.0165218
747.196	0.0162717
747.274	0.0164921
747.352	0.0165664
747.431	0.0166379
747.509	0.0165998
747.587	0.0165519
747.665	0.0166114
747.743	0.0165353
747.821	0.0164473
747.899	0.0165913
747.977	0.0165292
748.056	0.0164858
748.134	0.0164827
748.212	0.0164584
748.290	0.0165337
748.368	0.0166177
748.446	0.0165233
748.524	0.0166065
748.602	0.0165491
748.681	0.0166195
748.759	0.0166171
748.837	0.0164397
748.915	0.0164352
748.993	0.0164135
749.071	0.0165869
749.149	0.0165406
749.227	0.0164658
749.306	0.0165421
749.384	0.0163544
749.462	0.0164957
749.540	0.0165038
749.618	0.0164424
749.696	0.0164776
749.774	0.0165112
749.852	0.0164616
749.931	0.0165812
750.009	0.0164870
750.087	0.0164354
750.165	0.0163187
750.243	0.0164275
750.321	0.0164674
750.399	0.0163725
750.477	0.0163792
750.556	0.0162976
750.634	0.0164561
750.712	0.0163895
750.790	0.0165118
750.868	0.0163140
750.946	0.0164034
751.024	0.0162759
751.102	0.0163646
751.181	0.0163205
751.259	0.0163643
751.337	0.0162793
751.415	0.0163052
751.493	0.0163017
751.571	0.0163121
751.649	0.0163206
751.727	0.0163426
751.806	0.0161934
751.884	0.0162231
751.962	0.0162612
752.040	0.0161227
752.118	0.0162041
752.196	0.0163088
752.274	0.0161361
752.352	0.0160375
752.431	0.0161663
752.509	0.0162136
752.587	0.0161477
752.665	0.0161779
752.743	0.0161306
752.821	0.0161289
752.899	0.0161521
752.977	0.0162008
753.056	0.0163022
753.134	0.0162830
753.212	0.0163586
753.290	0.0162566
753.368	0.0163010
753.446	0.0163689
753.524	0.0164760
753.602	0.0163277
753.681	0.0163351
753.759	0.0165695
753.837	0.0163754
753.915	0.0163279
753.993	0.0164123
754.071	0.0164927
754.149	0.0163963
754.227	0.0164946
754.306	0.0164725
754.384	0.0164084
754.462	0.0166113
754.540	0.0165186
754.618	0.0164257
754.696	0.0165334
754.774	0.0165605
754.852	0.0164079
754.931	0.0165637
755.009	0.0166027
755.087	0.0164296
755.165	0.0164727
755.243	0.0165508
755.321	0.0165353
755.399	0.0166078
755.477	0.0166109
755.556	0.0166013
755.634	0.0165334
755.712	0.0165820
755.790	0.0164822
755.868	0.0165039
755.946	0.0165083
756.024	0.0165035
756.102	0.0165384
756.181	0.0163960
756.259	0.0163474
756.337	0.0162392
756.415	0.0163711
756.493	0.0162139
756.571	0.0164214
756.649	0.0163793
756.727	0.0164522
756.806	0.0162766
756.884	0.0163889
756.962	0.0162553
757.040	0.0163706
757.118	0.0163744
757.196	0.0163824
757.274	0.0163446
757.352	0.0163474
757.431	0.0163786
757.509	0.0162817
757.587	0.0163390
757.665	0.0163870
757.743	0.0164259
757.821	0.0163261
757.899	0.0163376
757.977	0.0164597
758.056	0.0164426
758.134	0.0164565
758.212	0.0164275
758.290	0.0164376
758.368	0.0163142
758.446	0.0163164
758.524	0.0165340
758.602	0.0164120
758.681	0.0161859
758.759	0.0162770
758.837	0.0164552
758.915	0.0164834
758.993	0.0165476
759.071	0.0163581
759.149	0.0163760
759.227	0.0164737
759.306	0.0164451
759.384	0.0162399
759.462	0.0164176
759.540	0.0162693
759.618	0.0165440
759.696	0.0164858
759.774	0.0163976
759.852	0.0164513
759.931	0.0164017
760.009	0.0163815
760.087	0.0162340
760.165	0.0163278
760.243	0.0164133
760.321	0.0163062
760.399	0.0164005
760.477	0.0164400
760.556	0.0164217
760.634	0.0163181
760.712	0.0163710
760.790	0.0163139
760.868	0.0163188
760.946	0.0164071
761.024	0.0164362
761.102	0.0163203
761.181	0.0163697
761.259	0.0163289
761.337	0.0163212
761.415	0.0163586
761.493	0.0164232
761.571	0.0163734
761.649	0.0163531
761.727	0.0162774
761.806	0.0162969
761.884	0.0163505
761.962	0.0163457
762.040	0.0163152
762.118	0.0161327
762.196	0.0164628
762.274	0.0163137
762.352	0.0163304
762.431	0.0164185
762.509	0.0165543
762.587	0.0164285
762.665	0.0164462
762.743	0.0164649
762.821	0.0163435
762.899	0.0164729
762.977	0.0164131
763.056	0.0163741
763.134	0.0163368
763.212	0.0165548
763.290	0.0164870
763.368	0.0166397
763.446	0.0165145
763.524	0.0165015
763.602	0.0164891
763.681	0.0165085
763.759	0.0165836
763.837	0.0165655
763.915	0.0165222
763.993	0.0167501
764.071	0.0165350
764.149	0.0164122
764.227	0.0164982
764.306	0.0164707
764.384	0.0165800
764.462	0.0163593
764.540	0.0164302
764.618	0.0164520
764.696	0.0164978
764.774	0.0164558
764.852	0.0164938
764.931	0.0164454
765.009	0.0164513
765.087	0.0164647
765.165	0.0164870
765.243	0.0164760
765.321	0.0163865
765.399	0.0164510
765.477	0.0163641
765.556	0.0164873
765.634	0.0164452
765.712	0.0164169
765.790	0.0163979
765.868	0.0164139
765.946	0.0163100
766.024	0.0164708
766.102	0.0165562
766.181	0.0165431
766.259	0.0162666
766.337	0.0164238
766.415	0.0167004
766.493	0.0164577
766.571	0.0164601
766.649	0.0164867
766.727	0.0165204
766.806	0.0165036
766.884	0.0164806
766.962	0.0164930
767.040	0.0165038
767.118	0.0165751
767.196	0.0163031
767.274	0.0165047
767.352	0.0164911
767.431	0.0165495
767.509	0.0165187
767.587	0.0163220
767.665	0.0163812
767.743	0.0164474
767.821	0.0163699
767.899	0.0163748
767.977	0.0163956
768.056	0.0163126
768.134	0.0163525
768.212	0.0163908
768.290	0.0162111
768.368	0.0163298
768.446	0.0163014
768.524	0.0162685
768.602	0.0163788
768.681	0.0163474
768.759	0.0163649
768.837	0.0163971
768.915	0.0163322
768.993	0.0163704
769.071	0.0163635
769.149	0.0163912
769.227	0.0163853
769.306	0.0162311
769.384	0.0164060
769.462	0.0164252
769.540	0.0162484
769.618	0.0164120
769.696	0.0162445
769.774	0.0163110
769.852	0.0163825
769.931	0.0163660
770.009	0.0162522
770.087	0.0164591
770.165	0.0163230
770.243	0.0164595
770.321	0.0164113
770.399	0.0164027
770.477	0.0164667
770.556	0.0164505
770.634	0.0163651
770.712	0.0165028
770.790	0.0164771
770.868	0.0164423
770.946	0.0162196
771.024	0.0165098
771.102	0.0163512
771.181	0.0164885
771.259	0.0165932
771.337	0.0164664
771.415	0.0162968
771.493	0.0163835
771.571	0.0163091
771.649	0.0163477
771.727	0.0164268
771.806	0.0163467
771.884	0.0164150
771.962	0.0163525
772.040	0.0161224
772.118	0.0163849
772.196	0.0164172
772.274	0.0162345
772.352	0.0164014
772.431	0.0163239
772.509	0.0165402
772.587	0.0164940
772.665	0.0163406
772.743	0.0162247
772.821	0.0163691
772.899	0.0163352
772.977	0.0163715
773.056	0.0163825
773.134	0.0164011
773.212	0.0163731
773.290	0.0164890
773.368	0.0162933
773.446	0.0162970
773.524	0.0163824
773.602	0.0164216
773.681	0.0162386
773.759	0.0163316
773.837	0.0165197
773.915	0.0163567
773.993	0.0163698
774.071	0.0162759
774.149	0.0164548
774.227	0.0165150
774.306	0.0164197
774.384	0.0163889
774.462	0.0164227
774.540	0.0162514
774.618	0.0164869
774.696	0.0163464
774.774	0.0164007
774.852	0.0163918
774.931	0.0165246
775.009	0.0164660
775.087	0.0163061
775.165	0.0163225
775.243	0.0165253
775.321	0.0163929
775.399	0.0164189
775.477	0.0162714
775.556	0.0163010
775.634	0.0165303
775.712	0.0163709
775.790	0.0163538
775.868	0.0163629
775.946	0.0163116
776.024	0.0162537
776.102	0.0163939
776.181	0.0163927
776.259	0.0163174
776.337	0.0161961
776.415	0.0163660
776.493	0.0164244
776.571	0.0163324
776.649	0.0163693
776.727	0.0162930
776.806	0.0164522
776.884	0.0166086
776.962	0.0164549
777.040	0.0165079
777.118	0.0166140
777.196	0.0165898
777.274	0.0164390
777.352	0.0164709
777.431	0.0166054
777.509	0.0165873
777.587	0.0165369
777.665	0.0165913
777.743	0.0164748
777.821	0.0165688
777.899	0.0166465
777.977	0.0164500
778.056	0.0166301
778.134	0.0166621
778.212	0.0165378
778.290	0.0166655
778.368	0.0165407
778.446	0.0165309
778.524	0.0166936
778.602	0.0165334
778.681	0.0165320
778.759	0.0164789
778.837	0.0165579
778.915	0.0165948
778.993	0.0165002
779.071	0.0165121
779.149	0.0164681
779.227	0.0164077
779.306	0.0163893
779.384	0.0163286
779.462	0.0165272
779.540	0.0163476
779.618	0.0163371
779.696	0.0163808
779.774	0.0163855
779.852	0.0164091
779.931	0.0163159
780.009	0.0163017
780.087	0.0163931
780.165	0.0164770
780.243	0.0163324
780.321	0.0164484
780.399	0.0163129
780.477	0.0163297
780.556	0.0163321
780.634	0.0164262
780.712	0.0163852
780.790	0.0162358
780.868	0.0163395
780.946	0.0163064
781.024	0.0163583
781.102	0.0164590
781.181	0.0164060
781.259	0.0163673
781.337	0.0163023
781.415	0.0164617
781.493	0.0164983
781.571	0.0163908
781.649	0.0163505
781.727	0.0164101
781.806	0.0164017
781.884	0.0162608
781.962	0.0163450
782.040	0.0164494
782.118	0.0163966
782.196	0.0163525
782.274	0.0164812
782.352	0.0164426
782.431	0.0162930
782.509	0.0164473
782.587	0.0164969
782.665	0.0164191
782.743	0.0163294
782.821	0.0163154
782.899	0.0162650
782.977	0.0163905
783.056	0.0162855
783.134	0.0162637
783.212	0.0162686
783.290	0.0162236
783.368	0.0163799
783.446	0.0163819
783.524	0.0162424
783.602	0.0163595
783.681	0.0162693
783.759	0.0163562
783.837	0.0162336
783.915	0.0161252
783.993	0.0162218
784.071	0.0162682
784.149	0.0163187
784.227	0.0162533
784.306	0.0161996
784.384	0.0163292
784.462	0.0162139
784.540	0.0162513
784.618	0.0163053
784.696	0.0163667
784.774	0.0163160
784.852	0.0162728
784.931	0.0163448
785.009	0.0162421
785.087	0.0162720
785.165	0.0162006
785.243	0.0163322
785.321	0.0165355
785.399	0.0164429
785.477	0.0163657
785.556	0.0162176
785.634	0.0163048
785.712	0.0163644
785.790	0.0162582
785.868	0.0164000
785.946	0.0164440
786.024	0.0164297
786.102	0.0164048
786.181	0.0163454
786.259	0.0163027
786.337	0.0163398
786.415	0.0164419
786.493	0.0163792
786.571	0.0164103
786.649	0.0163551
786.727	0.0162643
786.806	0.0164080
786.884	0.0163132
786.962	0.0164185
787.040	0.0164736
787.118	0.0164116
787.196	0.0164653
787.274	0.0163880
787.352	0.0164568
787.431	0.0165508
787.509	0.0165307
787.587	0.0164159
787.665	0.0165507
787.743	0.0162819
787.821	0.0165269
787.899	0.0166545
787.977	0.0166138
788.056	0.0166975
788.134	0.0166316
788.212	0.0165871
788.290	0.0164992
788.368	0.0166496
788.446	0.0166891
788.524	0.0166016
788.602	0.0167064
788.681	0.0166940
788.759	0.0165840
788.837	0.0165511
788.915	0.0165707
788.993	0.0165919
789.071	0.0165018
789.149	0.0165507
789.227	0.0164606
789.306	0.0165410
789.384	0.0165305
789.462	0.0165053
789.540	0.0165295
789.618	0.0165241
789.696	0.0164185
789.774	0.0164459
789.852	0.0165250
789.931	0.0165710
790.009	0.0165900
790.087	0.0164753
790.165	0.0164559
790.243	0.0164185
790.321	0.0165694
790.399	0.0166500
790.477	0.0165844
790.556	0.0165655
790.634	0.0164540
790.712	0.0164239
790.790	0.0165001
790.868	0.0164694
790.946	0.0164586
791.024	0.0164674
791.102	0.0163929
791.181	0.0164410
791.259	0.0164706
791.337	0.0164559
791.415	0.0162988
791.493	0.0163958
791.571	0.0164178
791.649	0.0164383
791.727	0.0164021
791.806	0.0164075
791.884	0.0164988
791.962	0.0165331
792.040	0.0166186
792.118	0.0164959
792.196	0.0166182
792.274	0.0165766
792.352	0.0164169
792.431	0.0164780
792.509	0.0164626
792.587	0.0164285
792.665	0.0165892
792.743	0.0163868
792.821	0.0164414
792.899	0.0165585
792.977	0.0164153
793.056	0.0164397
793.134	0.0162991
793.212	0.0164089
793.290	0.0163944
793.368	0.0163811
793.446	0.0164674
793.524	0.0163943
793.602	0.0165358
793.681	0.0163195
793.759	0.0162370
793.837	0.0163175
793.915	0.0163605
793.993	0.0163801
794.071	0.0162847
794.149	0.0163367
794.227	0.0162719
794.306	0.0163601
794.384	0.0162325
794.462	0.0163391
794.540	0.0163631
794.618	0.0163546
794.696	0.0163943
794.774	0.0162540
794.852	0.0162780
794.931	0.0162043
795.009	0.0162945
795.087	0.0163367
795.165	0.0164405
795.243	0.0163412
795.321	0.0163362
795.399	0.0163924
795.477	0.0163908
795.556	0.0164030
795.634	0.0162952
795.712	0.0163502
795.790	0.0162456
795.868	0.0162981
795.946	0.0162390
796.024	0.0162770
796.102	0.0163272
796.181	0.0162408
796.259	0.0163014
796.337	0.0164098
796.415	0.0164094
796.493	0.0163412
796.571	0.0164261
796.649	0.0162610
796.727	0.0163999
796.806	0.0164054
796.884	0.0164917
796.962	0.0164694
797.040	0.0166301
797.118	0.0164308
797.196	0.0163556
797.274	0.0163832
797.352	0.0165593
797.431	0.0164729
797.509	0.0164175
797.587	0.0165176
797.665	0.0164995
797.743	0.0165201
797.821	0.0165231
797.899	0.0164218
797.977	0.0164138
798.056	0.0164439
798.134	0.0164021
798.212	0.0164867
798.290	0.0164696
798.368	0.0163574
798.446	0.0164728
798.524	0.0164757
798.602	0.0165524
798.681	0.0166028
798.759	0.0165840
798.837	0.0166006
798.915	0.0165678
798.993	0.0166116
799.071	0.0164952
799.149	0.0165913
799.227	0.0166566
799.306	0.0166149
799.384	0.0165070
799.462	0.0166107
799.540	0.0165752
799.618	0.0165629
799.696	0.0166232
799.774	0.0165900
799.852	0.0166878
799.931	0.0167525
800.009	0.0166212
800.087	0.0166380
800.165	0.0164726
800.243	0.0165944
800.321	0.0166001
800.399	0.0165081
800.477	0.0166523
800.556	0.0167027
800.634	0.0166126
800.712	0.0165697
800.790	0.0165063
800.868	0.0165811
800.946	0.0164939
801.024	0.0165417
801.102	0.0165601
801.181	0.0166237
801.259	0.0165935
801.337	0.0165559
801.415	0.0164877
801.493	0.0164301
801.571	0.0165113
801.649	0.0165672
801.727	0.0164573
801.806	0.0164642
801.884	0.0165369
801.962	0.0165490
802.040	0.0163078
802.118	0.0164661
802.196	0.0162547
802.274	0.0163460
802.352	0.0163489
802.431	0.0163865
802.509	0.0161754
802.587	0.0162101
802.665	0.0162128
802.743	0.0160904
802.821	0.0160982
802.899	0.0162176
802.977	0.0164111
803.056	0.0163344
803.134	0.0162430
803.212	0.0161394
803.290	0.0162291
803.368	0.0162595
803.446	0.0160706
803.524	0.0160184
803.602	0.0160624
803.681	0.0160139
803.759	0.0161076
803.837	0.0160874
803.915	0.0160940
803.993	0.0161373
804.071	0.0161083
804.149	0.0160567
804.227	0.0160930
804.306	0.0160394
804.384	0.0160877
804.462	0.0162253
804.540	0.0162138
804.618	0.0160397
804.696	0.0161092
804.774	0.0161756
804.852	0.0162255
804.931	0.0162668
805.009	0.0162716
805.087	0.0164048
805.165	0.0163120
805.243	0.0164400
805.321	0.0164261
805.399	0.0163842
805.477	0.0164719
805.556	0.0163780
805.634	0.0164990
805.712	0.0164304
805.790	0.0164555
805.868	0.0166470
805.946	0.0164660
806.024	0.0164148
806.102	0.0166898
806.181	0.0164909
806.259	0.0164896
806.337	0.0166306
806.415	0.0165612
806.493	0.0165319
806.571	0.0165148
806.649	0.0165734
806.727	0.0165385
806.806	0.0166112
806.884	0.0165856
806.962	0.0166476
807.040	0.0165257
807.118	0.0165816
807.196	0.0165916
807.274	0.0165939
807.352	0.0165873
807.431	0.0167310
807.509	0.0166101
807.587	0.0166255
807.665	0.0165313
807.743	0.0164665
807.821	0.0165464
807.899	0.0165195
807.977	0.0164064
808.056	0.0164681
808.134	0.0166131
808.212	0.0165463
808.290	0.0164326
808.368	0.0165490
808.446	0.0166359
808.524	0.0164991
808.602	0.0164520
808.681	0.0166152
808.759	0.0164405
808.837	0.0164353
808.915	0.0164141
808.993	0.0165316
809.071	0.0164108
809.149	0.0164516
809.227	0.0165320
809.306	0.0163048
809.384	0.0162860
809.462	0.0162476
809.540	0.0163432
809.618	0.0163353
809.696	0.0163116
809.774	0.0163676
809.852	0.0163018
809.931	0.0163560
810.009	0.0163259
810.087	0.0163803
810.165	0.0162454
810.243	0.0162341
810.321	0.0162714
810.399	0.0161536
810.477	0.0161652
810.556	0.0164024
810.634	0.0162885
810.712	0.0162505
810.790	0.0163289
810.868	0.0161873
810.946	0.0163565
811.024	0.0164571
811.102	0.0163054
811.181	0.0163116
811.259	0.0163533
811.337	0.0163332
811.415	0.0163842
811.493	0.0163589
811.571	0.0163415
811.649	0.0162916
811.727	0.0163657
811.806	0.0163438
811.884	0.0163885
811.962	0.0164766
812.040	0.0163313
812.118	0.0164080
812.196	0.0164687
812.274	0.0165516
812.352	0.0164784
812.431	0.0163074
812.509	0.0163887
812.587	0.0164098
812.665	0.0164735
812.743	0.0163837
812.821	0.0163863
812.899	0.0164024
812.977	0.0164305
813.056	0.0165229
813.134	0.0164655
813.212	0.0165092
813.290	0.0164149
813.368	0.0165262
813.446	0.0165688
813.524	0.0164844
813.602	0.0164712
813.681	0.0165046
813.759	0.0165907
813.837	0.0164374
813.915	0.0165193
813.993	0.0164595
814.071	0.0164425
814.149	0.0165691
814.227	0.0164012
814.306	0.0163753
814.384	0.0164468
814.462	0.0165597
814.540	0.0163677
814.618	0.0164651
814.696	0.0162871
814.774	0.0164117
814.852	0.0164009
814.931	0.0162528
815.009	0.0163735
815.087	0.0164307
815.165	0.0163762
815.243	0.0165896
815.321	0.0163684
815.399	0.0162820
815.477	0.0163097
815.556	0.0163319
815.634	0.0163308
815.712	0.0164635
815.790	0.0164830
815.868	0.0165781
815.946	0.0163715
816.024	0.0163683
816.102	0.0163125
816.181	0.0164870
816.259	0.0163846
816.337	0.0163739
816.415	0.0164378
816.493	0.0163933
816.571	0.0165051
816.649	0.0163351
816.727	0.0163876
816.806	0.0164066
816.884	0.0163606
816.962	0.0162828
817.040	0.0163139
817.118	0.0163749
817.196	0.0163470
817.274	0.0163006
817.352	0.0164687
817.431	0.0163993
817.509	0.0163460
817.587	0.0162874
817.665	0.0164046
817.743	0.0161506
817.821	0.0162720
817.899	0.0164451
817.977	0.0162891
818.056	0.0162541
818.134	0.0162144
818.212	0.0162893
818.290	0.0163596
818.368	0.0162301
818.446	0.0162847
818.524	0.0161834
818.602	0.0163302
818.681	0.0162986
818.759	0.0162494
818.837	0.0163295
818.915	0.0163010
818.993	0.0162853
819.071	0.0162550
819.149	0.0163478
819.227	0.0163060
819.306	0.0164163
819.384	0.0163271
819.462	0.0163374
819.540	0.0164893
819.618	0.0163688
819.696	0.0163930
819.774	0.0165450
819.852	0.0164452
819.931	0.0164495
820.009	0.0164526
820.087	0.0164878
820.165	0.0164190
820.243	0.0165086
820.321	0.0165821
820.399	0.0164098
820.477	0.0164764
820.556	0.0165610
820.634	0.0165562
820.712	0.0166086
820.790	0.0166418
820.868	0.0166949
820.946	0.0166685
821.024	0.0164877
821.102	0.0166602
821.181	0.0166565
821.259	0.0167900
821.337	0.0165890
821.415	0.0165480
821.493	0.0166593
821.571	0.0166328
821.649	0.0165667
821.727	0.0165697
821.806	0.0166082
821.884	0.0166647
821.962	0.0165461
822.040	0.0164603
822.118	0.0166814
822.196	0.0166759
822.274	0.0166071
822.352	0.0166176
822.431	0.0166457
822.509	0.0167082
822.587	0.0167136
822.665	0.0166926
822.743	0.0166185
822.821	0.0165839
822.899	0.0165881
822.977	0.0166246
823.056	0.0167645
823.134	0.0167384
823.212	0.0166199
823.290	0.0165944
823.368	0.0165930
823.446	0.0166026
823.524	0.0165658
823.602	0.0165936
823.681	0.0165801
823.759	0.0165703
823.837	0.0165073
823.915	0.0164835
823.993	0.0165433
824.071	0.0165818
824.149	0.0165649
824.227	0.0165180
824.306	0.0164392
824.384	0.0164747
824.462	0.0165160
824.540	0.0167050
824.618	0.0166121
824.696	0.0165984
824.774	0.0165325
824.852	0.0164418
824.931	0.0167065
825.009	0.0166015
825.087	0.0165804
825.165	0.0164887
825.243	0.0166346
825.321	0.0165099
825.399	0.0165413
825.477	0.0165359
825.556	0.0163400
825.634	0.0163967
825.712	0.0162859
825.790	0.0164438
825.868	0.0164839
825.946	0.0164542
826.024	0.0164464
826.102	0.0162802
826.181	0.0162868
826.259	0.0162932
826.337	0.0162807
826.415	0.0164246
826.493	0.0163525
826.571	0.0163301
826.649	0.0163557
826.727	0.0162897
826.806	0.0162417
826.884	0.0162193
826.962	0.0162825
827.040	0.0162876
827.118	0.0161618
827.196	0.0162123
827.274	0.0162872
827.352	0.0163538
827.431	0.0163169
827.509	0.0162789
827.587	0.0163397
827.665	0.0164787
827.743	0.0162994
827.821	0.0162138
827.899	0.0163713
827.977	0.0164044
828.056	0.0163710
828.134	0.0162367
828.212	0.0164026
828.290	0.0162557
828.368	0.0163213
828.446	0.0163552
828.524	0.0162424
828.602	0.0163589
828.681	0.0163323
828.759	0.0163961
828.837	0.0165643
828.915	0.0165527
828.993	0.0164517
829.071	0.0165724
829.149	0.0165115
829.227	0.0165560
829.306	0.0164676
829.384	0.0163419
829.462	0.0164020
829.540	0.0164977
829.618	0.0165242
829.696	0.0163908
829.774	0.0164814
829.852	0.0163902
829.931	0.0164373
830.009	0.0164075
830.087	0.0165244
830.165	0.0163174
830.243	0.0164839
830.321	0.0164309
830.399	0.0164668
830.477	0.0164775
830.556	0.0165250
830.634	0.0164446
830.712	0.0164313
830.790	0.0164389
830.868	0.0164457
830.946	0.0165113
831.024	0.0164180
831.102	0.0164764
831.181	0.0164528
831.259	0.0164349
831.337	0.0164545
831.415	0.0163080
831.493	0.0163414
831.571	0.0164405
831.649	0.0164854
831.727	0.0165247
831.806	0.0164538
831.884	0.0163819
831.962	0.0164229
832.040	0.0164819
832.118	0.0164650
832.196	0.0164612
832.274	0.0163268
832.352	0.0163787
832.431	0.0164685
832.509	0.0164932
832.587	0.0165141
832.665	0.0164762
832.743	0.0165749
832.821	0.0164825
832.899	0.0165001
832.977	0.0164264
833.056	0.0163538
833.134	0.0162689
833.212	0.0164642
833.290	0.0164040
833.368	0.0163889
833.446	0.0164504
833.524	0.0164758
833.602	0.0163715
833.681	0.0163729
833.759	0.0164878
833.837	0.0164721
833.915	0.0162663
833.993	0.0162929
834.071	0.0164743
834.149	0.0164322
834.227	0.0164763
834.306	0.0162923
834.384	0.0164707
834.462	0.0164171
834.540	0.0164417
834.618	0.0164589
834.696	0.0162982
834.774	0.0164619
834.852	0.0164275
834.931	0.0163564
835.009	0.0163962
835.087	0.0165650
835.165	0.0164684
835.243	0.0163860
835.321	0.0166399
835.399	0.0164648
835.477	0.0164008
835.556	0.0164662
835.634	0.0165372
835.712	0.0165333
835.790	0.0164766
835.868	0.0165856
835.946	0.0164571
836.024	0.0165170
836.102	0.0164885
836.181	0.0164104
836.259	0.0165309
836.337	0.0164674
836.415	0.0164335
836.493	0.0165211
836.571	0.0165244
836.649	0.0164268
836.727	0.0165424
836.806	0.0163609
836.884	0.0162666
836.962	0.0163749
837.040	0.0163837
837.118	0.0163923
837.196	0.0161826
837.274	0.0163110
837.352	0.0163277
837.431	0.0162981
837.509	0.0163776
837.587	0.0162346
837.665	0.0162361
837.743	0.0163345
837.821	0.0161729
837.899	0.0161892
837.977	0.0161575
838.056	0.0162975
838.134	0.0162808
838.212	0.0163056
838.290	0.0162170
838.368	0.0163681
838.446	0.0162379
838.524	0.0164392
838.602	0.0163570
838.681	0.0163855
838.759	0.0163702
838.837	0.0165452
838.915	0.0164911
838.993	0.0163954
839.071	0.0164121
839.149	0.0164750
839.227	0.0165125
839.306	0.0164977
839.384	0.0165881
839.462	0.0165118
839.540	0.0164626
839.618	0.0164874
839.696	0.0164247
839.774	0.0165245
839.852	0.0164957
839.931	0.0165752
840.009	0.0164904
840.087	0.0164610
840.165	0.0164896
840.243	0.0163914
840.321	0.0164922
840.399	0.0164114
840.477	0.0163634
840.556	0.0163556
840.634	0.0163725
840.712	0.0163401
840.790	0.0163270
840.868	0.0163701
840.946	0.0164217
841.024	0.0163500
841.102	0.0163238
841.181	0.0164600
841.259	0.0163959
841.337	0.0164003
841.415	0.0163955
841.493	0.0164180
841.571	0.0164822
841.649	0.0165057
841.727	0.0164999
841.806	0.0164893
841.884	0.0164764
841.962	0.0163083
842.040	0.0165231
842.118	0.0164468
842.196	0.0163690
842.274	0.0163708
842.352	0.0163599
842.431	0.0164040
842.509	0.0164436
842.587	0.0165378
842.665	0.0163498
842.743	0.0164468
842.821	0.0162523
842.899	0.0164094
842.977	0.0164115
843.056	0.0164295
843.134	0.0164033
843.212	0.0164283
843.290	0.0163837
843.368	0.0163309
843.446	0.0163377
843.524	0.0164539
843.602	0.0164676
843.681	0.0164490
843.759	0.0163954
843.837	0.0164319
843.915	0.0163416
843.993	0.0164022
844.071	0.0164569
844.149	0.0164445
844.227	0.0163954
844.306	0.0165765
844.384	0.0165800
844.462	0.0164394
844.540	0.0165741
844.618	0.0164219
844.696	0.0164912
844.774	0.0165049
844.852	0.0166978
844.931	0.0165974
845.009	0.0164474
845.087	0.0165343
845.165	0.0166388
845.243	0.0166282
845.321	0.0165777
845.399	0.0165518
845.477	0.0165605
845.556	0.0165126
845.634	0.0165953
845.712	0.0165359
845.790	0.0165836
845.868	0.0166303
845.946	0.0165528
846.024	0.0166682
846.102	0.0165859
846.181	0.0164825
846.259	0.0165859
846.337	0.0164924
846.415	0.0165387
846.493	0.0165210
846.571	0.0165807
846.649	0.0165343
846.727	0.0164985
846.806	0.0166964
846.884	0.0166289
846.962	0.0165248
847.040	0.0164429
847.118	0.0164642
847.196	0.0164298
847.274	0.0164565
847.352	0.0165159
847.431	0.0164252
847.509	0.0165437
847.587	0.0164790
847.665	0.0164033
847.743	0.0162384
847.821	0.0163678
847.899	0.0165245
847.977	0.0164347
848.056	0.0165349
848.134	0.0164948
848.212	0.0164763
848.290	0.0164995
848.368	0.0164278
848.446	0.0164043
848.524	0.0165524
848.602	0.0164413
848.681	0.0163490
848.759	0.0164707
848.837	0.0165192
848.915	0.0165917
848.993	0.0165373
849.071	0.0164359
849.149	0.0164963
849.227	0.0165237
849.306	0.0165383
849.384	0.0163064
849.462	0.0165380
849.540	0.0165379
849.618	0.0163683
849.696	0.0163988
849.774	0.0164974
849.852	0.0163398
849.931	0.0161701
850.009	0.0163982
850.087	0.0165511
850.165	0.0164143
850.243	0.0164289
850.321	0.0163746
850.399	0.0164001
850.477	0.0163496
850.556	0.0162456
850.634	0.0162595
850.712	0.0163150
850.790	0.0164014
850.868	0.0162675
850.946	0.0162366
851.024	0.0162106
851.102	0.0162641
851.181	0.0163049
851.259	0.0163019
851.337	0.0162685
851.415	0.0163153
851.493	0.0163738
851.571	0.0164068
851.649	0.0163463
851.727	0.0163001
851.806	0.0163847
851.884	0.0165134
851.962	0.0164629
852.040	0.0164291
852.118	0.0163825
852.196	0.0165482
852.274	0.0165549
852.352	0.0165759
852.431	0.0166080
852.509	0.0163585
852.587	0.0164980
852.665	0.0165925
852.743	0.0164990
852.821	0.0166592
852.899	0.0165968
852.977	0.0166669
853.056	0.0166271
853.134	0.0165770
853.212	0.0166372
853.290	0.0165474
853.368	0.0165657
853.446	0.0165659
853.524	0.0165111
853.602	0.0164957
853.681	0.0165815
853.759	0.0164954
853.837	0.0165043
853.915	0.0165981
853.993	0.0165519
854.071	0.0164838
854.149	0.0165209
854.227	0.0164735
854.306	0.0165233
854.384	0.0163243
854.462	0.0164625
854.540	0.0164781
854.618	0.0164202
854.696	0.0162237
854.774	0.0162856
854.852	0.0163282
854.931	0.0164053
855.009	0.0162943
855.087	0.0162315
855.165	0.0162514
855.243	0.0162813
855.321	0.0162514
855.399	0.0163112
855.477	0.0163712
855.556	0.0161674
855.634	0.0163170
855.712	0.0162576
855.790	0.0162242
855.868	0.0163397
855.946	0.0161892
856.024	0.0161161
856.102	0.0162883
856.181	0.0162757
856.259	0.0162200
856.337	0.0163131
856.415	0.0163567
856.493	0.0162331
856.571	0.0162341
856.649	0.0162500
856.727	0.0162802
856.806	0.0162563
856.884	0.0163995
856.962	0.0163561
857.040	0.0162862
857.118	0.0162521
857.196	0.0163320
857.274	0.0162683
857.352	0.0163836
857.431	0.0164272
857.509	0.0162617
857.587	0.0161490
857.665	0.0163472
857.743	0.0163419
857.821	0.0165484
857.899	0.0163947
857.977	0.0165043
858.056	0.0163086
858.134	0.0163387
858.212	0.0162566
858.290	0.0164830
858.368	0.0165831
858.446	0.0164970
858.524	0.0164767
858.602	0.0165628
858.681	0.0164559
858.759	0.0165441
858.837	0.0166422
858.915	0.0166302
858.993	0.0165400
859.071	0.0165395
859.149	0.0165761
859.227	0.0165774
859.306	0.0166094
859.384	0.0165498
859.462	0.0167096
859.540	0.0164676
859.618	0.0164406
859.696	0.0165028
859.774	0.0165062
859.852	0.0165475
859.931	0.0165510
860.009	0.0165579
860.087	0.0165736
860.165	0.0166462
860.243	0.0165316
860.321	0.0165141
860.399	0.0165054
860.477	0.0165093
860.556	0.0165166
860.634	0.0164103
860.712	0.0163746
860.790	0.0163831
860.868	0.0163406
860.946	0.0163618
861.024	0.0164642
861.102	0.0163258
861.181	0.0164916
861.259	0.0164957
861.337	0.0162593
861.415	0.0164048
861.493	0.0163277
861.571	0.0162542
861.649	0.0162181
861.727	0.0163038
861.806	0.0162626
861.884	0.0163859
861.962	0.0164775
862.040	0.0163940
862.118	0.0164158
862.196	0.0163679
862.274	0.0162971
862.352	0.0164771
862.431	0.0163171
862.509	0.0163190
862.587	0.0164499
862.665	0.0163698
862.743	0.0165409
862.821	0.0165395
862.899	0.0163888
862.977	0.0163830
863.056	0.0165617
863.134	0.0166202
863.212	0.0163700
863.290	0.0164217
863.368	0.0164850
863.446	0.0165812
863.524	0.0164046
863.602	0.0164809
863.681	0.0166115
863.759	0.0166234
863.837	0.0166194
863.915	0.0167207
863.993	0.0167135
864.071	0.0166156
864.149	0.0164645
864.227	0.0165689
864.306	0.0164318
864.384	0.0164485
864.462	0.0165446
864.540	0.0165205
864.618	0.0165162
864.696	0.0164195
864.774	0.0165341
864.852	0.0166254
864.931	0.0164899
865.009	0.0163662
865.087	0.0164983
865.165	0.0164721
865.243	0.0165360
865.321	0.0164631
865.399	0.0164115
865.477	0.0164477
865.556	0.0162940
865.634	0.0164916
865.712	0.0163763
865.790	0.0165174
865.868	0.0163952
865.946	0.0165015
866.024	0.0164441
866.102	0.0164793
866.181	0.0165034
866.259	0.0164490
866.337	0.0163728
866.415	0.0164522
866.493	0.0164632
866.571	0.0165263
866.649	0.0165115
866.727	0.0165133
866.806	0.0165163
866.884	0.0163850
866.962	0.0163906
867.040	0.0165626
867.118	0.0164328
867.196	0.0164642
867.274	0.0165575
867.352	0.0165097
867.431	0.0163705
867.509	0.0164912
867.587	0.0164452
867.665	0.0165125
867.743	0.0164922
867.821	0.0164629
867.899	0.0163531
867.977	0.0163278
868.056	0.0164107
868.134	0.0164867
868.212	0.0164506
868.290	0.0164598
868.368	0.0164035
868.446	0.0164741
868.524	0.0166199
868.602	0.0163843
868.681	0.0163580
868.759	0.0162724
868.837	0.0163758
868.915	0.0164066
868.993	0.0164713
869.071	0.0162718
869.149	0.0162571
869.227	0.0164247
869.306	0.0163222
869.384	0.0163319
869.462	0.0163921
869.540	0.0164320
869.618	0.0162539
869.696	0.0162404
869.774	0.0163320
869.852	0.0164252
869.931	0.0163940
870.009	0.0163685
870.087	0.0164148
870.165	0.0163432
870.243	0.0163702
870.321	0.0164799
870.399	0.0164496
870.477	0.0163748
870.556	0.0163542
870.634	0.0164790
870.712	0.0165360
870.790	0.0164965
870.868	0.0163622
870.946	0.0163460
871.024	0.0164290
871.102	0.0164336
871.181	0.0162922
871.259	0.0164328
871.337	0.0164706
871.415	0.0163239
871.493	0.0163818
871.571	0.0163426
871.649	0.0163688
871.727	0.0164259
871.806	0.0163996
871.884	0.0162888
871.962	0.0164781
872.040	0.0163731
872.118	0.0164931
872.196	0.0163799
872.274	0.0164504
872.352	0.0164871
872.431	0.0163876
872.509	0.0165054
872.587	0.0165569
872.665	0.0164324
872.743	0.0164485
872.821	0.0165979
872.899	0.0165486
872.977	0.0165040
873.056	0.0165174
873.134	0.0164914
873.212	0.0165053
873.290	0.0165440
873.368	0.0165727
873.446	0.0165257
873.524	0.0165485
873.602	0.0165436
873.681	0.0165253
873.759	0.0165376
873.837	0.0164264
873.915	0.0164695
873.993	0.0163744
874.071	0.0165716
874.149	0.0165107
874.227	0.0165694
874.306	0.0164722
874.384	0.0165390
874.462	0.0162867
874.540	0.0162598
874.618	0.0165127
874.696	0.0163661
874.774	0.0164024
874.852	0.0165251
874.931	0.0164294
875.009	0.0164317
875.087	0.0164186
875.165	0.0164215
875.243	0.0164203
875.321	0.0163402
875.399	0.0162962
875.477	0.0164334
875.556	0.0165126
875.634	0.0164904
875.712	0.0164554
875.790	0.0165369
875.868	0.0164760
875.946	0.0165408
876.024	0.0164230
876.102	0.0164700
876.181	0.0165116
876.259	0.0165691
876.337	0.0165639
876.415	0.0164536
876.493	0.0164662
876.571	0.0166277
876.649	0.0166948
876.727	0.0164780
876.806	0.0165804
876.884	0.0165413
876.962	0.0166368
877.040	0.0165065
877.118	0.0164892
877.196	0.0164922
877.274	0.0165505
877.352	0.0165351
877.431	0.0165533
877.509	0.0167155
877.587	0.0164587
877.665	0.0165176
877.743	0.0163960
877.821	0.0165423
877.899	0.0164329
877.977	0.0163900
878.056	0.0165136
878.134	0.0165820
878.212	0.0164985
878.290	0.0164088
878.368	0.0164478
878.446	0.0164278
878.524	0.0164583
878.602	0.0164766
878.681	0.0165447
878.759	0.0165164
878.837	0.0164487
878.915	0.0163482
878.993	0.0164531
879.071	0.0165181
879.149	0.0164227
879.227	0.0164140
879.306	0.0165749
879.384	0.0165630
879.462	0.0164991
879.540	0.0164316
879.618	0.0164523
879.696	0.0163886
879.774	0.0164489
879.852	0.0163699
879.931	0.0165201
880.009	0.0166202
880.087	0.0164043
880.165	0.0163137
880.243	0.0164962
880.321	0.0165645
880.399	0.0163506
880.477	0.0163667
880.556	0.0163161
880.634	0.0163609
880.712	0.0164611
880.790	0.0163676
880.868	0.0163476
880.946	0.0165073
881.024	0.0163123
881.102	0.0163618
881.181	0.0163914
881.259	0.0164388
881.337	0.0163467
881.415	0.0163727
881.493	0.0163791
881.571	0.0163493
881.649	0.0165127
881.727	0.0164229
881.806	0.0164800
881.884	0.0165639
881.962	0.0163901
882.040	0.0165138
882.118	0.0164458
882.196	0.0164918
882.274	0.0164822
882.352	0.0163823
882.431	0.0163682
882.509	0.0164108
882.587	0.0163568
882.665	0.0163666
882.743	0.0163357
882.821	0.0163966
882.899	0.0164825
882.977	0.0164983
883.056	0.0163206
883.134	0.0163433
883.212	0.0164449
883.290	0.0164439
883.368	0.0163861
883.446	0.0163268
883.524	0.0165092
883.602	0.0163400
883.681	0.0162995
883.759	0.0164240
883.837	0.0163547
883.915	0.0163152
883.993	0.0163258
884.071	0.0163185
884.149	0.0163590
884.227	0.0161516
884.306	0.0163100
884.384	0.0164342
884.462	0.0162653
884.540	0.0163177
884.618	0.0162675
884.696	0.0163512
884.774	0.0163685
884.852	0.0162678
884.931	0.0163419
885.009	0.0163987
885.087	0.0163770
885.165	0.0162666
885.243	0.0163110
885.321	0.0162862
885.399	0.0164356
885.477	0.0163649
885.556	0.0162604
885.634	0.0162501
885.712	0.0163336
885.790	0.0162874
885.868	0.0162757
885.946	0.0163023
886.024	0.0163119
886.102	0.0162714
886.181	0.0162340
886.259	0.0162702
886.337	0.0164175
886.415	0.0163175
886.493	0.0164421
886.571	0.0162940
886.649	0.0162235
886.727	0.0163461
886.806	0.0163992
886.884	0.0163926
886.962	0.0162678
887.040	0.0162463
887.118	0.0164396
887.196	0.0163805
887.274	0.0163129
887.352	0.0164740
887.431	0.0163439
887.509	0.0164158
887.587	0.0165102
887.665	0.0164994
887.743	0.0165242
887.821	0.0164693
887.899	0.0163958
887.977	0.0162995
888.056	0.0163396
888.134	0.0164668
888.212	0.0164790
888.290	0.0163692
888.368	0.0164397
888.446	0.0164809
888.524	0.0163527
888.602	0.0163526
888.681	0.0164173
888.759	0.0162247
888.837	0.0162478
888.915	0.0163793
888.993	0.0164366
889.071	0.0163837
889.149	0.0163158
889.227	0.0163102
889.306	0.0163152
889.384	0.0163952
889.462	0.0163929
889.540	0.0164826
889.618	0.0164083
889.696	0.0163785
889.774	0.0164301
889.852	0.0165190
889.931	0.0164631
890.009	0.0165478
890.087	0.0165802
890.165	0.0165675
890.243	0.0165495
890.321	0.0164955
890.399	0.0166290
890.477	0.0165630
890.556	0.0165533
890.634	0.0164864
890.712	0.0165296
890.790	0.0165372
890.868	0.0166048
890.946	0.0165097
891.024	0.0164964
891.102	0.0165557
891.181	0.0165374
891.259	0.0167155
891.337	0.0166146
891.415	0.0164472
891.493	0.0165175
891.571	0.0164574
891.649	0.0165051
891.727	0.0165947
891.806	0.0166396
891.884	0.0165122
891.962	0.0165615
892.040	0.0164815
892.118	0.0163986
892.196	0.0164127
892.274	0.0164600
892.352	0.0163907
892.431	0.0164806
892.509	0.0163216
892.587	0.0163196
892.665	0.0164677
892.743	0.0164754
892.821	0.0165296
892.899	0.0163251
892.977	0.0164291
893.056	0.0164613
893.134	0.0163071
893.212	0.0163376
893.290	0.0164436
893.368	0.0163594
893.446	0.0164818
893.524	0.0164111
893.602	0.0163142
893.681	0.0164767
893.759	0.0162646
893.837	0.0162167
893.915	0.0162416
893.993	0.0164665
894.071	0.0164009
894.149	0.0163246
894.227	0.0164549
894.306	0.0164022
894.384	0.0164278
894.462	0.0164908
894.540	0.0164017
894.618	0.0165080
894.696	0.0163805
894.774	0.0162587
894.852	0.0163297
894.931	0.0165095
895.009	0.0164089
895.087	0.0164583
895.165	0.0164525
895.243	0.0163195
895.321	0.0163496
895.399	0.0164005
895.477	0.0164699
895.556	0.0164439
895.634	0.0163684
895.712	0.0164835
895.790	0.0165060
895.868	0.0163811
895.946	0.0163023
896.024	0.0165082
896.102	0.0165376
896.181	0.0163750
896.259	0.0164281
896.337	0.0163861
896.415	0.0164046
896.493	0.0164395
896.571	0.0163214
896.649	0.0165176
896.727	0.0164031
896.806	0.0163821
896.884	0.0163736
896.962	0.0162489
897.040	0.0163229
897.118	0.0162939
897.196	0.0163443
897.274	0.0162333
897.352	0.0162081
897.431	0.0161936
897.509	0.0162135
897.587	0.0162136
897.665	0.0162030
897.743	0.0162931
897.821	0.0162414
897.899	0.0163238
897.977	0.0163035
898.056	0.0162272
898.134	0.0162934
898.212	0.0163982
898.290	0.0163506
898.368	0.0164034
898.446	0.0163962
898.524	0.0164165
898.602	0.0164783
898.681	0.0163385
898.759	0.0164157
898.837	0.0165562
898.915	0.0165718
898.993	0.0165357
899.071	0.0164858
899.149	0.0164676
899.227	0.0163860
899.306	0.0164746
899.384	0.0165106
899.462	0.0164334
899.540	0.0164278
899.618	0.0165273
899.696	0.0164244
899.774	0.0163461
899.852	0.0165005
899.931	0.0163995
900.009	0.0163829
900.087	0.0165064
900.165	0.0164972
900.243	0.0165823
900.321	0.0164547
900.399	0.0164733
900.477	0.0164767
900.556	0.0164287
900.634	0.0165632
900.712	0.0165313
900.790	0.0164735
900.868	0.0165986
900.946	0.0164364
901.024	0.0165514
901.102	0.0163199
901.181	0.0164313
901.259	0.0164204
901.337	0.0166192
901.415	0.0164568
901.493	0.0163952
901.571	0.0162803
901.649	0.0164198
901.727	0.0164725
901.806	0.0164351
901.884	0.0162695
901.962	0.0165233
902.040	0.0164385
902.118	0.0164209
902.196	0.0164651
902.274	0.0164209
902.352	0.0164581
902.431	0.0166810
902.509	0.0163900
902.587	0.0163565
902.665	0.0165361
902.743	0.0164893
902.821	0.0165159
902.899	0.0164372
902.977	0.0163741
903.056	0.0164091
903.134	0.0164005
903.212	0.0164130
903.290	0.0163390
903.368	0.0162625
903.446	0.0162928
903.524	0.0162996
903.602	0.0162396
903.681	0.0162170
903.759	0.0160559
903.837	0.0161321
903.915	0.0161127
903.993	0.0162206
904.071	0.0161988
904.149	0.0160957
904.227	0.0162381
904.306	0.0161831
904.384	0.0161928
904.462	0.0161425
904.540	0.0160863
904.618	0.0161960
904.696	0.0163190
904.774	0.0162404
904.852	0.0162836
904.931	0.0162852
905.009	0.0163196
905.087	0.0162313
905.165	0.0163516
905.243	0.0164451
905.321	0.0165497
905.399	0.0162968
905.477	0.0162176
905.556	0.0164975
905.634	0.0163513
905.712	0.0164713
905.790	0.0164520
905.868	0.0165506
905.946	0.0163108
906.024	0.0163255
906.102	0.0162997
906.181	0.0164599
906.259	0.0164239
906.337	0.0163764
906.415	0.0162936
906.493	0.0163520
906.571	0.0162758
906.649	0.0161807
906.727	0.0162649
906.806	0.0162663
906.884	0.0161501
906.962	0.0162847
907.040	0.0163682
907.118	0.0163341
907.196	0.0161905
907.274	0.0164078
907.352	0.0163091
907.431	0.0162146
907.509	0.0163046
907.587	0.0162405
907.665	0.0162610
907.743	0.0163544
907.821	0.0163207
907.899	0.0162562
907.977	0.0162761
908.056	0.0161294
908.134	0.0162375
908.212	0.0162740
908.290	0.0162394
908.368	0.0162144
908.446	0.0163385
908.524	0.0161281
908.602	0.0160502
908.681	0.0163486
908.759	0.0163797
908.837	0.0163748
908.915	0.0163591
908.993	0.0164272
909.071	0.0163416
909.149	0.0162181
909.227	0.0164597
909.306	0.0163620
909.384	0.0163326
909.462	0.0165174
909.540	0.0163726
909.618	0.0165094
909.696	0.0164658
909.774	0.0166174
909.852	0.0164172
909.931	0.0164515
910.009	0.0164420
910.087	0.0166165
910.165	0.0165340
910.243	0.0164838
910.321	0.0165653
910.399	0.0166473
910.477	0.0166626
910.556	0.0166227
910.634	0.0166325
910.712	0.0166576
910.790	0.0166664
910.868	0.0165905
910.946	0.0167130
911.024	0.0167543
911.102	0.0165981
911.181	0.0167290
911.259	0.0167562
911.337	0.0167268
911.415	0.0166594
911.493	0.0167791
911.571	0.0166846
911.649	0.0166482
911.727	0.0166583
911.806	0.0167333
911.884	0.0167207
911.962	0.0165710
912.040	0.0166972
912.118	0.0165532
912.196	0.0165770
912.274	0.0164417
912.352	0.0164731
912.431	0.0163953
912.509	0.0164466
912.587	0.0163264
912.665	0.0163605
912.743	0.0164851
912.821	0.0163609
912.899	0.0163882
912.977	0.0164213
913.056	0.0162621
913.134	0.0163371
913.212	0.0162298
913.290	0.0162943
913.368	0.0162251
913.446	0.0163058
913.524	0.0162074
913.602	0.0162179
913.681	0.0162848
913.759	0.0161771
913.837	0.0162545
913.915	0.0162406
913.993	0.0164359
914.071	0.0163181
914.149	0.0164603
914.227	0.0163978
914.306	0.0163707
914.384	0.0163731
914.462	0.0162386
914.540	0.0164459
914.618	0.0165285
914.696	0.0164840
914.774	0.0163513
914.852	0.0164064
914.931	0.0164301
915.009	0.0163884
915.087	0.0164374
915.165	0.0163580
915.243	0.0165371
915.321	0.0164959
915.399	0.0164567
915.477	0.0164074
915.556	0.0165270
915.634	0.0164993
915.712	0.0164946
915.790	0.0164265
915.868	0.0165190
915.946	0.0163998
916.024	0.0164726
916.102	0.0163779
916.181	0.0163409
916.259	0.0164343
916.337	0.0165059
916.415	0.0163911
916.493	0.0163252
916.571	0.0164415
916.649	0.0164796
916.727	0.0163734
916.806	0.0164001
916.884	0.0162440
916.962	0.0162103
917.040	0.0162459
917.118	0.0163812
917.196	0.0163391
917.274	0.0162775
917.352	0.0162750
917.431	0.0162290
917.509	0.0163050
917.587	0.0163935
917.665	0.0164629
917.743	0.0162164
917.821	0.0163134
917.899	0.0164121
917.977	0.0164183
918.056	0.0163444
918.134	0.0164050
918.212	0.0164415
918.290	0.0163576
918.368	0.0162489
918.446	0.0164420
918.524	0.0165264
918.602	0.0162962
918.681	0.0161379
918.759	0.0163819
918.837	0.0164527
918.915	0.0163158
918.993	0.0163278
919.071	0.0163528
919.149	0.0163694
919.227	0.0162758
919.306	0.0164407
919.384	0.0163426
919.462	0.0163882
919.540	0.0164048
919.618	0.0164005
919.696	0.0162476
919.774	0.0163027
919.852	0.0164320
919.931	0.0163125
920.009	0.0164653
920.087	0.0165010
920.165	0.0164555
920.243	0.0165173
920.321	0.0163878
920.399	0.0164933
920.477	0.0164719
920.556	0.0164228
920.634	0.0164489
920.712	0.0164536
920.790	0.0164207
920.868	0.0166069
920.946	0.0164613
921.024	0.0164628
921.102	0.0165857
921.181	0.0165799
921.259	0.0163308
921.337	0.0163847
921.415	0.0164938
921.493	0.0164796
921.571	0.0165929
921.649	0.0165748
921.727	0.0165713
921.806	0.0164352
921.884	0.0163958
921.962	0.0164177
922.040	0.0164745
922.118	0.0165622
922.196	0.0166837
922.274	0.0165092
922.352	0.0165326
922.431	0.0166566
922.509	0.0165645
922.587	0.0165749
922.665	0.0167064
922.743	0.0166171
922.821	0.0165702
922.899	0.0165932
922.977	0.0166105
923.056	0.0166354
923.134	0.0166103
923.212	0.0164648
923.290	0.0165694
923.368	0.0165993
923.446	0.0165645
923.524	0.0164677
923.602	0.0165847
923.681	0.0165894
923.759	0.0166147
923.837	0.0165707
923.915	0.0166131
923.993	0.0166212
924.071	0.0163942
924.149	0.0164809
924.227	0.0165672
924.306	0.0164139
924.384	0.0163801
924.462	0.0163966
924.540	0.0165482
924.618	0.0163818
924.696	0.0164432
924.774	0.0163354
924.852	0.0163711
924.931	0.0164385
925.009	0.0165030
925.087	0.0165307
925.165	0.0165083
925.243	0.0163219
925.321	0.0164859
925.399	0.0164183
925.477	0.0163625
925.556	0.0164488
925.634	0.0165036
925.712	0.0164682
925.790	0.0165228
925.868	0.0164452
925.946	0.0162929
926.024	0.0165210
926.102	0.0164023
926.181	0.0163139
926.259	0.0163085
926.337	0.0163670
926.415	0.0164664
926.493	0.0163852
926.571	0.0164260
926.649	0.0163631
926.727	0.0164065
926.806	0.0163388
926.884	0.0164823
926.962	0.0162405
927.040	0.0163361
927.118	0.0163639
927.196	0.0163828
927.274	0.0162074
927.352	0.0162958
927.431	0.0163307
927.509	0.0164766
927.587	0.0162970
927.665	0.0164085
927.743	0.0161761
927.821	0.0162467
927.899	0.0163070
927.977	0.0164144
928.056	0.0163208
928.134	0.0164503
928.212	0.0164068
928.290	0.0163213
928.368	0.0164026
928.446	0.0163137
928.524	0.0162951
928.602	0.0164417
928.681	0.0164440
928.759	0.0163435
928.837	0.0164772
928.915	0.0164785
928.993	0.0163580
929.071	0.0164987
929.149	0.0164678
929.227	0.0164902
929.306	0.0164327
929.384	0.0163360
929.462	0.0164714
929.540	0.0164738
929.618	0.0162517
929.696	0.0162737
929.774	0.0163845
929.852	0.0162879
929.931	0.0162170
