05/19/2022	01:12:24	Ver.	4.1	UNKNOWN
Optical Delay	610.008675	Delta X		0.078125	Sweeps	1	Scan Rate	0/0
Coordinates	Axis 1	NaN	Axis 2	NaN	Axis 3	NaN	Axis 4	NaN	Axis 5	NaN	Axis 6	0.000000
TX Power	0.000000	RX Power	0.000000

610.009	0.0164484
610.087	0.0162891
610.165	0.0164214
610.243	0.0164124
610.321	0.0164526
610.399	0.0163997
610.477	0.0163940
610.556	0.0162815
610.634	0.0163577
610.712	0.0162775
610.790	0.0162701
610.868	0.0163651
610.946	0.0162856
611.024	0.0163229
611.102	0.0163131
611.181	0.0162746
611.259	0.0163089
611.337	0.0162865
611.415	0.0162171
611.493	0.0163949
611.571	0.0163497
611.649	0.0163447
611.727	0.0163271
611.806	0.0162270
611.884	0.0161133
611.962	0.0162408
612.040	0.0163007
612.118	0.0163969
612.196	0.0163290
612.274	0.0161940
612.352	0.0162554
612.431	0.0164184
612.509	0.0163065
612.587	0.0163832
612.665	0.0164330
612.743	0.0163495
612.821	0.0163615
612.899	0.0163928
612.977	0.0164870
613.056	0.0162624
613.134	0.0163681
613.212	0.0164407
613.290	0.0165042
613.368	0.0165576
613.446	0.0163007
613.524	0.0165632
613.602	0.0162936
613.681	0.0163129
613.759	0.0164160
613.837	0.0166016
613.915	0.0164898
613.993	0.0164711
614.071	0.0164944
614.149	0.0165051
614.227	0.0165562
614.306	0.0166073
614.384	0.0164249
614.462	0.0163679
614.540	0.0165154
614.618	0.0165603
614.696	0.0166165
614.774	0.0165218
614.852	0.0164279
614.931	0.0167277
615.009	0.0165765
615.087	0.0164991
615.165	0.0163055
615.243	0.0164610
615.321	0.0165195
615.399	0.0164083
615.477	0.0164086
615.556	0.0164418
615.634	0.0164124
615.712	0.0164982
615.790	0.0164297
615.868	0.0163502
615.946	0.0164700
616.024	0.0163580
616.102	0.0163287
616.181	0.0163980
616.259	0.0163807
616.337	0.0163055
616.415	0.0161671
616.493	0.0163197
616.571	0.0162482
616.649	0.0162122
616.727	0.0161412
616.806	0.0161292
616.884	0.0161958
616.962	0.0161897
617.040	0.0162351
617.118	0.0163142
617.196	0.0163182
617.274	0.0163110
617.352	0.0162257
617.431	0.0163147
617.509	0.0164050
617.587	0.0163827
617.665	0.0163055
617.743	0.0164584
617.821	0.0163526
617.899	0.0163510
617.977	0.0164689
618.056	0.0163991
618.134	0.0163065
618.212	0.0165508
618.290	0.0163420
618.368	0.0164876
618.446	0.0164394
618.524	0.0163826
618.602	0.0163860
618.681	0.0163936
618.759	0.0164310
618.837	0.0164098
618.915	0.0162803
618.993	0.0164111
619.071	0.0164157
619.149	0.0165187
619.227	0.0164230
619.306	0.0164447
619.384	0.0165417
619.462	0.0162718
619.540	0.0163892
619.618	0.0165475
619.696	0.0164327
619.774	0.0164124
619.852	0.0164295
619.931	0.0164861
620.009	0.0163131
620.087	0.0162658
620.165	0.0162829
620.243	0.0164975
620.321	0.0162110
620.399	0.0160923
620.477	0.0163419
620.556	0.0161125
620.634	0.0161143
620.712	0.0160799
620.790	0.0162247
620.868	0.0162230
620.946	0.0160535
621.024	0.0161904
621.102	0.0162400
621.181	0.0162189
621.259	0.0162798
621.337	0.0162163
621.415	0.0161938
621.493	0.0162750
621.571	0.0162852
621.649	0.0162092
621.727	0.0161835
621.806	0.0163633
621.884	0.0162611
621.962	0.0162660
622.040	0.0163021
622.118	0.0164265
622.196	0.0162961
622.274	0.0163147
622.352	0.0163630
622.431	0.0163681
622.509	0.0163245
622.587	0.0163297
622.665	0.0161888
622.743	0.0161563
622.821	0.0163160
622.899	0.0162801
622.977	0.0161706
623.056	0.0161533
623.134	0.0161867
623.212	0.0162733
623.290	0.0162151
623.368	0.0163818
623.446	0.0161991
623.524	0.0162292
623.602	0.0163657
623.681	0.0163909
623.759	0.0162533
623.837	0.0162766
623.915	0.0161964
623.993	0.0162504
624.071	0.0163297
624.149	0.0162439
624.227	0.0162026
624.306	0.0162237
624.384	0.0163169
624.462	0.0163074
624.540	0.0162177
624.618	0.0163140
624.696	0.0164066
624.774	0.0163414
624.852	0.0161742
624.931	0.0163110
625.009	0.0162175
625.087	0.0162137
625.165	0.0163019
625.243	0.0163229
625.321	0.0161803
625.399	0.0163306
625.477	0.0161181
625.556	0.0161762
625.634	0.0161943
625.712	0.0161837
625.790	0.0161570
625.868	0.0161189
625.946	0.0161538
626.024	0.0160482
626.102	0.0161602
626.181	0.0161395
626.259	0.0162210
626.337	0.0161714
626.415	0.0161979
626.493	0.0161330
626.571	0.0161718
626.649	0.0162753
626.727	0.0162486
626.806	0.0163362
626.884	0.0163293
626.962	0.0163759
627.040	0.0163854
627.118	0.0162622
627.196	0.0164165
627.274	0.0163974
627.352	0.0164163
627.431	0.0163644
627.509	0.0164620
627.587	0.0162761
627.665	0.0164552
627.743	0.0163461
627.821	0.0165627
627.899	0.0165559
627.977	0.0165108
628.056	0.0165425
628.134	0.0165337
628.212	0.0165348
628.290	0.0165823
628.368	0.0163996
628.446	0.0165299
628.524	0.0165533
628.602	0.0164507
628.681	0.0165977
628.759	0.0166428
628.837	0.0165465
628.915	0.0165443
628.993	0.0164687
629.071	0.0164720
629.149	0.0164800
629.227	0.0165065
629.306	0.0164639
629.384	0.0164611
629.462	0.0164795
629.540	0.0165579
629.618	0.0164603
629.696	0.0164162
629.774	0.0165419
629.852	0.0165435
629.931	0.0163622
630.009	0.0162288
630.087	0.0163355
630.165	0.0163226
630.243	0.0164288
630.321	0.0163914
630.399	0.0163099
630.477	0.0162937
630.556	0.0164563
630.634	0.0165520
630.712	0.0165187
630.790	0.0164243
630.868	0.0164443
630.946	0.0165470
631.024	0.0163626
631.102	0.0164938
631.181	0.0166035
631.259	0.0164428
631.337	0.0165934
631.415	0.0165636
631.493	0.0165675
631.571	0.0165053
631.649	0.0166383
631.727	0.0164328
631.806	0.0166272
631.884	0.0163298
631.962	0.0165446
632.040	0.0164436
632.118	0.0164693
632.196	0.0164169
632.274	0.0165759
632.352	0.0163848
632.431	0.0163409
632.509	0.0164806
632.587	0.0162807
632.665	0.0163306
632.743	0.0162362
632.821	0.0162091
632.899	0.0164221
632.977	0.0162516
633.056	0.0161642
633.134	0.0163072
633.212	0.0162479
633.290	0.0162168
633.368	0.0161806
633.446	0.0162107
633.524	0.0161322
633.602	0.0160546
633.681	0.0161269
633.759	0.0161374
633.837	0.0161945
633.915	0.0159516
633.993	0.0160987
634.071	0.0160632
634.149	0.0159772
634.227	0.0160207
634.306	0.0160480
634.384	0.0160171
634.462	0.0159563
634.540	0.0161222
634.618	0.0160413
634.696	0.0160297
634.774	0.0160294
634.852	0.0159549
634.931	0.0160281
635.009	0.0160267
635.087	0.0161345
635.165	0.0161642
635.243	0.0162178
635.321	0.0161714
635.399	0.0161945
635.477	0.0163033
635.556	0.0162084
635.634	0.0164559
635.712	0.0164507
635.790	0.0163094
635.868	0.0164697
635.946	0.0165505
636.024	0.0165426
636.102	0.0164480
636.181	0.0163473
636.259	0.0164255
636.337	0.0164961
636.415	0.0167159
636.493	0.0165418
636.571	0.0164128
636.649	0.0166785
636.727	0.0165074
636.806	0.0164135
636.884	0.0166567
636.962	0.0165470
637.040	0.0166888
637.118	0.0165553
637.196	0.0165491
637.274	0.0165022
637.352	0.0166664
637.431	0.0164722
637.509	0.0165549
637.587	0.0166702
637.665	0.0163030
637.743	0.0164665
637.821	0.0163188
637.899	0.0162664
637.977	0.0163206
638.056	0.0162991
638.134	0.0160959
638.212	0.0161847
638.290	0.0161721
638.368	0.0162516
638.446	0.0160686
638.524	0.0162354
638.602	0.0160780
638.681	0.0160429
638.759	0.0160773
638.837	0.0160352
638.915	0.0161029
638.993	0.0159978
639.071	0.0160647
639.149	0.0159786
639.227	0.0161549
639.306	0.0161830
639.384	0.0161639
639.462	0.0161545
639.540	0.0162675
639.618	0.0162547
639.696	0.0162603
639.774	0.0162962
639.852	0.0163255
639.931	0.0164177
640.009	0.0165433
640.087	0.0163899
640.165	0.0165471
640.243	0.0163903
640.321	0.0165315
640.399	0.0165820
640.477	0.0166627
640.556	0.0166281
640.634	0.0167163
640.712	0.0165508
640.790	0.0164656
640.868	0.0165922
640.946	0.0165819
641.024	0.0166521
641.102	0.0166539
641.181	0.0166824
641.259	0.0166399
641.337	0.0165615
641.415	0.0166206
641.493	0.0165484
641.571	0.0165665
641.649	0.0166540
641.727	0.0165992
641.806	0.0164545
641.884	0.0163966
641.962	0.0164902
642.040	0.0163868
642.118	0.0163701
642.196	0.0164393
642.274	0.0164119
642.352	0.0161916
642.431	0.0163513
642.509	0.0163567
642.587	0.0163026
642.665	0.0162148
642.743	0.0162125
642.821	0.0161749
642.899	0.0163593
642.977	0.0162745
643.056	0.0162418
643.134	0.0161220
643.212	0.0160584
643.290	0.0161880
643.368	0.0163397
643.446	0.0164493
643.524	0.0162215
643.602	0.0163734
643.681	0.0163603
643.759	0.0161483
643.837	0.0161713
643.915	0.0163176
643.993	0.0162267
644.071	0.0162555
644.149	0.0162018
644.227	0.0162002
644.306	0.0163016
644.384	0.0163648
644.462	0.0164040
644.540	0.0162632
644.618	0.0162394
644.696	0.0163682
644.774	0.0162782
644.852	0.0161457
644.931	0.0161929
645.009	0.0162305
645.087	0.0162813
645.165	0.0163495
645.243	0.0161828
645.321	0.0163034
645.399	0.0162750
645.477	0.0163181
645.556	0.0165060
645.634	0.0164362
645.712	0.0163527
645.790	0.0162940
645.868	0.0164204
645.946	0.0163824
646.024	0.0162615
646.102	0.0164154
646.181	0.0165237
646.259	0.0163454
646.337	0.0164560
646.415	0.0166101
646.493	0.0164304
646.571	0.0164536
646.649	0.0164446
646.727	0.0165349
646.806	0.0164516
646.884	0.0164050
646.962	0.0164746
647.040	0.0164523
647.118	0.0163390
647.196	0.0163760
647.274	0.0164442
647.352	0.0162827
647.431	0.0163504
647.509	0.0163249
647.587	0.0162349
647.665	0.0163089
647.743	0.0164490
647.821	0.0162431
647.899	0.0162304
647.977	0.0162321
648.056	0.0162998
648.134	0.0162431
648.212	0.0161945
648.290	0.0162846
648.368	0.0160715
648.446	0.0161872
648.524	0.0161573
648.602	0.0161285
648.681	0.0161098
648.759	0.0161111
648.837	0.0162021
648.915	0.0160711
648.993	0.0159875
649.071	0.0161108
649.149	0.0161577
649.227	0.0160675
649.306	0.0162803
649.384	0.0162673
649.462	0.0162396
649.540	0.0161785
649.618	0.0160804
649.696	0.0161688
649.774	0.0162193
649.852	0.0161961
649.931	0.0162794
650.009	0.0161390
650.087	0.0161481
650.165	0.0162261
650.243	0.0163469
650.321	0.0161042
650.399	0.0161552
650.477	0.0162833
650.556	0.0162022
650.634	0.0164624
650.712	0.0163556
650.790	0.0162990
650.868	0.0162306
650.946	0.0162775
651.024	0.0164572
651.102	0.0163372
651.181	0.0164494
651.259	0.0162971
651.337	0.0163327
651.415	0.0163890
651.493	0.0164447
651.571	0.0164129
651.649	0.0165181
651.727	0.0165524
651.806	0.0163280
651.884	0.0164174
651.962	0.0163855
652.040	0.0164469
652.118	0.0166050
652.196	0.0165943
652.274	0.0164308
652.352	0.0164049
652.431	0.0165163
652.509	0.0164756
652.587	0.0166190
652.665	0.0164951
652.743	0.0166133
652.821	0.0165324
652.899	0.0165366
652.977	0.0164827
653.056	0.0165441
653.134	0.0164147
653.212	0.0165197
653.290	0.0164969
653.368	0.0164311
653.446	0.0164447
653.524	0.0164377
653.602	0.0163162
653.681	0.0163340
653.759	0.0162598
653.837	0.0162450
653.915	0.0161723
653.993	0.0162841
654.071	0.0161470
654.149	0.0161219
654.227	0.0160344
654.306	0.0160120
654.384	0.0160533
654.462	0.0160796
654.540	0.0160625
654.618	0.0158409
654.696	0.0159063
654.774	0.0157529
654.852	0.0158839
654.931	0.0158651
655.009	0.0157139
655.087	0.0158958
655.165	0.0157317
655.243	0.0159473
655.321	0.0159395
655.399	0.0157141
655.477	0.0158107
655.556	0.0159117
655.634	0.0160191
655.712	0.0159691
655.790	0.0158835
655.868	0.0160901
655.946	0.0161111
656.024	0.0160892
656.102	0.0161308
656.181	0.0162932
656.259	0.0162167
656.337	0.0163418
656.415	0.0164978
656.493	0.0164337
656.571	0.0164629
656.649	0.0164703
656.727	0.0165076
656.806	0.0165569
656.884	0.0167274
656.962	0.0166248
657.040	0.0167130
657.118	0.0167575
657.196	0.0167250
657.274	0.0168357
657.352	0.0168486
657.431	0.0167213
657.509	0.0166795
657.587	0.0167410
657.665	0.0167853
657.743	0.0167391
657.821	0.0164920
657.899	0.0166645
657.977	0.0166279
658.056	0.0165601
658.134	0.0165306
658.212	0.0166454
658.290	0.0162986
658.368	0.0164678
658.446	0.0164003
658.524	0.0163083
658.602	0.0163563
658.681	0.0162206
658.759	0.0162226
658.837	0.0162103
658.915	0.0162170
658.993	0.0162137
659.071	0.0161253
659.149	0.0160771
659.227	0.0160480
659.306	0.0159464
659.384	0.0159560
659.462	0.0158557
659.540	0.0159589
659.618	0.0159412
659.696	0.0158846
659.774	0.0159583
659.852	0.0159855
659.931	0.0159534
660.009	0.0159609
660.087	0.0161173
660.165	0.0159712
660.243	0.0159825
660.321	0.0160419
660.399	0.0160589
660.477	0.0163049
660.556	0.0161617
660.634	0.0162408
660.712	0.0161909
660.790	0.0162113
660.868	0.0163309
660.946	0.0164425
661.024	0.0163511
661.102	0.0164063
661.181	0.0165630
661.259	0.0166096
661.337	0.0165409
661.415	0.0165382
661.493	0.0164342
661.571	0.0164336
661.649	0.0165141
661.727	0.0166206
661.806	0.0164909
661.884	0.0164600
661.962	0.0165353
662.040	0.0165112
662.118	0.0165639
662.196	0.0167276
662.274	0.0166115
662.352	0.0164725
662.431	0.0165643
662.509	0.0165957
662.587	0.0164878
662.665	0.0164450
662.743	0.0165750
662.821	0.0166941
662.899	0.0166322
662.977	0.0164295
663.056	0.0164654
663.134	0.0164868
663.212	0.0163975
663.290	0.0163851
663.368	0.0164541
663.446	0.0164026
663.524	0.0163796
663.602	0.0163598
663.681	0.0164244
663.759	0.0162479
663.837	0.0162332
663.915	0.0163216
663.993	0.0162136
664.071	0.0163319
664.149	0.0163200
664.227	0.0162383
664.306	0.0161864
664.384	0.0163008
664.462	0.0163542
664.540	0.0162434
664.618	0.0162681
664.696	0.0162172
664.774	0.0162843
664.852	0.0163259
664.931	0.0163082
665.009	0.0163049
665.087	0.0162640
665.165	0.0161993
665.243	0.0163033
665.321	0.0161945
665.399	0.0162459
665.477	0.0161417
665.556	0.0161863
665.634	0.0162173
665.712	0.0161624
665.790	0.0162234
665.868	0.0162609
665.946	0.0161609
666.024	0.0162513
666.102	0.0161757
666.181	0.0163049
666.259	0.0164747
666.337	0.0162965
666.415	0.0163009
666.493	0.0162992
666.571	0.0163711
666.649	0.0164147
666.727	0.0162856
666.806	0.0162271
666.884	0.0164085
666.962	0.0164608
667.040	0.0163464
667.118	0.0163000
667.196	0.0163325
667.274	0.0163526
667.352	0.0163329
667.431	0.0163799
667.509	0.0163110
667.587	0.0162862
667.665	0.0162772
667.743	0.0163716
667.821	0.0163175
667.899	0.0163322
667.977	0.0163701
668.056	0.0163934
668.134	0.0162920
668.212	0.0163752
668.290	0.0164102
668.368	0.0162872
668.446	0.0161658
668.524	0.0163313
668.602	0.0163653
668.681	0.0164352
668.759	0.0163582
668.837	0.0164277
668.915	0.0163798
668.993	0.0164308
669.071	0.0164392
669.149	0.0164286
669.227	0.0166074
669.306	0.0164536
669.384	0.0165071
669.462	0.0164379
669.540	0.0164222
669.618	0.0163635
669.696	0.0163305
669.774	0.0164362
669.852	0.0163943
669.931	0.0163496
670.009	0.0164338
670.087	0.0164008
670.165	0.0163069
670.243	0.0162850
670.321	0.0162183
670.399	0.0163582
670.477	0.0162946
670.556	0.0165119
670.634	0.0164666
670.712	0.0162872
670.790	0.0163759
670.868	0.0164223
670.946	0.0163906
671.024	0.0162006
671.102	0.0162502
671.181	0.0164945
671.259	0.0163817
671.337	0.0163378
671.415	0.0162824
671.493	0.0162365
671.571	0.0163005
671.649	0.0164234
671.727	0.0163959
671.806	0.0163724
671.884	0.0165102
671.962	0.0165315
672.040	0.0163759
672.118	0.0163818
672.196	0.0164487
672.274	0.0164462
672.352	0.0164082
672.431	0.0164227
672.509	0.0164950
672.587	0.0164379
672.665	0.0164304
672.743	0.0162089
672.821	0.0163256
672.899	0.0163467
672.977	0.0162861
673.056	0.0163376
673.134	0.0163829
673.212	0.0163391
673.290	0.0162122
673.368	0.0162481
673.446	0.0162872
673.524	0.0162263
673.602	0.0163478
673.681	0.0163445
673.759	0.0162077
673.837	0.0160881
673.915	0.0162009
673.993	0.0161079
674.071	0.0159660
674.149	0.0160854
674.227	0.0161702
674.306	0.0160455
674.384	0.0160934
674.462	0.0159165
674.540	0.0161143
674.618	0.0162288
674.696	0.0160818
674.774	0.0159998
674.852	0.0161360
674.931	0.0161802
675.009	0.0162860
675.087	0.0160205
675.165	0.0158904
675.243	0.0161022
675.321	0.0160648
675.399	0.0160875
675.477	0.0162858
675.556	0.0162254
675.634	0.0162255
675.712	0.0161673
675.790	0.0162006
675.868	0.0163546
675.946	0.0160675
676.024	0.0161616
676.102	0.0162476
676.181	0.0162843
676.259	0.0163815
676.337	0.0163086
676.415	0.0163970
676.493	0.0161883
676.571	0.0164303
676.649	0.0164347
676.727	0.0164321
676.806	0.0164297
676.884	0.0165369
676.962	0.0166139
677.040	0.0165950
677.118	0.0166127
677.196	0.0166924
677.274	0.0166132
677.352	0.0165570
677.431	0.0166437
677.509	0.0165434
677.587	0.0165656
677.665	0.0165884
677.743	0.0166772
677.821	0.0166005
677.899	0.0165001
677.977	0.0165572
678.056	0.0166747
678.134	0.0166784
678.212	0.0165336
678.290	0.0165282
678.368	0.0164924
678.446	0.0164724
678.524	0.0164725
678.602	0.0164277
678.681	0.0163318
678.759	0.0164235
678.837	0.0164659
678.915	0.0163905
678.993	0.0162492
679.071	0.0163704
679.149	0.0164168
679.227	0.0160481
679.306	0.0162383
679.384	0.0161816
679.462	0.0159695
679.540	0.0160951
679.618	0.0160097
679.696	0.0160576
679.774	0.0160396
679.852	0.0162196
679.931	0.0161668
680.009	0.0160285
680.087	0.0160014
680.165	0.0161510
680.243	0.0159922
680.321	0.0160033
680.399	0.0161738
680.477	0.0161044
680.556	0.0162920
680.634	0.0161269
680.712	0.0161284
680.790	0.0161806
680.868	0.0161691
680.946	0.0162836
681.024	0.0164789
681.102	0.0163671
681.181	0.0163947
681.259	0.0164397
681.337	0.0163768
681.415	0.0165321
681.493	0.0166200
681.571	0.0164510
681.649	0.0165077
681.727	0.0165192
681.806	0.0166898
681.884	0.0166589
681.962	0.0165828
682.040	0.0166230
682.118	0.0167525
682.196	0.0166769
682.274	0.0166479
682.352	0.0166473
682.431	0.0165073
682.509	0.0164806
682.587	0.0166331
682.665	0.0166038
682.743	0.0164780
682.821	0.0164515
682.899	0.0166120
682.977	0.0164819
683.056	0.0164642
683.134	0.0163588
683.212	0.0163298
683.290	0.0161951
683.368	0.0163193
683.446	0.0162951
683.524	0.0161173
683.602	0.0161645
683.681	0.0162205
683.759	0.0160605
683.837	0.0161162
683.915	0.0159662
683.993	0.0160519
684.071	0.0161517
684.149	0.0160028
684.227	0.0161559
684.306	0.0161265
684.384	0.0160924
684.462	0.0159572
684.540	0.0160555
684.618	0.0160825
684.696	0.0161971
684.774	0.0161479
684.852	0.0162206
684.931	0.0161803
685.009	0.0161150
685.087	0.0161799
685.165	0.0160474
685.243	0.0160765
685.321	0.0160724
685.399	0.0161175
685.477	0.0161629
685.556	0.0162675
685.634	0.0160868
685.712	0.0161198
685.790	0.0162404
685.868	0.0162631
685.946	0.0162457
686.024	0.0162200
686.102	0.0161524
686.181	0.0162467
686.259	0.0162698
686.337	0.0161360
686.415	0.0163751
686.493	0.0163973
686.571	0.0162212
686.649	0.0161351
686.727	0.0162422
686.806	0.0161992
686.884	0.0160390
686.962	0.0162254
687.040	0.0160963
687.118	0.0160583
687.196	0.0159985
687.274	0.0160148
687.352	0.0160974
687.431	0.0160937
687.509	0.0162561
687.587	0.0162802
687.665	0.0163483
687.743	0.0163722
687.821	0.0163470
687.899	0.0162357
687.977	0.0164957
688.056	0.0165770
688.134	0.0164744
688.212	0.0164559
688.290	0.0166070
688.368	0.0165708
688.446	0.0165517
688.524	0.0165904
688.602	0.0166386
688.681	0.0164829
688.759	0.0165818
688.837	0.0165914
688.915	0.0165990
688.993	0.0166190
689.071	0.0167046
689.149	0.0166850
689.227	0.0166819
689.306	0.0167029
689.384	0.0166589
689.462	0.0167292
689.540	0.0167221
689.618	0.0167816
689.696	0.0166711
689.774	0.0165702
689.852	0.0167318
689.931	0.0166241
690.009	0.0165607
690.087	0.0166161
690.165	0.0165662
690.243	0.0165711
690.321	0.0164630
690.399	0.0165005
690.477	0.0162289
690.556	0.0163786
690.634	0.0164235
690.712	0.0164510
690.790	0.0163644
690.868	0.0162450
690.946	0.0162817
691.024	0.0163358
691.102	0.0163583
691.181	0.0161697
691.259	0.0163262
691.337	0.0164906
691.415	0.0163131
691.493	0.0163541
691.571	0.0164660
691.649	0.0162630
691.727	0.0162474
691.806	0.0163345
691.884	0.0163754
691.962	0.0163879
692.040	0.0163315
692.118	0.0163251
692.196	0.0162756
692.274	0.0162611
692.352	0.0163385
692.431	0.0163489
692.509	0.0162986
692.587	0.0163413
692.665	0.0163593
692.743	0.0162917
692.821	0.0163502
692.899	0.0161608
692.977	0.0163135
693.056	0.0162635
693.134	0.0161821
693.212	0.0163361
693.290	0.0163389
693.368	0.0162756
693.446	0.0162639
693.524	0.0163136
693.602	0.0163721
693.681	0.0163419
693.759	0.0163839
693.837	0.0163666
693.915	0.0162982
693.993	0.0162550
694.071	0.0162740
694.149	0.0163411
694.227	0.0163329
694.306	0.0164122
694.384	0.0162247
694.462	0.0162130
694.540	0.0163737
694.618	0.0164142
694.696	0.0163522
694.774	0.0163769
694.852	0.0164011
694.931	0.0165130
695.009	0.0164555
695.087	0.0165288
695.165	0.0164739
695.243	0.0166143
695.321	0.0165874
695.399	0.0166084
695.477	0.0167311
695.556	0.0167339
695.634	0.0166764
695.712	0.0167677
695.790	0.0166474
695.868	0.0167461
695.946	0.0168040
696.024	0.0168260
696.102	0.0168796
696.181	0.0167878
696.259	0.0169194
696.337	0.0167654
696.415	0.0167310
696.493	0.0166980
696.571	0.0166463
696.649	0.0165185
696.727	0.0164436
696.806	0.0165022
696.884	0.0165015
696.962	0.0162478
697.040	0.0163479
697.118	0.0163123
697.196	0.0162778
697.274	0.0162720
697.352	0.0159739
697.431	0.0160268
697.509	0.0159306
697.587	0.0160235
697.665	0.0160207
697.743	0.0158513
697.821	0.0160771
697.899	0.0157903
697.977	0.0159248
698.056	0.0159228
698.134	0.0159045
698.212	0.0158746
698.290	0.0159980
698.368	0.0159510
698.446	0.0161367
698.524	0.0159550
698.602	0.0160340
698.681	0.0162421
698.759	0.0161392
698.837	0.0162135
698.915	0.0162545
698.993	0.0161862
699.071	0.0162691
699.149	0.0163519
699.227	0.0164513
699.306	0.0164903
699.384	0.0163058
699.462	0.0165581
699.540	0.0164637
699.618	0.0164307
699.696	0.0166016
699.774	0.0165971
699.852	0.0164489
699.931	0.0165232
700.009	0.0163009
700.087	0.0162976
700.165	0.0164006
700.243	0.0165039
700.321	0.0164328
700.399	0.0163972
700.477	0.0162055
700.556	0.0161455
700.634	0.0162421
700.712	0.0162044
700.790	0.0160901
700.868	0.0160300
700.946	0.0161856
701.024	0.0161791
701.102	0.0163097
701.181	0.0161863
701.259	0.0161975
701.337	0.0159440
701.415	0.0160203
701.493	0.0162105
701.571	0.0160940
701.649	0.0161713
701.727	0.0161485
701.806	0.0161116
701.884	0.0161596
701.962	0.0160297
702.040	0.0160364
702.118	0.0161938
702.196	0.0162267
702.274	0.0161150
702.352	0.0163577
702.431	0.0163069
702.509	0.0163263
702.587	0.0164517
702.665	0.0164565
702.743	0.0164694
702.821	0.0163943
702.899	0.0164954
702.977	0.0164529
703.056	0.0165898
703.134	0.0165886
703.212	0.0165645
703.290	0.0165892
703.368	0.0166453
703.446	0.0165610
703.524	0.0165504
703.602	0.0165675
703.681	0.0165804
703.759	0.0165265
703.837	0.0165176
703.915	0.0164280
703.993	0.0165676
704.071	0.0164534
704.149	0.0164297
704.227	0.0163319
704.306	0.0162707
704.384	0.0163301
704.462	0.0163791
704.540	0.0163386
704.618	0.0163380
704.696	0.0161650
704.774	0.0161069
704.852	0.0162062
704.931	0.0161122
705.009	0.0161228
705.087	0.0161313
705.165	0.0161888
705.243	0.0161890
705.321	0.0162683
705.399	0.0160947
705.477	0.0160719
705.556	0.0161667
705.634	0.0161931
705.712	0.0162552
705.790	0.0163248
705.868	0.0163006
705.946	0.0163220
706.024	0.0163408
706.102	0.0164661
706.181	0.0164960
706.259	0.0165993
706.337	0.0165264
706.415	0.0167008
706.493	0.0167430
706.571	0.0165873
706.649	0.0167287
706.727	0.0166261
706.806	0.0166177
706.884	0.0167230
706.962	0.0166396
707.040	0.0167311
707.118	0.0166900
707.196	0.0166518
707.274	0.0165193
707.352	0.0165733
707.431	0.0164227
707.509	0.0165103
707.587	0.0164762
707.665	0.0163611
707.743	0.0163684
707.821	0.0165253
707.899	0.0163634
707.977	0.0163277
708.056	0.0164046
708.134	0.0163267
708.212	0.0164830
708.290	0.0162744
708.368	0.0163924
708.446	0.0164397
708.524	0.0164821
708.602	0.0165370
708.681	0.0164651
708.759	0.0163882
708.837	0.0165288
708.915	0.0166351
708.993	0.0164970
709.071	0.0165126
709.149	0.0165149
709.227	0.0163212
709.306	0.0163972
709.384	0.0164004
709.462	0.0163416
709.540	0.0163435
709.618	0.0163554
709.696	0.0162468
709.774	0.0162944
709.852	0.0162431
709.931	0.0163469
710.009	0.0161591
710.087	0.0160878
710.165	0.0162622
710.243	0.0162921
710.321	0.0161961
710.399	0.0161251
710.477	0.0160473
710.556	0.0163531
710.634	0.0163595
710.712	0.0162814
710.790	0.0162756
710.868	0.0163819
710.946	0.0163361
711.024	0.0163058
711.102	0.0163462
711.181	0.0163086
711.259	0.0163276
711.337	0.0161407
711.415	0.0162114
711.493	0.0162561
711.571	0.0161614
711.649	0.0160761
711.727	0.0160983
711.806	0.0163364
711.884	0.0162907
711.962	0.0161324
712.040	0.0162150
712.118	0.0162362
712.196	0.0162012
712.274	0.0160922
712.352	0.0161399
712.431	0.0160941
712.509	0.0162751
712.587	0.0162885
712.665	0.0163838
712.743	0.0163087
712.821	0.0162531
712.899	0.0162111
712.977	0.0162894
713.056	0.0162991
713.134	0.0163004
713.212	0.0163920
713.290	0.0162835
713.368	0.0164330
713.446	0.0163368
713.524	0.0164176
713.602	0.0164362
713.681	0.0162870
713.759	0.0164301
713.837	0.0164764
713.915	0.0162993
713.993	0.0163486
714.071	0.0164404
714.149	0.0165548
714.227	0.0165617
714.306	0.0165833
714.384	0.0165793
714.462	0.0163428
714.540	0.0164043
714.618	0.0164059
714.696	0.0163333
714.774	0.0163907
714.852	0.0165025
714.931	0.0164830
715.009	0.0166469
715.087	0.0163480
715.165	0.0166370
715.243	0.0165871
715.321	0.0164843
715.399	0.0164936
715.477	0.0163928
715.556	0.0165390
715.634	0.0164505
715.712	0.0164363
715.790	0.0163480
715.868	0.0163906
715.946	0.0162874
716.024	0.0162511
716.102	0.0163149
716.181	0.0160702
716.259	0.0162803
716.337	0.0164632
716.415	0.0163614
716.493	0.0161308
716.571	0.0161430
716.649	0.0161966
716.727	0.0162629
716.806	0.0162277
716.884	0.0160760
716.962	0.0160332
717.040	0.0162595
717.118	0.0162437
717.196	0.0162024
717.274	0.0161338
717.352	0.0161735
717.431	0.0161708
717.509	0.0162227
717.587	0.0163664
717.665	0.0161839
717.743	0.0162285
717.821	0.0162324
717.899	0.0162228
717.977	0.0162489
718.056	0.0163300
718.134	0.0164173
718.212	0.0162583
718.290	0.0163441
718.368	0.0163371
718.446	0.0163888
718.524	0.0163155
718.602	0.0163982
718.681	0.0164353
718.759	0.0164718
718.837	0.0165098
718.915	0.0163808
718.993	0.0162281
719.071	0.0164217
719.149	0.0164386
719.227	0.0164088
719.306	0.0164324
719.384	0.0164582
719.462	0.0164309
719.540	0.0165294
719.618	0.0163490
719.696	0.0163319
719.774	0.0164996
719.852	0.0163439
719.931	0.0164831
720.009	0.0164751
720.087	0.0163656
720.165	0.0163007
720.243	0.0163174
720.321	0.0164519
720.399	0.0164729
720.477	0.0164324
720.556	0.0163779
720.634	0.0162784
720.712	0.0164928
720.790	0.0165249
720.868	0.0165570
720.946	0.0164013
721.024	0.0164582
721.102	0.0164600
721.181	0.0165506
721.259	0.0165868
721.337	0.0164658
721.415	0.0164229
721.493	0.0164207
721.571	0.0164989
721.649	0.0165884
721.727	0.0164127
721.806	0.0164178
721.884	0.0164713
721.962	0.0165075
722.040	0.0164931
722.118	0.0164290
722.196	0.0164592
722.274	0.0164809
722.352	0.0165010
722.431	0.0164033
722.509	0.0164529
722.587	0.0164476
722.665	0.0164403
722.743	0.0164909
722.821	0.0164816
722.899	0.0164238
722.977	0.0162557
723.056	0.0163299
723.134	0.0164577
723.212	0.0162679
723.290	0.0162592
723.368	0.0163867
723.446	0.0161950
723.524	0.0162866
723.602	0.0163331
723.681	0.0162568
723.759	0.0162055
723.837	0.0161601
723.915	0.0162178
723.993	0.0162953
724.071	0.0163859
724.149	0.0163422
724.227	0.0165456
724.306	0.0164039
724.384	0.0163867
724.462	0.0164103
724.540	0.0164292
724.618	0.0163876
724.696	0.0165165
724.774	0.0165171
724.852	0.0165609
724.931	0.0163194
725.009	0.0164650
725.087	0.0164224
725.165	0.0164759
725.243	0.0165759
725.321	0.0164652
725.399	0.0163943
725.477	0.0165162
725.556	0.0165463
725.634	0.0163960
725.712	0.0165588
725.790	0.0164987
725.868	0.0162889
725.946	0.0163442
726.024	0.0163251
726.102	0.0164880
726.181	0.0164181
726.259	0.0163525
726.337	0.0163570
726.415	0.0165495
726.493	0.0164027
726.571	0.0164146
726.649	0.0164951
726.727	0.0163907
726.806	0.0164375
726.884	0.0164243
726.962	0.0164346
727.040	0.0163382
727.118	0.0164854
727.196	0.0163563
727.274	0.0163629
727.352	0.0163481
727.431	0.0162493
727.509	0.0162386
727.587	0.0162386
727.665	0.0162444
727.743	0.0161767
727.821	0.0161060
727.899	0.0162317
727.977	0.0162284
728.056	0.0162952
728.134	0.0161524
728.212	0.0161657
728.290	0.0162009
728.368	0.0162679
728.446	0.0162914
728.524	0.0163470
728.602	0.0162286
728.681	0.0161820
728.759	0.0163007
728.837	0.0163120
728.915	0.0162350
728.993	0.0163033
729.071	0.0162767
729.149	0.0164145
729.227	0.0162786
729.306	0.0163385
729.384	0.0162374
729.462	0.0163979
729.540	0.0163161
729.618	0.0163689
729.696	0.0162447
729.774	0.0161556
729.852	0.0161319
729.931	0.0162715
730.009	0.0162192
730.087	0.0161900
730.165	0.0161527
730.243	0.0160667
730.321	0.0161819
730.399	0.0162876
730.477	0.0162008
730.556	0.0162468
730.634	0.0160723
730.712	0.0162078
730.790	0.0162300
730.868	0.0162060
730.946	0.0162255
731.024	0.0162112
731.102	0.0161615
731.181	0.0162070
731.259	0.0162350
731.337	0.0162630
731.415	0.0162711
731.493	0.0161468
731.571	0.0162906
731.649	0.0162890
731.727	0.0163165
731.806	0.0161903
731.884	0.0162444
731.962	0.0163336
732.040	0.0164512
732.118	0.0162949
732.196	0.0163210
732.274	0.0163245
732.352	0.0163144
732.431	0.0164468
732.509	0.0163551
732.587	0.0164648
732.665	0.0163551
732.743	0.0162640
732.821	0.0162425
732.899	0.0164672
732.977	0.0164836
733.056	0.0163844
733.134	0.0164429
733.212	0.0164329
733.290	0.0165461
733.368	0.0165444
733.446	0.0163992
733.524	0.0164232
733.602	0.0163050
733.681	0.0164799
733.759	0.0163392
733.837	0.0164064
733.915	0.0164296
733.993	0.0163461
734.071	0.0163344
734.149	0.0164260
734.227	0.0164602
734.306	0.0163680
734.384	0.0164478
734.462	0.0162510
734.540	0.0162606
734.618	0.0165427
734.696	0.0163544
734.774	0.0163225
734.852	0.0163425
734.931	0.0162678
735.009	0.0162343
735.087	0.0163201
735.165	0.0163727
735.243	0.0162345
735.321	0.0162138
735.399	0.0162863
735.477	0.0162421
735.556	0.0162212
735.634	0.0162551
735.712	0.0163298
735.790	0.0163037
735.868	0.0161503
735.946	0.0162828
736.024	0.0163795
736.102	0.0161468
736.181	0.0160703
736.259	0.0162362
736.337	0.0162097
736.415	0.0161273
736.493	0.0161791
736.571	0.0161558
736.649	0.0160953
736.727	0.0160968
736.806	0.0161317
736.884	0.0161832
736.962	0.0161084
737.040	0.0161572
737.118	0.0161404
737.196	0.0162650
737.274	0.0161233
737.352	0.0161990
737.431	0.0162008
737.509	0.0162031
737.587	0.0162555
737.665	0.0163598
737.743	0.0163317
737.821	0.0162685
737.899	0.0162096
737.977	0.0161492
738.056	0.0161622
738.134	0.0162527
738.212	0.0163001
738.290	0.0161740
738.368	0.0162325
738.446	0.0161526
738.524	0.0163126
738.602	0.0162814
738.681	0.0161862
738.759	0.0162413
738.837	0.0162867
738.915	0.0162181
738.993	0.0161063
739.071	0.0163393
739.149	0.0164026
739.227	0.0162014
739.306	0.0163963
739.384	0.0164332
739.462	0.0162766
739.540	0.0162598
739.618	0.0161294
739.696	0.0161457
739.774	0.0162516
739.852	0.0162792
739.931	0.0163203
740.009	0.0160983
740.087	0.0161076
740.165	0.0161477
740.243	0.0162158
740.321	0.0162394
740.399	0.0163710
740.477	0.0162956
740.556	0.0161448
740.634	0.0163919
740.712	0.0163525
740.790	0.0163875
740.868	0.0163503
740.946	0.0163347
741.024	0.0162593
741.102	0.0162489
741.181	0.0163769
741.259	0.0164422
741.337	0.0163149
741.415	0.0163707
741.493	0.0162685
741.571	0.0164237
741.649	0.0164188
741.727	0.0163415
741.806	0.0164347
741.884	0.0163323
741.962	0.0162223
742.040	0.0164326
742.118	0.0163375
742.196	0.0164772
742.274	0.0163163
742.352	0.0163700
742.431	0.0163843
742.509	0.0164406
742.587	0.0163728
742.665	0.0163817
742.743	0.0164204
742.821	0.0164500
742.899	0.0165259
742.977	0.0163997
743.056	0.0164622
743.134	0.0164276
743.212	0.0165375
743.290	0.0166168
743.368	0.0165960
743.446	0.0165071
743.524	0.0165767
743.602	0.0165259
743.681	0.0165014
743.759	0.0164941
743.837	0.0163248
743.915	0.0164822
743.993	0.0165130
744.071	0.0165199
744.149	0.0164011
744.227	0.0163467
744.306	0.0164082
744.384	0.0164348
744.462	0.0163265
744.540	0.0162612
744.618	0.0164247
744.696	0.0164172
744.774	0.0164227
744.852	0.0163248
744.931	0.0164063
745.009	0.0162141
745.087	0.0163226
745.165	0.0164721
745.243	0.0163104
745.321	0.0162459
745.399	0.0162597
745.477	0.0163438
745.556	0.0163040
745.634	0.0163950
745.712	0.0164265
745.790	0.0163354
745.868	0.0163233
745.946	0.0164442
746.024	0.0163677
746.102	0.0163105
746.181	0.0164368
746.259	0.0164390
746.337	0.0164463
746.415	0.0164082
746.493	0.0164577
746.571	0.0164709
746.649	0.0163820
746.727	0.0163532
746.806	0.0163963
746.884	0.0164967
746.962	0.0162782
747.040	0.0161673
747.118	0.0162476
747.196	0.0163825
747.274	0.0163126
747.352	0.0163705
747.431	0.0163605
747.509	0.0163555
747.587	0.0163628
747.665	0.0162613
747.743	0.0161866
747.821	0.0163696
747.899	0.0162765
747.977	0.0163885
748.056	0.0163559
748.134	0.0162662
748.212	0.0161175
748.290	0.0162480
748.368	0.0162665
748.446	0.0162025
748.524	0.0161954
748.602	0.0160881
748.681	0.0162119
748.759	0.0162559
748.837	0.0162151
748.915	0.0161246
748.993	0.0163673
749.071	0.0162017
749.149	0.0161647
749.227	0.0161440
749.306	0.0161736
749.384	0.0161185
749.462	0.0160869
749.540	0.0162024
749.618	0.0161921
749.696	0.0161977
749.774	0.0161377
749.852	0.0161158
749.931	0.0161252
750.009	0.0161662
750.087	0.0161414
750.165	0.0160528
750.243	0.0161052
750.321	0.0160878
750.399	0.0161412
750.477	0.0162141
750.556	0.0162178
750.634	0.0160934
750.712	0.0161566
750.790	0.0161139
750.868	0.0161420
750.946	0.0161560
751.024	0.0161169
751.102	0.0163893
751.181	0.0163108
751.259	0.0162737
751.337	0.0162125
751.415	0.0162561
751.493	0.0162034
751.571	0.0162444
751.649	0.0163653
751.727	0.0163295
751.806	0.0161304
751.884	0.0163116
751.962	0.0163523
752.040	0.0162989
752.118	0.0162705
752.196	0.0163691
752.274	0.0163916
752.352	0.0164072
752.431	0.0161758
752.509	0.0163303
752.587	0.0163642
752.665	0.0162615
752.743	0.0163174
752.821	0.0163821
752.899	0.0161996
752.977	0.0163285
753.056	0.0163057
753.134	0.0162148
753.212	0.0163879
753.290	0.0163628
753.368	0.0162600
753.446	0.0161730
753.524	0.0163878
753.602	0.0163974
753.681	0.0163232
753.759	0.0164024
753.837	0.0163303
753.915	0.0163951
753.993	0.0163125
754.071	0.0163165
754.149	0.0163546
754.227	0.0163608
754.306	0.0162302
754.384	0.0163939
754.462	0.0164391
754.540	0.0162205
754.618	0.0162983
754.696	0.0164011
754.774	0.0162273
754.852	0.0162287
754.931	0.0162926
755.009	0.0164180
755.087	0.0162914
755.165	0.0163545
755.243	0.0162795
755.321	0.0162119
755.399	0.0163811
755.477	0.0163829
755.556	0.0163567
755.634	0.0162383
755.712	0.0161958
755.790	0.0162791
755.868	0.0163119
755.946	0.0162986
756.024	0.0164391
756.102	0.0162367
756.181	0.0163544
756.259	0.0162786
756.337	0.0162260
756.415	0.0162758
756.493	0.0162020
756.571	0.0162449
756.649	0.0162592
756.727	0.0164249
756.806	0.0162317
756.884	0.0162077
756.962	0.0161450
757.040	0.0161687
757.118	0.0162773
757.196	0.0163997
757.274	0.0163274
757.352	0.0163034
757.431	0.0163301
757.509	0.0162664
757.587	0.0162667
757.665	0.0162309
757.743	0.0163599
757.821	0.0164492
757.899	0.0161379
757.977	0.0163002
758.056	0.0164433
758.134	0.0163754
758.212	0.0163015
758.290	0.0161905
758.368	0.0164153
758.446	0.0164349
758.524	0.0163535
758.602	0.0163934
758.681	0.0162783
758.759	0.0162996
758.837	0.0163345
758.915	0.0163280
758.993	0.0164408
759.071	0.0163595
759.149	0.0163319
759.227	0.0163454
759.306	0.0163522
759.384	0.0162228
759.462	0.0162447
759.540	0.0162827
759.618	0.0162804
759.696	0.0162766
759.774	0.0161441
759.852	0.0162760
759.931	0.0162205
760.009	0.0161665
760.087	0.0161629
760.165	0.0161745
760.243	0.0162127
760.321	0.0161017
760.399	0.0162110
760.477	0.0161562
760.556	0.0162242
760.634	0.0161814
760.712	0.0162305
760.790	0.0163342
760.868	0.0162669
760.946	0.0163356
761.024	0.0161698
761.102	0.0163611
761.181	0.0164808
761.259	0.0162937
761.337	0.0164613
761.415	0.0163122
761.493	0.0162878
761.571	0.0162521
761.649	0.0162681
761.727	0.0162881
761.806	0.0164209
761.884	0.0164030
761.962	0.0164172
762.040	0.0162519
762.118	0.0163417
762.196	0.0163141
762.274	0.0163946
762.352	0.0162997
762.431	0.0164256
762.509	0.0163573
762.587	0.0163909
762.665	0.0163363
762.743	0.0163945
762.821	0.0165474
762.899	0.0163330
762.977	0.0163401
763.056	0.0162785
763.134	0.0164211
763.212	0.0164175
763.290	0.0164032
763.368	0.0163719
763.446	0.0163391
763.524	0.0163717
763.602	0.0165236
763.681	0.0164227
763.759	0.0162946
763.837	0.0162951
763.915	0.0163630
763.993	0.0163239
764.071	0.0163371
764.149	0.0163051
764.227	0.0164295
764.306	0.0164340
764.384	0.0163068
764.462	0.0165284
764.540	0.0161994
764.618	0.0163587
764.696	0.0163821
764.774	0.0163816
764.852	0.0163834
764.931	0.0163604
765.009	0.0161936
765.087	0.0161649
765.165	0.0161206
765.243	0.0161667
765.321	0.0163876
765.399	0.0162675
765.477	0.0161349
765.556	0.0160596
765.634	0.0161765
765.712	0.0162086
765.790	0.0161567
765.868	0.0162830
765.946	0.0161072
766.024	0.0163306
766.102	0.0162913
766.181	0.0161261
766.259	0.0161807
766.337	0.0161325
766.415	0.0162949
766.493	0.0163483
766.571	0.0163877
766.649	0.0163684
766.727	0.0161996
766.806	0.0162119
766.884	0.0161830
766.962	0.0163338
767.040	0.0162642
767.118	0.0162587
767.196	0.0163457
767.274	0.0163673
767.352	0.0162840
767.431	0.0160567
767.509	0.0162080
767.587	0.0161932
767.665	0.0161752
767.743	0.0163501
767.821	0.0163002
767.899	0.0162419
767.977	0.0163352
768.056	0.0163804
768.134	0.0163998
768.212	0.0162977
768.290	0.0162025
768.368	0.0163237
768.446	0.0163319
768.524	0.0162991
768.602	0.0162977
768.681	0.0163902
768.759	0.0163020
768.837	0.0164041
768.915	0.0162505
768.993	0.0163563
769.071	0.0164568
769.149	0.0163586
769.227	0.0163400
769.306	0.0163001
769.384	0.0163922
769.462	0.0162025
769.540	0.0162428
769.618	0.0162813
769.696	0.0162036
769.774	0.0162941
769.852	0.0163225
769.931	0.0163341
770.009	0.0162675
770.087	0.0162974
770.165	0.0164175
770.243	0.0163744
770.321	0.0162509
770.399	0.0162178
770.477	0.0162128
770.556	0.0163184
770.634	0.0162431
770.712	0.0161749
770.790	0.0163170
770.868	0.0162865
770.946	0.0162236
771.024	0.0161689
771.102	0.0163323
771.181	0.0163057
771.259	0.0162316
771.337	0.0162626
771.415	0.0162907
771.493	0.0160711
771.571	0.0161386
771.649	0.0161588
771.727	0.0161153
771.806	0.0163560
771.884	0.0162701
771.962	0.0162477
772.040	0.0162350
772.118	0.0162757
772.196	0.0161231
772.274	0.0161243
772.352	0.0161906
772.431	0.0161630
772.509	0.0161765
772.587	0.0162914
772.665	0.0161954
772.743	0.0162238
772.821	0.0162098
772.899	0.0161465
772.977	0.0161046
773.056	0.0161880
773.134	0.0161543
773.212	0.0161813
773.290	0.0162436
773.368	0.0162450
773.446	0.0161752
773.524	0.0161913
773.602	0.0163060
773.681	0.0163190
773.759	0.0162074
773.837	0.0163371
773.915	0.0164121
773.993	0.0162304
774.071	0.0163483
774.149	0.0163451
774.227	0.0163307
774.306	0.0164204
774.384	0.0165482
774.462	0.0164626
774.540	0.0163042
774.618	0.0164631
774.696	0.0165559
774.774	0.0164230
774.852	0.0164415
774.931	0.0165086
775.009	0.0164669
775.087	0.0164483
775.165	0.0164910
775.243	0.0164359
775.321	0.0163765
775.399	0.0165245
775.477	0.0162980
775.556	0.0164321
775.634	0.0163033
775.712	0.0163745
775.790	0.0161906
775.868	0.0162013
775.946	0.0163120
776.024	0.0163063
776.102	0.0162314
776.181	0.0163165
776.259	0.0161750
776.337	0.0161976
776.415	0.0162977
776.493	0.0163192
776.571	0.0161540
776.649	0.0162917
776.727	0.0162938
776.806	0.0163033
776.884	0.0162801
776.962	0.0164004
777.040	0.0163584
777.118	0.0162783
777.196	0.0163008
777.274	0.0162313
777.352	0.0162376
777.431	0.0163271
777.509	0.0162842
777.587	0.0163049
777.665	0.0163996
777.743	0.0162723
777.821	0.0162682
777.899	0.0163585
777.977	0.0163151
778.056	0.0163157
778.134	0.0164718
778.212	0.0164159
778.290	0.0163082
778.368	0.0163291
778.446	0.0162684
778.524	0.0164809
778.602	0.0163641
778.681	0.0163058
778.759	0.0165586
778.837	0.0163341
778.915	0.0162229
778.993	0.0163827
779.071	0.0163951
779.149	0.0164102
779.227	0.0161523
779.306	0.0163560
779.384	0.0163979
779.462	0.0163978
779.540	0.0163569
779.618	0.0162938
779.696	0.0163374
779.774	0.0163467
779.852	0.0163708
779.931	0.0163063
780.009	0.0161574
780.087	0.0161645
780.165	0.0163477
780.243	0.0162984
780.321	0.0162451
780.399	0.0162977
780.477	0.0162095
780.556	0.0162135
780.634	0.0162575
780.712	0.0162247
780.790	0.0162893
780.868	0.0162438
780.946	0.0162195
781.024	0.0160606
781.102	0.0162135
781.181	0.0161746
781.259	0.0161329
781.337	0.0162230
781.415	0.0160241
781.493	0.0160746
781.571	0.0162244
781.649	0.0161768
781.727	0.0160618
781.806	0.0160197
781.884	0.0161131
781.962	0.0162267
782.040	0.0162661
782.118	0.0160909
782.196	0.0161666
782.274	0.0161008
782.352	0.0160726
782.431	0.0161916
782.509	0.0160574
782.587	0.0160604
782.665	0.0163311
782.743	0.0161686
782.821	0.0162479
782.899	0.0160664
782.977	0.0162615
783.056	0.0160828
783.134	0.0163192
783.212	0.0163906
783.290	0.0161069
783.368	0.0162383
783.446	0.0163181
783.524	0.0161370
783.602	0.0162134
783.681	0.0163478
783.759	0.0161517
783.837	0.0162095
783.915	0.0163773
783.993	0.0164661
784.071	0.0163654
784.149	0.0162644
784.227	0.0164475
784.306	0.0163824
784.384	0.0163979
784.462	0.0163867
784.540	0.0165120
784.618	0.0164461
784.696	0.0163638
784.774	0.0166575
784.852	0.0164877
784.931	0.0166924
785.009	0.0166099
785.087	0.0165321
785.165	0.0166087
785.243	0.0166388
785.321	0.0164642
785.399	0.0165411
785.477	0.0165710
785.556	0.0166151
785.634	0.0165406
785.712	0.0165147
785.790	0.0165490
785.868	0.0165386
785.946	0.0164896
786.024	0.0164989
786.102	0.0163621
786.181	0.0165862
786.259	0.0165552
786.337	0.0165630
786.415	0.0165205
786.493	0.0164210
786.571	0.0164019
786.649	0.0164262
786.727	0.0163242
786.806	0.0164740
786.884	0.0163831
786.962	0.0164175
787.040	0.0163271
787.118	0.0164474
787.196	0.0164133
787.274	0.0164064
787.352	0.0164892
787.431	0.0164593
787.509	0.0164455
787.587	0.0163925
787.665	0.0164877
787.743	0.0165981
787.821	0.0163815
787.899	0.0163005
787.977	0.0164169
788.056	0.0164996
788.134	0.0164378
788.212	0.0163941
788.290	0.0164872
788.368	0.0165782
788.446	0.0163505
788.524	0.0163522
788.602	0.0164525
788.681	0.0161770
788.759	0.0162488
788.837	0.0163064
788.915	0.0163286
788.993	0.0163707
789.071	0.0162375
789.149	0.0162987
789.227	0.0165141
789.306	0.0163914
789.384	0.0163271
789.462	0.0164874
789.540	0.0164381
789.618	0.0164610
789.696	0.0163640
789.774	0.0163229
789.852	0.0165173
789.931	0.0163617
790.009	0.0162931
790.087	0.0163643
790.165	0.0163149
790.243	0.0164224
790.321	0.0162872
790.399	0.0162352
790.477	0.0163782
790.556	0.0162512
790.634	0.0163580
790.712	0.0163136
790.790	0.0162729
790.868	0.0163432
790.946	0.0162212
791.024	0.0163956
791.102	0.0162652
791.181	0.0163322
791.259	0.0163374
791.337	0.0163275
791.415	0.0162692
791.493	0.0161592
791.571	0.0162386
791.649	0.0161249
791.727	0.0162000
791.806	0.0162060
791.884	0.0162254
791.962	0.0162649
792.040	0.0161755
792.118	0.0162234
792.196	0.0162939
792.274	0.0162637
792.352	0.0161958
792.431	0.0162598
792.509	0.0161531
792.587	0.0162706
792.665	0.0162831
792.743	0.0162960
792.821	0.0163353
792.899	0.0162464
792.977	0.0163086
793.056	0.0161835
793.134	0.0162640
793.212	0.0162617
793.290	0.0162790
793.368	0.0161651
793.446	0.0162276
793.524	0.0163963
793.602	0.0164176
793.681	0.0163847
793.759	0.0164252
793.837	0.0163332
793.915	0.0164682
793.993	0.0165164
794.071	0.0164619
794.149	0.0164757
794.227	0.0164159
794.306	0.0165804
794.384	0.0165786
794.462	0.0166454
794.540	0.0163599
794.618	0.0164807
794.696	0.0165344
794.774	0.0165791
794.852	0.0164974
794.931	0.0165679
795.009	0.0165392
795.087	0.0164618
795.165	0.0164980
795.243	0.0165044
795.321	0.0164677
795.399	0.0163207
795.477	0.0164618
795.556	0.0163688
795.634	0.0163670
795.712	0.0163967
795.790	0.0163239
795.868	0.0163947
795.946	0.0163763
796.024	0.0162167
796.102	0.0164665
796.181	0.0162038
796.259	0.0164070
796.337	0.0164518
796.415	0.0162499
796.493	0.0164054
796.571	0.0163660
796.649	0.0164108
796.727	0.0162350
796.806	0.0163205
796.884	0.0164751
796.962	0.0164261
797.040	0.0164114
797.118	0.0162872
797.196	0.0163492
797.274	0.0162166
797.352	0.0164741
797.431	0.0163807
797.509	0.0163162
797.587	0.0163795
797.665	0.0164136
797.743	0.0163505
797.821	0.0163366
797.899	0.0165344
797.977	0.0163995
798.056	0.0163927
798.134	0.0163969
798.212	0.0165173
798.290	0.0165051
798.368	0.0165031
798.446	0.0164638
798.524	0.0164025
798.602	0.0165633
798.681	0.0165893
798.759	0.0164968
798.837	0.0164168
798.915	0.0162956
798.993	0.0163322
799.071	0.0163838
799.149	0.0164175
799.227	0.0163487
799.306	0.0163467
799.384	0.0164069
799.462	0.0163549
799.540	0.0163055
799.618	0.0163144
799.696	0.0160718
799.774	0.0162693
799.852	0.0162161
799.931	0.0163099
800.009	0.0161891
800.087	0.0162371
800.165	0.0159747
800.243	0.0161537
800.321	0.0162424
800.399	0.0160757
800.477	0.0161997
800.556	0.0159393
800.634	0.0159878
800.712	0.0159160
800.790	0.0160836
800.868	0.0159273
800.946	0.0159705
801.024	0.0161717
801.102	0.0160160
801.181	0.0159879
801.259	0.0161401
801.337	0.0161002
801.415	0.0159914
801.493	0.0159525
801.571	0.0160790
801.649	0.0161738
801.727	0.0159905
801.806	0.0159840
801.884	0.0161109
801.962	0.0160663
802.040	0.0161618
802.118	0.0161694
802.196	0.0163097
802.274	0.0161206
802.352	0.0162708
802.431	0.0162339
802.509	0.0162485
802.587	0.0162185
802.665	0.0163791
802.743	0.0162679
802.821	0.0164425
802.899	0.0165054
802.977	0.0163258
803.056	0.0165190
803.134	0.0163621
803.212	0.0164205
803.290	0.0165248
803.368	0.0164462
803.446	0.0165187
803.524	0.0164923
803.602	0.0164262
803.681	0.0164864
803.759	0.0165139
803.837	0.0164571
803.915	0.0165013
803.993	0.0164092
804.071	0.0165233
804.149	0.0163890
804.227	0.0164561
804.306	0.0165062
804.384	0.0164014
804.462	0.0164526
804.540	0.0165421
804.618	0.0163865
804.696	0.0163687
804.774	0.0165694
804.852	0.0165038
804.931	0.0164782
805.009	0.0165872
805.087	0.0163597
805.165	0.0164885
805.243	0.0165541
805.321	0.0164324
805.399	0.0163370
805.477	0.0164049
805.556	0.0165174
805.634	0.0164574
805.712	0.0163404
805.790	0.0163223
805.868	0.0163318
805.946	0.0164014
806.024	0.0164207
806.102	0.0164065
806.181	0.0164556
806.259	0.0161774
806.337	0.0163673
806.415	0.0164295
806.493	0.0163535
806.571	0.0162839
806.649	0.0163739
806.727	0.0162106
806.806	0.0162779
806.884	0.0162155
806.962	0.0162785
807.040	0.0162318
807.118	0.0161889
807.196	0.0162623
807.274	0.0162334
807.352	0.0161932
807.431	0.0162379
807.509	0.0161570
807.587	0.0162934
807.665	0.0163304
807.743	0.0162621
807.821	0.0163045
807.899	0.0162962
807.977	0.0163181
808.056	0.0163482
808.134	0.0162831
808.212	0.0162878
808.290	0.0161172
808.368	0.0163500
808.446	0.0163451
808.524	0.0162476
808.602	0.0163430
808.681	0.0164935
808.759	0.0163789
808.837	0.0163030
808.915	0.0163286
808.993	0.0163477
809.071	0.0163851
809.149	0.0163423
809.227	0.0163804
809.306	0.0164249
809.384	0.0164032
809.462	0.0164255
809.540	0.0163694
809.618	0.0164914
809.696	0.0164188
809.774	0.0163579
809.852	0.0165410
809.931	0.0165195
810.009	0.0164695
810.087	0.0164026
810.165	0.0164359
810.243	0.0164019
810.321	0.0164449
810.399	0.0164265
810.477	0.0163210
810.556	0.0164137
810.634	0.0164597
810.712	0.0164601
810.790	0.0163696
810.868	0.0162943
810.946	0.0164191
811.024	0.0164302
811.102	0.0163706
811.181	0.0163294
811.259	0.0163651
811.337	0.0164121
811.415	0.0163252
811.493	0.0164097
811.571	0.0162579
811.649	0.0162704
811.727	0.0162784
811.806	0.0164395
811.884	0.0163328
811.962	0.0162378
812.040	0.0162263
812.118	0.0162614
812.196	0.0162663
812.274	0.0163350
812.352	0.0162946
812.431	0.0161983
812.509	0.0162132
812.587	0.0163084
812.665	0.0162468
812.743	0.0162473
812.821	0.0162852
812.899	0.0162257
812.977	0.0161779
813.056	0.0163270
813.134	0.0163024
813.212	0.0161751
813.290	0.0162925
813.368	0.0163091
813.446	0.0162769
813.524	0.0162457
813.602	0.0163081
813.681	0.0163534
813.759	0.0163120
813.837	0.0161836
813.915	0.0163607
813.993	0.0163168
814.071	0.0162397
814.149	0.0163818
814.227	0.0162894
814.306	0.0164146
814.384	0.0163427
814.462	0.0163197
814.540	0.0163599
814.618	0.0164374
814.696	0.0163799
814.774	0.0162945
814.852	0.0162969
814.931	0.0162257
815.009	0.0162609
815.087	0.0162612
815.165	0.0163632
815.243	0.0161391
815.321	0.0162717
815.399	0.0162634
815.477	0.0162891
815.556	0.0161967
815.634	0.0161360
815.712	0.0162041
815.790	0.0161979
815.868	0.0161884
815.946	0.0162169
816.024	0.0162800
816.102	0.0162167
816.181	0.0162511
816.259	0.0162025
816.337	0.0162450
816.415	0.0164164
816.493	0.0162968
816.571	0.0161743
816.649	0.0162707
816.727	0.0163686
816.806	0.0162630
816.884	0.0164133
816.962	0.0162585
817.040	0.0163519
817.118	0.0163853
817.196	0.0163288
817.274	0.0164312
817.352	0.0163474
817.431	0.0162943
817.509	0.0164632
817.587	0.0164884
817.665	0.0163288
817.743	0.0165549
817.821	0.0165162
817.899	0.0164004
817.977	0.0163589
818.056	0.0164282
818.134	0.0165019
818.212	0.0165290
818.290	0.0165290
818.368	0.0165377
818.446	0.0166251
818.524	0.0165337
818.602	0.0165686
818.681	0.0166319
818.759	0.0165266
818.837	0.0166549
818.915	0.0165788
818.993	0.0165003
819.071	0.0164854
819.149	0.0165641
819.227	0.0165736
819.306	0.0165902
819.384	0.0166336
819.462	0.0165416
819.540	0.0166989
819.618	0.0165218
819.696	0.0164158
819.774	0.0166951
819.852	0.0166853
819.931	0.0164709
820.009	0.0167222
820.087	0.0166214
820.165	0.0165625
820.243	0.0165871
820.321	0.0165055
820.399	0.0165850
820.477	0.0164096
820.556	0.0164117
820.634	0.0165778
820.712	0.0165971
820.790	0.0164986
820.868	0.0165394
820.946	0.0163935
821.024	0.0164307
821.102	0.0165378
821.181	0.0163773
821.259	0.0163618
821.337	0.0163596
821.415	0.0163953
821.493	0.0163108
821.571	0.0163492
821.649	0.0163252
821.727	0.0163403
821.806	0.0163295
821.884	0.0163676
821.962	0.0164323
822.040	0.0163956
822.118	0.0163479
822.196	0.0164057
822.274	0.0164971
822.352	0.0164586
822.431	0.0163833
822.509	0.0164095
822.587	0.0164697
822.665	0.0163255
822.743	0.0163522
822.821	0.0163710
822.899	0.0163996
822.977	0.0164893
823.056	0.0162677
823.134	0.0162423
823.212	0.0164069
823.290	0.0162950
823.368	0.0163876
823.446	0.0162917
823.524	0.0162930
823.602	0.0163550
823.681	0.0162234
823.759	0.0162591
823.837	0.0162737
823.915	0.0163219
823.993	0.0163212
824.071	0.0162213
824.149	0.0161405
824.227	0.0161520
824.306	0.0162643
824.384	0.0162393
824.462	0.0162474
824.540	0.0162061
824.618	0.0161572
824.696	0.0163499
824.774	0.0161681
824.852	0.0163759
824.931	0.0162582
825.009	0.0161283
825.087	0.0161597
825.165	0.0162948
825.243	0.0162521
825.321	0.0162125
825.399	0.0162339
825.477	0.0162835
825.556	0.0163419
825.634	0.0161164
825.712	0.0162275
825.790	0.0162005
825.868	0.0162724
825.946	0.0162188
826.024	0.0160979
826.102	0.0161881
826.181	0.0162860
826.259	0.0163116
826.337	0.0162318
826.415	0.0162639
826.493	0.0163213
826.571	0.0162656
826.649	0.0164745
826.727	0.0163293
826.806	0.0161861
826.884	0.0162854
826.962	0.0162619
827.040	0.0163097
827.118	0.0163708
827.196	0.0164275
827.274	0.0163213
827.352	0.0163934
827.431	0.0163959
827.509	0.0163036
827.587	0.0163136
827.665	0.0163248
827.743	0.0162642
827.821	0.0163573
827.899	0.0163069
827.977	0.0162779
828.056	0.0163181
828.134	0.0164073
828.212	0.0164660
828.290	0.0162712
828.368	0.0163838
828.446	0.0163694
828.524	0.0163297
828.602	0.0164247
828.681	0.0164571
828.759	0.0163116
828.837	0.0163473
828.915	0.0161832
828.993	0.0163994
829.071	0.0164044
829.149	0.0163831
829.227	0.0163296
829.306	0.0163768
829.384	0.0164058
829.462	0.0163207
829.540	0.0163742
829.618	0.0164103
829.696	0.0164586
829.774	0.0163114
829.852	0.0163042
829.931	0.0164558
830.009	0.0163869
830.087	0.0163551
830.165	0.0164436
830.243	0.0164439
830.321	0.0163744
830.399	0.0164055
830.477	0.0162917
830.556	0.0163606
830.634	0.0163957
830.712	0.0163646
830.790	0.0163068
830.868	0.0164652
830.946	0.0164180
831.024	0.0164067
831.102	0.0163136
831.181	0.0163830
831.259	0.0163333
831.337	0.0163580
831.415	0.0164087
831.493	0.0163668
831.571	0.0164351
831.649	0.0163631
831.727	0.0164835
831.806	0.0164565
831.884	0.0164172
831.962	0.0163542
832.040	0.0163380
832.118	0.0163918
832.196	0.0163384
832.274	0.0163376
832.352	0.0163771
832.431	0.0164265
832.509	0.0163193
832.587	0.0164496
832.665	0.0163676
832.743	0.0164886
832.821	0.0164129
832.899	0.0163775
832.977	0.0162979
833.056	0.0164903
833.134	0.0163947
833.212	0.0163805
833.290	0.0164690
833.368	0.0164684
833.446	0.0164288
833.524	0.0162645
833.602	0.0163975
833.681	0.0163597
833.759	0.0164165
833.837	0.0162809
833.915	0.0162051
833.993	0.0163351
834.071	0.0163684
834.149	0.0163525
834.227	0.0163023
834.306	0.0161745
834.384	0.0161780
834.462	0.0160363
834.540	0.0162283
834.618	0.0161047
834.696	0.0162381
834.774	0.0162021
834.852	0.0160052
834.931	0.0160478
835.009	0.0161911
835.087	0.0160960
835.165	0.0161369
835.243	0.0160218
835.321	0.0161469
835.399	0.0161131
835.477	0.0161070
835.556	0.0161143
835.634	0.0162100
835.712	0.0161118
835.790	0.0161411
835.868	0.0162257
835.946	0.0162225
836.024	0.0161208
836.102	0.0161430
836.181	0.0162846
836.259	0.0161116
836.337	0.0163361
836.415	0.0163104
836.493	0.0162739
836.571	0.0162737
836.649	0.0162646
836.727	0.0162931
836.806	0.0161654
836.884	0.0162926
836.962	0.0163036
837.040	0.0161575
837.118	0.0161922
837.196	0.0163223
837.274	0.0163255
837.352	0.0162904
837.431	0.0163349
837.509	0.0163825
837.587	0.0163641
837.665	0.0161946
837.743	0.0163490
837.821	0.0164487
837.899	0.0164697
837.977	0.0163442
838.056	0.0164609
838.134	0.0163154
838.212	0.0163361
838.290	0.0164910
838.368	0.0163685
838.446	0.0163545
838.524	0.0164699
838.602	0.0164860
838.681	0.0164627
838.759	0.0164933
838.837	0.0165899
838.915	0.0164889
838.993	0.0163712
839.071	0.0165564
839.149	0.0165215
839.227	0.0164169
839.306	0.0164804
839.384	0.0165292
839.462	0.0165248
839.540	0.0165177
839.618	0.0165826
839.696	0.0165028
839.774	0.0162550
839.852	0.0166362
839.931	0.0164323
840.009	0.0164437
840.087	0.0164038
840.165	0.0162981
840.243	0.0164340
840.321	0.0162086
840.399	0.0163734
840.477	0.0164014
840.556	0.0163313
840.634	0.0162782
840.712	0.0161913
840.790	0.0162859
840.868	0.0163708
840.946	0.0164693
841.024	0.0163553
841.102	0.0162043
841.181	0.0163045
841.259	0.0163109
841.337	0.0163136
841.415	0.0163078
841.493	0.0164940
841.571	0.0163212
841.649	0.0163260
841.727	0.0163005
841.806	0.0163769
841.884	0.0162531
841.962	0.0161956
842.040	0.0163429
842.118	0.0162648
842.196	0.0163085
842.274	0.0164758
842.352	0.0163095
842.431	0.0163487
842.509	0.0163573
842.587	0.0163758
842.665	0.0164216
842.743	0.0164183
842.821	0.0163633
842.899	0.0163865
842.977	0.0162526
843.056	0.0163482
843.134	0.0165016
843.212	0.0163107
843.290	0.0163206
843.368	0.0164561
843.446	0.0164564
843.524	0.0165049
843.602	0.0163537
843.681	0.0164587
843.759	0.0165777
843.837	0.0166348
843.915	0.0164241
843.993	0.0164315
844.071	0.0166124
844.149	0.0165185
844.227	0.0166090
844.306	0.0164711
844.384	0.0164874
844.462	0.0165534
844.540	0.0166254
844.618	0.0164542
844.696	0.0165269
844.774	0.0164645
844.852	0.0165520
844.931	0.0164906
845.009	0.0164162
845.087	0.0165897
845.165	0.0165884
845.243	0.0164434
845.321	0.0164846
845.399	0.0164576
845.477	0.0165082
845.556	0.0163525
845.634	0.0164360
845.712	0.0164900
845.790	0.0163648
845.868	0.0162172
845.946	0.0163866
846.024	0.0164488
846.102	0.0164329
846.181	0.0163431
846.259	0.0163017
846.337	0.0162984
846.415	0.0163072
846.493	0.0163021
846.571	0.0162402
846.649	0.0163481
846.727	0.0162914
846.806	0.0161607
846.884	0.0163010
846.962	0.0161628
847.040	0.0162791
847.118	0.0160847
847.196	0.0160978
847.274	0.0161759
847.352	0.0159959
847.431	0.0160924
847.509	0.0161427
847.587	0.0162254
847.665	0.0162202
847.743	0.0160827
847.821	0.0161805
847.899	0.0162070
847.977	0.0161899
848.056	0.0162669
848.134	0.0162318
848.212	0.0162716
848.290	0.0162489
848.368	0.0162854
848.446	0.0163657
848.524	0.0164330
848.602	0.0163860
848.681	0.0163106
848.759	0.0163374
848.837	0.0163503
848.915	0.0163724
848.993	0.0164002
849.071	0.0162685
849.149	0.0163767
849.227	0.0163122
849.306	0.0162930
849.384	0.0163319
849.462	0.0164294
849.540	0.0164460
849.618	0.0164002
849.696	0.0164992
849.774	0.0164162
849.852	0.0162334
849.931	0.0163863
850.009	0.0165411
850.087	0.0163441
850.165	0.0164462
850.243	0.0163949
850.321	0.0164934
850.399	0.0164346
850.477	0.0163692
850.556	0.0163538
850.634	0.0164507
850.712	0.0163589
850.790	0.0163697
850.868	0.0163009
850.946	0.0163070
851.024	0.0163283
851.102	0.0163639
851.181	0.0164019
851.259	0.0165023
851.337	0.0164314
851.415	0.0163537
851.493	0.0163161
851.571	0.0164546
851.649	0.0162904
851.727	0.0162973
851.806	0.0163404
851.884	0.0162366
851.962	0.0163590
852.040	0.0164537
852.118	0.0163148
852.196	0.0163190
852.274	0.0162966
852.352	0.0162436
852.431	0.0161571
852.509	0.0162384
852.587	0.0163159
852.665	0.0162563
852.743	0.0161528
852.821	0.0162437
852.899	0.0162642
852.977	0.0162653
853.056	0.0162200
853.134	0.0162138
853.212	0.0162647
853.290	0.0162109
853.368	0.0162500
853.446	0.0162378
853.524	0.0162693
853.602	0.0162531
853.681	0.0163305
853.759	0.0162364
853.837	0.0162704
853.915	0.0162753
853.993	0.0161700
854.071	0.0162439
854.149	0.0164413
854.227	0.0162985
854.306	0.0160707
854.384	0.0162852
854.462	0.0161224
854.540	0.0162354
854.618	0.0164751
854.696	0.0163101
854.774	0.0162859
854.852	0.0163184
854.931	0.0162062
855.009	0.0163078
855.087	0.0163479
855.165	0.0162850
855.243	0.0161752
855.321	0.0163152
855.399	0.0163892
855.477	0.0163167
855.556	0.0164654
855.634	0.0164161
855.712	0.0164244
855.790	0.0163850
855.868	0.0163410
855.946	0.0164803
856.024	0.0163100
856.102	0.0163216
856.181	0.0164227
856.259	0.0164892
856.337	0.0164502
856.415	0.0164155
856.493	0.0164285
856.571	0.0164771
856.649	0.0164706
856.727	0.0164384
856.806	0.0164235
856.884	0.0164247
856.962	0.0164689
857.040	0.0165304
857.118	0.0164794
857.196	0.0163076
857.274	0.0164397
857.352	0.0165315
857.431	0.0164535
857.509	0.0165092
857.587	0.0163406
857.665	0.0164778
857.743	0.0164648
857.821	0.0165157
857.899	0.0164030
857.977	0.0162125
858.056	0.0165198
858.134	0.0163207
858.212	0.0164601
858.290	0.0163966
858.368	0.0162934
858.446	0.0164234
858.524	0.0163852
858.602	0.0164796
858.681	0.0163373
858.759	0.0163004
858.837	0.0163620
858.915	0.0163944
858.993	0.0163363
859.071	0.0162491
859.149	0.0163780
859.227	0.0163945
859.306	0.0163798
859.384	0.0163670
859.462	0.0163636
859.540	0.0162397
859.618	0.0162794
859.696	0.0163243
859.774	0.0163897
859.852	0.0163802
859.931	0.0162508
860.009	0.0163070
860.087	0.0163018
860.165	0.0163097
860.243	0.0164716
860.321	0.0163162
860.399	0.0163269
860.477	0.0161874
860.556	0.0163725
860.634	0.0162861
860.712	0.0163023
860.790	0.0163636
860.868	0.0163598
860.946	0.0163445
861.024	0.0162775
861.102	0.0163947
861.181	0.0164385
861.259	0.0164303
861.337	0.0163741
861.415	0.0164495
861.493	0.0164554
861.571	0.0164301
861.649	0.0165565
861.727	0.0163602
861.806	0.0164285
861.884	0.0164381
861.962	0.0163381
862.040	0.0164938
862.118	0.0164320
862.196	0.0163494
862.274	0.0162339
862.352	0.0164260
862.431	0.0162129
862.509	0.0164653
862.587	0.0163522
862.665	0.0162302
862.743	0.0164807
862.821	0.0163840
862.899	0.0162889
862.977	0.0163332
863.056	0.0164114
863.134	0.0164127
863.212	0.0163586
863.290	0.0164600
863.368	0.0163097
863.446	0.0162585
863.524	0.0164301
863.602	0.0164207
863.681	0.0162420
863.759	0.0161548
863.837	0.0162466
863.915	0.0163370
863.993	0.0163765
864.071	0.0162887
864.149	0.0162772
864.227	0.0163178
864.306	0.0163871
864.384	0.0164027
864.462	0.0163844
864.540	0.0162677
864.618	0.0165861
864.696	0.0165269
864.774	0.0164737
864.852	0.0164433
864.931	0.0163585
865.009	0.0163522
865.087	0.0163028
865.165	0.0162104
865.243	0.0164909
865.321	0.0166071
865.399	0.0163799
865.477	0.0162753
865.556	0.0162801
865.634	0.0163094
865.712	0.0162457
865.790	0.0163821
865.868	0.0163243
865.946	0.0161670
866.024	0.0162178
866.102	0.0162138
866.181	0.0162762
866.259	0.0163473
866.337	0.0161800
866.415	0.0164281
866.493	0.0163362
866.571	0.0162691
866.649	0.0164379
866.727	0.0163084
866.806	0.0162177
866.884	0.0162381
866.962	0.0162347
867.040	0.0163123
867.118	0.0163478
867.196	0.0162644
867.274	0.0162776
867.352	0.0161964
867.431	0.0161777
867.509	0.0162500
867.587	0.0162717
867.665	0.0162852
867.743	0.0163100
867.821	0.0162310
867.899	0.0163334
867.977	0.0163116
868.056	0.0161546
868.134	0.0164413
868.212	0.0164330
868.290	0.0162514
868.368	0.0163859
868.446	0.0164422
868.524	0.0163314
868.602	0.0162523
868.681	0.0163351
868.759	0.0163825
868.837	0.0164376
868.915	0.0162521
868.993	0.0162791
869.071	0.0163428
869.149	0.0164118
869.227	0.0163975
869.306	0.0163241
869.384	0.0162459
869.462	0.0162108
869.540	0.0163500
869.618	0.0164489
869.696	0.0165267
869.774	0.0164424
869.852	0.0164331
869.931	0.0164619
870.009	0.0163976
870.087	0.0164113
870.165	0.0164371
870.243	0.0163634
870.321	0.0162658
870.399	0.0164938
870.477	0.0163683
870.556	0.0163167
870.634	0.0163063
870.712	0.0163173
870.790	0.0164610
870.868	0.0164639
870.946	0.0161736
871.024	0.0163973
871.102	0.0162786
871.181	0.0163530
871.259	0.0161800
871.337	0.0163783
871.415	0.0163471
871.493	0.0162717
871.571	0.0162893
871.649	0.0163951
871.727	0.0162561
871.806	0.0163053
871.884	0.0162864
871.962	0.0163337
872.040	0.0163602
872.118	0.0163661
872.196	0.0162660
872.274	0.0163390
872.352	0.0164961
872.431	0.0163509
872.509	0.0163851
872.587	0.0163469
872.665	0.0163834
872.743	0.0165154
872.821	0.0164377
872.899	0.0165134
872.977	0.0164189
873.056	0.0163855
873.134	0.0163078
873.212	0.0164281
873.290	0.0163562
873.368	0.0162500
873.446	0.0163316
873.524	0.0163469
873.602	0.0162968
873.681	0.0163654
873.759	0.0164765
873.837	0.0163068
873.915	0.0163014
873.993	0.0163560
874.071	0.0164897
874.149	0.0163474
874.227	0.0162010
874.306	0.0162845
874.384	0.0163746
874.462	0.0165244
874.540	0.0162878
874.618	0.0163209
874.696	0.0162898
874.774	0.0163213
874.852	0.0163425
874.931	0.0164121
875.009	0.0164087
875.087	0.0161566
875.165	0.0164336
875.243	0.0163403
875.321	0.0164386
875.399	0.0162457
875.477	0.0161649
875.556	0.0163822
875.634	0.0164079
875.712	0.0164806
875.790	0.0163602
875.868	0.0163155
875.946	0.0163103
876.024	0.0163406
876.102	0.0163954
876.181	0.0162693
876.259	0.0162110
876.337	0.0163161
876.415	0.0162451
876.493	0.0162470
876.571	0.0163631
876.649	0.0162933
876.727	0.0162936
876.806	0.0163152
876.884	0.0162125
876.962	0.0162075
877.040	0.0163135
877.118	0.0162576
877.196	0.0163361
877.274	0.0163635
877.352	0.0162513
877.431	0.0162856
877.509	0.0162559
877.587	0.0162611
877.665	0.0163557
877.743	0.0162637
877.821	0.0161510
877.899	0.0162727
877.977	0.0163328
878.056	0.0162827
878.134	0.0162119
878.212	0.0161240
878.290	0.0161584
878.368	0.0162691
878.446	0.0162357
878.524	0.0161697
878.602	0.0163273
878.681	0.0161670
878.759	0.0162627
878.837	0.0162698
878.915	0.0162324
878.993	0.0162844
879.071	0.0164369
879.149	0.0163730
879.227	0.0164966
879.306	0.0162347
879.384	0.0164275
879.462	0.0164044
879.540	0.0162787
879.618	0.0162785
879.696	0.0163574
879.774	0.0162521
879.852	0.0164172
879.931	0.0164712
880.009	0.0163430
880.087	0.0163440
880.165	0.0164352
880.243	0.0162817
880.321	0.0163423
880.399	0.0164238
880.477	0.0162929
880.556	0.0163775
880.634	0.0163415
880.712	0.0164060
880.790	0.0163416
880.868	0.0163573
880.946	0.0162995
881.024	0.0165189
881.102	0.0163961
881.181	0.0163236
881.259	0.0163270
881.337	0.0162940
881.415	0.0162771
881.493	0.0163477
881.571	0.0164518
881.649	0.0162614
881.727	0.0162852
881.806	0.0162293
881.884	0.0162048
881.962	0.0162739
882.040	0.0161741
882.118	0.0163359
882.196	0.0163419
882.274	0.0162233
882.352	0.0163723
882.431	0.0162504
882.509	0.0162036
882.587	0.0163211
882.665	0.0161234
882.743	0.0161952
882.821	0.0162138
882.899	0.0160740
882.977	0.0162325
883.056	0.0161430
883.134	0.0163178
883.212	0.0161507
883.290	0.0161697
883.368	0.0162170
883.446	0.0163228
883.524	0.0161610
883.602	0.0162067
883.681	0.0162347
883.759	0.0161804
883.837	0.0162328
883.915	0.0161033
883.993	0.0161963
884.071	0.0162749
884.149	0.0162646
884.227	0.0162624
884.306	0.0162764
884.384	0.0162109
884.462	0.0162997
884.540	0.0162608
884.618	0.0161658
884.696	0.0161478
884.774	0.0161982
884.852	0.0164439
884.931	0.0163654
885.009	0.0163376
885.087	0.0163963
885.165	0.0163409
885.243	0.0163186
885.321	0.0163445
885.399	0.0164321
885.477	0.0163528
885.556	0.0163348
885.634	0.0164197
885.712	0.0164111
885.790	0.0164429
885.868	0.0163051
885.946	0.0163428
886.024	0.0164271
886.102	0.0164639
886.181	0.0165302
886.259	0.0164819
886.337	0.0162332
886.415	0.0162082
886.493	0.0163878
886.571	0.0164847
886.649	0.0164285
886.727	0.0163253
886.806	0.0163495
886.884	0.0164229
886.962	0.0165227
887.040	0.0163631
887.118	0.0163944
887.196	0.0163878
887.274	0.0163628
887.352	0.0164101
887.431	0.0163998
887.509	0.0163654
887.587	0.0165095
887.665	0.0164605
887.743	0.0163863
887.821	0.0165310
887.899	0.0164471
887.977	0.0164318
888.056	0.0162852
888.134	0.0164275
888.212	0.0163097
888.290	0.0163461
888.368	0.0164581
888.446	0.0161903
888.524	0.0163476
888.602	0.0161868
888.681	0.0163313
888.759	0.0165026
888.837	0.0163522
888.915	0.0162582
888.993	0.0163291
889.071	0.0164278
889.149	0.0163712
889.227	0.0163693
889.306	0.0163181
889.384	0.0161318
889.462	0.0163905
889.540	0.0164636
889.618	0.0163577
889.696	0.0164842
889.774	0.0164599
889.852	0.0165066
889.931	0.0164618
890.009	0.0162535
890.087	0.0165321
890.165	0.0164713
890.243	0.0164172
890.321	0.0163699
890.399	0.0164642
890.477	0.0164581
890.556	0.0165050
890.634	0.0163047
890.712	0.0164867
890.790	0.0164578
890.868	0.0163209
890.946	0.0163858
891.024	0.0162993
891.102	0.0161945
891.181	0.0163773
891.259	0.0162785
891.337	0.0163872
891.415	0.0164414
891.493	0.0163244
891.571	0.0163518
891.649	0.0162666
891.727	0.0163215
891.806	0.0162920
891.884	0.0163853
891.962	0.0162413
892.040	0.0162885
892.118	0.0162199
892.196	0.0162096
892.274	0.0163169
892.352	0.0163039
892.431	0.0162424
892.509	0.0163282
892.587	0.0161756
892.665	0.0162109
892.743	0.0162489
892.821	0.0162431
892.899	0.0162326
892.977	0.0161957
893.056	0.0163644
893.134	0.0163028
893.212	0.0162827
893.290	0.0162450
893.368	0.0163585
893.446	0.0163705
893.524	0.0162734
893.602	0.0164703
893.681	0.0163847
893.759	0.0164698
893.837	0.0163938
893.915	0.0162574
893.993	0.0163618
894.071	0.0162735
894.149	0.0164556
894.227	0.0162355
894.306	0.0164590
894.384	0.0163956
894.462	0.0162589
894.540	0.0163351
894.618	0.0161698
894.696	0.0162180
894.774	0.0162805
894.852	0.0162114
894.931	0.0161804
895.009	0.0163390
895.087	0.0161853
895.165	0.0161153
895.243	0.0162050
895.321	0.0162040
895.399	0.0162151
895.477	0.0161656
895.556	0.0161555
895.634	0.0162993
895.712	0.0163302
895.790	0.0161221
895.868	0.0162813
895.946	0.0162638
896.024	0.0164075
896.102	0.0163447
896.181	0.0163673
896.259	0.0164053
896.337	0.0164983
896.415	0.0165273
896.493	0.0163799
896.571	0.0163474
896.649	0.0163478
896.727	0.0163805
896.806	0.0164495
896.884	0.0164251
896.962	0.0162792
897.040	0.0164917
897.118	0.0164508
897.196	0.0163660
897.274	0.0163908
897.352	0.0163179
897.431	0.0162969
897.509	0.0163775
897.587	0.0162914
897.665	0.0164023
897.743	0.0163360
897.821	0.0163968
897.899	0.0164262
897.977	0.0163639
898.056	0.0163627
898.134	0.0162748
898.212	0.0163958
898.290	0.0162537
898.368	0.0161938
898.446	0.0163542
898.524	0.0161607
898.602	0.0162062
898.681	0.0163702
898.759	0.0161155
898.837	0.0162389
898.915	0.0162980
898.993	0.0162203
899.071	0.0161975
899.149	0.0162947
899.227	0.0164485
899.306	0.0162054
899.384	0.0164190
899.462	0.0163499
899.540	0.0162550
899.618	0.0162144
899.696	0.0162861
899.774	0.0163214
899.852	0.0163478
899.931	0.0163058
900.009	0.0163229
900.087	0.0163306
900.165	0.0162736
900.243	0.0162737
900.321	0.0162999
900.399	0.0163943
900.477	0.0163158
900.556	0.0162324
900.634	0.0162563
900.712	0.0163557
900.790	0.0161909
900.868	0.0162800
900.946	0.0162521
901.024	0.0162726
901.102	0.0162209
901.181	0.0161958
901.259	0.0162672
901.337	0.0163091
901.415	0.0161695
901.493	0.0160778
901.571	0.0160780
901.649	0.0161250
901.727	0.0160722
901.806	0.0161158
901.884	0.0160536
901.962	0.0160844
902.040	0.0161505
902.118	0.0160471
902.196	0.0160737
902.274	0.0162369
902.352	0.0160843
902.431	0.0160500
902.509	0.0161610
902.587	0.0162036
902.665	0.0161394
902.743	0.0161529
902.821	0.0161333
902.899	0.0162336
902.977	0.0161868
903.056	0.0161626
903.134	0.0162074
903.212	0.0162600
903.290	0.0162442
903.368	0.0162875
903.446	0.0161934
903.524	0.0160669
903.602	0.0161809
903.681	0.0162199
903.759	0.0160725
903.837	0.0161228
903.915	0.0162513
903.993	0.0160645
904.071	0.0161856
904.149	0.0162209
904.227	0.0161261
904.306	0.0162774
904.384	0.0162157
904.462	0.0161140
904.540	0.0161652
904.618	0.0163807
904.696	0.0161460
904.774	0.0162280
904.852	0.0163594
904.931	0.0162048
905.009	0.0162422
905.087	0.0163811
905.165	0.0162523
905.243	0.0163889
905.321	0.0163376
905.399	0.0161326
905.477	0.0164131
905.556	0.0162936
905.634	0.0162323
905.712	0.0163105
905.790	0.0162857
905.868	0.0162041
905.946	0.0163118
906.024	0.0162805
906.102	0.0162654
906.181	0.0162303
906.259	0.0161230
906.337	0.0162576
906.415	0.0162389
906.493	0.0161826
906.571	0.0162352
906.649	0.0162510
906.727	0.0163107
906.806	0.0162724
906.884	0.0162386
906.962	0.0162102
907.040	0.0161948
907.118	0.0162410
907.196	0.0162950
907.274	0.0164392
907.352	0.0163712
907.431	0.0162854
907.509	0.0163692
907.587	0.0164186
907.665	0.0163703
907.743	0.0162253
907.821	0.0163156
907.899	0.0164236
907.977	0.0165043
908.056	0.0164816
908.134	0.0164773
908.212	0.0163895
908.290	0.0166350
908.368	0.0165946
908.446	0.0164340
908.524	0.0164482
908.602	0.0163943
908.681	0.0165534
908.759	0.0165765
908.837	0.0163060
908.915	0.0165804
908.993	0.0165572
909.071	0.0164536
909.149	0.0164252
909.227	0.0163728
909.306	0.0164291
909.384	0.0164796
909.462	0.0163282
909.540	0.0163770
909.618	0.0164680
909.696	0.0162524
909.774	0.0163186
909.852	0.0163874
909.931	0.0163705
910.009	0.0162718
910.087	0.0162766
910.165	0.0162122
910.243	0.0163318
910.321	0.0162662
910.399	0.0163150
910.477	0.0162135
910.556	0.0161862
910.634	0.0162987
910.712	0.0162212
910.790	0.0162265
910.868	0.0163187
910.946	0.0161766
911.024	0.0161737
911.102	0.0163184
911.181	0.0163006
911.259	0.0162103
911.337	0.0164154
911.415	0.0161716
911.493	0.0162348
911.571	0.0163273
911.649	0.0162556
911.727	0.0162826
911.806	0.0163363
911.884	0.0163049
911.962	0.0164009
912.040	0.0163085
912.118	0.0164243
912.196	0.0163132
912.274	0.0162414
912.352	0.0163808
912.431	0.0162099
912.509	0.0162257
912.587	0.0162952
912.665	0.0161866
912.743	0.0161790
912.821	0.0161168
912.899	0.0163499
912.977	0.0162059
913.056	0.0161919
913.134	0.0160954
913.212	0.0161937
913.290	0.0161756
913.368	0.0162541
913.446	0.0161086
913.524	0.0161504
913.602	0.0160526
913.681	0.0162583
913.759	0.0161100
913.837	0.0161558
913.915	0.0161502
913.993	0.0163555
914.071	0.0161404
914.149	0.0162684
914.227	0.0161640
914.306	0.0161382
914.384	0.0163777
914.462	0.0163435
914.540	0.0162504
914.618	0.0160532
914.696	0.0162329
914.774	0.0162884
914.852	0.0161804
914.931	0.0161832
915.009	0.0163586
915.087	0.0162843
915.165	0.0163276
915.243	0.0163759
915.321	0.0164244
915.399	0.0164166
915.477	0.0163199
915.556	0.0163011
915.634	0.0163660
915.712	0.0163226
915.790	0.0163401
915.868	0.0164182
915.946	0.0163245
916.024	0.0163439
916.102	0.0162923
916.181	0.0162927
916.259	0.0162668
916.337	0.0164470
916.415	0.0162349
916.493	0.0163251
916.571	0.0163556
916.649	0.0161414
916.727	0.0163392
916.806	0.0162264
916.884	0.0162564
916.962	0.0162261
917.040	0.0163196
917.118	0.0162032
917.196	0.0161552
917.274	0.0162237
917.352	0.0162658
917.431	0.0162379
917.509	0.0162009
917.587	0.0163148
917.665	0.0163521
917.743	0.0163229
917.821	0.0162539
917.899	0.0161325
917.977	0.0161108
918.056	0.0162153
918.134	0.0162699
918.212	0.0162518
918.290	0.0163467
918.368	0.0162501
918.446	0.0163896
918.524	0.0162252
918.602	0.0162933
918.681	0.0162543
918.759	0.0163781
918.837	0.0164614
918.915	0.0164116
918.993	0.0163037
919.071	0.0165273
919.149	0.0165257
919.227	0.0164412
919.306	0.0163104
919.384	0.0165528
919.462	0.0164877
919.540	0.0164603
919.618	0.0163624
919.696	0.0164410
919.774	0.0166770
919.852	0.0164486
919.931	0.0164712
920.009	0.0164156
920.087	0.0165644
920.165	0.0165510
920.243	0.0165530
920.321	0.0164482
920.399	0.0165437
920.477	0.0165260
920.556	0.0164372
920.634	0.0164980
920.712	0.0164697
920.790	0.0163124
920.868	0.0164184
920.946	0.0165568
921.024	0.0165411
921.102	0.0163671
921.181	0.0164250
921.259	0.0163873
921.337	0.0164083
921.415	0.0162800
921.493	0.0162965
921.571	0.0163512
921.649	0.0163775
921.727	0.0163708
921.806	0.0163038
921.884	0.0162999
921.962	0.0164523
922.040	0.0162933
922.118	0.0162566
922.196	0.0163036
922.274	0.0163675
922.352	0.0163566
922.431	0.0162816
922.509	0.0161687
922.587	0.0164059
922.665	0.0163643
922.743	0.0162965
922.821	0.0162814
922.899	0.0164581
922.977	0.0164323
923.056	0.0162532
923.134	0.0163230
923.212	0.0164118
923.290	0.0163484
923.368	0.0163898
923.446	0.0164149
923.524	0.0163437
923.602	0.0161378
923.681	0.0162759
923.759	0.0163508
923.837	0.0162954
923.915	0.0160839
923.993	0.0162747
924.071	0.0161956
924.149	0.0163694
924.227	0.0162519
924.306	0.0162391
924.384	0.0161644
924.462	0.0162275
924.540	0.0164103
924.618	0.0162605
924.696	0.0161418
924.774	0.0162505
924.852	0.0163757
924.931	0.0162943
925.009	0.0162095
925.087	0.0162564
925.165	0.0162748
925.243	0.0161823
925.321	0.0161967
925.399	0.0162704
925.477	0.0163097
925.556	0.0161176
925.634	0.0162202
925.712	0.0160945
925.790	0.0161367
925.868	0.0162663
925.946	0.0161771
926.024	0.0161631
926.102	0.0161623
926.181	0.0160021
926.259	0.0161035
926.337	0.0161089
926.415	0.0161967
926.493	0.0162127
926.571	0.0162124
926.649	0.0160786
926.727	0.0161668
926.806	0.0161344
926.884	0.0162833
926.962	0.0162745
927.040	0.0161178
927.118	0.0162569
927.196	0.0161623
927.274	0.0161628
927.352	0.0162130
927.431	0.0162659
927.509	0.0162362
927.587	0.0162321
927.665	0.0162746
927.743	0.0163358
927.821	0.0162496
927.899	0.0163085
927.977	0.0162316
928.056	0.0161819
928.134	0.0163374
928.212	0.0163908
928.290	0.0163741
928.368	0.0164690
928.446	0.0165067
928.524	0.0163976
928.602	0.0163530
928.681	0.0164635
928.759	0.0165141
928.837	0.0165209
928.915	0.0164751
928.993	0.0165315
929.071	0.0165279
929.149	0.0164386
929.227	0.0164167
929.306	0.0164708
929.384	0.0165002
929.462	0.0164977
929.540	0.0163988
929.618	0.0163898
929.696	0.0163207
929.774	0.0164941
929.852	0.0164844
929.931	0.0163203
