05/19/2022	01:12:39	Ver.	4.1	UNKNOWN
Optical Delay	610.008675	Delta X		0.078125	Sweeps	1	Scan Rate	0/0
Coordinates	Axis 1	NaN	Axis 2	NaN	Axis 3	NaN	Axis 4	NaN	Axis 5	NaN	Axis 6	0.000000
TX Power	0.000000	RX Power	0.000000

610.009	0.0162234
610.087	0.0163826
610.165	0.0162995
610.243	0.0163825
610.321	0.0163084
610.399	0.0163267
610.477	0.0164049
610.556	0.0165498
610.634	0.0164905
610.712	0.0165076
610.790	0.0163673
610.868	0.0163702
610.946	0.0164941
611.024	0.0163136
611.102	0.0164304
611.181	0.0165220
611.259	0.0164736
611.337	0.0165253
611.415	0.0164444
611.493	0.0164111
611.571	0.0164973
611.649	0.0164913
611.727	0.0163758
611.806	0.0163846
611.884	0.0164477
611.962	0.0163156
612.040	0.0163042
612.118	0.0162968
612.196	0.0162432
612.274	0.0163168
612.352	0.0162887
612.431	0.0163171
612.509	0.0162592
612.587	0.0162630
612.665	0.0161720
612.743	0.0161679
612.821	0.0162355
612.899	0.0161391
612.977	0.0161179
613.056	0.0160614
613.134	0.0161973
613.212	0.0162527
613.290	0.0161145
613.368	0.0162669
613.446	0.0162581
613.524	0.0161429
613.602	0.0160163
613.681	0.0161696
613.759	0.0160677
613.837	0.0163058
613.915	0.0162774
613.993	0.0162840
614.071	0.0162620
614.149	0.0163364
614.227	0.0163493
614.306	0.0163834
614.384	0.0162782
614.462	0.0163849
614.540	0.0162141
614.618	0.0163255
614.696	0.0164735
614.774	0.0164448
614.852	0.0165392
614.931	0.0163365
615.009	0.0164710
615.087	0.0164285
615.165	0.0163824
615.243	0.0163475
615.321	0.0163422
615.399	0.0163398
615.477	0.0162701
615.556	0.0162527
615.634	0.0162740
615.712	0.0163126
615.790	0.0163065
615.868	0.0162050
615.946	0.0163819
616.024	0.0163700
616.102	0.0162753
616.181	0.0161987
616.259	0.0163423
616.337	0.0161714
616.415	0.0162985
616.493	0.0162013
616.571	0.0162545
616.649	0.0162949
616.727	0.0161745
616.806	0.0162894
616.884	0.0162531
616.962	0.0160988
617.040	0.0160741
617.118	0.0160912
617.196	0.0162202
617.274	0.0162122
617.352	0.0159518
617.431	0.0161131
617.509	0.0160045
617.587	0.0160769
617.665	0.0162659
617.743	0.0161191
617.821	0.0160384
617.899	0.0162693
617.977	0.0160811
618.056	0.0160023
618.134	0.0160578
618.212	0.0160928
618.290	0.0160531
618.368	0.0162383
618.446	0.0161388
618.524	0.0161218
618.602	0.0161915
618.681	0.0161674
618.759	0.0161663
618.837	0.0161155
618.915	0.0161713
618.993	0.0161623
619.071	0.0162045
619.149	0.0161452
619.227	0.0160611
619.306	0.0161177
619.384	0.0162898
619.462	0.0161014
619.540	0.0159913
619.618	0.0160703
619.696	0.0161802
619.774	0.0160959
619.852	0.0161044
619.931	0.0161133
620.009	0.0160754
620.087	0.0161159
620.165	0.0161564
620.243	0.0161622
620.321	0.0160843
620.399	0.0161401
620.477	0.0161443
620.556	0.0160953
620.634	0.0161743
620.712	0.0161472
620.790	0.0162141
620.868	0.0161948
620.946	0.0162322
621.024	0.0163150
621.102	0.0162118
621.181	0.0163976
621.259	0.0162335
621.337	0.0162277
621.415	0.0163103
621.493	0.0163230
621.571	0.0162619
621.649	0.0163140
621.727	0.0162897
621.806	0.0161071
621.884	0.0160767
621.962	0.0162998
622.040	0.0162632
622.118	0.0161578
622.196	0.0160607
622.274	0.0161335
622.352	0.0160477
622.431	0.0160139
622.509	0.0159927
622.587	0.0158516
622.665	0.0161496
622.743	0.0160854
622.821	0.0159601
622.899	0.0159601
622.977	0.0161674
623.056	0.0161447
623.134	0.0159344
623.212	0.0159870
623.290	0.0160815
623.368	0.0160241
623.446	0.0161266
623.524	0.0161590
623.602	0.0162482
623.681	0.0160254
623.759	0.0161328
623.837	0.0162713
623.915	0.0162050
623.993	0.0161349
624.071	0.0162624
624.149	0.0163575
624.227	0.0162617
624.306	0.0161945
624.384	0.0163027
624.462	0.0163251
624.540	0.0163511
624.618	0.0162552
624.696	0.0162356
624.774	0.0163343
624.852	0.0163272
624.931	0.0163522
625.009	0.0164256
625.087	0.0163232
625.165	0.0162820
625.243	0.0163210
625.321	0.0161762
625.399	0.0164234
625.477	0.0164935
625.556	0.0164981
625.634	0.0165069
625.712	0.0164618
625.790	0.0165574
625.868	0.0166493
625.946	0.0165444
626.024	0.0164208
626.102	0.0165356
626.181	0.0165487
626.259	0.0165262
626.337	0.0164464
626.415	0.0164083
626.493	0.0165578
626.571	0.0165523
626.649	0.0164236
626.727	0.0164898
626.806	0.0164739
626.884	0.0164796
626.962	0.0164186
627.040	0.0164994
627.118	0.0164545
627.196	0.0164972
627.274	0.0165113
627.352	0.0164391
627.431	0.0164273
627.509	0.0162569
627.587	0.0164002
627.665	0.0163044
627.743	0.0163486
627.821	0.0162130
627.899	0.0161949
627.977	0.0161851
628.056	0.0159825
628.134	0.0162053
628.212	0.0161382
628.290	0.0161029
628.368	0.0159595
628.446	0.0160568
628.524	0.0160520
628.602	0.0160135
628.681	0.0159951
628.759	0.0158834
628.837	0.0159110
628.915	0.0158425
628.993	0.0159985
629.071	0.0160445
629.149	0.0158878
629.227	0.0160756
629.306	0.0160421
629.384	0.0160612
629.462	0.0159415
629.540	0.0159184
629.618	0.0161673
629.696	0.0161114
629.774	0.0162000
629.852	0.0161043
629.931	0.0161516
630.009	0.0163675
630.087	0.0162721
630.165	0.0163527
630.243	0.0163883
630.321	0.0162518
630.399	0.0163037
630.477	0.0163028
630.556	0.0163329
630.634	0.0164548
630.712	0.0163002
630.790	0.0164707
630.868	0.0163095
630.946	0.0164143
631.024	0.0164362
631.102	0.0162638
631.181	0.0163920
631.259	0.0164460
631.337	0.0162836
631.415	0.0164259
631.493	0.0162347
631.571	0.0160865
631.649	0.0161384
631.727	0.0160745
631.806	0.0163203
631.884	0.0161733
631.962	0.0162080
632.040	0.0161508
632.118	0.0161536
632.196	0.0160358
632.274	0.0160597
632.352	0.0162067
632.431	0.0160864
632.509	0.0160040
632.587	0.0159961
632.665	0.0158991
632.743	0.0160797
632.821	0.0159781
632.899	0.0159058
632.977	0.0159402
633.056	0.0159049
633.134	0.0159336
633.212	0.0160100
633.290	0.0158826
633.368	0.0159398
633.446	0.0159696
633.524	0.0160594
633.602	0.0161467
633.681	0.0161588
633.759	0.0160261
633.837	0.0162304
633.915	0.0161149
633.993	0.0162329
634.071	0.0162137
634.149	0.0161958
634.227	0.0163462
634.306	0.0163540
634.384	0.0163696
634.462	0.0164462
634.540	0.0163209
634.618	0.0165806
634.696	0.0165832
634.774	0.0164536
634.852	0.0165706
634.931	0.0166158
635.009	0.0166563
635.087	0.0168083
635.165	0.0166564
635.243	0.0165015
635.321	0.0166678
635.399	0.0165503
635.477	0.0166322
635.556	0.0165752
635.634	0.0165874
635.712	0.0165392
635.790	0.0163822
635.868	0.0164928
635.946	0.0164424
636.024	0.0165105
636.102	0.0165555
636.181	0.0163721
636.259	0.0165051
636.337	0.0163114
636.415	0.0163401
636.493	0.0163904
636.571	0.0163477
636.649	0.0163440
636.727	0.0162107
636.806	0.0161660
636.884	0.0161729
636.962	0.0161063
637.040	0.0160664
637.118	0.0160201
637.196	0.0160476
637.274	0.0159617
637.352	0.0159147
637.431	0.0161546
637.509	0.0159937
637.587	0.0158981
637.665	0.0158561
637.743	0.0156930
637.821	0.0157738
637.899	0.0158886
637.977	0.0158235
638.056	0.0158928
638.134	0.0159036
638.212	0.0160405
638.290	0.0159561
638.368	0.0160078
638.446	0.0161513
638.524	0.0160862
638.602	0.0160828
638.681	0.0163013
638.759	0.0161806
638.837	0.0161880
638.915	0.0162540
638.993	0.0163392
639.071	0.0164750
639.149	0.0163765
639.227	0.0164503
639.306	0.0163046
639.384	0.0164248
639.462	0.0165290
639.540	0.0165427
639.618	0.0165324
639.696	0.0166142
639.774	0.0165479
639.852	0.0165929
639.931	0.0165457
640.009	0.0166396
640.087	0.0166488
640.165	0.0166174
640.243	0.0165956
640.321	0.0165374
640.399	0.0165527
640.477	0.0166106
640.556	0.0166073
640.634	0.0165826
640.712	0.0165787
640.790	0.0163523
640.868	0.0164178
640.946	0.0165250
641.024	0.0163147
641.102	0.0163544
641.181	0.0161057
641.259	0.0160572
641.337	0.0161189
641.415	0.0160125
641.493	0.0161122
641.571	0.0158862
641.649	0.0159615
641.727	0.0160701
641.806	0.0159512
641.884	0.0159141
641.962	0.0157659
642.040	0.0158705
642.118	0.0159088
642.196	0.0158183
642.274	0.0157648
642.352	0.0157899
642.431	0.0157442
642.509	0.0159290
642.587	0.0157369
642.665	0.0159319
642.743	0.0159707
642.821	0.0161127
642.899	0.0157803
642.977	0.0159462
643.056	0.0160089
643.134	0.0160049
643.212	0.0160944
643.290	0.0161066
643.368	0.0160879
643.446	0.0161465
643.524	0.0160895
643.602	0.0161520
643.681	0.0160715
643.759	0.0160867
643.837	0.0160773
643.915	0.0162431
643.993	0.0161572
644.071	0.0159644
644.149	0.0162006
644.227	0.0162373
644.306	0.0161069
644.384	0.0162095
644.462	0.0162484
644.540	0.0162642
644.618	0.0162233
644.696	0.0162421
644.774	0.0163875
644.852	0.0162025
644.931	0.0162881
645.009	0.0163230
645.087	0.0163670
645.165	0.0162657
645.243	0.0162775
645.321	0.0163840
645.399	0.0165228
645.477	0.0164587
645.556	0.0163718
645.634	0.0164113
645.712	0.0164687
645.790	0.0163628
645.868	0.0164126
645.946	0.0162722
646.024	0.0163344
646.102	0.0163161
646.181	0.0162801
646.259	0.0163174
646.337	0.0164410
646.415	0.0163097
646.493	0.0164215
646.571	0.0163251
646.649	0.0163693
646.727	0.0164511
646.806	0.0162846
646.884	0.0163263
646.962	0.0163604
647.040	0.0163502
647.118	0.0163578
647.196	0.0162223
647.274	0.0162899
647.352	0.0162737
647.431	0.0162468
647.509	0.0162680
647.587	0.0161884
647.665	0.0160909
647.743	0.0162099
647.821	0.0161493
647.899	0.0160327
647.977	0.0158965
648.056	0.0159702
648.134	0.0160557
648.212	0.0158688
648.290	0.0159751
648.368	0.0159714
648.446	0.0160134
648.524	0.0159547
648.602	0.0158939
648.681	0.0158251
648.759	0.0158785
648.837	0.0160884
648.915	0.0158610
648.993	0.0159149
649.071	0.0160370
649.149	0.0159469
649.227	0.0158523
649.306	0.0158525
649.384	0.0158811
649.462	0.0159301
649.540	0.0160619
649.618	0.0160040
649.696	0.0160478
649.774	0.0160413
649.852	0.0159364
649.931	0.0161230
650.009	0.0162326
650.087	0.0160876
650.165	0.0161549
650.243	0.0161510
650.321	0.0161437
650.399	0.0161719
650.477	0.0161108
650.556	0.0161407
650.634	0.0161773
650.712	0.0162357
650.790	0.0162412
650.868	0.0160594
650.946	0.0161719
651.024	0.0163812
651.102	0.0164268
651.181	0.0163102
651.259	0.0162762
651.337	0.0163802
651.415	0.0163933
651.493	0.0163847
651.571	0.0163439
651.649	0.0164355
651.727	0.0166006
651.806	0.0165398
651.884	0.0165141
651.962	0.0164737
652.040	0.0166258
652.118	0.0165153
652.196	0.0164745
652.274	0.0163615
652.352	0.0165067
652.431	0.0164668
652.509	0.0163404
652.587	0.0163655
652.665	0.0164617
652.743	0.0164179
652.821	0.0161705
652.899	0.0161980
652.977	0.0164168
653.056	0.0165387
653.134	0.0162522
653.212	0.0162655
653.290	0.0162004
653.368	0.0162270
653.446	0.0161547
653.524	0.0162390
653.602	0.0162222
653.681	0.0159804
653.759	0.0160465
653.837	0.0159682
653.915	0.0159838
653.993	0.0160220
654.071	0.0158892
654.149	0.0158108
654.227	0.0158691
654.306	0.0158830
654.384	0.0158463
654.462	0.0158410
654.540	0.0158403
654.618	0.0157117
654.696	0.0158973
654.774	0.0159239
654.852	0.0157832
654.931	0.0157790
655.009	0.0158200
655.087	0.0158885
655.165	0.0158432
655.243	0.0158418
655.321	0.0159231
655.399	0.0159125
655.477	0.0158899
655.556	0.0159776
655.634	0.0160905
655.712	0.0159692
655.790	0.0161317
655.868	0.0162331
655.946	0.0163455
656.024	0.0163541
656.102	0.0163264
656.181	0.0164456
656.259	0.0165387
656.337	0.0166144
656.415	0.0166439
656.493	0.0166184
656.571	0.0167720
656.649	0.0168747
656.727	0.0168081
656.806	0.0168475
656.884	0.0169180
656.962	0.0169482
657.040	0.0168230
657.118	0.0168555
657.196	0.0169316
657.274	0.0170020
657.352	0.0169902
657.431	0.0169253
657.509	0.0168092
657.587	0.0167301
657.665	0.0168581
657.743	0.0166413
657.821	0.0167232
657.899	0.0165022
657.977	0.0165537
658.056	0.0163895
658.134	0.0163251
658.212	0.0163020
658.290	0.0164857
658.368	0.0161304
658.446	0.0162011
658.524	0.0161286
658.602	0.0159229
658.681	0.0159256
658.759	0.0159451
658.837	0.0158384
658.915	0.0159059
658.993	0.0157935
659.071	0.0157293
659.149	0.0157855
659.227	0.0157682
659.306	0.0156985
659.384	0.0157536
659.462	0.0158199
659.540	0.0157805
659.618	0.0158350
659.696	0.0158501
659.774	0.0156925
659.852	0.0157702
659.931	0.0159977
660.009	0.0158495
660.087	0.0158791
660.165	0.0159086
660.243	0.0159898
660.321	0.0161095
660.399	0.0160678
660.477	0.0160370
660.556	0.0161473
660.634	0.0161098
660.712	0.0161679
660.790	0.0162682
660.868	0.0163319
660.946	0.0163454
661.024	0.0163671
661.102	0.0164487
661.181	0.0163738
661.259	0.0163905
661.337	0.0165400
661.415	0.0164911
661.493	0.0165886
661.571	0.0165220
661.649	0.0165578
661.727	0.0165489
661.806	0.0165494
661.884	0.0166737
661.962	0.0164703
662.040	0.0164822
662.118	0.0165696
662.196	0.0165642
662.274	0.0164448
662.352	0.0166636
662.431	0.0165195
662.509	0.0166453
662.587	0.0164634
662.665	0.0164504
662.743	0.0164342
662.821	0.0164114
662.899	0.0162568
662.977	0.0162529
663.056	0.0163104
663.134	0.0161156
663.212	0.0161939
663.290	0.0160454
663.368	0.0161942
663.446	0.0161974
663.524	0.0160484
663.602	0.0161092
663.681	0.0158513
663.759	0.0159312
663.837	0.0160745
663.915	0.0160452
663.993	0.0160210
664.071	0.0160776
664.149	0.0158394
664.227	0.0158685
664.306	0.0160425
664.384	0.0158690
664.462	0.0159118
664.540	0.0159534
664.618	0.0158746
664.696	0.0158561
664.774	0.0159628
664.852	0.0160332
664.931	0.0159968
665.009	0.0158884
665.087	0.0159681
665.165	0.0160579
665.243	0.0160045
665.321	0.0160494
665.399	0.0160623
665.477	0.0160794
665.556	0.0160618
665.634	0.0160976
665.712	0.0161555
665.790	0.0160670
665.868	0.0161493
665.946	0.0162375
666.024	0.0161917
666.102	0.0162287
666.181	0.0162460
666.259	0.0164360
666.337	0.0163148
666.415	0.0164993
666.493	0.0163975
666.571	0.0164254
666.649	0.0164848
666.727	0.0164716
666.806	0.0166021
666.884	0.0166276
666.962	0.0165003
667.040	0.0165389
667.118	0.0165639
667.196	0.0164989
667.274	0.0165582
667.352	0.0164898
667.431	0.0165214
667.509	0.0165086
667.587	0.0164473
667.665	0.0163509
667.743	0.0163306
667.821	0.0163021
667.899	0.0163336
667.977	0.0163356
668.056	0.0164630
668.134	0.0162090
668.212	0.0161879
668.290	0.0161523
668.368	0.0162568
668.446	0.0161474
668.524	0.0161790
668.602	0.0163445
668.681	0.0162248
668.759	0.0161695
668.837	0.0161437
668.915	0.0161876
668.993	0.0162103
669.071	0.0161756
669.149	0.0159737
669.227	0.0159563
669.306	0.0160852
669.384	0.0161044
669.462	0.0159293
669.540	0.0160387
669.618	0.0161563
669.696	0.0159856
669.774	0.0159719
669.852	0.0160072
669.931	0.0159580
670.009	0.0161858
670.087	0.0161543
670.165	0.0160658
670.243	0.0160440
670.321	0.0159672
670.399	0.0161819
670.477	0.0160943
670.556	0.0162206
670.634	0.0160959
670.712	0.0161642
670.790	0.0159927
670.868	0.0160191
670.946	0.0163896
671.024	0.0161416
671.102	0.0160360
671.181	0.0161283
671.259	0.0161956
671.337	0.0162818
671.415	0.0162743
671.493	0.0160899
671.571	0.0162295
671.649	0.0163271
671.727	0.0162901
671.806	0.0163568
671.884	0.0163438
671.962	0.0162982
672.040	0.0162162
672.118	0.0163328
672.196	0.0162470
672.274	0.0163539
672.352	0.0162930
672.431	0.0163732
672.509	0.0163278
672.587	0.0163485
672.665	0.0162899
672.743	0.0161092
672.821	0.0163052
672.899	0.0162746
672.977	0.0162275
673.056	0.0161731
673.134	0.0162283
673.212	0.0164129
673.290	0.0163383
673.368	0.0162995
673.446	0.0162254
673.524	0.0162619
673.602	0.0161514
673.681	0.0163284
673.759	0.0162744
673.837	0.0162761
673.915	0.0162627
673.993	0.0161641
674.071	0.0162823
674.149	0.0163342
674.227	0.0161836
674.306	0.0163363
674.384	0.0160912
674.462	0.0163196
674.540	0.0163285
674.618	0.0161505
674.696	0.0161342
674.774	0.0164565
674.852	0.0163725
674.931	0.0161821
675.009	0.0162559
675.087	0.0163123
675.165	0.0161449
675.243	0.0162845
675.321	0.0163242
675.399	0.0161445
675.477	0.0162861
675.556	0.0161830
675.634	0.0161795
675.712	0.0163902
675.790	0.0162988
675.868	0.0162307
675.946	0.0162923
676.024	0.0162457
676.102	0.0162284
676.181	0.0163721
676.259	0.0163939
676.337	0.0162883
676.415	0.0164179
676.493	0.0162872
676.571	0.0164368
676.649	0.0164411
676.727	0.0164187
676.806	0.0163366
676.884	0.0164352
676.962	0.0164360
677.040	0.0163531
677.118	0.0164701
677.196	0.0165329
677.274	0.0163572
677.352	0.0164694
677.431	0.0162868
677.509	0.0163810
677.587	0.0164412
677.665	0.0164805
677.743	0.0166145
677.821	0.0164934
677.899	0.0163564
677.977	0.0163695
678.056	0.0163338
678.134	0.0163198
678.212	0.0162551
678.290	0.0164207
678.368	0.0163904
678.446	0.0161997
678.524	0.0160736
678.602	0.0160996
678.681	0.0161222
678.759	0.0161161
678.837	0.0159592
678.915	0.0160475
678.993	0.0160557
679.071	0.0158908
679.149	0.0158745
679.227	0.0158880
679.306	0.0158281
679.384	0.0159017
679.462	0.0158118
679.540	0.0159027
679.618	0.0158583
679.696	0.0159290
679.774	0.0158065
679.852	0.0158173
679.931	0.0158720
680.009	0.0159029
680.087	0.0160640
680.165	0.0159637
680.243	0.0161269
680.321	0.0160946
680.399	0.0160162
680.477	0.0161160
680.556	0.0161475
680.634	0.0160960
680.712	0.0162492
680.790	0.0162677
680.868	0.0162214
680.946	0.0162299
681.024	0.0162470
681.102	0.0162560
681.181	0.0164159
681.259	0.0164510
681.337	0.0164806
681.415	0.0164540
681.493	0.0162770
681.571	0.0165826
681.649	0.0163476
681.727	0.0164680
681.806	0.0166615
681.884	0.0163882
681.962	0.0164274
682.040	0.0165547
682.118	0.0164661
682.196	0.0162949
682.274	0.0164859
682.352	0.0164125
682.431	0.0164219
682.509	0.0164802
682.587	0.0164267
682.665	0.0163837
682.743	0.0163564
682.821	0.0162022
682.899	0.0163006
682.977	0.0162655
683.056	0.0160886
683.134	0.0161308
683.212	0.0160806
683.290	0.0159035
683.368	0.0159632
683.446	0.0158876
683.524	0.0158978
683.602	0.0157352
683.681	0.0159373
683.759	0.0158405
683.837	0.0157349
683.915	0.0157872
683.993	0.0157175
684.071	0.0158579
684.149	0.0158340
684.227	0.0159435
684.306	0.0158224
684.384	0.0160020
684.462	0.0159746
684.540	0.0160184
684.618	0.0160463
684.696	0.0161422
684.774	0.0160641
684.852	0.0160889
684.931	0.0162304
685.009	0.0162186
685.087	0.0163888
685.165	0.0162734
685.243	0.0164442
685.321	0.0164780
685.399	0.0164983
685.477	0.0166582
685.556	0.0164814
685.634	0.0165173
685.712	0.0166323
685.790	0.0167217
685.868	0.0165951
685.946	0.0166512
686.024	0.0166801
686.102	0.0167761
686.181	0.0168617
686.259	0.0167220
686.337	0.0167719
686.415	0.0166972
686.493	0.0168075
686.571	0.0166652
686.649	0.0165350
686.727	0.0166911
686.806	0.0166539
686.884	0.0167381
686.962	0.0166618
687.040	0.0165261
687.118	0.0164600
687.196	0.0164453
687.274	0.0165635
687.352	0.0164176
687.431	0.0165318
687.509	0.0165669
687.587	0.0162883
687.665	0.0162537
687.743	0.0163840
687.821	0.0162383
687.899	0.0162035
687.977	0.0163454
688.056	0.0163719
688.134	0.0161797
688.212	0.0161520
688.290	0.0162170
688.368	0.0162597
688.446	0.0162283
688.524	0.0159442
688.602	0.0160111
688.681	0.0159806
688.759	0.0159794
688.837	0.0160956
688.915	0.0160373
688.993	0.0162024
689.071	0.0160074
689.149	0.0159100
689.227	0.0160817
689.306	0.0160941
689.384	0.0161083
689.462	0.0159938
689.540	0.0159723
689.618	0.0161376
689.696	0.0160153
689.774	0.0160255
689.852	0.0160687
689.931	0.0160976
690.009	0.0160542
690.087	0.0160106
690.165	0.0161229
690.243	0.0161296
690.321	0.0160449
690.399	0.0160634
690.477	0.0161396
690.556	0.0161958
690.634	0.0161599
690.712	0.0163176
690.790	0.0164010
690.868	0.0164146
690.946	0.0164002
691.024	0.0164765
691.102	0.0166052
691.181	0.0164257
691.259	0.0166676
691.337	0.0166122
691.415	0.0166901
691.493	0.0166677
691.571	0.0166090
691.649	0.0167213
691.727	0.0167136
691.806	0.0167545
691.884	0.0168534
691.962	0.0167828
692.040	0.0167388
692.118	0.0166470
692.196	0.0167624
692.274	0.0167083
692.352	0.0167367
692.431	0.0166936
692.509	0.0165707
692.587	0.0165926
692.665	0.0164669
692.743	0.0163591
692.821	0.0163602
692.899	0.0163409
692.977	0.0163485
693.056	0.0163333
693.134	0.0162453
693.212	0.0162758
693.290	0.0161903
693.368	0.0161548
693.446	0.0161546
693.524	0.0161237
693.602	0.0160850
693.681	0.0159939
693.759	0.0160114
693.837	0.0159068
693.915	0.0158660
693.993	0.0159502
694.071	0.0160551
694.149	0.0158181
694.227	0.0158648
694.306	0.0159016
694.384	0.0158466
694.462	0.0159299
694.540	0.0160014
694.618	0.0159283
694.696	0.0159843
694.774	0.0159796
694.852	0.0160161
694.931	0.0159792
695.009	0.0160075
695.087	0.0160066
695.165	0.0159711
695.243	0.0162067
695.321	0.0162300
695.399	0.0160428
695.477	0.0163161
695.556	0.0163012
695.634	0.0163618
695.712	0.0163742
695.790	0.0163234
695.868	0.0164606
695.946	0.0165148
696.024	0.0164933
696.102	0.0165048
696.181	0.0165484
696.259	0.0164614
696.337	0.0165030
696.415	0.0166257
696.493	0.0165381
696.571	0.0164332
696.649	0.0164790
696.727	0.0163847
696.806	0.0162659
696.884	0.0162688
696.962	0.0162357
697.040	0.0162280
697.118	0.0162074
697.196	0.0161354
697.274	0.0160110
697.352	0.0159235
697.431	0.0159445
697.509	0.0158676
697.587	0.0160406
697.665	0.0160518
697.743	0.0159020
697.821	0.0160388
697.899	0.0160162
697.977	0.0158929
698.056	0.0159180
698.134	0.0159524
698.212	0.0159937
698.290	0.0159261
698.368	0.0157756
698.446	0.0160506
698.524	0.0162324
698.602	0.0163149
698.681	0.0162127
698.759	0.0161429
698.837	0.0162610
698.915	0.0163480
698.993	0.0163555
699.071	0.0162891
699.149	0.0163754
699.227	0.0165533
699.306	0.0163850
699.384	0.0165331
699.462	0.0164696
699.540	0.0165164
699.618	0.0165191
699.696	0.0164368
699.774	0.0165957
699.852	0.0165380
699.931	0.0165153
700.009	0.0164714
700.087	0.0165155
700.165	0.0164922
700.243	0.0163963
700.321	0.0163560
700.399	0.0164371
700.477	0.0163332
700.556	0.0162850
700.634	0.0162386
700.712	0.0163320
700.790	0.0163084
700.868	0.0161668
700.946	0.0161659
701.024	0.0162301
701.102	0.0160921
701.181	0.0160685
701.259	0.0161594
701.337	0.0160574
701.415	0.0160417
701.493	0.0161372
701.571	0.0161205
701.649	0.0161758
701.727	0.0160529
701.806	0.0161053
701.884	0.0159313
701.962	0.0160094
702.040	0.0161549
702.118	0.0162289
702.196	0.0161488
702.274	0.0160957
702.352	0.0163036
702.431	0.0162469
702.509	0.0162955
702.587	0.0164645
702.665	0.0165889
702.743	0.0164399
702.821	0.0165255
702.899	0.0164812
702.977	0.0166386
703.056	0.0166064
703.134	0.0166958
703.212	0.0166875
703.290	0.0168611
703.368	0.0167241
703.446	0.0165190
703.524	0.0167519
703.602	0.0168433
703.681	0.0168690
703.759	0.0167051
703.837	0.0166728
703.915	0.0165800
703.993	0.0166434
704.071	0.0165845
704.149	0.0166286
704.227	0.0165785
704.306	0.0164384
704.384	0.0165412
704.462	0.0164326
704.540	0.0163807
704.618	0.0163910
704.696	0.0162550
704.774	0.0164447
704.852	0.0162751
704.931	0.0162517
705.009	0.0163158
705.087	0.0162537
705.165	0.0162778
705.243	0.0161329
705.321	0.0162380
705.399	0.0162659
705.477	0.0161538
705.556	0.0162325
705.634	0.0160527
705.712	0.0161806
705.790	0.0162383
705.868	0.0161485
705.946	0.0161982
706.024	0.0161655
706.102	0.0160957
706.181	0.0161547
706.259	0.0162472
706.337	0.0161485
706.415	0.0161371
706.493	0.0163280
706.571	0.0162221
706.649	0.0163293
706.727	0.0161940
706.806	0.0162301
706.884	0.0162210
706.962	0.0162257
707.040	0.0162430
707.118	0.0162156
707.196	0.0162308
707.274	0.0162210
707.352	0.0160474
707.431	0.0159145
707.509	0.0159971
707.587	0.0160411
707.665	0.0159084
707.743	0.0159052
707.821	0.0159116
707.899	0.0159209
707.977	0.0159815
708.056	0.0161196
708.134	0.0159623
708.212	0.0159666
708.290	0.0159827
708.368	0.0160296
708.446	0.0160606
708.524	0.0162781
708.602	0.0162074
708.681	0.0161296
708.759	0.0162269
708.837	0.0165215
708.915	0.0163108
708.993	0.0164904
709.071	0.0166094
709.149	0.0164027
709.227	0.0164727
709.306	0.0165433
709.384	0.0164717
709.462	0.0164213
709.540	0.0164603
709.618	0.0165429
709.696	0.0163468
709.774	0.0164078
709.852	0.0165270
709.931	0.0164404
710.009	0.0162731
710.087	0.0163337
710.165	0.0163645
710.243	0.0162875
710.321	0.0163154
710.399	0.0164738
710.477	0.0164159
710.556	0.0163505
710.634	0.0164404
710.712	0.0165375
710.790	0.0163847
710.868	0.0164915
710.946	0.0163906
711.024	0.0165322
711.102	0.0165397
711.181	0.0164287
711.259	0.0163927
711.337	0.0163943
711.415	0.0163853
711.493	0.0164646
711.571	0.0163275
711.649	0.0163161
711.727	0.0162441
711.806	0.0163142
711.884	0.0161807
711.962	0.0161707
712.040	0.0161765
712.118	0.0160954
712.196	0.0161806
712.274	0.0160640
712.352	0.0161882
712.431	0.0160893
712.509	0.0160123
712.587	0.0160730
712.665	0.0162595
712.743	0.0160353
712.821	0.0160721
712.899	0.0161199
712.977	0.0161682
713.056	0.0160742
713.134	0.0160423
713.212	0.0159795
713.290	0.0160793
713.368	0.0161221
713.446	0.0161418
713.524	0.0161377
713.602	0.0159819
713.681	0.0160067
713.759	0.0160482
713.837	0.0161606
713.915	0.0162041
713.993	0.0162408
714.071	0.0162099
714.149	0.0162363
714.227	0.0162775
714.306	0.0163146
714.384	0.0162996
714.462	0.0162958
714.540	0.0161492
714.618	0.0162301
714.696	0.0162668
714.774	0.0162479
714.852	0.0164398
714.931	0.0163782
715.009	0.0163418
715.087	0.0161768
715.165	0.0163714
715.243	0.0164512
715.321	0.0163130
715.399	0.0164768
715.477	0.0162841
715.556	0.0163111
715.634	0.0163873
715.712	0.0164454
715.790	0.0164064
715.868	0.0163351
715.946	0.0163689
716.024	0.0163538
716.102	0.0163698
716.181	0.0163078
716.259	0.0163414
716.337	0.0164111
716.415	0.0164197
716.493	0.0164486
716.571	0.0162479
716.649	0.0162379
716.727	0.0163234
716.806	0.0164211
716.884	0.0163308
716.962	0.0161924
717.040	0.0161880
717.118	0.0163021
717.196	0.0162441
717.274	0.0163068
717.352	0.0162112
717.431	0.0162193
717.509	0.0164435
717.587	0.0163993
717.665	0.0164069
717.743	0.0163084
717.821	0.0163482
717.899	0.0164725
717.977	0.0163902
718.056	0.0164016
718.134	0.0164454
718.212	0.0164954
718.290	0.0166217
718.368	0.0163808
718.446	0.0165422
718.524	0.0164460
718.602	0.0164505
718.681	0.0164420
718.759	0.0163459
718.837	0.0163714
718.915	0.0164545
718.993	0.0165341
719.071	0.0164177
719.149	0.0164001
719.227	0.0164633
719.306	0.0163619
719.384	0.0163652
719.462	0.0163341
719.540	0.0162282
719.618	0.0163799
719.696	0.0163394
719.774	0.0162616
719.852	0.0162947
719.931	0.0162563
720.009	0.0162916
720.087	0.0162458
720.165	0.0161504
720.243	0.0162871
720.321	0.0162530
720.399	0.0162910
720.477	0.0161609
720.556	0.0161465
720.634	0.0162817
720.712	0.0164331
720.790	0.0162773
720.868	0.0163705
720.946	0.0163027
721.024	0.0161521
721.102	0.0163737
721.181	0.0164349
721.259	0.0162498
721.337	0.0163351
721.415	0.0163464
721.493	0.0164309
721.571	0.0165021
721.649	0.0164198
721.727	0.0163750
721.806	0.0163773
721.884	0.0165150
721.962	0.0163757
722.040	0.0163449
722.118	0.0163790
722.196	0.0165788
722.274	0.0164699
722.352	0.0163818
722.431	0.0164519
722.509	0.0163548
722.587	0.0163849
722.665	0.0163506
722.743	0.0164736
722.821	0.0163688
722.899	0.0163136
722.977	0.0165102
723.056	0.0161816
723.134	0.0163266
723.212	0.0162341
723.290	0.0162691
723.368	0.0160804
723.446	0.0160759
723.524	0.0162144
723.602	0.0160635
723.681	0.0161845
723.759	0.0160970
723.837	0.0158893
723.915	0.0160200
723.993	0.0161709
724.071	0.0161326
724.149	0.0159576
724.227	0.0160088
724.306	0.0159997
724.384	0.0159895
724.462	0.0160894
724.540	0.0160838
724.618	0.0160277
724.696	0.0160383
724.774	0.0159739
724.852	0.0160854
724.931	0.0160728
725.009	0.0162920
725.087	0.0162350
725.165	0.0161517
725.243	0.0160543
725.321	0.0162267
725.399	0.0162258
725.477	0.0161401
725.556	0.0161572
725.634	0.0163168
725.712	0.0162179
725.790	0.0162538
725.868	0.0162937
725.946	0.0162585
726.024	0.0162289
726.102	0.0162946
726.181	0.0162304
726.259	0.0162933
726.337	0.0163736
726.415	0.0161648
726.493	0.0162286
726.571	0.0161456
726.649	0.0161549
726.727	0.0161593
726.806	0.0162358
726.884	0.0161694
726.962	0.0161919
727.040	0.0160787
727.118	0.0159477
727.196	0.0161443
727.274	0.0162200
727.352	0.0161349
727.431	0.0159684
727.509	0.0159924
727.587	0.0161325
727.665	0.0161874
727.743	0.0161443
727.821	0.0160446
727.899	0.0161034
727.977	0.0160506
728.056	0.0161036
728.134	0.0160510
728.212	0.0159628
728.290	0.0160045
728.368	0.0159667
728.446	0.0160580
728.524	0.0160107
728.602	0.0161272
728.681	0.0161845
728.759	0.0161365
728.837	0.0160744
728.915	0.0161691
728.993	0.0163005
729.071	0.0164301
729.149	0.0164048
729.227	0.0164369
729.306	0.0163278
729.384	0.0163815
729.462	0.0163463
729.540	0.0163325
729.618	0.0165096
729.696	0.0163602
729.774	0.0164075
729.852	0.0165118
729.931	0.0164542
730.009	0.0163800
730.087	0.0165649
730.165	0.0165843
730.243	0.0164661
730.321	0.0164423
730.399	0.0163597
730.477	0.0164539
730.556	0.0164172
730.634	0.0165271
730.712	0.0164362
730.790	0.0162899
730.868	0.0164276
730.946	0.0163613
731.024	0.0162157
731.102	0.0162547
731.181	0.0162911
731.259	0.0163608
731.337	0.0164058
731.415	0.0163795
731.493	0.0163706
731.571	0.0164563
731.649	0.0162924
731.727	0.0164020
731.806	0.0164121
731.884	0.0164481
731.962	0.0162125
732.040	0.0163531
732.118	0.0161654
732.196	0.0163599
732.274	0.0164972
732.352	0.0162387
732.431	0.0161320
732.509	0.0162247
732.587	0.0161736
732.665	0.0161636
732.743	0.0162978
732.821	0.0161974
732.899	0.0162386
732.977	0.0161596
733.056	0.0161371
733.134	0.0161105
733.212	0.0160841
733.290	0.0160981
733.368	0.0161668
733.446	0.0159911
733.524	0.0162558
733.602	0.0159540
733.681	0.0159782
733.759	0.0160928
733.837	0.0159846
733.915	0.0158923
733.993	0.0160766
734.071	0.0159730
734.149	0.0160195
734.227	0.0161765
734.306	0.0159461
734.384	0.0159343
734.462	0.0159277
734.540	0.0160291
734.618	0.0159730
734.696	0.0160586
734.774	0.0160649
734.852	0.0162619
734.931	0.0160469
735.009	0.0162099
735.087	0.0161736
735.165	0.0161161
735.243	0.0160899
735.321	0.0160984
735.399	0.0161082
735.477	0.0161106
735.556	0.0161852
735.634	0.0161473
735.712	0.0161111
735.790	0.0162966
735.868	0.0160809
735.946	0.0161132
736.024	0.0162412
736.102	0.0161746
736.181	0.0161478
736.259	0.0163100
736.337	0.0161072
736.415	0.0162072
736.493	0.0162075
736.571	0.0161985
736.649	0.0162957
736.727	0.0162719
736.806	0.0163011
736.884	0.0161994
736.962	0.0162392
737.040	0.0163340
737.118	0.0162076
737.196	0.0161922
737.274	0.0163100
737.352	0.0162990
737.431	0.0163033
737.509	0.0162700
737.587	0.0163019
737.665	0.0164110
737.743	0.0162744
737.821	0.0162151
737.899	0.0163890
737.977	0.0165075
738.056	0.0164196
738.134	0.0163888
738.212	0.0164232
738.290	0.0163064
738.368	0.0162846
738.446	0.0164177
738.524	0.0164050
738.602	0.0164516
738.681	0.0164497
738.759	0.0162446
738.837	0.0162907
738.915	0.0163904
738.993	0.0164385
739.071	0.0162999
739.149	0.0162532
739.227	0.0161646
739.306	0.0162994
739.384	0.0163415
739.462	0.0163046
739.540	0.0163580
739.618	0.0163466
739.696	0.0162376
739.774	0.0162957
739.852	0.0163123
739.931	0.0162411
740.009	0.0163152
740.087	0.0162912
740.165	0.0164267
740.243	0.0163130
740.321	0.0161952
740.399	0.0164444
740.477	0.0163090
740.556	0.0162139
740.634	0.0163972
740.712	0.0163090
740.790	0.0163197
740.868	0.0163528
740.946	0.0163675
741.024	0.0164272
741.102	0.0164001
741.181	0.0164997
741.259	0.0165396
741.337	0.0162575
741.415	0.0162657
741.493	0.0163480
741.571	0.0163364
741.649	0.0162128
741.727	0.0161365
741.806	0.0162840
741.884	0.0163107
741.962	0.0163136
742.040	0.0162799
742.118	0.0160959
742.196	0.0161727
742.274	0.0163354
742.352	0.0164079
742.431	0.0162609
742.509	0.0162086
742.587	0.0162666
742.665	0.0161836
742.743	0.0162460
742.821	0.0162106
742.899	0.0163361
742.977	0.0162976
743.056	0.0161599
743.134	0.0162910
743.212	0.0163467
743.290	0.0163269
743.368	0.0162637
743.446	0.0161189
743.524	0.0162130
743.602	0.0164125
743.681	0.0163245
743.759	0.0161259
743.837	0.0162073
743.915	0.0161688
743.993	0.0162785
744.071	0.0163178
744.149	0.0161583
744.227	0.0161043
744.306	0.0161835
744.384	0.0161852
744.462	0.0161829
744.540	0.0162919
744.618	0.0163173
744.696	0.0161723
744.774	0.0162391
744.852	0.0161131
744.931	0.0160159
745.009	0.0160223
745.087	0.0161096
745.165	0.0161885
745.243	0.0162273
745.321	0.0163081
745.399	0.0162135
745.477	0.0160635
745.556	0.0161396
745.634	0.0161401
745.712	0.0162196
745.790	0.0162699
745.868	0.0161529
745.946	0.0161524
746.024	0.0161389
746.102	0.0161191
746.181	0.0161823
746.259	0.0161568
746.337	0.0160504
746.415	0.0159466
746.493	0.0160043
746.571	0.0160013
746.649	0.0161195
746.727	0.0161204
746.806	0.0161382
746.884	0.0160506
746.962	0.0161330
747.040	0.0161398
747.118	0.0161376
747.196	0.0160349
747.274	0.0161184
747.352	0.0162297
747.431	0.0163594
747.509	0.0162186
747.587	0.0161451
747.665	0.0161278
747.743	0.0162582
747.821	0.0162865
747.899	0.0164332
747.977	0.0164775
748.056	0.0163263
748.134	0.0163311
748.212	0.0162075
748.290	0.0163417
748.368	0.0163652
748.446	0.0163515
748.524	0.0163777
748.602	0.0164289
748.681	0.0163242
748.759	0.0163712
748.837	0.0163150
748.915	0.0162780
748.993	0.0162822
749.071	0.0164017
749.149	0.0164221
749.227	0.0162643
749.306	0.0162336
749.384	0.0162771
749.462	0.0162587
749.540	0.0161588
749.618	0.0163265
749.696	0.0162050
749.774	0.0164230
749.852	0.0161505
749.931	0.0161344
750.009	0.0163772
750.087	0.0163228
750.165	0.0161945
750.243	0.0162543
750.321	0.0161945
750.399	0.0162218
750.477	0.0162164
750.556	0.0162945
750.634	0.0161977
750.712	0.0162910
750.790	0.0161955
750.868	0.0161696
750.946	0.0162112
751.024	0.0162054
751.102	0.0162122
751.181	0.0162382
751.259	0.0160870
751.337	0.0160912
751.415	0.0162179
751.493	0.0160340
751.571	0.0160690
751.649	0.0162600
751.727	0.0161739
751.806	0.0161608
751.884	0.0161118
751.962	0.0161340
752.040	0.0161089
752.118	0.0160476
752.196	0.0162062
752.274	0.0162019
752.352	0.0161483
752.431	0.0161841
752.509	0.0162949
752.587	0.0161584
752.665	0.0163327
752.743	0.0162694
752.821	0.0160992
752.899	0.0161788
752.977	0.0162540
753.056	0.0162205
753.134	0.0162889
753.212	0.0162695
753.290	0.0162596
753.368	0.0163978
753.446	0.0163722
753.524	0.0161570
753.602	0.0163406
753.681	0.0163243
753.759	0.0161337
753.837	0.0162315
753.915	0.0164638
753.993	0.0162021
754.071	0.0162453
754.149	0.0162828
754.227	0.0162563
754.306	0.0163354
754.384	0.0163049
754.462	0.0163090
754.540	0.0164291
754.618	0.0162041
754.696	0.0161633
754.774	0.0161568
754.852	0.0162034
754.931	0.0163011
755.009	0.0162887
755.087	0.0161669
755.165	0.0161891
755.243	0.0161819
755.321	0.0162889
755.399	0.0162262
755.477	0.0160880
755.556	0.0161709
755.634	0.0161435
755.712	0.0162916
755.790	0.0161843
755.868	0.0162431
755.946	0.0162442
756.024	0.0161832
756.102	0.0162298
756.181	0.0161637
756.259	0.0162500
756.337	0.0160677
756.415	0.0160547
756.493	0.0161328
756.571	0.0162437
756.649	0.0160942
756.727	0.0161822
756.806	0.0161961
756.884	0.0162897
756.962	0.0161246
757.040	0.0162939
757.118	0.0161430
757.196	0.0161714
757.274	0.0161902
757.352	0.0163745
757.431	0.0162145
757.509	0.0162783
757.587	0.0162347
757.665	0.0164092
757.743	0.0162763
757.821	0.0163641
757.899	0.0162950
757.977	0.0163707
758.056	0.0163376
758.134	0.0162189
758.212	0.0162083
758.290	0.0163651
758.368	0.0163412
758.446	0.0162263
758.524	0.0162720
758.602	0.0163278
758.681	0.0162870
758.759	0.0162157
758.837	0.0162544
758.915	0.0162499
758.993	0.0162901
759.071	0.0162960
759.149	0.0162631
759.227	0.0164065
759.306	0.0163720
759.384	0.0161630
759.462	0.0161559
759.540	0.0163073
759.618	0.0162321
759.696	0.0163061
759.774	0.0162605
759.852	0.0162063
759.931	0.0161648
760.009	0.0161926
760.087	0.0163022
760.165	0.0162611
760.243	0.0160828
760.321	0.0163131
760.399	0.0163544
760.477	0.0162434
760.556	0.0163489
760.634	0.0162885
760.712	0.0163067
760.790	0.0162575
760.868	0.0164005
760.946	0.0162859
761.024	0.0162701
761.102	0.0161824
761.181	0.0162349
761.259	0.0162498
761.337	0.0163585
761.415	0.0163375
761.493	0.0162466
761.571	0.0163407
761.649	0.0161145
761.727	0.0162006
761.806	0.0161449
761.884	0.0162029
761.962	0.0161931
762.040	0.0162354
762.118	0.0161824
762.196	0.0162091
762.274	0.0161282
762.352	0.0161821
762.431	0.0161731
762.509	0.0161655
762.587	0.0162110
762.665	0.0162089
762.743	0.0162086
762.821	0.0161606
762.899	0.0162694
762.977	0.0161714
763.056	0.0160497
763.134	0.0161816
763.212	0.0161705
763.290	0.0161102
763.368	0.0162258
763.446	0.0159540
763.524	0.0162009
763.602	0.0161863
763.681	0.0161230
763.759	0.0161800
763.837	0.0160789
763.915	0.0159380
763.993	0.0161115
764.071	0.0161591
764.149	0.0160521
764.227	0.0162358
764.306	0.0161722
764.384	0.0160915
764.462	0.0160723
764.540	0.0162191
764.618	0.0162198
764.696	0.0163773
764.774	0.0162307
764.852	0.0162930
764.931	0.0161989
765.009	0.0161886
765.087	0.0163045
765.165	0.0161539
765.243	0.0162714
765.321	0.0163207
765.399	0.0163477
765.477	0.0162649
765.556	0.0162215
765.634	0.0162805
765.712	0.0160875
765.790	0.0160219
765.868	0.0161429
765.946	0.0162007
766.024	0.0160787
766.102	0.0161229
766.181	0.0161478
766.259	0.0162855
766.337	0.0162046
766.415	0.0160873
766.493	0.0160183
766.571	0.0161961
766.649	0.0162238
766.727	0.0161755
766.806	0.0160787
766.884	0.0161223
766.962	0.0163267
767.040	0.0161252
767.118	0.0161709
767.196	0.0161485
767.274	0.0161957
767.352	0.0159992
767.431	0.0160656
767.509	0.0159943
767.587	0.0160750
767.665	0.0161083
767.743	0.0161970
767.821	0.0162296
767.899	0.0162100
767.977	0.0161168
768.056	0.0160722
768.134	0.0160561
768.212	0.0160231
768.290	0.0160509
768.368	0.0160614
768.446	0.0160725
768.524	0.0162459
768.602	0.0161063
768.681	0.0160229
768.759	0.0161759
768.837	0.0162617
768.915	0.0161246
768.993	0.0161473
769.071	0.0162619
769.149	0.0163289
769.227	0.0162830
769.306	0.0160902
769.384	0.0161765
769.462	0.0163783
769.540	0.0162448
769.618	0.0163809
769.696	0.0163337
769.774	0.0161880
769.852	0.0162523
769.931	0.0164141
770.009	0.0162518
770.087	0.0163851
770.165	0.0162589
770.243	0.0163491
770.321	0.0163938
770.399	0.0163802
770.477	0.0164043
770.556	0.0163390
770.634	0.0164028
770.712	0.0162746
770.790	0.0163686
770.868	0.0164599
770.946	0.0162975
771.024	0.0164263
771.102	0.0164014
771.181	0.0164836
771.259	0.0164783
771.337	0.0163206
771.415	0.0162981
771.493	0.0163060
771.571	0.0162537
771.649	0.0163309
771.727	0.0163338
771.806	0.0163393
771.884	0.0162783
771.962	0.0162222
772.040	0.0163747
772.118	0.0162720
772.196	0.0161617
772.274	0.0162375
772.352	0.0162021
772.431	0.0163020
772.509	0.0163165
772.587	0.0163852
772.665	0.0161780
772.743	0.0162698
772.821	0.0163074
772.899	0.0162489
772.977	0.0162971
773.056	0.0162437
773.134	0.0162400
773.212	0.0162941
773.290	0.0162171
773.368	0.0162220
773.446	0.0161388
773.524	0.0163048
773.602	0.0163181
773.681	0.0163005
773.759	0.0162724
773.837	0.0163885
773.915	0.0163619
773.993	0.0164467
774.071	0.0163500
774.149	0.0162567
774.227	0.0163091
774.306	0.0162288
774.384	0.0162888
774.462	0.0162729
774.540	0.0162132
774.618	0.0161834
774.696	0.0161695
774.774	0.0162597
774.852	0.0163726
774.931	0.0161651
775.009	0.0163403
775.087	0.0162601
775.165	0.0162838
775.243	0.0163121
775.321	0.0163302
775.399	0.0162569
775.477	0.0163523
775.556	0.0163667
775.634	0.0163535
775.712	0.0162853
775.790	0.0162373
775.868	0.0163802
775.946	0.0163268
776.024	0.0161883
776.102	0.0161200
776.181	0.0161825
776.259	0.0162037
776.337	0.0161236
776.415	0.0162309
776.493	0.0162151
776.571	0.0161213
776.649	0.0161599
776.727	0.0163605
776.806	0.0163001
776.884	0.0161084
776.962	0.0160754
777.040	0.0161430
777.118	0.0161288
777.196	0.0161411
777.274	0.0161105
777.352	0.0161988
777.431	0.0161905
777.509	0.0161189
777.587	0.0161639
777.665	0.0161282
777.743	0.0162060
777.821	0.0161908
777.899	0.0161749
777.977	0.0160676
778.056	0.0159977
778.134	0.0161121
778.212	0.0162621
778.290	0.0160512
778.368	0.0161887
778.446	0.0161033
778.524	0.0161444
778.602	0.0161996
778.681	0.0162382
778.759	0.0161771
778.837	0.0162245
778.915	0.0161508
778.993	0.0160474
779.071	0.0159614
779.149	0.0161098
779.227	0.0161922
779.306	0.0161621
779.384	0.0161259
779.462	0.0162683
779.540	0.0161145
779.618	0.0161240
779.696	0.0160458
779.774	0.0162433
779.852	0.0163931
779.931	0.0162170
780.009	0.0161637
780.087	0.0162216
780.165	0.0160468
780.243	0.0161243
780.321	0.0160344
780.399	0.0161101
780.477	0.0161762
780.556	0.0161118
780.634	0.0161865
780.712	0.0162621
780.790	0.0162702
780.868	0.0162762
780.946	0.0161708
781.024	0.0161971
781.102	0.0162673
781.181	0.0162556
781.259	0.0162860
781.337	0.0162680
781.415	0.0163605
781.493	0.0164448
781.571	0.0163871
781.649	0.0161838
781.727	0.0164303
781.806	0.0164027
781.884	0.0164190
781.962	0.0165572
782.040	0.0165820
782.118	0.0164497
782.196	0.0165311
782.274	0.0165581
782.352	0.0165284
782.431	0.0165627
782.509	0.0164442
782.587	0.0163558
782.665	0.0164568
782.743	0.0164188
782.821	0.0163808
782.899	0.0164915
782.977	0.0164146
783.056	0.0163943
783.134	0.0165254
783.212	0.0163373
783.290	0.0162973
783.368	0.0162971
783.446	0.0164298
783.524	0.0165442
783.602	0.0165102
783.681	0.0163114
783.759	0.0164133
783.837	0.0163865
783.915	0.0164690
783.993	0.0164115
784.071	0.0163871
784.149	0.0164540
784.227	0.0164259
784.306	0.0163246
784.384	0.0163756
784.462	0.0164462
784.540	0.0163924
784.618	0.0164367
784.696	0.0163138
784.774	0.0164143
784.852	0.0164555
784.931	0.0164536
785.009	0.0163497
785.087	0.0163526
785.165	0.0163649
785.243	0.0163056
785.321	0.0163311
785.399	0.0163111
785.477	0.0163618
785.556	0.0163670
785.634	0.0162962
785.712	0.0163628
785.790	0.0162977
785.868	0.0162648
785.946	0.0162548
786.024	0.0162626
786.102	0.0162790
786.181	0.0163130
786.259	0.0163115
786.337	0.0162514
786.415	0.0162003
786.493	0.0161520
786.571	0.0161961
786.649	0.0161325
786.727	0.0162899
786.806	0.0162501
786.884	0.0161221
786.962	0.0161299
787.040	0.0163017
787.118	0.0162937
787.196	0.0162728
787.274	0.0162365
787.352	0.0161357
787.431	0.0161670
787.509	0.0161977
787.587	0.0161692
787.665	0.0160192
787.743	0.0160392
787.821	0.0160950
787.899	0.0159539
787.977	0.0159557
788.056	0.0160030
788.134	0.0160070
788.212	0.0160639
788.290	0.0160619
788.368	0.0160862
788.446	0.0160985
788.524	0.0159972
788.602	0.0159200
788.681	0.0162021
788.759	0.0161794
788.837	0.0159730
788.915	0.0160694
788.993	0.0161500
789.071	0.0162093
789.149	0.0161183
789.227	0.0161797
789.306	0.0161849
789.384	0.0161890
789.462	0.0162511
789.540	0.0161746
789.618	0.0161691
789.696	0.0161731
789.774	0.0161662
789.852	0.0161272
789.931	0.0161739
790.009	0.0161890
790.087	0.0161374
790.165	0.0162202
790.243	0.0162422
790.321	0.0162148
790.399	0.0161920
790.477	0.0162356
790.556	0.0163496
790.634	0.0163194
790.712	0.0163251
790.790	0.0163650
790.868	0.0163077
790.946	0.0164215
791.024	0.0163187
791.102	0.0163300
791.181	0.0162701
791.259	0.0164692
791.337	0.0163228
791.415	0.0163091
791.493	0.0163283
791.571	0.0162968
791.649	0.0164131
791.727	0.0161959
791.806	0.0161802
791.884	0.0161926
791.962	0.0162718
792.040	0.0163038
792.118	0.0162695
792.196	0.0161600
792.274	0.0163111
792.352	0.0164430
792.431	0.0163622
792.509	0.0162629
792.587	0.0163654
792.665	0.0162493
792.743	0.0163665
792.821	0.0164082
792.899	0.0163599
792.977	0.0163107
793.056	0.0164481
793.134	0.0163299
793.212	0.0162794
793.290	0.0164498
793.368	0.0164020
793.446	0.0163146
793.524	0.0164751
793.602	0.0164836
793.681	0.0163731
793.759	0.0164968
793.837	0.0165049
793.915	0.0163472
793.993	0.0164035
794.071	0.0165328
794.149	0.0165557
794.227	0.0163969
794.306	0.0164220
794.384	0.0164728
794.462	0.0163864
794.540	0.0165584
794.618	0.0163538
794.696	0.0164243
794.774	0.0164312
794.852	0.0163454
794.931	0.0163788
795.009	0.0164129
795.087	0.0164583
795.165	0.0164422
795.243	0.0162859
795.321	0.0163125
795.399	0.0163947
795.477	0.0162845
795.556	0.0163033
795.634	0.0161896
795.712	0.0161980
795.790	0.0162286
795.868	0.0160583
795.946	0.0160019
796.024	0.0160209
796.102	0.0160367
796.181	0.0160192
796.259	0.0160534
796.337	0.0160124
796.415	0.0159927
796.493	0.0160108
796.571	0.0158472
796.649	0.0159428
796.727	0.0159220
796.806	0.0158773
796.884	0.0159383
796.962	0.0158482
797.040	0.0159322
797.118	0.0158789
797.196	0.0158983
797.274	0.0159565
797.352	0.0159354
797.431	0.0159190
797.509	0.0159546
797.587	0.0158515
797.665	0.0160124
797.743	0.0159704
797.821	0.0159890
797.899	0.0160172
797.977	0.0161075
798.056	0.0161297
798.134	0.0160915
798.212	0.0160734
798.290	0.0160709
798.368	0.0161169
798.446	0.0162220
798.524	0.0161885
798.602	0.0161832
798.681	0.0163045
798.759	0.0163112
798.837	0.0161568
798.915	0.0162266
798.993	0.0163403
799.071	0.0163533
799.149	0.0162806
799.227	0.0163921
799.306	0.0164012
799.384	0.0164836
799.462	0.0164328
799.540	0.0163820
799.618	0.0164896
799.696	0.0166782
799.774	0.0163615
799.852	0.0165575
799.931	0.0164847
800.009	0.0163434
800.087	0.0165311
800.165	0.0165464
800.243	0.0164819
800.321	0.0165588
800.399	0.0163629
800.477	0.0164703
800.556	0.0165179
800.634	0.0164639
800.712	0.0163156
800.790	0.0163521
800.868	0.0165474
800.946	0.0162823
801.024	0.0164613
801.102	0.0163942
801.181	0.0164178
801.259	0.0163840
801.337	0.0164197
801.415	0.0164544
801.493	0.0163483
801.571	0.0163130
801.649	0.0162668
801.727	0.0162776
801.806	0.0162859
801.884	0.0163248
801.962	0.0163781
802.040	0.0162100
802.118	0.0162757
802.196	0.0162681
802.274	0.0162913
802.352	0.0162757
802.431	0.0162214
802.509	0.0162253
802.587	0.0162567
802.665	0.0161555
802.743	0.0162617
802.821	0.0161928
802.899	0.0161899
802.977	0.0162850
803.056	0.0162069
803.134	0.0162098
803.212	0.0161771
803.290	0.0162554
803.368	0.0161583
803.446	0.0161493
803.524	0.0162111
803.602	0.0160568
803.681	0.0160840
803.759	0.0162654
803.837	0.0162249
803.915	0.0159775
803.993	0.0160863
804.071	0.0162656
804.149	0.0161166
804.227	0.0161539
804.306	0.0162331
804.384	0.0162086
804.462	0.0160157
804.540	0.0162471
804.618	0.0162209
804.696	0.0161062
804.774	0.0161871
804.852	0.0162656
804.931	0.0162025
805.009	0.0161514
805.087	0.0161327
805.165	0.0161826
805.243	0.0161870
805.321	0.0163049
805.399	0.0162517
805.477	0.0163174
805.556	0.0162201
805.634	0.0162949
805.712	0.0163985
805.790	0.0161959
805.868	0.0163765
805.946	0.0163757
806.024	0.0162608
806.102	0.0163301
806.181	0.0163914
806.259	0.0162738
806.337	0.0162964
806.415	0.0162700
806.493	0.0162559
806.571	0.0161944
806.649	0.0164436
806.727	0.0162208
806.806	0.0163139
806.884	0.0164028
806.962	0.0162452
807.040	0.0162684
807.118	0.0162480
807.196	0.0163581
807.274	0.0163940
807.352	0.0162519
807.431	0.0162389
807.509	0.0162926
807.587	0.0163446
807.665	0.0164021
807.743	0.0162738
807.821	0.0161686
807.899	0.0162122
807.977	0.0163886
808.056	0.0162656
808.134	0.0162383
808.212	0.0161362
808.290	0.0163097
808.368	0.0162016
808.446	0.0160281
808.524	0.0160835
808.602	0.0162111
808.681	0.0163261
808.759	0.0161956
808.837	0.0160906
808.915	0.0162342
808.993	0.0161467
809.071	0.0161960
809.149	0.0163358
809.227	0.0161584
809.306	0.0160919
809.384	0.0162145
809.462	0.0162149
809.540	0.0161473
809.618	0.0161510
809.696	0.0161587
809.774	0.0161127
809.852	0.0161552
809.931	0.0162749
810.009	0.0161824
810.087	0.0163438
810.165	0.0162376
810.243	0.0161540
810.321	0.0162614
810.399	0.0162720
810.477	0.0162434
810.556	0.0161983
810.634	0.0164137
810.712	0.0163646
810.790	0.0161808
810.868	0.0162090
810.946	0.0162683
811.024	0.0163593
811.102	0.0162967
811.181	0.0161354
811.259	0.0161069
811.337	0.0161396
811.415	0.0162119
811.493	0.0161085
811.571	0.0160843
811.649	0.0160945
811.727	0.0160078
811.806	0.0161357
811.884	0.0160077
811.962	0.0160838
812.040	0.0161436
812.118	0.0161239
812.196	0.0161987
812.274	0.0161697
812.352	0.0160027
812.431	0.0160275
812.509	0.0160313
812.587	0.0162237
812.665	0.0161105
812.743	0.0160627
812.821	0.0161473
812.899	0.0162055
812.977	0.0161425
813.056	0.0160263
813.134	0.0162064
813.212	0.0163136
813.290	0.0162313
813.368	0.0162212
813.446	0.0162632
813.524	0.0162112
813.602	0.0162936
813.681	0.0162828
813.759	0.0163790
813.837	0.0163438
813.915	0.0164068
813.993	0.0165054
814.071	0.0165283
814.149	0.0162662
814.227	0.0162746
814.306	0.0164032
814.384	0.0165098
814.462	0.0165792
814.540	0.0165752
814.618	0.0164059
814.696	0.0164602
814.774	0.0165542
814.852	0.0164176
814.931	0.0163215
815.009	0.0165099
815.087	0.0165671
815.165	0.0165479
815.243	0.0166101
815.321	0.0164558
815.399	0.0163512
815.477	0.0164809
815.556	0.0165519
815.634	0.0165006
815.712	0.0166278
815.790	0.0163708
815.868	0.0164542
815.946	0.0165472
816.024	0.0164721
816.102	0.0164147
816.181	0.0164935
816.259	0.0164323
816.337	0.0164089
816.415	0.0163853
816.493	0.0164707
816.571	0.0164352
816.649	0.0161717
816.727	0.0163244
816.806	0.0163200
816.884	0.0163715
816.962	0.0164629
817.040	0.0161423
817.118	0.0161960
817.196	0.0162676
817.274	0.0162285
817.352	0.0162880
817.431	0.0162088
817.509	0.0160332
817.587	0.0162235
817.665	0.0161821
817.743	0.0160930
817.821	0.0160877
817.899	0.0161400
817.977	0.0161455
818.056	0.0161864
818.134	0.0162155
818.212	0.0160670
818.290	0.0160595
818.368	0.0161247
818.446	0.0162761
818.524	0.0161872
818.602	0.0162939
818.681	0.0163406
818.759	0.0162823
818.837	0.0162180
818.915	0.0164088
818.993	0.0162363
819.071	0.0163279
819.149	0.0163364
819.227	0.0162267
819.306	0.0163294
819.384	0.0164062
819.462	0.0163795
819.540	0.0163577
819.618	0.0163628
819.696	0.0162136
819.774	0.0163091
819.852	0.0163017
819.931	0.0163650
820.009	0.0162891
820.087	0.0161772
820.165	0.0161423
820.243	0.0162622
820.321	0.0162421
820.399	0.0161826
820.477	0.0161320
820.556	0.0162300
820.634	0.0161687
820.712	0.0161440
820.790	0.0161375
820.868	0.0161457
820.946	0.0160818
821.024	0.0160358
821.102	0.0160692
821.181	0.0160240
821.259	0.0160640
821.337	0.0158977
821.415	0.0159814
821.493	0.0160747
821.571	0.0162132
821.649	0.0159451
821.727	0.0160324
821.806	0.0160735
821.884	0.0159933
821.962	0.0160294
822.040	0.0160650
822.118	0.0160607
822.196	0.0159509
822.274	0.0160883
822.352	0.0160826
822.431	0.0159677
822.509	0.0160567
822.587	0.0161788
822.665	0.0160969
822.743	0.0161631
822.821	0.0161824
822.899	0.0161906
822.977	0.0161951
823.056	0.0162720
823.134	0.0161694
823.212	0.0162524
823.290	0.0164140
823.368	0.0163332
823.446	0.0161732
823.524	0.0162603
823.602	0.0163323
823.681	0.0162102
823.759	0.0162395
823.837	0.0161980
823.915	0.0164126
823.993	0.0163351
824.071	0.0160931
824.149	0.0164167
824.227	0.0163742
824.306	0.0162785
824.384	0.0162157
824.462	0.0162267
824.540	0.0161655
824.618	0.0160915
824.696	0.0162241
824.774	0.0162189
824.852	0.0161283
824.931	0.0162601
825.009	0.0162109
825.087	0.0163343
825.165	0.0161142
825.243	0.0162175
825.321	0.0162659
825.399	0.0162306
825.477	0.0160904
825.556	0.0161196
825.634	0.0163328
825.712	0.0163371
825.790	0.0161617
825.868	0.0161958
825.946	0.0162804
826.024	0.0162714
826.102	0.0161191
826.181	0.0162364
826.259	0.0162522
826.337	0.0163401
826.415	0.0161947
826.493	0.0161588
826.571	0.0160136
826.649	0.0162878
826.727	0.0160570
826.806	0.0160804
826.884	0.0162907
826.962	0.0161819
827.040	0.0160522
827.118	0.0160038
827.196	0.0161078
827.274	0.0162442
827.352	0.0161026
827.431	0.0161661
827.509	0.0161774
827.587	0.0162445
827.665	0.0161475
827.743	0.0161322
827.821	0.0160807
827.899	0.0160613
827.977	0.0163011
828.056	0.0162499
828.134	0.0161183
828.212	0.0161611
828.290	0.0161163
828.368	0.0162703
828.446	0.0161632
828.524	0.0161775
828.602	0.0163187
828.681	0.0162493
828.759	0.0161411
828.837	0.0160685
828.915	0.0161945
828.993	0.0163164
829.071	0.0164125
829.149	0.0162537
829.227	0.0162782
829.306	0.0164411
829.384	0.0162912
829.462	0.0163708
829.540	0.0164038
829.618	0.0163030
829.696	0.0162700
829.774	0.0162954
829.852	0.0162603
829.931	0.0163371
830.009	0.0163512
830.087	0.0163325
830.165	0.0163575
830.243	0.0163208
830.321	0.0162717
830.399	0.0162637
830.477	0.0163438
830.556	0.0162225
830.634	0.0161293
830.712	0.0162230
830.790	0.0161388
830.868	0.0162060
830.946	0.0161548
831.024	0.0162309
831.102	0.0161645
831.181	0.0162193
831.259	0.0161198
831.337	0.0161768
831.415	0.0161472
831.493	0.0162021
831.571	0.0161010
831.649	0.0161961
831.727	0.0161212
831.806	0.0161282
831.884	0.0160170
831.962	0.0160675
832.040	0.0161702
832.118	0.0161680
832.196	0.0162295
832.274	0.0161387
832.352	0.0160767
832.431	0.0161952
832.509	0.0161816
832.587	0.0162405
832.665	0.0161782
832.743	0.0161893
832.821	0.0162213
832.899	0.0163859
832.977	0.0161787
833.056	0.0162534
833.134	0.0161904
833.212	0.0162750
833.290	0.0162636
833.368	0.0162434
833.446	0.0161519
833.524	0.0161818
833.602	0.0161089
833.681	0.0161755
833.759	0.0161719
833.837	0.0161201
833.915	0.0163311
833.993	0.0161401
834.071	0.0162304
834.149	0.0163087
834.227	0.0162647
834.306	0.0161185
834.384	0.0162868
834.462	0.0162156
834.540	0.0161558
834.618	0.0162728
834.696	0.0162247
834.774	0.0162603
834.852	0.0162271
834.931	0.0162042
835.009	0.0162842
835.087	0.0163072
835.165	0.0162794
835.243	0.0162369
835.321	0.0162033
835.399	0.0163248
835.477	0.0163252
835.556	0.0162293
835.634	0.0162554
835.712	0.0162772
835.790	0.0163313
835.868	0.0162645
835.946	0.0162153
836.024	0.0162452
836.102	0.0163280
836.181	0.0162109
836.259	0.0162322
836.337	0.0161729
836.415	0.0162884
836.493	0.0163190
836.571	0.0163343
836.649	0.0162633
836.727	0.0161827
836.806	0.0163692
836.884	0.0162211
836.962	0.0162142
837.040	0.0161176
837.118	0.0162119
837.196	0.0162537
837.274	0.0161588
837.352	0.0161785
837.431	0.0162045
837.509	0.0161994
837.587	0.0162937
837.665	0.0163390
837.743	0.0163197
837.821	0.0163420
837.899	0.0162099
837.977	0.0162524
838.056	0.0162995
838.134	0.0163409
838.212	0.0162435
838.290	0.0161636
838.368	0.0163448
838.446	0.0163976
838.524	0.0162118
838.602	0.0163031
838.681	0.0162923
838.759	0.0164289
838.837	0.0163834
838.915	0.0164203
838.993	0.0164831
839.071	0.0163998
839.149	0.0163485
839.227	0.0163430
839.306	0.0163792
839.384	0.0164423
839.462	0.0163735
839.540	0.0162950
839.618	0.0162437
839.696	0.0164210
839.774	0.0163306
839.852	0.0163814
839.931	0.0163236
840.009	0.0163525
840.087	0.0163772
840.165	0.0162876
840.243	0.0162608
840.321	0.0163416
840.399	0.0164093
840.477	0.0163952
840.556	0.0163851
840.634	0.0163191
840.712	0.0164550
840.790	0.0163132
840.868	0.0162895
840.946	0.0162605
841.024	0.0162493
841.102	0.0162830
841.181	0.0163657
841.259	0.0161791
841.337	0.0162376
841.415	0.0162870
841.493	0.0161840
841.571	0.0161187
841.649	0.0161867
841.727	0.0161182
841.806	0.0161869
841.884	0.0161742
841.962	0.0161579
842.040	0.0163509
842.118	0.0161902
842.196	0.0162460
842.274	0.0162235
842.352	0.0161694
842.431	0.0162038
842.509	0.0162782
842.587	0.0163200
842.665	0.0163351
842.743	0.0161124
842.821	0.0163127
842.899	0.0162617
842.977	0.0163180
843.056	0.0162641
843.134	0.0161203
843.212	0.0161507
843.290	0.0162595
843.368	0.0161767
843.446	0.0161241
843.524	0.0161520
843.602	0.0161570
843.681	0.0160823
843.759	0.0161221
843.837	0.0160706
843.915	0.0160619
843.993	0.0161764
844.071	0.0161706
844.149	0.0161226
844.227	0.0160874
844.306	0.0161584
844.384	0.0161740
844.462	0.0160298
844.540	0.0161485
844.618	0.0162701
844.696	0.0161198
844.774	0.0160890
844.852	0.0161821
844.931	0.0162653
845.009	0.0161154
845.087	0.0161053
845.165	0.0161972
845.243	0.0161964
845.321	0.0161490
845.399	0.0162842
845.477	0.0162706
845.556	0.0162923
845.634	0.0161864
845.712	0.0162518
845.790	0.0163548
845.868	0.0163163
845.946	0.0163232
846.024	0.0162328
846.102	0.0163205
846.181	0.0163941
846.259	0.0164834
846.337	0.0162479
846.415	0.0163796
846.493	0.0163402
846.571	0.0164425
846.649	0.0161954
846.727	0.0164529
846.806	0.0162868
846.884	0.0161691
846.962	0.0162925
847.040	0.0163860
847.118	0.0163474
847.196	0.0162954
847.274	0.0162962
847.352	0.0163934
847.431	0.0162954
847.509	0.0162931
847.587	0.0163430
847.665	0.0163910
847.743	0.0164283
847.821	0.0162566
847.899	0.0162461
847.977	0.0164404
848.056	0.0163515
848.134	0.0163720
848.212	0.0163369
848.290	0.0163197
848.368	0.0163805
848.446	0.0162454
848.524	0.0161755
848.602	0.0162931
848.681	0.0162809
848.759	0.0162166
848.837	0.0163121
848.915	0.0163065
848.993	0.0162895
849.071	0.0161799
849.149	0.0161526
849.227	0.0161678
849.306	0.0161806
849.384	0.0160629
849.462	0.0159489
849.540	0.0160611
849.618	0.0161523
849.696	0.0161840
849.774	0.0160921
849.852	0.0158974
849.931	0.0159862
850.009	0.0160928
850.087	0.0161701
850.165	0.0160226
850.243	0.0159280
850.321	0.0160873
850.399	0.0160728
850.477	0.0161489
850.556	0.0160764
850.634	0.0161154
850.712	0.0160523
850.790	0.0160432
850.868	0.0161303
850.946	0.0161244
851.024	0.0161892
851.102	0.0162799
851.181	0.0161410
851.259	0.0160866
851.337	0.0162421
851.415	0.0162697
851.493	0.0162495
851.571	0.0161549
851.649	0.0163113
851.727	0.0164134
851.806	0.0163177
851.884	0.0162024
851.962	0.0163197
852.040	0.0163738
852.118	0.0163509
852.196	0.0163389
852.274	0.0163947
852.352	0.0165366
852.431	0.0164126
852.509	0.0163404
852.587	0.0163596
852.665	0.0164088
852.743	0.0163688
852.821	0.0164259
852.899	0.0163168
852.977	0.0163866
853.056	0.0163618
853.134	0.0164233
853.212	0.0164471
853.290	0.0164413
853.368	0.0164536
853.446	0.0163876
853.524	0.0163128
853.602	0.0163805
853.681	0.0164491
853.759	0.0162705
853.837	0.0163761
853.915	0.0164143
853.993	0.0163965
854.071	0.0162299
854.149	0.0163100
854.227	0.0162260
854.306	0.0163443
854.384	0.0163268
854.462	0.0162088
854.540	0.0161279
854.618	0.0161897
854.696	0.0162384
854.774	0.0161980
854.852	0.0162469
854.931	0.0160861
855.009	0.0160769
855.087	0.0163150
855.165	0.0162594
855.243	0.0162936
855.321	0.0161422
855.399	0.0161469
855.477	0.0162125
855.556	0.0163177
855.634	0.0161587
855.712	0.0161749
855.790	0.0162528
855.868	0.0163402
855.946	0.0162654
856.024	0.0162057
856.102	0.0162487
856.181	0.0162312
856.259	0.0162168
856.337	0.0161750
856.415	0.0162936
856.493	0.0162480
856.571	0.0161945
856.649	0.0162880
856.727	0.0163297
856.806	0.0161878
856.884	0.0162865
856.962	0.0163403
857.040	0.0162923
857.118	0.0161864
857.196	0.0162917
857.274	0.0163165
857.352	0.0164560
857.431	0.0163039
857.509	0.0162506
857.587	0.0164073
857.665	0.0163209
857.743	0.0163818
857.821	0.0163477
857.899	0.0164252
857.977	0.0162775
858.056	0.0163767
858.134	0.0165441
858.212	0.0163237
858.290	0.0163274
858.368	0.0164855
858.446	0.0163632
858.524	0.0162318
858.602	0.0162324
858.681	0.0162183
858.759	0.0162801
858.837	0.0162165
858.915	0.0162499
858.993	0.0162757
859.071	0.0163993
859.149	0.0162870
859.227	0.0162791
859.306	0.0161786
859.384	0.0161650
859.462	0.0162115
859.540	0.0160618
859.618	0.0162057
859.696	0.0161694
859.774	0.0161950
859.852	0.0162101
859.931	0.0161488
860.009	0.0163005
860.087	0.0162013
860.165	0.0164069
860.243	0.0161749
860.321	0.0161133
860.399	0.0162401
860.477	0.0162878
860.556	0.0161313
860.634	0.0161893
860.712	0.0163296
860.790	0.0162635
860.868	0.0161804
860.946	0.0163505
861.024	0.0162441
861.102	0.0162358
861.181	0.0163750
861.259	0.0163921
861.337	0.0162461
861.415	0.0163642
861.493	0.0164539
861.571	0.0163293
861.649	0.0164308
861.727	0.0163822
861.806	0.0162997
861.884	0.0163278
861.962	0.0162944
862.040	0.0161627
862.118	0.0163661
862.196	0.0164571
862.274	0.0164495
862.352	0.0162868
862.431	0.0162343
862.509	0.0161753
862.587	0.0163773
862.665	0.0162016
862.743	0.0162492
862.821	0.0162184
862.899	0.0162811
862.977	0.0162963
863.056	0.0161010
863.134	0.0161760
863.212	0.0162043
863.290	0.0161538
863.368	0.0161514
863.446	0.0162090
863.524	0.0161271
863.602	0.0161357
863.681	0.0160898
863.759	0.0161716
863.837	0.0163626
863.915	0.0162415
863.993	0.0161627
864.071	0.0162520
864.149	0.0162232
864.227	0.0162134
864.306	0.0162706
864.384	0.0163088
864.462	0.0161450
864.540	0.0162901
864.618	0.0163963
864.696	0.0163201
864.774	0.0161529
864.852	0.0162040
864.931	0.0163442
865.009	0.0164487
865.087	0.0163113
865.165	0.0162072
865.243	0.0162575
865.321	0.0164384
865.399	0.0163155
865.477	0.0161680
865.556	0.0163401
865.634	0.0161970
865.712	0.0162438
865.790	0.0163065
865.868	0.0162861
865.946	0.0163351
866.024	0.0163252
866.102	0.0163457
866.181	0.0163449
866.259	0.0161874
866.337	0.0162135
866.415	0.0163388
866.493	0.0162276
866.571	0.0162951
866.649	0.0163058
866.727	0.0164166
866.806	0.0162227
866.884	0.0164299
866.962	0.0163483
867.040	0.0160868
867.118	0.0162052
867.196	0.0162031
867.274	0.0161395
867.352	0.0161862
867.431	0.0161765
867.509	0.0161828
867.587	0.0162515
867.665	0.0161497
867.743	0.0162518
867.821	0.0162219
867.899	0.0161400
867.977	0.0162159
868.056	0.0162662
868.134	0.0162376
868.212	0.0161202
868.290	0.0162096
868.368	0.0161735
868.446	0.0162127
868.524	0.0162907
868.602	0.0162854
868.681	0.0162553
868.759	0.0162120
868.837	0.0162537
868.915	0.0162189
868.993	0.0162826
869.071	0.0162991
869.149	0.0162355
869.227	0.0162348
869.306	0.0163041
869.384	0.0163521
869.462	0.0163186
869.540	0.0162762
869.618	0.0162433
869.696	0.0161433
869.774	0.0163184
869.852	0.0163374
869.931	0.0163474
870.009	0.0163380
870.087	0.0161873
870.165	0.0162537
870.243	0.0163619
870.321	0.0163443
870.399	0.0164282
870.477	0.0162923
870.556	0.0163428
870.634	0.0162967
870.712	0.0163335
870.790	0.0163274
870.868	0.0164730
870.946	0.0163409
871.024	0.0161752
871.102	0.0162287
871.181	0.0162656
871.259	0.0162685
871.337	0.0161726
871.415	0.0163523
871.493	0.0162462
871.571	0.0162008
871.649	0.0164363
871.727	0.0162669
871.806	0.0161736
871.884	0.0162238
871.962	0.0163050
872.040	0.0163046
872.118	0.0162350
872.196	0.0162350
872.274	0.0162376
872.352	0.0162692
872.431	0.0163038
872.509	0.0161665
872.587	0.0160774
872.665	0.0163527
872.743	0.0161737
872.821	0.0161468
872.899	0.0162926
872.977	0.0162234
873.056	0.0162195
873.134	0.0161342
873.212	0.0161375
873.290	0.0161809
873.368	0.0163367
873.446	0.0162930
873.524	0.0163385
873.602	0.0163222
873.681	0.0161342
873.759	0.0162753
873.837	0.0163940
873.915	0.0163874
873.993	0.0162491
874.071	0.0162809
874.149	0.0162066
874.227	0.0162412
874.306	0.0161626
874.384	0.0163673
874.462	0.0163068
874.540	0.0164108
874.618	0.0162771
874.696	0.0162687
874.774	0.0162026
874.852	0.0162526
874.931	0.0161562
875.009	0.0162190
875.087	0.0160464
875.165	0.0162367
875.243	0.0162236
875.321	0.0161407
875.399	0.0162590
875.477	0.0162566
875.556	0.0162995
875.634	0.0162658
875.712	0.0164486
875.790	0.0162326
875.868	0.0162548
875.946	0.0163116
876.024	0.0163770
876.102	0.0164004
876.181	0.0164038
876.259	0.0164079
876.337	0.0163538
876.415	0.0161436
876.493	0.0163165
876.571	0.0163162
876.649	0.0163224
876.727	0.0162536
876.806	0.0164451
876.884	0.0162672
876.962	0.0163979
877.040	0.0162567
877.118	0.0163099
877.196	0.0163660
877.274	0.0162041
877.352	0.0161931
877.431	0.0162313
877.509	0.0163699
877.587	0.0164162
877.665	0.0161484
877.743	0.0162592
877.821	0.0163235
877.899	0.0163228
877.977	0.0162058
878.056	0.0162051
878.134	0.0162981
878.212	0.0161359
878.290	0.0161357
878.368	0.0162632
878.446	0.0162917
878.524	0.0162057
878.602	0.0162900
878.681	0.0160620
878.759	0.0163026
878.837	0.0163589
878.915	0.0162500
878.993	0.0162704
879.071	0.0163383
879.149	0.0162279
879.227	0.0163052
879.306	0.0165011
879.384	0.0162831
879.462	0.0161015
879.540	0.0162271
879.618	0.0163627
879.696	0.0162867
879.774	0.0163238
879.852	0.0162443
879.931	0.0163288
880.009	0.0162096
880.087	0.0163211
880.165	0.0163029
880.243	0.0161691
880.321	0.0161250
880.399	0.0161286
880.477	0.0162149
880.556	0.0161920
880.634	0.0161830
880.712	0.0162319
880.790	0.0160418
880.868	0.0161382
880.946	0.0162864
881.024	0.0161530
881.102	0.0160709
881.181	0.0160430
881.259	0.0161692
881.337	0.0161472
881.415	0.0161301
881.493	0.0159605
881.571	0.0161493
881.649	0.0161039
881.727	0.0161189
881.806	0.0161758
881.884	0.0161582
881.962	0.0161344
882.040	0.0162260
882.118	0.0161989
882.196	0.0162392
882.274	0.0161106
882.352	0.0162402
882.431	0.0162547
882.509	0.0161697
882.587	0.0162857
882.665	0.0163506
882.743	0.0162039
882.821	0.0162582
882.899	0.0162828
882.977	0.0162858
883.056	0.0162272
883.134	0.0163522
883.212	0.0163661
883.290	0.0162254
883.368	0.0162003
883.446	0.0163908
883.524	0.0162596
883.602	0.0163212
883.681	0.0161836
883.759	0.0163042
883.837	0.0164122
883.915	0.0162368
883.993	0.0162995
884.071	0.0164236
884.149	0.0162074
884.227	0.0163626
884.306	0.0162796
884.384	0.0162566
884.462	0.0162805
884.540	0.0163100
884.618	0.0163248
884.696	0.0162953
884.774	0.0163039
884.852	0.0163173
884.931	0.0163413
885.009	0.0163620
885.087	0.0163350
885.165	0.0162891
885.243	0.0162741
885.321	0.0163329
885.399	0.0164108
885.477	0.0162954
885.556	0.0163845
885.634	0.0163509
885.712	0.0163120
885.790	0.0163372
885.868	0.0163309
885.946	0.0164164
886.024	0.0163644
886.102	0.0164348
886.181	0.0163862
886.259	0.0162564
886.337	0.0162703
886.415	0.0163879
886.493	0.0164750
886.571	0.0164014
886.649	0.0162506
886.727	0.0162842
886.806	0.0162814
886.884	0.0162395
886.962	0.0164723
887.040	0.0162552
887.118	0.0160529
887.196	0.0161737
887.274	0.0164374
887.352	0.0162751
887.431	0.0162938
887.509	0.0162907
887.587	0.0162593
887.665	0.0161196
887.743	0.0162409
887.821	0.0163345
887.899	0.0163383
887.977	0.0162280
888.056	0.0162687
888.134	0.0161671
888.212	0.0162088
888.290	0.0162968
888.368	0.0162844
888.446	0.0160517
888.524	0.0161390
888.602	0.0163291
888.681	0.0161871
888.759	0.0162031
888.837	0.0161829
888.915	0.0162237
888.993	0.0162023
889.071	0.0161315
889.149	0.0162925
889.227	0.0162960
889.306	0.0162405
889.384	0.0161990
889.462	0.0163468
889.540	0.0163506
889.618	0.0162635
889.696	0.0163150
889.774	0.0162445
889.852	0.0163062
889.931	0.0163006
890.009	0.0163622
890.087	0.0163969
890.165	0.0163751
890.243	0.0162873
890.321	0.0163391
890.399	0.0162717
890.477	0.0163979
890.556	0.0163017
890.634	0.0163030
890.712	0.0163025
890.790	0.0164462
890.868	0.0161753
890.946	0.0162895
891.024	0.0163715
891.102	0.0161636
891.181	0.0161633
891.259	0.0162101
891.337	0.0161391
891.415	0.0161900
891.493	0.0161404
891.571	0.0161271
891.649	0.0160509
891.727	0.0160448
891.806	0.0161635
891.884	0.0161253
891.962	0.0160810
892.040	0.0162222
892.118	0.0162074
892.196	0.0162770
892.274	0.0162138
892.352	0.0161247
892.431	0.0163113
892.509	0.0162587
892.587	0.0162101
892.665	0.0162327
892.743	0.0162106
892.821	0.0163206
892.899	0.0162363
892.977	0.0163410
893.056	0.0161483
893.134	0.0163390
893.212	0.0162045
893.290	0.0162405
893.368	0.0162954
893.446	0.0162402
893.524	0.0163116
893.602	0.0163367
893.681	0.0163300
893.759	0.0164076
893.837	0.0164048
893.915	0.0163592
893.993	0.0163696
894.071	0.0164578
894.149	0.0163477
894.227	0.0163873
894.306	0.0164474
894.384	0.0162957
894.462	0.0163158
894.540	0.0163350
894.618	0.0163101
894.696	0.0163309
894.774	0.0161636
894.852	0.0163734
894.931	0.0162658
895.009	0.0161626
895.087	0.0162411
895.165	0.0162797
895.243	0.0162307
895.321	0.0161501
895.399	0.0161393
895.477	0.0161988
895.556	0.0162089
895.634	0.0163065
895.712	0.0162848
895.790	0.0161765
895.868	0.0160413
895.946	0.0163222
896.024	0.0161900
896.102	0.0161462
896.181	0.0162816
896.259	0.0162598
896.337	0.0161393
896.415	0.0160294
896.493	0.0162609
896.571	0.0162349
896.649	0.0162083
896.727	0.0161398
896.806	0.0160682
896.884	0.0160601
896.962	0.0162475
897.040	0.0161259
897.118	0.0160747
897.196	0.0162112
897.274	0.0162814
897.352	0.0162292
897.431	0.0162117
897.509	0.0162655
897.587	0.0160790
897.665	0.0162386
897.743	0.0161478
897.821	0.0159757
897.899	0.0160934
897.977	0.0161253
898.056	0.0159038
898.134	0.0160088
898.212	0.0160423
898.290	0.0160450
898.368	0.0160713
898.446	0.0160262
898.524	0.0160857
898.602	0.0161840
898.681	0.0160353
898.759	0.0160532
898.837	0.0161469
898.915	0.0160188
898.993	0.0161612
899.071	0.0162093
899.149	0.0160770
899.227	0.0160955
899.306	0.0162260
899.384	0.0161433
899.462	0.0160213
899.540	0.0160187
899.618	0.0161770
899.696	0.0161333
899.774	0.0163859
899.852	0.0161442
899.931	0.0160742
900.009	0.0162215
900.087	0.0161362
900.165	0.0162606
900.243	0.0161426
900.321	0.0162038
900.399	0.0161449
900.477	0.0162244
900.556	0.0161937
900.634	0.0161854
900.712	0.0162655
900.790	0.0161112
900.868	0.0162157
900.946	0.0162692
901.024	0.0162944
901.102	0.0163567
901.181	0.0161649
901.259	0.0162540
901.337	0.0163869
901.415	0.0163635
901.493	0.0163866
901.571	0.0162814
901.649	0.0161718
901.727	0.0163229
901.806	0.0162659
901.884	0.0161755
901.962	0.0163144
902.040	0.0162079
902.118	0.0161907
902.196	0.0162883
902.274	0.0162008
902.352	0.0162098
902.431	0.0161182
902.509	0.0162536
902.587	0.0161954
902.665	0.0163298
902.743	0.0162797
902.821	0.0162503
902.899	0.0162334
902.977	0.0161884
903.056	0.0161916
903.134	0.0161397
903.212	0.0161102
903.290	0.0163158
903.368	0.0162564
903.446	0.0161299
903.524	0.0163307
903.602	0.0163041
903.681	0.0162782
903.759	0.0163712
903.837	0.0162833
903.915	0.0163206
903.993	0.0162093
904.071	0.0161906
904.149	0.0162823
904.227	0.0164605
904.306	0.0162245
904.384	0.0162557
904.462	0.0162782
904.540	0.0163116
904.618	0.0164416
904.696	0.0162944
904.774	0.0162604
904.852	0.0163692
904.931	0.0162498
905.009	0.0163740
905.087	0.0163909
905.165	0.0164140
905.243	0.0163295
905.321	0.0162829
905.399	0.0162267
905.477	0.0163557
905.556	0.0163116
905.634	0.0163255
905.712	0.0163729
905.790	0.0162493
905.868	0.0162804
905.946	0.0163242
906.024	0.0162975
906.102	0.0163255
906.181	0.0163216
906.259	0.0160188
906.337	0.0161423
906.415	0.0162424
906.493	0.0163179
906.571	0.0162786
906.649	0.0163695
906.727	0.0162460
906.806	0.0163198
906.884	0.0162834
906.962	0.0162489
907.040	0.0162705
907.118	0.0161884
907.196	0.0159782
907.274	0.0162307
907.352	0.0162309
907.431	0.0162890
907.509	0.0162943
907.587	0.0161472
907.665	0.0163047
907.743	0.0162675
907.821	0.0161839
907.899	0.0161899
907.977	0.0162566
908.056	0.0161404
908.134	0.0162328
908.212	0.0161668
908.290	0.0160899
908.368	0.0161686
908.446	0.0162278
908.524	0.0161581
908.602	0.0162778
908.681	0.0162945
908.759	0.0162630
908.837	0.0162572
908.915	0.0160976
908.993	0.0162962
909.071	0.0162138
909.149	0.0163009
909.227	0.0160957
909.306	0.0161767
909.384	0.0161210
909.462	0.0161488
909.540	0.0162971
909.618	0.0160318
909.696	0.0160361
909.774	0.0162180
909.852	0.0161428
909.931	0.0162188
910.009	0.0161246
910.087	0.0160201
910.165	0.0161006
910.243	0.0161848
910.321	0.0161739
910.399	0.0161919
910.477	0.0160721
910.556	0.0162680
910.634	0.0162412
910.712	0.0160890
910.790	0.0162608
910.868	0.0163152
910.946	0.0163895
911.024	0.0162685
911.102	0.0163683
911.181	0.0162931
911.259	0.0162802
911.337	0.0162688
911.415	0.0162642
911.493	0.0164511
911.571	0.0163319
911.649	0.0164784
911.727	0.0163247
911.806	0.0162351
911.884	0.0162665
911.962	0.0163477
912.040	0.0163199
912.118	0.0163135
912.196	0.0163329
912.274	0.0163488
912.352	0.0161722
912.431	0.0162429
912.509	0.0163912
912.587	0.0162736
912.665	0.0162636
912.743	0.0162157
912.821	0.0162534
912.899	0.0162579
912.977	0.0160130
913.056	0.0161811
913.134	0.0161524
913.212	0.0161166
913.290	0.0161639
913.368	0.0160777
913.446	0.0160428
913.524	0.0160739
913.602	0.0161024
913.681	0.0160165
913.759	0.0160708
913.837	0.0160757
913.915	0.0160451
913.993	0.0161317
914.071	0.0163031
914.149	0.0159736
914.227	0.0161402
914.306	0.0161146
914.384	0.0160402
914.462	0.0162048
914.540	0.0162286
914.618	0.0161353
914.696	0.0161137
914.774	0.0163862
914.852	0.0161802
914.931	0.0163367
915.009	0.0163632
915.087	0.0162064
915.165	0.0163798
915.243	0.0165137
915.321	0.0164232
915.399	0.0164761
915.477	0.0164941
915.556	0.0165102
915.634	0.0164923
915.712	0.0166013
915.790	0.0165558
915.868	0.0165588
915.946	0.0165596
916.024	0.0166450
916.102	0.0165534
916.181	0.0164952
916.259	0.0165261
916.337	0.0165373
916.415	0.0165578
916.493	0.0164392
916.571	0.0163995
916.649	0.0164836
916.727	0.0165315
916.806	0.0165275
916.884	0.0164030
916.962	0.0164954
917.040	0.0163414
917.118	0.0163780
917.196	0.0164674
917.274	0.0163291
917.352	0.0163468
917.431	0.0164993
917.509	0.0163875
917.587	0.0163770
917.665	0.0163484
917.743	0.0164786
917.821	0.0163686
917.899	0.0162857
917.977	0.0162769
918.056	0.0163325
918.134	0.0163413
918.212	0.0163837
918.290	0.0162745
918.368	0.0164069
918.446	0.0163419
918.524	0.0162144
918.602	0.0163541
918.681	0.0163777
918.759	0.0163217
918.837	0.0163662
918.915	0.0162352
918.993	0.0163307
919.071	0.0162659
919.149	0.0164096
919.227	0.0163582
919.306	0.0162878
919.384	0.0163411
919.462	0.0163623
919.540	0.0162044
919.618	0.0162617
919.696	0.0162942
919.774	0.0163009
919.852	0.0162270
919.931	0.0162391
920.009	0.0162276
920.087	0.0163451
920.165	0.0164179
920.243	0.0161508
920.321	0.0162221
920.399	0.0162617
920.477	0.0161668
920.556	0.0161546
920.634	0.0162870
920.712	0.0162214
920.790	0.0160435
920.868	0.0161612
920.946	0.0162138
921.024	0.0160906
921.102	0.0161549
921.181	0.0162554
921.259	0.0163000
921.337	0.0162203
921.415	0.0161240
921.493	0.0162585
921.571	0.0162116
921.649	0.0162905
921.727	0.0161485
921.806	0.0161861
921.884	0.0162685
921.962	0.0162616
922.040	0.0161822
922.118	0.0159715
922.196	0.0161085
922.274	0.0161478
922.352	0.0160861
922.431	0.0161756
922.509	0.0160257
922.587	0.0162025
922.665	0.0160815
922.743	0.0160905
922.821	0.0159196
922.899	0.0161235
922.977	0.0161283
923.056	0.0159892
923.134	0.0160691
923.212	0.0158743
923.290	0.0160067
923.368	0.0160859
923.446	0.0161275
923.524	0.0160603
923.602	0.0160587
923.681	0.0161041
923.759	0.0161392
923.837	0.0161298
923.915	0.0161745
923.993	0.0161658
924.071	0.0162573
924.149	0.0161556
924.227	0.0162783
924.306	0.0162714
924.384	0.0162466
924.462	0.0163220
924.540	0.0162573
924.618	0.0163010
924.696	0.0162419
924.774	0.0163126
924.852	0.0163219
924.931	0.0164021
925.009	0.0164635
925.087	0.0163609
925.165	0.0163693
925.243	0.0163731
925.321	0.0163415
925.399	0.0163350
925.477	0.0164082
925.556	0.0164346
925.634	0.0165858
925.712	0.0164500
925.790	0.0164314
925.868	0.0163496
925.946	0.0163573
926.024	0.0162290
926.102	0.0162936
926.181	0.0163477
926.259	0.0163103
926.337	0.0163014
926.415	0.0163374
926.493	0.0162953
926.571	0.0163318
926.649	0.0161558
926.727	0.0163953
926.806	0.0163043
926.884	0.0162664
926.962	0.0163221
927.040	0.0162723
927.118	0.0163057
927.196	0.0161774
927.274	0.0162480
927.352	0.0164182
927.431	0.0162490
927.509	0.0161577
927.587	0.0161608
927.665	0.0162222
927.743	0.0162910
927.821	0.0163989
927.899	0.0162861
927.977	0.0163329
928.056	0.0161745
928.134	0.0161051
928.212	0.0163197
928.290	0.0163075
928.368	0.0162622
928.446	0.0161696
928.524	0.0161855
928.602	0.0161881
928.681	0.0161642
928.759	0.0162585
928.837	0.0162508
928.915	0.0161904
928.993	0.0162711
929.071	0.0162499
929.149	0.0161594
929.227	0.0162251
929.306	0.0161588
929.384	0.0160885
929.462	0.0162520
929.540	0.0161865
929.618	0.0162823
929.696	0.0162151
929.774	0.0161457
929.852	0.0161473
929.931	0.0162244
