05/19/2022	01:12:55	Ver.	4.1	UNKNOWN
Optical Delay	610.008675	Delta X		0.078125	Sweeps	1	Scan Rate	0/0
Coordinates	Axis 1	NaN	Axis 2	NaN	Axis 3	NaN	Axis 4	NaN	Axis 5	NaN	Axis 6	0.000000
TX Power	0.000000	RX Power	0.000000

610.009	0.0165140
610.087	0.0162630
610.165	0.0161465
610.243	0.0161771
610.321	0.0163231
610.399	0.0163000
610.477	0.0162735
610.556	0.0162986
610.634	0.0164680
610.712	0.0163527
610.790	0.0163891
610.868	0.0164046
610.946	0.0164392
611.024	0.0163726
611.102	0.0164805
611.181	0.0164694
611.259	0.0166125
611.337	0.0165496
611.415	0.0164914
611.493	0.0165398
611.571	0.0166003
611.649	0.0165469
611.727	0.0166240
611.806	0.0164593
611.884	0.0164735
611.962	0.0164428
612.040	0.0165546
612.118	0.0165990
612.196	0.0165603
612.274	0.0164745
612.352	0.0164999
612.431	0.0164469
612.509	0.0164655
612.587	0.0164254
612.665	0.0164915
612.743	0.0165195
612.821	0.0164862
612.899	0.0164706
612.977	0.0164934
613.056	0.0166121
613.134	0.0166405
613.212	0.0164201
613.290	0.0164069
613.368	0.0164471
613.446	0.0163917
613.524	0.0164297
613.602	0.0162650
613.681	0.0164562
613.759	0.0162732
613.837	0.0163161
613.915	0.0163756
613.993	0.0163651
614.071	0.0162860
614.149	0.0163576
614.227	0.0164062
614.306	0.0162195
614.384	0.0162437
614.462	0.0161797
614.540	0.0163107
614.618	0.0163655
614.696	0.0164532
614.774	0.0162267
614.852	0.0163083
614.931	0.0162607
615.009	0.0163402
615.087	0.0164034
615.165	0.0162456
615.243	0.0163283
615.321	0.0164275
615.399	0.0163692
615.477	0.0163545
615.556	0.0162512
615.634	0.0163331
615.712	0.0163259
615.790	0.0163132
615.868	0.0163142
615.946	0.0162287
616.024	0.0163029
616.102	0.0163070
616.181	0.0162897
616.259	0.0163747
616.337	0.0163823
616.415	0.0162578
616.493	0.0162080
616.571	0.0161738
616.649	0.0163528
616.727	0.0163103
616.806	0.0163519
616.884	0.0162947
616.962	0.0162510
617.040	0.0163213
617.118	0.0162001
617.196	0.0162361
617.274	0.0162846
617.352	0.0162914
617.431	0.0163440
617.509	0.0163601
617.587	0.0163655
617.665	0.0162408
617.743	0.0163544
617.821	0.0162914
617.899	0.0162533
617.977	0.0163229
618.056	0.0164386
618.134	0.0163097
618.212	0.0163293
618.290	0.0163715
618.368	0.0163722
618.446	0.0163834
618.524	0.0163899
618.602	0.0161385
618.681	0.0164111
618.759	0.0164498
618.837	0.0164152
618.915	0.0163882
618.993	0.0163048
619.071	0.0162704
619.149	0.0162772
619.227	0.0162380
619.306	0.0162358
619.384	0.0161695
619.462	0.0162901
619.540	0.0162343
619.618	0.0162564
619.696	0.0163134
619.774	0.0161686
619.852	0.0163125
619.931	0.0163686
620.009	0.0165253
620.087	0.0162773
620.165	0.0163077
620.243	0.0163535
620.321	0.0164891
620.399	0.0163808
620.477	0.0164240
620.556	0.0164487
620.634	0.0164753
620.712	0.0165830
620.790	0.0165140
620.868	0.0163705
620.946	0.0165788
621.024	0.0165009
621.102	0.0165108
621.181	0.0165764
621.259	0.0165778
621.337	0.0164422
621.415	0.0164721
621.493	0.0164315
621.571	0.0165334
621.649	0.0164768
621.727	0.0165457
621.806	0.0164873
621.884	0.0165158
621.962	0.0164908
622.040	0.0165157
622.118	0.0166283
622.196	0.0164936
622.274	0.0165221
622.352	0.0166122
622.431	0.0165760
622.509	0.0165928
622.587	0.0165607
622.665	0.0166024
622.743	0.0166301
622.821	0.0164817
622.899	0.0165720
622.977	0.0166530
623.056	0.0166799
623.134	0.0166032
623.212	0.0166286
623.290	0.0166108
623.368	0.0166745
623.446	0.0166323
623.524	0.0165365
623.602	0.0166502
623.681	0.0165559
623.759	0.0164642
623.837	0.0165067
623.915	0.0167168
623.993	0.0165446
624.071	0.0164541
624.149	0.0164804
624.227	0.0164078
624.306	0.0164565
624.384	0.0164685
624.462	0.0166071
624.540	0.0164153
624.618	0.0164091
624.696	0.0164429
624.774	0.0163336
624.852	0.0163345
624.931	0.0162975
625.009	0.0163889
625.087	0.0164144
625.165	0.0163647
625.243	0.0164811
625.321	0.0164709
625.399	0.0162830
625.477	0.0164706
625.556	0.0164073
625.634	0.0164416
625.712	0.0164168
625.790	0.0164439
625.868	0.0164711
625.946	0.0164415
626.024	0.0163800
626.102	0.0164510
626.181	0.0165261
626.259	0.0163857
626.337	0.0164998
626.415	0.0166095
626.493	0.0164959
626.571	0.0165461
626.649	0.0164848
626.727	0.0164548
626.806	0.0165881
626.884	0.0165225
626.962	0.0163596
627.040	0.0164751
627.118	0.0164465
627.196	0.0161653
627.274	0.0163830
627.352	0.0164658
627.431	0.0162405
627.509	0.0163188
627.587	0.0164538
627.665	0.0162674
627.743	0.0160706
627.821	0.0161517
627.899	0.0162621
627.977	0.0161765
628.056	0.0161344
628.134	0.0160307
628.212	0.0160399
628.290	0.0161305
628.368	0.0160812
628.446	0.0161243
628.524	0.0161890
628.602	0.0161191
628.681	0.0160380
628.759	0.0163011
628.837	0.0163442
628.915	0.0160865
628.993	0.0161748
629.071	0.0162833
629.149	0.0162128
629.227	0.0162244
629.306	0.0162720
629.384	0.0162549
629.462	0.0162766
629.540	0.0162442
629.618	0.0161983
629.696	0.0162370
629.774	0.0163749
629.852	0.0164709
629.931	0.0164545
630.009	0.0165399
630.087	0.0164875
630.165	0.0165531
630.243	0.0164950
630.321	0.0164909
630.399	0.0165958
630.477	0.0165475
630.556	0.0167645
630.634	0.0167863
630.712	0.0167289
630.790	0.0167604
630.868	0.0166060
630.946	0.0168342
631.024	0.0166730
631.102	0.0166792
631.181	0.0167967
631.259	0.0167735
631.337	0.0166563
631.415	0.0166405
631.493	0.0166610
631.571	0.0166148
631.649	0.0166234
631.727	0.0166177
631.806	0.0165370
631.884	0.0165408
631.962	0.0164799
632.040	0.0165168
632.118	0.0163563
632.196	0.0163826
632.274	0.0162569
632.352	0.0162272
632.431	0.0162496
632.509	0.0160369
632.587	0.0159526
632.665	0.0160155
632.743	0.0161335
632.821	0.0160899
632.899	0.0160233
632.977	0.0159731
633.056	0.0159682
633.134	0.0160851
633.212	0.0159997
633.290	0.0161368
633.368	0.0160114
633.446	0.0161769
633.524	0.0160767
633.602	0.0161732
633.681	0.0162308
633.759	0.0162531
633.837	0.0162370
633.915	0.0162070
633.993	0.0163487
634.071	0.0163972
634.149	0.0165192
634.227	0.0164239
634.306	0.0165635
634.384	0.0165022
634.462	0.0166510
634.540	0.0164849
634.618	0.0167342
634.696	0.0166968
634.774	0.0167632
634.852	0.0169088
634.931	0.0168036
635.009	0.0167800
635.087	0.0167538
635.165	0.0169027
635.243	0.0168190
635.321	0.0168080
635.399	0.0168224
635.477	0.0168021
635.556	0.0167657
635.634	0.0166779
635.712	0.0166926
635.790	0.0166084
635.868	0.0164865
635.946	0.0165940
636.024	0.0166537
636.102	0.0165135
636.181	0.0163472
636.259	0.0164556
636.337	0.0163946
636.415	0.0162526
636.493	0.0161748
636.571	0.0162418
636.649	0.0161954
636.727	0.0161343
636.806	0.0160481
636.884	0.0162196
636.962	0.0160732
637.040	0.0159256
637.118	0.0159147
637.196	0.0159567
637.274	0.0158379
637.352	0.0158887
637.431	0.0159421
637.509	0.0158456
637.587	0.0158938
637.665	0.0159409
637.743	0.0159572
637.821	0.0159541
637.899	0.0160596
637.977	0.0160339
638.056	0.0160773
638.134	0.0160704
638.212	0.0162149
638.290	0.0162917
638.368	0.0162972
638.446	0.0162705
638.524	0.0162561
638.602	0.0162920
638.681	0.0164512
638.759	0.0164922
638.837	0.0164816
638.915	0.0165531
638.993	0.0166251
639.071	0.0166682
639.149	0.0165365
639.227	0.0166035
639.306	0.0166461
639.384	0.0167847
639.462	0.0168380
639.540	0.0167565
639.618	0.0167982
639.696	0.0167950
639.774	0.0166975
639.852	0.0166235
639.931	0.0165988
640.009	0.0166273
640.087	0.0166489
640.165	0.0164949
640.243	0.0165699
640.321	0.0164377
640.399	0.0164717
640.477	0.0164204
640.556	0.0163776
640.634	0.0162937
640.712	0.0162870
640.790	0.0162393
640.868	0.0162643
640.946	0.0161289
641.024	0.0161861
641.102	0.0159624
641.181	0.0159882
641.259	0.0161215
641.337	0.0160307
641.415	0.0160411
641.493	0.0161681
641.571	0.0160188
641.649	0.0159353
641.727	0.0162068
641.806	0.0160982
641.884	0.0160495
641.962	0.0160897
642.040	0.0160482
642.118	0.0161134
642.196	0.0161398
642.274	0.0160346
642.352	0.0160285
642.431	0.0162719
642.509	0.0161979
642.587	0.0162275
642.665	0.0164055
642.743	0.0163663
642.821	0.0163673
642.899	0.0163148
642.977	0.0162219
643.056	0.0162716
643.134	0.0162843
643.212	0.0164342
643.290	0.0163792
643.368	0.0164959
643.446	0.0165144
643.524	0.0163908
643.602	0.0165212
643.681	0.0164839
643.759	0.0164944
643.837	0.0164513
643.915	0.0165868
643.993	0.0164412
644.071	0.0165297
644.149	0.0165893
644.227	0.0164458
644.306	0.0166475
644.384	0.0165247
644.462	0.0165090
644.540	0.0164789
644.618	0.0164411
644.696	0.0165849
644.774	0.0165952
644.852	0.0164568
644.931	0.0165115
645.009	0.0166019
645.087	0.0164263
645.165	0.0165616
645.243	0.0163994
645.321	0.0163909
645.399	0.0165729
645.477	0.0164658
645.556	0.0164348
645.634	0.0164508
645.712	0.0162563
645.790	0.0162923
645.868	0.0164717
645.946	0.0164542
646.024	0.0164680
646.102	0.0163217
646.181	0.0164247
646.259	0.0162535
646.337	0.0162903
646.415	0.0162077
646.493	0.0163197
646.571	0.0163699
646.649	0.0161881
646.727	0.0162521
646.806	0.0161636
646.884	0.0162910
646.962	0.0161938
647.040	0.0162357
647.118	0.0161780
647.196	0.0160877
647.274	0.0161966
647.352	0.0160484
647.431	0.0160971
647.509	0.0162334
647.587	0.0160070
647.665	0.0160087
647.743	0.0160928
647.821	0.0161006
647.899	0.0160783
647.977	0.0161726
648.056	0.0161823
648.134	0.0160815
648.212	0.0161153
648.290	0.0162318
648.368	0.0161718
648.446	0.0162090
648.524	0.0162660
648.602	0.0163062
648.681	0.0162765
648.759	0.0162297
648.837	0.0161060
648.915	0.0163565
648.993	0.0164071
649.071	0.0164371
649.149	0.0164771
649.227	0.0163657
649.306	0.0164519
649.384	0.0162951
649.462	0.0164574
649.540	0.0164137
649.618	0.0165336
649.696	0.0165793
649.774	0.0165376
649.852	0.0165389
649.931	0.0164842
650.009	0.0164731
650.087	0.0164587
650.165	0.0165527
650.243	0.0164861
650.321	0.0164951
650.399	0.0165082
650.477	0.0165096
650.556	0.0165803
650.634	0.0165315
650.712	0.0164480
650.790	0.0165008
650.868	0.0165605
650.946	0.0165118
651.024	0.0164922
651.102	0.0164233
651.181	0.0164986
651.259	0.0166078
651.337	0.0165582
651.415	0.0164157
651.493	0.0165231
651.571	0.0165908
651.649	0.0167051
651.727	0.0165603
651.806	0.0164533
651.884	0.0164960
651.962	0.0165857
652.040	0.0166215
652.118	0.0166790
652.196	0.0166231
652.274	0.0166881
652.352	0.0164745
652.431	0.0165058
652.509	0.0165472
652.587	0.0165015
652.665	0.0164175
652.743	0.0163265
652.821	0.0164008
652.899	0.0165359
652.977	0.0165500
653.056	0.0163773
653.134	0.0163448
653.212	0.0162811
653.290	0.0162154
653.368	0.0163526
653.446	0.0164357
653.524	0.0162679
653.602	0.0163731
653.681	0.0161568
653.759	0.0161150
653.837	0.0162876
653.915	0.0163095
653.993	0.0160635
654.071	0.0160262
654.149	0.0163084
654.227	0.0160710
654.306	0.0162003
654.384	0.0162153
654.462	0.0159441
654.540	0.0160234
654.618	0.0162567
654.696	0.0161651
654.774	0.0161285
654.852	0.0161139
654.931	0.0162934
655.009	0.0162060
655.087	0.0163204
655.165	0.0161562
655.243	0.0162904
655.321	0.0163927
655.399	0.0164988
655.477	0.0164717
655.556	0.0166252
655.634	0.0166015
655.712	0.0166821
655.790	0.0165494
655.868	0.0166550
655.946	0.0167269
656.024	0.0167935
656.102	0.0168333
656.181	0.0169157
656.259	0.0169989
656.337	0.0168807
656.415	0.0168887
656.493	0.0168913
656.571	0.0169713
656.649	0.0167986
656.727	0.0170380
656.806	0.0170705
656.884	0.0169087
656.962	0.0168542
657.040	0.0168437
657.118	0.0168552
657.196	0.0167982
657.274	0.0165291
657.352	0.0165622
657.431	0.0164317
657.509	0.0164561
657.587	0.0165317
657.665	0.0162324
657.743	0.0164094
657.821	0.0163863
657.899	0.0162530
657.977	0.0161033
658.056	0.0161105
658.134	0.0159702
658.212	0.0160878
658.290	0.0161613
658.368	0.0160491
658.446	0.0160234
658.524	0.0158229
658.602	0.0157817
658.681	0.0159705
658.759	0.0157349
658.837	0.0158722
658.915	0.0159800
658.993	0.0159752
659.071	0.0158984
659.149	0.0160020
659.227	0.0160530
659.306	0.0159385
659.384	0.0160814
659.462	0.0160237
659.540	0.0159917
659.618	0.0160900
659.696	0.0160281
659.774	0.0162680
659.852	0.0160761
659.931	0.0161783
660.009	0.0162709
660.087	0.0161864
660.165	0.0161968
660.243	0.0162369
660.321	0.0162523
660.399	0.0162920
660.477	0.0164415
660.556	0.0163034
660.634	0.0163599
660.712	0.0165626
660.790	0.0165348
660.868	0.0166266
660.946	0.0166608
661.024	0.0165736
661.102	0.0164701
661.181	0.0165044
661.259	0.0165920
661.337	0.0166943
661.415	0.0166415
661.493	0.0166389
661.571	0.0166189
661.649	0.0165711
661.727	0.0166456
661.806	0.0165054
661.884	0.0165777
661.962	0.0165215
662.040	0.0164644
662.118	0.0165297
662.196	0.0163305
662.274	0.0165139
662.352	0.0164750
662.431	0.0163866
662.509	0.0165311
662.587	0.0165872
662.665	0.0163893
662.743	0.0163846
662.821	0.0164333
662.899	0.0164161
662.977	0.0165384
663.056	0.0164473
663.134	0.0163962
663.212	0.0163892
663.290	0.0164252
663.368	0.0162196
663.446	0.0163757
663.524	0.0163332
663.602	0.0162956
663.681	0.0162766
663.759	0.0161853
663.837	0.0163525
663.915	0.0163087
663.993	0.0160938
664.071	0.0162984
664.149	0.0161948
664.227	0.0162554
664.306	0.0161015
664.384	0.0162595
664.462	0.0163084
664.540	0.0160743
664.618	0.0161461
664.696	0.0162042
664.774	0.0162952
664.852	0.0161939
664.931	0.0162762
665.009	0.0161964
665.087	0.0161932
665.165	0.0161839
665.243	0.0160475
665.321	0.0163356
665.399	0.0163877
665.477	0.0162944
665.556	0.0163383
665.634	0.0162860
665.712	0.0164198
665.790	0.0162507
665.868	0.0165235
665.946	0.0163803
666.024	0.0165450
666.102	0.0166192
666.181	0.0163995
666.259	0.0166159
666.337	0.0164649
666.415	0.0165318
666.493	0.0165694
666.571	0.0165640
666.649	0.0166750
666.727	0.0166393
666.806	0.0165309
666.884	0.0166131
666.962	0.0165565
667.040	0.0164714
667.118	0.0165233
667.196	0.0164750
667.274	0.0164890
667.352	0.0164038
667.431	0.0164719
667.509	0.0164591
667.587	0.0163472
667.665	0.0164626
667.743	0.0164062
667.821	0.0163641
667.899	0.0162762
667.977	0.0164032
668.056	0.0163677
668.134	0.0163751
668.212	0.0162696
668.290	0.0162770
668.368	0.0163815
668.446	0.0163167
668.524	0.0161962
668.602	0.0162840
668.681	0.0161217
668.759	0.0162752
668.837	0.0161586
668.915	0.0163058
668.993	0.0161763
669.071	0.0161755
669.149	0.0162286
669.227	0.0161952
669.306	0.0161679
669.384	0.0162557
669.462	0.0162103
669.540	0.0161424
669.618	0.0160918
669.696	0.0163365
669.774	0.0161976
669.852	0.0162904
669.931	0.0162352
670.009	0.0162453
670.087	0.0162534
670.165	0.0163853
670.243	0.0162975
670.321	0.0163802
670.399	0.0163740
670.477	0.0164306
670.556	0.0164046
670.634	0.0162518
670.712	0.0165295
670.790	0.0164610
670.868	0.0164161
670.946	0.0164240
671.024	0.0164314
671.102	0.0165782
671.181	0.0164972
671.259	0.0165429
671.337	0.0164786
671.415	0.0165762
671.493	0.0166247
671.571	0.0166180
671.649	0.0166064
671.727	0.0163817
671.806	0.0165337
671.884	0.0165390
671.962	0.0165800
672.040	0.0165267
672.118	0.0165402
672.196	0.0163883
672.274	0.0165722
672.352	0.0164518
672.431	0.0163390
672.509	0.0165272
672.587	0.0165730
672.665	0.0164828
672.743	0.0165197
672.821	0.0164861
672.899	0.0164906
672.977	0.0163774
673.056	0.0164471
673.134	0.0163592
673.212	0.0164629
673.290	0.0162805
673.368	0.0164413
673.446	0.0163872
673.524	0.0164011
673.602	0.0163354
673.681	0.0162640
673.759	0.0164143
673.837	0.0164149
673.915	0.0163292
673.993	0.0162759
674.071	0.0163058
674.149	0.0162980
674.227	0.0165301
674.306	0.0163525
674.384	0.0164794
674.462	0.0163284
674.540	0.0163087
674.618	0.0163821
674.696	0.0163112
674.774	0.0162800
674.852	0.0163729
674.931	0.0163558
675.009	0.0163194
675.087	0.0162368
675.165	0.0162762
675.243	0.0162111
675.321	0.0163911
675.399	0.0163867
675.477	0.0163863
675.556	0.0163248
675.634	0.0163415
675.712	0.0163351
675.790	0.0163055
675.868	0.0162856
675.946	0.0164046
676.024	0.0164106
676.102	0.0164487
676.181	0.0164419
676.259	0.0164780
676.337	0.0165379
676.415	0.0164952
676.493	0.0164379
676.571	0.0166107
676.649	0.0166418
676.727	0.0165972
676.806	0.0167689
676.884	0.0165947
676.962	0.0165259
677.040	0.0165868
677.118	0.0165677
677.196	0.0166868
677.274	0.0165768
677.352	0.0164152
677.431	0.0165587
677.509	0.0167112
677.587	0.0165565
677.665	0.0167180
677.743	0.0165456
677.821	0.0165376
677.899	0.0164865
677.977	0.0164410
678.056	0.0164510
678.134	0.0165185
678.212	0.0162572
678.290	0.0163416
678.368	0.0162804
678.446	0.0163097
678.524	0.0160490
678.602	0.0160797
678.681	0.0160442
678.759	0.0160312
678.837	0.0160161
678.915	0.0160380
678.993	0.0159856
679.071	0.0159966
679.149	0.0159374
679.227	0.0159812
679.306	0.0160034
679.384	0.0160556
679.462	0.0160701
679.540	0.0161156
679.618	0.0161442
679.696	0.0162307
679.774	0.0161806
679.852	0.0160896
679.931	0.0161603
680.009	0.0162707
680.087	0.0162395
680.165	0.0161918
680.243	0.0163506
680.321	0.0162014
680.399	0.0162302
680.477	0.0164095
680.556	0.0161853
680.634	0.0162514
680.712	0.0164502
680.790	0.0163563
680.868	0.0164290
680.946	0.0165340
681.024	0.0165627
681.102	0.0166442
681.181	0.0166401
681.259	0.0168229
681.337	0.0167792
681.415	0.0168195
681.493	0.0168384
681.571	0.0167414
681.649	0.0168629
681.727	0.0168441
681.806	0.0169590
681.884	0.0169135
681.962	0.0167186
682.040	0.0168518
682.118	0.0168490
682.196	0.0169925
682.274	0.0169357
682.352	0.0168907
682.431	0.0168476
682.509	0.0168186
682.587	0.0167950
682.665	0.0168044
682.743	0.0168277
682.821	0.0167653
682.899	0.0165745
682.977	0.0167258
683.056	0.0167947
683.134	0.0166886
683.212	0.0165575
683.290	0.0166603
683.368	0.0166505
683.446	0.0165220
683.524	0.0165810
683.602	0.0164011
683.681	0.0162835
683.759	0.0163949
683.837	0.0162980
683.915	0.0162306
683.993	0.0162031
684.071	0.0162479
684.149	0.0162457
684.227	0.0160898
684.306	0.0161418
684.384	0.0163209
684.462	0.0163927
684.540	0.0162936
684.618	0.0162572
684.696	0.0163641
684.774	0.0162423
684.852	0.0162859
684.931	0.0163013
685.009	0.0164146
685.087	0.0163542
685.165	0.0164185
685.243	0.0162084
685.321	0.0162798
685.399	0.0164674
685.477	0.0164009
685.556	0.0163600
685.634	0.0163342
685.712	0.0163562
685.790	0.0164075
685.868	0.0164368
685.946	0.0163965
686.024	0.0163257
686.102	0.0163543
686.181	0.0164223
686.259	0.0164485
686.337	0.0165107
686.415	0.0163773
686.493	0.0164773
686.571	0.0163811
686.649	0.0162772
686.727	0.0164028
686.806	0.0165096
686.884	0.0165015
686.962	0.0164874
687.040	0.0165247
687.118	0.0164564
687.196	0.0164992
687.274	0.0165859
687.352	0.0165752
687.431	0.0166119
687.509	0.0166324
687.587	0.0167170
687.665	0.0167669
687.743	0.0167818
687.821	0.0168296
687.899	0.0166074
687.977	0.0167538
688.056	0.0169056
688.134	0.0169211
688.212	0.0167334
688.290	0.0168581
688.368	0.0167838
688.446	0.0168386
688.524	0.0168677
688.602	0.0168360
688.681	0.0168105
688.759	0.0167652
688.837	0.0168549
688.915	0.0167130
688.993	0.0167245
689.071	0.0167369
689.149	0.0167230
689.227	0.0165781
689.306	0.0165804
689.384	0.0164866
689.462	0.0165622
689.540	0.0164164
689.618	0.0164381
689.696	0.0162630
689.774	0.0161917
689.852	0.0161514
689.931	0.0162028
690.009	0.0161504
690.087	0.0161670
690.165	0.0161220
690.243	0.0158730
690.321	0.0160890
690.399	0.0160571
690.477	0.0161081
690.556	0.0161687
690.634	0.0161401
690.712	0.0161722
690.790	0.0161867
690.868	0.0160699
690.946	0.0161331
691.024	0.0162191
691.102	0.0162743
691.181	0.0162255
691.259	0.0163661
691.337	0.0164165
691.415	0.0163387
691.493	0.0163638
691.571	0.0163672
691.649	0.0163161
691.727	0.0164885
691.806	0.0166506
691.884	0.0166185
691.962	0.0164641
692.040	0.0164282
692.118	0.0165235
692.196	0.0165627
692.274	0.0165926
692.352	0.0164012
692.431	0.0164700
692.509	0.0164519
692.587	0.0165142
692.665	0.0164221
692.743	0.0166133
692.821	0.0163876
692.899	0.0164270
692.977	0.0163880
693.056	0.0164298
693.134	0.0164596
693.212	0.0163130
693.290	0.0164433
693.368	0.0162772
693.446	0.0163614
693.524	0.0162675
693.602	0.0162759
693.681	0.0162773
693.759	0.0162276
693.837	0.0164117
693.915	0.0162033
693.993	0.0161040
694.071	0.0163304
694.149	0.0162367
694.227	0.0162621
694.306	0.0162124
694.384	0.0163248
694.462	0.0162046
694.540	0.0162903
694.618	0.0163038
694.696	0.0163578
694.774	0.0161976
694.852	0.0163544
694.931	0.0164108
695.009	0.0163641
695.087	0.0164622
695.165	0.0164804
695.243	0.0164099
695.321	0.0165456
695.399	0.0164696
695.477	0.0165125
695.556	0.0164484
695.634	0.0165900
695.712	0.0166534
695.790	0.0166913
695.868	0.0167167
695.946	0.0166252
696.024	0.0165138
696.102	0.0166129
696.181	0.0166680
696.259	0.0164911
696.337	0.0165152
696.415	0.0164800
696.493	0.0164474
696.571	0.0165179
696.649	0.0163649
696.727	0.0164988
696.806	0.0163866
696.884	0.0162277
696.962	0.0163538
697.040	0.0163198
697.118	0.0162167
697.196	0.0162360
697.274	0.0162569
697.352	0.0161446
697.431	0.0161192
697.509	0.0161974
697.587	0.0161114
697.665	0.0161197
697.743	0.0161021
697.821	0.0159628
697.899	0.0160387
697.977	0.0161196
698.056	0.0162051
698.134	0.0162482
698.212	0.0162096
698.290	0.0162505
698.368	0.0161757
698.446	0.0163506
698.524	0.0163998
698.602	0.0164600
698.681	0.0164435
698.759	0.0165200
698.837	0.0165844
698.915	0.0165200
698.993	0.0165469
699.071	0.0166930
699.149	0.0165878
699.227	0.0166790
699.306	0.0166158
699.384	0.0167922
699.462	0.0167253
699.540	0.0166194
699.618	0.0168073
699.696	0.0168786
699.774	0.0169056
699.852	0.0168019
699.931	0.0167364
700.009	0.0167448
700.087	0.0167821
700.165	0.0168337
700.243	0.0167068
700.321	0.0167564
700.399	0.0167284
700.477	0.0166673
700.556	0.0165999
700.634	0.0166129
700.712	0.0165104
700.790	0.0167634
700.868	0.0165965
700.946	0.0165722
701.024	0.0164462
701.102	0.0165044
701.181	0.0164857
701.259	0.0165465
701.337	0.0163576
701.415	0.0164903
701.493	0.0164988
701.571	0.0164408
701.649	0.0164500
701.727	0.0163168
701.806	0.0164320
701.884	0.0163718
701.962	0.0164268
702.040	0.0164706
702.118	0.0164829
702.196	0.0164878
702.274	0.0163696
702.352	0.0164847
702.431	0.0164734
702.509	0.0164764
702.587	0.0165136
702.665	0.0165573
702.743	0.0165547
702.821	0.0164075
702.899	0.0165993
702.977	0.0164970
703.056	0.0165710
703.134	0.0165723
703.212	0.0164371
703.290	0.0164629
703.368	0.0164447
703.446	0.0166049
703.524	0.0165222
703.602	0.0163387
703.681	0.0164217
703.759	0.0164465
703.837	0.0163453
703.915	0.0165086
703.993	0.0163762
704.071	0.0163801
704.149	0.0163158
704.227	0.0162109
704.306	0.0162484
704.384	0.0162781
704.462	0.0161856
704.540	0.0161862
704.618	0.0163040
704.696	0.0161567
704.774	0.0161991
704.852	0.0161517
704.931	0.0162018
705.009	0.0161030
705.087	0.0162191
705.165	0.0163509
705.243	0.0161894
705.321	0.0162203
705.399	0.0162309
705.477	0.0163015
705.556	0.0163723
705.634	0.0163175
705.712	0.0163425
705.790	0.0163727
705.868	0.0163944
705.946	0.0165289
706.024	0.0166024
706.102	0.0165485
706.181	0.0165424
706.259	0.0166073
706.337	0.0165466
706.415	0.0166096
706.493	0.0167216
706.571	0.0165995
706.649	0.0168111
706.727	0.0167012
706.806	0.0166418
706.884	0.0166170
706.962	0.0166895
707.040	0.0165469
707.118	0.0165354
707.196	0.0166373
707.274	0.0164565
707.352	0.0165639
707.431	0.0163345
707.509	0.0164157
707.587	0.0162799
707.665	0.0162851
707.743	0.0163958
707.821	0.0164118
707.899	0.0162443
707.977	0.0163045
708.056	0.0163168
708.134	0.0163066
708.212	0.0161195
708.290	0.0162398
708.368	0.0164072
708.446	0.0162694
708.524	0.0162941
708.602	0.0163673
708.681	0.0164852
708.759	0.0164816
708.837	0.0165201
708.915	0.0164738
708.993	0.0166192
709.071	0.0166319
709.149	0.0164368
709.227	0.0165834
709.306	0.0165173
709.384	0.0164741
709.462	0.0166599
709.540	0.0165734
709.618	0.0165822
709.696	0.0166012
709.774	0.0165151
709.852	0.0163672
709.931	0.0164516
710.009	0.0164605
710.087	0.0164406
710.165	0.0163992
710.243	0.0162537
710.321	0.0164370
710.399	0.0165102
710.477	0.0164032
710.556	0.0163677
710.634	0.0164169
710.712	0.0163190
710.790	0.0163727
710.868	0.0164454
710.946	0.0164063
711.024	0.0164548
711.102	0.0164807
711.181	0.0164187
711.259	0.0165437
711.337	0.0163744
711.415	0.0163966
711.493	0.0164194
711.571	0.0162904
711.649	0.0164282
711.727	0.0164015
711.806	0.0163454
711.884	0.0161629
711.962	0.0161583
712.040	0.0162017
712.118	0.0161066
712.196	0.0163302
712.274	0.0161961
712.352	0.0162500
712.431	0.0162046
712.509	0.0161729
712.587	0.0162556
712.665	0.0162094
712.743	0.0164297
712.821	0.0162730
712.899	0.0163643
712.977	0.0162428
713.056	0.0163274
713.134	0.0164158
713.212	0.0164751
713.290	0.0164510
713.368	0.0163570
713.446	0.0165343
713.524	0.0165807
713.602	0.0164830
713.681	0.0165344
713.759	0.0166457
713.837	0.0166064
713.915	0.0164391
713.993	0.0166793
714.071	0.0167933
714.149	0.0166411
714.227	0.0166484
714.306	0.0166143
714.384	0.0167735
714.462	0.0167953
714.540	0.0168474
714.618	0.0167838
714.696	0.0168364
714.774	0.0166634
714.852	0.0166423
714.931	0.0166381
715.009	0.0166653
715.087	0.0166104
715.165	0.0164647
715.243	0.0165691
715.321	0.0167306
715.399	0.0166864
715.477	0.0165820
715.556	0.0165556
715.634	0.0165507
715.712	0.0166077
715.790	0.0165611
715.868	0.0164958
715.946	0.0165512
716.024	0.0166112
716.102	0.0164415
716.181	0.0164294
716.259	0.0165038
716.337	0.0164931
716.415	0.0163342
716.493	0.0163264
716.571	0.0163276
716.649	0.0163563
716.727	0.0162708
716.806	0.0163647
716.884	0.0163905
716.962	0.0162886
717.040	0.0163301
717.118	0.0164429
717.196	0.0163381
717.274	0.0162709
717.352	0.0162184
717.431	0.0164342
717.509	0.0163438
717.587	0.0162766
717.665	0.0165325
717.743	0.0166545
717.821	0.0165370
717.899	0.0164564
717.977	0.0165421
718.056	0.0166142
718.134	0.0164960
718.212	0.0165639
718.290	0.0165522
718.368	0.0166064
718.446	0.0166203
718.524	0.0166149
718.602	0.0166556
718.681	0.0167075
718.759	0.0165815
718.837	0.0165388
718.915	0.0166702
718.993	0.0165304
719.071	0.0165100
719.149	0.0165079
719.227	0.0165132
719.306	0.0165292
719.384	0.0164790
719.462	0.0164550
719.540	0.0163752
719.618	0.0163293
719.696	0.0164329
719.774	0.0163626
719.852	0.0163754
719.931	0.0163973
720.009	0.0162003
720.087	0.0163733
720.165	0.0161141
720.243	0.0162302
720.321	0.0162204
720.399	0.0160921
720.477	0.0162641
720.556	0.0161806
720.634	0.0160415
720.712	0.0162391
720.790	0.0162546
720.868	0.0161407
720.946	0.0162154
721.024	0.0162737
721.102	0.0162601
721.181	0.0162308
721.259	0.0163046
721.337	0.0162457
721.415	0.0162775
721.493	0.0163497
721.571	0.0164485
721.649	0.0162073
721.727	0.0163125
721.806	0.0164400
721.884	0.0164409
721.962	0.0163664
722.040	0.0164769
722.118	0.0164091
722.196	0.0164905
722.274	0.0165326
722.352	0.0164024
722.431	0.0164384
722.509	0.0165347
722.587	0.0165054
722.665	0.0164175
722.743	0.0164746
722.821	0.0164784
722.899	0.0164400
722.977	0.0164434
723.056	0.0165006
723.134	0.0164045
723.212	0.0162889
723.290	0.0163770
723.368	0.0163058
723.446	0.0163064
723.524	0.0163197
723.602	0.0162868
723.681	0.0162317
723.759	0.0162913
723.837	0.0162370
723.915	0.0162663
723.993	0.0164206
724.071	0.0160973
724.149	0.0162158
724.227	0.0161845
724.306	0.0162206
724.384	0.0162633
724.462	0.0163952
724.540	0.0162526
724.618	0.0162556
724.696	0.0162762
724.774	0.0162952
724.852	0.0162111
724.931	0.0164301
725.009	0.0163918
725.087	0.0162535
725.165	0.0165587
725.243	0.0165266
725.321	0.0165977
725.399	0.0165636
725.477	0.0164456
725.556	0.0164721
725.634	0.0165263
725.712	0.0165672
725.790	0.0166574
725.868	0.0164822
725.946	0.0165339
726.024	0.0165848
726.102	0.0166103
726.181	0.0165102
726.259	0.0165842
726.337	0.0166856
726.415	0.0166168
726.493	0.0166225
726.571	0.0166250
726.649	0.0164845
726.727	0.0166790
726.806	0.0166566
726.884	0.0167191
726.962	0.0165585
727.040	0.0165771
727.118	0.0165614
727.196	0.0163432
727.274	0.0165125
727.352	0.0164312
727.431	0.0164879
727.509	0.0164915
727.587	0.0164185
727.665	0.0163972
727.743	0.0164352
727.821	0.0162390
727.899	0.0163268
727.977	0.0163653
728.056	0.0164338
728.134	0.0164388
728.212	0.0165014
728.290	0.0164365
728.368	0.0162739
728.446	0.0162686
728.524	0.0163477
728.602	0.0162067
728.681	0.0164728
728.759	0.0164007
728.837	0.0163486
728.915	0.0162836
728.993	0.0162684
729.071	0.0163854
729.149	0.0162925
729.227	0.0162867
729.306	0.0163003
729.384	0.0163885
729.462	0.0164574
729.540	0.0163200
729.618	0.0163867
729.696	0.0162076
729.774	0.0163734
729.852	0.0163066
729.931	0.0162572
730.009	0.0161562
730.087	0.0162674
730.165	0.0163787
730.243	0.0162266
730.321	0.0161082
730.399	0.0164130
730.477	0.0161968
730.556	0.0163341
730.634	0.0163839
730.712	0.0162965
730.790	0.0161285
730.868	0.0161884
730.946	0.0161634
731.024	0.0162089
731.102	0.0163107
731.181	0.0162364
731.259	0.0162823
731.337	0.0161594
731.415	0.0163110
731.493	0.0162239
731.571	0.0162942
731.649	0.0163193
731.727	0.0163122
731.806	0.0162967
731.884	0.0163534
731.962	0.0162794
732.040	0.0163196
732.118	0.0163412
732.196	0.0165388
732.274	0.0163806
732.352	0.0164270
732.431	0.0165068
732.509	0.0163844
732.587	0.0164557
732.665	0.0164409
732.743	0.0164326
732.821	0.0164778
732.899	0.0163966
732.977	0.0165266
733.056	0.0162704
733.134	0.0163223
733.212	0.0164315
733.290	0.0163560
733.368	0.0164158
733.446	0.0163322
733.524	0.0163528
733.602	0.0164236
733.681	0.0162118
733.759	0.0163496
733.837	0.0163340
733.915	0.0161852
733.993	0.0161533
734.071	0.0162796
734.149	0.0161320
734.227	0.0160991
734.306	0.0161662
734.384	0.0162246
734.462	0.0163536
734.540	0.0161454
734.618	0.0161958
734.696	0.0163685
734.774	0.0161652
734.852	0.0163021
734.931	0.0163245
735.009	0.0163549
735.087	0.0162943
735.165	0.0163881
735.243	0.0163563
735.321	0.0163138
735.399	0.0164212
735.477	0.0163493
735.556	0.0164182
735.634	0.0164117
735.712	0.0165327
735.790	0.0164730
735.868	0.0164528
735.946	0.0163802
736.024	0.0164171
736.102	0.0164597
736.181	0.0165099
736.259	0.0166271
736.337	0.0164610
736.415	0.0164767
736.493	0.0165405
736.571	0.0164683
736.649	0.0165885
736.727	0.0166998
736.806	0.0164941
736.884	0.0165442
736.962	0.0166115
737.040	0.0165829
737.118	0.0166358
737.196	0.0165294
737.274	0.0165169
737.352	0.0165345
737.431	0.0164751
737.509	0.0164769
737.587	0.0165335
737.665	0.0165854
737.743	0.0165833
737.821	0.0164996
737.899	0.0164410
737.977	0.0165541
738.056	0.0165716
738.134	0.0165342
738.212	0.0163381
738.290	0.0164177
738.368	0.0163979
738.446	0.0164201
738.524	0.0164660
738.602	0.0164211
738.681	0.0164010
738.759	0.0163509
738.837	0.0164062
738.915	0.0163141
738.993	0.0163180
739.071	0.0163501
739.149	0.0164159
739.227	0.0162915
739.306	0.0161336
739.384	0.0163244
739.462	0.0164151
739.540	0.0163441
739.618	0.0162805
739.696	0.0162471
739.774	0.0163985
739.852	0.0164781
739.931	0.0162258
740.009	0.0162395
740.087	0.0163094
740.165	0.0164066
740.243	0.0163773
740.321	0.0163414
740.399	0.0163621
740.477	0.0162969
740.556	0.0164001
740.634	0.0163311
740.712	0.0163580
740.790	0.0166033
740.868	0.0164822
740.946	0.0163711
741.024	0.0164362
741.102	0.0163360
741.181	0.0164001
741.259	0.0163571
741.337	0.0162976
741.415	0.0164212
741.493	0.0164094
741.571	0.0162728
741.649	0.0162822
741.727	0.0163730
741.806	0.0163155
741.884	0.0164281
741.962	0.0163692
742.040	0.0162159
742.118	0.0162913
742.196	0.0162487
742.274	0.0163123
742.352	0.0161391
742.431	0.0161670
742.509	0.0162424
742.587	0.0162509
742.665	0.0161423
742.743	0.0161700
742.821	0.0160977
742.899	0.0160947
742.977	0.0163405
743.056	0.0161848
743.134	0.0163911
743.212	0.0161234
743.290	0.0162052
743.368	0.0162347
743.446	0.0162030
743.524	0.0164037
743.602	0.0163293
743.681	0.0162540
743.759	0.0162267
743.837	0.0164084
743.915	0.0163496
743.993	0.0163624
744.071	0.0164017
744.149	0.0163277
744.227	0.0162785
744.306	0.0163482
744.384	0.0162712
744.462	0.0163251
744.540	0.0163385
744.618	0.0164188
744.696	0.0164914
744.774	0.0163577
744.852	0.0163468
744.931	0.0164704
745.009	0.0163155
745.087	0.0164444
745.165	0.0163120
745.243	0.0164553
745.321	0.0164720
745.399	0.0164167
745.477	0.0164852
745.556	0.0165233
745.634	0.0162881
745.712	0.0164604
745.790	0.0164077
745.868	0.0165168
745.946	0.0163773
746.024	0.0164323
746.102	0.0163728
746.181	0.0164566
746.259	0.0164636
746.337	0.0165041
746.415	0.0163268
746.493	0.0163976
746.571	0.0163063
746.649	0.0164451
746.727	0.0163311
746.806	0.0164174
746.884	0.0164130
746.962	0.0165008
747.040	0.0164497
747.118	0.0164178
747.196	0.0163271
747.274	0.0164839
747.352	0.0165007
747.431	0.0163614
747.509	0.0164575
747.587	0.0163460
747.665	0.0164904
747.743	0.0164182
747.821	0.0162807
747.899	0.0164348
747.977	0.0164404
748.056	0.0164336
748.134	0.0163293
748.212	0.0163685
748.290	0.0163396
748.368	0.0162000
748.446	0.0162268
748.524	0.0164424
748.602	0.0164325
748.681	0.0163018
748.759	0.0163709
748.837	0.0163496
748.915	0.0163213
748.993	0.0163437
749.071	0.0162859
749.149	0.0163930
749.227	0.0163642
749.306	0.0163020
749.384	0.0162942
749.462	0.0164360
749.540	0.0163309
749.618	0.0163186
749.696	0.0163028
749.774	0.0165065
749.852	0.0163209
749.931	0.0164523
750.009	0.0164552
750.087	0.0164616
750.165	0.0164318
750.243	0.0164352
750.321	0.0163943
750.399	0.0164088
750.477	0.0165337
750.556	0.0162842
750.634	0.0163785
750.712	0.0163986
750.790	0.0163490
750.868	0.0163551
750.946	0.0163690
751.024	0.0163557
751.102	0.0163751
751.181	0.0163111
751.259	0.0163057
751.337	0.0164825
751.415	0.0164816
751.493	0.0163728
751.571	0.0164791
751.649	0.0164011
751.727	0.0164013
751.806	0.0163615
751.884	0.0165387
751.962	0.0163715
752.040	0.0164286
752.118	0.0165695
752.196	0.0165025
752.274	0.0164710
752.352	0.0163791
752.431	0.0165437
752.509	0.0165794
752.587	0.0165189
752.665	0.0165108
752.743	0.0164023
752.821	0.0164738
752.899	0.0164895
752.977	0.0164866
753.056	0.0164864
753.134	0.0165079
753.212	0.0164306
753.290	0.0163773
753.368	0.0165533
753.446	0.0163698
753.524	0.0164120
753.602	0.0163702
753.681	0.0164886
753.759	0.0163913
753.837	0.0164631
753.915	0.0163689
753.993	0.0165529
754.071	0.0165179
754.149	0.0164645
754.227	0.0164481
754.306	0.0163934
754.384	0.0163979
754.462	0.0164413
754.540	0.0163715
754.618	0.0163985
754.696	0.0163940
754.774	0.0163971
754.852	0.0163363
754.931	0.0163889
755.009	0.0163007
755.087	0.0162934
755.165	0.0163718
755.243	0.0163646
755.321	0.0162733
755.399	0.0163914
755.477	0.0165194
755.556	0.0164300
755.634	0.0163002
755.712	0.0164378
755.790	0.0163148
755.868	0.0163342
755.946	0.0165280
756.024	0.0165352
756.102	0.0164140
756.181	0.0163528
756.259	0.0164461
756.337	0.0164276
756.415	0.0164368
756.493	0.0164885
756.571	0.0165714
756.649	0.0164059
756.727	0.0166090
756.806	0.0165075
756.884	0.0164619
756.962	0.0165392
757.040	0.0165044
757.118	0.0163792
757.196	0.0166241
757.274	0.0165059
757.352	0.0163547
757.431	0.0164789
757.509	0.0165183
757.587	0.0164594
757.665	0.0164446
757.743	0.0164044
757.821	0.0165355
757.899	0.0164365
757.977	0.0164825
758.056	0.0164680
758.134	0.0164798
758.212	0.0163168
758.290	0.0163419
758.368	0.0164114
758.446	0.0163523
758.524	0.0163974
758.602	0.0163770
758.681	0.0163832
758.759	0.0163348
758.837	0.0163123
758.915	0.0162282
758.993	0.0162728
759.071	0.0163477
759.149	0.0162455
759.227	0.0162914
759.306	0.0161403
759.384	0.0161919
759.462	0.0162872
759.540	0.0162094
759.618	0.0161522
759.696	0.0162070
759.774	0.0161680
759.852	0.0160500
759.931	0.0162289
760.009	0.0163206
760.087	0.0162800
760.165	0.0161372
760.243	0.0162563
760.321	0.0162838
760.399	0.0163190
760.477	0.0163026
760.556	0.0161883
760.634	0.0163651
760.712	0.0162436
760.790	0.0162477
760.868	0.0162543
760.946	0.0162924
761.024	0.0162728
761.102	0.0160852
761.181	0.0162146
761.259	0.0163451
761.337	0.0163504
761.415	0.0163523
761.493	0.0162044
761.571	0.0162655
761.649	0.0163767
761.727	0.0164725
761.806	0.0165292
761.884	0.0163985
761.962	0.0163362
762.040	0.0163897
762.118	0.0163767
762.196	0.0164738
762.274	0.0163002
762.352	0.0164394
762.431	0.0163135
762.509	0.0164652
762.587	0.0164836
762.665	0.0164301
762.743	0.0163879
762.821	0.0164315
762.899	0.0163079
762.977	0.0161777
763.056	0.0163787
763.134	0.0163570
763.212	0.0163770
763.290	0.0161981
763.368	0.0163712
763.446	0.0162743
763.524	0.0163648
763.602	0.0162043
763.681	0.0161415
763.759	0.0163235
763.837	0.0162241
763.915	0.0161759
763.993	0.0161990
764.071	0.0161958
764.149	0.0161366
764.227	0.0162256
764.306	0.0161690
764.384	0.0161838
764.462	0.0162228
764.540	0.0162228
764.618	0.0162269
764.696	0.0162211
764.774	0.0161765
764.852	0.0163342
764.931	0.0162348
765.009	0.0162632
765.087	0.0162981
765.165	0.0161571
765.243	0.0161654
765.321	0.0162116
765.399	0.0162495
765.477	0.0162277
765.556	0.0162601
765.634	0.0163696
765.712	0.0163024
765.790	0.0163651
765.868	0.0163450
765.946	0.0162920
766.024	0.0163124
766.102	0.0164053
766.181	0.0163290
766.259	0.0163309
766.337	0.0163265
766.415	0.0165673
766.493	0.0166209
766.571	0.0163345
766.649	0.0165102
766.727	0.0164877
766.806	0.0165775
766.884	0.0164468
766.962	0.0164603
767.040	0.0164527
767.118	0.0164269
767.196	0.0164044
767.274	0.0165656
767.352	0.0164655
767.431	0.0163291
767.509	0.0164700
767.587	0.0164664
767.665	0.0164407
767.743	0.0164890
767.821	0.0165276
767.899	0.0165260
767.977	0.0166228
768.056	0.0164497
768.134	0.0167106
768.212	0.0165524
768.290	0.0166148
768.368	0.0165504
768.446	0.0165380
768.524	0.0165889
768.602	0.0164217
768.681	0.0165411
768.759	0.0165491
768.837	0.0165941
768.915	0.0165350
768.993	0.0164689
769.071	0.0165617
769.149	0.0164526
769.227	0.0165613
769.306	0.0166134
769.384	0.0164906
769.462	0.0163060
769.540	0.0164391
769.618	0.0165739
769.696	0.0163976
769.774	0.0166035
769.852	0.0165968
769.931	0.0163978
770.009	0.0163383
770.087	0.0164360
770.165	0.0165392
770.243	0.0165562
770.321	0.0165034
770.399	0.0165240
770.477	0.0164668
770.556	0.0165022
770.634	0.0164522
770.712	0.0164870
770.790	0.0164934
770.868	0.0164816
770.946	0.0162571
771.024	0.0165792
771.102	0.0164892
771.181	0.0165279
771.259	0.0164664
771.337	0.0164411
771.415	0.0162846
771.493	0.0164546
771.571	0.0164852
771.649	0.0163746
771.727	0.0164153
771.806	0.0163866
771.884	0.0164819
771.962	0.0164104
772.040	0.0163688
772.118	0.0164273
772.196	0.0163963
772.274	0.0163867
772.352	0.0164566
772.431	0.0166016
772.509	0.0164931
772.587	0.0163673
772.665	0.0163654
772.743	0.0164068
772.821	0.0165011
772.899	0.0163882
772.977	0.0164668
773.056	0.0165272
773.134	0.0165054
773.212	0.0164019
773.290	0.0163675
773.368	0.0164353
773.446	0.0163223
773.524	0.0165372
773.602	0.0165108
773.681	0.0165205
773.759	0.0162808
773.837	0.0162595
773.915	0.0163297
773.993	0.0164085
774.071	0.0164153
774.149	0.0163221
774.227	0.0162638
774.306	0.0163230
774.384	0.0163326
774.462	0.0162740
774.540	0.0160945
774.618	0.0161766
774.696	0.0162856
774.774	0.0163150
774.852	0.0162313
774.931	0.0161847
775.009	0.0160133
775.087	0.0161916
775.165	0.0161349
775.243	0.0160159
775.321	0.0162777
775.399	0.0162894
775.477	0.0160294
775.556	0.0161942
775.634	0.0162424
775.712	0.0162254
775.790	0.0162386
775.868	0.0161420
775.946	0.0162947
776.024	0.0162414
776.102	0.0161994
776.181	0.0162094
776.259	0.0162191
776.337	0.0163243
776.415	0.0162526
776.493	0.0162553
776.571	0.0163348
776.649	0.0163140
776.727	0.0164314
776.806	0.0163307
776.884	0.0164488
776.962	0.0165518
777.040	0.0163448
777.118	0.0164089
777.196	0.0163777
777.274	0.0164445
777.352	0.0165726
777.431	0.0164838
777.509	0.0163314
777.587	0.0166051
777.665	0.0165090
777.743	0.0165727
777.821	0.0165639
777.899	0.0165417
777.977	0.0165303
778.056	0.0165810
778.134	0.0165825
778.212	0.0165266
778.290	0.0166116
778.368	0.0164692
778.446	0.0166271
778.524	0.0165542
778.602	0.0166195
778.681	0.0165904
778.759	0.0167764
778.837	0.0166680
778.915	0.0166332
778.993	0.0165225
779.071	0.0165977
779.149	0.0166655
779.227	0.0166539
779.306	0.0166631
779.384	0.0164593
779.462	0.0165873
779.540	0.0164655
779.618	0.0164341
779.696	0.0165723
779.774	0.0163613
779.852	0.0164925
779.931	0.0164130
780.009	0.0164659
780.087	0.0162596
780.165	0.0163182
780.243	0.0164851
780.321	0.0163682
780.399	0.0164257
780.477	0.0165268
780.556	0.0163989
780.634	0.0164600
780.712	0.0164773
780.790	0.0164358
780.868	0.0164600
780.946	0.0163550
781.024	0.0162095
781.102	0.0163650
781.181	0.0164887
781.259	0.0163224
781.337	0.0164116
781.415	0.0165352
781.493	0.0165939
781.571	0.0164422
781.649	0.0162769
781.727	0.0164483
781.806	0.0164470
781.884	0.0165781
781.962	0.0162698
782.040	0.0164320
782.118	0.0164385
782.196	0.0165291
782.274	0.0165222
782.352	0.0164662
782.431	0.0165173
782.509	0.0165490
782.587	0.0165970
782.665	0.0164055
782.743	0.0165342
782.821	0.0165315
782.899	0.0164722
782.977	0.0165807
783.056	0.0165232
783.134	0.0165118
783.212	0.0165503
783.290	0.0163979
783.368	0.0164725
783.446	0.0164706
783.524	0.0164615
783.602	0.0163961
783.681	0.0164066
783.759	0.0164233
783.837	0.0163531
783.915	0.0163954
783.993	0.0163853
784.071	0.0163710
784.149	0.0163652
784.227	0.0163493
784.306	0.0163326
784.384	0.0164146
784.462	0.0163268
784.540	0.0163555
784.618	0.0164188
784.696	0.0162316
784.774	0.0162645
784.852	0.0162304
784.931	0.0162650
785.009	0.0162500
785.087	0.0162224
785.165	0.0161509
785.243	0.0161876
785.321	0.0163601
785.399	0.0161586
785.477	0.0162877
785.556	0.0162497
785.634	0.0162209
785.712	0.0162554
785.790	0.0162684
785.868	0.0162762
785.946	0.0163387
786.024	0.0163897
786.102	0.0162926
786.181	0.0163716
786.259	0.0163631
786.337	0.0163648
786.415	0.0162369
786.493	0.0163528
786.571	0.0163666
786.649	0.0165163
786.727	0.0165005
786.806	0.0163308
786.884	0.0165221
786.962	0.0163985
787.040	0.0163927
787.118	0.0165179
787.196	0.0163635
787.274	0.0164577
787.352	0.0166225
787.431	0.0165588
787.509	0.0166781
787.587	0.0165191
787.665	0.0166044
787.743	0.0165471
787.821	0.0165955
787.899	0.0165230
787.977	0.0166158
788.056	0.0165672
788.134	0.0166171
788.212	0.0165666
788.290	0.0165752
788.368	0.0165900
788.446	0.0165269
788.524	0.0163429
788.602	0.0163683
788.681	0.0164991
788.759	0.0164205
788.837	0.0164044
788.915	0.0163872
788.993	0.0164017
789.071	0.0162802
789.149	0.0163816
789.227	0.0164462
789.306	0.0163417
789.384	0.0164160
789.462	0.0164272
789.540	0.0162978
789.618	0.0163410
789.696	0.0164076
789.774	0.0164948
789.852	0.0164599
789.931	0.0163969
790.009	0.0165486
790.087	0.0166354
790.165	0.0165848
790.243	0.0166090
790.321	0.0163715
790.399	0.0165216
790.477	0.0164894
790.556	0.0165796
790.634	0.0165472
790.712	0.0164747
790.790	0.0165431
790.868	0.0165483
790.946	0.0166053
791.024	0.0164392
791.102	0.0166129
791.181	0.0165096
791.259	0.0166544
791.337	0.0166099
791.415	0.0165586
791.493	0.0165648
791.571	0.0165669
791.649	0.0166148
791.727	0.0165550
791.806	0.0163790
791.884	0.0165346
791.962	0.0166186
792.040	0.0163487
792.118	0.0165543
792.196	0.0165076
792.274	0.0164164
792.352	0.0164256
792.431	0.0164275
792.509	0.0163284
792.587	0.0163968
792.665	0.0163529
792.743	0.0163670
792.821	0.0164562
792.899	0.0162955
792.977	0.0164154
793.056	0.0162856
793.134	0.0162100
793.212	0.0162486
793.290	0.0162035
793.368	0.0161955
793.446	0.0162135
793.524	0.0162235
793.602	0.0161108
793.681	0.0162097
793.759	0.0162882
793.837	0.0161066
793.915	0.0161279
793.993	0.0161120
794.071	0.0161243
794.149	0.0161397
794.227	0.0159452
794.306	0.0160963
794.384	0.0161140
794.462	0.0161064
794.540	0.0160946
794.618	0.0162191
794.696	0.0163144
794.774	0.0162450
794.852	0.0162708
794.931	0.0162326
795.009	0.0161558
795.087	0.0163431
795.165	0.0162578
795.243	0.0163988
795.321	0.0162683
795.399	0.0163153
795.477	0.0162960
795.556	0.0163664
795.634	0.0163724
795.712	0.0163487
795.790	0.0163927
795.868	0.0164713
795.946	0.0164600
796.024	0.0164503
796.102	0.0163907
796.181	0.0164886
796.259	0.0164150
796.337	0.0165919
796.415	0.0165508
796.493	0.0166126
796.571	0.0164921
796.649	0.0166422
796.727	0.0166616
796.806	0.0166843
796.884	0.0166109
796.962	0.0166353
797.040	0.0167355
797.118	0.0165537
797.196	0.0166500
797.274	0.0166830
797.352	0.0166435
797.431	0.0165941
797.509	0.0166664
797.587	0.0167624
797.665	0.0166944
797.743	0.0165631
797.821	0.0165638
797.899	0.0165134
797.977	0.0165730
798.056	0.0165723
798.134	0.0166505
798.212	0.0165725
798.290	0.0167545
798.368	0.0166046
798.446	0.0164818
798.524	0.0164550
798.602	0.0166359
798.681	0.0165625
798.759	0.0164820
798.837	0.0164541
798.915	0.0164954
798.993	0.0165137
799.071	0.0165544
799.149	0.0166025
799.227	0.0164255
799.306	0.0164227
799.384	0.0163896
799.462	0.0164756
799.540	0.0163731
799.618	0.0164503
799.696	0.0164626
799.774	0.0164337
799.852	0.0163958
799.931	0.0162568
800.009	0.0163557
800.087	0.0163495
800.165	0.0163080
800.243	0.0162469
800.321	0.0162086
800.399	0.0163447
800.477	0.0163880
800.556	0.0163892
800.634	0.0162698
800.712	0.0163117
800.790	0.0162452
800.868	0.0161813
800.946	0.0162794
801.024	0.0163039
801.102	0.0163393
801.181	0.0163336
801.259	0.0163292
801.337	0.0164117
801.415	0.0161775
801.493	0.0164915
801.571	0.0164794
801.649	0.0162753
801.727	0.0162762
801.806	0.0164604
801.884	0.0163087
801.962	0.0164102
802.040	0.0162848
802.118	0.0165316
802.196	0.0162730
802.274	0.0162244
802.352	0.0163386
802.431	0.0163776
802.509	0.0164931
802.587	0.0163601
802.665	0.0163509
802.743	0.0165289
802.821	0.0165241
802.899	0.0165694
802.977	0.0163480
803.056	0.0164336
803.134	0.0165049
803.212	0.0164912
803.290	0.0166097
803.368	0.0166033
803.446	0.0163673
803.524	0.0165997
803.602	0.0165194
803.681	0.0165099
803.759	0.0166148
803.837	0.0165272
803.915	0.0163841
803.993	0.0163126
804.071	0.0163926
804.149	0.0164675
804.227	0.0164221
804.306	0.0162842
804.384	0.0163586
804.462	0.0162994
804.540	0.0162739
804.618	0.0164257
804.696	0.0162733
804.774	0.0162667
804.852	0.0162695
804.931	0.0162483
805.009	0.0163466
805.087	0.0161683
805.165	0.0162369
805.243	0.0161838
805.321	0.0163017
805.399	0.0162993
805.477	0.0162762
805.556	0.0162265
805.634	0.0162628
805.712	0.0162106
805.790	0.0162239
805.868	0.0163267
805.946	0.0162805
806.024	0.0162891
806.102	0.0162602
806.181	0.0161780
806.259	0.0162405
806.337	0.0163153
806.415	0.0163670
806.493	0.0163800
806.571	0.0161490
806.649	0.0163821
806.727	0.0164075
806.806	0.0163448
806.884	0.0162698
806.962	0.0164931
807.040	0.0163554
807.118	0.0164339
807.196	0.0164525
807.274	0.0163708
807.352	0.0163917
807.431	0.0162428
807.509	0.0165014
807.587	0.0165203
807.665	0.0164600
807.743	0.0165054
807.821	0.0163992
807.899	0.0164229
807.977	0.0164666
808.056	0.0166034
808.134	0.0164659
808.212	0.0165148
808.290	0.0163570
808.368	0.0163857
808.446	0.0164089
808.524	0.0163946
808.602	0.0163850
808.681	0.0162991
808.759	0.0163878
808.837	0.0164002
808.915	0.0163716
808.993	0.0163030
809.071	0.0163273
809.149	0.0163630
809.227	0.0162693
809.306	0.0163246
809.384	0.0163945
809.462	0.0162601
809.540	0.0163441
809.618	0.0163964
809.696	0.0164017
809.774	0.0162156
809.852	0.0163684
809.931	0.0163985
810.009	0.0161985
810.087	0.0163143
810.165	0.0164286
810.243	0.0162575
810.321	0.0163781
810.399	0.0163450
810.477	0.0164151
810.556	0.0164148
810.634	0.0162935
810.712	0.0163197
810.790	0.0164168
810.868	0.0165166
810.946	0.0164499
811.024	0.0165257
811.102	0.0163975
811.181	0.0165027
811.259	0.0166006
811.337	0.0165814
811.415	0.0165379
811.493	0.0165145
811.571	0.0164360
811.649	0.0164838
811.727	0.0165078
811.806	0.0165306
811.884	0.0164835
811.962	0.0165228
812.040	0.0164798
812.118	0.0164491
812.196	0.0165163
812.274	0.0165862
812.352	0.0165062
812.431	0.0164355
812.509	0.0164667
812.587	0.0164552
812.665	0.0165581
812.743	0.0166813
812.821	0.0164274
812.899	0.0164023
812.977	0.0164693
813.056	0.0164315
813.134	0.0164977
813.212	0.0164486
813.290	0.0166245
813.368	0.0165163
813.446	0.0163911
813.524	0.0165189
813.602	0.0164610
813.681	0.0164379
813.759	0.0164188
813.837	0.0165292
813.915	0.0165511
813.993	0.0163492
814.071	0.0164636
814.149	0.0165621
814.227	0.0164373
814.306	0.0163848
814.384	0.0165018
814.462	0.0163939
814.540	0.0164233
814.618	0.0164223
814.696	0.0165980
814.774	0.0165706
814.852	0.0163815
814.931	0.0164272
815.009	0.0163274
815.087	0.0164803
815.165	0.0165287
815.243	0.0165649
815.321	0.0164639
815.399	0.0164528
815.477	0.0163755
815.556	0.0163331
815.634	0.0164316
815.712	0.0166148
815.790	0.0165195
815.868	0.0164157
815.946	0.0163909
816.024	0.0164558
816.102	0.0165527
816.181	0.0164259
816.259	0.0164248
816.337	0.0165316
816.415	0.0164822
816.493	0.0165041
816.571	0.0166309
816.649	0.0164102
816.727	0.0163525
816.806	0.0163806
816.884	0.0165618
816.962	0.0165607
817.040	0.0162774
817.118	0.0161998
817.196	0.0163910
817.274	0.0163065
817.352	0.0164114
817.431	0.0163488
817.509	0.0163186
817.587	0.0163170
817.665	0.0161929
817.743	0.0163136
817.821	0.0162054
817.899	0.0163027
817.977	0.0161520
818.056	0.0162315
818.134	0.0162149
818.212	0.0162297
818.290	0.0162492
818.368	0.0161910
818.446	0.0161999
818.524	0.0161124
818.602	0.0162572
818.681	0.0161836
818.759	0.0161890
818.837	0.0161411
818.915	0.0162962
818.993	0.0163553
819.071	0.0162460
819.149	0.0162314
819.227	0.0163614
819.306	0.0161539
819.384	0.0162144
819.462	0.0164285
819.540	0.0162873
819.618	0.0163232
819.696	0.0162707
819.774	0.0163267
819.852	0.0164088
819.931	0.0164349
820.009	0.0163380
820.087	0.0164787
820.165	0.0164210
820.243	0.0164557
820.321	0.0164421
820.399	0.0164458
820.477	0.0162980
820.556	0.0165599
820.634	0.0164981
820.712	0.0164290
820.790	0.0165305
820.868	0.0164157
820.946	0.0163708
821.024	0.0162603
821.102	0.0162979
821.181	0.0163631
821.259	0.0163782
821.337	0.0164405
821.415	0.0162267
821.493	0.0164423
821.571	0.0163555
821.649	0.0163647
821.727	0.0165003
821.806	0.0163722
821.884	0.0164769
821.962	0.0163457
822.040	0.0163854
822.118	0.0163078
822.196	0.0164099
822.274	0.0164257
822.352	0.0163716
822.431	0.0164724
822.509	0.0162679
822.587	0.0164100
822.665	0.0163318
822.743	0.0163181
822.821	0.0164511
822.899	0.0164488
822.977	0.0164552
823.056	0.0164301
823.134	0.0164111
823.212	0.0162925
823.290	0.0163071
823.368	0.0164171
823.446	0.0163570
823.524	0.0164717
823.602	0.0165234
823.681	0.0164852
823.759	0.0164098
823.837	0.0162321
823.915	0.0163231
823.993	0.0163513
824.071	0.0163640
824.149	0.0163899
824.227	0.0163756
824.306	0.0162566
824.384	0.0162605
824.462	0.0164500
824.540	0.0163556
824.618	0.0162993
824.696	0.0164625
824.774	0.0164057
824.852	0.0164693
824.931	0.0163636
825.009	0.0164873
825.087	0.0164326
825.165	0.0164885
825.243	0.0164140
825.321	0.0165708
825.399	0.0165349
825.477	0.0164458
825.556	0.0165194
825.634	0.0165170
825.712	0.0164330
825.790	0.0165301
825.868	0.0165524
825.946	0.0166254
826.024	0.0165897
826.102	0.0164571
826.181	0.0164902
826.259	0.0164489
826.337	0.0164542
826.415	0.0163567
826.493	0.0165342
826.571	0.0164440
826.649	0.0164188
826.727	0.0163937
826.806	0.0165424
826.884	0.0164999
826.962	0.0164614
827.040	0.0163605
827.118	0.0163763
827.196	0.0162853
827.274	0.0163511
827.352	0.0164410
827.431	0.0164291
827.509	0.0163447
827.587	0.0163653
827.665	0.0163631
827.743	0.0164102
827.821	0.0163705
827.899	0.0164404
827.977	0.0163585
828.056	0.0162552
828.134	0.0162647
828.212	0.0163016
828.290	0.0161315
828.368	0.0164861
828.446	0.0162819
828.524	0.0163239
828.602	0.0164104
828.681	0.0163789
828.759	0.0163335
828.837	0.0163094
828.915	0.0161856
828.993	0.0162750
829.071	0.0163061
829.149	0.0162498
829.227	0.0162934
829.306	0.0163054
829.384	0.0163239
829.462	0.0162983
829.540	0.0163421
829.618	0.0163220
829.696	0.0163284
829.774	0.0163694
829.852	0.0162890
829.931	0.0162849
830.009	0.0165305
830.087	0.0163687
830.165	0.0164101
830.243	0.0163964
830.321	0.0164181
830.399	0.0163982
830.477	0.0163847
830.556	0.0163763
830.634	0.0163084
830.712	0.0164861
830.790	0.0163757
830.868	0.0164098
830.946	0.0164478
831.024	0.0164902
831.102	0.0164070
831.181	0.0164635
831.259	0.0165217
831.337	0.0164381
831.415	0.0163842
831.493	0.0165276
831.571	0.0164868
831.649	0.0164331
831.727	0.0164692
831.806	0.0164382
831.884	0.0164788
831.962	0.0162930
832.040	0.0163608
832.118	0.0164560
832.196	0.0163482
832.274	0.0164796
832.352	0.0163264
832.431	0.0163528
832.509	0.0164802
832.587	0.0163361
832.665	0.0164041
832.743	0.0164732
832.821	0.0165288
832.899	0.0164197
832.977	0.0163931
833.056	0.0162740
833.134	0.0163850
833.212	0.0163682
833.290	0.0163830
833.368	0.0162833
833.446	0.0163097
833.524	0.0162509
833.602	0.0162881
833.681	0.0163681
833.759	0.0163070
833.837	0.0163360
833.915	0.0163573
833.993	0.0163947
834.071	0.0162467
834.149	0.0162211
834.227	0.0164355
834.306	0.0164268
834.384	0.0165237
834.462	0.0163278
834.540	0.0163203
834.618	0.0164448
834.696	0.0163063
834.774	0.0163580
834.852	0.0163932
834.931	0.0164690
835.009	0.0163358
835.087	0.0164092
835.165	0.0164089
835.243	0.0163921
835.321	0.0164277
835.399	0.0164511
835.477	0.0164456
835.556	0.0163528
835.634	0.0164871
835.712	0.0164034
835.790	0.0164630
835.868	0.0165326
835.946	0.0164680
836.024	0.0164310
836.102	0.0164265
836.181	0.0164608
836.259	0.0165279
836.337	0.0164882
836.415	0.0165014
836.493	0.0164933
836.571	0.0166562
836.649	0.0164459
836.727	0.0163991
836.806	0.0163476
836.884	0.0164188
836.962	0.0165435
837.040	0.0164451
837.118	0.0164116
837.196	0.0164356
837.274	0.0165105
837.352	0.0164764
837.431	0.0165615
837.509	0.0164594
837.587	0.0164773
837.665	0.0164722
837.743	0.0164573
837.821	0.0164449
837.899	0.0164778
837.977	0.0164320
838.056	0.0164094
838.134	0.0164362
838.212	0.0164587
838.290	0.0164805
838.368	0.0165022
838.446	0.0164123
838.524	0.0163610
838.602	0.0165735
838.681	0.0164181
838.759	0.0164719
838.837	0.0163880
838.915	0.0163295
838.993	0.0164169
839.071	0.0163775
839.149	0.0164784
839.227	0.0164694
839.306	0.0164531
839.384	0.0164095
839.462	0.0165378
839.540	0.0165432
839.618	0.0164681
839.696	0.0163125
839.774	0.0163322
839.852	0.0163815
839.931	0.0163445
840.009	0.0162545
840.087	0.0163313
840.165	0.0162713
840.243	0.0163781
840.321	0.0165107
840.399	0.0164009
840.477	0.0164758
840.556	0.0162264
840.634	0.0163727
840.712	0.0162401
840.790	0.0162272
840.868	0.0162495
840.946	0.0162813
841.024	0.0163821
841.102	0.0162868
841.181	0.0163364
841.259	0.0164233
841.337	0.0162536
841.415	0.0160651
841.493	0.0164613
841.571	0.0162162
841.649	0.0161935
841.727	0.0162661
841.806	0.0162187
841.884	0.0163155
841.962	0.0164108
842.040	0.0164294
842.118	0.0161829
842.196	0.0163301
842.274	0.0164055
842.352	0.0163718
842.431	0.0163957
842.509	0.0163431
842.587	0.0165077
842.665	0.0163876
842.743	0.0161658
842.821	0.0163268
842.899	0.0166331
842.977	0.0164803
843.056	0.0164809
843.134	0.0164449
843.212	0.0164602
843.290	0.0164521
843.368	0.0163773
843.446	0.0165177
843.524	0.0165060
843.602	0.0163947
843.681	0.0163483
843.759	0.0165585
843.837	0.0165517
843.915	0.0164595
843.993	0.0164089
844.071	0.0166017
844.149	0.0165324
844.227	0.0164832
844.306	0.0165012
844.384	0.0164632
844.462	0.0165102
844.540	0.0165177
844.618	0.0165273
844.696	0.0164445
844.774	0.0165501
844.852	0.0165273
844.931	0.0164056
845.009	0.0164639
845.087	0.0164220
845.165	0.0164763
845.243	0.0164906
845.321	0.0165087
845.399	0.0165479
845.477	0.0164943
845.556	0.0164941
845.634	0.0165389
845.712	0.0164284
845.790	0.0163873
845.868	0.0164326
845.946	0.0164211
846.024	0.0163750
846.102	0.0163248
846.181	0.0165121
846.259	0.0163092
846.337	0.0161952
846.415	0.0162843
846.493	0.0162987
846.571	0.0162045
846.649	0.0163414
846.727	0.0164626
846.806	0.0163448
846.884	0.0162836
846.962	0.0162889
847.040	0.0164753
847.118	0.0163551
847.196	0.0163094
847.274	0.0165024
847.352	0.0165623
847.431	0.0162885
847.509	0.0163218
847.587	0.0162154
847.665	0.0164495
847.743	0.0164008
847.821	0.0163640
847.899	0.0163286
847.977	0.0164465
848.056	0.0163879
848.134	0.0165157
848.212	0.0164323
848.290	0.0163269
848.368	0.0163487
848.446	0.0163326
848.524	0.0162941
848.602	0.0165304
848.681	0.0164770
848.759	0.0163811
848.837	0.0162863
848.915	0.0164418
848.993	0.0163139
849.071	0.0164059
849.149	0.0163754
849.227	0.0162856
849.306	0.0163638
849.384	0.0165135
849.462	0.0162840
849.540	0.0163788
849.618	0.0164395
849.696	0.0163153
849.774	0.0164130
849.852	0.0164321
849.931	0.0163219
850.009	0.0165079
850.087	0.0164519
850.165	0.0164555
850.243	0.0164941
850.321	0.0164256
850.399	0.0164819
850.477	0.0164347
850.556	0.0165013
850.634	0.0165390
850.712	0.0163637
850.790	0.0165096
850.868	0.0164360
850.946	0.0165317
851.024	0.0164823
851.102	0.0165443
851.181	0.0164714
851.259	0.0164804
851.337	0.0165455
851.415	0.0165612
851.493	0.0165304
851.571	0.0165081
851.649	0.0164815
851.727	0.0164547
851.806	0.0164720
851.884	0.0165656
851.962	0.0165184
852.040	0.0164954
852.118	0.0163909
852.196	0.0165499
852.274	0.0164214
852.352	0.0164721
852.431	0.0163733
852.509	0.0164312
852.587	0.0164210
852.665	0.0164353
852.743	0.0164469
852.821	0.0164635
852.899	0.0165044
852.977	0.0163886
853.056	0.0163643
853.134	0.0163442
853.212	0.0163644
853.290	0.0164516
853.368	0.0163227
853.446	0.0162227
853.524	0.0163811
853.602	0.0163740
853.681	0.0163413
853.759	0.0164592
853.837	0.0163723
853.915	0.0163339
853.993	0.0164731
854.071	0.0163644
854.149	0.0164166
854.227	0.0164491
854.306	0.0164669
854.384	0.0163806
854.462	0.0164807
854.540	0.0165826
854.618	0.0164102
854.696	0.0162321
854.774	0.0164828
854.852	0.0164834
854.931	0.0165992
855.009	0.0164716
855.087	0.0163660
855.165	0.0164987
855.243	0.0164610
855.321	0.0165039
855.399	0.0163537
855.477	0.0165513
855.556	0.0164446
855.634	0.0163982
855.712	0.0164678
855.790	0.0163633
855.868	0.0164628
855.946	0.0163502
856.024	0.0164030
856.102	0.0164708
856.181	0.0163495
856.259	0.0165660
856.337	0.0164953
856.415	0.0164711
856.493	0.0165290
856.571	0.0164785
856.649	0.0163836
856.727	0.0164986
856.806	0.0164265
856.884	0.0163104
856.962	0.0164201
857.040	0.0165075
857.118	0.0163403
857.196	0.0162962
857.274	0.0164317
857.352	0.0165206
857.431	0.0163831
857.509	0.0163998
857.587	0.0165329
857.665	0.0163744
857.743	0.0164648
857.821	0.0165656
857.899	0.0165231
857.977	0.0165013
858.056	0.0164877
858.134	0.0165348
858.212	0.0164762
858.290	0.0164146
858.368	0.0165469
858.446	0.0165191
858.524	0.0165773
858.602	0.0164927
858.681	0.0164754
858.759	0.0163708
858.837	0.0165833
858.915	0.0165142
858.993	0.0164043
859.071	0.0163359
859.149	0.0163773
859.227	0.0164202
859.306	0.0162554
859.384	0.0163585
859.462	0.0162191
859.540	0.0162003
859.618	0.0164462
859.696	0.0162925
859.774	0.0163106
859.852	0.0163618
859.931	0.0162862
860.009	0.0161108
860.087	0.0163507
860.165	0.0162973
860.243	0.0162823
860.321	0.0162739
860.399	0.0161469
860.477	0.0163853
860.556	0.0164544
860.634	0.0164341
860.712	0.0163494
860.790	0.0162686
860.868	0.0164316
860.946	0.0163042
861.024	0.0163224
861.102	0.0163014
861.181	0.0165289
861.259	0.0162925
861.337	0.0164254
861.415	0.0165107
861.493	0.0163659
861.571	0.0164470
861.649	0.0164215
861.727	0.0164908
861.806	0.0164606
861.884	0.0163491
861.962	0.0164155
862.040	0.0164098
862.118	0.0164622
862.196	0.0164018
862.274	0.0164481
862.352	0.0165184
862.431	0.0164140
862.509	0.0164722
862.587	0.0163216
862.665	0.0164422
862.743	0.0165770
862.821	0.0165290
862.899	0.0164370
862.977	0.0164195
863.056	0.0163694
863.134	0.0164159
863.212	0.0164557
863.290	0.0163679
863.368	0.0164866
863.446	0.0163169
863.524	0.0164832
863.602	0.0164726
863.681	0.0163261
863.759	0.0163309
863.837	0.0163477
863.915	0.0164026
863.993	0.0165617
864.071	0.0163577
864.149	0.0164101
864.227	0.0164329
864.306	0.0163013
864.384	0.0162206
864.462	0.0163523
864.540	0.0163737
864.618	0.0163446
864.696	0.0162722
864.774	0.0164271
864.852	0.0163773
864.931	0.0162495
865.009	0.0164066
865.087	0.0163839
865.165	0.0162467
865.243	0.0163531
865.321	0.0163880
865.399	0.0163364
865.477	0.0163527
865.556	0.0163491
865.634	0.0163380
865.712	0.0164779
865.790	0.0163905
865.868	0.0162971
865.946	0.0164641
866.024	0.0165543
866.102	0.0164333
866.181	0.0163752
866.259	0.0163903
866.337	0.0164523
866.415	0.0164691
866.493	0.0164671
866.571	0.0164039
866.649	0.0164622
866.727	0.0164178
866.806	0.0163155
866.884	0.0163722
866.962	0.0164028
867.040	0.0164751
867.118	0.0163744
867.196	0.0164677
867.274	0.0164270
867.352	0.0162883
867.431	0.0164144
867.509	0.0163798
867.587	0.0165317
867.665	0.0163161
867.743	0.0164127
867.821	0.0164218
867.899	0.0164500
867.977	0.0164390
868.056	0.0165298
868.134	0.0164578
868.212	0.0163011
868.290	0.0164567
868.368	0.0165032
868.446	0.0163068
868.524	0.0164137
868.602	0.0163783
868.681	0.0164478
868.759	0.0163789
868.837	0.0164844
868.915	0.0165483
868.993	0.0164330
869.071	0.0163102
869.149	0.0165121
869.227	0.0164345
869.306	0.0163329
869.384	0.0163967
869.462	0.0163696
869.540	0.0164641
869.618	0.0164900
869.696	0.0163705
869.774	0.0162761
869.852	0.0163197
869.931	0.0164752
870.009	0.0163564
870.087	0.0164385
870.165	0.0164684
870.243	0.0164440
870.321	0.0164948
870.399	0.0163467
870.477	0.0165054
870.556	0.0164240
870.634	0.0164175
870.712	0.0165206
870.790	0.0165176
870.868	0.0163920
870.946	0.0163779
871.024	0.0164588
871.102	0.0163322
871.181	0.0164092
871.259	0.0164318
871.337	0.0163222
871.415	0.0163037
871.493	0.0162925
871.571	0.0163355
871.649	0.0163973
871.727	0.0163994
871.806	0.0164633
871.884	0.0164877
871.962	0.0164279
872.040	0.0164384
872.118	0.0163606
872.196	0.0163486
872.274	0.0163595
872.352	0.0163351
872.431	0.0164230
872.509	0.0164689
872.587	0.0164487
872.665	0.0163252
872.743	0.0166145
872.821	0.0164615
872.899	0.0162975
872.977	0.0163950
873.056	0.0165326
873.134	0.0164715
873.212	0.0163544
873.290	0.0165075
873.368	0.0165501
873.446	0.0164882
873.524	0.0164750
873.602	0.0163513
873.681	0.0164325
873.759	0.0165336
873.837	0.0165358
873.915	0.0164943
873.993	0.0164066
874.071	0.0164499
874.149	0.0163958
874.227	0.0165023
874.306	0.0164807
874.384	0.0165689
874.462	0.0164471
874.540	0.0164579
874.618	0.0164265
874.696	0.0163499
874.774	0.0163239
874.852	0.0164185
874.931	0.0165234
875.009	0.0163056
875.087	0.0162443
875.165	0.0163206
875.243	0.0164502
875.321	0.0164258
875.399	0.0163716
875.477	0.0162965
875.556	0.0163419
875.634	0.0163972
875.712	0.0162243
875.790	0.0163659
875.868	0.0164165
875.946	0.0162173
876.024	0.0165044
876.102	0.0164944
876.181	0.0164478
876.259	0.0164129
876.337	0.0162856
876.415	0.0164495
876.493	0.0163593
876.571	0.0163080
876.649	0.0164659
876.727	0.0163676
876.806	0.0163432
876.884	0.0164872
876.962	0.0164030
877.040	0.0163911
877.118	0.0162549
877.196	0.0162172
877.274	0.0162422
877.352	0.0164721
877.431	0.0163857
877.509	0.0163049
877.587	0.0163489
877.665	0.0164471
877.743	0.0162646
877.821	0.0163598
877.899	0.0163448
877.977	0.0162803
878.056	0.0162119
878.134	0.0162885
878.212	0.0162682
878.290	0.0162740
878.368	0.0163394
878.446	0.0164274
878.524	0.0162737
878.602	0.0162677
878.681	0.0165107
878.759	0.0164218
878.837	0.0163301
878.915	0.0165407
878.993	0.0164126
879.071	0.0164231
879.149	0.0164384
879.227	0.0164425
879.306	0.0163600
879.384	0.0164474
879.462	0.0163750
879.540	0.0165582
879.618	0.0164037
879.696	0.0164125
879.774	0.0164243
879.852	0.0163911
879.931	0.0165282
880.009	0.0164333
880.087	0.0164177
880.165	0.0165045
880.243	0.0164155
880.321	0.0164553
880.399	0.0164837
880.477	0.0164425
880.556	0.0163305
880.634	0.0164028
880.712	0.0164983
880.790	0.0164924
880.868	0.0165718
880.946	0.0165154
881.024	0.0162754
881.102	0.0162929
881.181	0.0163924
881.259	0.0163786
881.337	0.0163372
881.415	0.0163458
881.493	0.0163623
881.571	0.0163631
881.649	0.0163999
881.727	0.0163926
881.806	0.0164639
881.884	0.0163247
881.962	0.0163557
882.040	0.0164188
882.118	0.0163297
882.196	0.0163300
882.274	0.0163750
882.352	0.0164776
882.431	0.0165154
882.509	0.0164948
882.587	0.0164133
882.665	0.0165534
882.743	0.0164600
882.821	0.0165098
882.899	0.0165722
882.977	0.0165459
883.056	0.0165439
883.134	0.0164372
883.212	0.0165723
883.290	0.0165816
883.368	0.0164948
883.446	0.0165907
883.524	0.0165569
883.602	0.0164791
883.681	0.0165530
883.759	0.0165550
883.837	0.0164969
883.915	0.0165027
883.993	0.0164725
884.071	0.0165564
884.149	0.0165778
884.227	0.0166088
884.306	0.0163626
884.384	0.0163725
884.462	0.0164839
884.540	0.0162782
884.618	0.0164124
884.696	0.0166118
884.774	0.0164405
884.852	0.0163204
884.931	0.0162611
885.009	0.0164793
885.087	0.0163702
885.165	0.0163343
885.243	0.0163519
885.321	0.0164012
885.399	0.0165369
885.477	0.0163973
885.556	0.0163558
885.634	0.0164615
885.712	0.0163656
885.790	0.0164473
885.868	0.0163580
885.946	0.0162041
886.024	0.0163824
886.102	0.0164126
886.181	0.0163475
886.259	0.0163629
886.337	0.0164110
886.415	0.0163423
886.493	0.0164355
886.571	0.0164940
886.649	0.0162841
886.727	0.0163648
886.806	0.0165485
886.884	0.0164406
886.962	0.0164247
887.040	0.0164147
887.118	0.0164393
887.196	0.0163941
887.274	0.0163615
887.352	0.0163292
887.431	0.0162817
887.509	0.0164619
887.587	0.0162267
887.665	0.0162360
887.743	0.0162412
887.821	0.0162969
887.899	0.0163793
887.977	0.0162344
888.056	0.0163789
888.134	0.0162910
888.212	0.0162370
888.290	0.0162639
888.368	0.0162405
888.446	0.0163016
888.524	0.0163250
888.602	0.0162920
888.681	0.0162883
888.759	0.0163857
888.837	0.0162148
888.915	0.0164030
888.993	0.0163338
889.071	0.0163789
889.149	0.0164700
889.227	0.0164481
889.306	0.0164324
889.384	0.0165002
889.462	0.0163823
889.540	0.0163688
889.618	0.0165059
889.696	0.0165376
889.774	0.0164597
889.852	0.0164695
889.931	0.0163977
890.009	0.0165422
890.087	0.0165746
890.165	0.0164909
890.243	0.0164678
890.321	0.0166785
890.399	0.0163966
890.477	0.0165270
890.556	0.0164546
890.634	0.0164938
890.712	0.0164767
890.790	0.0163902
890.868	0.0164812
890.946	0.0164618
891.024	0.0164792
891.102	0.0166297
891.181	0.0165884
891.259	0.0165275
891.337	0.0163479
891.415	0.0164162
891.493	0.0165322
891.571	0.0164156
891.649	0.0164378
891.727	0.0163577
891.806	0.0164509
891.884	0.0163522
891.962	0.0163026
892.040	0.0163181
892.118	0.0162595
892.196	0.0164138
892.274	0.0163746
892.352	0.0161901
892.431	0.0161937
892.509	0.0162774
892.587	0.0163216
892.665	0.0163292
892.743	0.0162313
892.821	0.0161446
892.899	0.0163109
892.977	0.0162610
893.056	0.0163196
893.134	0.0162648
893.212	0.0162680
893.290	0.0162189
893.368	0.0163153
893.446	0.0162936
893.524	0.0163580
893.602	0.0163839
893.681	0.0162886
893.759	0.0164589
893.837	0.0165779
893.915	0.0162849
893.993	0.0164616
894.071	0.0164350
894.149	0.0164618
894.227	0.0162508
894.306	0.0163023
894.384	0.0164991
894.462	0.0163702
894.540	0.0163478
894.618	0.0163039
894.696	0.0164159
894.774	0.0163970
894.852	0.0163111
894.931	0.0164860
895.009	0.0161658
895.087	0.0161797
895.165	0.0163907
895.243	0.0163167
895.321	0.0162678
895.399	0.0161253
895.477	0.0162569
895.556	0.0162606
895.634	0.0161921
895.712	0.0162543
895.790	0.0163117
895.868	0.0162962
895.946	0.0162500
896.024	0.0162107
896.102	0.0162094
896.181	0.0162193
896.259	0.0161926
896.337	0.0162962
896.415	0.0162600
896.493	0.0163049
896.571	0.0164751
896.649	0.0162410
896.727	0.0161454
896.806	0.0162191
896.884	0.0164076
896.962	0.0163748
897.040	0.0164079
897.118	0.0162521
897.196	0.0163337
897.274	0.0162369
897.352	0.0162509
897.431	0.0163400
897.509	0.0162349
897.587	0.0162088
897.665	0.0163345
897.743	0.0162914
897.821	0.0162327
897.899	0.0164005
897.977	0.0164424
898.056	0.0162733
898.134	0.0163613
898.212	0.0162418
898.290	0.0162224
898.368	0.0163644
898.446	0.0164092
898.524	0.0162889
898.602	0.0163611
898.681	0.0164635
898.759	0.0164692
898.837	0.0162695
898.915	0.0163093
898.993	0.0164175
899.071	0.0163203
899.149	0.0163341
899.227	0.0163186
899.306	0.0162200
899.384	0.0162661
899.462	0.0163264
899.540	0.0162196
899.618	0.0162322
899.696	0.0163927
899.774	0.0161799
899.852	0.0162883
899.931	0.0164845
900.009	0.0162444
900.087	0.0161629
900.165	0.0162625
900.243	0.0163931
900.321	0.0164335
900.399	0.0164299
900.477	0.0163476
900.556	0.0163246
900.634	0.0164432
900.712	0.0163796
900.790	0.0165829
900.868	0.0163577
900.946	0.0164412
901.024	0.0165144
901.102	0.0166782
901.181	0.0165073
901.259	0.0164510
901.337	0.0164146
901.415	0.0165742
901.493	0.0166541
901.571	0.0165713
901.649	0.0165341
901.727	0.0164893
901.806	0.0165691
901.884	0.0164600
901.962	0.0165586
902.040	0.0166116
902.118	0.0164236
902.196	0.0164471
902.274	0.0166135
902.352	0.0165981
902.431	0.0164894
902.509	0.0162865
902.587	0.0164612
902.665	0.0165827
902.743	0.0164507
902.821	0.0163017
902.899	0.0164935
902.977	0.0163857
903.056	0.0164948
903.134	0.0165815
903.212	0.0164532
903.290	0.0162217
903.368	0.0163318
903.446	0.0163274
903.524	0.0164424
903.602	0.0163048
903.681	0.0164268
903.759	0.0163960
903.837	0.0164370
903.915	0.0162899
903.993	0.0163045
904.071	0.0163201
904.149	0.0164175
904.227	0.0164738
904.306	0.0163581
904.384	0.0162605
904.462	0.0162859
904.540	0.0163600
904.618	0.0163642
904.696	0.0162579
904.774	0.0162711
904.852	0.0162806
904.931	0.0163700
905.009	0.0163161
905.087	0.0163393
905.165	0.0162451
905.243	0.0162613
905.321	0.0162434
905.399	0.0163967
905.477	0.0162845
905.556	0.0162784
905.634	0.0162614
905.712	0.0162745
905.790	0.0161594
905.868	0.0162846
905.946	0.0162219
906.024	0.0162372
906.102	0.0163227
906.181	0.0161259
906.259	0.0161944
906.337	0.0164164
906.415	0.0163765
906.493	0.0163091
906.571	0.0161548
906.649	0.0161518
906.727	0.0163464
906.806	0.0162054
906.884	0.0163222
906.962	0.0163009
907.040	0.0164156
907.118	0.0162939
907.196	0.0162794
907.274	0.0164133
907.352	0.0163197
907.431	0.0164013
907.509	0.0163332
907.587	0.0162543
907.665	0.0163879
907.743	0.0164606
907.821	0.0164336
907.899	0.0164743
907.977	0.0162871
908.056	0.0164555
908.134	0.0163645
908.212	0.0163305
908.290	0.0163146
908.368	0.0163293
908.446	0.0164434
908.524	0.0164265
908.602	0.0163343
908.681	0.0164172
908.759	0.0163231
908.837	0.0163216
908.915	0.0163448
908.993	0.0164314
909.071	0.0162141
909.149	0.0163338
909.227	0.0163586
909.306	0.0163770
909.384	0.0163110
909.462	0.0163321
909.540	0.0162875
909.618	0.0162719
909.696	0.0163020
909.774	0.0162745
909.852	0.0162981
909.931	0.0161850
910.009	0.0161336
910.087	0.0162947
910.165	0.0163018
910.243	0.0162026
910.321	0.0162142
910.399	0.0163416
910.477	0.0162301
910.556	0.0163156
910.634	0.0161974
910.712	0.0162453
910.790	0.0164251
910.868	0.0164203
910.946	0.0164268
911.024	0.0163216
911.102	0.0163003
911.181	0.0163586
911.259	0.0163566
911.337	0.0163284
911.415	0.0163573
911.493	0.0164195
911.571	0.0165024
911.649	0.0164557
911.727	0.0163933
911.806	0.0165411
911.884	0.0165397
911.962	0.0164066
912.040	0.0163507
912.118	0.0165975
912.196	0.0165193
912.274	0.0165457
912.352	0.0164586
912.431	0.0164570
912.509	0.0166415
912.587	0.0165311
912.665	0.0164837
912.743	0.0165405
912.821	0.0164716
912.899	0.0164934
912.977	0.0164368
913.056	0.0164658
913.134	0.0164652
913.212	0.0166176
913.290	0.0164687
913.368	0.0162803
913.446	0.0163106
913.524	0.0164101
913.602	0.0165330
913.681	0.0165118
913.759	0.0165536
913.837	0.0164418
913.915	0.0164455
913.993	0.0164169
914.071	0.0165408
914.149	0.0163950
914.227	0.0164345
914.306	0.0164820
914.384	0.0165237
914.462	0.0166405
914.540	0.0165868
914.618	0.0165077
914.696	0.0164396
914.774	0.0165766
914.852	0.0164562
914.931	0.0164249
915.009	0.0165771
915.087	0.0166219
915.165	0.0165041
915.243	0.0164088
915.321	0.0165740
915.399	0.0164574
915.477	0.0167110
915.556	0.0166602
915.634	0.0165414
915.712	0.0165817
915.790	0.0166229
915.868	0.0166115
915.946	0.0165234
916.024	0.0165157
916.102	0.0165941
916.181	0.0164336
916.259	0.0165282
916.337	0.0164964
916.415	0.0165160
916.493	0.0165795
916.571	0.0165175
916.649	0.0164303
916.727	0.0165009
916.806	0.0163283
916.884	0.0163121
916.962	0.0163174
917.040	0.0163178
917.118	0.0163497
917.196	0.0161905
917.274	0.0161974
917.352	0.0162028
917.431	0.0162194
917.509	0.0161362
917.587	0.0161927
917.665	0.0162066
917.743	0.0161871
917.821	0.0161732
917.899	0.0162299
917.977	0.0162422
918.056	0.0161997
918.134	0.0162201
918.212	0.0162066
918.290	0.0161938
918.368	0.0163619
918.446	0.0161683
918.524	0.0162300
918.602	0.0162566
918.681	0.0162048
918.759	0.0161539
918.837	0.0162946
918.915	0.0163316
918.993	0.0163205
919.071	0.0162588
919.149	0.0162752
919.227	0.0160398
919.306	0.0163336
919.384	0.0164195
919.462	0.0161166
919.540	0.0162344
919.618	0.0162025
919.696	0.0163395
919.774	0.0162650
919.852	0.0161837
919.931	0.0162823
920.009	0.0162502
920.087	0.0162341
920.165	0.0162351
920.243	0.0163680
920.321	0.0162902
920.399	0.0161028
920.477	0.0163786
920.556	0.0163600
920.634	0.0163405
920.712	0.0162682
920.790	0.0162729
920.868	0.0162413
920.946	0.0163122
921.024	0.0164542
921.102	0.0164748
921.181	0.0163879
921.259	0.0164369
921.337	0.0163480
921.415	0.0165588
921.493	0.0165633
921.571	0.0165136
921.649	0.0165099
921.727	0.0166045
921.806	0.0165740
921.884	0.0164979
921.962	0.0165920
922.040	0.0166071
922.118	0.0165422
922.196	0.0165521
922.274	0.0166653
922.352	0.0165775
922.431	0.0164178
922.509	0.0166010
922.587	0.0166393
922.665	0.0164922
922.743	0.0163300
922.821	0.0164390
922.899	0.0165383
922.977	0.0164189
923.056	0.0165170
923.134	0.0164622
923.212	0.0163429
923.290	0.0165068
923.368	0.0164246
923.446	0.0164667
923.524	0.0164929
923.602	0.0164645
923.681	0.0164139
923.759	0.0164153
923.837	0.0163506
923.915	0.0164079
923.993	0.0164910
924.071	0.0163792
924.149	0.0165099
924.227	0.0165269
924.306	0.0164124
924.384	0.0164763
924.462	0.0165322
924.540	0.0163879
924.618	0.0163582
924.696	0.0163878
924.774	0.0165089
924.852	0.0163502
924.931	0.0163101
925.009	0.0164001
925.087	0.0163618
925.165	0.0162935
925.243	0.0164323
925.321	0.0163216
925.399	0.0162318
925.477	0.0162799
925.556	0.0163287
925.634	0.0163731
925.712	0.0162704
925.790	0.0162519
925.868	0.0163609
925.946	0.0163960
926.024	0.0163441
926.102	0.0162752
926.181	0.0163608
926.259	0.0164537
926.337	0.0164143
926.415	0.0163147
926.493	0.0163419
926.571	0.0165102
926.649	0.0165303
926.727	0.0163746
926.806	0.0164536
926.884	0.0163712
926.962	0.0164891
927.040	0.0165982
927.118	0.0164600
927.196	0.0163979
927.274	0.0165477
927.352	0.0164159
927.431	0.0166210
927.509	0.0166848
927.587	0.0165460
927.665	0.0164549
927.743	0.0165433
927.821	0.0165099
927.899	0.0165569
927.977	0.0164597
928.056	0.0164432
928.134	0.0165028
928.212	0.0164674
928.290	0.0163355
928.368	0.0164904
928.446	0.0165323
928.524	0.0165382
928.602	0.0163319
928.681	0.0163190
928.759	0.0162558
928.837	0.0164120
928.915	0.0163956
928.993	0.0164891
929.071	0.0164764
929.149	0.0163742
929.227	0.0165329
929.306	0.0163434
929.384	0.0162159
929.462	0.0164079
929.540	0.0164321
929.618	0.0162899
929.696	0.0162972
929.774	0.0163487
929.852	0.0163055
929.931	0.0163594
