05/19/2022	01:17:00	Ver.	4.1	UNKNOWN
Optical Delay	610.008675	Delta X		0.078125	Sweeps	1	Scan Rate	0/0
Coordinates	Axis 1	NaN	Axis 2	NaN	Axis 3	NaN	Axis 4	NaN	Axis 5	NaN	Axis 6	0.000000
TX Power	0.000000	RX Power	0.000000

610.009	0.0159793
610.087	0.0161243
610.165	0.0160027
610.243	0.0160294
610.321	0.0159307
610.399	0.0159286
610.477	0.0161056
610.556	0.0160998
610.634	0.0159318
610.712	0.0160036
610.790	0.0161009
610.868	0.0159879
610.946	0.0161202
611.024	0.0159319
611.102	0.0158348
611.181	0.0158817
611.259	0.0161746
611.337	0.0159503
611.415	0.0160979
611.493	0.0160242
611.571	0.0159325
611.649	0.0159254
611.727	0.0159953
611.806	0.0161503
611.884	0.0159121
611.962	0.0160378
612.040	0.0160130
612.118	0.0159908
612.196	0.0160045
612.274	0.0161598
612.352	0.0160834
612.431	0.0159850
612.509	0.0161411
612.587	0.0160782
612.665	0.0160375
612.743	0.0160146
612.821	0.0161452
612.899	0.0161274
612.977	0.0160303
613.056	0.0162156
613.134	0.0161922
613.212	0.0160844
613.290	0.0161393
613.368	0.0161732
613.446	0.0159840
613.524	0.0160843
613.602	0.0161746
613.681	0.0160862
613.759	0.0159706
613.837	0.0158392
613.915	0.0160509
613.993	0.0161568
614.071	0.0159553
614.149	0.0160892
614.227	0.0159949
614.306	0.0160032
614.384	0.0159840
614.462	0.0161650
614.540	0.0161730
614.618	0.0159415
614.696	0.0161996
614.774	0.0161716
614.852	0.0159242
614.931	0.0160070
615.009	0.0160727
615.087	0.0161003
615.165	0.0162029
615.243	0.0161120
615.321	0.0161481
615.399	0.0160863
615.477	0.0161419
615.556	0.0159690
615.634	0.0161115
615.712	0.0160390
615.790	0.0162069
615.868	0.0161736
615.946	0.0161624
616.024	0.0160250
616.102	0.0160654
616.181	0.0159164
616.259	0.0159296
616.337	0.0159701
616.415	0.0160027
616.493	0.0160798
616.571	0.0159126
616.649	0.0158550
616.727	0.0159953
616.806	0.0160273
616.884	0.0158898
616.962	0.0159771
617.040	0.0160052
617.118	0.0160470
617.196	0.0160160
617.274	0.0160706
617.352	0.0159771
617.431	0.0160162
617.509	0.0159747
617.587	0.0159593
617.665	0.0160220
617.743	0.0160720
617.821	0.0159193
617.899	0.0160218
617.977	0.0160165
618.056	0.0160129
618.134	0.0160534
618.212	0.0160776
618.290	0.0159484
618.368	0.0160197
618.446	0.0161322
618.524	0.0158782
618.602	0.0159196
618.681	0.0160503
618.759	0.0162831
618.837	0.0160880
618.915	0.0161696
618.993	0.0159444
619.071	0.0161068
619.149	0.0162265
619.227	0.0160988
619.306	0.0159812
619.384	0.0159980
619.462	0.0160422
619.540	0.0160276
619.618	0.0159936
619.696	0.0159499
619.774	0.0159637
619.852	0.0161282
619.931	0.0161819
620.009	0.0160496
620.087	0.0160531
620.165	0.0161196
620.243	0.0160849
620.321	0.0160767
620.399	0.0161147
620.477	0.0161156
620.556	0.0160686
620.634	0.0161782
620.712	0.0160787
620.790	0.0161777
620.868	0.0161429
620.946	0.0161617
621.024	0.0161909
621.102	0.0161323
621.181	0.0161126
621.259	0.0161208
621.337	0.0159702
621.415	0.0160405
621.493	0.0161443
621.571	0.0161485
621.649	0.0160626
621.727	0.0160027
621.806	0.0160826
621.884	0.0161023
621.962	0.0159663
622.040	0.0160516
622.118	0.0160486
622.196	0.0158965
622.274	0.0160104
622.352	0.0160788
622.431	0.0159623
622.509	0.0161082
622.587	0.0160755
622.665	0.0160134
622.743	0.0159635
622.821	0.0159981
622.899	0.0159281
622.977	0.0160778
623.056	0.0160534
623.134	0.0161183
623.212	0.0160915
623.290	0.0161582
623.368	0.0161335
623.446	0.0160962
623.524	0.0162437
623.602	0.0161974
623.681	0.0160955
623.759	0.0162063
623.837	0.0161987
623.915	0.0163061
623.993	0.0163119
624.071	0.0163255
624.149	0.0161871
624.227	0.0161362
624.306	0.0163793
624.384	0.0164049
624.462	0.0162270
624.540	0.0162782
624.618	0.0162543
624.696	0.0162244
624.774	0.0163003
624.852	0.0163048
624.931	0.0162260
625.009	0.0162755
625.087	0.0162332
625.165	0.0163429
625.243	0.0163729
625.321	0.0161837
625.399	0.0161865
625.477	0.0162337
625.556	0.0160285
625.634	0.0161833
625.712	0.0162654
625.790	0.0161418
625.868	0.0161318
625.946	0.0160390
626.024	0.0161365
626.102	0.0161537
626.181	0.0161803
626.259	0.0161549
626.337	0.0160648
626.415	0.0160093
626.493	0.0158994
626.571	0.0160349
626.649	0.0159683
626.727	0.0159412
626.806	0.0159892
626.884	0.0158881
626.962	0.0159521
627.040	0.0159564
627.118	0.0160393
627.196	0.0159817
627.274	0.0158241
627.352	0.0158031
627.431	0.0159396
627.509	0.0159060
627.587	0.0159073
627.665	0.0160899
627.743	0.0159870
627.821	0.0159792
627.899	0.0159277
627.977	0.0160319
628.056	0.0160790
628.134	0.0160815
628.212	0.0162055
628.290	0.0160999
628.368	0.0161687
628.446	0.0162127
628.524	0.0162471
628.602	0.0161826
628.681	0.0161575
628.759	0.0162567
628.837	0.0161375
628.915	0.0161298
628.993	0.0162982
629.071	0.0162482
629.149	0.0161762
629.227	0.0161326
629.306	0.0161820
629.384	0.0162865
629.462	0.0162124
629.540	0.0163161
629.618	0.0163533
629.696	0.0163325
629.774	0.0162784
629.852	0.0162922
629.931	0.0162581
630.009	0.0161172
630.087	0.0162994
630.165	0.0163221
630.243	0.0163254
630.321	0.0162534
630.399	0.0162173
630.477	0.0161882
630.556	0.0162598
630.634	0.0161781
630.712	0.0160711
630.790	0.0161452
630.868	0.0159385
630.946	0.0159491
631.024	0.0159558
631.102	0.0159174
631.181	0.0159197
631.259	0.0157709
631.337	0.0158878
631.415	0.0157731
631.493	0.0158510
631.571	0.0157283
631.649	0.0157646
631.727	0.0156644
631.806	0.0157632
631.884	0.0157063
631.962	0.0157352
632.040	0.0156078
632.118	0.0156214
632.196	0.0155321
632.274	0.0156515
632.352	0.0157234
632.431	0.0155368
632.509	0.0157135
632.587	0.0156573
632.665	0.0157849
632.743	0.0158492
632.821	0.0157851
632.899	0.0158656
632.977	0.0158924
633.056	0.0160273
633.134	0.0159120
633.212	0.0160342
633.290	0.0160446
633.368	0.0160262
633.446	0.0159324
633.524	0.0160040
633.602	0.0162097
633.681	0.0161006
633.759	0.0161880
633.837	0.0162103
633.915	0.0162007
633.993	0.0162222
634.071	0.0162935
634.149	0.0162812
634.227	0.0163335
634.306	0.0163786
634.384	0.0164578
634.462	0.0163674
634.540	0.0164140
634.618	0.0163626
634.696	0.0163556
634.774	0.0164878
634.852	0.0164961
634.931	0.0165241
635.009	0.0163685
635.087	0.0163577
635.165	0.0164358
635.243	0.0163145
635.321	0.0164098
635.399	0.0162280
635.477	0.0162167
635.556	0.0162445
635.634	0.0162243
635.712	0.0161993
635.790	0.0161226
635.868	0.0161467
635.946	0.0161894
636.024	0.0161236
636.102	0.0160901
636.181	0.0160284
636.259	0.0159017
636.337	0.0158252
636.415	0.0158824
636.493	0.0157195
636.571	0.0156893
636.649	0.0156345
636.727	0.0156284
636.806	0.0155968
636.884	0.0157194
636.962	0.0156255
637.040	0.0154897
637.118	0.0155248
637.196	0.0154354
637.274	0.0155959
637.352	0.0153767
637.431	0.0154341
637.509	0.0154776
637.587	0.0155665
637.665	0.0155877
637.743	0.0156506
637.821	0.0157676
637.899	0.0156985
637.977	0.0158361
638.056	0.0159683
638.134	0.0159501
638.212	0.0160246
638.290	0.0161575
638.368	0.0161459
638.446	0.0163103
638.524	0.0162533
638.602	0.0162951
638.681	0.0164939
638.759	0.0165595
638.837	0.0165658
638.915	0.0165776
638.993	0.0165734
639.071	0.0167399
639.149	0.0166680
639.227	0.0167330
639.306	0.0168262
639.384	0.0166862
639.462	0.0167280
639.540	0.0167475
639.618	0.0167971
639.696	0.0168304
639.774	0.0167228
639.852	0.0166090
639.931	0.0167146
640.009	0.0167118
640.087	0.0166319
640.165	0.0166128
640.243	0.0164449
640.321	0.0163842
640.399	0.0163953
640.477	0.0162842
640.556	0.0161806
640.634	0.0162871
640.712	0.0161460
640.790	0.0160146
640.868	0.0159415
640.946	0.0157850
641.024	0.0158549
641.102	0.0158293
641.181	0.0157450
641.259	0.0158373
641.337	0.0156680
641.415	0.0156232
641.493	0.0156876
641.571	0.0156068
641.649	0.0155065
641.727	0.0156031
641.806	0.0155734
641.884	0.0155822
641.962	0.0156432
642.040	0.0155707
642.118	0.0157346
642.196	0.0156564
642.274	0.0157097
642.352	0.0155844
642.431	0.0156703
642.509	0.0159404
642.587	0.0157288
642.665	0.0158669
642.743	0.0159349
642.821	0.0160039
642.899	0.0159971
642.977	0.0161645
643.056	0.0162074
643.134	0.0162227
643.212	0.0161711
643.290	0.0162041
643.368	0.0163274
643.446	0.0163910
643.524	0.0162887
643.602	0.0164561
643.681	0.0165737
643.759	0.0164999
643.837	0.0163573
643.915	0.0164087
643.993	0.0165898
644.071	0.0166079
644.149	0.0165200
644.227	0.0165837
644.306	0.0163425
644.384	0.0164264
644.462	0.0164258
644.540	0.0163832
644.618	0.0163390
644.696	0.0164633
644.774	0.0163189
644.852	0.0162206
644.931	0.0162662
645.009	0.0162975
645.087	0.0162376
645.165	0.0162982
645.243	0.0162617
645.321	0.0162906
645.399	0.0162194
645.477	0.0161501
645.556	0.0161575
645.634	0.0161617
645.712	0.0163135
645.790	0.0160379
645.868	0.0161865
645.946	0.0162067
646.024	0.0161205
646.102	0.0160677
646.181	0.0161436
646.259	0.0161809
646.337	0.0159827
646.415	0.0159740
646.493	0.0161490
646.571	0.0161618
646.649	0.0161751
646.727	0.0160780
646.806	0.0161223
646.884	0.0160545
646.962	0.0161564
647.040	0.0160017
647.118	0.0160934
647.196	0.0160878
647.274	0.0161758
647.352	0.0160687
647.431	0.0160619
647.509	0.0161697
647.587	0.0161044
647.665	0.0160855
647.743	0.0160545
647.821	0.0161990
647.899	0.0160310
647.977	0.0160876
648.056	0.0161214
648.134	0.0161583
648.212	0.0162650
648.290	0.0160666
648.368	0.0161642
648.446	0.0161658
648.524	0.0160841
648.602	0.0159667
648.681	0.0159854
648.759	0.0159756
648.837	0.0160249
648.915	0.0159597
648.993	0.0159587
649.071	0.0160671
649.149	0.0159928
649.227	0.0159390
649.306	0.0160374
649.384	0.0160584
649.462	0.0160538
649.540	0.0160268
649.618	0.0159318
649.696	0.0161235
649.774	0.0160962
649.852	0.0161194
649.931	0.0160792
650.009	0.0159780
650.087	0.0160342
650.165	0.0162179
650.243	0.0162910
650.321	0.0161084
650.399	0.0161118
650.477	0.0161804
650.556	0.0163223
650.634	0.0162325
650.712	0.0161573
650.790	0.0160724
650.868	0.0160753
650.946	0.0162049
651.024	0.0161739
651.102	0.0162455
651.181	0.0161294
651.259	0.0161241
651.337	0.0162339
651.415	0.0161187
651.493	0.0161285
651.571	0.0162828
651.649	0.0161661
651.727	0.0162722
651.806	0.0161060
651.884	0.0160427
651.962	0.0161077
652.040	0.0161272
652.118	0.0160963
652.196	0.0161852
652.274	0.0161201
652.352	0.0160841
652.431	0.0160060
652.509	0.0159898
652.587	0.0161498
652.665	0.0160354
652.743	0.0159672
652.821	0.0160374
652.899	0.0161918
652.977	0.0160587
653.056	0.0160049
653.134	0.0160390
653.212	0.0162054
653.290	0.0161147
653.368	0.0160303
653.446	0.0160440
653.524	0.0161890
653.602	0.0161544
653.681	0.0161253
653.759	0.0162379
653.837	0.0161943
653.915	0.0161034
653.993	0.0161102
654.071	0.0162051
654.149	0.0161485
654.227	0.0162403
654.306	0.0161234
654.384	0.0160986
654.462	0.0161957
654.540	0.0160634
654.618	0.0159705
654.696	0.0160057
654.774	0.0160809
654.852	0.0160458
654.931	0.0159501
655.009	0.0160715
655.087	0.0160786
655.165	0.0160185
655.243	0.0160971
655.321	0.0159927
655.399	0.0159398
655.477	0.0159812
655.556	0.0158568
655.634	0.0160052
655.712	0.0158292
655.790	0.0159749
655.868	0.0159895
655.946	0.0158713
656.024	0.0158199
656.102	0.0159579
656.181	0.0159026
656.259	0.0159282
656.337	0.0159446
656.415	0.0159166
656.493	0.0159593
656.571	0.0160183
656.649	0.0159299
656.727	0.0159924
656.806	0.0159994
656.884	0.0159412
656.962	0.0160796
657.040	0.0162750
657.118	0.0162369
657.196	0.0161067
657.274	0.0161733
657.352	0.0163297
657.431	0.0162476
657.509	0.0163332
657.587	0.0163142
657.665	0.0163776
657.743	0.0164896
657.821	0.0164542
657.899	0.0164448
657.977	0.0166509
658.056	0.0164317
658.134	0.0165413
658.212	0.0164726
658.290	0.0164869
658.368	0.0165758
658.446	0.0166415
658.524	0.0164167
658.602	0.0164233
658.681	0.0164387
658.759	0.0163611
658.837	0.0164196
658.915	0.0163275
658.993	0.0163361
659.071	0.0163008
659.149	0.0161730
659.227	0.0162233
659.306	0.0161222
659.384	0.0161533
659.462	0.0160445
659.540	0.0160733
659.618	0.0159308
659.696	0.0158383
659.774	0.0158226
659.852	0.0158494
659.931	0.0158482
660.009	0.0157656
660.087	0.0156972
660.165	0.0157521
660.243	0.0157075
660.321	0.0157921
660.399	0.0156145
660.477	0.0157401
660.556	0.0156549
660.634	0.0156116
660.712	0.0155782
660.790	0.0155508
660.868	0.0155987
660.946	0.0156567
661.024	0.0156957
661.102	0.0156857
661.181	0.0156102
661.259	0.0157192
661.337	0.0157007
661.415	0.0156928
661.493	0.0157533
661.571	0.0157504
661.649	0.0159869
661.727	0.0158915
661.806	0.0159440
661.884	0.0159502
661.962	0.0159766
662.040	0.0160068
662.118	0.0160337
662.196	0.0160555
662.274	0.0161022
662.352	0.0162275
662.431	0.0163448
662.509	0.0162216
662.587	0.0162579
662.665	0.0163593
662.743	0.0164698
662.821	0.0164749
662.899	0.0165156
662.977	0.0163951
663.056	0.0164706
663.134	0.0164139
663.212	0.0165481
663.290	0.0166109
663.368	0.0164486
663.446	0.0164411
663.524	0.0165007
663.602	0.0164062
663.681	0.0164634
663.759	0.0163883
663.837	0.0161653
663.915	0.0163988
663.993	0.0163824
664.071	0.0162138
664.149	0.0162030
664.227	0.0161875
664.306	0.0162079
664.384	0.0161765
664.462	0.0161092
664.540	0.0161238
664.618	0.0161641
664.696	0.0160329
664.774	0.0159193
664.852	0.0159951
664.931	0.0160056
665.009	0.0159473
665.087	0.0159249
665.165	0.0160603
665.243	0.0160172
665.321	0.0159227
665.399	0.0159477
665.477	0.0159000
665.556	0.0158784
665.634	0.0159283
665.712	0.0159572
665.790	0.0158794
665.868	0.0158737
665.946	0.0159318
666.024	0.0158761
666.102	0.0157492
666.181	0.0159360
666.259	0.0158697
666.337	0.0160020
666.415	0.0160098
666.493	0.0159603
666.571	0.0160098
666.649	0.0160378
666.727	0.0161285
666.806	0.0161101
666.884	0.0161475
666.962	0.0160087
667.040	0.0161827
667.118	0.0162309
667.196	0.0161176
667.274	0.0161552
667.352	0.0161586
667.431	0.0161192
667.509	0.0161909
667.587	0.0160591
667.665	0.0159682
667.743	0.0159610
667.821	0.0158991
667.899	0.0159502
667.977	0.0160740
668.056	0.0160091
668.134	0.0160269
668.212	0.0161773
668.290	0.0159875
668.368	0.0161301
668.446	0.0161868
668.524	0.0160935
668.602	0.0161715
668.681	0.0160674
668.759	0.0161525
668.837	0.0161419
668.915	0.0159487
668.993	0.0163071
669.071	0.0161328
669.149	0.0161208
669.227	0.0162560
669.306	0.0162325
669.384	0.0161460
669.462	0.0161543
669.540	0.0160597
669.618	0.0160323
669.696	0.0162184
669.774	0.0160392
669.852	0.0161232
669.931	0.0159941
670.009	0.0160291
670.087	0.0161034
670.165	0.0159601
670.243	0.0160945
670.321	0.0160654
670.399	0.0160639
670.477	0.0160104
670.556	0.0160333
670.634	0.0160416
670.712	0.0161345
670.790	0.0159527
670.868	0.0159586
670.946	0.0159586
671.024	0.0161237
671.102	0.0160648
671.181	0.0160960
671.259	0.0160315
671.337	0.0161272
671.415	0.0161362
671.493	0.0161157
671.571	0.0161754
671.649	0.0161639
671.727	0.0161328
671.806	0.0162052
671.884	0.0161179
671.962	0.0160346
672.040	0.0160907
672.118	0.0161265
672.196	0.0161129
672.274	0.0161385
672.352	0.0161460
672.431	0.0161595
672.509	0.0160464
672.587	0.0160679
672.665	0.0160556
672.743	0.0160429
672.821	0.0160967
672.899	0.0161401
672.977	0.0161833
673.056	0.0162241
673.134	0.0160823
673.212	0.0161327
673.290	0.0159760
673.368	0.0160323
673.446	0.0160951
673.524	0.0161710
673.602	0.0161044
673.681	0.0160789
673.759	0.0161781
673.837	0.0160632
673.915	0.0161257
673.993	0.0161212
674.071	0.0159462
674.149	0.0162083
674.227	0.0160388
674.306	0.0159473
674.384	0.0159904
674.462	0.0160113
674.540	0.0159734
674.618	0.0160394
674.696	0.0159995
674.774	0.0159386
674.852	0.0158061
674.931	0.0158031
675.009	0.0158591
675.087	0.0159130
675.165	0.0160088
675.243	0.0159322
675.321	0.0158659
675.399	0.0158856
675.477	0.0160621
675.556	0.0159918
675.634	0.0159999
675.712	0.0159742
675.790	0.0160041
675.868	0.0160858
675.946	0.0160902
676.024	0.0160976
676.102	0.0162459
676.181	0.0161589
676.259	0.0160112
676.337	0.0160570
676.415	0.0162832
676.493	0.0161206
676.571	0.0160997
676.649	0.0161343
676.727	0.0161691
676.806	0.0161319
676.884	0.0161147
676.962	0.0162601
677.040	0.0162621
677.118	0.0162503
677.196	0.0161890
677.274	0.0161178
677.352	0.0161901
677.431	0.0162156
677.509	0.0163347
677.587	0.0160941
677.665	0.0161128
677.743	0.0162615
677.821	0.0161270
677.899	0.0161145
677.977	0.0161033
678.056	0.0160076
678.134	0.0161079
678.212	0.0159860
678.290	0.0160328
678.368	0.0161256
678.446	0.0161327
678.524	0.0160376
678.602	0.0159624
678.681	0.0161575
678.759	0.0159518
678.837	0.0159829
678.915	0.0159088
678.993	0.0159736
679.071	0.0159699
679.149	0.0158953
679.227	0.0157944
679.306	0.0160060
679.384	0.0159661
679.462	0.0159584
679.540	0.0158896
679.618	0.0160033
679.696	0.0160404
679.774	0.0160310
679.852	0.0158246
679.931	0.0160232
680.009	0.0160538
680.087	0.0160151
680.165	0.0162128
680.243	0.0162417
680.321	0.0159483
680.399	0.0161323
680.477	0.0161130
680.556	0.0161830
680.634	0.0162894
680.712	0.0162279
680.790	0.0160987
680.868	0.0162097
680.946	0.0162795
681.024	0.0162632
681.102	0.0162009
681.181	0.0160936
681.259	0.0161843
681.337	0.0161765
681.415	0.0161047
681.493	0.0160683
681.571	0.0160359
681.649	0.0162031
681.727	0.0161320
681.806	0.0161122
681.884	0.0160332
681.962	0.0161821
682.040	0.0158948
682.118	0.0159644
682.196	0.0160576
682.274	0.0158837
682.352	0.0160468
682.431	0.0160146
682.509	0.0160023
682.587	0.0159991
682.665	0.0160143
682.743	0.0159164
682.821	0.0160136
682.899	0.0159532
682.977	0.0159508
683.056	0.0161056
683.134	0.0159525
683.212	0.0161433
683.290	0.0160670
683.368	0.0161015
683.446	0.0159856
683.524	0.0160194
683.602	0.0159560
683.681	0.0160661
683.759	0.0158590
683.837	0.0161491
683.915	0.0161263
683.993	0.0161402
684.071	0.0160958
684.149	0.0160687
684.227	0.0161285
684.306	0.0160869
684.384	0.0161055
684.462	0.0161052
684.540	0.0160516
684.618	0.0159554
684.696	0.0160603
684.774	0.0159831
684.852	0.0159814
684.931	0.0160429
685.009	0.0160400
685.087	0.0159360
685.165	0.0159348
685.243	0.0159940
685.321	0.0159988
685.399	0.0160027
685.477	0.0159224
685.556	0.0160292
685.634	0.0160229
685.712	0.0160110
685.790	0.0160663
685.868	0.0160857
685.946	0.0160806
686.024	0.0161817
686.102	0.0162027
686.181	0.0161636
686.259	0.0161969
686.337	0.0161759
686.415	0.0162312
686.493	0.0161950
686.571	0.0162048
686.649	0.0162465
686.727	0.0162165
686.806	0.0161733
686.884	0.0162305
686.962	0.0161394
687.040	0.0162560
687.118	0.0162627
687.196	0.0161645
687.274	0.0161301
687.352	0.0162494
687.431	0.0162490
687.509	0.0159521
687.587	0.0160228
687.665	0.0161108
687.743	0.0159770
687.821	0.0160643
687.899	0.0159057
687.977	0.0159360
688.056	0.0158690
688.134	0.0159089
688.212	0.0157905
688.290	0.0158927
688.368	0.0157191
688.446	0.0157919
688.524	0.0157130
688.602	0.0159017
688.681	0.0157253
688.759	0.0158083
688.837	0.0160112
688.915	0.0158649
688.993	0.0158974
689.071	0.0158032
689.149	0.0157771
689.227	0.0158091
689.306	0.0158617
689.384	0.0157632
689.462	0.0159151
689.540	0.0159879
689.618	0.0160153
689.696	0.0158418
689.774	0.0159196
689.852	0.0159789
689.931	0.0158549
690.009	0.0161361
690.087	0.0161362
690.165	0.0160152
690.243	0.0161531
690.321	0.0161936
690.399	0.0163171
690.477	0.0161436
690.556	0.0162182
690.634	0.0162258
690.712	0.0162670
690.790	0.0163087
690.868	0.0161320
690.946	0.0163219
691.024	0.0163586
691.102	0.0161589
691.181	0.0161885
691.259	0.0162961
691.337	0.0162672
691.415	0.0160059
691.493	0.0160906
691.571	0.0161261
691.649	0.0160470
691.727	0.0160210
691.806	0.0159864
691.884	0.0159869
691.962	0.0160896
692.040	0.0159457
692.118	0.0161005
692.196	0.0159300
692.274	0.0159410
692.352	0.0158941
692.431	0.0159652
692.509	0.0158305
692.587	0.0158910
692.665	0.0157845
692.743	0.0158109
692.821	0.0158725
692.899	0.0159428
692.977	0.0159320
693.056	0.0159719
693.134	0.0159342
693.212	0.0160199
693.290	0.0159785
693.368	0.0160295
693.446	0.0158910
693.524	0.0158801
693.602	0.0158159
693.681	0.0159002
693.759	0.0161326
693.837	0.0159475
693.915	0.0159818
693.993	0.0160615
694.071	0.0161388
694.149	0.0160157
694.227	0.0162610
694.306	0.0161232
694.384	0.0160847
694.462	0.0161707
694.540	0.0161659
694.618	0.0162211
694.696	0.0160899
694.774	0.0161217
694.852	0.0161187
694.931	0.0162723
695.009	0.0160837
695.087	0.0160532
695.165	0.0161843
695.243	0.0161619
695.321	0.0161665
695.399	0.0161288
695.477	0.0160755
695.556	0.0159762
695.634	0.0159932
695.712	0.0160938
695.790	0.0161798
695.868	0.0161388
695.946	0.0160931
696.024	0.0161107
696.102	0.0160499
696.181	0.0161416
696.259	0.0160638
696.337	0.0159469
696.415	0.0159760
696.493	0.0160332
696.571	0.0160389
696.649	0.0159819
696.727	0.0158518
696.806	0.0160065
696.884	0.0160242
696.962	0.0159252
697.040	0.0158842
697.118	0.0160439
697.196	0.0159818
697.274	0.0159841
697.352	0.0159727
697.431	0.0159030
697.509	0.0158817
697.587	0.0161429
697.665	0.0159779
697.743	0.0159450
697.821	0.0160550
697.899	0.0160517
697.977	0.0160170
698.056	0.0161007
698.134	0.0159286
698.212	0.0159543
698.290	0.0159222
698.368	0.0158928
698.446	0.0159610
698.524	0.0159980
698.602	0.0158726
698.681	0.0158301
698.759	0.0159184
698.837	0.0161115
698.915	0.0160654
698.993	0.0158784
699.071	0.0158547
699.149	0.0158984
699.227	0.0159556
699.306	0.0159201
699.384	0.0158879
699.462	0.0160728
699.540	0.0160293
699.618	0.0159789
699.696	0.0160824
699.774	0.0160548
699.852	0.0160207
699.931	0.0159669
700.009	0.0161049
700.087	0.0161768
700.165	0.0162752
700.243	0.0160715
700.321	0.0160223
700.399	0.0160679
700.477	0.0161517
700.556	0.0161131
700.634	0.0161263
700.712	0.0161315
700.790	0.0162020
700.868	0.0161667
700.946	0.0160554
701.024	0.0160940
701.102	0.0162034
701.181	0.0160687
701.259	0.0160954
701.337	0.0161617
701.415	0.0160571
701.493	0.0160539
701.571	0.0161244
701.649	0.0158961
701.727	0.0161377
701.806	0.0160225
701.884	0.0160432
701.962	0.0159866
702.040	0.0160363
702.118	0.0159929
702.196	0.0161118
702.274	0.0160881
702.352	0.0159866
702.431	0.0160793
702.509	0.0161073
702.587	0.0161666
702.665	0.0160812
702.743	0.0161609
702.821	0.0160711
702.899	0.0159870
702.977	0.0159685
703.056	0.0161607
703.134	0.0161040
703.212	0.0158674
703.290	0.0160261
703.368	0.0161960
703.446	0.0161271
703.524	0.0160085
703.602	0.0159111
703.681	0.0159570
703.759	0.0161339
703.837	0.0160603
703.915	0.0159431
703.993	0.0159798
704.071	0.0159521
704.149	0.0158380
704.227	0.0159920
704.306	0.0160869
704.384	0.0160320
704.462	0.0160123
704.540	0.0160098
704.618	0.0160488
704.696	0.0162120
704.774	0.0160529
704.852	0.0160739
704.931	0.0161691
705.009	0.0161572
705.087	0.0162561
705.165	0.0162952
705.243	0.0162947
705.321	0.0160755
705.399	0.0162090
705.477	0.0163541
705.556	0.0163515
705.634	0.0163378
705.712	0.0161874
705.790	0.0161767
705.868	0.0161539
705.946	0.0160870
706.024	0.0161732
706.102	0.0161390
706.181	0.0162566
706.259	0.0160476
706.337	0.0161191
706.415	0.0161397
706.493	0.0160970
706.571	0.0162459
706.649	0.0160365
706.727	0.0160250
706.806	0.0160818
706.884	0.0160115
706.962	0.0161524
707.040	0.0160600
707.118	0.0160094
707.196	0.0160748
707.274	0.0160616
707.352	0.0160840
707.431	0.0161118
707.509	0.0160429
707.587	0.0161803
707.665	0.0160315
707.743	0.0159511
707.821	0.0161046
707.899	0.0161098
707.977	0.0160764
708.056	0.0160006
708.134	0.0160155
708.212	0.0160446
708.290	0.0160091
708.368	0.0159850
708.446	0.0159985
708.524	0.0159099
708.602	0.0160066
708.681	0.0160741
708.759	0.0160629
708.837	0.0160344
708.915	0.0160510
708.993	0.0159671
709.071	0.0159841
709.149	0.0160503
709.227	0.0160813
709.306	0.0161089
709.384	0.0160452
709.462	0.0159632
709.540	0.0159521
709.618	0.0161591
709.696	0.0161839
709.774	0.0161064
709.852	0.0160770
709.931	0.0161540
710.009	0.0161055
710.087	0.0160883
710.165	0.0161341
710.243	0.0161403
710.321	0.0161774
710.399	0.0161584
710.477	0.0159898
710.556	0.0161902
710.634	0.0161717
710.712	0.0160832
710.790	0.0161794
710.868	0.0160448
710.946	0.0160217
711.024	0.0160517
711.102	0.0161823
711.181	0.0160224
711.259	0.0160220
711.337	0.0161555
711.415	0.0160677
711.493	0.0160702
711.571	0.0160158
711.649	0.0159689
711.727	0.0160255
711.806	0.0158900
711.884	0.0159715
711.962	0.0159735
712.040	0.0159286
712.118	0.0158220
712.196	0.0158267
712.274	0.0159305
712.352	0.0158709
712.431	0.0159380
712.509	0.0160121
712.587	0.0159746
712.665	0.0159033
712.743	0.0159460
712.821	0.0161012
712.899	0.0160182
712.977	0.0160609
713.056	0.0159775
713.134	0.0160778
713.212	0.0160572
713.290	0.0161294
713.368	0.0162134
713.446	0.0160659
713.524	0.0160736
713.602	0.0161494
713.681	0.0162662
713.759	0.0161184
713.837	0.0161861
713.915	0.0162517
713.993	0.0162125
714.071	0.0161225
714.149	0.0161745
714.227	0.0162495
714.306	0.0163644
714.384	0.0161768
714.462	0.0160143
714.540	0.0161913
714.618	0.0161307
714.696	0.0161739
714.774	0.0161027
714.852	0.0161430
714.931	0.0161471
715.009	0.0160286
715.087	0.0162401
715.165	0.0161137
715.243	0.0160484
715.321	0.0162035
715.399	0.0160986
715.477	0.0160994
715.556	0.0161327
715.634	0.0160683
715.712	0.0160898
715.790	0.0160627
715.868	0.0160603
715.946	0.0161102
716.024	0.0161671
716.102	0.0162315
716.181	0.0160655
716.259	0.0159843
716.337	0.0161651
716.415	0.0161443
716.493	0.0160650
716.571	0.0162624
716.649	0.0161938
716.727	0.0162275
716.806	0.0161288
716.884	0.0160268
716.962	0.0162340
717.040	0.0161591
717.118	0.0162766
717.196	0.0162476
717.274	0.0161965
717.352	0.0162033
717.431	0.0161203
717.509	0.0161336
717.587	0.0160529
717.665	0.0160508
717.743	0.0161360
717.821	0.0160442
717.899	0.0159549
717.977	0.0158661
718.056	0.0159140
718.134	0.0160544
718.212	0.0158835
718.290	0.0159196
718.368	0.0159596
718.446	0.0158947
718.524	0.0158837
718.602	0.0159477
718.681	0.0159177
718.759	0.0160184
718.837	0.0159756
718.915	0.0161375
718.993	0.0161209
719.071	0.0161169
719.149	0.0160204
719.227	0.0160204
719.306	0.0163022
719.384	0.0161883
719.462	0.0161025
719.540	0.0162144
719.618	0.0162168
719.696	0.0162812
719.774	0.0162237
719.852	0.0161214
719.931	0.0162946
720.009	0.0161897
720.087	0.0162457
720.165	0.0161719
720.243	0.0160307
720.321	0.0161070
720.399	0.0160739
720.477	0.0161004
720.556	0.0159869
720.634	0.0160772
720.712	0.0160557
720.790	0.0160567
720.868	0.0159342
720.946	0.0160671
721.024	0.0161639
721.102	0.0160771
721.181	0.0160152
721.259	0.0161462
721.337	0.0161008
721.415	0.0160941
721.493	0.0160273
721.571	0.0160299
721.649	0.0161802
721.727	0.0161308
721.806	0.0160703
721.884	0.0161929
721.962	0.0161256
722.040	0.0161424
722.118	0.0160317
722.196	0.0160025
722.274	0.0160342
722.352	0.0160511
722.431	0.0160835
722.509	0.0161241
722.587	0.0161604
722.665	0.0160572
722.743	0.0160758
722.821	0.0160825
722.899	0.0160002
722.977	0.0160188
723.056	0.0161157
723.134	0.0161643
723.212	0.0161081
723.290	0.0160847
723.368	0.0162849
723.446	0.0159710
723.524	0.0160458
723.602	0.0160053
723.681	0.0160884
723.759	0.0161958
723.837	0.0160684
723.915	0.0162180
723.993	0.0161017
724.071	0.0161148
724.149	0.0161252
724.227	0.0161071
724.306	0.0161182
724.384	0.0161145
724.462	0.0162173
724.540	0.0160983
724.618	0.0160448
724.696	0.0160754
724.774	0.0161910
724.852	0.0160316
724.931	0.0160665
725.009	0.0161588
725.087	0.0160888
725.165	0.0160750
725.243	0.0160719
725.321	0.0161578
725.399	0.0163338
725.477	0.0161636
725.556	0.0161678
725.634	0.0160611
725.712	0.0160941
725.790	0.0160281
725.868	0.0160963
725.946	0.0159987
726.024	0.0161226
726.102	0.0161269
726.181	0.0161107
726.259	0.0160309
726.337	0.0160709
726.415	0.0159373
726.493	0.0161604
726.571	0.0160562
726.649	0.0160168
726.727	0.0160603
726.806	0.0162925
726.884	0.0160053
726.962	0.0160033
727.040	0.0160599
727.118	0.0162119
727.196	0.0161104
727.274	0.0160669
727.352	0.0161517
727.431	0.0160908
727.509	0.0161971
727.587	0.0162069
727.665	0.0161265
727.743	0.0162486
727.821	0.0162658
727.899	0.0163354
727.977	0.0162675
728.056	0.0162644
728.134	0.0162581
728.212	0.0160915
728.290	0.0161681
728.368	0.0163255
728.446	0.0161830
728.524	0.0162961
728.602	0.0161031
728.681	0.0162926
728.759	0.0162215
728.837	0.0160891
728.915	0.0162083
728.993	0.0160931
729.071	0.0161723
729.149	0.0160755
729.227	0.0160986
729.306	0.0160764
729.384	0.0160893
729.462	0.0161098
729.540	0.0159425
729.618	0.0160484
729.696	0.0160968
729.774	0.0160197
729.852	0.0158616
729.931	0.0160975
730.009	0.0161437
730.087	0.0160353
730.165	0.0158408
730.243	0.0159380
730.321	0.0160619
730.399	0.0158995
730.477	0.0159369
730.556	0.0159576
730.634	0.0160477
730.712	0.0159452
730.790	0.0158555
730.868	0.0159286
730.946	0.0159872
731.024	0.0159708
731.102	0.0160049
731.181	0.0161472
731.259	0.0160938
731.337	0.0161082
731.415	0.0162208
731.493	0.0162258
731.571	0.0163105
731.649	0.0161828
731.727	0.0160551
731.806	0.0162025
731.884	0.0160791
731.962	0.0161073
732.040	0.0161447
732.118	0.0160872
732.196	0.0160951
732.274	0.0160854
732.352	0.0161982
732.431	0.0159702
732.509	0.0159951
732.587	0.0160415
732.665	0.0159844
732.743	0.0160645
732.821	0.0160507
732.899	0.0161253
732.977	0.0158777
733.056	0.0160771
733.134	0.0160816
733.212	0.0159654
733.290	0.0160657
733.368	0.0160815
733.446	0.0159438
733.524	0.0161309
733.602	0.0159907
733.681	0.0160999
733.759	0.0159439
733.837	0.0160556
733.915	0.0159669
733.993	0.0159365
734.071	0.0159990
734.149	0.0160295
734.227	0.0161073
734.306	0.0160002
734.384	0.0159100
734.462	0.0160988
734.540	0.0161127
734.618	0.0160361
734.696	0.0161324
734.774	0.0161619
734.852	0.0160255
734.931	0.0160987
735.009	0.0161835
735.087	0.0161880
735.165	0.0162629
735.243	0.0160943
735.321	0.0160796
735.399	0.0163480
735.477	0.0162299
735.556	0.0162853
735.634	0.0163164
735.712	0.0161916
735.790	0.0161252
735.868	0.0162693
735.946	0.0163690
736.024	0.0162738
736.102	0.0162626
736.181	0.0162499
736.259	0.0161683
736.337	0.0162496
736.415	0.0162202
736.493	0.0162363
736.571	0.0162440
736.649	0.0162163
736.727	0.0160839
736.806	0.0160606
736.884	0.0160571
736.962	0.0160785
737.040	0.0162070
737.118	0.0160711
737.196	0.0161768
737.274	0.0160903
737.352	0.0160480
737.431	0.0161481
737.509	0.0162029
737.587	0.0162069
737.665	0.0161490
737.743	0.0163075
737.821	0.0160938
737.899	0.0161763
737.977	0.0161645
738.056	0.0162515
738.134	0.0160397
738.212	0.0160271
738.290	0.0160916
738.368	0.0160612
738.446	0.0162169
738.524	0.0159184
738.602	0.0160600
738.681	0.0160064
738.759	0.0158603
738.837	0.0159156
738.915	0.0159813
738.993	0.0161065
739.071	0.0159596
739.149	0.0159493
739.227	0.0160299
739.306	0.0159700
739.384	0.0160432
739.462	0.0159215
739.540	0.0160926
739.618	0.0160327
739.696	0.0161249
739.774	0.0161648
739.852	0.0161482
739.931	0.0161199
740.009	0.0160525
740.087	0.0161303
740.165	0.0162476
740.243	0.0162731
740.321	0.0161357
740.399	0.0162640
740.477	0.0162868
740.556	0.0162373
740.634	0.0161061
740.712	0.0160943
740.790	0.0161324
740.868	0.0160718
740.946	0.0161452
741.024	0.0161069
741.102	0.0160728
741.181	0.0161603
741.259	0.0161034
741.337	0.0161985
741.415	0.0161298
741.493	0.0161633
741.571	0.0161864
741.649	0.0161595
741.727	0.0160550
741.806	0.0160213
741.884	0.0161166
741.962	0.0160724
742.040	0.0161456
742.118	0.0160130
742.196	0.0161813
742.274	0.0160856
742.352	0.0159405
742.431	0.0161266
742.509	0.0160860
742.587	0.0159148
742.665	0.0159864
742.743	0.0159927
742.821	0.0162180
742.899	0.0159394
742.977	0.0158965
743.056	0.0160239
743.134	0.0160522
743.212	0.0161158
743.290	0.0159910
743.368	0.0161721
743.446	0.0159520
743.524	0.0159869
743.602	0.0161837
743.681	0.0159957
743.759	0.0162516
743.837	0.0160992
743.915	0.0161428
743.993	0.0161238
744.071	0.0159813
744.149	0.0160240
744.227	0.0162463
744.306	0.0161023
744.384	0.0161514
744.462	0.0161551
744.540	0.0162484
744.618	0.0161319
744.696	0.0161093
744.774	0.0161697
744.852	0.0161940
744.931	0.0161279
745.009	0.0161688
745.087	0.0160247
745.165	0.0161446
745.243	0.0161240
745.321	0.0161587
745.399	0.0160641
745.477	0.0161467
745.556	0.0160776
745.634	0.0160754
745.712	0.0161176
745.790	0.0162016
745.868	0.0159120
745.946	0.0160642
746.024	0.0161270
746.102	0.0160892
746.181	0.0160696
746.259	0.0160106
746.337	0.0161716
746.415	0.0161063
746.493	0.0159279
746.571	0.0159785
746.649	0.0160702
746.727	0.0160412
746.806	0.0160456
746.884	0.0160032
746.962	0.0160601
747.040	0.0160115
747.118	0.0161972
747.196	0.0159808
747.274	0.0160154
747.352	0.0161119
747.431	0.0159795
747.509	0.0159229
747.587	0.0159720
747.665	0.0159661
747.743	0.0161531
747.821	0.0159479
747.899	0.0160635
747.977	0.0160519
748.056	0.0159682
748.134	0.0160155
748.212	0.0160944
748.290	0.0161411
748.368	0.0159889
748.446	0.0158373
748.524	0.0159297
748.602	0.0159831
748.681	0.0160468
748.759	0.0160266
748.837	0.0160258
748.915	0.0159147
748.993	0.0160213
749.071	0.0161111
749.149	0.0161543
749.227	0.0159493
749.306	0.0160346
749.384	0.0160152
749.462	0.0160303
749.540	0.0159144
749.618	0.0158897
749.696	0.0159442
749.774	0.0159219
749.852	0.0159619
749.931	0.0158652
750.009	0.0159638
750.087	0.0159592
750.165	0.0159505
750.243	0.0160828
750.321	0.0160289
750.399	0.0158292
750.477	0.0159588
750.556	0.0161243
750.634	0.0161565
750.712	0.0160766
750.790	0.0160811
750.868	0.0159969
750.946	0.0161222
751.024	0.0160103
751.102	0.0160884
751.181	0.0161802
751.259	0.0162857
751.337	0.0162138
751.415	0.0161023
751.493	0.0160583
751.571	0.0162001
751.649	0.0162032
751.727	0.0160413
751.806	0.0161063
751.884	0.0160743
751.962	0.0161676
752.040	0.0159983
752.118	0.0162434
752.196	0.0162222
752.274	0.0160990
752.352	0.0161909
752.431	0.0159830
752.509	0.0161457
752.587	0.0161293
752.665	0.0161201
752.743	0.0161071
752.821	0.0161678
752.899	0.0161633
752.977	0.0161407
753.056	0.0159687
753.134	0.0159827
753.212	0.0159744
753.290	0.0162131
753.368	0.0159429
753.446	0.0161312
753.524	0.0160155
753.602	0.0160305
753.681	0.0158649
753.759	0.0160933
753.837	0.0160101
753.915	0.0160177
753.993	0.0161362
754.071	0.0159377
754.149	0.0161280
754.227	0.0161003
754.306	0.0159028
754.384	0.0158710
754.462	0.0159389
754.540	0.0160615
754.618	0.0159679
754.696	0.0159094
754.774	0.0159879
754.852	0.0159590
754.931	0.0159161
755.009	0.0160938
755.087	0.0160008
755.165	0.0159851
755.243	0.0160653
755.321	0.0159676
755.399	0.0160574
755.477	0.0162147
755.556	0.0162334
755.634	0.0161906
755.712	0.0160992
755.790	0.0162156
755.868	0.0161264
755.946	0.0162487
756.024	0.0162810
756.102	0.0161987
756.181	0.0161497
756.259	0.0162777
756.337	0.0163033
756.415	0.0161417
756.493	0.0161417
756.571	0.0161391
756.649	0.0162038
756.727	0.0160381
756.806	0.0160785
756.884	0.0161684
756.962	0.0161167
757.040	0.0161515
757.118	0.0161475
757.196	0.0162206
757.274	0.0161250
757.352	0.0162399
757.431	0.0160810
757.509	0.0160782
757.587	0.0159815
757.665	0.0160236
757.743	0.0159975
757.821	0.0161011
757.899	0.0160270
757.977	0.0160486
758.056	0.0160262
758.134	0.0162771
758.212	0.0160161
758.290	0.0160844
758.368	0.0160304
758.446	0.0161356
758.524	0.0161172
758.602	0.0160284
758.681	0.0159873
758.759	0.0160304
758.837	0.0159195
758.915	0.0160936
758.993	0.0160117
759.071	0.0161411
759.149	0.0161823
759.227	0.0161761
759.306	0.0161227
759.384	0.0159790
759.462	0.0161888
759.540	0.0161170
759.618	0.0160538
759.696	0.0160082
759.774	0.0160475
759.852	0.0160383
759.931	0.0160670
760.009	0.0160795
760.087	0.0162310
760.165	0.0159589
760.243	0.0161426
760.321	0.0160611
760.399	0.0160838
760.477	0.0159737
760.556	0.0160872
760.634	0.0163142
760.712	0.0161095
760.790	0.0160310
760.868	0.0160927
760.946	0.0161071
761.024	0.0161491
761.102	0.0162579
761.181	0.0162151
761.259	0.0160305
761.337	0.0159866
761.415	0.0161311
761.493	0.0161064
761.571	0.0158835
761.649	0.0159795
761.727	0.0160780
761.806	0.0161176
761.884	0.0159552
761.962	0.0159980
762.040	0.0161533
762.118	0.0160123
762.196	0.0161044
762.274	0.0161720
762.352	0.0160815
762.431	0.0161982
762.509	0.0160895
762.587	0.0159623
762.665	0.0158976
762.743	0.0159822
762.821	0.0161821
762.899	0.0160716
762.977	0.0161469
763.056	0.0160270
763.134	0.0160543
763.212	0.0161716
763.290	0.0161222
763.368	0.0160147
763.446	0.0159374
763.524	0.0160497
763.602	0.0160916
763.681	0.0160041
763.759	0.0160083
763.837	0.0160814
763.915	0.0161106
763.993	0.0160102
764.071	0.0159644
764.149	0.0159795
764.227	0.0160107
764.306	0.0160804
764.384	0.0159403
764.462	0.0160493
764.540	0.0162027
764.618	0.0160867
764.696	0.0160007
764.774	0.0161414
764.852	0.0159494
764.931	0.0161587
765.009	0.0162039
765.087	0.0161073
765.165	0.0159612
765.243	0.0160800
765.321	0.0160120
765.399	0.0161172
765.477	0.0160888
765.556	0.0161907
765.634	0.0161298
765.712	0.0160583
765.790	0.0162427
765.868	0.0160284
765.946	0.0160211
766.024	0.0161004
766.102	0.0161070
766.181	0.0159821
766.259	0.0160244
766.337	0.0159668
766.415	0.0160590
766.493	0.0161310
766.571	0.0161716
766.649	0.0161141
766.727	0.0161227
766.806	0.0161992
766.884	0.0160588
766.962	0.0160932
767.040	0.0161823
767.118	0.0160083
767.196	0.0160883
767.274	0.0161331
767.352	0.0160928
767.431	0.0161533
767.509	0.0161550
767.587	0.0160600
767.665	0.0159946
767.743	0.0160306
767.821	0.0161208
767.899	0.0160878
767.977	0.0160927
768.056	0.0160121
768.134	0.0161847
768.212	0.0161004
768.290	0.0159839
768.368	0.0160472
768.446	0.0159618
768.524	0.0159624
768.602	0.0159978
768.681	0.0159718
768.759	0.0159962
768.837	0.0159649
768.915	0.0161397
768.993	0.0160462
769.071	0.0159173
769.149	0.0159985
769.227	0.0159225
769.306	0.0159698
769.384	0.0159431
769.462	0.0160422
769.540	0.0160715
769.618	0.0161406
769.696	0.0160416
769.774	0.0159794
769.852	0.0160281
769.931	0.0159371
770.009	0.0160181
770.087	0.0159673
770.165	0.0159438
770.243	0.0161430
770.321	0.0159745
770.399	0.0159422
770.477	0.0159891
770.556	0.0159163
770.634	0.0159773
770.712	0.0160158
770.790	0.0159714
770.868	0.0159441
770.946	0.0158673
771.024	0.0160296
771.102	0.0159281
771.181	0.0160086
771.259	0.0160355
771.337	0.0159863
771.415	0.0158941
771.493	0.0159335
771.571	0.0158779
771.649	0.0159907
771.727	0.0160766
771.806	0.0160612
771.884	0.0160148
771.962	0.0159991
772.040	0.0159290
772.118	0.0160342
772.196	0.0161113
772.274	0.0160947
772.352	0.0160242
772.431	0.0159800
772.509	0.0159499
772.587	0.0159606
772.665	0.0160757
772.743	0.0161335
772.821	0.0159690
772.899	0.0160864
772.977	0.0160393
773.056	0.0160033
773.134	0.0160548
773.212	0.0160045
773.290	0.0161589
773.368	0.0159784
773.446	0.0159824
773.524	0.0160775
773.602	0.0161874
773.681	0.0160814
773.759	0.0160012
773.837	0.0160726
773.915	0.0161232
773.993	0.0159885
774.071	0.0159849
774.149	0.0161752
774.227	0.0160258
774.306	0.0159990
774.384	0.0159377
774.462	0.0160966
774.540	0.0160835
774.618	0.0160743
774.696	0.0159737
774.774	0.0160045
774.852	0.0160295
774.931	0.0160428
775.009	0.0160143
775.087	0.0160370
775.165	0.0160078
775.243	0.0161084
775.321	0.0159335
775.399	0.0160113
775.477	0.0160288
775.556	0.0160688
775.634	0.0160419
775.712	0.0160541
775.790	0.0161140
775.868	0.0160815
775.946	0.0161127
776.024	0.0161023
776.102	0.0161013
776.181	0.0161475
776.259	0.0161879
776.337	0.0161510
776.415	0.0160338
776.493	0.0161366
776.571	0.0160574
776.649	0.0161022
776.727	0.0161189
776.806	0.0161141
776.884	0.0161283
776.962	0.0161999
777.040	0.0160199
777.118	0.0161256
777.196	0.0162179
777.274	0.0161183
777.352	0.0158672
777.431	0.0161212
777.509	0.0160813
777.587	0.0160326
777.665	0.0160239
777.743	0.0160700
777.821	0.0160024
777.899	0.0161131
777.977	0.0161398
778.056	0.0160096
778.134	0.0160387
778.212	0.0160893
778.290	0.0160387
778.368	0.0161158
778.446	0.0163179
778.524	0.0160706
778.602	0.0159726
778.681	0.0160772
778.759	0.0161144
778.837	0.0160944
778.915	0.0161331
778.993	0.0161618
779.071	0.0161616
779.149	0.0161900
779.227	0.0161066
779.306	0.0161852
779.384	0.0163191
779.462	0.0162410
779.540	0.0161755
779.618	0.0161563
779.696	0.0161803
779.774	0.0163126
779.852	0.0161949
779.931	0.0161944
780.009	0.0161720
780.087	0.0161842
780.165	0.0161637
780.243	0.0162032
780.321	0.0162366
780.399	0.0161626
780.477	0.0162227
780.556	0.0163277
780.634	0.0161324
780.712	0.0162791
780.790	0.0162486
780.868	0.0162276
780.946	0.0163633
781.024	0.0162178
781.102	0.0161533
781.181	0.0162043
781.259	0.0160577
781.337	0.0162336
781.415	0.0161877
781.493	0.0161526
781.571	0.0160741
781.649	0.0161768
781.727	0.0163229
781.806	0.0161987
781.884	0.0160916
781.962	0.0160954
782.040	0.0162023
782.118	0.0162405
782.196	0.0162553
782.274	0.0162437
782.352	0.0161536
782.431	0.0161344
782.509	0.0162546
782.587	0.0161629
782.665	0.0162014
782.743	0.0161727
782.821	0.0161729
782.899	0.0162543
782.977	0.0161587
783.056	0.0162273
783.134	0.0161193
783.212	0.0160428
783.290	0.0160714
783.368	0.0160631
783.446	0.0159829
783.524	0.0161260
783.602	0.0159422
783.681	0.0160865
783.759	0.0160653
783.837	0.0160302
783.915	0.0160329
783.993	0.0160989
784.071	0.0161530
784.149	0.0160735
784.227	0.0159027
784.306	0.0160423
784.384	0.0160681
784.462	0.0160715
784.540	0.0160255
784.618	0.0159247
784.696	0.0160394
784.774	0.0161443
784.852	0.0159950
784.931	0.0159014
785.009	0.0159728
785.087	0.0159956
785.165	0.0159168
785.243	0.0159565
785.321	0.0159378
785.399	0.0160042
785.477	0.0160109
785.556	0.0160312
785.634	0.0160030
785.712	0.0160193
785.790	0.0159740
785.868	0.0160179
785.946	0.0159555
786.024	0.0159536
786.102	0.0159940
786.181	0.0159582
786.259	0.0160227
786.337	0.0160007
786.415	0.0160298
786.493	0.0159565
786.571	0.0161602
786.649	0.0161195
786.727	0.0160231
786.806	0.0161572
786.884	0.0159719
786.962	0.0160114
787.040	0.0160437
787.118	0.0159785
787.196	0.0160242
787.274	0.0160966
787.352	0.0160068
787.431	0.0160251
787.509	0.0161977
787.587	0.0160921
787.665	0.0159626
787.743	0.0160400
787.821	0.0160610
787.899	0.0160734
787.977	0.0160752
788.056	0.0160508
788.134	0.0161511
788.212	0.0161209
788.290	0.0161393
788.368	0.0159634
788.446	0.0160862
788.524	0.0159889
788.602	0.0160654
788.681	0.0161103
788.759	0.0160658
788.837	0.0160735
788.915	0.0160378
788.993	0.0160938
789.071	0.0160945
789.149	0.0160562
789.227	0.0161164
789.306	0.0160824
789.384	0.0161385
789.462	0.0161086
789.540	0.0161591
789.618	0.0161559
789.696	0.0160023
789.774	0.0161626
789.852	0.0161378
789.931	0.0161462
790.009	0.0161475
790.087	0.0162565
790.165	0.0160918
790.243	0.0161755
790.321	0.0160942
790.399	0.0159727
790.477	0.0161176
790.556	0.0161351
790.634	0.0161456
790.712	0.0161219
790.790	0.0160519
790.868	0.0161258
790.946	0.0159408
791.024	0.0160320
791.102	0.0160724
791.181	0.0160597
791.259	0.0160896
791.337	0.0159556
791.415	0.0161449
791.493	0.0160442
791.571	0.0160132
791.649	0.0160930
791.727	0.0160204
791.806	0.0159138
791.884	0.0160599
791.962	0.0159709
792.040	0.0161549
792.118	0.0161111
792.196	0.0161113
792.274	0.0159077
792.352	0.0159513
792.431	0.0159499
792.509	0.0160223
792.587	0.0159496
792.665	0.0160250
792.743	0.0161133
792.821	0.0160754
792.899	0.0160807
792.977	0.0160468
793.056	0.0159743
793.134	0.0160686
793.212	0.0160266
793.290	0.0159743
793.368	0.0161270
793.446	0.0161477
793.524	0.0161371
793.602	0.0159902
793.681	0.0161984
793.759	0.0160045
793.837	0.0161554
793.915	0.0161084
793.993	0.0160851
794.071	0.0160802
794.149	0.0161330
794.227	0.0160582
794.306	0.0160053
794.384	0.0161496
794.462	0.0160123
794.540	0.0161629
794.618	0.0161111
794.696	0.0161620
794.774	0.0160674
794.852	0.0161282
794.931	0.0160814
795.009	0.0160909
795.087	0.0161649
795.165	0.0161081
795.243	0.0159685
795.321	0.0161395
795.399	0.0161852
795.477	0.0161306
795.556	0.0160782
795.634	0.0161884
795.712	0.0160373
795.790	0.0160879
795.868	0.0162596
795.946	0.0161488
796.024	0.0162570
796.102	0.0161378
796.181	0.0161021
796.259	0.0161560
796.337	0.0162037
796.415	0.0161710
796.493	0.0160199
796.571	0.0161733
796.649	0.0161097
796.727	0.0161382
796.806	0.0160403
796.884	0.0160286
796.962	0.0161778
797.040	0.0160619
797.118	0.0159898
797.196	0.0160842
797.274	0.0160779
797.352	0.0161596
797.431	0.0162738
797.509	0.0161494
797.587	0.0160094
797.665	0.0160595
797.743	0.0160743
797.821	0.0160634
797.899	0.0160210
797.977	0.0162656
798.056	0.0162638
798.134	0.0161099
798.212	0.0161501
798.290	0.0160581
798.368	0.0160563
798.446	0.0161566
798.524	0.0161363
798.602	0.0161667
798.681	0.0161861
798.759	0.0160886
798.837	0.0160645
798.915	0.0162466
798.993	0.0160768
799.071	0.0161206
799.149	0.0161938
799.227	0.0161748
799.306	0.0160571
799.384	0.0161316
799.462	0.0162522
799.540	0.0161706
799.618	0.0160632
799.696	0.0160564
799.774	0.0159681
799.852	0.0161017
799.931	0.0161446
800.009	0.0161089
800.087	0.0160470
800.165	0.0162093
800.243	0.0161142
800.321	0.0160587
800.399	0.0161829
800.477	0.0160414
800.556	0.0160651
800.634	0.0160652
800.712	0.0160480
800.790	0.0160229
800.868	0.0161173
800.946	0.0161540
801.024	0.0161947
801.102	0.0160754
801.181	0.0160895
801.259	0.0161770
801.337	0.0161008
801.415	0.0160119
801.493	0.0160925
801.571	0.0161271
801.649	0.0161391
801.727	0.0161308
801.806	0.0162031
801.884	0.0161289
801.962	0.0161639
802.040	0.0161114
802.118	0.0161217
802.196	0.0160851
802.274	0.0161314
802.352	0.0160776
802.431	0.0160242
802.509	0.0162484
802.587	0.0161929
802.665	0.0160938
802.743	0.0162309
802.821	0.0162070
802.899	0.0162054
802.977	0.0160941
803.056	0.0161018
803.134	0.0162577
803.212	0.0162868
803.290	0.0161619
803.368	0.0161144
803.446	0.0161411
803.524	0.0160969
803.602	0.0160342
803.681	0.0159447
803.759	0.0160294
803.837	0.0160964
803.915	0.0161018
803.993	0.0161907
804.071	0.0160745
804.149	0.0160809
804.227	0.0161720
804.306	0.0160652
804.384	0.0159544
804.462	0.0161349
804.540	0.0162737
804.618	0.0162618
804.696	0.0160929
804.774	0.0160749
804.852	0.0160008
804.931	0.0160809
805.009	0.0160263
805.087	0.0160666
805.165	0.0162437
805.243	0.0161613
805.321	0.0160810
805.399	0.0160678
805.477	0.0161539
805.556	0.0161363
805.634	0.0161622
805.712	0.0161473
805.790	0.0160774
805.868	0.0161483
805.946	0.0161467
806.024	0.0160754
806.102	0.0161694
806.181	0.0161028
806.259	0.0161623
806.337	0.0161399
806.415	0.0160818
806.493	0.0161610
806.571	0.0163641
806.649	0.0162007
806.727	0.0160751
806.806	0.0162566
806.884	0.0162523
806.962	0.0163721
807.040	0.0163580
807.118	0.0161504
807.196	0.0161504
807.274	0.0161299
807.352	0.0161410
807.431	0.0161542
807.509	0.0161059
807.587	0.0162016
807.665	0.0162616
807.743	0.0160488
807.821	0.0161025
807.899	0.0161094
807.977	0.0160571
808.056	0.0160724
808.134	0.0161115
808.212	0.0161150
808.290	0.0161868
808.368	0.0161038
808.446	0.0160226
808.524	0.0159969
808.602	0.0159898
808.681	0.0161298
808.759	0.0161187
808.837	0.0160220
808.915	0.0160986
808.993	0.0161587
809.071	0.0161782
809.149	0.0160370
809.227	0.0161121
809.306	0.0161957
809.384	0.0161421
809.462	0.0160651
809.540	0.0160108
809.618	0.0159781
809.696	0.0161970
809.774	0.0161001
809.852	0.0161426
809.931	0.0160703
810.009	0.0161115
810.087	0.0160860
810.165	0.0161591
810.243	0.0162447
810.321	0.0161086
810.399	0.0161050
810.477	0.0161893
810.556	0.0162326
810.634	0.0161297
810.712	0.0160677
810.790	0.0160030
810.868	0.0160214
810.946	0.0161548
811.024	0.0161311
811.102	0.0161972
811.181	0.0161411
811.259	0.0161586
811.337	0.0161431
811.415	0.0162177
811.493	0.0162554
811.571	0.0161505
811.649	0.0161725
811.727	0.0160912
811.806	0.0161486
811.884	0.0160865
811.962	0.0160541
812.040	0.0160822
812.118	0.0161245
812.196	0.0161254
812.274	0.0160864
812.352	0.0161151
812.431	0.0160229
812.509	0.0161185
812.587	0.0161342
812.665	0.0160856
812.743	0.0161188
812.821	0.0161327
812.899	0.0161720
812.977	0.0162237
813.056	0.0162334
813.134	0.0162453
813.212	0.0161598
813.290	0.0161294
813.368	0.0162815
813.446	0.0162395
813.524	0.0160502
813.602	0.0160691
813.681	0.0161948
813.759	0.0162107
813.837	0.0162598
813.915	0.0161584
813.993	0.0161823
814.071	0.0162872
814.149	0.0161233
814.227	0.0161004
814.306	0.0160462
814.384	0.0161311
814.462	0.0161147
814.540	0.0160825
814.618	0.0159581
814.696	0.0159312
814.774	0.0160916
814.852	0.0160517
814.931	0.0160690
815.009	0.0161401
815.087	0.0161119
815.165	0.0160601
815.243	0.0159724
815.321	0.0160645
815.399	0.0162894
815.477	0.0160429
815.556	0.0159113
815.634	0.0158724
815.712	0.0160030
815.790	0.0161197
815.868	0.0160744
815.946	0.0160915
816.024	0.0160070
816.102	0.0159445
816.181	0.0159277
816.259	0.0160258
816.337	0.0160243
816.415	0.0161111
816.493	0.0162100
816.571	0.0161139
816.649	0.0161320
816.727	0.0160771
816.806	0.0159851
816.884	0.0160413
816.962	0.0160683
817.040	0.0160278
817.118	0.0161171
817.196	0.0160777
817.274	0.0161034
817.352	0.0159824
817.431	0.0162595
817.509	0.0161751
817.587	0.0160368
817.665	0.0161233
817.743	0.0159164
817.821	0.0161128
817.899	0.0163467
817.977	0.0161924
818.056	0.0161004
818.134	0.0160720
818.212	0.0162280
818.290	0.0163079
818.368	0.0160003
818.446	0.0161761
818.524	0.0161397
818.602	0.0161783
818.681	0.0161802
818.759	0.0161408
818.837	0.0161102
818.915	0.0162243
818.993	0.0160669
819.071	0.0162372
819.149	0.0161963
819.227	0.0162146
819.306	0.0162231
819.384	0.0163289
819.462	0.0161538
819.540	0.0162527
819.618	0.0162052
819.696	0.0161185
819.774	0.0161557
819.852	0.0162537
819.931	0.0162991
820.009	0.0162213
820.087	0.0161953
820.165	0.0163160
820.243	0.0161422
820.321	0.0162136
820.399	0.0163821
820.477	0.0162523
820.556	0.0163802
820.634	0.0161913
820.712	0.0161578
820.790	0.0161855
820.868	0.0161471
820.946	0.0161967
821.024	0.0160563
821.102	0.0159855
821.181	0.0162344
821.259	0.0161192
821.337	0.0162058
821.415	0.0160681
821.493	0.0160081
821.571	0.0160957
821.649	0.0161083
821.727	0.0159540
821.806	0.0159873
821.884	0.0162295
821.962	0.0160945
822.040	0.0159884
822.118	0.0160667
822.196	0.0159959
822.274	0.0160105
822.352	0.0159676
822.431	0.0159985
822.509	0.0159142
822.587	0.0159963
822.665	0.0160541
822.743	0.0160414
822.821	0.0158989
822.899	0.0157311
822.977	0.0160593
823.056	0.0160216
823.134	0.0160393
823.212	0.0159884
823.290	0.0160204
823.368	0.0160154
823.446	0.0159867
823.524	0.0160622
823.602	0.0159870
823.681	0.0160355
823.759	0.0160522
823.837	0.0159986
823.915	0.0161020
823.993	0.0160989
824.071	0.0161253
824.149	0.0160950
824.227	0.0161683
824.306	0.0161055
824.384	0.0160007
824.462	0.0160912
824.540	0.0160924
824.618	0.0160365
824.696	0.0161102
824.774	0.0160177
824.852	0.0159483
824.931	0.0159029
825.009	0.0160243
825.087	0.0161299
825.165	0.0159560
825.243	0.0159386
825.321	0.0160651
825.399	0.0159507
825.477	0.0161512
825.556	0.0161021
825.634	0.0160833
825.712	0.0161049
825.790	0.0160321
825.868	0.0160201
825.946	0.0161913
826.024	0.0160072
826.102	0.0160078
826.181	0.0160331
826.259	0.0161270
826.337	0.0160815
826.415	0.0159998
826.493	0.0159785
826.571	0.0159466
826.649	0.0159888
826.727	0.0160950
826.806	0.0160317
826.884	0.0160341
826.962	0.0160155
827.040	0.0161591
827.118	0.0160186
827.196	0.0159646
827.274	0.0160707
827.352	0.0161173
827.431	0.0160596
827.509	0.0161014
827.587	0.0161198
827.665	0.0160269
827.743	0.0161376
827.821	0.0160571
827.899	0.0160708
827.977	0.0161075
828.056	0.0160003
828.134	0.0159824
828.212	0.0160329
828.290	0.0161575
828.368	0.0160399
828.446	0.0160964
828.524	0.0159946
828.602	0.0160521
828.681	0.0161451
828.759	0.0160808
828.837	0.0160198
828.915	0.0159990
828.993	0.0161201
829.071	0.0161628
829.149	0.0159773
829.227	0.0160001
829.306	0.0160754
829.384	0.0161749
829.462	0.0160623
829.540	0.0160309
829.618	0.0161486
829.696	0.0161411
829.774	0.0160662
829.852	0.0160845
829.931	0.0161183
830.009	0.0159840
830.087	0.0160081
830.165	0.0161156
830.243	0.0161289
830.321	0.0161531
830.399	0.0160901
830.477	0.0160719
830.556	0.0160316
830.634	0.0161184
830.712	0.0162814
830.790	0.0161308
830.868	0.0161362
830.946	0.0159668
831.024	0.0160406
831.102	0.0160581
831.181	0.0160574
831.259	0.0161002
831.337	0.0160374
831.415	0.0159847
831.493	0.0160643
831.571	0.0159961
831.649	0.0160402
831.727	0.0160016
831.806	0.0160836
831.884	0.0159663
831.962	0.0159928
832.040	0.0160480
832.118	0.0159898
832.196	0.0160672
832.274	0.0159937
832.352	0.0160701
832.431	0.0159933
832.509	0.0159886
832.587	0.0160778
832.665	0.0158708
832.743	0.0160888
832.821	0.0161954
832.899	0.0161109
832.977	0.0158848
833.056	0.0160735
833.134	0.0160579
833.212	0.0158913
833.290	0.0160166
833.368	0.0161382
833.446	0.0161963
833.524	0.0161763
833.602	0.0162101
833.681	0.0159791
833.759	0.0160616
833.837	0.0161833
833.915	0.0159627
833.993	0.0160877
834.071	0.0162707
834.149	0.0162258
834.227	0.0160505
834.306	0.0161998
834.384	0.0160589
834.462	0.0162011
834.540	0.0161543
834.618	0.0161380
834.696	0.0162947
834.774	0.0162058
834.852	0.0161033
834.931	0.0161919
835.009	0.0161243
835.087	0.0162981
835.165	0.0162493
835.243	0.0161571
835.321	0.0161765
835.399	0.0161913
835.477	0.0162554
835.556	0.0162652
835.634	0.0162307
835.712	0.0162527
835.790	0.0161575
835.868	0.0162563
835.946	0.0161381
836.024	0.0162717
836.102	0.0161764
836.181	0.0161294
836.259	0.0161690
836.337	0.0162138
836.415	0.0162219
836.493	0.0160639
836.571	0.0161255
836.649	0.0160921
836.727	0.0161504
836.806	0.0161773
836.884	0.0160478
836.962	0.0162331
837.040	0.0162019
837.118	0.0162080
837.196	0.0162380
837.274	0.0161263
837.352	0.0161550
837.431	0.0160895
837.509	0.0161273
837.587	0.0162764
837.665	0.0160507
837.743	0.0161392
837.821	0.0159873
837.899	0.0160500
837.977	0.0162038
838.056	0.0161483
838.134	0.0161343
838.212	0.0161489
838.290	0.0160955
838.368	0.0161236
838.446	0.0161725
838.524	0.0161157
838.602	0.0161333
838.681	0.0161562
838.759	0.0161553
838.837	0.0161521
838.915	0.0160260
838.993	0.0160362
839.071	0.0161280
839.149	0.0160562
839.227	0.0160265
839.306	0.0158987
839.384	0.0159953
839.462	0.0160364
839.540	0.0159833
839.618	0.0159990
839.696	0.0159103
839.774	0.0158942
839.852	0.0159724
839.931	0.0159637
840.009	0.0159399
840.087	0.0159223
840.165	0.0159612
840.243	0.0158465
840.321	0.0159719
840.399	0.0159967
840.477	0.0159634
840.556	0.0160461
840.634	0.0159426
840.712	0.0159769
840.790	0.0159515
840.868	0.0160182
840.946	0.0159900
841.024	0.0159859
841.102	0.0160662
841.181	0.0160303
841.259	0.0160295
841.337	0.0160960
841.415	0.0160494
841.493	0.0161034
841.571	0.0161134
841.649	0.0161584
841.727	0.0161546
841.806	0.0161235
841.884	0.0161513
841.962	0.0162738
842.040	0.0162976
842.118	0.0161239
842.196	0.0163065
842.274	0.0161111
842.352	0.0162606
842.431	0.0160872
842.509	0.0161455
842.587	0.0162428
842.665	0.0160622
842.743	0.0161855
842.821	0.0161034
842.899	0.0161964
842.977	0.0161011
843.056	0.0160753
843.134	0.0160892
843.212	0.0161584
843.290	0.0161948
843.368	0.0161016
843.446	0.0160556
843.524	0.0162148
843.602	0.0161399
843.681	0.0162212
843.759	0.0160896
843.837	0.0162258
843.915	0.0162267
843.993	0.0160507
844.071	0.0160800
844.149	0.0161832
844.227	0.0162125
844.306	0.0160914
844.384	0.0160181
844.462	0.0160532
844.540	0.0161121
844.618	0.0160261
844.696	0.0160390
844.774	0.0159856
844.852	0.0160328
844.931	0.0160465
845.009	0.0160827
845.087	0.0159495
845.165	0.0160027
845.243	0.0161625
845.321	0.0161234
845.399	0.0161177
845.477	0.0160043
845.556	0.0161226
845.634	0.0161806
845.712	0.0160657
845.790	0.0159966
845.868	0.0160287
845.946	0.0159850
846.024	0.0161409
846.102	0.0159568
846.181	0.0158812
846.259	0.0160641
846.337	0.0160753
846.415	0.0157830
846.493	0.0158804
846.571	0.0158397
846.649	0.0159562
846.727	0.0159180
846.806	0.0159710
846.884	0.0158556
846.962	0.0158810
847.040	0.0159114
847.118	0.0160503
847.196	0.0158943
847.274	0.0157548
847.352	0.0158540
847.431	0.0159659
847.509	0.0159647
847.587	0.0159310
847.665	0.0159412
847.743	0.0158212
847.821	0.0159875
847.899	0.0160432
847.977	0.0159349
848.056	0.0157872
848.134	0.0159580
848.212	0.0158253
848.290	0.0157371
848.368	0.0159203
848.446	0.0159669
848.524	0.0158698
848.602	0.0157522
848.681	0.0159236
848.759	0.0159680
848.837	0.0157850
848.915	0.0157914
848.993	0.0160772
849.071	0.0158561
849.149	0.0159307
849.227	0.0160757
849.306	0.0159881
849.384	0.0160485
849.462	0.0160898
849.540	0.0160520
849.618	0.0158842
849.696	0.0159934
849.774	0.0159214
849.852	0.0161193
849.931	0.0160706
850.009	0.0160030
850.087	0.0159799
850.165	0.0160746
850.243	0.0161028
850.321	0.0161780
850.399	0.0160900
850.477	0.0160479
850.556	0.0161086
850.634	0.0161349
850.712	0.0159442
850.790	0.0159814
850.868	0.0162591
850.946	0.0162033
851.024	0.0161485
851.102	0.0162235
851.181	0.0160356
851.259	0.0160939
851.337	0.0160848
851.415	0.0160664
851.493	0.0161845
851.571	0.0161438
851.649	0.0161180
851.727	0.0161956
851.806	0.0161572
851.884	0.0160571
851.962	0.0162363
852.040	0.0162556
852.118	0.0161803
852.196	0.0161913
852.274	0.0162634
852.352	0.0161298
852.431	0.0162280
852.509	0.0162283
852.587	0.0163133
852.665	0.0162374
852.743	0.0161102
852.821	0.0161821
852.899	0.0161416
852.977	0.0162843
853.056	0.0162601
853.134	0.0161696
853.212	0.0162124
853.290	0.0162093
853.368	0.0161546
853.446	0.0163204
853.524	0.0161575
853.602	0.0160375
853.681	0.0162300
853.759	0.0161788
853.837	0.0161950
853.915	0.0161702
853.993	0.0160000
854.071	0.0160683
854.149	0.0159985
854.227	0.0161319
854.306	0.0160759
854.384	0.0159035
854.462	0.0161333
854.540	0.0161602
854.618	0.0159521
854.696	0.0160077
854.774	0.0159472
854.852	0.0160607
854.931	0.0159085
855.009	0.0159208
855.087	0.0158807
855.165	0.0158926
855.243	0.0160145
855.321	0.0160365
855.399	0.0159045
855.477	0.0159072
855.556	0.0160143
855.634	0.0158952
855.712	0.0159962
855.790	0.0159119
855.868	0.0161259
855.946	0.0159133
856.024	0.0158813
856.102	0.0160343
856.181	0.0160706
856.259	0.0159313
856.337	0.0160733
856.415	0.0161507
856.493	0.0160574
856.571	0.0160246
856.649	0.0161013
856.727	0.0160780
856.806	0.0160119
856.884	0.0161714
856.962	0.0160796
857.040	0.0161964
857.118	0.0161485
857.196	0.0161662
857.274	0.0161777
857.352	0.0160201
857.431	0.0160840
857.509	0.0161523
857.587	0.0161848
857.665	0.0161020
857.743	0.0161029
857.821	0.0160897
857.899	0.0161130
857.977	0.0159945
858.056	0.0160952
858.134	0.0160287
858.212	0.0161762
858.290	0.0161654
858.368	0.0161668
858.446	0.0161168
858.524	0.0161667
858.602	0.0161526
858.681	0.0162044
858.759	0.0161607
858.837	0.0161142
858.915	0.0162363
858.993	0.0161053
859.071	0.0160956
859.149	0.0162282
859.227	0.0162189
859.306	0.0162575
859.384	0.0163923
859.462	0.0160080
859.540	0.0162505
859.618	0.0161570
859.696	0.0160600
859.774	0.0161938
859.852	0.0162023
859.931	0.0162238
860.009	0.0161543
860.087	0.0161375
860.165	0.0160770
860.243	0.0161634
860.321	0.0161133
860.399	0.0160713
860.477	0.0160315
860.556	0.0161212
860.634	0.0162576
860.712	0.0160412
860.790	0.0158733
860.868	0.0161592
860.946	0.0160332
861.024	0.0160772
861.102	0.0160766
861.181	0.0160526
861.259	0.0159966
861.337	0.0162164
861.415	0.0161266
861.493	0.0159152
861.571	0.0159336
861.649	0.0160125
861.727	0.0159487
861.806	0.0159797
861.884	0.0159717
861.962	0.0160094
862.040	0.0158469
862.118	0.0160514
862.196	0.0160126
862.274	0.0159374
862.352	0.0159785
862.431	0.0159530
862.509	0.0158923
862.587	0.0159454
862.665	0.0161060
862.743	0.0161135
862.821	0.0159158
862.899	0.0160341
862.977	0.0160218
863.056	0.0160805
863.134	0.0159415
863.212	0.0163276
863.290	0.0160827
863.368	0.0160899
863.446	0.0159888
863.524	0.0159405
863.602	0.0162807
863.681	0.0161375
863.759	0.0161001
863.837	0.0158672
863.915	0.0160310
863.993	0.0160485
864.071	0.0160168
864.149	0.0161197
864.227	0.0160258
864.306	0.0159528
864.384	0.0160722
864.462	0.0160956
864.540	0.0161654
864.618	0.0160297
864.696	0.0161807
864.774	0.0159885
864.852	0.0160954
864.931	0.0160741
865.009	0.0160395
865.087	0.0160301
865.165	0.0159158
865.243	0.0160556
865.321	0.0160562
865.399	0.0159467
865.477	0.0160770
865.556	0.0160189
865.634	0.0161555
865.712	0.0159795
865.790	0.0160975
865.868	0.0161588
865.946	0.0161112
866.024	0.0160175
866.102	0.0160795
866.181	0.0159612
866.259	0.0161079
866.337	0.0160515
866.415	0.0161700
866.493	0.0161330
866.571	0.0162227
866.649	0.0159892
866.727	0.0160468
866.806	0.0162083
866.884	0.0161081
866.962	0.0159130
867.040	0.0160474
867.118	0.0161546
867.196	0.0163457
867.274	0.0162741
867.352	0.0162896
867.431	0.0159905
867.509	0.0161041
867.587	0.0161089
867.665	0.0160500
867.743	0.0162569
867.821	0.0161325
867.899	0.0160485
867.977	0.0161753
868.056	0.0160657
868.134	0.0161260
868.212	0.0160816
868.290	0.0160618
868.368	0.0161497
868.446	0.0160558
868.524	0.0163128
868.602	0.0161980
868.681	0.0161151
868.759	0.0160696
868.837	0.0161591
868.915	0.0160896
868.993	0.0160535
869.071	0.0160802
869.149	0.0161201
869.227	0.0161751
869.306	0.0161159
869.384	0.0160542
869.462	0.0160632
869.540	0.0161364
869.618	0.0159777
869.696	0.0161320
869.774	0.0159798
869.852	0.0159406
869.931	0.0160484
870.009	0.0160001
870.087	0.0161049
870.165	0.0159460
870.243	0.0160432
870.321	0.0160300
870.399	0.0160577
870.477	0.0160123
870.556	0.0160704
870.634	0.0160177
870.712	0.0161282
870.790	0.0161391
870.868	0.0160958
870.946	0.0161363
871.024	0.0161431
871.102	0.0160874
871.181	0.0161368
871.259	0.0159634
871.337	0.0159682
871.415	0.0159576
871.493	0.0160419
871.571	0.0160783
871.649	0.0159798
871.727	0.0161006
871.806	0.0160871
871.884	0.0160902
871.962	0.0161299
872.040	0.0160612
872.118	0.0160667
872.196	0.0161066
872.274	0.0161975
872.352	0.0160316
872.431	0.0161945
872.509	0.0160872
872.587	0.0160963
872.665	0.0161407
872.743	0.0161079
872.821	0.0160893
872.899	0.0161446
872.977	0.0161109
873.056	0.0161317
873.134	0.0161578
873.212	0.0160094
873.290	0.0160017
873.368	0.0161376
873.446	0.0159350
873.524	0.0160290
873.602	0.0160917
873.681	0.0159896
873.759	0.0161687
873.837	0.0159847
873.915	0.0160700
873.993	0.0160680
874.071	0.0160920
874.149	0.0160815
874.227	0.0160635
874.306	0.0160520
874.384	0.0159697
874.462	0.0160001
874.540	0.0162015
874.618	0.0161572
874.696	0.0162315
874.774	0.0160096
874.852	0.0161687
874.931	0.0162379
875.009	0.0161147
875.087	0.0160660
875.165	0.0161591
875.243	0.0163093
875.321	0.0161984
875.399	0.0163448
875.477	0.0161867
875.556	0.0161673
875.634	0.0161852
875.712	0.0162240
875.790	0.0162873
875.868	0.0162961
875.946	0.0163198
876.024	0.0163790
876.102	0.0163573
876.181	0.0162952
876.259	0.0161990
876.337	0.0162103
876.415	0.0163446
876.493	0.0163131
876.571	0.0162477
876.649	0.0162131
876.727	0.0161363
876.806	0.0161810
876.884	0.0162825
876.962	0.0162208
877.040	0.0162085
877.118	0.0162147
877.196	0.0160880
877.274	0.0162146
877.352	0.0162189
877.431	0.0161827
877.509	0.0161353
877.587	0.0161985
877.665	0.0161340
877.743	0.0161472
877.821	0.0162228
877.899	0.0160311
877.977	0.0160144
878.056	0.0161248
878.134	0.0161520
878.212	0.0160718
878.290	0.0161369
878.368	0.0161132
878.446	0.0160818
878.524	0.0161625
878.602	0.0160703
878.681	0.0160789
878.759	0.0161881
878.837	0.0161401
878.915	0.0160977
878.993	0.0161018
879.071	0.0161450
879.149	0.0160778
879.227	0.0160302
879.306	0.0161140
879.384	0.0163094
879.462	0.0160626
879.540	0.0160368
879.618	0.0160953
879.696	0.0162332
879.774	0.0160797
879.852	0.0159979
879.931	0.0160625
880.009	0.0160987
880.087	0.0160802
880.165	0.0160580
880.243	0.0160281
880.321	0.0161238
880.399	0.0162648
880.477	0.0162357
880.556	0.0160326
880.634	0.0159802
880.712	0.0162421
880.790	0.0162791
880.868	0.0161650
880.946	0.0161324
881.024	0.0162006
881.102	0.0160876
881.181	0.0162037
881.259	0.0162249
881.337	0.0161217
881.415	0.0160497
881.493	0.0161327
881.571	0.0161612
881.649	0.0160788
881.727	0.0160172
881.806	0.0160900
881.884	0.0161065
881.962	0.0161405
882.040	0.0161287
882.118	0.0161856
882.196	0.0161057
882.274	0.0160838
882.352	0.0161237
882.431	0.0160282
882.509	0.0160516
882.587	0.0161417
882.665	0.0160179
882.743	0.0160378
882.821	0.0160924
882.899	0.0160941
882.977	0.0159660
883.056	0.0159489
883.134	0.0159871
883.212	0.0159061
883.290	0.0159213
883.368	0.0160896
883.446	0.0161160
883.524	0.0159389
883.602	0.0159136
883.681	0.0158968
883.759	0.0160021
883.837	0.0160141
883.915	0.0160033
883.993	0.0159406
884.071	0.0161214
884.149	0.0161481
884.227	0.0160965
884.306	0.0161120
884.384	0.0161212
884.462	0.0159077
884.540	0.0160403
884.618	0.0160571
884.696	0.0160947
884.774	0.0161296
884.852	0.0160368
884.931	0.0160447
885.009	0.0160450
885.087	0.0160572
885.165	0.0161134
885.243	0.0160231
885.321	0.0161231
885.399	0.0161739
885.477	0.0160294
885.556	0.0160851
885.634	0.0160468
885.712	0.0160407
885.790	0.0161073
885.868	0.0160110
885.946	0.0160419
886.024	0.0160754
886.102	0.0160395
886.181	0.0160625
886.259	0.0160275
886.337	0.0160343
886.415	0.0158612
886.493	0.0161184
886.571	0.0160872
886.649	0.0158742
886.727	0.0159360
886.806	0.0160508
886.884	0.0158772
886.962	0.0159766
887.040	0.0159770
887.118	0.0159413
887.196	0.0160554
887.274	0.0157631
887.352	0.0160500
887.431	0.0160497
887.509	0.0159319
887.587	0.0160898
887.665	0.0160424
887.743	0.0159932
887.821	0.0159586
887.899	0.0160747
887.977	0.0160212
888.056	0.0161226
888.134	0.0160873
888.212	0.0160381
888.290	0.0160509
888.368	0.0160140
888.446	0.0161201
888.524	0.0159402
888.602	0.0160170
888.681	0.0161915
888.759	0.0160851
888.837	0.0160590
888.915	0.0162392
888.993	0.0160800
889.071	0.0160638
889.149	0.0159663
889.227	0.0161079
889.306	0.0161525
889.384	0.0161753
889.462	0.0160748
889.540	0.0160761
889.618	0.0162085
889.696	0.0161275
889.774	0.0163183
889.852	0.0162077
889.931	0.0161265
890.009	0.0161668
890.087	0.0162122
890.165	0.0160921
890.243	0.0160558
890.321	0.0162527
890.399	0.0160806
890.477	0.0161225
890.556	0.0160813
890.634	0.0161667
890.712	0.0162103
890.790	0.0160632
890.868	0.0162582
890.946	0.0162821
891.024	0.0160970
891.102	0.0160621
891.181	0.0161190
891.259	0.0160647
891.337	0.0160981
891.415	0.0161856
891.493	0.0161902
891.571	0.0161112
891.649	0.0162113
891.727	0.0161317
891.806	0.0161298
891.884	0.0159975
891.962	0.0161733
892.040	0.0162299
892.118	0.0161850
892.196	0.0161227
892.274	0.0160400
892.352	0.0160986
892.431	0.0161278
892.509	0.0162454
892.587	0.0162222
892.665	0.0162709
892.743	0.0162558
892.821	0.0162270
892.899	0.0161663
892.977	0.0161643
893.056	0.0162204
893.134	0.0162086
893.212	0.0162002
893.290	0.0160807
893.368	0.0162945
893.446	0.0162061
893.524	0.0160709
893.602	0.0161118
893.681	0.0160459
893.759	0.0161233
893.837	0.0162140
893.915	0.0160183
893.993	0.0160751
894.071	0.0160059
894.149	0.0161334
894.227	0.0160740
894.306	0.0161035
894.384	0.0159283
894.462	0.0160170
894.540	0.0160715
894.618	0.0160910
894.696	0.0160981
894.774	0.0159814
894.852	0.0160886
894.931	0.0162579
895.009	0.0160650
895.087	0.0160011
895.165	0.0161791
895.243	0.0161474
895.321	0.0162601
895.399	0.0162755
895.477	0.0162358
895.556	0.0160966
895.634	0.0161360
895.712	0.0162748
895.790	0.0161869
895.868	0.0161073
895.946	0.0161044
896.024	0.0162737
896.102	0.0162270
896.181	0.0162224
896.259	0.0161606
896.337	0.0161798
896.415	0.0162262
896.493	0.0162709
896.571	0.0161649
896.649	0.0161652
896.727	0.0160803
896.806	0.0162415
896.884	0.0162419
896.962	0.0162067
897.040	0.0161110
897.118	0.0161674
897.196	0.0161907
897.274	0.0160289
897.352	0.0160700
897.431	0.0160011
897.509	0.0159519
897.587	0.0160381
897.665	0.0160395
897.743	0.0161629
897.821	0.0160839
897.899	0.0160488
897.977	0.0160832
898.056	0.0161463
898.134	0.0160549
898.212	0.0161509
898.290	0.0162381
898.368	0.0162022
898.446	0.0161227
898.524	0.0161919
898.602	0.0162119
898.681	0.0162500
898.759	0.0161897
898.837	0.0163385
898.915	0.0163037
898.993	0.0162820
899.071	0.0162614
899.149	0.0163112
899.227	0.0163132
899.306	0.0164707
899.384	0.0163614
899.462	0.0162408
899.540	0.0163486
899.618	0.0163027
899.696	0.0162727
899.774	0.0163760
899.852	0.0163094
899.931	0.0162431
900.009	0.0162357
900.087	0.0161042
900.165	0.0162132
900.243	0.0161211
900.321	0.0160817
900.399	0.0162259
900.477	0.0161272
900.556	0.0160754
900.634	0.0159595
900.712	0.0160069
900.790	0.0162094
900.868	0.0160802
900.946	0.0159833
901.024	0.0160963
901.102	0.0158868
901.181	0.0160232
901.259	0.0160963
901.337	0.0160240
901.415	0.0160167
901.493	0.0161008
901.571	0.0160596
901.649	0.0160860
901.727	0.0159484
901.806	0.0159119
901.884	0.0159706
901.962	0.0161277
902.040	0.0162159
902.118	0.0160257
902.196	0.0162100
902.274	0.0161349
902.352	0.0161082
902.431	0.0160813
902.509	0.0161776
902.587	0.0162332
902.665	0.0160614
902.743	0.0162077
902.821	0.0162135
902.899	0.0163065
902.977	0.0162773
903.056	0.0161956
903.134	0.0162374
903.212	0.0160307
903.290	0.0161356
903.368	0.0162372
903.446	0.0162247
903.524	0.0160935
903.602	0.0161662
903.681	0.0161433
903.759	0.0162115
903.837	0.0162062
903.915	0.0161333
903.993	0.0161180
904.071	0.0161581
904.149	0.0160801
904.227	0.0159855
904.306	0.0159520
904.384	0.0159679
904.462	0.0160979
904.540	0.0159428
904.618	0.0160226
904.696	0.0160500
904.774	0.0161311
904.852	0.0159214
904.931	0.0160717
905.009	0.0161622
905.087	0.0160566
905.165	0.0160357
905.243	0.0159576
905.321	0.0160195
905.399	0.0161330
905.477	0.0159133
905.556	0.0159592
905.634	0.0160454
905.712	0.0161185
905.790	0.0160507
905.868	0.0159853
905.946	0.0159987
906.024	0.0161252
906.102	0.0160069
906.181	0.0160361
906.259	0.0161265
906.337	0.0159610
906.415	0.0160589
906.493	0.0161422
906.571	0.0160973
906.649	0.0160250
906.727	0.0160062
906.806	0.0160664
906.884	0.0160527
906.962	0.0160226
907.040	0.0160466
907.118	0.0160992
907.196	0.0160484
907.274	0.0160063
907.352	0.0159943
907.431	0.0161213
907.509	0.0160829
907.587	0.0160410
907.665	0.0161057
907.743	0.0160783
907.821	0.0160481
907.899	0.0160277
907.977	0.0160344
908.056	0.0159753
908.134	0.0161592
908.212	0.0160690
908.290	0.0161108
908.368	0.0161012
908.446	0.0160461
908.524	0.0160355
908.602	0.0161893
908.681	0.0161045
908.759	0.0161443
908.837	0.0161496
908.915	0.0160164
908.993	0.0159576
909.071	0.0160670
909.149	0.0160361
909.227	0.0160158
909.306	0.0160850
909.384	0.0161101
909.462	0.0161680
909.540	0.0159766
909.618	0.0160136
909.696	0.0161848
909.774	0.0161041
909.852	0.0160956
909.931	0.0161321
910.009	0.0159128
910.087	0.0160722
910.165	0.0160559
910.243	0.0160196
910.321	0.0160991
910.399	0.0159818
910.477	0.0159173
910.556	0.0161974
910.634	0.0161480
910.712	0.0159145
910.790	0.0160094
910.868	0.0160261
910.946	0.0160731
911.024	0.0160246
911.102	0.0159592
911.181	0.0160294
911.259	0.0160730
911.337	0.0161552
911.415	0.0161221
911.493	0.0160962
911.571	0.0161261
911.649	0.0160509
911.727	0.0161253
911.806	0.0160617
911.884	0.0160679
911.962	0.0160712
912.040	0.0160250
912.118	0.0161812
912.196	0.0160681
912.274	0.0161237
912.352	0.0161337
912.431	0.0162040
912.509	0.0160551
912.587	0.0160916
912.665	0.0161007
912.743	0.0161842
912.821	0.0160474
912.899	0.0161180
912.977	0.0162576
913.056	0.0161930
913.134	0.0160631
913.212	0.0160123
913.290	0.0161454
913.368	0.0162422
913.446	0.0162158
913.524	0.0161060
913.602	0.0161440
913.681	0.0162306
913.759	0.0160046
913.837	0.0160966
913.915	0.0160517
913.993	0.0162354
914.071	0.0161999
914.149	0.0160242
914.227	0.0161159
914.306	0.0162080
914.384	0.0160197
914.462	0.0161758
914.540	0.0160723
914.618	0.0159658
914.696	0.0159930
914.774	0.0161428
914.852	0.0160990
914.931	0.0160150
915.009	0.0159848
915.087	0.0160870
915.165	0.0160751
915.243	0.0159653
915.321	0.0158725
915.399	0.0159779
915.477	0.0160783
915.556	0.0159406
915.634	0.0158668
915.712	0.0159256
915.790	0.0160123
915.868	0.0160963
915.946	0.0160998
916.024	0.0160803
916.102	0.0159411
916.181	0.0161186
916.259	0.0160641
916.337	0.0160378
916.415	0.0161050
916.493	0.0160601
916.571	0.0160756
916.649	0.0159808
916.727	0.0160451
916.806	0.0162561
916.884	0.0159967
916.962	0.0160818
917.040	0.0161554
917.118	0.0161588
917.196	0.0161489
917.274	0.0161288
917.352	0.0161320
917.431	0.0161412
917.509	0.0161590
917.587	0.0162195
917.665	0.0161526
917.743	0.0161581
917.821	0.0160648
917.899	0.0160572
917.977	0.0161327
918.056	0.0160782
918.134	0.0161913
918.212	0.0161388
918.290	0.0161374
918.368	0.0160467
918.446	0.0161929
918.524	0.0161015
918.602	0.0161367
918.681	0.0160788
918.759	0.0161501
918.837	0.0161227
918.915	0.0160010
918.993	0.0160506
919.071	0.0159187
919.149	0.0158933
919.227	0.0160255
919.306	0.0160280
919.384	0.0160370
919.462	0.0159817
919.540	0.0160360
919.618	0.0158969
919.696	0.0160638
919.774	0.0158380
919.852	0.0158904
919.931	0.0160423
920.009	0.0159075
920.087	0.0158710
920.165	0.0159659
920.243	0.0160378
920.321	0.0159329
920.399	0.0160798
920.477	0.0160143
920.556	0.0160060
920.634	0.0160010
920.712	0.0160757
920.790	0.0160023
920.868	0.0159683
920.946	0.0159827
921.024	0.0159971
921.102	0.0160331
921.181	0.0160435
921.259	0.0158419
921.337	0.0160055
921.415	0.0160827
921.493	0.0160123
921.571	0.0160276
921.649	0.0160813
921.727	0.0159707
921.806	0.0160255
921.884	0.0160287
921.962	0.0160611
922.040	0.0160139
922.118	0.0159541
922.196	0.0160643
922.274	0.0160227
922.352	0.0161247
922.431	0.0161301
922.509	0.0161156
922.587	0.0161187
922.665	0.0161459
922.743	0.0162056
922.821	0.0162212
922.899	0.0160215
922.977	0.0161362
923.056	0.0162401
923.134	0.0160737
923.212	0.0160998
923.290	0.0163277
923.368	0.0162938
923.446	0.0161135
923.524	0.0161054
923.602	0.0161681
923.681	0.0160635
923.759	0.0160482
923.837	0.0161765
923.915	0.0161335
923.993	0.0160166
924.071	0.0160193
924.149	0.0160925
924.227	0.0159859
924.306	0.0160139
924.384	0.0160939
924.462	0.0159876
924.540	0.0159838
924.618	0.0158611
924.696	0.0160102
924.774	0.0159507
924.852	0.0160934
924.931	0.0160709
925.009	0.0159646
925.087	0.0158456
925.165	0.0159634
925.243	0.0159895
925.321	0.0159679
925.399	0.0159470
925.477	0.0158849
925.556	0.0159168
925.634	0.0161391
925.712	0.0160051
925.790	0.0158608
925.868	0.0160848
925.946	0.0160675
926.024	0.0160584
926.102	0.0161678
926.181	0.0161414
926.259	0.0162002
926.337	0.0162034
926.415	0.0161451
926.493	0.0161382
926.571	0.0162054
926.649	0.0162099
926.727	0.0161423
926.806	0.0161852
926.884	0.0161175
926.962	0.0163049
927.040	0.0161801
927.118	0.0161142
927.196	0.0161554
927.274	0.0161782
927.352	0.0161430
927.431	0.0161580
927.509	0.0162122
927.587	0.0161783
927.665	0.0161820
927.743	0.0160957
927.821	0.0160852
927.899	0.0160976
927.977	0.0160677
928.056	0.0160551
928.134	0.0160247
928.212	0.0160049
928.290	0.0160553
928.368	0.0159874
928.446	0.0159803
928.524	0.0159814
928.602	0.0160069
928.681	0.0160307
928.759	0.0159338
928.837	0.0160406
928.915	0.0159940
928.993	0.0160143
929.071	0.0159091
929.149	0.0158596
929.227	0.0159702
929.306	0.0158641
929.384	0.0159175
929.462	0.0160374
929.540	0.0157500
929.618	0.0157671
929.696	0.0158879
929.774	0.0157156
929.852	0.0157494
929.931	0.0157953
