05/19/2022	01:17:20	Ver.	4.1	UNKNOWN
Optical Delay	610.008675	Delta X		0.078125	Sweeps	1	Scan Rate	0/0
Coordinates	Axis 1	NaN	Axis 2	NaN	Axis 3	NaN	Axis 4	NaN	Axis 5	NaN	Axis 6	0.000000
TX Power	0.000000	RX Power	0.000000

610.009	0.0161624
610.087	0.0162625
610.165	0.0161504
610.243	0.0161837
610.321	0.0162865
610.399	0.0162814
610.477	0.0163192
610.556	0.0161337
610.634	0.0163116
610.712	0.0162618
610.790	0.0162186
610.868	0.0162006
610.946	0.0162530
611.024	0.0162128
611.102	0.0163673
611.181	0.0162660
611.259	0.0161797
611.337	0.0161781
611.415	0.0161108
611.493	0.0161768
611.571	0.0162402
611.649	0.0160940
611.727	0.0161976
611.806	0.0162392
611.884	0.0161618
611.962	0.0160865
612.040	0.0159961
612.118	0.0161164
612.196	0.0161810
612.274	0.0160455
612.352	0.0160069
612.431	0.0161181
612.509	0.0159681
612.587	0.0161169
612.665	0.0162190
612.743	0.0160920
612.821	0.0161561
612.899	0.0161295
612.977	0.0160954
613.056	0.0160888
613.134	0.0161407
613.212	0.0162539
613.290	0.0161020
613.368	0.0162623
613.446	0.0160691
613.524	0.0162156
613.602	0.0162669
613.681	0.0161665
613.759	0.0162374
613.837	0.0161855
613.915	0.0161546
613.993	0.0162481
614.071	0.0162598
614.149	0.0162188
614.227	0.0160989
614.306	0.0162211
614.384	0.0161581
614.462	0.0162985
614.540	0.0161900
614.618	0.0163212
614.696	0.0161524
614.774	0.0162347
614.852	0.0161168
614.931	0.0160762
615.009	0.0162099
615.087	0.0161165
615.165	0.0161292
615.243	0.0160744
615.321	0.0160915
615.399	0.0161565
615.477	0.0161628
615.556	0.0161155
615.634	0.0161194
615.712	0.0160944
615.790	0.0160397
615.868	0.0159721
615.946	0.0160913
616.024	0.0161636
616.102	0.0160976
616.181	0.0161587
616.259	0.0161584
616.337	0.0160783
616.415	0.0160408
616.493	0.0162076
616.571	0.0160555
616.649	0.0161133
616.727	0.0162609
616.806	0.0161817
616.884	0.0160538
616.962	0.0163166
617.040	0.0162441
617.118	0.0159869
617.196	0.0162540
617.274	0.0161444
617.352	0.0163191
617.431	0.0161427
617.509	0.0161988
617.587	0.0161669
617.665	0.0162370
617.743	0.0162621
617.821	0.0161639
617.899	0.0162194
617.977	0.0162472
618.056	0.0163126
618.134	0.0162636
618.212	0.0160321
618.290	0.0162282
618.368	0.0161559
618.446	0.0161359
618.524	0.0161574
618.602	0.0160886
618.681	0.0162658
618.759	0.0161581
618.837	0.0162459
618.915	0.0161918
618.993	0.0162293
619.071	0.0162280
619.149	0.0161760
619.227	0.0163480
619.306	0.0163194
619.384	0.0162804
619.462	0.0162514
619.540	0.0162614
619.618	0.0162886
619.696	0.0161823
619.774	0.0163714
619.852	0.0163737
619.931	0.0162289
620.009	0.0161861
620.087	0.0162637
620.165	0.0162986
620.243	0.0163228
620.321	0.0162038
620.399	0.0162306
620.477	0.0162869
620.556	0.0163525
620.634	0.0162179
620.712	0.0161635
620.790	0.0162016
620.868	0.0162530
620.946	0.0162900
621.024	0.0162624
621.102	0.0161774
621.181	0.0163660
621.259	0.0162730
621.337	0.0161523
621.415	0.0163306
621.493	0.0162563
621.571	0.0162051
621.649	0.0162247
621.727	0.0162921
621.806	0.0162576
621.884	0.0162547
621.962	0.0161810
622.040	0.0162545
622.118	0.0162180
622.196	0.0162562
622.274	0.0162086
622.352	0.0162107
622.431	0.0161907
622.509	0.0161974
622.587	0.0163374
622.665	0.0162076
622.743	0.0162978
622.821	0.0161874
622.899	0.0164736
622.977	0.0163650
623.056	0.0163344
623.134	0.0163153
623.212	0.0162196
623.290	0.0163239
623.368	0.0163812
623.446	0.0162947
623.524	0.0163595
623.602	0.0164310
623.681	0.0164050
623.759	0.0163960
623.837	0.0163388
623.915	0.0163036
623.993	0.0163203
624.071	0.0161652
624.149	0.0163210
624.227	0.0163064
624.306	0.0162669
624.384	0.0163477
624.462	0.0162798
624.540	0.0162135
624.618	0.0162673
624.696	0.0161797
624.774	0.0161661
624.852	0.0162035
624.931	0.0161373
625.009	0.0161000
625.087	0.0160594
625.165	0.0161610
625.243	0.0160213
625.321	0.0160931
625.399	0.0161752
625.477	0.0159546
625.556	0.0159327
625.634	0.0161548
625.712	0.0160799
625.790	0.0158847
625.868	0.0160676
625.946	0.0160219
626.024	0.0161185
626.102	0.0160028
626.181	0.0159460
626.259	0.0159243
626.337	0.0161320
626.415	0.0160388
626.493	0.0158758
626.571	0.0160121
626.649	0.0159352
626.727	0.0161148
626.806	0.0160006
626.884	0.0160490
626.962	0.0161048
627.040	0.0160890
627.118	0.0161936
627.196	0.0162489
627.274	0.0161077
627.352	0.0162113
627.431	0.0163224
627.509	0.0163111
627.587	0.0161424
627.665	0.0161646
627.743	0.0162600
627.821	0.0162885
627.899	0.0162987
627.977	0.0163467
628.056	0.0163491
628.134	0.0163508
628.212	0.0163161
628.290	0.0162376
628.368	0.0162595
628.446	0.0165312
628.524	0.0163625
628.602	0.0163955
628.681	0.0162437
628.759	0.0162492
628.837	0.0163857
628.915	0.0162402
628.993	0.0164209
629.071	0.0163952
629.149	0.0162522
629.227	0.0162616
629.306	0.0162513
629.384	0.0161436
629.462	0.0162379
629.540	0.0161356
629.618	0.0160466
629.696	0.0160959
629.774	0.0160211
629.852	0.0160929
629.931	0.0159647
630.009	0.0160126
630.087	0.0157971
630.165	0.0159148
630.243	0.0160338
630.321	0.0157709
630.399	0.0156511
630.477	0.0158185
630.556	0.0158940
630.634	0.0157559
630.712	0.0157819
630.790	0.0157066
630.868	0.0157796
630.946	0.0158075
631.024	0.0156946
631.102	0.0156918
631.181	0.0158273
631.259	0.0158279
631.337	0.0158567
631.415	0.0159264
631.493	0.0159344
631.571	0.0158825
631.649	0.0159409
631.727	0.0158487
631.806	0.0159818
631.884	0.0161581
631.962	0.0161294
632.040	0.0161156
632.118	0.0161323
632.196	0.0162447
632.274	0.0162496
632.352	0.0161935
632.431	0.0163549
632.509	0.0163430
632.587	0.0162151
632.665	0.0162608
632.743	0.0164799
632.821	0.0164238
632.899	0.0164219
632.977	0.0166143
633.056	0.0164738
633.134	0.0165907
633.212	0.0164581
633.290	0.0163703
633.368	0.0165729
633.446	0.0166013
633.524	0.0165950
633.602	0.0166955
633.681	0.0167031
633.759	0.0165100
633.837	0.0164323
633.915	0.0164549
633.993	0.0164967
634.071	0.0164761
634.149	0.0165076
634.227	0.0165042
634.306	0.0165364
634.384	0.0165160
634.462	0.0165770
634.540	0.0163490
634.618	0.0163722
634.696	0.0162793
634.774	0.0162480
634.852	0.0161939
634.931	0.0161199
635.009	0.0161957
635.087	0.0161411
635.165	0.0159743
635.243	0.0158989
635.321	0.0160614
635.399	0.0157933
635.477	0.0157488
635.556	0.0158648
635.634	0.0156521
635.712	0.0155880
635.790	0.0157178
635.868	0.0157412
635.946	0.0156490
636.024	0.0156982
636.102	0.0156623
636.181	0.0155859
636.259	0.0158374
636.337	0.0156813
636.415	0.0156741
636.493	0.0156977
636.571	0.0158605
636.649	0.0158333
636.727	0.0157613
636.806	0.0158751
636.884	0.0160105
636.962	0.0161684
637.040	0.0160371
637.118	0.0163090
637.196	0.0162101
637.274	0.0162601
637.352	0.0165511
637.431	0.0166274
637.509	0.0166460
637.587	0.0164429
637.665	0.0165844
637.743	0.0167322
637.821	0.0165455
637.899	0.0167470
637.977	0.0169418
638.056	0.0167638
638.134	0.0167494
638.212	0.0167226
638.290	0.0169156
638.368	0.0168974
638.446	0.0168456
638.524	0.0168211
638.602	0.0167606
638.681	0.0167757
638.759	0.0166051
638.837	0.0165546
638.915	0.0165937
638.993	0.0164946
639.071	0.0164793
639.149	0.0163757
639.227	0.0162771
639.306	0.0164566
639.384	0.0163503
639.462	0.0162451
639.540	0.0161297
639.618	0.0160358
639.696	0.0159769
639.774	0.0158479
639.852	0.0159688
639.931	0.0158303
640.009	0.0158455
640.087	0.0157890
640.165	0.0158043
640.243	0.0159116
640.321	0.0156863
640.399	0.0157140
640.477	0.0156924
640.556	0.0157841
640.634	0.0157388
640.712	0.0156799
640.790	0.0158968
640.868	0.0158570
640.946	0.0158750
641.024	0.0158099
641.102	0.0159337
641.181	0.0159473
641.259	0.0158703
641.337	0.0159409
641.415	0.0159051
641.493	0.0161810
641.571	0.0160298
641.649	0.0161795
641.727	0.0162466
641.806	0.0161458
641.884	0.0162334
641.962	0.0163165
642.040	0.0163966
642.118	0.0163935
642.196	0.0164352
642.274	0.0164449
642.352	0.0163950
642.431	0.0164351
642.509	0.0164943
642.587	0.0166058
642.665	0.0166101
642.743	0.0164377
642.821	0.0165002
642.899	0.0166230
642.977	0.0166050
643.056	0.0164857
643.134	0.0165877
643.212	0.0164526
643.290	0.0165249
643.368	0.0164075
643.446	0.0164928
643.524	0.0163387
643.602	0.0165192
643.681	0.0162482
643.759	0.0163381
643.837	0.0163547
643.915	0.0163819
643.993	0.0162063
644.071	0.0163666
644.149	0.0161972
644.227	0.0162292
644.306	0.0162689
644.384	0.0162447
644.462	0.0162280
644.540	0.0162530
644.618	0.0160347
644.696	0.0160313
644.774	0.0160600
644.852	0.0161829
644.931	0.0160622
645.009	0.0161223
645.087	0.0161186
645.165	0.0160946
645.243	0.0160447
645.321	0.0160598
645.399	0.0161384
645.477	0.0162565
645.556	0.0162052
645.634	0.0161280
645.712	0.0160686
645.790	0.0160910
645.868	0.0161644
645.946	0.0161380
646.024	0.0161456
646.102	0.0161206
646.181	0.0162118
646.259	0.0161516
646.337	0.0160609
646.415	0.0161253
646.493	0.0161526
646.571	0.0161778
646.649	0.0161929
646.727	0.0162258
646.806	0.0163496
646.884	0.0161746
646.962	0.0162666
647.040	0.0161385
647.118	0.0161763
647.196	0.0161789
647.274	0.0162169
647.352	0.0161904
647.431	0.0160210
647.509	0.0160497
647.587	0.0161591
647.665	0.0162005
647.743	0.0160812
647.821	0.0160381
647.899	0.0160466
647.977	0.0160773
648.056	0.0160155
648.134	0.0160355
648.212	0.0159650
648.290	0.0160999
648.368	0.0160751
648.446	0.0160316
648.524	0.0162099
648.602	0.0161168
648.681	0.0162749
648.759	0.0162070
648.837	0.0160825
648.915	0.0161878
648.993	0.0161327
649.071	0.0160611
649.149	0.0160337
649.227	0.0161808
649.306	0.0162067
649.384	0.0161986
649.462	0.0162307
649.540	0.0161332
649.618	0.0162778
649.696	0.0161442
649.774	0.0161623
649.852	0.0164028
649.931	0.0161555
650.009	0.0162782
650.087	0.0162333
650.165	0.0161787
650.243	0.0162143
650.321	0.0162945
650.399	0.0162920
650.477	0.0163059
650.556	0.0164438
650.634	0.0162034
650.712	0.0162412
650.790	0.0160908
650.868	0.0162797
650.946	0.0162310
651.024	0.0162311
651.102	0.0163140
651.181	0.0162693
651.259	0.0162020
651.337	0.0161068
651.415	0.0161473
651.493	0.0162559
651.571	0.0163677
651.649	0.0162196
651.727	0.0160048
651.806	0.0161272
651.884	0.0161392
651.962	0.0162004
652.040	0.0162347
652.118	0.0161898
652.196	0.0161422
652.274	0.0162116
652.352	0.0161835
652.431	0.0162796
652.509	0.0160677
652.587	0.0162074
652.665	0.0162366
652.743	0.0162762
652.821	0.0162103
652.899	0.0161777
652.977	0.0162540
653.056	0.0161263
653.134	0.0160963
653.212	0.0160661
653.290	0.0161739
653.368	0.0161655
653.446	0.0161932
653.524	0.0161708
653.602	0.0162534
653.681	0.0161697
653.759	0.0161443
653.837	0.0161504
653.915	0.0160384
653.993	0.0160165
654.071	0.0159707
654.149	0.0161180
654.227	0.0160793
654.306	0.0160248
654.384	0.0159518
654.462	0.0160747
654.540	0.0159863
654.618	0.0159124
654.696	0.0160461
654.774	0.0159326
654.852	0.0159910
654.931	0.0159287
655.009	0.0158564
655.087	0.0160030
655.165	0.0159126
655.243	0.0159375
655.321	0.0159285
655.399	0.0159738
655.477	0.0159757
655.556	0.0161025
655.634	0.0159962
655.712	0.0159690
655.790	0.0162449
655.868	0.0162077
655.946	0.0162617
656.024	0.0162293
656.102	0.0162502
656.181	0.0163485
656.259	0.0162483
656.337	0.0163448
656.415	0.0164684
656.493	0.0164604
656.571	0.0165182
656.649	0.0164549
656.727	0.0164103
656.806	0.0165154
656.884	0.0165825
656.962	0.0164857
657.040	0.0164066
657.118	0.0165318
657.196	0.0164354
657.274	0.0165895
657.352	0.0166421
657.431	0.0165305
657.509	0.0164126
657.587	0.0164570
657.665	0.0163461
657.743	0.0162073
657.821	0.0162405
657.899	0.0162768
657.977	0.0163799
658.056	0.0162795
658.134	0.0162045
658.212	0.0161462
658.290	0.0160747
658.368	0.0160446
658.446	0.0159650
658.524	0.0159895
658.602	0.0159251
658.681	0.0158845
658.759	0.0158395
658.837	0.0158012
658.915	0.0157218
658.993	0.0158615
659.071	0.0158607
659.149	0.0157496
659.227	0.0157046
659.306	0.0157194
659.384	0.0157373
659.462	0.0157156
659.540	0.0156932
659.618	0.0155964
659.696	0.0158975
659.774	0.0157189
659.852	0.0157111
659.931	0.0157755
660.009	0.0158814
660.087	0.0158806
660.165	0.0157027
660.243	0.0158464
660.321	0.0158523
660.399	0.0159795
660.477	0.0158757
660.556	0.0160370
660.634	0.0161090
660.712	0.0160542
660.790	0.0160107
660.868	0.0162080
660.946	0.0162338
661.024	0.0162669
661.102	0.0163594
661.181	0.0161681
661.259	0.0164594
661.337	0.0165244
661.415	0.0164275
661.493	0.0165263
661.571	0.0166646
661.649	0.0165741
661.727	0.0165585
661.806	0.0164520
661.884	0.0165110
661.962	0.0166312
662.040	0.0164931
662.118	0.0165791
662.196	0.0165271
662.274	0.0165355
662.352	0.0165805
662.431	0.0165022
662.509	0.0162674
662.587	0.0165355
662.665	0.0165137
662.743	0.0162656
662.821	0.0164156
662.899	0.0163416
662.977	0.0163403
663.056	0.0162000
663.134	0.0162735
663.212	0.0162001
663.290	0.0161728
663.368	0.0161291
663.446	0.0160643
663.524	0.0160777
663.602	0.0160435
663.681	0.0159295
663.759	0.0161010
663.837	0.0159762
663.915	0.0160079
663.993	0.0160954
664.071	0.0160346
664.149	0.0160418
664.227	0.0159492
664.306	0.0159988
664.384	0.0159412
664.462	0.0161196
664.540	0.0159066
664.618	0.0158121
664.696	0.0160574
664.774	0.0158273
664.852	0.0159268
664.931	0.0158067
665.009	0.0159062
665.087	0.0157425
665.165	0.0158041
665.243	0.0159074
665.321	0.0160490
665.399	0.0160204
665.477	0.0160373
665.556	0.0160261
665.634	0.0160854
665.712	0.0159475
665.790	0.0160413
665.868	0.0161053
665.946	0.0162103
666.024	0.0161842
666.102	0.0162785
666.181	0.0162444
666.259	0.0161668
666.337	0.0161836
666.415	0.0161893
666.493	0.0162424
666.571	0.0160934
666.649	0.0160694
666.727	0.0160375
666.806	0.0161118
666.884	0.0161111
666.962	0.0162249
667.040	0.0160960
667.118	0.0162746
667.196	0.0161438
667.274	0.0160608
667.352	0.0160883
667.431	0.0161378
667.509	0.0161606
667.587	0.0161929
667.665	0.0162556
667.743	0.0162234
667.821	0.0162472
667.899	0.0161800
667.977	0.0162393
668.056	0.0163862
668.134	0.0162608
668.212	0.0163121
668.290	0.0163462
668.368	0.0162624
668.446	0.0163126
668.524	0.0162745
668.602	0.0161256
668.681	0.0161833
668.759	0.0161946
668.837	0.0161536
668.915	0.0161359
668.993	0.0160714
669.071	0.0159694
669.149	0.0161292
669.227	0.0160067
669.306	0.0161220
669.384	0.0160895
669.462	0.0160947
669.540	0.0161036
669.618	0.0161649
669.696	0.0160485
669.774	0.0162331
669.852	0.0160644
669.931	0.0159916
670.009	0.0161880
670.087	0.0161988
670.165	0.0162014
670.243	0.0161579
670.321	0.0162025
670.399	0.0162464
670.477	0.0162524
670.556	0.0160957
670.634	0.0162171
670.712	0.0161076
670.790	0.0162321
670.868	0.0161238
670.946	0.0162389
671.024	0.0161846
671.102	0.0160487
671.181	0.0161025
671.259	0.0161098
671.337	0.0160397
671.415	0.0161308
671.493	0.0160966
671.571	0.0159678
671.649	0.0160481
671.727	0.0161754
671.806	0.0160759
671.884	0.0160437
671.962	0.0161427
672.040	0.0161033
672.118	0.0160828
672.196	0.0161821
672.274	0.0162338
672.352	0.0161798
672.431	0.0161840
672.509	0.0160739
672.587	0.0160991
672.665	0.0160780
672.743	0.0162641
672.821	0.0161201
672.899	0.0160639
672.977	0.0161339
673.056	0.0161992
673.134	0.0161116
673.212	0.0160281
673.290	0.0161366
673.368	0.0160934
673.446	0.0160291
673.524	0.0159994
673.602	0.0160484
673.681	0.0160249
673.759	0.0160849
673.837	0.0160935
673.915	0.0160157
673.993	0.0160951
674.071	0.0159814
674.149	0.0161708
674.227	0.0160944
674.306	0.0158972
674.384	0.0160112
674.462	0.0162160
674.540	0.0160522
674.618	0.0161823
674.696	0.0162051
674.774	0.0162906
674.852	0.0163001
674.931	0.0162488
675.009	0.0162457
675.087	0.0162537
675.165	0.0163020
675.243	0.0163972
675.321	0.0162345
675.399	0.0161539
675.477	0.0162025
675.556	0.0162476
675.634	0.0162298
675.712	0.0164185
675.790	0.0164169
675.868	0.0163561
675.946	0.0161998
676.024	0.0162463
676.102	0.0163009
676.181	0.0162291
676.259	0.0162933
676.337	0.0163382
676.415	0.0162538
676.493	0.0162292
676.571	0.0162124
676.649	0.0162950
676.727	0.0163132
676.806	0.0161542
676.884	0.0161143
676.962	0.0161971
677.040	0.0161562
677.118	0.0160806
677.196	0.0162294
677.274	0.0160069
677.352	0.0160526
677.431	0.0160389
677.509	0.0159808
677.587	0.0161281
677.665	0.0160450
677.743	0.0159683
677.821	0.0160294
677.899	0.0158725
677.977	0.0158642
678.056	0.0159203
678.134	0.0160067
678.212	0.0159892
678.290	0.0159471
678.368	0.0160385
678.446	0.0160222
678.524	0.0158424
678.602	0.0158847
678.681	0.0160440
678.759	0.0160004
678.837	0.0160589
678.915	0.0161111
678.993	0.0160609
679.071	0.0161186
679.149	0.0161898
679.227	0.0162950
679.306	0.0162032
679.384	0.0162085
679.462	0.0162957
679.540	0.0161552
679.618	0.0164130
679.696	0.0161352
679.774	0.0162723
679.852	0.0162770
679.931	0.0162792
680.009	0.0163612
680.087	0.0162367
680.165	0.0162959
680.243	0.0161834
680.321	0.0162894
680.399	0.0160933
680.477	0.0162689
680.556	0.0162881
680.634	0.0160193
680.712	0.0161754
680.790	0.0162554
680.868	0.0161857
680.946	0.0160458
681.024	0.0161362
681.102	0.0161867
681.181	0.0160841
681.259	0.0162228
681.337	0.0160534
681.415	0.0159637
681.493	0.0158625
681.571	0.0160950
681.649	0.0159290
681.727	0.0159895
681.806	0.0160062
681.884	0.0160051
681.962	0.0160336
682.040	0.0160545
682.118	0.0160490
682.196	0.0159999
682.274	0.0160376
682.352	0.0160455
682.431	0.0160595
682.509	0.0159840
682.587	0.0162044
682.665	0.0160559
682.743	0.0161845
682.821	0.0159994
682.899	0.0162661
682.977	0.0162280
683.056	0.0160649
683.134	0.0160270
683.212	0.0160529
683.290	0.0160967
683.368	0.0161881
683.446	0.0160947
683.524	0.0161856
683.602	0.0159689
683.681	0.0160073
683.759	0.0161564
683.837	0.0161243
683.915	0.0159381
683.993	0.0160076
684.071	0.0159048
684.149	0.0158692
684.227	0.0159299
684.306	0.0160369
684.384	0.0160405
684.462	0.0160072
684.540	0.0161179
684.618	0.0161534
684.696	0.0160417
684.774	0.0161422
684.852	0.0160246
684.931	0.0160329
685.009	0.0159506
685.087	0.0161466
685.165	0.0161017
685.243	0.0160992
685.321	0.0160715
685.399	0.0160738
685.477	0.0160385
685.556	0.0161679
685.634	0.0163222
685.712	0.0163108
685.790	0.0163168
685.868	0.0161220
685.946	0.0160754
686.024	0.0162936
686.102	0.0163441
686.181	0.0161804
686.259	0.0161596
686.337	0.0161971
686.415	0.0160945
686.493	0.0161594
686.571	0.0160033
686.649	0.0159232
686.727	0.0159949
686.806	0.0160678
686.884	0.0160336
686.962	0.0158896
687.040	0.0159425
687.118	0.0159210
687.196	0.0158394
687.274	0.0158275
687.352	0.0159023
687.431	0.0158212
687.509	0.0158667
687.587	0.0159278
687.665	0.0158321
687.743	0.0159041
687.821	0.0159459
687.899	0.0158018
687.977	0.0158860
688.056	0.0159471
688.134	0.0158840
688.212	0.0158988
688.290	0.0157270
688.368	0.0159706
688.446	0.0161226
688.524	0.0159801
688.602	0.0160099
688.681	0.0160332
688.759	0.0160424
688.837	0.0160534
688.915	0.0161633
688.993	0.0161192
689.071	0.0161462
689.149	0.0160061
689.227	0.0161530
689.306	0.0160706
689.384	0.0162135
689.462	0.0161727
689.540	0.0162112
689.618	0.0162703
689.696	0.0163180
689.774	0.0162086
689.852	0.0163251
689.931	0.0163734
690.009	0.0163686
690.087	0.0162265
690.165	0.0163400
690.243	0.0163877
690.321	0.0164002
690.399	0.0162933
690.477	0.0162881
690.556	0.0161984
690.634	0.0161645
690.712	0.0161654
690.790	0.0161049
690.868	0.0160841
690.946	0.0163015
691.024	0.0161822
691.102	0.0159857
691.181	0.0161057
691.259	0.0159484
691.337	0.0159976
691.415	0.0161349
691.493	0.0160810
691.571	0.0160393
691.649	0.0159743
691.727	0.0160407
691.806	0.0159692
691.884	0.0161190
691.962	0.0160361
692.040	0.0160226
692.118	0.0161686
692.196	0.0160913
692.274	0.0159940
692.352	0.0161153
692.431	0.0161580
692.509	0.0161331
692.587	0.0159022
692.665	0.0160071
692.743	0.0160252
692.821	0.0160327
692.899	0.0160437
692.977	0.0160208
693.056	0.0161569
693.134	0.0161300
693.212	0.0160513
693.290	0.0160947
693.368	0.0161251
693.446	0.0160989
693.524	0.0161402
693.602	0.0161887
693.681	0.0162356
693.759	0.0161868
693.837	0.0161745
693.915	0.0162753
693.993	0.0162646
694.071	0.0161092
694.149	0.0161865
694.227	0.0161909
694.306	0.0161493
694.384	0.0161309
694.462	0.0161628
694.540	0.0161178
694.618	0.0161722
694.696	0.0160853
694.774	0.0161367
694.852	0.0160631
694.931	0.0159226
695.009	0.0161642
695.087	0.0162247
695.165	0.0160497
695.243	0.0161469
695.321	0.0162280
695.399	0.0160612
695.477	0.0160145
695.556	0.0160858
695.634	0.0160150
695.712	0.0160030
695.790	0.0160847
695.868	0.0160448
695.946	0.0161262
696.024	0.0161011
696.102	0.0160160
696.181	0.0160590
696.259	0.0160968
696.337	0.0161306
696.415	0.0161100
696.493	0.0160621
696.571	0.0161834
696.649	0.0160695
696.727	0.0161327
696.806	0.0160522
696.884	0.0161295
696.962	0.0160913
697.040	0.0159789
697.118	0.0160613
697.196	0.0159912
697.274	0.0162319
697.352	0.0161314
697.431	0.0159872
697.509	0.0161062
697.587	0.0160923
697.665	0.0161163
697.743	0.0160426
697.821	0.0162404
697.899	0.0161684
697.977	0.0161346
698.056	0.0161739
698.134	0.0160921
698.212	0.0160867
698.290	0.0162257
698.368	0.0162001
698.446	0.0162196
698.524	0.0161474
698.602	0.0162215
698.681	0.0162670
698.759	0.0162508
698.837	0.0163121
698.915	0.0161739
698.993	0.0162515
699.071	0.0163593
699.149	0.0163571
699.227	0.0163271
699.306	0.0162213
699.384	0.0163377
699.462	0.0162474
699.540	0.0163454
699.618	0.0162222
699.696	0.0162479
699.774	0.0161951
699.852	0.0162733
699.931	0.0163766
700.009	0.0162692
700.087	0.0161639
700.165	0.0161845
700.243	0.0160910
700.321	0.0161440
700.399	0.0161393
700.477	0.0161617
700.556	0.0159985
700.634	0.0160105
700.712	0.0161445
700.790	0.0161028
700.868	0.0161823
700.946	0.0161444
701.024	0.0162505
701.102	0.0161019
701.181	0.0160979
701.259	0.0161272
701.337	0.0161042
701.415	0.0161034
701.493	0.0161721
701.571	0.0160994
701.649	0.0161008
701.727	0.0161195
701.806	0.0162088
701.884	0.0161674
701.962	0.0162241
702.040	0.0161098
702.118	0.0161347
702.196	0.0161493
702.274	0.0161428
702.352	0.0162180
702.431	0.0162242
702.509	0.0163586
702.587	0.0161404
702.665	0.0160750
702.743	0.0161803
702.821	0.0161091
702.899	0.0161419
702.977	0.0160349
703.056	0.0162289
703.134	0.0162392
703.212	0.0162071
703.290	0.0162527
703.368	0.0163455
703.446	0.0162720
703.524	0.0161584
703.602	0.0162234
703.681	0.0162283
703.759	0.0162176
703.837	0.0160507
703.915	0.0161126
703.993	0.0161324
704.071	0.0161853
704.149	0.0163351
704.227	0.0162550
704.306	0.0162444
704.384	0.0162271
704.462	0.0162513
704.540	0.0162914
704.618	0.0161528
704.696	0.0162556
704.774	0.0162718
704.852	0.0161942
704.931	0.0161014
705.009	0.0161913
705.087	0.0164305
705.165	0.0163908
705.243	0.0161671
705.321	0.0161980
705.399	0.0162137
705.477	0.0162080
705.556	0.0162744
705.634	0.0162096
705.712	0.0160818
705.790	0.0162062
705.868	0.0161545
705.946	0.0161301
706.024	0.0161141
706.102	0.0161654
706.181	0.0161225
706.259	0.0162444
706.337	0.0162326
706.415	0.0160236
706.493	0.0161124
706.571	0.0160696
706.649	0.0161017
706.727	0.0161792
706.806	0.0160284
706.884	0.0160061
706.962	0.0160021
707.040	0.0160941
707.118	0.0160178
707.196	0.0161622
707.274	0.0160159
707.352	0.0159791
707.431	0.0160830
707.509	0.0160631
707.587	0.0160490
707.665	0.0160516
707.743	0.0159302
707.821	0.0162114
707.899	0.0160452
707.977	0.0160881
708.056	0.0160318
708.134	0.0159401
708.212	0.0161992
708.290	0.0159691
708.368	0.0159336
708.446	0.0159699
708.524	0.0160633
708.602	0.0160103
708.681	0.0159769
708.759	0.0160210
708.837	0.0160846
708.915	0.0161167
708.993	0.0160551
709.071	0.0162277
709.149	0.0161669
709.227	0.0160909
709.306	0.0161127
709.384	0.0162797
709.462	0.0162291
709.540	0.0161946
709.618	0.0162762
709.696	0.0162547
709.774	0.0163396
709.852	0.0161020
709.931	0.0161614
710.009	0.0164088
710.087	0.0161874
710.165	0.0161787
710.243	0.0161660
710.321	0.0162956
710.399	0.0161279
710.477	0.0161629
710.556	0.0161282
710.634	0.0162149
710.712	0.0162067
710.790	0.0161313
710.868	0.0160785
710.946	0.0161414
711.024	0.0161694
711.102	0.0160622
711.181	0.0160198
711.259	0.0160323
711.337	0.0160972
711.415	0.0160227
711.493	0.0161807
711.571	0.0160511
711.649	0.0160335
711.727	0.0161228
711.806	0.0160825
711.884	0.0162224
711.962	0.0161877
712.040	0.0162202
712.118	0.0162724
712.196	0.0161917
712.274	0.0163263
712.352	0.0164368
712.431	0.0163638
712.509	0.0163082
712.587	0.0162486
712.665	0.0162791
712.743	0.0163619
712.821	0.0163474
712.899	0.0164355
712.977	0.0163584
713.056	0.0163800
713.134	0.0162202
713.212	0.0163726
713.290	0.0162971
713.368	0.0162820
713.446	0.0164330
713.524	0.0162480
713.602	0.0162698
713.681	0.0163873
713.759	0.0162088
713.837	0.0161872
713.915	0.0161109
713.993	0.0162451
714.071	0.0162348
714.149	0.0161966
714.227	0.0162099
714.306	0.0161956
714.384	0.0162227
714.462	0.0161823
714.540	0.0161938
714.618	0.0161957
714.696	0.0160928
714.774	0.0160870
714.852	0.0160085
714.931	0.0161115
715.009	0.0162128
715.087	0.0161635
715.165	0.0160693
715.243	0.0160777
715.321	0.0161442
715.399	0.0160489
715.477	0.0161799
715.556	0.0161850
715.634	0.0161780
715.712	0.0162553
715.790	0.0163282
715.868	0.0162102
715.946	0.0161261
716.024	0.0161710
716.102	0.0162294
716.181	0.0161658
716.259	0.0162073
716.337	0.0162399
716.415	0.0162086
716.493	0.0160480
716.571	0.0161201
716.649	0.0161333
716.727	0.0160951
716.806	0.0162414
716.884	0.0160846
716.962	0.0161118
717.040	0.0160227
717.118	0.0161237
717.196	0.0161880
717.274	0.0160724
717.352	0.0160355
717.431	0.0160844
717.509	0.0160605
717.587	0.0159946
717.665	0.0160970
717.743	0.0161752
717.821	0.0161225
717.899	0.0160876
717.977	0.0160741
718.056	0.0161679
718.134	0.0162187
718.212	0.0161078
718.290	0.0162415
718.368	0.0164311
718.446	0.0164073
718.524	0.0162685
718.602	0.0164106
718.681	0.0162917
718.759	0.0163791
718.837	0.0164024
718.915	0.0164656
718.993	0.0162944
719.071	0.0162875
719.149	0.0161855
719.227	0.0162996
719.306	0.0163474
719.384	0.0163400
719.462	0.0162272
719.540	0.0161920
719.618	0.0161077
719.696	0.0161594
719.774	0.0160837
719.852	0.0159938
719.931	0.0161021
720.009	0.0160334
720.087	0.0161045
720.165	0.0162596
720.243	0.0160229
720.321	0.0161018
720.399	0.0161255
720.477	0.0161733
720.556	0.0160989
720.634	0.0160997
720.712	0.0162478
720.790	0.0162945
720.868	0.0162754
720.946	0.0162175
721.024	0.0162605
721.102	0.0162246
721.181	0.0162787
721.259	0.0163458
721.337	0.0162809
721.415	0.0162652
721.493	0.0162376
721.571	0.0161628
721.649	0.0163000
721.727	0.0163488
721.806	0.0161584
721.884	0.0160378
721.962	0.0161560
722.040	0.0162167
722.118	0.0160784
722.196	0.0161766
722.274	0.0162566
722.352	0.0162576
722.431	0.0161648
722.509	0.0161604
722.587	0.0162658
722.665	0.0161241
722.743	0.0163216
722.821	0.0162732
722.899	0.0162007
722.977	0.0162857
723.056	0.0161921
723.134	0.0160675
723.212	0.0162012
723.290	0.0163297
723.368	0.0161941
723.446	0.0162560
723.524	0.0161056
723.602	0.0161848
723.681	0.0161134
723.759	0.0162144
723.837	0.0162703
723.915	0.0161719
723.993	0.0162189
724.071	0.0161875
724.149	0.0161988
724.227	0.0162249
724.306	0.0161858
724.384	0.0161855
724.462	0.0161463
724.540	0.0162458
724.618	0.0161645
724.696	0.0161981
724.774	0.0161304
724.852	0.0161649
724.931	0.0162700
725.009	0.0162933
725.087	0.0161639
725.165	0.0161249
725.243	0.0161027
725.321	0.0160926
725.399	0.0161415
725.477	0.0161501
725.556	0.0160644
725.634	0.0160155
725.712	0.0160875
725.790	0.0162021
725.868	0.0161184
725.946	0.0160320
726.024	0.0161394
726.102	0.0162378
726.181	0.0161930
726.259	0.0162859
726.337	0.0162252
726.415	0.0160695
726.493	0.0163235
726.571	0.0163889
726.649	0.0162554
726.727	0.0162609
726.806	0.0163774
726.884	0.0163065
726.962	0.0163222
727.040	0.0162811
727.118	0.0161938
727.196	0.0161787
727.274	0.0161537
727.352	0.0162588
727.431	0.0161927
727.509	0.0162056
727.587	0.0161917
727.665	0.0161826
727.743	0.0160609
727.821	0.0162333
727.899	0.0160131
727.977	0.0160547
728.056	0.0161362
728.134	0.0161661
728.212	0.0161420
728.290	0.0160760
728.368	0.0161848
728.446	0.0162069
728.524	0.0161900
728.602	0.0161828
728.681	0.0159270
728.759	0.0160990
728.837	0.0160834
728.915	0.0160445
728.993	0.0161224
729.071	0.0161864
729.149	0.0160006
729.227	0.0160085
729.306	0.0160820
729.384	0.0160882
729.462	0.0161127
729.540	0.0160331
729.618	0.0160876
729.696	0.0161860
729.774	0.0161454
729.852	0.0160918
729.931	0.0160571
730.009	0.0161559
730.087	0.0160934
730.165	0.0161765
730.243	0.0161231
730.321	0.0162021
730.399	0.0162531
730.477	0.0161811
730.556	0.0162287
730.634	0.0162052
730.712	0.0162550
730.790	0.0162558
730.868	0.0162316
730.946	0.0161608
731.024	0.0162344
731.102	0.0162720
731.181	0.0163325
731.259	0.0163665
731.337	0.0162246
731.415	0.0162148
731.493	0.0160184
731.571	0.0160373
731.649	0.0160462
731.727	0.0161937
731.806	0.0159872
731.884	0.0162189
731.962	0.0161175
732.040	0.0161887
732.118	0.0160817
732.196	0.0160810
732.274	0.0161935
732.352	0.0161348
732.431	0.0161420
732.509	0.0162157
732.587	0.0160884
732.665	0.0162327
732.743	0.0162072
732.821	0.0162607
732.899	0.0161458
732.977	0.0162601
733.056	0.0161530
733.134	0.0161483
733.212	0.0162843
733.290	0.0161217
733.368	0.0161886
733.446	0.0162829
733.524	0.0161002
733.602	0.0161702
733.681	0.0161606
733.759	0.0162183
733.837	0.0162712
733.915	0.0161741
733.993	0.0162086
734.071	0.0163016
734.149	0.0162038
734.227	0.0161375
734.306	0.0162540
734.384	0.0162932
734.462	0.0163457
734.540	0.0162845
734.618	0.0162984
734.696	0.0163581
734.774	0.0163756
734.852	0.0163603
734.931	0.0162479
735.009	0.0162312
735.087	0.0163475
735.165	0.0162109
735.243	0.0162059
735.321	0.0162348
735.399	0.0162689
735.477	0.0162881
735.556	0.0161720
735.634	0.0161568
735.712	0.0162094
735.790	0.0162485
735.868	0.0161714
735.946	0.0159831
736.024	0.0160757
736.102	0.0161046
736.181	0.0160667
736.259	0.0161903
736.337	0.0160079
736.415	0.0160688
736.493	0.0162380
736.571	0.0162044
736.649	0.0163112
736.727	0.0160642
736.806	0.0161033
736.884	0.0161028
736.962	0.0160436
737.040	0.0162547
737.118	0.0163496
737.196	0.0161704
737.274	0.0162775
737.352	0.0161419
737.431	0.0162186
737.509	0.0161655
737.587	0.0161359
737.665	0.0163467
737.743	0.0161862
737.821	0.0160619
737.899	0.0162108
737.977	0.0160297
738.056	0.0160817
738.134	0.0161868
738.212	0.0161406
738.290	0.0162379
738.368	0.0161052
738.446	0.0161371
738.524	0.0160622
738.602	0.0160760
738.681	0.0162889
738.759	0.0160441
738.837	0.0162231
738.915	0.0162784
738.993	0.0161776
739.071	0.0162389
739.149	0.0162070
739.227	0.0161765
739.306	0.0162964
739.384	0.0163996
739.462	0.0162875
739.540	0.0163152
739.618	0.0161514
739.696	0.0161134
739.774	0.0162876
739.852	0.0161722
739.931	0.0163016
740.009	0.0162568
740.087	0.0160727
740.165	0.0161060
740.243	0.0161751
740.321	0.0162622
740.399	0.0162177
740.477	0.0162664
740.556	0.0162134
740.634	0.0161942
740.712	0.0162595
740.790	0.0162545
740.868	0.0163001
740.946	0.0163750
741.024	0.0161523
741.102	0.0162861
741.181	0.0162185
741.259	0.0163679
741.337	0.0162224
741.415	0.0163328
741.493	0.0161626
741.571	0.0162590
741.649	0.0164038
741.727	0.0161015
741.806	0.0161578
741.884	0.0161398
741.962	0.0161422
742.040	0.0162832
742.118	0.0161157
742.196	0.0160699
742.274	0.0161575
742.352	0.0161590
742.431	0.0160784
742.509	0.0162621
742.587	0.0162648
742.665	0.0160424
742.743	0.0161324
742.821	0.0161261
742.899	0.0161378
742.977	0.0162955
743.056	0.0161275
743.134	0.0161278
743.212	0.0160590
743.290	0.0161665
743.368	0.0162441
743.446	0.0162230
743.524	0.0160758
743.602	0.0161287
743.681	0.0162191
743.759	0.0162291
743.837	0.0160755
743.915	0.0161891
743.993	0.0161419
744.071	0.0161503
744.149	0.0161192
744.227	0.0161756
744.306	0.0160635
744.384	0.0161523
744.462	0.0161250
744.540	0.0161535
744.618	0.0160999
744.696	0.0161096
744.774	0.0161909
744.852	0.0161015
744.931	0.0162083
745.009	0.0160374
745.087	0.0160616
745.165	0.0161905
745.243	0.0161729
745.321	0.0161128
745.399	0.0160878
745.477	0.0161567
745.556	0.0161018
745.634	0.0160872
745.712	0.0160904
745.790	0.0161939
745.868	0.0160964
745.946	0.0160039
746.024	0.0160288
746.102	0.0161158
746.181	0.0162140
746.259	0.0160715
746.337	0.0161188
746.415	0.0161452
746.493	0.0161214
746.571	0.0160252
746.649	0.0160593
746.727	0.0161556
746.806	0.0161745
746.884	0.0159524
746.962	0.0160695
747.040	0.0161176
747.118	0.0160595
747.196	0.0161213
747.274	0.0160287
747.352	0.0160671
747.431	0.0160477
747.509	0.0161684
747.587	0.0162045
747.665	0.0160641
747.743	0.0162280
747.821	0.0162563
747.899	0.0161011
747.977	0.0161423
748.056	0.0162056
748.134	0.0161887
748.212	0.0161510
748.290	0.0161414
748.368	0.0162186
748.446	0.0161349
748.524	0.0160933
748.602	0.0161115
748.681	0.0160759
748.759	0.0161298
748.837	0.0162148
748.915	0.0160866
748.993	0.0160891
749.071	0.0161556
749.149	0.0160074
749.227	0.0160918
749.306	0.0160059
749.384	0.0161002
749.462	0.0160846
749.540	0.0162008
749.618	0.0161462
749.696	0.0162213
749.774	0.0161935
749.852	0.0161800
749.931	0.0162347
750.009	0.0162239
750.087	0.0161193
750.165	0.0161372
750.243	0.0160027
750.321	0.0162012
750.399	0.0162587
750.477	0.0161089
750.556	0.0162791
750.634	0.0162869
750.712	0.0161561
750.790	0.0161627
750.868	0.0160426
750.946	0.0161635
751.024	0.0161770
751.102	0.0161513
751.181	0.0161104
751.259	0.0161627
751.337	0.0162600
751.415	0.0161833
751.493	0.0161539
751.571	0.0162283
751.649	0.0160440
751.727	0.0162061
751.806	0.0160516
751.884	0.0160356
751.962	0.0163030
752.040	0.0161922
752.118	0.0160976
752.196	0.0161987
752.274	0.0161512
752.352	0.0160948
752.431	0.0161507
752.509	0.0160204
752.587	0.0160339
752.665	0.0160560
752.743	0.0161275
752.821	0.0161163
752.899	0.0160403
752.977	0.0161064
753.056	0.0162045
753.134	0.0163070
753.212	0.0161344
753.290	0.0162251
753.368	0.0162598
753.446	0.0163203
753.524	0.0162273
753.602	0.0161417
753.681	0.0160666
753.759	0.0162212
753.837	0.0162622
753.915	0.0163412
753.993	0.0162956
754.071	0.0162349
754.149	0.0162900
754.227	0.0162240
754.306	0.0162780
754.384	0.0162887
754.462	0.0162927
754.540	0.0162164
754.618	0.0162612
754.696	0.0162901
754.774	0.0162829
754.852	0.0161109
754.931	0.0162081
755.009	0.0163230
755.087	0.0161985
755.165	0.0163210
755.243	0.0163731
755.321	0.0164715
755.399	0.0161900
755.477	0.0161212
755.556	0.0161543
755.634	0.0162095
755.712	0.0162617
755.790	0.0160708
755.868	0.0161653
755.946	0.0162613
756.024	0.0162939
756.102	0.0162518
756.181	0.0160694
756.259	0.0161602
756.337	0.0160938
756.415	0.0161518
756.493	0.0160960
756.571	0.0160667
756.649	0.0160321
756.727	0.0161591
756.806	0.0160542
756.884	0.0159152
756.962	0.0160971
757.040	0.0160826
757.118	0.0161935
757.196	0.0161310
757.274	0.0160381
757.352	0.0161282
757.431	0.0161237
757.509	0.0162022
757.587	0.0162462
757.665	0.0161467
757.743	0.0161016
757.821	0.0161504
757.899	0.0161330
757.977	0.0162656
758.056	0.0161242
758.134	0.0161726
758.212	0.0161452
758.290	0.0162074
758.368	0.0162051
758.446	0.0161761
758.524	0.0161176
758.602	0.0161595
758.681	0.0161409
758.759	0.0161272
758.837	0.0162153
758.915	0.0163322
758.993	0.0161253
759.071	0.0161056
759.149	0.0162061
759.227	0.0162372
759.306	0.0163232
759.384	0.0161575
759.462	0.0161851
759.540	0.0162567
759.618	0.0162325
759.696	0.0161784
759.774	0.0161771
759.852	0.0160871
759.931	0.0161710
760.009	0.0162993
760.087	0.0160625
760.165	0.0161396
760.243	0.0161462
760.321	0.0161325
760.399	0.0161776
760.477	0.0161871
760.556	0.0160244
760.634	0.0161372
760.712	0.0161895
760.790	0.0162360
760.868	0.0161471
760.946	0.0161636
761.024	0.0162445
761.102	0.0161657
761.181	0.0161137
761.259	0.0162222
761.337	0.0160882
761.415	0.0160204
761.493	0.0161716
761.571	0.0161170
761.649	0.0160942
761.727	0.0161363
761.806	0.0160880
761.884	0.0160780
761.962	0.0161565
762.040	0.0160262
762.118	0.0160375
762.196	0.0161297
762.274	0.0161188
762.352	0.0160352
762.431	0.0160545
762.509	0.0162189
762.587	0.0160765
762.665	0.0161261
762.743	0.0160696
762.821	0.0159190
762.899	0.0160995
762.977	0.0160895
763.056	0.0160519
763.134	0.0159769
763.212	0.0160107
763.290	0.0161507
763.368	0.0160819
763.446	0.0160046
763.524	0.0160559
763.602	0.0160904
763.681	0.0162149
763.759	0.0161127
763.837	0.0160452
763.915	0.0161819
763.993	0.0162867
764.071	0.0160988
764.149	0.0160130
764.227	0.0160997
764.306	0.0161323
764.384	0.0162042
764.462	0.0161317
764.540	0.0161342
764.618	0.0161799
764.696	0.0160774
764.774	0.0162193
764.852	0.0160120
764.931	0.0160764
765.009	0.0161744
765.087	0.0160675
765.165	0.0162228
765.243	0.0160997
765.321	0.0161465
765.399	0.0160761
765.477	0.0161866
765.556	0.0160745
765.634	0.0160932
765.712	0.0159851
765.790	0.0161909
765.868	0.0161557
765.946	0.0161779
766.024	0.0161077
766.102	0.0162207
766.181	0.0160731
766.259	0.0160144
766.337	0.0161110
766.415	0.0163115
766.493	0.0161274
766.571	0.0161271
766.649	0.0163882
766.727	0.0161509
766.806	0.0161197
766.884	0.0160661
766.962	0.0161874
767.040	0.0160037
767.118	0.0161514
767.196	0.0161203
767.274	0.0160243
767.352	0.0160612
767.431	0.0160454
767.509	0.0160972
767.587	0.0161143
767.665	0.0158792
767.743	0.0160593
767.821	0.0160392
767.899	0.0159108
767.977	0.0158224
768.056	0.0160580
768.134	0.0161800
768.212	0.0160368
768.290	0.0159541
768.368	0.0160576
768.446	0.0159991
768.524	0.0160930
768.602	0.0159532
768.681	0.0160545
768.759	0.0160177
768.837	0.0160710
768.915	0.0160068
768.993	0.0159358
769.071	0.0160660
769.149	0.0161152
769.227	0.0161172
769.306	0.0161764
769.384	0.0160706
769.462	0.0161162
769.540	0.0161035
769.618	0.0161407
769.696	0.0160689
769.774	0.0159136
769.852	0.0160563
769.931	0.0161298
770.009	0.0159671
770.087	0.0159863
770.165	0.0160242
770.243	0.0159621
770.321	0.0159924
770.399	0.0160758
770.477	0.0160868
770.556	0.0160434
770.634	0.0160896
770.712	0.0160417
770.790	0.0160774
770.868	0.0160306
770.946	0.0160817
771.024	0.0160623
771.102	0.0160419
771.181	0.0161317
771.259	0.0160831
771.337	0.0161600
771.415	0.0160641
771.493	0.0161540
771.571	0.0160149
771.649	0.0161977
771.727	0.0160776
771.806	0.0161641
771.884	0.0160062
771.962	0.0161390
772.040	0.0160791
772.118	0.0160560
772.196	0.0161967
772.274	0.0160638
772.352	0.0162180
772.431	0.0162033
772.509	0.0161277
772.587	0.0160790
772.665	0.0162435
772.743	0.0162090
772.821	0.0161860
772.899	0.0163262
772.977	0.0161338
773.056	0.0160694
773.134	0.0160725
773.212	0.0163177
773.290	0.0161094
773.368	0.0161256
773.446	0.0161510
773.524	0.0161343
773.602	0.0162043
773.681	0.0161918
773.759	0.0161796
773.837	0.0161501
773.915	0.0160654
773.993	0.0161208
774.071	0.0162370
774.149	0.0160867
774.227	0.0160706
774.306	0.0161481
774.384	0.0161176
774.462	0.0161745
774.540	0.0161598
774.618	0.0161497
774.696	0.0160843
774.774	0.0161435
774.852	0.0163303
774.931	0.0162072
775.009	0.0162845
775.087	0.0163000
775.165	0.0161440
775.243	0.0163363
775.321	0.0162115
775.399	0.0161799
775.477	0.0160931
775.556	0.0161999
775.634	0.0162455
775.712	0.0160652
775.790	0.0161963
775.868	0.0162880
775.946	0.0163142
776.024	0.0163836
776.102	0.0163625
776.181	0.0164204
776.259	0.0162946
776.337	0.0162238
776.415	0.0163683
776.493	0.0162943
776.571	0.0163444
776.649	0.0162404
776.727	0.0161185
776.806	0.0162142
776.884	0.0163802
776.962	0.0162251
777.040	0.0162345
777.118	0.0161155
777.196	0.0161552
777.274	0.0164008
777.352	0.0162458
777.431	0.0162538
777.509	0.0163206
777.587	0.0162656
777.665	0.0161498
777.743	0.0161261
777.821	0.0161533
777.899	0.0161328
777.977	0.0162990
778.056	0.0161080
778.134	0.0161720
778.212	0.0159881
778.290	0.0161608
778.368	0.0161574
778.446	0.0162352
778.524	0.0161324
778.602	0.0161022
778.681	0.0160290
778.759	0.0163033
778.837	0.0161567
778.915	0.0161782
778.993	0.0161995
779.071	0.0162287
779.149	0.0161970
779.227	0.0161137
779.306	0.0162838
779.384	0.0161720
779.462	0.0162827
779.540	0.0161757
779.618	0.0163128
779.696	0.0163953
779.774	0.0162960
779.852	0.0163101
779.931	0.0162156
780.009	0.0161488
780.087	0.0162166
780.165	0.0162650
780.243	0.0162352
780.321	0.0161940
780.399	0.0162001
780.477	0.0162476
780.556	0.0162120
780.634	0.0161617
780.712	0.0161695
780.790	0.0162238
780.868	0.0162157
780.946	0.0163151
781.024	0.0162328
781.102	0.0162395
781.181	0.0161853
781.259	0.0161400
781.337	0.0162402
781.415	0.0161961
781.493	0.0161825
781.571	0.0161198
781.649	0.0161914
781.727	0.0161689
781.806	0.0161768
781.884	0.0162659
781.962	0.0161146
782.040	0.0161600
782.118	0.0161713
782.196	0.0160207
782.274	0.0160565
782.352	0.0160655
782.431	0.0161024
782.509	0.0159821
782.587	0.0161745
782.665	0.0160944
782.743	0.0162017
782.821	0.0161008
782.899	0.0162208
782.977	0.0160857
783.056	0.0160518
783.134	0.0161731
783.212	0.0161567
783.290	0.0160764
783.368	0.0162744
783.446	0.0160599
783.524	0.0160732
783.602	0.0160870
783.681	0.0161858
783.759	0.0163337
783.837	0.0160213
783.915	0.0159881
783.993	0.0160410
784.071	0.0162515
784.149	0.0160445
784.227	0.0159663
784.306	0.0161181
784.384	0.0160791
784.462	0.0160929
784.540	0.0161516
784.618	0.0161049
784.696	0.0160403
784.774	0.0160391
784.852	0.0161996
784.931	0.0160875
785.009	0.0160563
785.087	0.0159714
785.165	0.0160519
785.243	0.0161058
785.321	0.0160764
785.399	0.0162057
785.477	0.0161505
785.556	0.0160527
785.634	0.0160439
785.712	0.0161564
785.790	0.0161838
785.868	0.0162329
785.946	0.0161428
786.024	0.0160755
786.102	0.0161316
786.181	0.0161642
786.259	0.0162141
786.337	0.0160445
786.415	0.0160075
786.493	0.0161165
786.571	0.0161440
786.649	0.0160500
786.727	0.0161942
786.806	0.0161902
786.884	0.0162180
786.962	0.0160863
787.040	0.0161838
787.118	0.0162080
787.196	0.0162772
787.274	0.0162108
787.352	0.0162695
787.431	0.0162044
787.509	0.0161492
787.587	0.0162156
787.665	0.0161335
787.743	0.0161722
787.821	0.0162128
787.899	0.0162144
787.977	0.0163100
788.056	0.0161137
788.134	0.0161662
788.212	0.0161282
788.290	0.0162096
788.368	0.0162303
788.446	0.0162175
788.524	0.0162112
788.602	0.0162932
788.681	0.0162041
788.759	0.0162633
788.837	0.0161592
788.915	0.0161195
788.993	0.0162218
789.071	0.0161262
789.149	0.0161700
789.227	0.0160432
789.306	0.0160271
789.384	0.0161787
789.462	0.0162521
789.540	0.0161443
789.618	0.0160960
789.696	0.0161399
789.774	0.0161856
789.852	0.0160344
789.931	0.0160851
790.009	0.0161425
790.087	0.0160745
790.165	0.0162084
790.243	0.0160588
790.321	0.0160872
790.399	0.0161150
790.477	0.0160237
790.556	0.0160886
790.634	0.0161443
790.712	0.0160995
790.790	0.0159945
790.868	0.0160519
790.946	0.0159841
791.024	0.0160748
791.102	0.0160175
791.181	0.0160504
791.259	0.0161322
791.337	0.0161073
791.415	0.0160974
791.493	0.0159896
791.571	0.0159908
791.649	0.0160352
791.727	0.0161623
791.806	0.0161483
791.884	0.0161543
791.962	0.0160034
792.040	0.0160140
792.118	0.0161224
792.196	0.0161797
792.274	0.0162072
792.352	0.0162592
792.431	0.0161385
792.509	0.0159803
792.587	0.0161050
792.665	0.0161309
792.743	0.0161417
792.821	0.0162193
792.899	0.0160950
792.977	0.0161168
793.056	0.0161783
793.134	0.0161797
793.212	0.0161787
793.290	0.0160018
793.368	0.0162148
793.446	0.0161893
793.524	0.0161565
793.602	0.0159996
793.681	0.0160759
793.759	0.0161211
793.837	0.0161803
793.915	0.0160307
793.993	0.0161636
794.071	0.0162354
794.149	0.0161001
794.227	0.0161773
794.306	0.0161751
794.384	0.0163198
794.462	0.0161795
794.540	0.0161837
794.618	0.0162359
794.696	0.0161921
794.774	0.0160463
794.852	0.0162844
794.931	0.0162817
795.009	0.0162597
795.087	0.0160958
795.165	0.0162440
795.243	0.0162145
795.321	0.0161381
795.399	0.0162927
795.477	0.0162386
795.556	0.0160219
795.634	0.0162210
795.712	0.0161302
795.790	0.0162371
795.868	0.0162327
795.946	0.0161667
796.024	0.0162163
796.102	0.0162975
796.181	0.0162267
796.259	0.0162946
796.337	0.0162910
796.415	0.0160020
796.493	0.0160922
796.571	0.0162423
796.649	0.0162566
796.727	0.0162962
796.806	0.0162719
796.884	0.0162988
796.962	0.0162254
797.040	0.0163971
797.118	0.0164175
797.196	0.0161549
797.274	0.0162255
797.352	0.0161786
797.431	0.0163556
797.509	0.0163160
797.587	0.0162415
797.665	0.0161028
797.743	0.0163211
797.821	0.0161631
797.899	0.0163309
797.977	0.0162418
798.056	0.0162281
798.134	0.0163126
798.212	0.0163276
798.290	0.0162842
798.368	0.0162884
798.446	0.0162691
798.524	0.0161977
798.602	0.0162821
798.681	0.0163187
798.759	0.0164210
798.837	0.0164498
798.915	0.0162312
798.993	0.0161504
799.071	0.0163009
799.149	0.0161495
799.227	0.0162393
799.306	0.0161146
799.384	0.0161676
799.462	0.0163190
799.540	0.0162067
799.618	0.0161564
799.696	0.0162783
799.774	0.0161347
799.852	0.0161032
799.931	0.0161384
800.009	0.0163422
800.087	0.0162730
800.165	0.0161880
800.243	0.0163866
800.321	0.0162683
800.399	0.0163240
800.477	0.0161198
800.556	0.0161420
800.634	0.0162368
800.712	0.0162902
800.790	0.0162901
800.868	0.0162179
800.946	0.0161871
801.024	0.0163235
801.102	0.0161645
801.181	0.0161875
801.259	0.0162592
801.337	0.0161891
801.415	0.0160770
801.493	0.0161574
801.571	0.0161023
801.649	0.0161538
801.727	0.0162186
801.806	0.0161833
801.884	0.0160952
801.962	0.0161240
802.040	0.0161455
802.118	0.0162969
802.196	0.0159438
802.274	0.0161696
802.352	0.0161483
802.431	0.0162048
802.509	0.0159604
802.587	0.0161153
802.665	0.0161688
802.743	0.0160361
802.821	0.0160606
802.899	0.0160848
802.977	0.0161749
803.056	0.0162508
803.134	0.0161442
803.212	0.0161437
803.290	0.0160702
803.368	0.0161852
803.446	0.0162637
803.524	0.0160513
803.602	0.0161781
803.681	0.0161626
803.759	0.0162367
803.837	0.0161467
803.915	0.0162742
803.993	0.0162656
804.071	0.0162026
804.149	0.0161974
804.227	0.0162668
804.306	0.0163392
804.384	0.0162427
804.462	0.0162704
804.540	0.0163537
804.618	0.0163284
804.696	0.0161481
804.774	0.0162319
804.852	0.0162943
804.931	0.0161636
805.009	0.0162218
805.087	0.0161637
805.165	0.0163262
805.243	0.0161798
805.321	0.0162938
805.399	0.0161745
805.477	0.0162121
805.556	0.0162425
805.634	0.0162637
805.712	0.0162755
805.790	0.0162794
805.868	0.0162228
805.946	0.0162906
806.024	0.0163225
806.102	0.0162525
806.181	0.0161130
806.259	0.0162111
806.337	0.0162732
806.415	0.0162102
806.493	0.0162413
806.571	0.0161066
806.649	0.0163224
806.727	0.0162315
806.806	0.0162614
806.884	0.0162487
806.962	0.0162678
807.040	0.0161884
807.118	0.0161868
807.196	0.0162684
807.274	0.0163127
807.352	0.0161050
807.431	0.0162931
807.509	0.0162746
807.587	0.0162386
807.665	0.0161066
807.743	0.0160985
807.821	0.0161536
807.899	0.0160939
807.977	0.0161848
808.056	0.0161601
808.134	0.0160939
808.212	0.0161801
808.290	0.0162499
808.368	0.0160471
808.446	0.0161044
808.524	0.0161176
808.602	0.0161992
808.681	0.0162272
808.759	0.0162917
808.837	0.0161092
808.915	0.0160743
808.993	0.0162479
809.071	0.0162552
809.149	0.0161111
809.227	0.0161439
809.306	0.0161974
809.384	0.0162629
809.462	0.0161347
809.540	0.0161755
809.618	0.0161494
809.696	0.0161738
809.774	0.0162503
809.852	0.0162281
809.931	0.0162632
810.009	0.0161124
810.087	0.0162865
810.165	0.0164084
810.243	0.0162148
810.321	0.0162345
810.399	0.0160881
810.477	0.0161805
810.556	0.0161952
810.634	0.0162601
810.712	0.0162679
810.790	0.0162420
810.868	0.0162577
810.946	0.0162445
811.024	0.0161730
811.102	0.0162836
811.181	0.0162463
811.259	0.0161880
811.337	0.0162532
811.415	0.0162328
811.493	0.0160940
811.571	0.0162337
811.649	0.0161813
811.727	0.0161359
811.806	0.0161409
811.884	0.0161130
811.962	0.0163209
812.040	0.0161237
812.118	0.0161320
812.196	0.0162189
812.274	0.0160986
812.352	0.0162376
812.431	0.0162642
812.509	0.0161752
812.587	0.0161369
812.665	0.0161199
812.743	0.0162160
812.821	0.0161862
812.899	0.0160011
812.977	0.0161664
813.056	0.0162731
813.134	0.0162825
813.212	0.0161353
813.290	0.0161482
813.368	0.0161846
813.446	0.0160903
813.524	0.0161308
813.602	0.0161674
813.681	0.0161612
813.759	0.0162512
813.837	0.0162666
813.915	0.0162168
813.993	0.0160598
814.071	0.0161041
814.149	0.0161752
814.227	0.0161844
814.306	0.0162325
814.384	0.0162163
814.462	0.0161638
814.540	0.0163187
814.618	0.0162053
814.696	0.0161424
814.774	0.0161134
814.852	0.0162566
814.931	0.0163038
815.009	0.0162893
815.087	0.0161447
815.165	0.0161861
815.243	0.0160818
815.321	0.0161769
815.399	0.0163269
815.477	0.0161119
815.556	0.0161239
815.634	0.0161800
815.712	0.0162047
815.790	0.0162141
815.868	0.0161523
815.946	0.0163255
816.024	0.0162965
816.102	0.0162217
816.181	0.0162587
816.259	0.0161798
816.337	0.0160629
816.415	0.0161735
816.493	0.0162111
816.571	0.0162798
816.649	0.0162481
816.727	0.0162656
816.806	0.0162473
816.884	0.0161447
816.962	0.0162870
817.040	0.0162036
817.118	0.0162273
817.196	0.0163236
817.274	0.0162139
817.352	0.0160492
817.431	0.0162054
817.509	0.0161090
817.587	0.0161066
817.665	0.0160490
817.743	0.0162058
817.821	0.0162325
817.899	0.0161956
817.977	0.0163322
818.056	0.0160781
818.134	0.0161091
818.212	0.0161864
818.290	0.0162183
818.368	0.0162114
818.446	0.0162933
818.524	0.0162535
818.602	0.0162302
818.681	0.0162030
818.759	0.0162523
818.837	0.0162714
818.915	0.0161250
818.993	0.0160976
819.071	0.0162352
819.149	0.0163076
819.227	0.0162286
819.306	0.0162107
819.384	0.0163086
819.462	0.0162537
819.540	0.0160656
819.618	0.0161502
819.696	0.0161039
819.774	0.0161219
819.852	0.0162120
819.931	0.0161919
820.009	0.0161489
820.087	0.0161129
820.165	0.0161044
820.243	0.0161452
820.321	0.0160866
820.399	0.0162253
820.477	0.0161131
820.556	0.0161308
820.634	0.0161435
820.712	0.0160170
820.790	0.0160477
820.868	0.0160239
820.946	0.0161674
821.024	0.0160206
821.102	0.0161108
821.181	0.0162254
821.259	0.0160532
821.337	0.0160956
821.415	0.0160349
821.493	0.0161392
821.571	0.0160778
821.649	0.0160774
821.727	0.0160509
821.806	0.0160252
821.884	0.0161663
821.962	0.0161707
822.040	0.0160384
822.118	0.0160253
822.196	0.0162138
822.274	0.0161807
822.352	0.0161494
822.431	0.0161502
822.509	0.0162000
822.587	0.0161330
822.665	0.0161208
822.743	0.0161497
822.821	0.0161490
822.899	0.0160682
822.977	0.0160441
823.056	0.0161487
823.134	0.0161927
823.212	0.0160529
823.290	0.0160277
823.368	0.0160451
823.446	0.0160599
823.524	0.0161916
823.602	0.0161905
823.681	0.0160946
823.759	0.0160696
823.837	0.0161399
823.915	0.0160206
823.993	0.0160947
824.071	0.0160805
824.149	0.0160868
824.227	0.0161713
824.306	0.0162714
824.384	0.0160925
824.462	0.0160838
824.540	0.0160310
824.618	0.0160665
824.696	0.0160604
824.774	0.0162383
824.852	0.0160751
824.931	0.0161617
825.009	0.0160553
825.087	0.0161000
825.165	0.0160644
825.243	0.0161412
825.321	0.0161000
825.399	0.0161310
825.477	0.0161051
825.556	0.0160154
825.634	0.0160541
825.712	0.0162455
825.790	0.0161096
825.868	0.0161118
825.946	0.0161769
826.024	0.0160889
826.102	0.0160865
826.181	0.0161640
826.259	0.0161100
826.337	0.0160151
826.415	0.0160661
826.493	0.0161671
826.571	0.0161060
826.649	0.0161272
826.727	0.0162304
826.806	0.0161597
826.884	0.0161343
826.962	0.0161589
827.040	0.0160162
827.118	0.0161358
827.196	0.0162696
827.274	0.0161488
827.352	0.0161173
827.431	0.0161864
827.509	0.0162152
827.587	0.0161882
827.665	0.0162632
827.743	0.0161581
827.821	0.0160995
827.899	0.0160239
827.977	0.0161209
828.056	0.0162389
828.134	0.0161385
828.212	0.0161420
828.290	0.0161493
828.368	0.0160826
828.446	0.0160766
828.524	0.0160765
828.602	0.0161563
828.681	0.0161724
828.759	0.0162473
828.837	0.0161878
828.915	0.0162981
828.993	0.0162002
829.071	0.0161491
829.149	0.0162772
829.227	0.0162088
829.306	0.0163078
829.384	0.0161795
829.462	0.0162048
829.540	0.0161850
829.618	0.0162624
829.696	0.0163245
829.774	0.0161713
829.852	0.0161812
829.931	0.0163134
830.009	0.0162428
830.087	0.0161674
830.165	0.0162439
830.243	0.0163868
830.321	0.0162914
830.399	0.0162511
830.477	0.0163887
830.556	0.0162601
830.634	0.0162001
830.712	0.0163323
830.790	0.0161915
830.868	0.0162492
830.946	0.0161595
831.024	0.0162385
831.102	0.0162164
831.181	0.0161546
831.259	0.0162233
831.337	0.0161851
831.415	0.0161678
831.493	0.0161716
831.571	0.0162334
831.649	0.0160605
831.727	0.0161370
831.806	0.0161168
831.884	0.0161334
831.962	0.0160439
832.040	0.0162635
832.118	0.0161673
832.196	0.0161914
832.274	0.0161491
832.352	0.0162407
832.431	0.0161178
832.509	0.0160680
832.587	0.0163213
832.665	0.0162969
832.743	0.0162046
832.821	0.0162975
832.899	0.0162773
832.977	0.0162676
833.056	0.0161456
833.134	0.0160719
833.212	0.0162596
833.290	0.0162390
833.368	0.0163094
833.446	0.0161600
833.524	0.0161657
833.602	0.0162148
833.681	0.0162923
833.759	0.0161705
833.837	0.0162816
833.915	0.0161015
833.993	0.0162035
834.071	0.0161323
834.149	0.0162856
834.227	0.0162429
834.306	0.0162894
834.384	0.0161633
834.462	0.0161507
834.540	0.0162605
834.618	0.0162077
834.696	0.0161285
834.774	0.0161904
834.852	0.0162905
834.931	0.0161754
835.009	0.0162834
835.087	0.0161525
835.165	0.0162076
835.243	0.0162302
835.321	0.0162692
835.399	0.0162669
835.477	0.0161637
835.556	0.0161082
835.634	0.0161167
835.712	0.0162574
835.790	0.0162260
835.868	0.0159696
835.946	0.0161068
836.024	0.0162796
836.102	0.0161487
836.181	0.0161283
836.259	0.0161892
836.337	0.0161349
836.415	0.0161253
836.493	0.0161958
836.571	0.0161148
836.649	0.0161644
836.727	0.0159954
836.806	0.0159434
836.884	0.0160462
836.962	0.0159340
837.040	0.0161061
837.118	0.0160191
837.196	0.0160668
837.274	0.0162068
837.352	0.0160712
837.431	0.0161018
837.509	0.0161610
837.587	0.0161767
837.665	0.0161269
837.743	0.0161673
837.821	0.0160472
837.899	0.0161517
837.977	0.0161011
838.056	0.0162086
838.134	0.0161555
838.212	0.0160647
838.290	0.0161095
838.368	0.0161375
838.446	0.0162125
838.524	0.0160981
838.602	0.0161977
838.681	0.0161747
838.759	0.0162586
838.837	0.0160851
838.915	0.0161953
838.993	0.0162389
839.071	0.0162476
839.149	0.0162341
839.227	0.0161760
839.306	0.0161188
839.384	0.0161746
839.462	0.0161195
839.540	0.0161519
839.618	0.0161346
839.696	0.0161898
839.774	0.0161629
839.852	0.0162173
839.931	0.0162025
840.009	0.0160799
840.087	0.0162022
840.165	0.0161841
840.243	0.0162189
840.321	0.0162145
840.399	0.0160387
840.477	0.0161774
840.556	0.0162672
840.634	0.0161552
840.712	0.0160371
840.790	0.0161663
840.868	0.0161895
840.946	0.0161217
841.024	0.0162464
841.102	0.0162368
841.181	0.0161481
841.259	0.0160605
841.337	0.0160403
841.415	0.0159673
841.493	0.0161843
841.571	0.0160425
841.649	0.0161256
841.727	0.0161266
841.806	0.0161292
841.884	0.0160672
841.962	0.0162070
842.040	0.0159946
842.118	0.0160114
842.196	0.0161020
842.274	0.0160420
842.352	0.0160844
842.431	0.0161105
842.509	0.0160032
842.587	0.0160738
842.665	0.0159698
842.743	0.0161307
842.821	0.0160171
842.899	0.0158968
842.977	0.0161320
843.056	0.0160783
843.134	0.0159587
843.212	0.0158351
843.290	0.0159506
843.368	0.0160879
843.446	0.0158855
843.524	0.0159299
843.602	0.0161165
843.681	0.0160724
843.759	0.0159541
843.837	0.0159949
843.915	0.0159861
843.993	0.0160719
844.071	0.0159984
844.149	0.0160049
844.227	0.0160544
844.306	0.0159475
844.384	0.0159932
844.462	0.0159510
844.540	0.0160482
844.618	0.0160599
844.696	0.0160062
844.774	0.0159602
844.852	0.0160964
844.931	0.0160689
845.009	0.0160564
845.087	0.0159622
845.165	0.0158122
845.243	0.0160167
845.321	0.0159312
845.399	0.0159630
845.477	0.0159225
845.556	0.0160132
845.634	0.0159955
845.712	0.0159325
845.790	0.0160716
845.868	0.0159157
845.946	0.0158670
846.024	0.0160280
846.102	0.0159584
846.181	0.0159698
846.259	0.0160290
846.337	0.0160897
846.415	0.0159732
846.493	0.0159743
846.571	0.0160960
846.649	0.0160552
846.727	0.0160826
846.806	0.0160157
846.884	0.0159749
846.962	0.0160507
847.040	0.0162077
847.118	0.0160851
847.196	0.0160950
847.274	0.0161767
847.352	0.0161466
847.431	0.0161568
847.509	0.0161565
847.587	0.0161090
847.665	0.0161870
847.743	0.0162560
847.821	0.0161130
847.899	0.0160238
847.977	0.0162830
848.056	0.0162168
848.134	0.0162545
848.212	0.0163165
848.290	0.0161345
848.368	0.0161069
848.446	0.0162710
848.524	0.0161044
848.602	0.0162369
848.681	0.0162354
848.759	0.0160402
848.837	0.0162806
848.915	0.0163020
848.993	0.0162984
849.071	0.0162792
849.149	0.0161269
849.227	0.0162054
849.306	0.0162337
849.384	0.0161082
849.462	0.0162631
849.540	0.0162020
849.618	0.0161387
849.696	0.0162943
849.774	0.0161916
849.852	0.0163434
849.931	0.0163278
850.009	0.0162360
850.087	0.0161871
850.165	0.0162135
850.243	0.0162262
850.321	0.0162345
850.399	0.0161377
850.477	0.0162030
850.556	0.0162238
850.634	0.0162239
850.712	0.0162714
850.790	0.0161449
850.868	0.0161871
850.946	0.0161665
851.024	0.0162193
851.102	0.0162370
851.181	0.0162776
851.259	0.0162610
851.337	0.0163087
851.415	0.0161417
851.493	0.0161063
851.571	0.0160925
851.649	0.0161020
851.727	0.0162292
851.806	0.0160178
851.884	0.0160352
851.962	0.0162320
852.040	0.0161140
852.118	0.0161091
852.196	0.0160954
852.274	0.0160774
852.352	0.0162312
852.431	0.0161767
852.509	0.0160329
852.587	0.0160828
852.665	0.0161426
852.743	0.0161886
852.821	0.0160867
852.899	0.0160992
852.977	0.0160563
853.056	0.0160669
853.134	0.0160558
853.212	0.0159891
853.290	0.0161253
853.368	0.0161205
853.446	0.0161157
853.524	0.0162193
853.602	0.0161001
853.681	0.0160223
853.759	0.0160334
853.837	0.0160744
853.915	0.0161217
853.993	0.0162720
854.071	0.0160507
854.149	0.0161147
854.227	0.0161604
854.306	0.0160680
854.384	0.0161475
854.462	0.0159196
854.540	0.0161150
854.618	0.0162305
854.696	0.0161744
854.774	0.0160310
854.852	0.0160384
854.931	0.0160152
855.009	0.0161269
855.087	0.0162891
855.165	0.0162070
855.243	0.0161714
855.321	0.0162029
855.399	0.0161066
855.477	0.0160854
855.556	0.0162114
855.634	0.0162874
855.712	0.0161179
855.790	0.0162677
855.868	0.0162047
855.946	0.0162329
856.024	0.0163583
856.102	0.0161617
856.181	0.0161150
856.259	0.0162299
856.337	0.0162554
856.415	0.0161597
856.493	0.0161449
856.571	0.0162737
856.649	0.0161865
856.727	0.0161360
856.806	0.0162276
856.884	0.0162074
856.962	0.0161630
857.040	0.0161748
857.118	0.0161704
857.196	0.0160654
857.274	0.0160611
857.352	0.0160667
857.431	0.0161162
857.509	0.0162936
857.587	0.0161440
857.665	0.0161042
857.743	0.0160970
857.821	0.0162410
857.899	0.0161906
857.977	0.0160752
858.056	0.0161172
858.134	0.0161651
858.212	0.0161028
858.290	0.0161420
858.368	0.0161757
858.446	0.0161729
858.524	0.0161140
858.602	0.0161889
858.681	0.0161547
858.759	0.0160818
858.837	0.0159678
858.915	0.0161770
858.993	0.0160958
859.071	0.0160883
859.149	0.0161427
859.227	0.0162022
859.306	0.0161400
859.384	0.0159570
859.462	0.0161176
859.540	0.0160789
859.618	0.0161478
859.696	0.0161330
859.774	0.0160624
859.852	0.0161269
859.931	0.0161008
860.009	0.0160435
860.087	0.0160026
860.165	0.0161221
860.243	0.0162746
860.321	0.0160745
860.399	0.0160461
860.477	0.0160965
860.556	0.0159091
860.634	0.0161887
860.712	0.0161208
860.790	0.0160087
860.868	0.0161123
860.946	0.0161978
861.024	0.0161634
861.102	0.0161124
861.181	0.0160131
861.259	0.0161391
861.337	0.0161658
861.415	0.0160732
861.493	0.0160629
861.571	0.0161472
861.649	0.0162030
861.727	0.0162398
861.806	0.0162086
861.884	0.0162060
861.962	0.0161640
862.040	0.0162621
862.118	0.0161971
862.196	0.0162511
862.274	0.0162393
862.352	0.0162376
862.431	0.0162373
862.509	0.0161874
862.587	0.0162918
862.665	0.0160883
862.743	0.0162397
862.821	0.0163649
862.899	0.0160339
862.977	0.0161220
863.056	0.0160666
863.134	0.0162506
863.212	0.0162352
863.290	0.0161308
863.368	0.0162521
863.446	0.0161004
863.524	0.0161625
863.602	0.0160609
863.681	0.0160732
863.759	0.0162006
863.837	0.0161366
863.915	0.0161866
863.993	0.0161013
864.071	0.0161930
864.149	0.0160629
864.227	0.0161797
864.306	0.0162170
864.384	0.0161113
864.462	0.0161984
864.540	0.0161755
864.618	0.0160814
864.696	0.0162055
864.774	0.0161829
864.852	0.0161994
864.931	0.0160771
865.009	0.0161530
865.087	0.0160894
865.165	0.0161329
865.243	0.0161977
865.321	0.0161732
865.399	0.0161641
865.477	0.0161193
865.556	0.0161348
865.634	0.0162334
865.712	0.0160680
865.790	0.0161546
865.868	0.0161591
865.946	0.0161287
866.024	0.0162186
866.102	0.0160621
866.181	0.0159770
866.259	0.0161759
866.337	0.0161501
866.415	0.0160763
866.493	0.0161701
866.571	0.0159569
866.649	0.0160850
866.727	0.0160118
866.806	0.0161912
866.884	0.0161189
866.962	0.0161484
867.040	0.0160626
867.118	0.0162212
867.196	0.0162103
867.274	0.0161549
867.352	0.0161637
867.431	0.0160994
867.509	0.0160869
867.587	0.0161446
867.665	0.0160883
867.743	0.0161259
867.821	0.0162048
867.899	0.0161678
867.977	0.0160941
868.056	0.0160248
868.134	0.0161248
868.212	0.0161199
868.290	0.0160651
868.368	0.0160666
868.446	0.0161915
868.524	0.0160711
868.602	0.0161075
868.681	0.0160689
868.759	0.0160918
868.837	0.0161494
868.915	0.0161774
868.993	0.0161453
869.071	0.0161462
869.149	0.0160448
869.227	0.0161520
869.306	0.0161085
869.384	0.0161687
869.462	0.0161310
869.540	0.0162080
869.618	0.0162971
869.696	0.0161118
869.774	0.0160951
869.852	0.0162437
869.931	0.0162438
870.009	0.0161764
870.087	0.0161400
870.165	0.0162299
870.243	0.0162576
870.321	0.0162495
870.399	0.0161380
870.477	0.0161070
870.556	0.0162844
870.634	0.0161719
870.712	0.0162397
870.790	0.0162054
870.868	0.0160916
870.946	0.0161749
871.024	0.0160777
871.102	0.0162335
871.181	0.0161226
871.259	0.0159686
871.337	0.0161363
871.415	0.0162774
871.493	0.0161731
871.571	0.0162233
871.649	0.0161032
871.727	0.0161497
871.806	0.0161398
871.884	0.0161488
871.962	0.0162112
872.040	0.0160699
872.118	0.0160932
872.196	0.0162301
872.274	0.0161973
872.352	0.0162729
872.431	0.0161034
872.509	0.0160970
872.587	0.0161581
872.665	0.0162375
872.743	0.0161983
872.821	0.0162129
872.899	0.0162601
872.977	0.0162618
873.056	0.0161492
873.134	0.0162430
873.212	0.0161731
873.290	0.0161880
873.368	0.0161567
873.446	0.0162029
873.524	0.0161725
873.602	0.0162565
873.681	0.0163825
873.759	0.0163014
873.837	0.0162912
873.915	0.0162742
873.993	0.0163924
874.071	0.0162525
874.149	0.0163465
874.227	0.0163457
874.306	0.0163688
874.384	0.0162835
874.462	0.0162853
874.540	0.0162705
874.618	0.0162273
874.696	0.0163807
874.774	0.0163156
874.852	0.0163096
874.931	0.0163687
875.009	0.0163945
875.087	0.0162341
875.165	0.0163654
875.243	0.0164226
875.321	0.0163639
875.399	0.0162522
875.477	0.0162585
875.556	0.0162708
875.634	0.0162621
875.712	0.0161453
875.790	0.0164112
875.868	0.0162513
875.946	0.0163396
876.024	0.0162905
876.102	0.0161836
876.181	0.0162469
876.259	0.0162905
876.337	0.0161929
876.415	0.0161416
876.493	0.0160698
876.571	0.0162778
876.649	0.0161891
876.727	0.0161427
876.806	0.0161397
876.884	0.0161578
876.962	0.0161831
877.040	0.0161002
877.118	0.0161226
877.196	0.0160820
877.274	0.0162161
877.352	0.0161912
877.431	0.0161536
877.509	0.0159732
877.587	0.0161962
877.665	0.0162541
877.743	0.0161283
877.821	0.0160475
877.899	0.0160295
877.977	0.0160593
878.056	0.0160497
878.134	0.0161644
878.212	0.0162385
878.290	0.0161353
878.368	0.0162072
878.446	0.0161004
878.524	0.0161954
878.602	0.0161793
878.681	0.0160872
878.759	0.0161652
878.837	0.0160146
878.915	0.0160977
878.993	0.0161866
879.071	0.0162093
879.149	0.0161818
879.227	0.0160005
879.306	0.0160063
879.384	0.0161082
879.462	0.0161902
879.540	0.0160119
879.618	0.0160992
879.696	0.0162305
879.774	0.0161372
879.852	0.0161179
879.931	0.0161103
880.009	0.0160712
880.087	0.0160722
880.165	0.0162044
880.243	0.0161497
880.321	0.0160748
880.399	0.0162298
880.477	0.0161810
880.556	0.0160670
880.634	0.0160910
880.712	0.0161568
880.790	0.0161613
880.868	0.0162519
880.946	0.0161523
881.024	0.0162420
881.102	0.0162166
881.181	0.0161043
881.259	0.0162249
881.337	0.0160827
881.415	0.0161109
881.493	0.0161000
881.571	0.0160554
881.649	0.0161231
881.727	0.0162124
881.806	0.0159797
881.884	0.0160168
881.962	0.0161779
882.040	0.0159981
882.118	0.0160518
882.196	0.0160420
882.274	0.0160345
882.352	0.0162008
882.431	0.0161214
882.509	0.0159427
882.587	0.0159556
882.665	0.0160432
882.743	0.0161833
882.821	0.0160973
882.899	0.0160054
882.977	0.0160332
883.056	0.0159122
883.134	0.0160064
883.212	0.0160087
883.290	0.0160739
883.368	0.0162236
883.446	0.0160259
883.524	0.0160199
883.602	0.0161015
883.681	0.0160550
883.759	0.0160371
883.837	0.0160053
883.915	0.0160423
883.993	0.0160826
884.071	0.0162904
884.149	0.0162196
884.227	0.0160580
884.306	0.0162154
884.384	0.0161924
884.462	0.0162471
884.540	0.0162910
884.618	0.0161926
884.696	0.0162614
884.774	0.0163102
884.852	0.0162295
884.931	0.0161714
885.009	0.0161269
885.087	0.0162218
885.165	0.0162523
885.243	0.0161401
885.321	0.0161677
885.399	0.0162012
885.477	0.0160132
885.556	0.0161610
885.634	0.0161829
885.712	0.0161951
885.790	0.0161790
885.868	0.0161539
885.946	0.0161501
886.024	0.0161861
886.102	0.0162981
886.181	0.0161688
886.259	0.0161506
886.337	0.0160972
886.415	0.0161434
886.493	0.0161835
886.571	0.0160657
886.649	0.0162013
886.727	0.0161214
886.806	0.0162278
886.884	0.0162113
886.962	0.0161156
887.040	0.0162014
887.118	0.0163101
887.196	0.0161007
887.274	0.0162766
887.352	0.0162790
887.431	0.0162856
887.509	0.0162625
887.587	0.0161669
887.665	0.0162733
887.743	0.0162725
887.821	0.0163293
887.899	0.0163046
887.977	0.0160952
888.056	0.0162773
888.134	0.0161985
888.212	0.0162225
888.290	0.0163390
888.368	0.0163057
888.446	0.0163508
888.524	0.0162982
888.602	0.0162095
888.681	0.0162318
888.759	0.0163736
888.837	0.0162710
888.915	0.0162876
888.993	0.0164299
889.071	0.0162514
889.149	0.0162133
889.227	0.0162542
889.306	0.0160419
889.384	0.0163546
889.462	0.0161648
889.540	0.0161283
889.618	0.0161936
889.696	0.0161728
889.774	0.0161411
889.852	0.0161901
889.931	0.0161480
890.009	0.0161893
890.087	0.0161089
890.165	0.0161090
890.243	0.0162283
890.321	0.0161714
890.399	0.0161595
890.477	0.0161676
890.556	0.0162491
890.634	0.0161568
890.712	0.0162111
890.790	0.0162273
890.868	0.0162225
890.946	0.0162413
891.024	0.0162186
891.102	0.0163013
891.181	0.0161609
891.259	0.0162948
891.337	0.0162441
891.415	0.0162842
891.493	0.0162918
891.571	0.0161932
891.649	0.0162391
891.727	0.0163531
891.806	0.0162766
891.884	0.0161819
891.962	0.0162985
892.040	0.0163895
892.118	0.0162927
892.196	0.0162057
892.274	0.0163809
892.352	0.0163261
892.431	0.0162331
892.509	0.0161782
892.587	0.0162584
892.665	0.0161177
892.743	0.0162656
892.821	0.0162035
892.899	0.0161689
892.977	0.0160760
893.056	0.0162538
893.134	0.0161073
893.212	0.0160298
893.290	0.0160889
893.368	0.0160548
893.446	0.0161009
893.524	0.0161307
893.602	0.0161160
893.681	0.0161721
893.759	0.0162083
893.837	0.0163056
893.915	0.0161926
893.993	0.0162303
894.071	0.0161864
894.149	0.0161927
894.227	0.0161739
894.306	0.0162157
894.384	0.0160941
894.462	0.0161904
894.540	0.0163013
894.618	0.0163272
894.696	0.0163257
894.774	0.0162832
894.852	0.0162904
894.931	0.0162388
895.009	0.0163101
895.087	0.0162981
895.165	0.0163584
895.243	0.0163873
895.321	0.0163239
895.399	0.0161397
895.477	0.0162968
895.556	0.0161145
895.634	0.0162789
895.712	0.0162418
895.790	0.0161515
895.868	0.0162029
895.946	0.0160957
896.024	0.0160892
896.102	0.0160426
896.181	0.0162502
896.259	0.0160934
896.337	0.0162346
896.415	0.0161385
896.493	0.0161516
896.571	0.0161462
896.649	0.0162023
896.727	0.0161475
896.806	0.0161605
896.884	0.0161020
896.962	0.0160728
897.040	0.0162167
897.118	0.0160624
897.196	0.0162338
897.274	0.0162305
897.352	0.0160494
897.431	0.0162368
897.509	0.0160574
897.587	0.0163129
897.665	0.0163523
897.743	0.0163328
897.821	0.0163763
897.899	0.0163824
897.977	0.0164478
898.056	0.0163120
898.134	0.0161808
898.212	0.0163807
898.290	0.0163905
898.368	0.0163316
898.446	0.0163470
898.524	0.0162662
898.602	0.0164038
898.681	0.0163490
898.759	0.0162569
898.837	0.0163732
898.915	0.0163059
898.993	0.0162222
899.071	0.0162790
899.149	0.0162383
899.227	0.0161987
899.306	0.0161690
899.384	0.0161098
899.462	0.0161382
899.540	0.0160705
899.618	0.0161722
899.696	0.0159815
899.774	0.0161536
899.852	0.0160147
899.931	0.0160149
900.009	0.0160564
900.087	0.0160521
900.165	0.0160596
900.243	0.0161225
900.321	0.0160360
900.399	0.0159891
900.477	0.0160576
900.556	0.0160915
900.634	0.0159603
900.712	0.0160557
900.790	0.0162883
900.868	0.0161632
900.946	0.0159947
901.024	0.0162615
901.102	0.0160822
901.181	0.0161862
901.259	0.0160775
901.337	0.0161955
901.415	0.0161481
901.493	0.0161768
901.571	0.0162605
901.649	0.0162602
901.727	0.0163400
901.806	0.0163089
901.884	0.0162663
901.962	0.0162832
902.040	0.0162246
902.118	0.0162041
902.196	0.0161986
902.274	0.0161725
902.352	0.0164149
902.431	0.0163628
902.509	0.0163493
902.587	0.0162414
902.665	0.0161696
902.743	0.0161401
902.821	0.0162640
902.899	0.0162617
902.977	0.0161419
903.056	0.0160856
903.134	0.0161010
903.212	0.0161587
903.290	0.0161622
903.368	0.0160994
903.446	0.0160540
903.524	0.0160916
903.602	0.0160426
903.681	0.0159875
903.759	0.0160429
903.837	0.0160664
903.915	0.0160321
903.993	0.0160674
904.071	0.0160368
904.149	0.0160697
904.227	0.0160579
904.306	0.0160114
904.384	0.0161418
904.462	0.0160777
904.540	0.0158777
904.618	0.0161191
904.696	0.0160649
904.774	0.0161854
904.852	0.0159854
904.931	0.0159843
905.009	0.0162615
905.087	0.0160870
905.165	0.0161481
905.243	0.0161698
905.321	0.0160791
905.399	0.0160999
905.477	0.0161897
905.556	0.0161802
905.634	0.0160915
905.712	0.0161918
905.790	0.0161427
905.868	0.0161258
905.946	0.0162088
906.024	0.0162160
906.102	0.0160856
906.181	0.0161835
906.259	0.0162516
906.337	0.0160958
906.415	0.0160968
906.493	0.0161647
906.571	0.0161441
906.649	0.0159668
906.727	0.0160301
906.806	0.0160075
906.884	0.0161652
906.962	0.0161567
907.040	0.0161536
907.118	0.0160899
907.196	0.0162099
907.274	0.0161880
907.352	0.0161120
907.431	0.0161040
907.509	0.0161499
907.587	0.0160799
907.665	0.0161180
907.743	0.0162025
907.821	0.0161923
907.899	0.0162469
907.977	0.0163248
908.056	0.0161905
908.134	0.0161448
908.212	0.0160317
908.290	0.0159496
908.368	0.0161346
908.446	0.0160387
908.524	0.0161552
908.602	0.0161588
908.681	0.0162503
908.759	0.0162135
908.837	0.0160793
908.915	0.0160840
908.993	0.0160804
909.071	0.0161272
909.149	0.0161109
909.227	0.0161154
909.306	0.0161037
909.384	0.0161144
909.462	0.0160703
909.540	0.0161246
909.618	0.0160928
909.696	0.0162087
909.774	0.0161487
909.852	0.0161237
909.931	0.0161800
910.009	0.0160514
910.087	0.0161555
910.165	0.0162773
910.243	0.0160382
910.321	0.0160654
910.399	0.0161407
910.477	0.0161522
910.556	0.0160913
910.634	0.0160567
910.712	0.0161288
910.790	0.0161967
910.868	0.0161492
910.946	0.0161477
911.024	0.0160937
911.102	0.0161047
911.181	0.0161587
911.259	0.0161338
911.337	0.0161018
911.415	0.0160432
911.493	0.0160812
911.571	0.0160975
911.649	0.0160048
911.727	0.0161784
911.806	0.0161947
911.884	0.0162228
911.962	0.0160845
912.040	0.0161388
912.118	0.0160179
912.196	0.0160844
912.274	0.0161666
912.352	0.0161024
912.431	0.0160809
912.509	0.0162941
912.587	0.0162174
912.665	0.0161502
912.743	0.0161325
912.821	0.0161985
912.899	0.0162711
912.977	0.0162443
913.056	0.0161790
913.134	0.0161284
913.212	0.0160987
913.290	0.0162050
913.368	0.0162944
913.446	0.0161035
913.524	0.0160964
913.602	0.0160350
913.681	0.0161176
913.759	0.0161259
913.837	0.0159058
913.915	0.0159844
913.993	0.0160928
914.071	0.0161611
914.149	0.0161498
914.227	0.0161277
914.306	0.0160934
914.384	0.0160709
914.462	0.0159699
914.540	0.0159966
914.618	0.0161358
914.696	0.0162070
914.774	0.0160629
914.852	0.0160804
914.931	0.0159715
915.009	0.0161796
915.087	0.0161010
915.165	0.0160811
915.243	0.0161056
915.321	0.0161301
915.399	0.0161658
915.477	0.0160285
915.556	0.0161882
915.634	0.0161980
915.712	0.0161733
915.790	0.0161656
915.868	0.0161261
915.946	0.0161465
916.024	0.0160920
916.102	0.0161771
916.181	0.0161547
916.259	0.0160022
916.337	0.0160815
916.415	0.0160995
916.493	0.0162247
916.571	0.0161568
916.649	0.0159993
916.727	0.0160876
916.806	0.0161465
916.884	0.0159751
916.962	0.0161353
917.040	0.0162118
917.118	0.0160520
917.196	0.0161169
917.274	0.0160448
917.352	0.0161082
917.431	0.0160601
917.509	0.0159212
917.587	0.0159921
917.665	0.0159666
917.743	0.0161105
917.821	0.0160635
917.899	0.0160055
917.977	0.0160645
918.056	0.0159746
918.134	0.0160416
918.212	0.0159399
918.290	0.0159123
918.368	0.0159158
918.446	0.0160217
918.524	0.0158723
918.602	0.0158838
918.681	0.0159960
918.759	0.0159861
918.837	0.0160043
918.915	0.0160550
918.993	0.0161578
919.071	0.0158489
919.149	0.0160583
919.227	0.0160767
919.306	0.0158804
919.384	0.0159347
919.462	0.0159677
919.540	0.0160395
919.618	0.0161202
919.696	0.0161269
919.774	0.0159763
919.852	0.0161658
919.931	0.0161035
920.009	0.0160316
920.087	0.0161245
920.165	0.0160182
920.243	0.0159335
920.321	0.0161006
920.399	0.0161485
920.477	0.0161938
920.556	0.0162147
920.634	0.0160914
920.712	0.0161735
920.790	0.0162962
920.868	0.0161864
920.946	0.0162131
921.024	0.0161707
921.102	0.0161978
921.181	0.0161568
921.259	0.0161487
921.337	0.0162119
921.415	0.0161363
921.493	0.0163098
921.571	0.0163821
921.649	0.0161789
921.727	0.0162006
921.806	0.0162507
921.884	0.0162907
921.962	0.0162440
922.040	0.0162572
922.118	0.0161659
922.196	0.0161707
922.274	0.0162103
922.352	0.0163586
922.431	0.0161057
922.509	0.0161884
922.587	0.0163513
922.665	0.0162724
922.743	0.0160932
922.821	0.0161948
922.899	0.0161666
922.977	0.0160487
923.056	0.0160766
923.134	0.0162024
923.212	0.0160916
923.290	0.0160568
923.368	0.0161399
923.446	0.0160667
923.524	0.0161098
923.602	0.0159844
923.681	0.0161081
923.759	0.0160902
923.837	0.0161060
923.915	0.0160612
923.993	0.0160896
924.071	0.0160042
924.149	0.0160834
924.227	0.0160091
924.306	0.0161242
924.384	0.0161918
924.462	0.0160886
924.540	0.0161472
924.618	0.0161491
924.696	0.0160947
924.774	0.0161502
924.852	0.0160639
924.931	0.0161709
925.009	0.0161330
925.087	0.0160510
925.165	0.0160904
925.243	0.0161913
925.321	0.0159976
925.399	0.0160519
925.477	0.0160403
925.556	0.0161205
925.634	0.0162762
925.712	0.0161743
925.790	0.0161041
925.868	0.0162435
925.946	0.0160584
926.024	0.0163304
926.102	0.0161674
926.181	0.0159658
926.259	0.0161193
926.337	0.0162453
926.415	0.0162523
926.493	0.0161541
926.571	0.0160917
926.649	0.0161975
926.727	0.0161423
926.806	0.0160385
926.884	0.0161996
926.962	0.0160655
927.040	0.0161214
927.118	0.0161788
927.196	0.0162608
927.274	0.0159748
927.352	0.0160558
927.431	0.0160562
927.509	0.0160322
927.587	0.0160202
927.665	0.0159634
927.743	0.0158440
927.821	0.0159138
927.899	0.0159646
927.977	0.0159202
928.056	0.0160471
928.134	0.0160020
928.212	0.0158823
928.290	0.0159934
928.368	0.0160349
928.446	0.0157951
928.524	0.0158201
928.602	0.0159060
928.681	0.0159565
928.759	0.0159173
928.837	0.0158939
928.915	0.0159617
928.993	0.0159956
929.071	0.0159529
929.149	0.0159320
929.227	0.0159161
929.306	0.0158862
929.384	0.0160296
929.462	0.0160899
929.540	0.0159615
929.618	0.0160077
929.696	0.0160462
929.774	0.0159619
929.852	0.0160817
929.931	0.0161450
