05/19/2022	01:18:40	Ver.	4.1	UNKNOWN
Optical Delay	610.008675	Delta X		0.078125	Sweeps	1	Scan Rate	0/0
Coordinates	Axis 1	NaN	Axis 2	NaN	Axis 3	NaN	Axis 4	NaN	Axis 5	NaN	Axis 6	0.000000
TX Power	0.000000	RX Power	0.000000

610.009	0.0163911
610.087	0.0165778
610.165	0.0164394
610.243	0.0164067
610.321	0.0165581
610.399	0.0163757
610.477	0.0163254
610.556	0.0164551
610.634	0.0165538
610.712	0.0165466
610.790	0.0164384
610.868	0.0164494
610.946	0.0164629
611.024	0.0164097
611.102	0.0163933
611.181	0.0164217
611.259	0.0165261
611.337	0.0164111
611.415	0.0165032
611.493	0.0166137
611.571	0.0164005
611.649	0.0163828
611.727	0.0164673
611.806	0.0165533
611.884	0.0164365
611.962	0.0164034
612.040	0.0166189
612.118	0.0164810
612.196	0.0163315
612.274	0.0164465
612.352	0.0164942
612.431	0.0165240
612.509	0.0163926
612.587	0.0164370
612.665	0.0164388
612.743	0.0162968
612.821	0.0164460
612.899	0.0164872
612.977	0.0162817
613.056	0.0164771
613.134	0.0163827
613.212	0.0162634
613.290	0.0164147
613.368	0.0164511
613.446	0.0163261
613.524	0.0164168
613.602	0.0165031
613.681	0.0164693
613.759	0.0164638
613.837	0.0164371
613.915	0.0164120
613.993	0.0163017
614.071	0.0163872
614.149	0.0163519
614.227	0.0164223
614.306	0.0164040
614.384	0.0162749
614.462	0.0163250
614.540	0.0163704
614.618	0.0162957
614.696	0.0164064
614.774	0.0164173
614.852	0.0164012
614.931	0.0163751
615.009	0.0163512
615.087	0.0164198
615.165	0.0164038
615.243	0.0163200
615.321	0.0163968
615.399	0.0164621
615.477	0.0164788
615.556	0.0163415
615.634	0.0163718
615.712	0.0164732
615.790	0.0165702
615.868	0.0165236
615.946	0.0164796
616.024	0.0164803
616.102	0.0165309
616.181	0.0164736
616.259	0.0163342
616.337	0.0164652
616.415	0.0162966
616.493	0.0164747
616.571	0.0163829
616.649	0.0163505
616.727	0.0163324
616.806	0.0162486
616.884	0.0163852
616.962	0.0163128
617.040	0.0162986
617.118	0.0163422
617.196	0.0163509
617.274	0.0164217
617.352	0.0163504
617.431	0.0162297
617.509	0.0162636
617.587	0.0164753
617.665	0.0163190
617.743	0.0163679
617.821	0.0164336
617.899	0.0163253
617.977	0.0163990
618.056	0.0162762
618.134	0.0161488
618.212	0.0163319
618.290	0.0163798
618.368	0.0162868
618.446	0.0162426
618.524	0.0162313
618.602	0.0163544
618.681	0.0162668
618.759	0.0162260
618.837	0.0162097
618.915	0.0162527
618.993	0.0162415
619.071	0.0161428
619.149	0.0162455
619.227	0.0162660
619.306	0.0161507
619.384	0.0161359
619.462	0.0161937
619.540	0.0163430
619.618	0.0161723
619.696	0.0163392
619.774	0.0162553
619.852	0.0161576
619.931	0.0161405
620.009	0.0162751
620.087	0.0164249
620.165	0.0163990
620.243	0.0162307
620.321	0.0162698
620.399	0.0163254
620.477	0.0163177
620.556	0.0163318
620.634	0.0165099
620.712	0.0165065
620.790	0.0164058
620.868	0.0164574
620.946	0.0164712
621.024	0.0165338
621.102	0.0165511
621.181	0.0164436
621.259	0.0165692
621.337	0.0164780
621.415	0.0165002
621.493	0.0164789
621.571	0.0166669
621.649	0.0165254
621.727	0.0164251
621.806	0.0163617
621.884	0.0164774
621.962	0.0165093
622.040	0.0163971
622.118	0.0164881
622.196	0.0163746
622.274	0.0165193
622.352	0.0163968
622.431	0.0164365
622.509	0.0164689
622.587	0.0162759
622.665	0.0162894
622.743	0.0162766
622.821	0.0163612
622.899	0.0163076
622.977	0.0162315
623.056	0.0160961
623.134	0.0162453
623.212	0.0164908
623.290	0.0162875
623.368	0.0163027
623.446	0.0164065
623.524	0.0162164
623.602	0.0161503
623.681	0.0162579
623.759	0.0162911
623.837	0.0163901
623.915	0.0162191
623.993	0.0162148
624.071	0.0162880
624.149	0.0163434
624.227	0.0162695
624.306	0.0162272
624.384	0.0163547
624.462	0.0162129
624.540	0.0162585
624.618	0.0163397
624.696	0.0163530
624.774	0.0163956
624.852	0.0162830
624.931	0.0165179
625.009	0.0163179
625.087	0.0164084
625.165	0.0164252
625.243	0.0163893
625.321	0.0164401
625.399	0.0163879
625.477	0.0162966
625.556	0.0164194
625.634	0.0164864
625.712	0.0163844
625.790	0.0165936
625.868	0.0164174
625.946	0.0164460
626.024	0.0166321
626.102	0.0165611
626.181	0.0164628
626.259	0.0164663
626.337	0.0164603
626.415	0.0163196
626.493	0.0164223
626.571	0.0165250
626.649	0.0164918
626.727	0.0164046
626.806	0.0164154
626.884	0.0165085
626.962	0.0163809
627.040	0.0165736
627.118	0.0164703
627.196	0.0165431
627.274	0.0164751
627.352	0.0165738
627.431	0.0164980
627.509	0.0164113
627.587	0.0164620
627.665	0.0164082
627.743	0.0164927
627.821	0.0163498
627.899	0.0161591
627.977	0.0163904
628.056	0.0163894
628.134	0.0163641
628.212	0.0162558
628.290	0.0162791
628.368	0.0161947
628.446	0.0160242
628.524	0.0162859
628.602	0.0161146
628.681	0.0162385
628.759	0.0161703
628.837	0.0160892
628.915	0.0160684
628.993	0.0160138
629.071	0.0162136
629.149	0.0160800
629.227	0.0161960
629.306	0.0161700
629.384	0.0160905
629.462	0.0161772
629.540	0.0161614
629.618	0.0161044
629.696	0.0162504
629.774	0.0160886
629.852	0.0161846
629.931	0.0162228
630.009	0.0162129
630.087	0.0161811
630.165	0.0162005
630.243	0.0161825
630.321	0.0163609
630.399	0.0163594
630.477	0.0164093
630.556	0.0162854
630.634	0.0164292
630.712	0.0164797
630.790	0.0165521
630.868	0.0166810
630.946	0.0165012
631.024	0.0163943
631.102	0.0165269
631.181	0.0165780
631.259	0.0165819
631.337	0.0167065
631.415	0.0166984
631.493	0.0166101
631.571	0.0164988
631.649	0.0164793
631.727	0.0165663
631.806	0.0165262
631.884	0.0164635
631.962	0.0164016
632.040	0.0164565
632.118	0.0165774
632.196	0.0165314
632.274	0.0163342
632.352	0.0164393
632.431	0.0163726
632.509	0.0163614
632.587	0.0163519
632.665	0.0162741
632.743	0.0164471
632.821	0.0161479
632.899	0.0163177
632.977	0.0163220
633.056	0.0162486
633.134	0.0161665
633.212	0.0163046
633.290	0.0161620
633.368	0.0161860
633.446	0.0164077
633.524	0.0162060
633.602	0.0160864
633.681	0.0162647
633.759	0.0161694
633.837	0.0161419
633.915	0.0161524
633.993	0.0159509
634.071	0.0160818
634.149	0.0160936
634.227	0.0160646
634.306	0.0159998
634.384	0.0160063
634.462	0.0160803
634.540	0.0159760
634.618	0.0160346
634.696	0.0160818
634.774	0.0161562
634.852	0.0160923
634.931	0.0161903
635.009	0.0161417
635.087	0.0162666
635.165	0.0163314
635.243	0.0163111
635.321	0.0162710
635.399	0.0162863
635.477	0.0161580
635.556	0.0163448
635.634	0.0164799
635.712	0.0166159
635.790	0.0165409
635.868	0.0165181
635.946	0.0166268
636.024	0.0166750
636.102	0.0168133
636.181	0.0166293
636.259	0.0166707
636.337	0.0167860
636.415	0.0167882
636.493	0.0168918
636.571	0.0168771
636.649	0.0168764
636.727	0.0168179
636.806	0.0167310
636.884	0.0168249
636.962	0.0168195
637.040	0.0168456
637.118	0.0169269
637.196	0.0168627
637.274	0.0166959
637.352	0.0166545
637.431	0.0166404
637.509	0.0166569
637.587	0.0165418
637.665	0.0164603
637.743	0.0163065
637.821	0.0162467
637.899	0.0162401
637.977	0.0165119
638.056	0.0163834
638.134	0.0161976
638.212	0.0160995
638.290	0.0162023
638.368	0.0161304
638.446	0.0160052
638.524	0.0160371
638.602	0.0158836
638.681	0.0158604
638.759	0.0161248
638.837	0.0161079
638.915	0.0160037
638.993	0.0161377
639.071	0.0160220
639.149	0.0160203
639.227	0.0160404
639.306	0.0161132
639.384	0.0159701
639.462	0.0161612
639.540	0.0161642
639.618	0.0162253
639.696	0.0162619
639.774	0.0161841
639.852	0.0162675
639.931	0.0161920
640.009	0.0162381
640.087	0.0163103
640.165	0.0163341
640.243	0.0163280
640.321	0.0163808
640.399	0.0164302
640.477	0.0164173
640.556	0.0165091
640.634	0.0164894
640.712	0.0163501
640.790	0.0164032
640.868	0.0165802
640.946	0.0166042
641.024	0.0165593
641.102	0.0164247
641.181	0.0164137
641.259	0.0165289
641.337	0.0164323
641.415	0.0163757
641.493	0.0165460
641.571	0.0165578
641.649	0.0164158
641.727	0.0164168
641.806	0.0163853
641.884	0.0165029
641.962	0.0163445
642.040	0.0161746
642.118	0.0163346
642.196	0.0163280
642.274	0.0159866
642.352	0.0163457
642.431	0.0160680
642.509	0.0159411
642.587	0.0161214
642.665	0.0161108
642.743	0.0160169
642.821	0.0160364
642.899	0.0160136
642.977	0.0160165
643.056	0.0159243
643.134	0.0159638
643.212	0.0160947
643.290	0.0161189
643.368	0.0160869
643.446	0.0159963
643.524	0.0159715
643.602	0.0158617
643.681	0.0159208
643.759	0.0159849
643.837	0.0159177
643.915	0.0159219
643.993	0.0159320
644.071	0.0159904
644.149	0.0161264
644.227	0.0158904
644.306	0.0160368
644.384	0.0162184
644.462	0.0160140
644.540	0.0161411
644.618	0.0162371
644.696	0.0162228
644.774	0.0162770
644.852	0.0163164
644.931	0.0162636
645.009	0.0162885
645.087	0.0163738
645.165	0.0163221
645.243	0.0163879
645.321	0.0164562
645.399	0.0164024
645.477	0.0161565
645.556	0.0164388
645.634	0.0163857
645.712	0.0162480
645.790	0.0163498
645.868	0.0161739
645.946	0.0162407
646.024	0.0161605
646.102	0.0162090
646.181	0.0163401
646.259	0.0161488
646.337	0.0161219
646.415	0.0162122
646.493	0.0160805
646.571	0.0160208
646.649	0.0159716
646.727	0.0159798
646.806	0.0159659
646.884	0.0159776
646.962	0.0161857
647.040	0.0159950
647.118	0.0160497
647.196	0.0161053
647.274	0.0160344
647.352	0.0160821
647.431	0.0161966
647.509	0.0161720
647.587	0.0162349
647.665	0.0163351
647.743	0.0162747
647.821	0.0161471
647.899	0.0162643
647.977	0.0163079
648.056	0.0162393
648.134	0.0164420
648.212	0.0164394
648.290	0.0163388
648.368	0.0163345
648.446	0.0164536
648.524	0.0162579
648.602	0.0162177
648.681	0.0164526
648.759	0.0163432
648.837	0.0162886
648.915	0.0163418
648.993	0.0165318
649.071	0.0163887
649.149	0.0163410
649.227	0.0164543
649.306	0.0163456
649.384	0.0162636
649.462	0.0162836
649.540	0.0163326
649.618	0.0163714
649.696	0.0162904
649.774	0.0163746
649.852	0.0162610
649.931	0.0163200
650.009	0.0163326
650.087	0.0162054
650.165	0.0163264
650.243	0.0163607
650.321	0.0162503
650.399	0.0162153
650.477	0.0162183
650.556	0.0161133
650.634	0.0162337
650.712	0.0160745
650.790	0.0162143
650.868	0.0162035
650.946	0.0162318
651.024	0.0160798
651.102	0.0162619
651.181	0.0162489
651.259	0.0162708
651.337	0.0162958
651.415	0.0162697
651.493	0.0161892
651.571	0.0162624
651.649	0.0164143
651.727	0.0163697
651.806	0.0163700
651.884	0.0162787
651.962	0.0163639
652.040	0.0163824
652.118	0.0163766
652.196	0.0165099
652.274	0.0164206
652.352	0.0164082
652.431	0.0162634
652.509	0.0163095
652.587	0.0163631
652.665	0.0163094
652.743	0.0162854
652.821	0.0162476
652.899	0.0163217
652.977	0.0162855
653.056	0.0162926
653.134	0.0161439
653.212	0.0161550
653.290	0.0162159
653.368	0.0160968
653.446	0.0161320
653.524	0.0162399
653.602	0.0160395
653.681	0.0162053
653.759	0.0161668
653.837	0.0162229
653.915	0.0161344
653.993	0.0161343
654.071	0.0162478
654.149	0.0161211
654.227	0.0161447
654.306	0.0162371
654.384	0.0161488
654.462	0.0161211
654.540	0.0162778
654.618	0.0162856
654.696	0.0161567
654.774	0.0161430
654.852	0.0163573
654.931	0.0162198
655.009	0.0161578
655.087	0.0162330
655.165	0.0163365
655.243	0.0163410
655.321	0.0162218
655.399	0.0162948
655.477	0.0161662
655.556	0.0162852
655.634	0.0162163
655.712	0.0163374
655.790	0.0163064
655.868	0.0161947
655.946	0.0162504
656.024	0.0163667
656.102	0.0163267
656.181	0.0163829
656.259	0.0163754
656.337	0.0164183
656.415	0.0164256
656.493	0.0164302
656.571	0.0163141
656.649	0.0165044
656.727	0.0163446
656.806	0.0164156
656.884	0.0164986
656.962	0.0164204
657.040	0.0164734
657.118	0.0164475
657.196	0.0163934
657.274	0.0163793
657.352	0.0163327
657.431	0.0161993
657.509	0.0162460
657.587	0.0162808
657.665	0.0163972
657.743	0.0163650
657.821	0.0162582
657.899	0.0161421
657.977	0.0162194
658.056	0.0161212
658.134	0.0160712
658.212	0.0160440
658.290	0.0161391
658.368	0.0160225
658.446	0.0161357
658.524	0.0161567
658.602	0.0161610
658.681	0.0161400
658.759	0.0161147
658.837	0.0160384
658.915	0.0161250
658.993	0.0161353
659.071	0.0161167
659.149	0.0162584
659.227	0.0161693
659.306	0.0161757
659.384	0.0161855
659.462	0.0162438
659.540	0.0162780
659.618	0.0161750
659.696	0.0162296
659.774	0.0162177
659.852	0.0162477
659.931	0.0161321
660.009	0.0162815
660.087	0.0163952
660.165	0.0163005
660.243	0.0163302
660.321	0.0163245
660.399	0.0163558
660.477	0.0163695
660.556	0.0163544
660.634	0.0162990
660.712	0.0164597
660.790	0.0163628
660.868	0.0164561
660.946	0.0165280
661.024	0.0164346
661.102	0.0165054
661.181	0.0163683
661.259	0.0165700
661.337	0.0165398
661.415	0.0165415
661.493	0.0165714
661.571	0.0164690
661.649	0.0164159
661.727	0.0163891
661.806	0.0164893
661.884	0.0164468
661.962	0.0165272
662.040	0.0164148
662.118	0.0164022
662.196	0.0162340
662.274	0.0162416
662.352	0.0163374
662.431	0.0162817
662.509	0.0160262
662.587	0.0160940
662.665	0.0160865
662.743	0.0161679
662.821	0.0161645
662.899	0.0160465
662.977	0.0160365
663.056	0.0160645
663.134	0.0160194
663.212	0.0160651
663.290	0.0159557
663.368	0.0160480
663.446	0.0160448
663.524	0.0160148
663.602	0.0159951
663.681	0.0161610
663.759	0.0160928
663.837	0.0160426
663.915	0.0160073
663.993	0.0160117
664.071	0.0159903
664.149	0.0160723
664.227	0.0160611
664.306	0.0159727
664.384	0.0159795
664.462	0.0159328
664.540	0.0161976
664.618	0.0160781
664.696	0.0161307
664.774	0.0163171
664.852	0.0162162
664.931	0.0161741
665.009	0.0161878
665.087	0.0161309
665.165	0.0162358
665.243	0.0161856
665.321	0.0161648
665.399	0.0163264
665.477	0.0163387
665.556	0.0164288
665.634	0.0162868
665.712	0.0163098
665.790	0.0164314
665.868	0.0164141
665.946	0.0162508
666.024	0.0162164
666.102	0.0162809
666.181	0.0163269
666.259	0.0162770
666.337	0.0162448
666.415	0.0162637
666.493	0.0162577
666.571	0.0162592
666.649	0.0161302
666.727	0.0161166
666.806	0.0162694
666.884	0.0163448
666.962	0.0161952
667.040	0.0160894
667.118	0.0161456
667.196	0.0162630
667.274	0.0163508
667.352	0.0162095
667.431	0.0163449
667.509	0.0164662
667.587	0.0162585
667.665	0.0163699
667.743	0.0164697
667.821	0.0165074
667.899	0.0164229
667.977	0.0164322
668.056	0.0164462
668.134	0.0163963
668.212	0.0165146
668.290	0.0163857
668.368	0.0164828
668.446	0.0164082
668.524	0.0163761
668.602	0.0164362
668.681	0.0163828
668.759	0.0163348
668.837	0.0163213
668.915	0.0162952
668.993	0.0162246
669.071	0.0162419
669.149	0.0162437
669.227	0.0162056
669.306	0.0162035
669.384	0.0161964
669.462	0.0161494
669.540	0.0160632
669.618	0.0161353
669.696	0.0162362
669.774	0.0160084
669.852	0.0161889
669.931	0.0161501
670.009	0.0160795
670.087	0.0161698
670.165	0.0161565
670.243	0.0161140
670.321	0.0163855
670.399	0.0161645
670.477	0.0160938
670.556	0.0161786
670.634	0.0161855
670.712	0.0163235
670.790	0.0161941
670.868	0.0162277
670.946	0.0161508
671.024	0.0162232
671.102	0.0162428
671.181	0.0162623
671.259	0.0161243
671.337	0.0163329
671.415	0.0162597
671.493	0.0161946
671.571	0.0163236
671.649	0.0163008
671.727	0.0163923
671.806	0.0163232
671.884	0.0163383
671.962	0.0162188
672.040	0.0162440
672.118	0.0162696
672.196	0.0164250
672.274	0.0165251
672.352	0.0164430
672.431	0.0163103
672.509	0.0162830
672.587	0.0164026
672.665	0.0163494
672.743	0.0164340
672.821	0.0165281
672.899	0.0163361
672.977	0.0164214
673.056	0.0164253
673.134	0.0163762
673.212	0.0164030
673.290	0.0164024
673.368	0.0164614
673.446	0.0163297
673.524	0.0163660
673.602	0.0162473
673.681	0.0161671
673.759	0.0162626
673.837	0.0162006
673.915	0.0163017
673.993	0.0162537
674.071	0.0162130
674.149	0.0164140
674.227	0.0163047
674.306	0.0163373
674.384	0.0162875
674.462	0.0162599
674.540	0.0164148
674.618	0.0162563
674.696	0.0163179
674.774	0.0164315
674.852	0.0164896
674.931	0.0164074
675.009	0.0164864
675.087	0.0165794
675.165	0.0164141
675.243	0.0163412
675.321	0.0165738
675.399	0.0164165
675.477	0.0164950
675.556	0.0165430
675.634	0.0165096
675.712	0.0164170
675.790	0.0165074
675.868	0.0164637
675.946	0.0165462
676.024	0.0164130
676.102	0.0164034
676.181	0.0163893
676.259	0.0161801
676.337	0.0164127
676.415	0.0164359
676.493	0.0162628
676.571	0.0162328
676.649	0.0161469
676.727	0.0162704
676.806	0.0162953
676.884	0.0161675
676.962	0.0160313
677.040	0.0160353
677.118	0.0159236
677.196	0.0159793
677.274	0.0160624
677.352	0.0158614
677.431	0.0159869
677.509	0.0159674
677.587	0.0158540
677.665	0.0159109
677.743	0.0159267
677.821	0.0158002
677.899	0.0159161
677.977	0.0159689
678.056	0.0160539
678.134	0.0159768
678.212	0.0158672
678.290	0.0158543
678.368	0.0159124
678.446	0.0160281
678.524	0.0161279
678.602	0.0161964
678.681	0.0161865
678.759	0.0161086
678.837	0.0162689
678.915	0.0162241
678.993	0.0161769
679.071	0.0162673
679.149	0.0163835
679.227	0.0164935
679.306	0.0163927
679.384	0.0163549
679.462	0.0164828
679.540	0.0165364
679.618	0.0165114
679.696	0.0164999
679.774	0.0166142
679.852	0.0165825
679.931	0.0164313
680.009	0.0166142
680.087	0.0166418
680.165	0.0166372
680.243	0.0166226
680.321	0.0165072
680.399	0.0165556
680.477	0.0165012
680.556	0.0165181
680.634	0.0165525
680.712	0.0164932
680.790	0.0164188
680.868	0.0165553
680.946	0.0163841
681.024	0.0163722
681.102	0.0164660
681.181	0.0163574
681.259	0.0163545
681.337	0.0162827
681.415	0.0163322
681.493	0.0162754
681.571	0.0162508
681.649	0.0161745
681.727	0.0163689
681.806	0.0163163
681.884	0.0162881
681.962	0.0163046
682.040	0.0163445
682.118	0.0164114
682.196	0.0163737
682.274	0.0163129
682.352	0.0161920
682.431	0.0163808
682.509	0.0164548
682.587	0.0163477
682.665	0.0163979
682.743	0.0164178
682.821	0.0164294
682.899	0.0163903
682.977	0.0164743
683.056	0.0164976
683.134	0.0164886
683.212	0.0163654
683.290	0.0162885
683.368	0.0164706
683.446	0.0165301
683.524	0.0164500
683.602	0.0164745
683.681	0.0164838
683.759	0.0164938
683.837	0.0163295
683.915	0.0164543
683.993	0.0165290
684.071	0.0165723
684.149	0.0164495
684.227	0.0164867
684.306	0.0165145
684.384	0.0164581
684.462	0.0164433
684.540	0.0165499
684.618	0.0165553
684.696	0.0164185
684.774	0.0164257
684.852	0.0165011
684.931	0.0164890
685.009	0.0163591
685.087	0.0165341
685.165	0.0162642
685.243	0.0164411
685.321	0.0164897
685.399	0.0163973
685.477	0.0164372
685.556	0.0165166
685.634	0.0163962
685.712	0.0163580
685.790	0.0164387
685.868	0.0163071
685.946	0.0162527
686.024	0.0163967
686.102	0.0163112
686.181	0.0163041
686.259	0.0163160
686.337	0.0164732
686.415	0.0163197
686.493	0.0163301
686.571	0.0163784
686.649	0.0164274
686.727	0.0163879
686.806	0.0163587
686.884	0.0163229
686.962	0.0164445
687.040	0.0164905
687.118	0.0163534
687.196	0.0162614
687.274	0.0164233
687.352	0.0163668
687.431	0.0163383
687.509	0.0164288
687.587	0.0164180
687.665	0.0163948
687.743	0.0163342
687.821	0.0164410
687.899	0.0164150
687.977	0.0164838
688.056	0.0164330
688.134	0.0164174
688.212	0.0165631
688.290	0.0165137
688.368	0.0163567
688.446	0.0163937
688.524	0.0163051
688.602	0.0164629
688.681	0.0164379
688.759	0.0164144
688.837	0.0164579
688.915	0.0163921
688.993	0.0163334
689.071	0.0163110
689.149	0.0162203
689.227	0.0163294
689.306	0.0163502
689.384	0.0161109
689.462	0.0162741
689.540	0.0162124
689.618	0.0163530
689.696	0.0162897
689.774	0.0162080
689.852	0.0162204
689.931	0.0162851
690.009	0.0162307
690.087	0.0164516
690.165	0.0163633
690.243	0.0163490
690.321	0.0164706
690.399	0.0164324
690.477	0.0165228
690.556	0.0164371
690.634	0.0166257
690.712	0.0166144
690.790	0.0166763
690.868	0.0165821
690.946	0.0166605
691.024	0.0166404
691.102	0.0166373
691.181	0.0164904
691.259	0.0165244
691.337	0.0167101
691.415	0.0164577
691.493	0.0164556
691.571	0.0164273
691.649	0.0163282
691.727	0.0163825
691.806	0.0161649
691.884	0.0162875
691.962	0.0162159
692.040	0.0162598
692.118	0.0162496
692.196	0.0161754
692.274	0.0161750
692.352	0.0160017
692.431	0.0160999
692.509	0.0161475
692.587	0.0160593
692.665	0.0161269
692.743	0.0159112
692.821	0.0160251
692.899	0.0160578
692.977	0.0159119
693.056	0.0159994
693.134	0.0160429
693.212	0.0160963
693.290	0.0159436
693.368	0.0159540
693.446	0.0160082
693.524	0.0161369
693.602	0.0161184
693.681	0.0161790
693.759	0.0160373
693.837	0.0160884
693.915	0.0162047
693.993	0.0161524
694.071	0.0161066
694.149	0.0162146
694.227	0.0162866
694.306	0.0161578
694.384	0.0163216
694.462	0.0162498
694.540	0.0162872
694.618	0.0163186
694.696	0.0162739
694.774	0.0164053
694.852	0.0162802
694.931	0.0162865
695.009	0.0162946
695.087	0.0163949
695.165	0.0162749
695.243	0.0163823
695.321	0.0164435
695.399	0.0162167
695.477	0.0162661
695.556	0.0162930
695.634	0.0162401
695.712	0.0161124
695.790	0.0163151
695.868	0.0162887
695.946	0.0162931
696.024	0.0163347
696.102	0.0161923
696.181	0.0162372
696.259	0.0162470
696.337	0.0162655
696.415	0.0161642
696.493	0.0162293
696.571	0.0161865
696.649	0.0161892
696.727	0.0163139
696.806	0.0161797
696.884	0.0162097
696.962	0.0161237
697.040	0.0161781
697.118	0.0162310
697.196	0.0162520
697.274	0.0161764
697.352	0.0162998
697.431	0.0162157
697.509	0.0162525
697.587	0.0163088
697.665	0.0162252
697.743	0.0163005
697.821	0.0163714
697.899	0.0164021
697.977	0.0163825
698.056	0.0163612
698.134	0.0163132
698.212	0.0162587
698.290	0.0165636
698.368	0.0165071
698.446	0.0165122
698.524	0.0164321
698.602	0.0163326
698.681	0.0164595
698.759	0.0164722
698.837	0.0164555
698.915	0.0163972
698.993	0.0165436
699.071	0.0165359
699.149	0.0164684
699.227	0.0164038
699.306	0.0164852
699.384	0.0164621
699.462	0.0164644
699.540	0.0164017
699.618	0.0163403
699.696	0.0164735
699.774	0.0165491
699.852	0.0164598
699.931	0.0164662
700.009	0.0162855
700.087	0.0164741
700.165	0.0164359
700.243	0.0163776
700.321	0.0163450
700.399	0.0164988
700.477	0.0164278
700.556	0.0163607
700.634	0.0164322
700.712	0.0164539
700.790	0.0164949
700.868	0.0164653
700.946	0.0164656
701.024	0.0165173
701.102	0.0164555
701.181	0.0165790
701.259	0.0164703
701.337	0.0165271
701.415	0.0164900
701.493	0.0163866
701.571	0.0166595
701.649	0.0165254
701.727	0.0164147
701.806	0.0164473
701.884	0.0163442
701.962	0.0166110
702.040	0.0165278
702.118	0.0166669
702.196	0.0165865
702.274	0.0166736
702.352	0.0165553
702.431	0.0164142
702.509	0.0164745
702.587	0.0165800
702.665	0.0164400
702.743	0.0165002
702.821	0.0165679
702.899	0.0164975
702.977	0.0163738
703.056	0.0164757
703.134	0.0164615
703.212	0.0164140
703.290	0.0165171
703.368	0.0164940
703.446	0.0165563
703.524	0.0165266
703.602	0.0164955
703.681	0.0164782
703.759	0.0164395
703.837	0.0164760
703.915	0.0163338
703.993	0.0163544
704.071	0.0164095
704.149	0.0164750
704.227	0.0164187
704.306	0.0163424
704.384	0.0163738
704.462	0.0162827
704.540	0.0162832
704.618	0.0163859
704.696	0.0164679
704.774	0.0162548
704.852	0.0161982
704.931	0.0164769
705.009	0.0164761
705.087	0.0162160
705.165	0.0163087
705.243	0.0162672
705.321	0.0162398
705.399	0.0163198
705.477	0.0164335
705.556	0.0163773
705.634	0.0163232
705.712	0.0163488
705.790	0.0162643
705.868	0.0162221
705.946	0.0161435
706.024	0.0163062
706.102	0.0164178
706.181	0.0163371
706.259	0.0162449
706.337	0.0163161
706.415	0.0161811
706.493	0.0162944
706.571	0.0162560
706.649	0.0162982
706.727	0.0164161
706.806	0.0163915
706.884	0.0162759
706.962	0.0162186
707.040	0.0163521
707.118	0.0163865
707.196	0.0163100
707.274	0.0165234
707.352	0.0164573
707.431	0.0163304
707.509	0.0163856
707.587	0.0162984
707.665	0.0163448
707.743	0.0161385
707.821	0.0164119
707.899	0.0164046
707.977	0.0161709
708.056	0.0163967
708.134	0.0165306
708.212	0.0162285
708.290	0.0163345
708.368	0.0164454
708.446	0.0163174
708.524	0.0164523
708.602	0.0164391
708.681	0.0163007
708.759	0.0164272
708.837	0.0163235
708.915	0.0164751
708.993	0.0164805
709.071	0.0162466
709.149	0.0163425
709.227	0.0164570
709.306	0.0163997
709.384	0.0163216
709.462	0.0165040
709.540	0.0163992
709.618	0.0163883
709.696	0.0164172
709.774	0.0164022
709.852	0.0163741
709.931	0.0164307
710.009	0.0163725
710.087	0.0163180
710.165	0.0163606
710.243	0.0164353
710.321	0.0163279
710.399	0.0163800
710.477	0.0163357
710.556	0.0162300
710.634	0.0164066
710.712	0.0163017
710.790	0.0162433
710.868	0.0165776
710.946	0.0164478
711.024	0.0162538
711.102	0.0163939
711.181	0.0164225
711.259	0.0163837
711.337	0.0163271
711.415	0.0161637
711.493	0.0164113
711.571	0.0163292
711.649	0.0162400
711.727	0.0162797
711.806	0.0162557
711.884	0.0162660
711.962	0.0162440
712.040	0.0162980
712.118	0.0161641
712.196	0.0162744
712.274	0.0161711
712.352	0.0160542
712.431	0.0162013
712.509	0.0161890
712.587	0.0160854
712.665	0.0162016
712.743	0.0160637
712.821	0.0160938
712.899	0.0161117
712.977	0.0162160
713.056	0.0161661
713.134	0.0162263
713.212	0.0161218
713.290	0.0161160
713.368	0.0161252
713.446	0.0162646
713.524	0.0163369
713.602	0.0163111
713.681	0.0163308
713.759	0.0162486
713.837	0.0164195
713.915	0.0163696
713.993	0.0164530
714.071	0.0163771
714.149	0.0164170
714.227	0.0164777
714.306	0.0164585
714.384	0.0164611
714.462	0.0164842
714.540	0.0164797
714.618	0.0163089
714.696	0.0163246
714.774	0.0162653
714.852	0.0164193
714.931	0.0163389
715.009	0.0163521
715.087	0.0162611
715.165	0.0162175
715.243	0.0164236
715.321	0.0163469
715.399	0.0163437
715.477	0.0162828
715.556	0.0163589
715.634	0.0163377
715.712	0.0162875
715.790	0.0163145
715.868	0.0163023
715.946	0.0162244
716.024	0.0163330
716.102	0.0163328
716.181	0.0161882
716.259	0.0162815
716.337	0.0162511
716.415	0.0162418
716.493	0.0162685
716.571	0.0162648
716.649	0.0163872
716.727	0.0162305
716.806	0.0164223
716.884	0.0163339
716.962	0.0161974
717.040	0.0163484
717.118	0.0162699
717.196	0.0162446
717.274	0.0162830
717.352	0.0162943
717.431	0.0163224
717.509	0.0162570
717.587	0.0163798
717.665	0.0162492
717.743	0.0163786
717.821	0.0164158
717.899	0.0163834
717.977	0.0163024
718.056	0.0163751
718.134	0.0163868
718.212	0.0163789
718.290	0.0163126
718.368	0.0163142
718.446	0.0163433
718.524	0.0164092
718.602	0.0163236
718.681	0.0162747
718.759	0.0163430
718.837	0.0163306
718.915	0.0164850
718.993	0.0161755
719.071	0.0161647
719.149	0.0163308
719.227	0.0163170
719.306	0.0163456
719.384	0.0163141
719.462	0.0162724
719.540	0.0162311
719.618	0.0161483
719.696	0.0163235
719.774	0.0162463
719.852	0.0161446
719.931	0.0163034
720.009	0.0162516
720.087	0.0163659
720.165	0.0164007
720.243	0.0163371
720.321	0.0162994
720.399	0.0162598
720.477	0.0163669
720.556	0.0163335
720.634	0.0162707
720.712	0.0161387
720.790	0.0161684
720.868	0.0162230
720.946	0.0161342
721.024	0.0161834
721.102	0.0160457
721.181	0.0160695
721.259	0.0159219
721.337	0.0159155
721.415	0.0158939
721.493	0.0158939
721.571	0.0159355
721.649	0.0158147
721.727	0.0158959
721.806	0.0160266
721.884	0.0158777
721.962	0.0160021
722.040	0.0160028
722.118	0.0160378
722.196	0.0160308
722.274	0.0162191
722.352	0.0160286
722.431	0.0160159
722.509	0.0160586
722.587	0.0161009
722.665	0.0161456
722.743	0.0161806
722.821	0.0162779
722.899	0.0161333
722.977	0.0160670
723.056	0.0163564
723.134	0.0161733
723.212	0.0162316
723.290	0.0162401
723.368	0.0162608
723.446	0.0162456
723.524	0.0163699
723.602	0.0162178
723.681	0.0162631
723.759	0.0162480
723.837	0.0161884
723.915	0.0161415
723.993	0.0162135
724.071	0.0163090
724.149	0.0162809
724.227	0.0162840
724.306	0.0162850
724.384	0.0161774
724.462	0.0162627
724.540	0.0162209
724.618	0.0162368
724.696	0.0162238
724.774	0.0164082
724.852	0.0163054
724.931	0.0161794
725.009	0.0162161
725.087	0.0162873
725.165	0.0162658
725.243	0.0161950
725.321	0.0163059
725.399	0.0162132
725.477	0.0162427
725.556	0.0163721
725.634	0.0161650
725.712	0.0161987
725.790	0.0163651
725.868	0.0163372
725.946	0.0162645
726.024	0.0162857
726.102	0.0162965
726.181	0.0162420
726.259	0.0163531
726.337	0.0163363
726.415	0.0163255
726.493	0.0164439
726.571	0.0162946
726.649	0.0164056
726.727	0.0162846
726.806	0.0162067
726.884	0.0163261
726.962	0.0163765
727.040	0.0161983
727.118	0.0162626
727.196	0.0163174
727.274	0.0163788
727.352	0.0163384
727.431	0.0163422
727.509	0.0162628
727.587	0.0163189
727.665	0.0162263
727.743	0.0164353
727.821	0.0164931
727.899	0.0164233
727.977	0.0162644
728.056	0.0163004
728.134	0.0165160
728.212	0.0166595
728.290	0.0164978
728.368	0.0164856
728.446	0.0164493
728.524	0.0165734
728.602	0.0165693
728.681	0.0165442
728.759	0.0164487
728.837	0.0163152
728.915	0.0164888
728.993	0.0164730
729.071	0.0163895
729.149	0.0164351
729.227	0.0163193
729.306	0.0164294
729.384	0.0163520
729.462	0.0164626
729.540	0.0162981
729.618	0.0162923
729.696	0.0162489
729.774	0.0163142
729.852	0.0162588
729.931	0.0162323
730.009	0.0161886
730.087	0.0162061
730.165	0.0161171
730.243	0.0161460
730.321	0.0163060
730.399	0.0162212
730.477	0.0162769
730.556	0.0162893
730.634	0.0161946
730.712	0.0162999
730.790	0.0162800
730.868	0.0163183
730.946	0.0162003
731.024	0.0162335
731.102	0.0162738
731.181	0.0159736
731.259	0.0162490
731.337	0.0161811
731.415	0.0161288
731.493	0.0161591
731.571	0.0161726
731.649	0.0161681
731.727	0.0160931
731.806	0.0161279
731.884	0.0161251
731.962	0.0161687
732.040	0.0161892
732.118	0.0161959
732.196	0.0162836
732.274	0.0164309
732.352	0.0161996
732.431	0.0163022
732.509	0.0161636
732.587	0.0161597
732.665	0.0162314
732.743	0.0162785
732.821	0.0162298
732.899	0.0162627
732.977	0.0163692
733.056	0.0162768
733.134	0.0163276
733.212	0.0163170
733.290	0.0162939
733.368	0.0162932
733.446	0.0162908
733.524	0.0163947
733.602	0.0164197
733.681	0.0163009
733.759	0.0163486
733.837	0.0163843
733.915	0.0164143
733.993	0.0162746
734.071	0.0162386
734.149	0.0163764
734.227	0.0161997
734.306	0.0163319
734.384	0.0163358
734.462	0.0162421
734.540	0.0162180
734.618	0.0163187
734.696	0.0162094
734.774	0.0161265
734.852	0.0162038
734.931	0.0161771
735.009	0.0161684
735.087	0.0161101
735.165	0.0162297
735.243	0.0161589
735.321	0.0161083
735.399	0.0161370
735.477	0.0160566
735.556	0.0160852
735.634	0.0161490
735.712	0.0160854
735.790	0.0162051
735.868	0.0162529
735.946	0.0160981
736.024	0.0162572
736.102	0.0161669
736.181	0.0162307
736.259	0.0163309
736.337	0.0163491
736.415	0.0162521
736.493	0.0163995
736.571	0.0163554
736.649	0.0163909
736.727	0.0163901
736.806	0.0164574
736.884	0.0163750
736.962	0.0164259
737.040	0.0165482
737.118	0.0165108
737.196	0.0163868
737.274	0.0164307
737.352	0.0164465
737.431	0.0164481
737.509	0.0164445
737.587	0.0164294
737.665	0.0165218
737.743	0.0164344
737.821	0.0163327
737.899	0.0163931
737.977	0.0164030
738.056	0.0164546
738.134	0.0164188
738.212	0.0164437
738.290	0.0164937
738.368	0.0164452
738.446	0.0163626
738.524	0.0163309
738.602	0.0162711
738.681	0.0164525
738.759	0.0166245
738.837	0.0163879
738.915	0.0164123
738.993	0.0164774
739.071	0.0164185
739.149	0.0163593
739.227	0.0164074
739.306	0.0165306
739.384	0.0163925
739.462	0.0165076
739.540	0.0164627
739.618	0.0164626
739.696	0.0163174
739.774	0.0163941
739.852	0.0162507
739.931	0.0164092
740.009	0.0163344
740.087	0.0162800
740.165	0.0163567
740.243	0.0163285
740.321	0.0163467
740.399	0.0163680
740.477	0.0164126
740.556	0.0162624
740.634	0.0162746
740.712	0.0162750
740.790	0.0163005
740.868	0.0163163
740.946	0.0164141
741.024	0.0162678
741.102	0.0162816
741.181	0.0163843
741.259	0.0163699
741.337	0.0163264
741.415	0.0162181
741.493	0.0163034
741.571	0.0163145
741.649	0.0164846
741.727	0.0163813
741.806	0.0163469
741.884	0.0162910
741.962	0.0162564
742.040	0.0164024
742.118	0.0163528
742.196	0.0162422
742.274	0.0161862
742.352	0.0163142
742.431	0.0164076
742.509	0.0162605
742.587	0.0163999
742.665	0.0162414
742.743	0.0161898
742.821	0.0163464
742.899	0.0162817
742.977	0.0162709
743.056	0.0163215
743.134	0.0162766
743.212	0.0163736
743.290	0.0163168
743.368	0.0162885
743.446	0.0162618
743.524	0.0161665
743.602	0.0163117
743.681	0.0163790
743.759	0.0163278
743.837	0.0162502
743.915	0.0162414
743.993	0.0163621
744.071	0.0164008
744.149	0.0163438
744.227	0.0162573
744.306	0.0162845
744.384	0.0163795
744.462	0.0163560
744.540	0.0162672
744.618	0.0162654
744.696	0.0162357
744.774	0.0163654
744.852	0.0163345
744.931	0.0163390
745.009	0.0162896
745.087	0.0162703
745.165	0.0162086
745.243	0.0163290
745.321	0.0163234
745.399	0.0162073
745.477	0.0163233
745.556	0.0161696
745.634	0.0162130
745.712	0.0162965
745.790	0.0162224
745.868	0.0161488
745.946	0.0162104
746.024	0.0162222
746.102	0.0161626
746.181	0.0162924
746.259	0.0162213
746.337	0.0160509
746.415	0.0162374
746.493	0.0161404
746.571	0.0161667
746.649	0.0162746
746.727	0.0161610
746.806	0.0161141
746.884	0.0160831
746.962	0.0160666
747.040	0.0162229
747.118	0.0163026
747.196	0.0161028
747.274	0.0161401
747.352	0.0160986
747.431	0.0161322
747.509	0.0161073
747.587	0.0160295
747.665	0.0161434
747.743	0.0160753
747.821	0.0161037
747.899	0.0162104
747.977	0.0161234
748.056	0.0162405
748.134	0.0160973
748.212	0.0162656
748.290	0.0161511
748.368	0.0162580
748.446	0.0162920
748.524	0.0161510
748.602	0.0163548
748.681	0.0161321
748.759	0.0161978
748.837	0.0164443
748.915	0.0163203
748.993	0.0162976
749.071	0.0161652
749.149	0.0162534
749.227	0.0161773
749.306	0.0162778
749.384	0.0162838
749.462	0.0162884
749.540	0.0163641
749.618	0.0163396
749.696	0.0162520
749.774	0.0162437
749.852	0.0163431
749.931	0.0163100
750.009	0.0162988
750.087	0.0161714
750.165	0.0163892
750.243	0.0162059
750.321	0.0162806
750.399	0.0164466
750.477	0.0163499
750.556	0.0163321
750.634	0.0164165
750.712	0.0163646
750.790	0.0162800
750.868	0.0162725
750.946	0.0164366
751.024	0.0162708
751.102	0.0162378
751.181	0.0163174
751.259	0.0162897
751.337	0.0163145
751.415	0.0163940
751.493	0.0162251
751.571	0.0163191
751.649	0.0163495
751.727	0.0161980
751.806	0.0162769
751.884	0.0162334
751.962	0.0162699
752.040	0.0163345
752.118	0.0162984
752.196	0.0162320
752.274	0.0163002
752.352	0.0163509
752.431	0.0161398
752.509	0.0159911
752.587	0.0165111
752.665	0.0162268
752.743	0.0161636
752.821	0.0162145
752.899	0.0161687
752.977	0.0163775
753.056	0.0162731
753.134	0.0161945
753.212	0.0161896
753.290	0.0162994
753.368	0.0163561
753.446	0.0162862
753.524	0.0163844
753.602	0.0164195
753.681	0.0163654
753.759	0.0161807
753.837	0.0163633
753.915	0.0163993
753.993	0.0162660
754.071	0.0162811
754.149	0.0164707
754.227	0.0162579
754.306	0.0162566
754.384	0.0161833
754.462	0.0162283
754.540	0.0161529
754.618	0.0161708
754.696	0.0162180
754.774	0.0160822
754.852	0.0162352
754.931	0.0161736
755.009	0.0161251
755.087	0.0161822
755.165	0.0161798
755.243	0.0159867
755.321	0.0161501
755.399	0.0161279
755.477	0.0161240
755.556	0.0160860
755.634	0.0161092
755.712	0.0162193
755.790	0.0161359
755.868	0.0162408
755.946	0.0162321
756.024	0.0160950
756.102	0.0160942
756.181	0.0162366
756.259	0.0161086
756.337	0.0162029
756.415	0.0161488
756.493	0.0162206
756.571	0.0162307
756.649	0.0163222
756.727	0.0161935
756.806	0.0161790
756.884	0.0163266
756.962	0.0163104
757.040	0.0162892
757.118	0.0163314
757.196	0.0163380
757.274	0.0163084
757.352	0.0163917
757.431	0.0164246
757.509	0.0163982
757.587	0.0162172
757.665	0.0164056
757.743	0.0164588
757.821	0.0164290
757.899	0.0165768
757.977	0.0164685
758.056	0.0164192
758.134	0.0165107
758.212	0.0164796
758.290	0.0164420
758.368	0.0164428
758.446	0.0164048
758.524	0.0166481
758.602	0.0165199
758.681	0.0166074
758.759	0.0163161
758.837	0.0164765
758.915	0.0164898
758.993	0.0164785
759.071	0.0164215
759.149	0.0165052
759.227	0.0164427
759.306	0.0164051
759.384	0.0163818
759.462	0.0163546
759.540	0.0164668
759.618	0.0164183
759.696	0.0163618
759.774	0.0162800
759.852	0.0162361
759.931	0.0163556
760.009	0.0162862
760.087	0.0162973
760.165	0.0162217
760.243	0.0163406
760.321	0.0163564
760.399	0.0164408
760.477	0.0163136
760.556	0.0163071
760.634	0.0165108
760.712	0.0163553
760.790	0.0163860
760.868	0.0163775
760.946	0.0164735
761.024	0.0164533
761.102	0.0163305
761.181	0.0164143
761.259	0.0165243
761.337	0.0163857
761.415	0.0164381
761.493	0.0164250
761.571	0.0165211
761.649	0.0162508
761.727	0.0164685
761.806	0.0164904
761.884	0.0164159
761.962	0.0163469
762.040	0.0163814
762.118	0.0166055
762.196	0.0164638
762.274	0.0163485
762.352	0.0163834
762.431	0.0163803
762.509	0.0165400
762.587	0.0164244
762.665	0.0163886
762.743	0.0165800
762.821	0.0164348
762.899	0.0164487
762.977	0.0162727
763.056	0.0162116
763.134	0.0163499
763.212	0.0165203
763.290	0.0163487
763.368	0.0163292
763.446	0.0163262
763.524	0.0162486
763.602	0.0162261
763.681	0.0164543
763.759	0.0162828
763.837	0.0162160
763.915	0.0163283
763.993	0.0163063
764.071	0.0163190
764.149	0.0163053
764.227	0.0163180
764.306	0.0163107
764.384	0.0161886
764.462	0.0163354
764.540	0.0162558
764.618	0.0162946
764.696	0.0163071
764.774	0.0164272
764.852	0.0164360
764.931	0.0163584
765.009	0.0163341
765.087	0.0164874
765.165	0.0163641
765.243	0.0164449
765.321	0.0164679
765.399	0.0164387
765.477	0.0165089
765.556	0.0163577
765.634	0.0163190
765.712	0.0165829
765.790	0.0165379
765.868	0.0164987
765.946	0.0165125
766.024	0.0164932
766.102	0.0163902
766.181	0.0163269
766.259	0.0164488
766.337	0.0164506
766.415	0.0163871
766.493	0.0163960
766.571	0.0163181
766.649	0.0164140
766.727	0.0163847
766.806	0.0163041
766.884	0.0163915
766.962	0.0163952
767.040	0.0163375
767.118	0.0163692
767.196	0.0163314
767.274	0.0163613
767.352	0.0162894
767.431	0.0162780
767.509	0.0162795
767.587	0.0163181
767.665	0.0163293
767.743	0.0161607
767.821	0.0162675
767.899	0.0164244
767.977	0.0162189
768.056	0.0163617
768.134	0.0163301
768.212	0.0163714
768.290	0.0164125
768.368	0.0162972
768.446	0.0162156
768.524	0.0162847
768.602	0.0162773
768.681	0.0164171
768.759	0.0164378
768.837	0.0163526
768.915	0.0164370
768.993	0.0164566
769.071	0.0162299
769.149	0.0163604
769.227	0.0163332
769.306	0.0163455
769.384	0.0161993
769.462	0.0162994
769.540	0.0163467
769.618	0.0163970
769.696	0.0163861
769.774	0.0162966
769.852	0.0163049
769.931	0.0163271
770.009	0.0163123
770.087	0.0163076
770.165	0.0163825
770.243	0.0162206
770.321	0.0162563
770.399	0.0162743
770.477	0.0162896
770.556	0.0161854
770.634	0.0163637
770.712	0.0163420
770.790	0.0161787
770.868	0.0161214
770.946	0.0161307
771.024	0.0161764
771.102	0.0161269
771.181	0.0162609
771.259	0.0161854
771.337	0.0160986
771.415	0.0162150
771.493	0.0162344
771.571	0.0161752
771.649	0.0162573
771.727	0.0161794
771.806	0.0162193
771.884	0.0162392
771.962	0.0162177
772.040	0.0161670
772.118	0.0162128
772.196	0.0161677
772.274	0.0162674
772.352	0.0162037
772.431	0.0162480
772.509	0.0161317
772.587	0.0162791
772.665	0.0162173
772.743	0.0161134
772.821	0.0162208
772.899	0.0161438
772.977	0.0161044
773.056	0.0161349
773.134	0.0160962
773.212	0.0162354
773.290	0.0162585
773.368	0.0161808
773.446	0.0160958
773.524	0.0160868
773.602	0.0162617
773.681	0.0161465
773.759	0.0161691
773.837	0.0162081
773.915	0.0162846
773.993	0.0162059
774.071	0.0162054
774.149	0.0163470
774.227	0.0163718
774.306	0.0164043
774.384	0.0163107
774.462	0.0163321
774.540	0.0161983
774.618	0.0163360
774.696	0.0162871
774.774	0.0163589
774.852	0.0163951
774.931	0.0162705
775.009	0.0162574
775.087	0.0164134
775.165	0.0164020
775.243	0.0162608
775.321	0.0163900
775.399	0.0163902
775.477	0.0163592
775.556	0.0164508
775.634	0.0164724
775.712	0.0163300
775.790	0.0163892
775.868	0.0163249
775.946	0.0163347
776.024	0.0164695
776.102	0.0165228
776.181	0.0163422
776.259	0.0163417
776.337	0.0163717
776.415	0.0164344
776.493	0.0164390
776.571	0.0164198
776.649	0.0163174
776.727	0.0163448
776.806	0.0164738
776.884	0.0163651
776.962	0.0164883
777.040	0.0164745
777.118	0.0164915
777.196	0.0163756
777.274	0.0164559
777.352	0.0164486
777.431	0.0165598
777.509	0.0164613
777.587	0.0163125
777.665	0.0162901
777.743	0.0164594
777.821	0.0164021
777.899	0.0164340
777.977	0.0163480
778.056	0.0163373
778.134	0.0163827
778.212	0.0162923
778.290	0.0162321
778.368	0.0163299
778.446	0.0163860
778.524	0.0162666
778.602	0.0162269
778.681	0.0163004
778.759	0.0162248
778.837	0.0163734
778.915	0.0162466
778.993	0.0160641
779.071	0.0163069
779.149	0.0162178
779.227	0.0162776
779.306	0.0161780
779.384	0.0162327
779.462	0.0161909
779.540	0.0164555
779.618	0.0163757
779.696	0.0162950
779.774	0.0163186
779.852	0.0161995
779.931	0.0163218
780.009	0.0163113
780.087	0.0162241
780.165	0.0165252
780.243	0.0163443
780.321	0.0162610
780.399	0.0162304
780.477	0.0164358
780.556	0.0162891
780.634	0.0163953
780.712	0.0163375
780.790	0.0163667
780.868	0.0163666
780.946	0.0164579
781.024	0.0162000
781.102	0.0163026
781.181	0.0164642
781.259	0.0165047
781.337	0.0162888
781.415	0.0163902
781.493	0.0164902
781.571	0.0165070
781.649	0.0165146
781.727	0.0164362
781.806	0.0164715
781.884	0.0164453
781.962	0.0164522
782.040	0.0166317
782.118	0.0164727
782.196	0.0163767
782.274	0.0163766
782.352	0.0163290
782.431	0.0164110
782.509	0.0164796
782.587	0.0164034
782.665	0.0163615
782.743	0.0164314
782.821	0.0165077
782.899	0.0163341
782.977	0.0163354
783.056	0.0163085
783.134	0.0162865
783.212	0.0164110
783.290	0.0164994
783.368	0.0163227
783.446	0.0163504
783.524	0.0164593
783.602	0.0165650
783.681	0.0164938
783.759	0.0165054
783.837	0.0162816
783.915	0.0163449
783.993	0.0165457
784.071	0.0164635
784.149	0.0163192
784.227	0.0164691
784.306	0.0164327
784.384	0.0162416
784.462	0.0163103
784.540	0.0162815
784.618	0.0164201
784.696	0.0165496
784.774	0.0163119
784.852	0.0162632
784.931	0.0163403
785.009	0.0163451
785.087	0.0162799
785.165	0.0164297
785.243	0.0163837
785.321	0.0161005
785.399	0.0163900
785.477	0.0163621
785.556	0.0162442
785.634	0.0162821
785.712	0.0163902
785.790	0.0162943
785.868	0.0164233
785.946	0.0163581
786.024	0.0163152
786.102	0.0162843
786.181	0.0163923
786.259	0.0163945
786.337	0.0162424
786.415	0.0162549
786.493	0.0162911
786.571	0.0163239
786.649	0.0163976
786.727	0.0163103
786.806	0.0162925
786.884	0.0163264
786.962	0.0162499
787.040	0.0163746
787.118	0.0162414
787.196	0.0161944
787.274	0.0163912
787.352	0.0163808
787.431	0.0162173
787.509	0.0164161
787.587	0.0163348
787.665	0.0162207
787.743	0.0163126
787.821	0.0164737
787.899	0.0162388
787.977	0.0164735
788.056	0.0164957
788.134	0.0162519
788.212	0.0162805
788.290	0.0162101
788.368	0.0163156
788.446	0.0163129
788.524	0.0161897
788.602	0.0162231
788.681	0.0161581
788.759	0.0162008
788.837	0.0162277
788.915	0.0161572
788.993	0.0161220
789.071	0.0162530
789.149	0.0162421
789.227	0.0161492
789.306	0.0160938
789.384	0.0161618
789.462	0.0160587
789.540	0.0162300
789.618	0.0163228
789.696	0.0161854
789.774	0.0162740
789.852	0.0161230
789.931	0.0162128
790.009	0.0162132
790.087	0.0161880
790.165	0.0162269
790.243	0.0160421
790.321	0.0160956
790.399	0.0161931
790.477	0.0162933
790.556	0.0161852
790.634	0.0160668
790.712	0.0162732
790.790	0.0162847
790.868	0.0161615
790.946	0.0162706
791.024	0.0163130
791.102	0.0161059
791.181	0.0161954
791.259	0.0163389
791.337	0.0164311
791.415	0.0162145
791.493	0.0163447
791.571	0.0163593
791.649	0.0164623
791.727	0.0162344
791.806	0.0163137
791.884	0.0163108
791.962	0.0162037
792.040	0.0164053
792.118	0.0163090
792.196	0.0163304
792.274	0.0162031
792.352	0.0162098
792.431	0.0162637
792.509	0.0162119
792.587	0.0163039
792.665	0.0163318
792.743	0.0163083
792.821	0.0163219
792.899	0.0161649
792.977	0.0162069
793.056	0.0163372
793.134	0.0162400
793.212	0.0161809
793.290	0.0163390
793.368	0.0162157
793.446	0.0161954
793.524	0.0160720
793.602	0.0161471
793.681	0.0162682
793.759	0.0162157
793.837	0.0162915
793.915	0.0163065
793.993	0.0161718
794.071	0.0162457
794.149	0.0162464
794.227	0.0164181
794.306	0.0163099
794.384	0.0163309
794.462	0.0163486
794.540	0.0162944
794.618	0.0162890
794.696	0.0162845
794.774	0.0163097
794.852	0.0163493
794.931	0.0162720
795.009	0.0163258
795.087	0.0163350
795.165	0.0163653
795.243	0.0163356
795.321	0.0162782
795.399	0.0163987
795.477	0.0163204
795.556	0.0163528
795.634	0.0161835
795.712	0.0163566
795.790	0.0162780
795.868	0.0162400
795.946	0.0161572
796.024	0.0164250
796.102	0.0163801
796.181	0.0163726
796.259	0.0164014
796.337	0.0162933
796.415	0.0163056
796.493	0.0162147
796.571	0.0163755
796.649	0.0163287
796.727	0.0162814
796.806	0.0162374
796.884	0.0163743
796.962	0.0164655
797.040	0.0164365
797.118	0.0163333
797.196	0.0162849
797.274	0.0162925
797.352	0.0162704
797.431	0.0162431
797.509	0.0162971
797.587	0.0163342
797.665	0.0163491
797.743	0.0161942
797.821	0.0161581
797.899	0.0160543
797.977	0.0161732
798.056	0.0162973
798.134	0.0162919
798.212	0.0162589
798.290	0.0163061
798.368	0.0162208
798.446	0.0161546
798.524	0.0160474
798.602	0.0161906
798.681	0.0161974
798.759	0.0162347
798.837	0.0162457
798.915	0.0162033
798.993	0.0162337
799.071	0.0162104
799.149	0.0163255
799.227	0.0161990
799.306	0.0162086
799.384	0.0162699
799.462	0.0162946
799.540	0.0163581
799.618	0.0163845
799.696	0.0163537
799.774	0.0163574
799.852	0.0162845
799.931	0.0163601
800.009	0.0163393
800.087	0.0162977
800.165	0.0163981
800.243	0.0163929
800.321	0.0162218
800.399	0.0163650
800.477	0.0164186
800.556	0.0163797
800.634	0.0162840
800.712	0.0162281
800.790	0.0163631
800.868	0.0164842
800.946	0.0163816
801.024	0.0164655
801.102	0.0163460
801.181	0.0164706
801.259	0.0162009
801.337	0.0163820
801.415	0.0164146
801.493	0.0162782
801.571	0.0162531
801.649	0.0162989
801.727	0.0162893
801.806	0.0163824
801.884	0.0162289
801.962	0.0161369
802.040	0.0161451
802.118	0.0161353
802.196	0.0162100
802.274	0.0161276
802.352	0.0162198
802.431	0.0161745
802.509	0.0162706
802.587	0.0162636
802.665	0.0162842
802.743	0.0162094
802.821	0.0161921
802.899	0.0161534
802.977	0.0162683
803.056	0.0161900
803.134	0.0162470
803.212	0.0161703
803.290	0.0162708
803.368	0.0162282
803.446	0.0161202
803.524	0.0161788
803.602	0.0162917
803.681	0.0162926
803.759	0.0162844
803.837	0.0161859
803.915	0.0162478
803.993	0.0162653
804.071	0.0162270
804.149	0.0162697
804.227	0.0159337
804.306	0.0161898
804.384	0.0163014
804.462	0.0163074
804.540	0.0162272
804.618	0.0160975
804.696	0.0161285
804.774	0.0160971
804.852	0.0161655
804.931	0.0161331
805.009	0.0160724
805.087	0.0162582
805.165	0.0163638
805.243	0.0161216
805.321	0.0160288
805.399	0.0160356
805.477	0.0160539
805.556	0.0160429
805.634	0.0162310
805.712	0.0161365
805.790	0.0161476
805.868	0.0161398
805.946	0.0161687
806.024	0.0162646
806.102	0.0162533
806.181	0.0161650
806.259	0.0162584
806.337	0.0162757
806.415	0.0163081
806.493	0.0163399
806.571	0.0164234
806.649	0.0162531
806.727	0.0163167
806.806	0.0164323
806.884	0.0162971
806.962	0.0163568
807.040	0.0164725
807.118	0.0164809
807.196	0.0164702
807.274	0.0165881
807.352	0.0165948
807.431	0.0164438
807.509	0.0165067
807.587	0.0164635
807.665	0.0164301
807.743	0.0163891
807.821	0.0165535
807.899	0.0164130
807.977	0.0165017
808.056	0.0165246
808.134	0.0164339
808.212	0.0164105
808.290	0.0164070
808.368	0.0164455
808.446	0.0164268
808.524	0.0164085
808.602	0.0163393
808.681	0.0163705
808.759	0.0163571
808.837	0.0165231
808.915	0.0163721
808.993	0.0163673
809.071	0.0164161
809.149	0.0163749
809.227	0.0163245
809.306	0.0164139
809.384	0.0162884
809.462	0.0162601
809.540	0.0162557
809.618	0.0162760
809.696	0.0163210
809.774	0.0162407
809.852	0.0163020
809.931	0.0162753
810.009	0.0162447
810.087	0.0162976
810.165	0.0162277
810.243	0.0162000
810.321	0.0162289
810.399	0.0162831
810.477	0.0163299
810.556	0.0163395
810.634	0.0164553
810.712	0.0161641
810.790	0.0161733
810.868	0.0162693
810.946	0.0162891
811.024	0.0163073
811.102	0.0163062
811.181	0.0162328
811.259	0.0162231
811.337	0.0162389
811.415	0.0163009
811.493	0.0163022
811.571	0.0162514
811.649	0.0162070
811.727	0.0163049
811.806	0.0161382
811.884	0.0162431
811.962	0.0163506
812.040	0.0161810
812.118	0.0160099
812.196	0.0162257
812.274	0.0162309
812.352	0.0161502
812.431	0.0161940
812.509	0.0160618
812.587	0.0161153
812.665	0.0161456
812.743	0.0160772
812.821	0.0161474
812.899	0.0160931
812.977	0.0159685
813.056	0.0159968
813.134	0.0162104
813.212	0.0160619
813.290	0.0159839
813.368	0.0159954
813.446	0.0162315
813.524	0.0160827
813.602	0.0161539
813.681	0.0160753
813.759	0.0160927
813.837	0.0160969
813.915	0.0161688
813.993	0.0161040
814.071	0.0161826
814.149	0.0161555
814.227	0.0162106
814.306	0.0162393
814.384	0.0162441
814.462	0.0163531
814.540	0.0163266
814.618	0.0163685
814.696	0.0162989
814.774	0.0164030
814.852	0.0164365
814.931	0.0163990
815.009	0.0164010
815.087	0.0164233
815.165	0.0163111
815.243	0.0164563
815.321	0.0164854
815.399	0.0164542
815.477	0.0164870
815.556	0.0164591
815.634	0.0166225
815.712	0.0165019
815.790	0.0165696
815.868	0.0165833
815.946	0.0165208
816.024	0.0165224
816.102	0.0165875
816.181	0.0165081
816.259	0.0164368
816.337	0.0163673
816.415	0.0164212
816.493	0.0163816
816.571	0.0163166
816.649	0.0163849
816.727	0.0163714
816.806	0.0164416
816.884	0.0163519
816.962	0.0163593
817.040	0.0163336
817.118	0.0163217
817.196	0.0164039
817.274	0.0163381
817.352	0.0163232
817.431	0.0164139
817.509	0.0163934
817.587	0.0164154
817.665	0.0164387
817.743	0.0164406
817.821	0.0162967
817.899	0.0164272
817.977	0.0164996
818.056	0.0164396
818.134	0.0163261
818.212	0.0162928
818.290	0.0162094
818.368	0.0162926
818.446	0.0162250
818.524	0.0162216
818.602	0.0162494
818.681	0.0162547
818.759	0.0163022
818.837	0.0161864
818.915	0.0162338
818.993	0.0161636
819.071	0.0161024
819.149	0.0160729
819.227	0.0161446
819.306	0.0160342
819.384	0.0159486
819.462	0.0160529
819.540	0.0160265
819.618	0.0161224
819.696	0.0161578
819.774	0.0160018
819.852	0.0161716
819.931	0.0161708
820.009	0.0163058
820.087	0.0162074
820.165	0.0160600
820.243	0.0162000
820.321	0.0161552
820.399	0.0161790
820.477	0.0162451
820.556	0.0161494
820.634	0.0161775
820.712	0.0160729
820.790	0.0159969
820.868	0.0160566
820.946	0.0162158
821.024	0.0160938
821.102	0.0162914
821.181	0.0163111
821.259	0.0162119
821.337	0.0163079
821.415	0.0162743
821.493	0.0163844
821.571	0.0163539
821.649	0.0163009
821.727	0.0163071
821.806	0.0163854
821.884	0.0163786
821.962	0.0163701
822.040	0.0165208
822.118	0.0165403
822.196	0.0163655
822.274	0.0164557
822.352	0.0162921
822.431	0.0163799
822.509	0.0162901
822.587	0.0163910
822.665	0.0163663
822.743	0.0163171
822.821	0.0163060
822.899	0.0164542
822.977	0.0162523
823.056	0.0163783
823.134	0.0164907
823.212	0.0165085
823.290	0.0163464
823.368	0.0162782
823.446	0.0164685
823.524	0.0163798
823.602	0.0162891
823.681	0.0162424
823.759	0.0162943
823.837	0.0164691
823.915	0.0164704
823.993	0.0165043
824.071	0.0163733
824.149	0.0163230
824.227	0.0163599
824.306	0.0163769
824.384	0.0162894
824.462	0.0163218
824.540	0.0162581
824.618	0.0163029
824.696	0.0163426
824.774	0.0164291
824.852	0.0163100
824.931	0.0163834
825.009	0.0163785
825.087	0.0163456
825.165	0.0162849
825.243	0.0163371
825.321	0.0164854
825.399	0.0163858
825.477	0.0163748
825.556	0.0162657
825.634	0.0162918
825.712	0.0163396
825.790	0.0163460
825.868	0.0163586
825.946	0.0162990
826.024	0.0163461
826.102	0.0163835
826.181	0.0162054
826.259	0.0163980
826.337	0.0164082
826.415	0.0164349
826.493	0.0163696
826.571	0.0163669
826.649	0.0163667
826.727	0.0163033
826.806	0.0163513
826.884	0.0161649
826.962	0.0163317
827.040	0.0162997
827.118	0.0163765
827.196	0.0163140
827.274	0.0162231
827.352	0.0161776
827.431	0.0161977
827.509	0.0163179
827.587	0.0162561
827.665	0.0160546
827.743	0.0160415
827.821	0.0162070
827.899	0.0161002
827.977	0.0161366
828.056	0.0161236
828.134	0.0159767
828.212	0.0160451
828.290	0.0161090
828.368	0.0161501
828.446	0.0161769
828.524	0.0160573
828.602	0.0160536
828.681	0.0161463
828.759	0.0161871
828.837	0.0160810
828.915	0.0161267
828.993	0.0160880
829.071	0.0159855
829.149	0.0159743
829.227	0.0161397
829.306	0.0161179
829.384	0.0160079
829.462	0.0160956
829.540	0.0161421
829.618	0.0161244
829.696	0.0161494
829.774	0.0162825
829.852	0.0161693
829.931	0.0162478
830.009	0.0161772
830.087	0.0160802
830.165	0.0160998
830.243	0.0161654
830.321	0.0162010
830.399	0.0162948
830.477	0.0162024
830.556	0.0162308
830.634	0.0163383
830.712	0.0163564
830.790	0.0163992
830.868	0.0163364
830.946	0.0163288
831.024	0.0163603
831.102	0.0163985
831.181	0.0163297
831.259	0.0163940
831.337	0.0163148
831.415	0.0163601
831.493	0.0164057
831.571	0.0164263
831.649	0.0164492
831.727	0.0163840
831.806	0.0164691
831.884	0.0163720
831.962	0.0163799
832.040	0.0163583
832.118	0.0162693
832.196	0.0163390
832.274	0.0164040
832.352	0.0164165
832.431	0.0164655
832.509	0.0165077
832.587	0.0163227
832.665	0.0164847
832.743	0.0163753
832.821	0.0164731
832.899	0.0163404
832.977	0.0163140
833.056	0.0164283
833.134	0.0163473
833.212	0.0163809
833.290	0.0164691
833.368	0.0163683
833.446	0.0162740
833.524	0.0163624
833.602	0.0163167
833.681	0.0163168
833.759	0.0164227
833.837	0.0162727
833.915	0.0161050
833.993	0.0162675
834.071	0.0163094
834.149	0.0163496
834.227	0.0163296
834.306	0.0163302
834.384	0.0163202
834.462	0.0161440
834.540	0.0162916
834.618	0.0161493
834.696	0.0162865
834.774	0.0163116
834.852	0.0163551
834.931	0.0164484
835.009	0.0162914
835.087	0.0162193
835.165	0.0163232
835.243	0.0162593
835.321	0.0163842
835.399	0.0163288
835.477	0.0164104
835.556	0.0162683
835.634	0.0162997
835.712	0.0163245
835.790	0.0163107
835.868	0.0165205
835.946	0.0163206
836.024	0.0162833
836.102	0.0163730
836.181	0.0163842
836.259	0.0164876
836.337	0.0162730
836.415	0.0164129
836.493	0.0164571
836.571	0.0164135
836.649	0.0163676
836.727	0.0164713
836.806	0.0163776
836.884	0.0165115
836.962	0.0162389
837.040	0.0163325
837.118	0.0165221
837.196	0.0163513
837.274	0.0162492
837.352	0.0163851
837.431	0.0164053
837.509	0.0164111
837.587	0.0163953
837.665	0.0164877
837.743	0.0164711
837.821	0.0163982
837.899	0.0164005
837.977	0.0163750
838.056	0.0163278
838.134	0.0163699
838.212	0.0164268
838.290	0.0165410
838.368	0.0164292
838.446	0.0164608
838.524	0.0163369
838.602	0.0164880
838.681	0.0163600
838.759	0.0163326
838.837	0.0163921
838.915	0.0164065
838.993	0.0165311
839.071	0.0163975
839.149	0.0163405
839.227	0.0164439
839.306	0.0163300
839.384	0.0163889
839.462	0.0164799
839.540	0.0165070
839.618	0.0164176
839.696	0.0163972
839.774	0.0164946
839.852	0.0164384
839.931	0.0164578
840.009	0.0163568
840.087	0.0164745
840.165	0.0162876
840.243	0.0165022
840.321	0.0163705
840.399	0.0164629
840.477	0.0164655
840.556	0.0164156
840.634	0.0163768
840.712	0.0163313
840.790	0.0165562
840.868	0.0164474
840.946	0.0164034
841.024	0.0164909
841.102	0.0163361
841.181	0.0163541
841.259	0.0164069
841.337	0.0163004
841.415	0.0163559
841.493	0.0162758
841.571	0.0163074
841.649	0.0163059
841.727	0.0162642
841.806	0.0162584
841.884	0.0162167
841.962	0.0163037
842.040	0.0163412
842.118	0.0161800
842.196	0.0162273
842.274	0.0163889
842.352	0.0163462
842.431	0.0162576
842.509	0.0162891
842.587	0.0161723
842.665	0.0162982
842.743	0.0164082
842.821	0.0162790
842.899	0.0163112
842.977	0.0162119
843.056	0.0163244
843.134	0.0163737
843.212	0.0162935
843.290	0.0162970
843.368	0.0164237
843.446	0.0164232
843.524	0.0162988
843.602	0.0162609
843.681	0.0164147
843.759	0.0164038
843.837	0.0164162
843.915	0.0162779
843.993	0.0163258
844.071	0.0164943
844.149	0.0163508
844.227	0.0162723
844.306	0.0163707
844.384	0.0163439
844.462	0.0164091
844.540	0.0164162
844.618	0.0162901
844.696	0.0163229
844.774	0.0164859
844.852	0.0163287
844.931	0.0164691
845.009	0.0163010
845.087	0.0163451
845.165	0.0164782
845.243	0.0164503
845.321	0.0164891
845.399	0.0164767
845.477	0.0164011
845.556	0.0164481
845.634	0.0163982
845.712	0.0164325
845.790	0.0164467
845.868	0.0163885
845.946	0.0162901
846.024	0.0164751
846.102	0.0164410
846.181	0.0164719
846.259	0.0165411
846.337	0.0163351
846.415	0.0164388
846.493	0.0164136
846.571	0.0163679
846.649	0.0164789
846.727	0.0164417
846.806	0.0162679
846.884	0.0164728
846.962	0.0164398
847.040	0.0165098
847.118	0.0164794
847.196	0.0163451
847.274	0.0163442
847.352	0.0162276
847.431	0.0162765
847.509	0.0163274
847.587	0.0164310
847.665	0.0163204
847.743	0.0163596
847.821	0.0164851
847.899	0.0164470
847.977	0.0161870
848.056	0.0163496
848.134	0.0163349
848.212	0.0162352
848.290	0.0165275
848.368	0.0164637
848.446	0.0163960
848.524	0.0164840
848.602	0.0162224
848.681	0.0162873
848.759	0.0163666
848.837	0.0164605
848.915	0.0163629
848.993	0.0163374
849.071	0.0163583
849.149	0.0163739
849.227	0.0163696
849.306	0.0163249
849.384	0.0163377
849.462	0.0164320
849.540	0.0163543
849.618	0.0164174
849.696	0.0163504
849.774	0.0162248
849.852	0.0162994
849.931	0.0164486
850.009	0.0162794
850.087	0.0163449
850.165	0.0163370
850.243	0.0163795
850.321	0.0163307
850.399	0.0162760
850.477	0.0162850
850.556	0.0163384
850.634	0.0162543
850.712	0.0163157
850.790	0.0163882
850.868	0.0163506
850.946	0.0162055
851.024	0.0162570
851.102	0.0163301
851.181	0.0163945
851.259	0.0163004
851.337	0.0163407
851.415	0.0162114
851.493	0.0161575
851.571	0.0164223
851.649	0.0163316
851.727	0.0162286
851.806	0.0162299
851.884	0.0162812
851.962	0.0163237
852.040	0.0162834
852.118	0.0163289
852.196	0.0164348
852.274	0.0162428
852.352	0.0161934
852.431	0.0163348
852.509	0.0162042
852.587	0.0162876
852.665	0.0163438
852.743	0.0162743
852.821	0.0162686
852.899	0.0162685
852.977	0.0163824
853.056	0.0163744
853.134	0.0163583
853.212	0.0164763
853.290	0.0163506
853.368	0.0162546
853.446	0.0162999
853.524	0.0162821
853.602	0.0163622
853.681	0.0163786
853.759	0.0162559
853.837	0.0162405
853.915	0.0162475
853.993	0.0164262
854.071	0.0162973
854.149	0.0163082
854.227	0.0162523
854.306	0.0160813
854.384	0.0160775
854.462	0.0163263
854.540	0.0161934
854.618	0.0160724
854.696	0.0161029
854.774	0.0161959
854.852	0.0161250
854.931	0.0161550
855.009	0.0162133
855.087	0.0162568
855.165	0.0161376
855.243	0.0161243
855.321	0.0161711
855.399	0.0162019
855.477	0.0161263
855.556	0.0161153
855.634	0.0162373
855.712	0.0161363
855.790	0.0162946
855.868	0.0161360
855.946	0.0162054
856.024	0.0161480
856.102	0.0161115
856.181	0.0162222
856.259	0.0162005
856.337	0.0162815
856.415	0.0162675
856.493	0.0163585
856.571	0.0162740
856.649	0.0163794
856.727	0.0163132
856.806	0.0163525
856.884	0.0164078
856.962	0.0163512
857.040	0.0163811
857.118	0.0162317
857.196	0.0161860
857.274	0.0163132
857.352	0.0164520
857.431	0.0162997
857.509	0.0162440
857.587	0.0162489
857.665	0.0162583
857.743	0.0163740
857.821	0.0162468
857.899	0.0162812
857.977	0.0163332
858.056	0.0162376
858.134	0.0163706
858.212	0.0162832
858.290	0.0163873
858.368	0.0163319
858.446	0.0162514
858.524	0.0162350
858.602	0.0162785
858.681	0.0162467
858.759	0.0162386
858.837	0.0163599
858.915	0.0163390
858.993	0.0162795
859.071	0.0162064
859.149	0.0164399
859.227	0.0163026
859.306	0.0162816
859.384	0.0161351
859.462	0.0163984
859.540	0.0163137
859.618	0.0163609
859.696	0.0164787
859.774	0.0163418
859.852	0.0163072
859.931	0.0163036
860.009	0.0164788
860.087	0.0162792
860.165	0.0162962
860.243	0.0163754
860.321	0.0162830
860.399	0.0162933
860.477	0.0163590
860.556	0.0163113
860.634	0.0163044
860.712	0.0163174
860.790	0.0163024
860.868	0.0162787
860.946	0.0163125
861.024	0.0163847
861.102	0.0162984
861.181	0.0164271
861.259	0.0162931
861.337	0.0162624
861.415	0.0161902
861.493	0.0162784
861.571	0.0163303
861.649	0.0162682
861.727	0.0163296
861.806	0.0163103
861.884	0.0164001
861.962	0.0162301
862.040	0.0164589
862.118	0.0163289
862.196	0.0163023
862.274	0.0164576
862.352	0.0163637
862.431	0.0164803
862.509	0.0163887
862.587	0.0165425
862.665	0.0165248
862.743	0.0164884
862.821	0.0166390
862.899	0.0164944
862.977	0.0164127
863.056	0.0164731
863.134	0.0165381
863.212	0.0166368
863.290	0.0165875
863.368	0.0166843
863.446	0.0166092
863.524	0.0165815
863.602	0.0165768
863.681	0.0166122
863.759	0.0165717
863.837	0.0166769
863.915	0.0166283
863.993	0.0166719
864.071	0.0166119
864.149	0.0166200
864.227	0.0165108
864.306	0.0166058
864.384	0.0164929
864.462	0.0164984
864.540	0.0165204
864.618	0.0165457
864.696	0.0164351
864.774	0.0163544
864.852	0.0165150
864.931	0.0163759
865.009	0.0164207
865.087	0.0166313
865.165	0.0163884
865.243	0.0164358
865.321	0.0162816
865.399	0.0163593
865.477	0.0164782
865.556	0.0163917
865.634	0.0163103
865.712	0.0163389
865.790	0.0163468
865.868	0.0163567
865.946	0.0164159
866.024	0.0164277
866.102	0.0163950
866.181	0.0164395
866.259	0.0163282
866.337	0.0165263
866.415	0.0165511
866.493	0.0165263
866.571	0.0164526
866.649	0.0164300
866.727	0.0165804
866.806	0.0164852
866.884	0.0164800
866.962	0.0165234
867.040	0.0165295
867.118	0.0164864
867.196	0.0165166
867.274	0.0164799
867.352	0.0164944
867.431	0.0164034
867.509	0.0163824
867.587	0.0164632
867.665	0.0164375
867.743	0.0163721
867.821	0.0164561
867.899	0.0164075
867.977	0.0162991
868.056	0.0164129
868.134	0.0163873
868.212	0.0164532
868.290	0.0164356
868.368	0.0163959
868.446	0.0162431
868.524	0.0162086
868.602	0.0163667
868.681	0.0163612
868.759	0.0163441
868.837	0.0162807
868.915	0.0164664
868.993	0.0163703
869.071	0.0163372
869.149	0.0164752
869.227	0.0162384
869.306	0.0163713
869.384	0.0163306
869.462	0.0163871
869.540	0.0162832
869.618	0.0163097
869.696	0.0162873
869.774	0.0163316
869.852	0.0162719
869.931	0.0164476
870.009	0.0163721
870.087	0.0162514
870.165	0.0162256
870.243	0.0163210
870.321	0.0164405
870.399	0.0162347
870.477	0.0163039
870.556	0.0163120
870.634	0.0162949
870.712	0.0163524
870.790	0.0163053
870.868	0.0163779
870.946	0.0164255
871.024	0.0164384
871.102	0.0164099
871.181	0.0162959
871.259	0.0162815
871.337	0.0163151
871.415	0.0163915
871.493	0.0163625
871.571	0.0163469
871.649	0.0163480
871.727	0.0162641
871.806	0.0162930
871.884	0.0164294
871.962	0.0162692
872.040	0.0164269
872.118	0.0164595
872.196	0.0163454
872.274	0.0163799
872.352	0.0163516
872.431	0.0163638
872.509	0.0163858
872.587	0.0165037
872.665	0.0164114
872.743	0.0164653
872.821	0.0164529
872.899	0.0165224
872.977	0.0164590
873.056	0.0164240
873.134	0.0164576
873.212	0.0166181
873.290	0.0165817
873.368	0.0165411
873.446	0.0163879
873.524	0.0164812
873.602	0.0164281
873.681	0.0163114
873.759	0.0164243
873.837	0.0165218
873.915	0.0164621
873.993	0.0164377
874.071	0.0163384
874.149	0.0164013
874.227	0.0163603
874.306	0.0164252
874.384	0.0165894
874.462	0.0163746
874.540	0.0164253
874.618	0.0163915
874.696	0.0164194
874.774	0.0163382
874.852	0.0161813
874.931	0.0162245
875.009	0.0163593
875.087	0.0163201
875.165	0.0161993
875.243	0.0162329
875.321	0.0162866
875.399	0.0161619
875.477	0.0163364
875.556	0.0163488
875.634	0.0163435
875.712	0.0161924
875.790	0.0161260
875.868	0.0161320
875.946	0.0161770
876.024	0.0161892
876.102	0.0161276
876.181	0.0161752
876.259	0.0160328
876.337	0.0160973
876.415	0.0162179
876.493	0.0160599
876.571	0.0161060
876.649	0.0161264
876.727	0.0161013
876.806	0.0160195
876.884	0.0161477
876.962	0.0161785
877.040	0.0159594
877.118	0.0163025
877.196	0.0161987
877.274	0.0160902
877.352	0.0162840
877.431	0.0161700
877.509	0.0161433
877.587	0.0161539
877.665	0.0161543
877.743	0.0160145
877.821	0.0161585
877.899	0.0162576
877.977	0.0161420
878.056	0.0161739
878.134	0.0161985
878.212	0.0161770
878.290	0.0161417
878.368	0.0162399
878.446	0.0162453
878.524	0.0162376
878.602	0.0162875
878.681	0.0162248
878.759	0.0163049
878.837	0.0162650
878.915	0.0161683
878.993	0.0163368
879.071	0.0161811
879.149	0.0161543
879.227	0.0163538
879.306	0.0162821
879.384	0.0163137
879.462	0.0162091
879.540	0.0161961
879.618	0.0163449
879.696	0.0163709
879.774	0.0162582
879.852	0.0162744
879.931	0.0162735
880.009	0.0163152
880.087	0.0162672
880.165	0.0163387
880.243	0.0163147
880.321	0.0162994
880.399	0.0163135
880.477	0.0163060
880.556	0.0163237
880.634	0.0164590
880.712	0.0162302
880.790	0.0164144
880.868	0.0163812
880.946	0.0163241
881.024	0.0162883
881.102	0.0162968
881.181	0.0163759
881.259	0.0164804
881.337	0.0163846
881.415	0.0164546
881.493	0.0163419
881.571	0.0163691
881.649	0.0163256
881.727	0.0164178
881.806	0.0164912
881.884	0.0162958
881.962	0.0162581
882.040	0.0164030
882.118	0.0162538
882.196	0.0163564
882.274	0.0162743
882.352	0.0164508
882.431	0.0164799
882.509	0.0164360
882.587	0.0164381
882.665	0.0162505
882.743	0.0163817
882.821	0.0162757
882.899	0.0162514
882.977	0.0164420
883.056	0.0163982
883.134	0.0163315
883.212	0.0164030
883.290	0.0163585
883.368	0.0163702
883.446	0.0164920
883.524	0.0163765
883.602	0.0163448
883.681	0.0164183
883.759	0.0163514
883.837	0.0162840
883.915	0.0163972
883.993	0.0165881
884.071	0.0163901
884.149	0.0163006
884.227	0.0164535
884.306	0.0164439
884.384	0.0165208
884.462	0.0164282
884.540	0.0164758
884.618	0.0163449
884.696	0.0165407
884.774	0.0164375
884.852	0.0164522
884.931	0.0163787
885.009	0.0165075
885.087	0.0162602
885.165	0.0162354
885.243	0.0164958
885.321	0.0164187
885.399	0.0164267
885.477	0.0162967
885.556	0.0163853
885.634	0.0164594
885.712	0.0163621
885.790	0.0163953
885.868	0.0162180
885.946	0.0163362
886.024	0.0161838
886.102	0.0163293
886.181	0.0162862
886.259	0.0162904
886.337	0.0162907
886.415	0.0163789
886.493	0.0162991
886.571	0.0162951
886.649	0.0161254
886.727	0.0162585
886.806	0.0161814
886.884	0.0163344
886.962	0.0162428
887.040	0.0162414
887.118	0.0162208
887.196	0.0162938
887.274	0.0161434
887.352	0.0159810
887.431	0.0162167
887.509	0.0162044
887.587	0.0162444
887.665	0.0161279
887.743	0.0162141
887.821	0.0163432
887.899	0.0162360
887.977	0.0162389
888.056	0.0161429
888.134	0.0162642
888.212	0.0162364
888.290	0.0162508
888.368	0.0163595
888.446	0.0162512
888.524	0.0162895
888.602	0.0161051
888.681	0.0163662
888.759	0.0163137
888.837	0.0163173
888.915	0.0162530
888.993	0.0162164
889.071	0.0162595
889.149	0.0161732
889.227	0.0162312
889.306	0.0164212
889.384	0.0163647
889.462	0.0162219
889.540	0.0162495
889.618	0.0163726
889.696	0.0162389
889.774	0.0162749
889.852	0.0161990
889.931	0.0161418
890.009	0.0161885
890.087	0.0164343
890.165	0.0163089
890.243	0.0164165
890.321	0.0162197
890.399	0.0163477
890.477	0.0161044
890.556	0.0162805
890.634	0.0163788
890.712	0.0162596
890.790	0.0161758
890.868	0.0160892
890.946	0.0161944
891.024	0.0163482
891.102	0.0163096
891.181	0.0161174
891.259	0.0162214
891.337	0.0161611
891.415	0.0160486
891.493	0.0160850
891.571	0.0162256
891.649	0.0162695
891.727	0.0161802
891.806	0.0161585
891.884	0.0161997
891.962	0.0162279
892.040	0.0161424
892.118	0.0161034
892.196	0.0163514
892.274	0.0162511
892.352	0.0161796
892.431	0.0161182
892.509	0.0161987
892.587	0.0163362
892.665	0.0163251
892.743	0.0161025
892.821	0.0160983
892.899	0.0161536
892.977	0.0162408
893.056	0.0161759
893.134	0.0161206
893.212	0.0161583
893.290	0.0160654
893.368	0.0161835
893.446	0.0162465
893.524	0.0161549
893.602	0.0161857
893.681	0.0162631
893.759	0.0161012
893.837	0.0160184
893.915	0.0160384
893.993	0.0161241
894.071	0.0159634
894.149	0.0161118
894.227	0.0160249
894.306	0.0160261
894.384	0.0160312
894.462	0.0158978
894.540	0.0160160
894.618	0.0160151
894.696	0.0160893
894.774	0.0160477
894.852	0.0159480
894.931	0.0160652
895.009	0.0161994
895.087	0.0161640
895.165	0.0161263
895.243	0.0160587
895.321	0.0161399
895.399	0.0162595
895.477	0.0161930
895.556	0.0161894
895.634	0.0161514
895.712	0.0162468
895.790	0.0162069
895.868	0.0163694
895.946	0.0163272
896.024	0.0163255
896.102	0.0161924
896.181	0.0163251
896.259	0.0162673
896.337	0.0163272
896.415	0.0163914
896.493	0.0162645
896.571	0.0161597
896.649	0.0164014
896.727	0.0162294
896.806	0.0162721
896.884	0.0162115
896.962	0.0163491
897.040	0.0163271
897.118	0.0164257
897.196	0.0163200
897.274	0.0162783
897.352	0.0163310
897.431	0.0163184
897.509	0.0163138
897.587	0.0162968
897.665	0.0162949
897.743	0.0163980
897.821	0.0163487
897.899	0.0162976
897.977	0.0162791
898.056	0.0161936
898.134	0.0162030
898.212	0.0163457
898.290	0.0161327
898.368	0.0162608
898.446	0.0163515
898.524	0.0163188
898.602	0.0162653
898.681	0.0163365
898.759	0.0162733
898.837	0.0162273
898.915	0.0163262
898.993	0.0163389
899.071	0.0163013
899.149	0.0161610
899.227	0.0162842
899.306	0.0163342
899.384	0.0162598
899.462	0.0162644
899.540	0.0163641
899.618	0.0163341
899.696	0.0163202
899.774	0.0161900
899.852	0.0163044
899.931	0.0162847
900.009	0.0163255
900.087	0.0163770
900.165	0.0163683
900.243	0.0162009
900.321	0.0162265
900.399	0.0162405
900.477	0.0162897
900.556	0.0163371
900.634	0.0162940
900.712	0.0162520
900.790	0.0162837
900.868	0.0160801
900.946	0.0162080
901.024	0.0161604
901.102	0.0162778
901.181	0.0162434
901.259	0.0160509
901.337	0.0161838
901.415	0.0161014
901.493	0.0162055
901.571	0.0161622
901.649	0.0159938
901.727	0.0160941
901.806	0.0162164
901.884	0.0161536
901.962	0.0160623
902.040	0.0160239
902.118	0.0162046
902.196	0.0161758
902.274	0.0160893
902.352	0.0161691
902.431	0.0161598
902.509	0.0161609
902.587	0.0161107
902.665	0.0162596
902.743	0.0161726
902.821	0.0161121
902.899	0.0161813
902.977	0.0162124
903.056	0.0161112
903.134	0.0162897
903.212	0.0161487
903.290	0.0160668
903.368	0.0161982
903.446	0.0162126
903.524	0.0162324
903.602	0.0161358
903.681	0.0161039
903.759	0.0161986
903.837	0.0160987
903.915	0.0160945
903.993	0.0160602
904.071	0.0160783
904.149	0.0159984
904.227	0.0160411
904.306	0.0161078
904.384	0.0161346
904.462	0.0161224
904.540	0.0162294
904.618	0.0160146
904.696	0.0162252
904.774	0.0161811
904.852	0.0160703
904.931	0.0161621
905.009	0.0161260
905.087	0.0161696
905.165	0.0163243
905.243	0.0161554
905.321	0.0162499
905.399	0.0162053
905.477	0.0161932
905.556	0.0162578
905.634	0.0161560
905.712	0.0161146
905.790	0.0162844
905.868	0.0163038
905.946	0.0163107
906.024	0.0163311
906.102	0.0162582
906.181	0.0164070
906.259	0.0162583
906.337	0.0163905
906.415	0.0163873
906.493	0.0164297
906.571	0.0164312
906.649	0.0163022
906.727	0.0163948
906.806	0.0163953
906.884	0.0164587
906.962	0.0164426
907.040	0.0163644
907.118	0.0165207
907.196	0.0165390
907.274	0.0163150
907.352	0.0163636
907.431	0.0164638
907.509	0.0163936
907.587	0.0164126
907.665	0.0163191
907.743	0.0163519
907.821	0.0163308
907.899	0.0163232
907.977	0.0163235
908.056	0.0163580
908.134	0.0163273
908.212	0.0162088
908.290	0.0162797
908.368	0.0162142
908.446	0.0163166
908.524	0.0162545
908.602	0.0161609
908.681	0.0162006
908.759	0.0161344
908.837	0.0162227
908.915	0.0161456
908.993	0.0162445
909.071	0.0160846
909.149	0.0160819
909.227	0.0162677
909.306	0.0161732
909.384	0.0161853
909.462	0.0160165
909.540	0.0161761
909.618	0.0160391
909.696	0.0160672
909.774	0.0160772
909.852	0.0161961
909.931	0.0160857
910.009	0.0161773
910.087	0.0161284
910.165	0.0161396
910.243	0.0161063
910.321	0.0160406
910.399	0.0161279
910.477	0.0161885
910.556	0.0163233
910.634	0.0162630
910.712	0.0162651
910.790	0.0161406
910.868	0.0163175
910.946	0.0162175
911.024	0.0163096
911.102	0.0163715
911.181	0.0164460
911.259	0.0162720
911.337	0.0162378
911.415	0.0163479
911.493	0.0162569
911.571	0.0163786
911.649	0.0164360
911.727	0.0162991
911.806	0.0163740
911.884	0.0164572
911.962	0.0163097
912.040	0.0163863
912.118	0.0160796
912.196	0.0163467
912.274	0.0163396
912.352	0.0162577
912.431	0.0162410
912.509	0.0161973
912.587	0.0162560
912.665	0.0160902
912.743	0.0162113
912.821	0.0162277
912.899	0.0161868
912.977	0.0161180
913.056	0.0162704
913.134	0.0162331
913.212	0.0161395
913.290	0.0161031
913.368	0.0161400
913.446	0.0161557
913.524	0.0161114
913.602	0.0161979
913.681	0.0160895
913.759	0.0161672
913.837	0.0161558
913.915	0.0161773
913.993	0.0161962
914.071	0.0164095
914.149	0.0160998
914.227	0.0161799
914.306	0.0162524
914.384	0.0162083
914.462	0.0162136
914.540	0.0161477
914.618	0.0162081
914.696	0.0161713
914.774	0.0161741
914.852	0.0162828
914.931	0.0163623
915.009	0.0162602
915.087	0.0162778
915.165	0.0163197
915.243	0.0162789
915.321	0.0163599
915.399	0.0162875
915.477	0.0162482
915.556	0.0164821
915.634	0.0163250
915.712	0.0163400
915.790	0.0163155
915.868	0.0165665
915.946	0.0164996
916.024	0.0163177
916.102	0.0165017
916.181	0.0164211
916.259	0.0163061
916.337	0.0163448
916.415	0.0164048
916.493	0.0163642
916.571	0.0163225
916.649	0.0164957
916.727	0.0163901
916.806	0.0163847
916.884	0.0162785
916.962	0.0163078
917.040	0.0163287
917.118	0.0162984
917.196	0.0162190
917.274	0.0162171
917.352	0.0163234
917.431	0.0162598
917.509	0.0161921
917.587	0.0161670
917.665	0.0161082
917.743	0.0161540
917.821	0.0162032
917.899	0.0160727
917.977	0.0160229
918.056	0.0160856
918.134	0.0161585
918.212	0.0160255
918.290	0.0160903
918.368	0.0160308
918.446	0.0160805
918.524	0.0160850
918.602	0.0159999
918.681	0.0161154
918.759	0.0161095
918.837	0.0162555
918.915	0.0160831
918.993	0.0160312
919.071	0.0161705
919.149	0.0162269
919.227	0.0160907
919.306	0.0161610
919.384	0.0163120
919.462	0.0163291
919.540	0.0161507
919.618	0.0161755
919.696	0.0162944
919.774	0.0162434
919.852	0.0162067
919.931	0.0163563
920.009	0.0162269
920.087	0.0162630
920.165	0.0163259
920.243	0.0163076
920.321	0.0162275
920.399	0.0162703
920.477	0.0163010
920.556	0.0162305
920.634	0.0163283
920.712	0.0163949
920.790	0.0162505
920.868	0.0162305
920.946	0.0163006
921.024	0.0162836
921.102	0.0162695
921.181	0.0162843
921.259	0.0164446
921.337	0.0162679
921.415	0.0162265
921.493	0.0162606
921.571	0.0162550
921.649	0.0162762
921.727	0.0162501
921.806	0.0163191
921.884	0.0163431
921.962	0.0162630
922.040	0.0161951
922.118	0.0161743
922.196	0.0162624
922.274	0.0163451
922.352	0.0162505
922.431	0.0162407
922.509	0.0161868
922.587	0.0162716
922.665	0.0161484
922.743	0.0162521
922.821	0.0162402
922.899	0.0162760
922.977	0.0160933
923.056	0.0161635
923.134	0.0163180
923.212	0.0161810
923.290	0.0162648
923.368	0.0162231
923.446	0.0162789
923.524	0.0161287
923.602	0.0162468
923.681	0.0160948
923.759	0.0162456
923.837	0.0162094
923.915	0.0162711
923.993	0.0163824
924.071	0.0161861
924.149	0.0162268
924.227	0.0162348
924.306	0.0162284
924.384	0.0162538
924.462	0.0162956
924.540	0.0162406
924.618	0.0163197
924.696	0.0163118
924.774	0.0161875
924.852	0.0163424
924.931	0.0163123
925.009	0.0162138
925.087	0.0163213
925.165	0.0163145
925.243	0.0163119
925.321	0.0164463
925.399	0.0163249
925.477	0.0163043
925.556	0.0163897
925.634	0.0164567
925.712	0.0165308
925.790	0.0163696
925.868	0.0164778
925.946	0.0165936
926.024	0.0164597
926.102	0.0164700
926.181	0.0164741
926.259	0.0163733
926.337	0.0164127
926.415	0.0164237
926.493	0.0163203
926.571	0.0165523
926.649	0.0165130
926.727	0.0165682
926.806	0.0164218
926.884	0.0162965
926.962	0.0163329
927.040	0.0163766
927.118	0.0164487
927.196	0.0164033
927.274	0.0164272
927.352	0.0165122
927.431	0.0165239
927.509	0.0165241
927.587	0.0164799
927.665	0.0163804
927.743	0.0163512
927.821	0.0165599
927.899	0.0163895
927.977	0.0163931
928.056	0.0164634
928.134	0.0163378
928.212	0.0163573
928.290	0.0164471
928.368	0.0164509
928.446	0.0163512
928.524	0.0164224
928.602	0.0163934
928.681	0.0163950
928.759	0.0164920
928.837	0.0164227
928.915	0.0164337
928.993	0.0164462
929.071	0.0165260
929.149	0.0165318
929.227	0.0163473
929.306	0.0164265
929.384	0.0164772
929.462	0.0164588
929.540	0.0163461
929.618	0.0163229
929.696	0.0164126
929.774	0.0164586
929.852	0.0164946
929.931	0.0164149
