05/19/2022	00:33:22	Ver.	4.1	UNKNOWN
Optical Delay	630.009178	Delta X		0.078125	Sweeps	1	Scan Rate	0/0
Coordinates	Axis 1	NaN	Axis 2	NaN	Axis 3	NaN	Axis 4	NaN	Axis 5	NaN	Axis 6	0.000000
TX Power	0.000000	RX Power	0.000000

630.009	0.0153406
630.087	0.0152715
630.165	0.0153020
630.244	0.0153534
630.322	0.0153767
630.400	0.0154587
630.478	0.0153071
630.556	0.0152946
630.634	0.0153908
630.712	0.0153693
630.790	0.0153550
630.869	0.0152377
630.947	0.0153671
631.025	0.0152814
631.103	0.0153635
631.181	0.0152994
631.259	0.0153268
631.337	0.0153890
631.415	0.0152792
631.494	0.0153133
631.572	0.0153851
631.650	0.0153746
631.728	0.0151871
631.806	0.0152591
631.884	0.0154587
631.962	0.0152842
632.040	0.0152759
632.119	0.0154675
632.197	0.0152711
632.275	0.0152509
632.353	0.0154006
632.431	0.0155225
632.509	0.0153652
632.587	0.0153304
632.665	0.0153296
632.744	0.0154193
632.822	0.0152671
632.900	0.0153317
632.978	0.0153629
633.056	0.0153472
633.134	0.0153963
633.212	0.0153271
633.290	0.0153880
633.369	0.0153083
633.447	0.0152637
633.525	0.0153618
633.603	0.0152864
633.681	0.0153038
633.759	0.0153978
633.837	0.0153680
633.915	0.0152846
633.994	0.0154747
634.072	0.0153075
634.150	0.0152837
634.228	0.0153355
634.306	0.0153528
634.384	0.0152827
634.462	0.0154034
634.540	0.0153679
634.619	0.0153065
634.697	0.0153465
634.775	0.0153769
634.853	0.0154518
634.931	0.0152788
635.009	0.0155186
635.087	0.0154998
635.165	0.0154330
635.244	0.0154358
635.322	0.0154278
635.400	0.0154729
635.478	0.0153463
635.556	0.0154913
635.634	0.0153789
635.712	0.0154171
635.790	0.0152695
635.869	0.0154649
635.947	0.0155267
636.025	0.0153391
636.103	0.0153404
636.181	0.0153721
636.259	0.0152589
636.337	0.0152462
636.415	0.0153838
636.494	0.0154055
636.572	0.0153790
636.650	0.0153192
636.728	0.0154379
636.806	0.0154156
636.884	0.0151938
636.962	0.0154164
637.040	0.0153577
637.119	0.0153661
637.197	0.0153296
637.275	0.0153048
637.353	0.0154947
637.431	0.0153977
637.509	0.0154469
637.587	0.0154132
637.665	0.0154184
637.744	0.0154839
637.822	0.0153367
637.900	0.0152664
637.978	0.0154148
638.056	0.0154120
638.134	0.0152071
638.212	0.0153937
638.290	0.0153453
638.369	0.0153313
638.447	0.0153528
638.525	0.0152427
638.603	0.0154447
638.681	0.0153975
638.759	0.0154209
638.837	0.0154452
638.915	0.0154028
638.994	0.0154099
639.072	0.0153363
639.150	0.0153872
639.228	0.0152924
639.306	0.0153317
639.384	0.0154282
639.462	0.0155000
639.540	0.0154066
639.619	0.0152660
639.697	0.0152776
639.775	0.0153909
639.853	0.0152809
639.931	0.0153477
640.009	0.0153427
640.087	0.0152644
640.165	0.0151285
640.244	0.0152579
640.322	0.0153069
640.400	0.0153477
640.478	0.0152897
640.556	0.0153574
640.634	0.0154141
640.712	0.0154322
640.790	0.0152209
640.869	0.0153438
640.947	0.0152071
641.025	0.0154079
641.103	0.0153252
641.181	0.0153010
641.259	0.0152832
641.337	0.0153896
641.415	0.0153619
641.494	0.0154263
641.572	0.0153146
641.650	0.0152396
641.728	0.0153528
641.806	0.0154047
641.884	0.0153233
641.962	0.0152396
642.040	0.0153565
642.119	0.0154423
642.197	0.0154118
642.275	0.0152788
642.353	0.0153864
642.431	0.0151908
642.509	0.0154443
642.587	0.0153860
642.665	0.0153858
642.744	0.0152814
642.822	0.0153882
642.900	0.0153175
642.978	0.0153374
643.056	0.0155477
643.134	0.0155279
643.212	0.0153017
643.290	0.0152695
643.369	0.0151995
643.447	0.0152291
643.525	0.0153000
643.603	0.0153803
643.681	0.0153243
643.759	0.0153284
643.837	0.0152615
643.915	0.0154024
643.994	0.0153944
644.072	0.0152927
644.150	0.0153281
644.228	0.0153774
644.306	0.0154393
644.384	0.0154536
644.462	0.0153019
644.540	0.0153547
644.619	0.0153638
644.697	0.0154543
644.775	0.0153961
644.853	0.0152653
644.931	0.0153600
645.009	0.0153868
645.087	0.0153313
645.165	0.0154589
645.244	0.0154777
645.322	0.0152944
645.400	0.0153766
645.478	0.0153881
645.556	0.0153262
645.634	0.0154749
645.712	0.0151936
645.790	0.0154396
645.869	0.0153177
645.947	0.0154536
646.025	0.0154450
646.103	0.0154287
646.181	0.0153032
646.259	0.0154053
646.337	0.0152990
646.415	0.0153886
646.494	0.0153276
646.572	0.0152873
646.650	0.0153641
646.728	0.0152763
646.806	0.0153783
646.884	0.0152422
646.962	0.0152775
647.040	0.0153613
647.119	0.0152583
647.197	0.0152586
647.275	0.0154473
647.353	0.0153955
647.431	0.0153191
647.509	0.0152775
647.587	0.0152101
647.665	0.0152640
647.744	0.0151873
647.822	0.0153058
647.900	0.0153315
647.978	0.0153291
648.056	0.0154466
648.134	0.0153802
648.212	0.0152657
648.290	0.0153697
648.369	0.0152804
648.447	0.0153793
648.525	0.0154120
648.603	0.0153111
648.681	0.0154258
648.759	0.0153884
648.837	0.0153265
648.915	0.0151466
648.994	0.0152950
649.072	0.0153912
649.150	0.0152484
649.228	0.0153915
649.306	0.0154172
649.384	0.0154159
649.462	0.0155064
649.540	0.0153548
649.619	0.0152911
649.697	0.0153954
649.775	0.0154807
649.853	0.0152930
649.931	0.0153397
650.009	0.0153732
650.087	0.0152720
650.165	0.0154253
650.244	0.0153588
650.322	0.0154005
650.400	0.0152936
650.478	0.0153724
650.556	0.0153397
650.634	0.0153238
650.712	0.0154073
650.790	0.0153379
650.869	0.0152348
650.947	0.0154710
651.025	0.0153491
651.103	0.0152993
651.181	0.0153280
651.259	0.0152549
651.337	0.0153326
651.415	0.0153611
651.494	0.0153981
651.572	0.0154460
651.650	0.0154115
651.728	0.0153900
651.806	0.0152853
651.884	0.0152074
651.962	0.0153813
652.040	0.0155038
652.119	0.0152546
652.197	0.0152673
652.275	0.0152828
652.353	0.0154519
652.431	0.0154000
652.509	0.0152744
652.587	0.0152661
652.665	0.0152476
652.744	0.0152756
652.822	0.0152139
652.900	0.0152795
652.978	0.0154250
653.056	0.0153351
653.134	0.0153355
653.212	0.0152085
653.290	0.0152683
653.369	0.0152728
653.447	0.0153230
653.525	0.0153902
653.603	0.0152441
653.681	0.0153655
653.759	0.0153139
653.837	0.0153727
653.915	0.0151949
653.994	0.0153951
654.072	0.0154417
654.150	0.0153209
654.228	0.0152422
654.306	0.0153551
654.384	0.0153963
654.462	0.0153953
654.540	0.0152982
654.619	0.0152990
654.697	0.0154050
654.775	0.0153381
654.853	0.0154256
654.931	0.0152764
655.009	0.0153495
655.087	0.0153165
655.165	0.0153892
655.244	0.0153998
655.322	0.0153136
655.400	0.0153920
655.478	0.0153637
655.556	0.0153440
655.634	0.0153732
655.712	0.0153019
655.790	0.0151827
655.869	0.0152854
655.947	0.0154137
656.025	0.0153640
656.103	0.0153380
656.181	0.0153622
656.259	0.0153850
656.337	0.0152276
656.415	0.0153150
656.494	0.0153410
656.572	0.0152758
656.650	0.0152406
656.728	0.0153661
656.806	0.0153232
656.884	0.0153592
656.962	0.0152726
657.040	0.0152477
657.119	0.0154809
657.197	0.0153606
657.275	0.0153028
657.353	0.0153706
657.431	0.0154430
657.509	0.0153214
657.587	0.0153482
657.665	0.0152879
657.744	0.0153915
657.822	0.0153561
657.900	0.0154846
657.978	0.0153150
658.056	0.0153683
658.134	0.0153574
658.212	0.0154541
658.290	0.0153708
658.369	0.0153554
658.447	0.0153727
658.525	0.0153079
658.603	0.0153519
658.681	0.0152262
658.759	0.0153773
658.837	0.0153027
658.915	0.0152612
658.994	0.0154771
659.072	0.0152911
659.150	0.0153889
659.228	0.0153270
659.306	0.0153810
659.384	0.0154440
659.462	0.0155229
659.540	0.0153558
659.619	0.0152093
659.697	0.0153790
659.775	0.0155023
659.853	0.0153311
659.931	0.0153468
660.009	0.0154114
660.087	0.0153349
660.165	0.0153580
660.244	0.0153636
660.322	0.0153461
660.400	0.0153137
660.478	0.0154609
660.556	0.0153145
660.634	0.0154023
660.712	0.0153561
660.790	0.0153548
660.869	0.0153130
660.947	0.0152946
661.025	0.0154654
661.103	0.0154392
661.181	0.0154379
661.259	0.0154680
661.337	0.0152790
661.415	0.0154304
661.494	0.0155627
661.572	0.0153759
661.650	0.0153126
661.728	0.0154153
661.806	0.0154388
661.884	0.0153553
661.962	0.0153226
662.040	0.0153719
662.119	0.0153732
662.197	0.0153023
662.275	0.0152389
662.353	0.0154293
662.431	0.0154838
662.509	0.0154549
662.587	0.0153830
662.665	0.0152543
662.744	0.0153431
662.822	0.0153981
662.900	0.0153994
662.978	0.0153956
663.056	0.0154094
663.134	0.0154506
663.212	0.0153989
663.290	0.0154761
663.369	0.0154836
663.447	0.0151902
663.525	0.0153268
663.603	0.0154307
663.681	0.0154726
663.759	0.0153461
663.837	0.0153788
663.915	0.0153533
663.994	0.0153864
664.072	0.0153574
664.150	0.0154355
664.228	0.0153445
664.306	0.0155058
664.384	0.0152674
664.462	0.0153921
664.540	0.0153539
664.619	0.0153175
664.697	0.0154499
664.775	0.0153581
664.853	0.0152887
664.931	0.0153506
665.009	0.0153627
665.087	0.0153932
665.165	0.0153183
665.244	0.0153980
665.322	0.0153253
665.400	0.0153250
665.478	0.0153188
665.556	0.0153552
665.634	0.0154985
665.712	0.0153458
665.790	0.0152747
665.869	0.0154259
665.947	0.0153519
666.025	0.0153674
666.103	0.0153542
666.181	0.0154161
666.259	0.0154912
666.337	0.0153283
666.415	0.0154159
666.494	0.0153090
666.572	0.0153155
666.650	0.0154701
666.728	0.0155159
666.806	0.0152930
666.884	0.0152589
666.962	0.0153415
667.040	0.0153410
667.119	0.0155375
667.197	0.0153947
667.275	0.0154396
667.353	0.0152431
667.431	0.0154212
667.509	0.0154461
667.587	0.0153792
667.665	0.0154024
667.744	0.0153067
667.822	0.0154171
667.900	0.0153265
667.978	0.0153906
668.056	0.0153704
668.134	0.0155258
668.212	0.0153691
668.290	0.0153275
668.369	0.0153207
668.447	0.0152626
668.525	0.0154466
668.603	0.0154069
668.681	0.0153184
668.759	0.0154395
668.837	0.0154396
668.915	0.0153053
668.994	0.0153699
669.072	0.0152418
669.150	0.0155095
669.228	0.0154436
669.306	0.0153499
669.384	0.0153452
669.462	0.0152320
669.540	0.0152406
669.619	0.0153324
669.697	0.0152630
669.775	0.0153079
669.853	0.0153493
669.931	0.0152298
670.009	0.0152737
670.087	0.0154160
670.165	0.0153162
670.244	0.0152557
670.322	0.0152683
670.400	0.0153086
670.478	0.0153003
670.556	0.0151926
670.634	0.0153851
670.712	0.0152779
670.790	0.0152384
670.869	0.0153431
670.947	0.0151516
671.025	0.0152482
671.103	0.0152874
671.181	0.0154017
671.259	0.0153104
671.337	0.0153155
671.415	0.0154182
671.494	0.0153348
671.572	0.0154002
671.650	0.0152993
671.728	0.0153396
671.806	0.0154358
671.884	0.0152148
671.962	0.0153172
672.040	0.0153331
672.119	0.0153153
672.197	0.0152859
672.275	0.0153670
672.353	0.0152388
672.431	0.0153191
672.509	0.0153229
672.587	0.0151104
672.665	0.0152271
672.744	0.0152502
672.822	0.0153877
672.900	0.0153394
672.978	0.0152792
673.056	0.0151743
673.134	0.0153704
673.212	0.0153115
673.290	0.0152305
673.369	0.0152827
673.447	0.0153526
673.525	0.0152986
673.603	0.0151809
673.681	0.0152856
673.759	0.0153239
673.837	0.0152281
673.915	0.0153419
673.994	0.0152314
674.072	0.0153607
674.150	0.0153284
674.228	0.0151994
674.306	0.0153709
674.384	0.0154958
674.462	0.0154030
674.540	0.0152925
674.619	0.0152738
674.697	0.0152950
674.775	0.0153455
674.853	0.0153033
674.931	0.0153838
675.009	0.0153902
675.087	0.0153841
675.165	0.0153969
675.244	0.0153461
675.322	0.0153438
675.400	0.0153865
675.478	0.0153856
675.556	0.0152962
675.634	0.0154279
675.712	0.0154362
675.790	0.0154353
675.869	0.0154519
675.947	0.0154258
676.025	0.0151719
676.103	0.0153080
676.181	0.0154453
676.259	0.0154197
676.337	0.0154395
676.415	0.0154986
676.494	0.0155389
676.572	0.0154468
676.650	0.0154121
676.728	0.0153965
676.806	0.0154479
676.884	0.0153876
676.962	0.0153969
677.040	0.0153761
677.119	0.0155059
677.197	0.0153889
677.275	0.0152954
677.353	0.0154056
677.431	0.0154007
677.509	0.0153634
677.587	0.0155148
677.665	0.0153822
677.744	0.0154606
677.822	0.0153474
677.900	0.0153867
677.978	0.0154865
678.056	0.0153016
678.134	0.0153976
678.212	0.0152175
678.290	0.0154561
678.369	0.0154536
678.447	0.0154167
678.525	0.0153934
678.603	0.0154311
678.681	0.0153233
678.759	0.0153943
678.837	0.0154584
678.915	0.0153181
678.994	0.0152984
679.072	0.0153808
679.150	0.0153687
679.228	0.0154646
679.306	0.0153339
679.384	0.0154084
679.462	0.0154415
679.540	0.0153975
679.619	0.0154001
679.697	0.0154442
679.775	0.0154217
679.853	0.0153587
679.931	0.0154185
680.009	0.0154400
680.087	0.0153663
680.165	0.0153823
680.244	0.0152755
680.322	0.0152573
680.400	0.0153423
680.478	0.0154500
680.556	0.0154445
680.634	0.0154653
680.712	0.0152914
680.790	0.0154980
680.869	0.0152828
680.947	0.0154308
681.025	0.0153413
681.103	0.0153186
681.181	0.0153593
681.259	0.0153612
681.337	0.0153137
681.415	0.0154073
681.494	0.0152897
681.572	0.0153253
681.650	0.0153130
681.728	0.0152602
681.806	0.0152012
681.884	0.0153241
681.962	0.0153113
682.040	0.0154426
682.119	0.0154008
682.197	0.0153085
682.275	0.0152576
682.353	0.0153599
682.431	0.0154774
682.509	0.0153545
682.587	0.0153348
682.665	0.0153166
682.744	0.0153451
682.822	0.0154445
682.900	0.0154029
682.978	0.0152180
683.056	0.0152340
683.134	0.0152494
683.212	0.0151012
683.290	0.0153733
683.369	0.0153506
683.447	0.0152383
683.525	0.0152670
683.603	0.0152887
683.681	0.0153159
683.759	0.0153454
683.837	0.0152795
683.915	0.0153757
683.994	0.0154969
684.072	0.0153261
684.150	0.0153059
684.228	0.0153424
684.306	0.0151572
684.384	0.0152426
684.462	0.0154164
684.540	0.0154420
684.619	0.0153865
684.697	0.0153360
684.775	0.0153881
684.853	0.0153271
684.931	0.0153300
685.009	0.0151369
685.087	0.0152094
685.165	0.0153990
685.244	0.0152634
685.322	0.0153480
685.400	0.0152541
685.478	0.0152817
685.556	0.0153228
685.634	0.0153086
685.712	0.0153920
685.790	0.0153492
685.869	0.0154061
685.947	0.0154115
686.025	0.0152875
686.103	0.0152703
686.181	0.0152940
686.259	0.0154095
686.337	0.0153120
686.415	0.0153074
686.494	0.0153902
686.572	0.0153198
686.650	0.0151964
686.728	0.0152985
686.806	0.0152179
686.884	0.0154037
686.962	0.0153851
687.040	0.0151842
687.119	0.0151471
687.197	0.0153058
687.275	0.0152512
687.353	0.0152588
687.431	0.0153664
687.509	0.0154037
687.587	0.0153159
687.665	0.0153094
687.744	0.0152576
687.822	0.0154044
687.900	0.0154388
687.978	0.0152729
688.056	0.0154242
688.134	0.0156386
688.212	0.0155129
688.290	0.0153535
688.369	0.0154398
688.447	0.0153413
688.525	0.0154120
688.603	0.0155188
688.681	0.0155511
688.759	0.0154339
688.837	0.0154047
688.915	0.0154195
688.994	0.0153973
689.072	0.0153794
689.150	0.0154003
689.228	0.0154331
689.306	0.0154160
689.384	0.0153784
689.462	0.0153760
689.540	0.0155448
689.619	0.0154711
689.697	0.0154638
689.775	0.0154765
689.853	0.0154269
689.931	0.0153390
690.009	0.0153454
690.087	0.0154566
690.165	0.0153648
690.244	0.0153523
690.322	0.0154903
690.400	0.0153320
690.478	0.0153234
690.556	0.0154604
690.634	0.0154451
690.712	0.0153307
690.790	0.0153080
690.869	0.0154007
690.947	0.0152031
691.025	0.0154022
691.103	0.0153261
691.181	0.0152312
691.259	0.0153672
691.337	0.0152938
691.415	0.0153155
691.494	0.0154694
691.572	0.0153360
691.650	0.0152307
691.728	0.0153153
691.806	0.0154619
691.884	0.0153368
691.962	0.0152074
692.040	0.0151936
692.119	0.0151991
692.197	0.0151836
692.275	0.0152759
692.353	0.0152326
692.431	0.0151841
692.509	0.0153220
692.587	0.0153020
692.665	0.0152998
692.744	0.0152037
692.822	0.0151621
692.900	0.0151714
692.978	0.0152093
693.056	0.0152042
693.134	0.0152170
693.212	0.0152104
693.290	0.0152606
693.369	0.0152399
693.447	0.0151709
693.525	0.0152021
693.603	0.0151649
693.681	0.0152017
693.759	0.0150885
693.837	0.0152316
693.915	0.0153087
693.994	0.0152295
694.072	0.0152669
694.150	0.0153661
694.228	0.0152190
694.306	0.0152536
694.384	0.0154585
694.462	0.0153972
694.540	0.0152554
694.619	0.0153503
694.697	0.0154829
694.775	0.0155325
694.853	0.0154439
694.931	0.0152866
695.009	0.0153558
695.087	0.0153777
695.165	0.0154421
695.244	0.0153774
695.322	0.0153343
695.400	0.0153881
695.478	0.0153667
695.556	0.0153019
695.634	0.0153699
695.712	0.0152289
695.790	0.0152092
695.869	0.0154446
695.947	0.0154276
696.025	0.0153834
696.103	0.0152308
696.181	0.0152776
696.259	0.0153350
696.337	0.0154333
696.415	0.0153425
696.494	0.0154066
696.572	0.0154191
696.650	0.0154317
696.728	0.0153922
696.806	0.0154439
696.884	0.0155594
696.962	0.0154208
697.040	0.0153599
697.119	0.0154401
697.197	0.0154422
697.275	0.0153274
697.353	0.0152480
697.431	0.0153545
697.509	0.0154835
697.587	0.0153340
697.665	0.0153195
697.744	0.0154122
697.822	0.0154223
697.900	0.0153362
697.978	0.0152458
698.056	0.0152122
698.134	0.0152036
698.212	0.0151939
698.290	0.0153112
698.369	0.0152631
698.447	0.0153911
698.525	0.0153333
698.603	0.0152560
698.681	0.0151254
698.759	0.0153745
698.837	0.0153777
698.915	0.0153930
698.994	0.0154118
699.072	0.0153492
699.150	0.0154230
699.228	0.0153437
699.306	0.0153082
699.384	0.0153910
699.462	0.0154713
699.540	0.0153783
699.619	0.0152832
699.697	0.0156438
699.775	0.0155022
699.853	0.0154422
699.931	0.0154775
700.009	0.0153973
700.087	0.0155779
700.165	0.0155141
700.244	0.0155711
700.322	0.0154691
700.400	0.0154833
700.478	0.0154533
700.556	0.0155187
700.634	0.0154264
700.712	0.0153933
700.790	0.0154620
700.869	0.0154926
700.947	0.0154406
701.025	0.0154845
701.103	0.0154560
701.181	0.0154530
701.259	0.0154211
701.337	0.0153740
701.415	0.0153660
701.494	0.0153529
701.572	0.0153751
701.650	0.0153333
701.728	0.0154232
701.806	0.0152880
701.884	0.0152264
701.962	0.0153064
702.040	0.0152847
702.119	0.0153226
702.197	0.0152815
702.275	0.0152205
702.353	0.0152623
702.431	0.0154579
702.509	0.0153299
702.587	0.0153161
702.665	0.0153069
702.744	0.0153203
702.822	0.0154045
702.900	0.0151840
702.978	0.0154479
703.056	0.0154334
703.134	0.0152489
703.212	0.0153944
703.290	0.0154507
703.369	0.0154526
703.447	0.0153483
703.525	0.0153511
703.603	0.0154266
703.681	0.0153178
703.759	0.0153360
703.837	0.0153588
703.915	0.0153193
703.994	0.0152492
704.072	0.0153899
704.150	0.0154023
704.228	0.0152812
704.306	0.0152660
704.384	0.0152444
704.462	0.0153792
704.540	0.0153143
704.619	0.0153026
704.697	0.0152322
704.775	0.0153980
704.853	0.0153213
704.931	0.0152889
705.009	0.0153743
705.087	0.0153982
705.165	0.0153706
705.244	0.0153157
705.322	0.0152946
705.400	0.0153390
705.478	0.0154763
705.556	0.0153551
705.634	0.0153033
705.712	0.0153584
705.790	0.0153416
705.869	0.0153500
705.947	0.0154091
706.025	0.0152615
706.103	0.0154128
706.181	0.0151851
706.259	0.0152340
706.337	0.0153645
706.415	0.0152199
706.494	0.0152430
706.572	0.0153307
706.650	0.0153484
706.728	0.0153796
706.806	0.0152844
706.884	0.0155274
706.962	0.0154017
707.040	0.0154214
707.119	0.0154556
707.197	0.0154333
707.275	0.0153507
707.353	0.0153880
707.431	0.0155808
707.509	0.0155472
707.587	0.0154547
707.665	0.0154294
707.744	0.0155515
707.822	0.0154566
707.900	0.0154762
707.978	0.0154760
708.056	0.0153890
708.134	0.0154674
708.212	0.0152543
708.290	0.0153458
708.369	0.0153084
708.447	0.0153331
708.525	0.0152659
708.603	0.0152913
708.681	0.0151773
708.759	0.0151338
708.837	0.0152756
708.915	0.0152692
708.994	0.0153853
709.072	0.0152072
709.150	0.0153147
709.228	0.0153527
709.306	0.0152836
709.384	0.0153364
709.462	0.0153731
709.540	0.0152170
709.619	0.0155556
709.697	0.0155407
709.775	0.0153784
709.853	0.0154608
709.931	0.0153731
710.009	0.0154549
710.087	0.0154237
710.165	0.0154326
710.244	0.0154599
710.322	0.0153413
710.400	0.0153341
710.478	0.0154179
710.556	0.0152404
710.634	0.0153632
710.712	0.0153966
710.790	0.0151800
710.869	0.0152136
710.947	0.0153544
711.025	0.0152489
711.103	0.0151479
711.181	0.0153075
711.259	0.0153207
711.337	0.0152853
711.415	0.0152322
711.494	0.0152791
711.572	0.0152851
711.650	0.0152550
711.728	0.0154924
711.806	0.0155788
711.884	0.0153986
711.962	0.0153096
712.040	0.0154314
712.119	0.0154509
712.197	0.0153623
712.275	0.0153203
712.353	0.0153091
712.431	0.0154392
712.509	0.0153373
712.587	0.0153286
712.665	0.0153263
712.744	0.0152548
712.822	0.0153313
712.900	0.0152231
712.978	0.0151341
713.056	0.0152678
713.134	0.0154803
713.212	0.0154191
713.290	0.0152630
713.369	0.0152679
713.447	0.0152666
713.525	0.0152362
713.603	0.0153954
713.681	0.0154025
713.759	0.0152831
713.837	0.0152660
713.915	0.0152357
713.994	0.0155636
714.072	0.0153645
714.150	0.0152374
714.228	0.0153749
714.306	0.0154911
714.384	0.0153377
714.462	0.0155218
714.540	0.0153442
714.619	0.0154091
714.697	0.0155063
714.775	0.0154739
714.853	0.0154159
714.931	0.0152682
715.009	0.0152953
715.087	0.0151978
715.165	0.0151824
715.244	0.0151427
715.322	0.0151969
715.400	0.0151408
715.478	0.0152250
715.556	0.0151466
715.634	0.0152099
715.712	0.0152757
715.790	0.0152208
715.869	0.0153664
715.947	0.0153248
716.025	0.0152892
716.103	0.0152972
716.181	0.0153946
716.259	0.0154288
716.337	0.0152818
716.415	0.0152804
716.494	0.0152910
716.572	0.0152945
716.650	0.0153667
716.728	0.0153271
716.806	0.0151899
716.884	0.0151926
716.962	0.0153579
717.040	0.0152976
717.119	0.0154557
717.197	0.0153397
717.275	0.0153056
717.353	0.0152718
717.431	0.0152785
717.509	0.0153234
717.587	0.0153235
717.665	0.0152622
717.744	0.0153545
717.822	0.0154325
717.900	0.0154160
717.978	0.0154640
718.056	0.0153409
718.134	0.0154484
718.212	0.0155603
718.290	0.0154068
718.369	0.0154812
718.447	0.0153622
718.525	0.0154604
718.603	0.0154560
718.681	0.0154728
718.759	0.0154687
718.837	0.0155167
718.915	0.0154167
718.994	0.0155396
719.072	0.0154041
719.150	0.0152618
719.228	0.0154470
719.306	0.0156129
719.384	0.0154919
719.462	0.0154919
719.540	0.0154436
719.619	0.0154178
719.697	0.0154246
719.775	0.0153328
719.853	0.0154027
719.931	0.0154871
720.009	0.0153493
720.087	0.0153133
720.165	0.0152540
720.244	0.0152513
720.322	0.0152294
720.400	0.0153149
720.478	0.0152142
720.556	0.0152837
720.634	0.0152731
720.712	0.0153096
720.790	0.0153878
720.869	0.0152898
720.947	0.0153198
721.025	0.0153200
721.103	0.0153599
721.181	0.0154269
721.259	0.0153815
721.337	0.0153516
721.415	0.0153040
721.494	0.0152273
721.572	0.0154099
721.650	0.0153549
721.728	0.0153385
721.806	0.0153605
721.884	0.0151997
721.962	0.0151222
722.040	0.0152781
722.119	0.0152021
722.197	0.0153771
722.275	0.0152468
722.353	0.0152194
722.431	0.0152124
722.509	0.0153131
722.587	0.0153696
722.665	0.0153709
722.744	0.0152916
722.822	0.0151981
722.900	0.0152579
722.978	0.0152382
723.056	0.0151208
723.134	0.0152460
723.212	0.0151784
723.290	0.0150715
723.369	0.0151866
723.447	0.0150879
723.525	0.0152040
723.603	0.0153515
723.681	0.0152209
723.759	0.0152895
723.837	0.0152736
723.915	0.0153347
723.994	0.0154294
724.072	0.0154507
724.150	0.0155222
724.228	0.0154890
724.306	0.0153841
724.384	0.0154171
724.462	0.0152769
724.540	0.0154305
724.619	0.0153194
724.697	0.0153189
724.775	0.0153053
724.853	0.0152369
724.931	0.0151169
725.009	0.0151561
725.087	0.0151705
725.165	0.0150748
725.244	0.0151830
725.322	0.0152679
725.400	0.0153392
725.478	0.0153371
725.556	0.0154427
725.634	0.0153825
725.712	0.0154671
725.790	0.0154241
725.869	0.0155132
725.947	0.0154618
726.025	0.0154697
726.103	0.0155804
726.181	0.0154877
726.259	0.0154478
726.337	0.0154684
726.415	0.0153712
726.494	0.0153712
726.572	0.0153098
726.650	0.0153611
726.728	0.0152412
726.806	0.0154222
726.884	0.0153291
726.962	0.0152738
727.040	0.0152965
727.119	0.0153830
727.197	0.0153683
727.275	0.0153638
727.353	0.0153178
727.431	0.0153117
727.509	0.0155033
727.587	0.0153085
727.665	0.0154029
727.744	0.0154537
727.822	0.0152399
727.900	0.0152708
727.978	0.0153620
728.056	0.0153976
728.134	0.0152924
728.212	0.0154272
728.290	0.0153902
728.369	0.0153067
728.447	0.0154760
728.525	0.0153101
728.603	0.0155284
728.681	0.0153873
728.759	0.0153565
728.837	0.0153397
728.915	0.0153607
728.994	0.0153856
729.072	0.0152637
729.150	0.0153893
729.228	0.0153588
729.306	0.0153526
729.384	0.0152538
729.462	0.0153345
729.540	0.0153056
729.619	0.0152664
729.697	0.0151693
729.775	0.0153168
729.853	0.0153938
729.931	0.0151871
730.009	0.0152484
730.087	0.0152643
730.165	0.0153482
730.244	0.0152531
730.322	0.0153162
730.400	0.0153195
730.478	0.0153866
730.556	0.0154139
730.634	0.0154940
730.712	0.0153940
730.790	0.0152658
730.869	0.0154596
730.947	0.0155615
731.025	0.0154089
731.103	0.0154083
731.181	0.0152526
731.259	0.0152114
731.337	0.0152283
731.415	0.0153089
731.494	0.0154403
731.572	0.0152808
731.650	0.0152663
731.728	0.0153070
731.806	0.0153084
731.884	0.0153141
731.962	0.0152857
732.040	0.0152332
732.119	0.0152794
732.197	0.0153304
732.275	0.0154473
732.353	0.0153752
732.431	0.0153253
732.509	0.0153709
732.587	0.0153637
732.665	0.0153562
732.744	0.0153989
732.822	0.0152463
732.900	0.0152856
732.978	0.0152775
733.056	0.0152800
733.134	0.0152133
733.212	0.0152705
733.290	0.0152885
733.369	0.0152628
733.447	0.0154087
733.525	0.0153410
733.603	0.0152866
733.681	0.0152876
733.759	0.0153790
733.837	0.0152596
733.915	0.0153367
733.994	0.0153089
734.072	0.0153137
734.150	0.0155292
734.228	0.0152879
734.306	0.0152367
734.384	0.0153601
734.462	0.0152360
734.540	0.0151941
734.619	0.0152804
734.697	0.0151909
734.775	0.0151995
734.853	0.0153237
734.931	0.0153611
735.009	0.0154106
735.087	0.0153054
735.165	0.0154955
735.244	0.0155072
735.322	0.0152827
735.400	0.0153706
735.478	0.0152518
735.556	0.0153743
735.634	0.0153447
735.712	0.0154766
735.790	0.0154012
735.869	0.0152937
735.947	0.0153340
736.025	0.0154527
736.103	0.0151751
736.181	0.0152515
736.259	0.0153463
736.337	0.0152798
736.415	0.0154395
736.494	0.0153931
736.572	0.0151993
736.650	0.0153070
736.728	0.0153695
736.806	0.0153465
736.884	0.0152095
736.962	0.0151752
737.040	0.0153945
737.119	0.0152885
737.197	0.0154244
737.275	0.0155258
737.353	0.0153828
737.431	0.0153593
737.509	0.0153845
737.587	0.0154655
737.665	0.0153277
737.744	0.0154081
737.822	0.0153266
737.900	0.0154346
737.978	0.0154165
738.056	0.0153961
738.134	0.0154720
738.212	0.0153392
738.290	0.0152849
738.369	0.0153940
738.447	0.0152257
738.525	0.0153453
738.603	0.0152882
738.681	0.0152790
738.759	0.0153098
738.837	0.0152581
738.915	0.0151099
738.994	0.0153346
739.072	0.0152761
739.150	0.0152613
739.228	0.0152607
739.306	0.0153446
739.384	0.0153074
739.462	0.0153322
739.540	0.0153993
739.619	0.0152917
739.697	0.0153647
739.775	0.0153776
739.853	0.0154800
739.931	0.0154350
740.009	0.0153784
740.087	0.0154256
740.165	0.0154230
740.244	0.0154288
740.322	0.0153422
740.400	0.0154548
740.478	0.0153230
740.556	0.0152993
740.634	0.0153896
740.712	0.0153964
740.790	0.0152905
740.869	0.0152589
740.947	0.0152141
741.025	0.0152758
741.103	0.0153967
741.181	0.0153416
741.259	0.0151765
741.337	0.0152763
741.415	0.0153629
741.494	0.0153429
741.572	0.0154687
741.650	0.0153830
741.728	0.0153616
741.806	0.0154552
741.884	0.0155016
741.962	0.0154291
742.040	0.0154980
742.119	0.0153078
742.197	0.0154289
742.275	0.0154046
742.353	0.0153361
742.431	0.0153720
742.509	0.0153551
742.587	0.0152205
742.665	0.0152341
742.744	0.0153839
742.822	0.0152834
742.900	0.0152345
742.978	0.0151188
743.056	0.0154665
743.134	0.0153197
743.212	0.0153394
743.290	0.0153557
743.369	0.0154087
743.447	0.0153401
743.525	0.0154242
743.603	0.0154044
743.681	0.0155228
743.759	0.0153942
743.837	0.0153307
743.915	0.0152786
743.994	0.0154200
744.072	0.0153534
744.150	0.0153812
744.228	0.0154113
744.306	0.0153889
744.384	0.0153411
744.462	0.0153853
744.540	0.0154586
744.619	0.0153296
744.697	0.0153383
744.775	0.0154118
744.853	0.0154286
744.931	0.0154141
745.009	0.0152574
745.087	0.0153876
745.165	0.0152223
745.244	0.0152589
745.322	0.0152799
745.400	0.0152895
745.478	0.0153543
745.556	0.0153316
745.634	0.0153568
745.712	0.0154182
745.790	0.0153255
745.869	0.0152920
745.947	0.0154680
746.025	0.0153002
746.103	0.0153497
746.181	0.0154038
746.259	0.0154597
746.337	0.0153917
746.415	0.0153480
746.494	0.0154922
746.572	0.0154200
746.650	0.0154413
746.728	0.0154292
746.806	0.0153940
746.884	0.0152489
746.962	0.0150554
747.040	0.0151897
747.119	0.0151104
747.197	0.0151646
747.275	0.0153069
747.353	0.0152975
747.431	0.0153279
747.509	0.0153528
747.587	0.0152839
747.665	0.0152689
747.744	0.0154361
747.822	0.0152363
747.900	0.0152964
747.978	0.0153685
748.056	0.0153547
748.134	0.0152084
748.212	0.0156127
748.290	0.0154713
748.369	0.0152840
748.447	0.0153914
748.525	0.0153509
748.603	0.0154498
748.681	0.0154597
748.759	0.0154321
748.837	0.0152949
748.915	0.0152139
748.994	0.0152921
749.072	0.0153574
749.150	0.0153757
749.228	0.0153464
749.306	0.0151808
749.384	0.0153548
749.462	0.0153474
749.540	0.0152222
749.619	0.0152573
749.697	0.0155449
749.775	0.0155289
749.853	0.0154638
749.931	0.0154283
750.009	0.0154602
750.087	0.0153435
750.165	0.0154000
750.244	0.0152770
750.322	0.0153162
750.400	0.0153166
750.478	0.0154438
750.556	0.0153706
750.634	0.0153492
750.712	0.0153403
750.790	0.0154441
750.869	0.0153807
750.947	0.0152937
751.025	0.0153681
751.103	0.0155765
751.181	0.0154053
751.259	0.0153653
751.337	0.0153612
751.415	0.0153611
751.494	0.0153629
751.572	0.0153541
751.650	0.0153865
751.728	0.0154017
751.806	0.0153098
751.884	0.0153792
751.962	0.0153249
752.040	0.0153730
752.119	0.0154996
752.197	0.0154055
752.275	0.0151913
752.353	0.0151378
752.431	0.0153271
752.509	0.0154311
752.587	0.0152982
752.665	0.0152567
752.744	0.0154304
752.822	0.0154494
752.900	0.0151511
752.978	0.0153910
753.056	0.0155067
753.134	0.0155103
753.212	0.0154530
753.290	0.0153625
753.369	0.0152973
753.447	0.0153696
753.525	0.0153683
753.603	0.0153426
753.681	0.0154734
753.759	0.0153961
753.837	0.0153590
753.915	0.0153526
753.994	0.0154320
754.072	0.0154406
754.150	0.0153632
754.228	0.0154411
754.306	0.0153886
754.384	0.0154052
754.462	0.0155344
754.540	0.0154721
754.619	0.0153624
754.697	0.0154794
754.775	0.0153990
754.853	0.0153447
754.931	0.0153254
755.009	0.0154285
755.087	0.0154208
755.165	0.0153471
755.244	0.0153860
755.322	0.0153463
755.400	0.0153281
755.478	0.0154857
755.556	0.0153895
755.634	0.0153223
755.712	0.0154439
755.790	0.0153928
755.869	0.0153790
755.947	0.0152848
756.025	0.0153456
756.103	0.0151550
756.181	0.0153368
756.259	0.0153139
756.337	0.0151901
756.415	0.0153876
756.494	0.0153772
756.572	0.0153394
756.650	0.0152397
756.728	0.0153676
756.806	0.0153270
756.884	0.0153948
756.962	0.0151427
757.040	0.0152978
757.119	0.0153814
757.197	0.0153165
757.275	0.0154038
757.353	0.0153413
757.431	0.0153126
757.509	0.0154134
757.587	0.0154288
757.665	0.0153411
757.744	0.0154071
757.822	0.0153774
757.900	0.0152944
757.978	0.0151803
758.056	0.0153939
758.134	0.0153115
758.212	0.0152962
758.290	0.0151920
758.369	0.0153855
758.447	0.0152912
758.525	0.0154741
758.603	0.0153621
758.681	0.0152498
758.759	0.0153263
758.837	0.0153213
758.915	0.0153506
758.994	0.0153187
759.072	0.0152683
759.150	0.0153163
759.228	0.0152036
759.306	0.0153080
759.384	0.0151424
759.462	0.0153649
759.540	0.0154091
759.619	0.0153104
759.697	0.0153197
759.775	0.0152933
759.853	0.0154909
759.931	0.0155049
760.009	0.0153886
760.087	0.0153159
760.165	0.0154286
760.244	0.0152879
760.322	0.0153651
760.400	0.0154871
760.478	0.0153347
760.556	0.0153697
760.634	0.0152463
760.712	0.0153535
760.790	0.0154694
760.869	0.0155064
760.947	0.0154460
761.025	0.0153660
761.103	0.0153053
761.181	0.0152763
761.259	0.0153727
761.337	0.0152441
761.415	0.0153151
761.494	0.0153714
761.572	0.0154317
761.650	0.0154186
761.728	0.0152668
761.806	0.0152898
761.884	0.0153489
761.962	0.0153580
762.040	0.0153077
762.119	0.0153419
762.197	0.0153960
762.275	0.0154804
762.353	0.0154106
762.431	0.0153406
762.509	0.0154095
762.587	0.0153584
762.665	0.0154798
762.744	0.0154264
762.822	0.0153821
762.900	0.0153356
762.978	0.0155000
763.056	0.0155052
763.134	0.0153299
763.212	0.0152763
763.290	0.0154396
763.369	0.0153323
763.447	0.0152239
763.525	0.0154390
763.603	0.0152761
763.681	0.0152513
763.759	0.0152824
763.837	0.0154807
763.915	0.0153213
763.994	0.0153807
764.072	0.0153385
764.150	0.0154144
764.228	0.0154591
764.306	0.0153778
764.384	0.0155085
764.462	0.0153262
764.540	0.0153878
764.619	0.0153280
764.697	0.0153413
764.775	0.0153065
764.853	0.0152967
764.931	0.0153700
765.009	0.0152546
765.087	0.0153736
765.165	0.0152500
765.244	0.0153944
765.322	0.0154453
765.400	0.0153861
765.478	0.0153180
765.556	0.0153448
765.634	0.0153204
765.712	0.0153966
765.790	0.0153739
765.869	0.0153534
765.947	0.0153895
766.025	0.0154008
766.103	0.0153684
766.181	0.0152762
766.259	0.0153593
766.337	0.0153612
766.415	0.0154169
766.494	0.0154970
766.572	0.0152892
766.650	0.0152924
766.728	0.0153777
766.806	0.0152091
766.884	0.0153414
766.962	0.0153700
767.040	0.0152888
767.119	0.0154689
767.197	0.0154631
767.275	0.0153983
767.353	0.0153588
767.431	0.0152835
767.509	0.0152810
767.587	0.0152706
767.665	0.0154086
767.744	0.0153204
767.822	0.0153588
767.900	0.0153976
767.978	0.0152908
768.056	0.0152383
768.134	0.0152550
768.212	0.0154331
768.290	0.0153248
768.369	0.0153053
768.447	0.0153448
768.525	0.0152605
768.603	0.0153011
768.681	0.0152883
768.759	0.0152979
768.837	0.0151935
768.915	0.0154757
768.994	0.0153809
769.072	0.0152847
769.150	0.0153450
769.228	0.0153082
769.306	0.0153834
769.384	0.0155013
769.462	0.0153797
769.540	0.0153586
769.619	0.0153199
769.697	0.0154337
769.775	0.0152750
769.853	0.0153425
769.931	0.0154169
770.009	0.0152882
770.087	0.0152831
770.165	0.0153594
770.244	0.0153528
770.322	0.0152736
770.400	0.0153484
770.478	0.0153627
770.556	0.0153772
770.634	0.0153777
770.712	0.0152189
770.790	0.0153358
770.869	0.0153111
770.947	0.0154433
771.025	0.0154152
771.103	0.0152921
771.181	0.0153022
771.259	0.0152860
771.337	0.0153060
771.415	0.0152895
771.494	0.0153007
771.572	0.0154814
771.650	0.0154271
771.728	0.0154046
771.806	0.0152893
771.884	0.0153423
771.962	0.0153344
772.040	0.0154426
772.119	0.0153819
772.197	0.0152157
772.275	0.0153850
772.353	0.0154065
772.431	0.0153043
772.509	0.0153664
772.587	0.0153477
772.665	0.0155500
772.744	0.0154404
772.822	0.0154257
772.900	0.0154153
772.978	0.0153783
773.056	0.0154619
773.134	0.0155559
773.212	0.0152854
773.290	0.0154845
773.369	0.0154079
773.447	0.0153717
773.525	0.0154958
773.603	0.0154172
773.681	0.0154155
773.759	0.0154484
773.837	0.0153275
773.915	0.0154127
773.994	0.0153412
774.072	0.0154379
774.150	0.0153753
774.228	0.0152425
774.306	0.0153530
774.384	0.0153722
774.462	0.0153134
774.540	0.0153531
774.619	0.0154017
774.697	0.0152841
774.775	0.0152608
774.853	0.0155171
774.931	0.0152557
775.009	0.0152528
775.087	0.0153983
775.165	0.0153805
775.244	0.0153802
775.322	0.0154913
775.400	0.0153830
775.478	0.0153794
775.556	0.0152752
775.634	0.0152315
775.712	0.0153807
775.790	0.0152380
775.869	0.0154292
775.947	0.0154053
776.025	0.0153746
776.103	0.0152426
776.181	0.0153142
776.259	0.0153741
776.337	0.0155127
776.415	0.0155259
776.494	0.0154182
776.572	0.0153667
776.650	0.0153920
776.728	0.0153960
776.806	0.0155442
776.884	0.0153973
776.962	0.0153975
777.040	0.0154957
777.119	0.0153859
777.197	0.0153020
777.275	0.0155008
777.353	0.0154186
777.431	0.0153271
777.509	0.0155053
777.587	0.0155090
777.665	0.0154288
777.744	0.0153148
777.822	0.0154375
777.900	0.0156380
777.978	0.0154704
778.056	0.0152766
778.134	0.0154312
778.212	0.0154733
778.290	0.0154740
778.369	0.0155006
778.447	0.0153493
778.525	0.0153761
778.603	0.0153429
778.681	0.0155567
778.759	0.0153689
778.837	0.0154230
778.915	0.0155313
778.994	0.0153179
779.072	0.0153631
779.150	0.0154024
779.228	0.0154897
779.306	0.0153720
779.384	0.0153031
779.462	0.0153633
779.540	0.0154702
779.619	0.0153817
779.697	0.0154534
779.775	0.0154660
779.853	0.0153820
779.931	0.0152998
780.009	0.0154532
780.087	0.0154293
780.165	0.0153622
780.244	0.0152953
780.322	0.0152953
780.400	0.0154796
780.478	0.0153993
780.556	0.0153705
780.634	0.0152658
780.712	0.0155315
780.790	0.0155067
780.869	0.0154411
780.947	0.0154024
781.025	0.0153436
781.103	0.0152605
781.181	0.0154768
781.259	0.0153903
781.337	0.0153333
781.415	0.0153655
781.494	0.0154186
781.572	0.0154684
781.650	0.0154032
781.728	0.0154372
781.806	0.0153666
781.884	0.0153907
781.962	0.0153848
782.040	0.0155823
782.119	0.0154316
782.197	0.0152685
782.275	0.0152882
782.353	0.0153528
782.431	0.0155293
782.509	0.0152758
782.587	0.0153009
782.665	0.0154577
782.744	0.0153493
782.822	0.0153340
782.900	0.0153466
782.978	0.0153775
783.056	0.0153078
783.134	0.0153936
783.212	0.0152901
783.290	0.0152177
783.369	0.0154986
783.447	0.0152898
783.525	0.0154327
783.603	0.0153809
783.681	0.0154456
783.759	0.0152413
783.837	0.0152859
783.915	0.0153657
783.994	0.0151499
784.072	0.0154130
784.150	0.0153452
784.228	0.0154261
784.306	0.0153813
784.384	0.0153706
784.462	0.0153239
784.540	0.0152705
784.619	0.0153642
784.697	0.0153337
784.775	0.0152805
784.853	0.0154939
784.931	0.0153557
785.009	0.0154465
785.087	0.0154254
785.165	0.0153852
785.244	0.0154705
785.322	0.0154363
785.400	0.0153883
785.478	0.0153911
785.556	0.0154577
785.634	0.0155080
785.712	0.0155010
785.790	0.0153704
785.869	0.0153962
785.947	0.0155052
786.025	0.0154881
786.103	0.0155563
786.181	0.0153949
786.259	0.0153039
786.337	0.0154620
786.415	0.0154296
786.494	0.0154006
786.572	0.0154736
786.650	0.0153353
786.728	0.0153703
786.806	0.0154745
786.884	0.0154871
786.962	0.0154465
787.040	0.0153673
787.119	0.0154185
787.197	0.0154586
787.275	0.0154790
787.353	0.0154010
787.431	0.0153788
787.509	0.0154754
787.587	0.0153904
787.665	0.0153688
787.744	0.0153431
787.822	0.0153603
787.900	0.0153091
787.978	0.0152692
788.056	0.0153619
788.134	0.0153056
788.212	0.0154112
788.290	0.0153321
788.369	0.0154579
788.447	0.0153396
788.525	0.0153580
788.603	0.0152855
788.681	0.0155122
788.759	0.0152562
788.837	0.0153210
788.915	0.0153441
788.994	0.0153871
789.072	0.0153874
789.150	0.0153606
789.228	0.0153581
789.306	0.0153342
789.384	0.0153702
789.462	0.0154168
789.540	0.0153465
789.619	0.0154147
789.697	0.0152055
789.775	0.0153688
789.853	0.0154107
789.931	0.0153101
790.009	0.0152385
790.087	0.0154343
790.165	0.0154777
790.244	0.0154974
790.322	0.0155858
790.400	0.0154910
790.478	0.0153838
790.556	0.0152840
790.634	0.0153342
790.712	0.0153817
790.790	0.0154567
790.869	0.0154105
790.947	0.0155113
791.025	0.0153942
791.103	0.0154524
791.181	0.0155300
791.259	0.0153439
791.337	0.0154607
791.415	0.0154597
791.494	0.0153203
791.572	0.0155917
791.650	0.0154064
791.728	0.0153139
791.806	0.0154548
791.884	0.0154069
791.962	0.0154211
792.040	0.0154183
792.119	0.0154302
792.197	0.0154218
792.275	0.0154897
792.353	0.0156075
792.431	0.0154156
792.509	0.0152692
792.587	0.0152169
792.665	0.0153758
792.744	0.0154573
792.822	0.0153611
792.900	0.0153722
792.978	0.0152491
793.056	0.0152911
793.134	0.0152322
793.212	0.0152903
793.290	0.0153249
793.369	0.0153458
793.447	0.0153030
793.525	0.0154209
793.603	0.0153244
793.681	0.0152621
793.759	0.0152907
793.837	0.0154262
793.915	0.0154403
793.994	0.0154284
794.072	0.0153159
794.150	0.0152236
794.228	0.0152841
794.306	0.0153861
794.384	0.0152691
794.462	0.0152990
794.540	0.0154503
794.619	0.0153786
794.697	0.0153725
794.775	0.0154412
794.853	0.0152618
794.931	0.0152820
795.009	0.0153526
795.087	0.0152453
795.165	0.0153793
795.244	0.0153281
795.322	0.0152760
795.400	0.0153637
795.478	0.0152988
795.556	0.0152792
795.634	0.0154031
795.712	0.0156313
795.790	0.0153522
795.869	0.0153423
795.947	0.0153465
796.025	0.0153085
796.103	0.0154742
796.181	0.0153203
796.259	0.0153028
796.337	0.0153242
796.415	0.0152991
796.494	0.0153005
796.572	0.0154727
796.650	0.0153477
796.728	0.0154417
796.806	0.0152562
796.884	0.0153236
796.962	0.0154595
797.040	0.0154572
797.119	0.0153716
797.197	0.0153762
797.275	0.0153777
797.353	0.0153822
797.431	0.0155019
797.509	0.0154023
797.587	0.0153137
797.665	0.0152622
797.744	0.0153735
797.822	0.0153347
797.900	0.0152834
797.978	0.0153606
798.056	0.0152873
798.134	0.0153422
798.212	0.0152851
798.290	0.0152947
798.369	0.0153864
798.447	0.0153703
798.525	0.0153106
798.603	0.0153603
798.681	0.0154613
798.759	0.0154639
798.837	0.0153972
798.915	0.0153622
798.994	0.0154203
799.072	0.0153682
799.150	0.0153540
799.228	0.0153619
799.306	0.0154382
799.384	0.0154021
799.462	0.0154585
799.540	0.0153799
799.619	0.0153375
799.697	0.0153773
799.775	0.0154189
799.853	0.0152297
799.931	0.0153662
800.009	0.0152827
800.087	0.0155373
800.165	0.0152992
800.244	0.0153181
800.322	0.0153929
800.400	0.0152333
800.478	0.0154576
800.556	0.0153530
800.634	0.0152850
800.712	0.0154082
800.790	0.0153903
800.869	0.0153520
800.947	0.0152998
801.025	0.0153362
801.103	0.0153328
801.181	0.0153413
801.259	0.0154594
801.337	0.0153874
801.415	0.0153949
801.494	0.0154086
801.572	0.0154157
801.650	0.0152946
801.728	0.0153538
801.806	0.0154050
801.884	0.0152938
801.962	0.0152664
802.040	0.0154639
802.119	0.0154618
802.197	0.0153773
802.275	0.0152097
802.353	0.0152596
802.431	0.0153940
802.509	0.0154350
802.587	0.0153815
802.665	0.0153127
802.744	0.0153648
802.822	0.0152809
802.900	0.0154739
802.978	0.0154673
803.056	0.0153671
803.134	0.0154333
803.212	0.0154099
803.290	0.0155618
803.369	0.0154956
803.447	0.0154081
803.525	0.0152307
803.603	0.0154564
803.681	0.0154134
803.759	0.0153970
803.837	0.0152755
803.915	0.0154067
803.994	0.0154553
804.072	0.0153368
804.150	0.0153422
804.228	0.0154047
804.306	0.0153587
804.384	0.0153130
804.462	0.0153221
804.540	0.0152975
804.619	0.0153700
804.697	0.0153436
804.775	0.0153491
804.853	0.0154180
804.931	0.0152513
805.009	0.0151824
805.087	0.0154159
805.165	0.0152972
805.244	0.0152960
805.322	0.0153876
805.400	0.0152645
805.478	0.0154150
805.556	0.0153347
805.634	0.0151977
805.712	0.0153194
805.790	0.0154120
805.869	0.0154382
805.947	0.0152808
806.025	0.0153529
806.103	0.0153464
806.181	0.0153432
806.259	0.0155022
806.337	0.0154229
806.415	0.0153846
806.494	0.0153459
806.572	0.0153381
806.650	0.0153619
806.728	0.0154021
806.806	0.0155053
806.884	0.0153477
806.962	0.0153657
807.040	0.0153860
807.119	0.0153143
807.197	0.0153799
807.275	0.0153605
807.353	0.0153181
807.431	0.0154302
807.509	0.0153246
807.587	0.0152994
807.665	0.0153324
807.744	0.0154416
807.822	0.0153101
807.900	0.0152902
807.978	0.0151840
808.056	0.0154222
808.134	0.0152956
808.212	0.0152758
808.290	0.0152966
808.369	0.0154078
808.447	0.0155148
808.525	0.0153548
808.603	0.0153403
808.681	0.0152873
808.759	0.0153967
808.837	0.0154365
808.915	0.0153425
808.994	0.0152885
809.072	0.0153239
809.150	0.0153544
809.228	0.0152475
809.306	0.0153616
809.384	0.0152477
809.462	0.0152293
809.540	0.0152834
809.619	0.0152386
809.697	0.0154076
809.775	0.0153422
809.853	0.0153340
809.931	0.0153631
810.009	0.0152275
810.087	0.0154013
810.165	0.0152094
810.244	0.0153666
810.322	0.0154188
810.400	0.0153142
810.478	0.0153474
810.556	0.0153649
810.634	0.0152555
810.712	0.0153419
810.790	0.0153580
810.869	0.0152963
810.947	0.0153275
811.025	0.0154815
811.103	0.0153812
811.181	0.0152715
811.259	0.0153123
811.337	0.0152605
811.415	0.0153718
811.494	0.0153706
811.572	0.0153596
811.650	0.0152943
811.728	0.0153191
811.806	0.0152777
811.884	0.0154058
811.962	0.0154439
812.040	0.0152990
812.119	0.0154133
812.197	0.0153609
812.275	0.0153098
812.353	0.0152933
812.431	0.0154095
812.509	0.0153891
812.587	0.0153268
812.665	0.0153114
812.744	0.0152728
812.822	0.0153388
812.900	0.0152798
812.978	0.0153555
813.056	0.0153999
813.134	0.0152505
813.212	0.0152531
813.290	0.0153170
813.369	0.0154060
813.447	0.0153753
813.525	0.0153362
813.603	0.0152232
813.681	0.0153587
813.759	0.0152747
813.837	0.0152680
813.915	0.0152527
813.994	0.0153288
814.072	0.0153137
814.150	0.0152972
814.228	0.0152834
814.306	0.0154276
814.384	0.0153648
814.462	0.0153487
814.540	0.0153102
814.619	0.0153980
814.697	0.0152744
814.775	0.0152068
814.853	0.0152937
814.931	0.0152630
815.009	0.0154641
815.087	0.0153202
815.165	0.0153159
815.244	0.0152887
815.322	0.0153078
815.400	0.0152231
815.478	0.0154408
815.556	0.0152756
815.634	0.0152370
815.712	0.0153037
815.790	0.0152068
815.869	0.0153055
815.947	0.0151566
816.025	0.0152334
816.103	0.0153836
816.181	0.0152117
816.259	0.0152450
816.337	0.0153412
816.415	0.0152965
816.494	0.0152674
816.572	0.0152670
816.650	0.0152046
816.728	0.0152187
816.806	0.0152678
816.884	0.0152308
816.962	0.0151540
817.040	0.0152383
817.119	0.0153494
817.197	0.0153619
817.275	0.0151175
817.353	0.0154085
817.431	0.0153512
817.509	0.0152457
817.587	0.0151976
817.665	0.0151685
817.744	0.0152061
817.822	0.0153245
817.900	0.0153161
817.978	0.0152603
818.056	0.0152973
818.134	0.0153257
818.212	0.0152197
818.290	0.0153407
818.369	0.0153552
818.447	0.0152103
818.525	0.0152563
818.603	0.0154005
818.681	0.0153194
818.759	0.0153171
818.837	0.0152802
818.915	0.0153044
818.994	0.0152702
819.072	0.0154279
819.150	0.0153497
819.228	0.0153451
819.306	0.0152245
819.384	0.0153524
819.462	0.0152167
819.540	0.0152959
819.619	0.0154124
819.697	0.0153587
819.775	0.0153812
819.853	0.0154628
819.931	0.0152563
820.009	0.0153386
820.087	0.0152368
820.165	0.0154684
820.244	0.0155066
820.322	0.0153017
820.400	0.0152802
820.478	0.0152847
820.556	0.0154857
820.634	0.0153305
820.712	0.0152522
820.790	0.0152482
820.869	0.0153011
820.947	0.0154162
821.025	0.0152234
821.103	0.0153976
821.181	0.0153604
821.259	0.0152874
821.337	0.0153395
821.415	0.0152775
821.494	0.0153221
821.572	0.0154214
821.650	0.0153889
821.728	0.0153218
821.806	0.0152367
821.884	0.0151959
821.962	0.0153073
822.040	0.0154209
822.119	0.0152725
822.197	0.0152577
822.275	0.0153613
822.353	0.0152451
822.431	0.0153152
822.509	0.0152184
822.587	0.0153278
822.665	0.0153497
822.744	0.0152674
822.822	0.0153646
822.900	0.0153908
822.978	0.0153078
823.056	0.0151874
823.134	0.0153625
823.212	0.0152677
823.290	0.0154699
823.369	0.0154493
823.447	0.0153645
823.525	0.0154091
823.603	0.0152834
823.681	0.0152385
823.759	0.0153083
823.837	0.0152662
823.915	0.0153900
823.994	0.0152938
824.072	0.0151968
824.150	0.0152915
824.228	0.0153149
824.306	0.0152000
824.384	0.0153604
824.462	0.0152564
824.540	0.0153455
824.619	0.0153835
824.697	0.0153237
824.775	0.0153117
824.853	0.0152788
824.931	0.0153458
825.009	0.0154564
825.087	0.0153374
825.165	0.0153304
825.244	0.0153314
825.322	0.0154324
825.400	0.0152588
825.478	0.0152276
825.556	0.0154307
825.634	0.0153107
825.712	0.0152875
825.790	0.0153526
825.869	0.0153694
825.947	0.0154097
826.025	0.0153309
826.103	0.0153641
826.181	0.0152097
826.259	0.0153513
826.337	0.0152797
826.415	0.0153623
826.494	0.0154060
826.572	0.0154406
826.650	0.0154182
826.728	0.0153091
826.806	0.0153233
826.884	0.0152084
826.962	0.0154502
827.040	0.0155249
827.119	0.0153672
827.197	0.0153013
827.275	0.0154789
827.353	0.0153310
827.431	0.0153690
827.509	0.0154621
827.587	0.0153101
827.665	0.0152905
827.744	0.0153107
827.822	0.0153185
827.900	0.0151647
827.978	0.0152244
828.056	0.0152452
828.134	0.0154049
828.212	0.0153745
828.290	0.0153963
828.369	0.0153379
828.447	0.0154885
828.525	0.0154440
828.603	0.0152920
828.681	0.0152717
828.759	0.0153246
828.837	0.0153602
828.915	0.0154559
828.994	0.0154586
829.072	0.0153289
829.150	0.0151692
829.228	0.0153080
829.306	0.0154211
829.384	0.0153698
829.462	0.0152856
829.540	0.0153974
829.619	0.0154490
829.697	0.0154005
829.775	0.0152755
829.853	0.0154591
829.931	0.0154285
830.009	0.0153580
830.087	0.0153403
830.165	0.0153216
830.244	0.0154282
830.322	0.0153432
830.400	0.0154502
830.478	0.0153609
830.556	0.0154253
830.634	0.0153330
830.712	0.0153598
830.790	0.0152129
830.869	0.0153848
830.947	0.0152586
831.025	0.0152628
831.103	0.0152935
831.181	0.0153514
831.259	0.0153238
831.337	0.0153093
831.415	0.0154149
831.494	0.0153953
831.572	0.0153536
831.650	0.0153937
831.728	0.0153520
831.806	0.0153099
831.884	0.0153969
831.962	0.0151806
832.040	0.0153786
832.119	0.0153825
832.197	0.0153500
832.275	0.0153270
832.353	0.0152686
832.431	0.0152782
832.509	0.0153330
832.587	0.0153960
832.665	0.0153689
832.744	0.0152533
832.822	0.0152976
832.900	0.0153239
832.978	0.0152086
833.056	0.0152106
833.134	0.0153284
833.212	0.0154171
833.290	0.0154237
833.369	0.0153725
833.447	0.0152239
833.525	0.0152892
833.603	0.0154921
833.681	0.0151840
833.759	0.0152557
833.837	0.0153353
833.915	0.0153535
833.994	0.0153162
834.072	0.0153650
834.150	0.0153792
834.228	0.0152305
834.306	0.0153184
834.384	0.0153592
834.462	0.0154735
834.540	0.0152879
834.619	0.0154253
834.697	0.0153300
834.775	0.0153082
834.853	0.0153037
834.931	0.0154325
835.009	0.0153697
835.087	0.0153806
835.165	0.0155063
835.244	0.0154559
835.322	0.0152746
835.400	0.0152460
835.478	0.0153786
835.556	0.0154430
835.634	0.0153340
835.712	0.0154237
835.790	0.0154002
835.869	0.0152066
835.947	0.0152202
836.025	0.0154011
836.103	0.0154698
836.181	0.0153876
836.259	0.0154390
836.337	0.0152880
836.415	0.0152861
836.494	0.0154072
836.572	0.0153679
836.650	0.0152367
836.728	0.0153176
836.806	0.0154678
836.884	0.0153158
836.962	0.0152092
837.040	0.0152706
837.119	0.0154159
837.197	0.0152453
837.275	0.0153584
837.353	0.0153508
837.431	0.0152781
837.509	0.0153990
837.587	0.0152840
837.665	0.0153929
837.744	0.0153278
837.822	0.0154896
837.900	0.0154019
837.978	0.0153460
838.056	0.0153454
838.134	0.0154427
838.212	0.0153693
838.290	0.0154108
838.369	0.0154015
838.447	0.0154161
838.525	0.0152579
838.603	0.0153981
838.681	0.0154401
838.759	0.0153994
838.837	0.0153384
838.915	0.0154370
838.994	0.0154513
839.072	0.0155167
839.150	0.0153690
839.228	0.0154568
839.306	0.0154224
839.384	0.0153722
839.462	0.0155627
839.540	0.0155245
839.619	0.0154038
839.697	0.0154444
839.775	0.0155016
839.853	0.0154465
839.931	0.0153371
840.009	0.0153946
840.087	0.0154086
840.165	0.0153927
840.244	0.0154268
840.322	0.0154378
840.400	0.0154804
840.478	0.0153886
840.556	0.0154914
840.634	0.0153048
840.712	0.0154440
840.790	0.0153709
840.869	0.0152802
840.947	0.0153957
841.025	0.0153610
841.103	0.0152824
841.181	0.0153294
841.259	0.0152729
841.337	0.0154328
841.415	0.0153130
841.494	0.0152808
841.572	0.0153506
841.650	0.0154579
841.728	0.0153438
841.806	0.0155470
841.884	0.0153434
841.962	0.0153978
842.040	0.0153262
842.119	0.0153600
842.197	0.0154071
842.275	0.0153971
842.353	0.0154044
842.431	0.0154368
842.509	0.0153833
842.587	0.0152756
842.665	0.0152554
842.744	0.0153544
842.822	0.0153210
842.900	0.0152451
842.978	0.0152782
843.056	0.0153362
843.134	0.0152503
843.212	0.0153269
843.290	0.0154465
843.369	0.0153308
843.447	0.0153615
843.525	0.0152715
843.603	0.0153346
843.681	0.0152760
843.759	0.0153332
843.837	0.0153056
843.915	0.0153518
843.994	0.0153895
844.072	0.0152801
844.150	0.0152649
844.228	0.0151352
844.306	0.0152655
844.384	0.0153259
844.462	0.0152402
844.540	0.0152756
844.619	0.0152804
844.697	0.0152678
844.775	0.0152583
844.853	0.0152122
844.931	0.0152659
845.009	0.0152538
845.087	0.0154402
845.165	0.0152265
845.244	0.0152108
845.322	0.0153117
845.400	0.0152781
845.478	0.0152800
845.556	0.0153342
845.634	0.0153888
845.712	0.0153255
845.790	0.0154424
845.869	0.0152924
845.947	0.0152848
846.025	0.0154760
846.103	0.0152023
846.181	0.0153709
846.259	0.0153296
846.337	0.0153117
846.415	0.0153510
846.494	0.0151987
846.572	0.0153004
846.650	0.0152315
846.728	0.0153743
846.806	0.0154675
846.884	0.0153681
846.962	0.0151441
847.040	0.0152702
847.119	0.0152247
847.197	0.0151588
847.275	0.0153387
847.353	0.0153708
847.431	0.0153126
847.509	0.0152443
847.587	0.0151494
847.665	0.0152245
847.744	0.0153410
847.822	0.0152515
847.900	0.0152032
847.978	0.0152444
848.056	0.0151416
848.134	0.0152120
848.212	0.0151997
848.290	0.0153030
848.369	0.0151527
848.447	0.0152797
848.525	0.0151466
848.603	0.0154307
848.681	0.0153462
848.759	0.0150975
848.837	0.0152535
848.915	0.0153108
848.994	0.0152680
849.072	0.0152467
849.150	0.0153273
849.228	0.0152572
849.306	0.0152410
849.384	0.0154375
849.462	0.0154022
849.540	0.0153229
849.619	0.0151936
849.697	0.0152264
849.775	0.0154846
849.853	0.0152619
849.931	0.0152636
850.009	0.0153091
850.087	0.0152590
850.165	0.0154433
850.244	0.0151658
850.322	0.0153461
850.400	0.0154340
850.478	0.0153362
850.556	0.0153315
850.634	0.0153677
850.712	0.0153293
850.790	0.0153386
850.869	0.0153015
850.947	0.0154104
851.025	0.0153465
851.103	0.0153395
851.181	0.0153551
851.259	0.0152895
851.337	0.0153165
851.415	0.0152965
851.494	0.0152845
851.572	0.0154141
851.650	0.0154579
851.728	0.0153204
851.806	0.0152799
851.884	0.0154170
851.962	0.0152861
852.040	0.0152338
852.119	0.0154184
852.197	0.0153815
852.275	0.0154775
852.353	0.0153951
852.431	0.0153654
852.509	0.0153890
852.587	0.0155106
852.665	0.0153135
852.744	0.0152653
852.822	0.0152525
852.900	0.0154987
852.978	0.0154015
853.056	0.0153063
853.134	0.0154335
853.212	0.0154433
853.290	0.0153352
853.369	0.0153499
853.447	0.0153738
853.525	0.0152615
853.603	0.0152811
853.681	0.0154128
853.759	0.0153201
853.837	0.0153029
853.915	0.0152393
853.994	0.0152999
854.072	0.0154343
854.150	0.0153793
854.228	0.0152979
854.306	0.0153655
854.384	0.0154687
854.462	0.0153185
854.540	0.0154212
854.619	0.0153854
854.697	0.0152915
854.775	0.0154781
854.853	0.0153884
854.931	0.0154611
855.009	0.0153076
855.087	0.0154429
855.165	0.0155274
855.244	0.0154128
855.322	0.0153230
855.400	0.0153346
855.478	0.0154257
855.556	0.0153945
855.634	0.0154582
855.712	0.0155077
855.790	0.0154800
855.869	0.0154379
855.947	0.0153499
856.025	0.0154768
856.103	0.0154585
856.181	0.0154558
856.259	0.0154317
856.337	0.0154288
856.415	0.0154659
856.494	0.0153376
856.572	0.0155068
856.650	0.0155448
856.728	0.0155167
856.806	0.0153606
856.884	0.0155026
856.962	0.0154755
857.040	0.0154878
857.119	0.0155750
857.197	0.0153719
857.275	0.0153691
857.353	0.0154890
857.431	0.0155118
857.509	0.0154668
857.587	0.0155229
857.665	0.0152883
857.744	0.0153870
857.822	0.0154302
857.900	0.0154079
857.978	0.0153867
858.056	0.0153165
858.134	0.0154604
858.212	0.0154321
858.290	0.0152806
858.369	0.0153244
858.447	0.0153532
858.525	0.0154404
858.603	0.0153740
858.681	0.0153339
858.759	0.0154413
858.837	0.0154186
858.915	0.0154390
858.994	0.0153886
859.072	0.0154695
859.150	0.0154397
859.228	0.0153824
859.306	0.0153187
859.384	0.0154507
859.462	0.0153931
859.540	0.0153188
859.619	0.0154453
859.697	0.0154375
859.775	0.0153818
859.853	0.0153813
859.931	0.0153782
860.009	0.0154179
860.087	0.0153780
860.165	0.0152946
860.244	0.0154007
860.322	0.0153831
860.400	0.0153669
860.478	0.0154646
860.556	0.0153584
860.634	0.0153654
860.712	0.0153673
860.790	0.0154901
860.869	0.0153783
860.947	0.0154189
861.025	0.0153897
861.103	0.0154230
861.181	0.0154435
861.259	0.0153541
861.337	0.0153255
861.415	0.0155391
861.494	0.0154927
861.572	0.0153149
861.650	0.0152957
861.728	0.0153151
861.806	0.0152679
861.884	0.0154050
861.962	0.0152947
862.040	0.0153624
862.119	0.0154026
862.197	0.0152605
862.275	0.0153242
862.353	0.0152527
862.431	0.0153726
862.509	0.0152680
862.587	0.0152708
862.665	0.0153374
862.744	0.0153358
862.822	0.0154102
862.900	0.0154308
862.978	0.0153410
863.056	0.0154244
863.134	0.0154135
863.212	0.0156020
863.290	0.0155630
863.369	0.0153275
863.447	0.0153304
863.525	0.0154414
863.603	0.0153919
863.681	0.0153910
863.759	0.0153519
863.837	0.0153018
863.915	0.0154783
863.994	0.0155235
864.072	0.0153814
864.150	0.0153189
864.228	0.0154784
864.306	0.0153527
864.384	0.0153408
864.462	0.0151662
864.540	0.0153592
864.619	0.0154055
864.697	0.0153542
864.775	0.0152541
864.853	0.0154270
864.931	0.0152895
865.009	0.0154719
865.087	0.0152790
865.165	0.0154037
865.244	0.0154391
865.322	0.0154520
865.400	0.0153314
865.478	0.0153720
865.556	0.0153914
865.634	0.0153523
865.712	0.0153291
865.790	0.0153218
865.869	0.0152894
865.947	0.0153861
866.025	0.0153011
866.103	0.0152170
866.181	0.0153295
866.259	0.0153368
866.337	0.0152280
866.415	0.0152395
866.494	0.0152042
866.572	0.0153890
866.650	0.0152101
866.728	0.0152114
866.806	0.0153055
866.884	0.0153172
866.962	0.0153121
867.040	0.0152711
867.119	0.0152382
867.197	0.0153255
867.275	0.0153366
867.353	0.0151744
867.431	0.0152578
867.509	0.0153506
867.587	0.0152324
867.665	0.0153255
867.744	0.0153521
867.822	0.0153310
867.900	0.0153772
867.978	0.0154458
868.056	0.0152854
868.134	0.0152542
868.212	0.0152245
868.290	0.0152978
868.369	0.0152539
868.447	0.0153239
868.525	0.0152470
868.603	0.0152384
868.681	0.0153637
868.759	0.0152885
868.837	0.0152256
868.915	0.0154382
868.994	0.0154357
869.072	0.0153917
869.150	0.0154642
869.228	0.0153620
869.306	0.0154251
869.384	0.0153157
869.462	0.0153944
869.540	0.0153272
869.619	0.0153967
869.697	0.0153609
869.775	0.0152980
869.853	0.0154287
869.931	0.0153260
870.009	0.0153529
870.087	0.0152538
870.165	0.0153736
870.244	0.0155090
870.322	0.0153495
870.400	0.0153265
870.478	0.0153778
870.556	0.0153574
870.634	0.0153167
870.712	0.0154403
870.790	0.0154504
870.869	0.0152665
870.947	0.0154717
871.025	0.0154041
871.103	0.0154525
871.181	0.0153396
871.259	0.0153637
871.337	0.0153442
871.415	0.0152463
871.494	0.0153581
871.572	0.0152854
871.650	0.0153117
871.728	0.0154406
871.806	0.0152534
871.884	0.0153197
871.962	0.0153435
872.040	0.0152670
872.119	0.0154473
872.197	0.0154043
872.275	0.0153400
872.353	0.0154131
872.431	0.0154023
872.509	0.0154284
872.587	0.0152951
872.665	0.0154685
872.744	0.0152310
872.822	0.0153178
872.900	0.0153543
872.978	0.0153490
873.056	0.0154879
873.134	0.0153995
873.212	0.0153663
873.290	0.0154279
873.369	0.0153417
873.447	0.0155317
873.525	0.0153340
873.603	0.0153237
873.681	0.0152711
873.759	0.0154292
873.837	0.0155627
873.915	0.0153967
873.994	0.0154139
874.072	0.0154912
874.150	0.0154909
874.228	0.0153761
874.306	0.0154529
874.384	0.0154150
874.462	0.0153929
874.540	0.0153084
874.619	0.0155306
874.697	0.0153314
874.775	0.0154074
874.853	0.0154705
874.931	0.0154374
875.009	0.0153807
875.087	0.0155106
875.165	0.0153622
875.244	0.0155070
875.322	0.0153265
875.400	0.0153516
875.478	0.0154278
875.556	0.0154616
875.634	0.0153412
875.712	0.0152901
875.790	0.0153930
875.869	0.0154254
875.947	0.0152584
876.025	0.0153571
876.103	0.0154610
876.181	0.0155956
876.259	0.0154063
876.337	0.0154293
876.415	0.0153552
876.494	0.0154781
876.572	0.0153950
876.650	0.0154036
876.728	0.0155005
876.806	0.0153820
876.884	0.0152360
876.962	0.0154105
877.040	0.0153292
877.119	0.0153285
877.197	0.0152374
877.275	0.0154775
877.353	0.0153301
877.431	0.0153959
877.509	0.0154306
877.587	0.0155021
877.665	0.0154591
877.744	0.0154339
877.822	0.0153973
877.900	0.0153445
877.978	0.0154385
878.056	0.0153840
878.134	0.0153957
878.212	0.0154613
878.290	0.0153203
878.369	0.0153180
878.447	0.0153591
878.525	0.0153506
878.603	0.0155250
878.681	0.0154731
878.759	0.0154530
878.837	0.0154202
878.915	0.0154558
878.994	0.0152985
879.072	0.0154933
879.150	0.0153883
879.228	0.0155139
879.306	0.0154380
879.384	0.0154023
879.462	0.0153961
879.540	0.0153631
879.619	0.0154140
879.697	0.0155213
879.775	0.0153925
879.853	0.0154167
879.931	0.0153807
880.009	0.0153583
880.087	0.0154231
880.165	0.0153654
880.244	0.0154067
880.322	0.0153864
880.400	0.0155220
880.478	0.0154368
880.556	0.0154707
880.634	0.0154028
880.712	0.0154005
880.790	0.0155003
880.869	0.0153593
880.947	0.0153622
881.025	0.0154375
881.103	0.0154394
881.181	0.0154455
881.259	0.0153208
881.337	0.0155168
881.415	0.0153425
881.494	0.0154069
881.572	0.0154157
881.650	0.0154179
881.728	0.0155088
881.806	0.0154645
881.884	0.0154105
881.962	0.0154277
882.040	0.0155379
882.119	0.0154430
882.197	0.0153873
882.275	0.0154945
882.353	0.0154344
882.431	0.0155231
882.509	0.0154533
882.587	0.0153792
882.665	0.0154302
882.744	0.0155364
882.822	0.0154913
882.900	0.0155389
882.978	0.0154595
883.056	0.0153720
883.134	0.0154610
883.212	0.0155304
883.290	0.0154652
883.369	0.0152757
883.447	0.0153349
883.525	0.0154214
883.603	0.0153919
883.681	0.0152602
883.759	0.0153940
883.837	0.0154755
883.915	0.0154354
883.994	0.0153877
884.072	0.0153822
884.150	0.0153638
884.228	0.0153907
884.306	0.0156498
884.384	0.0153742
884.462	0.0154238
884.540	0.0154502
884.619	0.0154010
884.697	0.0154880
884.775	0.0155155
884.853	0.0154243
884.931	0.0153262
885.009	0.0153400
885.087	0.0153319
885.165	0.0154411
885.244	0.0154106
885.322	0.0153152
885.400	0.0154195
885.478	0.0153780
885.556	0.0153217
885.634	0.0153164
885.712	0.0154311
885.790	0.0154070
885.869	0.0154305
885.947	0.0153713
886.025	0.0154491
886.103	0.0154337
886.181	0.0154410
886.259	0.0153841
886.337	0.0154241
886.415	0.0154044
886.494	0.0154179
886.572	0.0153658
886.650	0.0153539
886.728	0.0153217
886.806	0.0153824
886.884	0.0153564
886.962	0.0152929
887.040	0.0153976
887.119	0.0154116
887.197	0.0153078
887.275	0.0153152
887.353	0.0153562
887.431	0.0154199
887.509	0.0153575
887.587	0.0152990
887.665	0.0153339
887.744	0.0154199
887.822	0.0154340
887.900	0.0153785
887.978	0.0152985
888.056	0.0152569
888.134	0.0152734
888.212	0.0154721
888.290	0.0153120
888.369	0.0153868
888.447	0.0153107
888.525	0.0153013
888.603	0.0153720
888.681	0.0152207
888.759	0.0154144
888.837	0.0153960
888.915	0.0154580
888.994	0.0152995
889.072	0.0152883
889.150	0.0153683
889.228	0.0153963
889.306	0.0153713
889.384	0.0153391
889.462	0.0153709
889.540	0.0153538
889.619	0.0154220
889.697	0.0152992
889.775	0.0153544
889.853	0.0152975
889.931	0.0154481
890.009	0.0153370
890.087	0.0152338
890.165	0.0152787
890.244	0.0153416
890.322	0.0154865
890.400	0.0153553
890.478	0.0153536
890.556	0.0152730
890.634	0.0153403
890.712	0.0154604
890.790	0.0153591
890.869	0.0154793
890.947	0.0154147
891.025	0.0153809
891.103	0.0153384
891.181	0.0153236
891.259	0.0152461
891.337	0.0154539
891.415	0.0153192
891.494	0.0153237
891.572	0.0151724
891.650	0.0152634
891.728	0.0153716
891.806	0.0153336
891.884	0.0152766
891.962	0.0153422
892.040	0.0152908
892.119	0.0152663
892.197	0.0153019
892.275	0.0152834
892.353	0.0152761
892.431	0.0154176
892.509	0.0152972
892.587	0.0152991
892.665	0.0152967
892.744	0.0152696
892.822	0.0153865
892.900	0.0153909
892.978	0.0153090
893.056	0.0152603
893.134	0.0152817
893.212	0.0154154
893.290	0.0152673
893.369	0.0152699
893.447	0.0154424
893.525	0.0152733
893.603	0.0152668
893.681	0.0154124
893.759	0.0153230
893.837	0.0153281
893.915	0.0152402
893.994	0.0154472
894.072	0.0153157
894.150	0.0151066
894.228	0.0154012
894.306	0.0152134
894.384	0.0153182
894.462	0.0153461
894.540	0.0153362
894.619	0.0153865
894.697	0.0152990
894.775	0.0152168
894.853	0.0153432
894.931	0.0153598
895.009	0.0153355
895.087	0.0152001
895.165	0.0151786
895.244	0.0153287
895.322	0.0152988
895.400	0.0153357
895.478	0.0155254
895.556	0.0153448
895.634	0.0153730
895.712	0.0153490
895.790	0.0154057
895.869	0.0153177
895.947	0.0152679
896.025	0.0154277
896.103	0.0153312
896.181	0.0153107
896.259	0.0152504
896.337	0.0154077
896.415	0.0154317
896.494	0.0153226
896.572	0.0153721
896.650	0.0153170
896.728	0.0154170
896.806	0.0153288
896.884	0.0153168
896.962	0.0153880
897.040	0.0153114
897.119	0.0154723
897.197	0.0154671
897.275	0.0153487
897.353	0.0153471
897.431	0.0153344
897.509	0.0153986
897.587	0.0154197
897.665	0.0154265
897.744	0.0153504
897.822	0.0154455
897.900	0.0153552
897.978	0.0155836
898.056	0.0154433
898.134	0.0154450
898.212	0.0153906
898.290	0.0153690
898.369	0.0154604
898.447	0.0153504
898.525	0.0153676
898.603	0.0153677
898.681	0.0154042
898.759	0.0154218
898.837	0.0154741
898.915	0.0154359
898.994	0.0153439
899.072	0.0153389
899.150	0.0152536
899.228	0.0153488
899.306	0.0153770
899.384	0.0152877
899.462	0.0154575
899.540	0.0153390
899.619	0.0152828
899.697	0.0154025
899.775	0.0154134
899.853	0.0152892
899.931	0.0153362
900.009	0.0153586
900.087	0.0153111
900.165	0.0152667
900.244	0.0152780
900.322	0.0152833
900.400	0.0154142
900.478	0.0152211
900.556	0.0153535
900.634	0.0153139
900.712	0.0152437
900.790	0.0153473
900.869	0.0153587
900.947	0.0153531
901.025	0.0152525
901.103	0.0153175
901.181	0.0153649
901.259	0.0152409
901.337	0.0153168
901.415	0.0153519
901.494	0.0153671
901.572	0.0153380
901.650	0.0153471
901.728	0.0153902
901.806	0.0153312
901.884	0.0153349
901.962	0.0154029
902.040	0.0153889
902.119	0.0153936
902.197	0.0153921
902.275	0.0153400
902.353	0.0154878
902.431	0.0154370
902.509	0.0152690
902.587	0.0153546
902.665	0.0153221
902.744	0.0155148
902.822	0.0154230
902.900	0.0153608
902.978	0.0153439
903.056	0.0153717
903.134	0.0155197
903.212	0.0154006
903.290	0.0153358
903.369	0.0153634
903.447	0.0154247
903.525	0.0155145
903.603	0.0154175
903.681	0.0154188
903.759	0.0153353
903.837	0.0153365
903.915	0.0154234
903.994	0.0153858
904.072	0.0154205
904.150	0.0152480
904.228	0.0153948
904.306	0.0152580
904.384	0.0154681
904.462	0.0153021
904.540	0.0152463
904.619	0.0152913
904.697	0.0153239
904.775	0.0154717
904.853	0.0153505
904.931	0.0153060
905.009	0.0152840
905.087	0.0154218
905.165	0.0154507
905.244	0.0152847
905.322	0.0153478
905.400	0.0153311
905.478	0.0153545
905.556	0.0155036
905.634	0.0153898
905.712	0.0153416
905.790	0.0153838
905.869	0.0155413
905.947	0.0154076
906.025	0.0154292
906.103	0.0153556
906.181	0.0153100
906.259	0.0153437
906.337	0.0154086
906.415	0.0154378
906.494	0.0153847
906.572	0.0154626
906.650	0.0153907
906.728	0.0153747
906.806	0.0154524
906.884	0.0154350
906.962	0.0152053
907.040	0.0152626
907.119	0.0154046
907.197	0.0153322
907.275	0.0153165
907.353	0.0154194
907.431	0.0153606
907.509	0.0153184
907.587	0.0152119
907.665	0.0154338
907.744	0.0152932
907.822	0.0153637
907.900	0.0154164
907.978	0.0154926
908.056	0.0152927
908.134	0.0153096
908.212	0.0152522
908.290	0.0153478
908.369	0.0153624
908.447	0.0155488
908.525	0.0153206
908.603	0.0153736
908.681	0.0153447
908.759	0.0153283
908.837	0.0153833
908.915	0.0152958
908.994	0.0153741
909.072	0.0153944
909.150	0.0153275
909.228	0.0152751
909.306	0.0152733
909.384	0.0153630
909.462	0.0153383
909.540	0.0153758
909.619	0.0152995
909.697	0.0152063
909.775	0.0154531
909.853	0.0153252
909.931	0.0153389
910.009	0.0154404
910.087	0.0153814
910.165	0.0153673
910.244	0.0154063
910.322	0.0151979
910.400	0.0152360
910.478	0.0153979
910.556	0.0153574
910.634	0.0152180
910.712	0.0153706
910.790	0.0154542
910.869	0.0153436
910.947	0.0153385
911.025	0.0152928
911.103	0.0154075
911.181	0.0155176
911.259	0.0153507
911.337	0.0154146
911.415	0.0153484
911.494	0.0153024
911.572	0.0153884
911.650	0.0154176
911.728	0.0154021
911.806	0.0153198
911.884	0.0152448
911.962	0.0153074
912.040	0.0153288
912.119	0.0154089
912.197	0.0153989
912.275	0.0152781
912.353	0.0152436
912.431	0.0152715
912.509	0.0151215
912.587	0.0152444
912.665	0.0154789
912.744	0.0153391
912.822	0.0152357
912.900	0.0153289
912.978	0.0153802
913.056	0.0152079
913.134	0.0153358
913.212	0.0151978
913.290	0.0152396
913.369	0.0152299
913.447	0.0152297
913.525	0.0153225
913.603	0.0153069
913.681	0.0153497
913.759	0.0154196
913.837	0.0153184
913.915	0.0153648
913.994	0.0152408
914.072	0.0152969
914.150	0.0154041
914.228	0.0153542
914.306	0.0153667
914.384	0.0152039
914.462	0.0153451
914.540	0.0153979
914.619	0.0152382
914.697	0.0152599
914.775	0.0153798
914.853	0.0152594
914.931	0.0151689
915.009	0.0152784
915.087	0.0153006
915.165	0.0153450
915.244	0.0153024
915.322	0.0153609
915.400	0.0153579
915.478	0.0151222
915.556	0.0152286
915.634	0.0152432
915.712	0.0153076
915.790	0.0153392
915.869	0.0153139
915.947	0.0153883
916.025	0.0153559
916.103	0.0153169
916.181	0.0152893
916.259	0.0151822
916.337	0.0153569
916.415	0.0152789
916.494	0.0151985
916.572	0.0152119
916.650	0.0152773
916.728	0.0152124
916.806	0.0152744
916.884	0.0151424
916.962	0.0152544
917.040	0.0153383
917.119	0.0153638
917.197	0.0153513
917.275	0.0152586
917.353	0.0153502
917.431	0.0152573
917.509	0.0153500
917.587	0.0153609
917.665	0.0154877
917.744	0.0153427
917.822	0.0151839
917.900	0.0152513
917.978	0.0153004
918.056	0.0151596
918.134	0.0152621
918.212	0.0153625
918.290	0.0152597
918.369	0.0152879
918.447	0.0153597
918.525	0.0152541
918.603	0.0152614
918.681	0.0153744
918.759	0.0153043
918.837	0.0152119
918.915	0.0152232
918.994	0.0153638
919.072	0.0153828
919.150	0.0152932
919.228	0.0153412
919.306	0.0152443
919.384	0.0152792
919.462	0.0153848
919.540	0.0151353
919.619	0.0152877
919.697	0.0152451
919.775	0.0154124
919.853	0.0153090
919.931	0.0154479
920.009	0.0153182
920.087	0.0152556
920.165	0.0153265
920.244	0.0153981
920.322	0.0153477
920.400	0.0154482
920.478	0.0153337
920.556	0.0153802
920.634	0.0153402
920.712	0.0153622
920.790	0.0153479
920.869	0.0153337
920.947	0.0152533
921.025	0.0154449
921.103	0.0153966
921.181	0.0153550
921.259	0.0152222
921.337	0.0153699
921.415	0.0154162
921.494	0.0152941
921.572	0.0153085
921.650	0.0153497
921.728	0.0153714
921.806	0.0153556
921.884	0.0152633
921.962	0.0152370
922.040	0.0153969
922.119	0.0153662
922.197	0.0152335
922.275	0.0153891
922.353	0.0152566
922.431	0.0155061
922.509	0.0153755
922.587	0.0153875
922.665	0.0153507
922.744	0.0154297
922.822	0.0153590
922.900	0.0152784
922.978	0.0154417
923.056	0.0153604
923.134	0.0152979
923.212	0.0153799
923.290	0.0153701
923.369	0.0153963
923.447	0.0152702
923.525	0.0153883
923.603	0.0154018
923.681	0.0153968
923.759	0.0154393
923.837	0.0154035
923.915	0.0153503
923.994	0.0152309
924.072	0.0152898
924.150	0.0153703
924.228	0.0153555
924.306	0.0153907
924.384	0.0153679
924.462	0.0153803
924.540	0.0153813
924.619	0.0153136
924.697	0.0153432
924.775	0.0153070
924.853	0.0153632
924.931	0.0152567
925.009	0.0152945
925.087	0.0153092
925.165	0.0153600
925.244	0.0153785
925.322	0.0152992
925.400	0.0153544
925.478	0.0153452
925.556	0.0153689
925.634	0.0153027
925.712	0.0154095
925.790	0.0153793
925.869	0.0153605
925.947	0.0153995
926.025	0.0153719
926.103	0.0152294
926.181	0.0153711
926.259	0.0153492
926.337	0.0152140
926.415	0.0154254
926.494	0.0153203
926.572	0.0154013
926.650	0.0153454
926.728	0.0152894
926.806	0.0152576
926.884	0.0152488
926.962	0.0153131
927.040	0.0153880
927.119	0.0153809
927.197	0.0152785
927.275	0.0153292
927.353	0.0152809
927.431	0.0152613
927.509	0.0153896
927.587	0.0153216
927.665	0.0152206
927.744	0.0153327
927.822	0.0153272
927.900	0.0153839
927.978	0.0153267
928.056	0.0153918
928.134	0.0154056
928.212	0.0152885
928.290	0.0153302
928.369	0.0152030
928.447	0.0151678
928.525	0.0153210
928.603	0.0153735
928.681	0.0153186
928.759	0.0152731
928.837	0.0153246
928.915	0.0153337
928.994	0.0152703
929.072	0.0152462
929.150	0.0155224
929.228	0.0152538
929.306	0.0153835
929.384	0.0153516
929.462	0.0153194
929.540	0.0152367
929.619	0.0152285
929.697	0.0154270
929.775	0.0153549
929.853	0.0152133
929.931	0.0153281
930.009	0.0152852
930.087	0.0153004
930.165	0.0153828
930.244	0.0154929
930.322	0.0153717
930.400	0.0152409
930.478	0.0153381
930.556	0.0154677
930.634	0.0153381
930.712	0.0153651
930.790	0.0152557
930.869	0.0152596
930.947	0.0152543
931.025	0.0153569
931.103	0.0153369
931.181	0.0153229
931.259	0.0153619
931.337	0.0153793
931.415	0.0154721
931.494	0.0153934
931.572	0.0153738
931.650	0.0152679
931.728	0.0152762
931.806	0.0153954
931.884	0.0152134
931.962	0.0152929
932.040	0.0153103
932.119	0.0154305
932.197	0.0153065
932.275	0.0153613
932.353	0.0154256
932.431	0.0154561
932.509	0.0153677
932.587	0.0153515
932.665	0.0152105
932.744	0.0152893
932.822	0.0152893
932.900	0.0152770
932.978	0.0152488
933.056	0.0154281
933.134	0.0153833
933.212	0.0153325
933.290	0.0152872
933.369	0.0154223
933.447	0.0154075
933.525	0.0154039
933.603	0.0154340
933.681	0.0152791
933.759	0.0153349
933.837	0.0153511
933.915	0.0154539
933.994	0.0152962
934.072	0.0152555
934.150	0.0152924
934.228	0.0153541
934.306	0.0153616
934.384	0.0153412
934.462	0.0154469
934.540	0.0154678
934.619	0.0153660
934.697	0.0153228
934.775	0.0152638
934.853	0.0153963
934.931	0.0152399
935.009	0.0152502
935.087	0.0154059
935.165	0.0154054
935.244	0.0154957
935.322	0.0154375
935.400	0.0153476
935.478	0.0152457
935.556	0.0154388
935.634	0.0155514
935.712	0.0153143
935.790	0.0153066
935.869	0.0153716
935.947	0.0153291
936.025	0.0153271
936.103	0.0154588
936.181	0.0153165
936.259	0.0154720
936.337	0.0154160
936.415	0.0154131
936.494	0.0153095
936.572	0.0154469
936.650	0.0153247
936.728	0.0153214
936.806	0.0154709
936.884	0.0153106
936.962	0.0152664
937.040	0.0153583
937.119	0.0153209
937.197	0.0154615
937.275	0.0153549
937.353	0.0153253
937.431	0.0153760
937.509	0.0153474
937.587	0.0152316
937.665	0.0152995
937.744	0.0152979
937.822	0.0154089
937.900	0.0153745
937.978	0.0153548
938.056	0.0153470
938.134	0.0152151
938.212	0.0153074
938.290	0.0155185
938.369	0.0153357
938.447	0.0152768
938.525	0.0154608
938.603	0.0153776
938.681	0.0154074
938.759	0.0151636
938.837	0.0152823
938.915	0.0152728
938.994	0.0152839
939.072	0.0153003
939.150	0.0153756
939.228	0.0152493
939.306	0.0152826
939.384	0.0152061
939.462	0.0152571
939.540	0.0152987
939.619	0.0152851
939.697	0.0152436
939.775	0.0153162
939.853	0.0155340
939.931	0.0152459
940.009	0.0154932
940.087	0.0154262
940.165	0.0152095
940.244	0.0152764
940.322	0.0153949
940.400	0.0152853
940.478	0.0152899
940.556	0.0153524
940.634	0.0153307
940.712	0.0153892
940.790	0.0153453
940.869	0.0152499
940.947	0.0153298
941.025	0.0153088
941.103	0.0154098
941.181	0.0153707
941.259	0.0151430
941.337	0.0152916
941.415	0.0154106
941.494	0.0154809
941.572	0.0153033
941.650	0.0152821
941.728	0.0153406
941.806	0.0153781
941.884	0.0151921
941.962	0.0153987
942.040	0.0153667
942.119	0.0152292
942.197	0.0150970
942.275	0.0152197
942.353	0.0152477
942.431	0.0152587
942.509	0.0153590
942.587	0.0152898
942.665	0.0152852
942.744	0.0154271
942.822	0.0153356
942.900	0.0152908
942.978	0.0152414
943.056	0.0152553
943.134	0.0152251
943.212	0.0153175
943.290	0.0153838
943.369	0.0153648
943.447	0.0153963
943.525	0.0153806
943.603	0.0153051
943.681	0.0152301
943.759	0.0152881
943.837	0.0153490
943.915	0.0153228
943.994	0.0153421
944.072	0.0153125
944.150	0.0153175
944.228	0.0153793
944.306	0.0153091
944.384	0.0153852
944.462	0.0153774
944.540	0.0153225
944.619	0.0153256
944.697	0.0152561
944.775	0.0152458
944.853	0.0153236
944.931	0.0152409
945.009	0.0153320
945.087	0.0152843
945.165	0.0153732
945.244	0.0153690
945.322	0.0153148
945.400	0.0153609
945.478	0.0152985
945.556	0.0153353
945.634	0.0153566
945.712	0.0154104
945.790	0.0153453
945.869	0.0153797
945.947	0.0152353
946.025	0.0152686
946.103	0.0154152
946.181	0.0154153
946.259	0.0152814
946.337	0.0153073
946.415	0.0153618
946.494	0.0154274
946.572	0.0154399
946.650	0.0153584
946.728	0.0152669
946.806	0.0154234
946.884	0.0152969
946.962	0.0153499
947.040	0.0154411
947.119	0.0152944
947.197	0.0154619
947.275	0.0152883
947.353	0.0153292
947.431	0.0153861
947.509	0.0154099
947.587	0.0153124
947.665	0.0152055
947.744	0.0151708
947.822	0.0152784
947.900	0.0153254
947.978	0.0153613
948.056	0.0153053
948.134	0.0153992
948.212	0.0152785
948.290	0.0153015
948.369	0.0153504
948.447	0.0153958
948.525	0.0154623
948.603	0.0152032
948.681	0.0153285
948.759	0.0153429
948.837	0.0153546
948.915	0.0152515
948.994	0.0153051
949.072	0.0154243
949.150	0.0153941
949.228	0.0154493
949.306	0.0153104
949.384	0.0152348
949.462	0.0153474
949.540	0.0153432
949.619	0.0154399
949.697	0.0154579
949.775	0.0153300
949.853	0.0153899
949.931	0.0153422
