05/19/2022	00:41:08	Ver.	4.1	UNKNOWN
Optical Delay	630.009178	Delta X		0.078125	Sweeps	1	Scan Rate	0/0
Coordinates	Axis 1	NaN	Axis 2	NaN	Axis 3	NaN	Axis 4	NaN	Axis 5	NaN	Axis 6	0.000000
TX Power	0.000000	RX Power	0.000000

630.009	0.0161407
630.087	0.0161486
630.165	0.0161816
630.244	0.0161938
630.322	0.0160997
630.400	0.0161430
630.478	0.0162293
630.556	0.0160555
630.634	0.0161142
630.712	0.0161967
630.790	0.0161580
630.869	0.0161479
630.947	0.0163461
631.025	0.0161387
631.103	0.0162677
631.181	0.0161803
631.259	0.0162112
631.337	0.0161940
631.415	0.0161674
631.494	0.0160574
631.572	0.0162343
631.650	0.0161937
631.728	0.0162095
631.806	0.0160121
631.884	0.0160436
631.962	0.0161216
632.040	0.0162382
632.119	0.0161877
632.197	0.0161724
632.275	0.0159853
632.353	0.0161575
632.431	0.0160222
632.509	0.0160698
632.587	0.0161467
632.665	0.0161706
632.744	0.0161095
632.822	0.0162462
632.900	0.0161703
632.978	0.0161842
633.056	0.0162544
633.134	0.0161382
633.212	0.0161359
633.290	0.0160863
633.369	0.0162592
633.447	0.0162111
633.525	0.0160638
633.603	0.0161474
633.681	0.0161562
633.759	0.0161976
633.837	0.0160912
633.915	0.0161714
633.994	0.0161723
634.072	0.0162165
634.150	0.0161185
634.228	0.0161044
634.306	0.0161552
634.384	0.0160777
634.462	0.0161787
634.540	0.0162849
634.619	0.0160582
634.697	0.0160706
634.775	0.0161885
634.853	0.0161388
634.931	0.0162398
635.009	0.0161254
635.087	0.0161819
635.165	0.0161090
635.244	0.0160792
635.322	0.0162482
635.400	0.0162744
635.478	0.0160534
635.556	0.0161890
635.634	0.0161539
635.712	0.0160996
635.790	0.0162492
635.869	0.0161404
635.947	0.0160160
636.025	0.0161916
636.103	0.0161349
636.181	0.0162106
636.259	0.0161195
636.337	0.0161348
636.415	0.0161604
636.494	0.0162029
636.572	0.0162347
636.650	0.0161784
636.728	0.0160403
636.806	0.0161723
636.884	0.0162098
636.962	0.0162547
637.040	0.0161444
637.119	0.0162059
637.197	0.0161447
637.275	0.0161877
637.353	0.0161279
637.431	0.0162210
637.509	0.0161232
637.587	0.0160398
637.665	0.0161816
637.744	0.0161444
637.822	0.0162611
637.900	0.0162656
637.978	0.0161519
638.056	0.0161221
638.134	0.0162833
638.212	0.0162270
638.290	0.0161581
638.369	0.0161421
638.447	0.0160896
638.525	0.0162026
638.603	0.0161642
638.681	0.0160439
638.759	0.0162699
638.837	0.0162167
638.915	0.0161318
638.994	0.0161101
639.072	0.0161232
639.150	0.0161025
639.228	0.0161201
639.306	0.0162881
639.384	0.0162685
639.462	0.0161724
639.540	0.0162594
639.619	0.0161399
639.697	0.0162605
639.775	0.0163215
639.853	0.0161681
639.931	0.0161295
640.009	0.0160973
640.087	0.0162676
640.165	0.0160799
640.244	0.0161255
640.322	0.0161938
640.400	0.0160707
640.478	0.0160588
640.556	0.0160343
640.634	0.0162208
640.712	0.0160769
640.790	0.0162073
640.869	0.0161339
640.947	0.0161013
641.025	0.0161027
641.103	0.0159959
641.181	0.0161413
641.259	0.0161589
641.337	0.0161714
641.415	0.0162259
641.494	0.0161665
641.572	0.0161556
641.650	0.0161030
641.728	0.0160534
641.806	0.0160331
641.884	0.0160970
641.962	0.0161805
642.040	0.0160769
642.119	0.0162691
642.197	0.0160201
642.275	0.0161885
642.353	0.0160339
642.431	0.0160854
642.509	0.0161870
642.587	0.0160812
642.665	0.0161658
642.744	0.0162691
642.822	0.0161280
642.900	0.0161777
642.978	0.0161298
643.056	0.0160093
643.134	0.0160825
643.212	0.0161324
643.290	0.0160030
643.369	0.0161198
643.447	0.0162455
643.525	0.0161558
643.603	0.0161929
643.681	0.0161558
643.759	0.0161050
643.837	0.0160823
643.915	0.0161962
643.994	0.0161922
644.072	0.0160792
644.150	0.0161209
644.228	0.0160910
644.306	0.0162325
644.384	0.0160536
644.462	0.0161296
644.540	0.0161945
644.619	0.0161972
644.697	0.0161966
644.775	0.0162132
644.853	0.0161867
644.931	0.0160284
645.009	0.0161432
645.087	0.0161514
645.165	0.0161502
645.244	0.0162197
645.322	0.0162466
645.400	0.0161340
645.478	0.0160123
645.556	0.0160730
645.634	0.0161825
645.712	0.0160659
645.790	0.0160796
645.869	0.0161458
645.947	0.0159703
646.025	0.0160485
646.103	0.0162140
646.181	0.0161295
646.259	0.0161169
646.337	0.0161302
646.415	0.0161545
646.494	0.0161121
646.572	0.0162144
646.650	0.0161427
646.728	0.0161588
646.806	0.0161536
646.884	0.0161349
646.962	0.0160764
647.040	0.0162522
647.119	0.0161678
647.197	0.0161632
647.275	0.0162018
647.353	0.0163293
647.431	0.0161758
647.509	0.0160661
647.587	0.0160692
647.665	0.0162699
647.744	0.0161143
647.822	0.0160747
647.900	0.0161645
647.978	0.0160506
648.056	0.0161527
648.134	0.0162017
648.212	0.0161695
648.290	0.0160349
648.369	0.0161928
648.447	0.0160036
648.525	0.0160831
648.603	0.0161993
648.681	0.0163201
648.759	0.0162366
648.837	0.0161562
648.915	0.0162035
648.994	0.0161073
649.072	0.0162269
649.150	0.0162804
649.228	0.0161069
649.306	0.0160510
649.384	0.0161613
649.462	0.0162109
649.540	0.0162363
649.619	0.0161604
649.697	0.0162104
649.775	0.0161126
649.853	0.0161459
649.931	0.0162289
650.009	0.0161402
650.087	0.0161065
650.165	0.0161587
650.244	0.0161800
650.322	0.0161201
650.400	0.0161740
650.478	0.0161918
650.556	0.0160823
650.634	0.0162080
650.712	0.0161772
650.790	0.0161351
650.869	0.0162262
650.947	0.0162350
651.025	0.0162900
651.103	0.0161698
651.181	0.0161428
651.259	0.0161880
651.337	0.0160249
651.415	0.0161530
651.494	0.0160429
651.572	0.0159628
651.650	0.0161443
651.728	0.0161052
651.806	0.0161849
651.884	0.0161465
651.962	0.0161257
652.040	0.0161687
652.119	0.0161502
652.197	0.0160328
652.275	0.0161514
652.353	0.0161935
652.431	0.0161728
652.509	0.0162509
652.587	0.0162003
652.665	0.0160336
652.744	0.0161291
652.822	0.0162763
652.900	0.0162757
652.978	0.0162054
653.056	0.0161291
653.134	0.0162040
653.212	0.0160973
653.290	0.0160604
653.369	0.0162728
653.447	0.0161993
653.525	0.0160085
653.603	0.0161301
653.681	0.0161542
653.759	0.0162031
653.837	0.0161025
653.915	0.0161826
653.994	0.0161358
654.072	0.0161433
654.150	0.0162151
654.228	0.0160792
654.306	0.0161481
654.384	0.0161053
654.462	0.0161518
654.540	0.0162006
654.619	0.0162325
654.697	0.0162621
654.775	0.0162719
654.853	0.0161382
654.931	0.0161076
655.009	0.0160352
655.087	0.0161408
655.165	0.0160574
655.244	0.0163043
655.322	0.0161577
655.400	0.0161876
655.478	0.0162907
655.556	0.0162660
655.634	0.0161713
655.712	0.0161106
655.790	0.0162512
655.869	0.0162437
655.947	0.0161496
656.025	0.0161814
656.103	0.0161902
656.181	0.0161956
656.259	0.0161754
656.337	0.0160936
656.415	0.0161287
656.494	0.0162679
656.572	0.0161285
656.650	0.0162290
656.728	0.0162447
656.806	0.0161240
656.884	0.0161114
656.962	0.0162383
657.040	0.0162799
657.119	0.0162243
657.197	0.0163416
657.275	0.0162648
657.353	0.0160508
657.431	0.0162341
657.509	0.0163024
657.587	0.0163024
657.665	0.0163216
657.744	0.0162424
657.822	0.0162502
657.900	0.0162380
657.978	0.0163551
658.056	0.0162405
658.134	0.0161720
658.212	0.0161328
658.290	0.0163145
658.369	0.0163715
658.447	0.0163122
658.525	0.0161930
658.603	0.0161727
658.681	0.0161878
658.759	0.0162132
658.837	0.0162172
658.915	0.0161265
658.994	0.0162936
659.072	0.0162644
659.150	0.0162528
659.228	0.0161616
659.306	0.0162054
659.384	0.0163112
659.462	0.0162798
659.540	0.0161792
659.619	0.0161784
659.697	0.0162515
659.775	0.0161589
659.853	0.0162644
659.931	0.0161668
660.009	0.0160612
660.087	0.0161535
660.165	0.0162150
660.244	0.0162845
660.322	0.0160994
660.400	0.0161563
660.478	0.0161559
660.556	0.0162232
660.634	0.0161812
660.712	0.0160583
660.790	0.0161394
660.869	0.0161723
660.947	0.0161620
661.025	0.0163221
661.103	0.0161861
661.181	0.0161391
661.259	0.0162119
661.337	0.0161536
661.415	0.0160468
661.494	0.0161817
661.572	0.0163508
661.650	0.0161768
661.728	0.0162521
661.806	0.0161169
661.884	0.0162405
661.962	0.0162540
662.040	0.0161806
662.119	0.0162339
662.197	0.0162526
662.275	0.0161874
662.353	0.0161910
662.431	0.0161266
662.509	0.0162109
662.587	0.0160709
662.665	0.0160761
662.744	0.0161584
662.822	0.0162644
662.900	0.0162617
662.978	0.0161829
663.056	0.0161296
663.134	0.0162167
663.212	0.0162041
663.290	0.0160636
663.369	0.0161577
663.447	0.0162294
663.525	0.0162702
663.603	0.0163313
663.681	0.0161320
663.759	0.0161797
663.837	0.0162421
663.915	0.0162184
663.994	0.0162177
664.072	0.0162405
664.150	0.0161851
664.228	0.0162025
664.306	0.0161677
664.384	0.0161755
664.462	0.0162183
664.540	0.0160118
664.619	0.0161734
664.697	0.0162101
664.775	0.0161497
664.853	0.0161895
664.931	0.0161690
665.009	0.0163326
665.087	0.0161058
665.165	0.0161138
665.244	0.0161858
665.322	0.0162850
665.400	0.0161935
665.478	0.0161477
665.556	0.0161801
665.634	0.0161076
665.712	0.0161958
665.790	0.0161448
665.869	0.0160772
665.947	0.0161198
666.025	0.0161430
666.103	0.0161195
666.181	0.0162845
666.259	0.0160423
666.337	0.0160561
666.415	0.0159642
666.494	0.0161586
666.572	0.0159863
666.650	0.0160722
666.728	0.0160883
666.806	0.0162319
666.884	0.0160203
666.962	0.0161225
667.040	0.0161555
667.119	0.0162070
667.197	0.0161623
667.275	0.0161288
667.353	0.0162165
667.431	0.0161382
667.509	0.0161868
667.587	0.0161141
667.665	0.0162109
667.744	0.0161886
667.822	0.0161787
667.900	0.0159428
667.978	0.0161452
668.056	0.0161614
668.134	0.0160902
668.212	0.0161631
668.290	0.0161634
668.369	0.0160961
668.447	0.0161517
668.525	0.0162321
668.603	0.0161214
668.681	0.0160856
668.759	0.0159782
668.837	0.0162095
668.915	0.0161118
668.994	0.0161150
669.072	0.0161538
669.150	0.0161308
669.228	0.0161288
669.306	0.0161343
669.384	0.0162257
669.462	0.0160942
669.540	0.0161916
669.619	0.0162163
669.697	0.0161716
669.775	0.0161260
669.853	0.0160887
669.931	0.0161191
670.009	0.0161366
670.087	0.0160731
670.165	0.0162505
670.244	0.0161605
670.322	0.0161875
670.400	0.0160960
670.478	0.0162078
670.556	0.0160509
670.634	0.0160503
670.712	0.0162041
670.790	0.0161839
670.869	0.0161549
670.947	0.0162338
671.025	0.0161525
671.103	0.0162251
671.181	0.0161652
671.259	0.0161617
671.337	0.0160445
671.415	0.0161240
671.494	0.0161111
671.572	0.0161481
671.650	0.0162077
671.728	0.0162445
671.806	0.0162794
671.884	0.0160969
671.962	0.0161749
672.040	0.0161581
672.119	0.0160979
672.197	0.0162704
672.275	0.0161011
672.353	0.0162503
672.431	0.0161446
672.509	0.0162211
672.587	0.0161963
672.665	0.0162952
672.744	0.0161234
672.822	0.0161243
672.900	0.0162051
672.978	0.0162206
673.056	0.0163302
673.134	0.0164176
673.212	0.0161785
673.290	0.0162427
673.369	0.0161115
673.447	0.0162801
673.525	0.0162115
673.603	0.0162534
673.681	0.0162398
673.759	0.0162322
673.837	0.0161694
673.915	0.0161387
673.994	0.0161976
674.072	0.0161887
674.150	0.0162171
674.228	0.0162177
674.306	0.0161629
674.384	0.0161935
674.462	0.0163204
674.540	0.0162745
674.619	0.0160830
674.697	0.0162207
674.775	0.0162659
674.853	0.0163155
674.931	0.0161969
675.009	0.0161484
675.087	0.0162654
675.165	0.0161994
675.244	0.0161269
675.322	0.0161302
675.400	0.0162337
675.478	0.0161919
675.556	0.0159866
675.634	0.0162131
675.712	0.0161589
675.790	0.0161473
675.869	0.0162750
675.947	0.0162549
676.025	0.0161540
676.103	0.0162647
676.181	0.0162807
676.259	0.0163530
676.337	0.0161505
676.415	0.0163330
676.494	0.0162370
676.572	0.0162182
676.650	0.0161865
676.728	0.0160440
676.806	0.0161451
676.884	0.0163788
676.962	0.0162871
677.040	0.0163850
677.119	0.0161232
677.197	0.0161459
677.275	0.0162135
677.353	0.0162536
677.431	0.0162119
677.509	0.0162098
677.587	0.0161799
677.665	0.0161720
677.744	0.0161408
677.822	0.0162303
677.900	0.0160905
677.978	0.0161470
678.056	0.0160363
678.134	0.0159512
678.212	0.0161556
678.290	0.0161866
678.369	0.0160664
678.447	0.0161128
678.525	0.0159499
678.603	0.0161877
678.681	0.0161221
678.759	0.0160167
678.837	0.0160701
678.915	0.0162859
678.994	0.0160912
679.072	0.0162206
679.150	0.0162843
679.228	0.0162989
679.306	0.0162099
679.384	0.0161901
679.462	0.0162360
679.540	0.0162133
679.619	0.0161832
679.697	0.0162180
679.775	0.0162110
679.853	0.0161916
679.931	0.0160709
680.009	0.0159823
680.087	0.0161196
680.165	0.0162146
680.244	0.0160656
680.322	0.0161285
680.400	0.0161269
680.478	0.0162207
680.556	0.0163431
680.634	0.0162148
680.712	0.0162238
680.790	0.0161869
680.869	0.0162400
680.947	0.0162720
681.025	0.0162482
681.103	0.0160649
681.181	0.0161238
681.259	0.0161902
681.337	0.0160234
681.415	0.0161148
681.494	0.0159658
681.572	0.0159730
681.650	0.0160439
681.728	0.0158575
681.806	0.0158717
681.884	0.0160138
681.962	0.0159107
682.040	0.0159474
682.119	0.0161723
682.197	0.0161381
682.275	0.0163171
682.353	0.0164798
682.431	0.0166100
682.509	0.0166514
682.587	0.0165837
682.665	0.0166557
682.744	0.0168336
682.822	0.0168308
682.900	0.0167160
682.978	0.0167362
683.056	0.0167657
683.134	0.0166511
683.212	0.0165912
683.290	0.0164467
683.369	0.0164233
683.447	0.0163840
683.525	0.0161461
683.603	0.0160450
683.681	0.0158775
683.759	0.0158216
683.837	0.0156673
683.915	0.0156139
683.994	0.0155176
684.072	0.0153777
684.150	0.0154097
684.228	0.0152566
684.306	0.0153297
684.384	0.0153500
684.462	0.0152952
684.540	0.0154428
684.619	0.0155533
684.697	0.0155676
684.775	0.0155086
684.853	0.0157828
684.931	0.0158681
685.009	0.0158892
685.087	0.0158941
685.165	0.0161118
685.244	0.0161062
685.322	0.0161565
685.400	0.0161869
685.478	0.0162640
685.556	0.0161605
685.634	0.0162659
685.712	0.0163201
685.790	0.0163661
685.869	0.0164590
685.947	0.0165158
686.025	0.0167554
686.103	0.0169647
686.181	0.0171410
686.259	0.0172606
686.337	0.0175101
686.415	0.0175903
686.494	0.0177779
686.572	0.0177946
686.650	0.0177763
686.728	0.0178044
686.806	0.0175861
686.884	0.0174239
686.962	0.0172288
687.040	0.0171418
687.119	0.0168613
687.197	0.0166029
687.275	0.0162825
687.353	0.0159734
687.431	0.0158832
687.509	0.0155060
687.587	0.0153005
687.665	0.0150895
687.744	0.0150030
687.822	0.0148633
687.900	0.0146899
687.978	0.0147455
688.056	0.0144943
688.134	0.0144525
688.212	0.0144199
688.290	0.0144682
688.369	0.0146793
688.447	0.0145876
688.525	0.0146496
688.603	0.0147871
688.681	0.0148653
688.759	0.0152203
688.837	0.0153610
688.915	0.0155169
688.994	0.0156531
689.072	0.0160267
689.150	0.0161038
689.228	0.0161918
689.306	0.0162534
689.384	0.0164211
689.462	0.0165726
689.540	0.0166046
689.619	0.0167464
689.697	0.0169266
689.775	0.0169196
689.853	0.0168779
689.931	0.0169917
690.009	0.0172081
690.087	0.0172764
690.165	0.0172908
690.244	0.0173301
690.322	0.0176811
690.400	0.0177074
690.478	0.0175873
690.556	0.0179863
690.634	0.0182072
690.712	0.0182279
690.790	0.0182089
690.869	0.0181829
690.947	0.0182694
691.025	0.0181635
691.103	0.0179205
691.181	0.0176586
691.259	0.0174055
691.337	0.0171136
691.415	0.0166983
691.494	0.0163906
691.572	0.0160727
691.650	0.0155724
691.728	0.0151932
691.806	0.0147085
691.884	0.0144419
691.962	0.0140620
692.040	0.0136557
692.119	0.0137003
692.197	0.0135600
692.275	0.0134267
692.353	0.0134032
692.431	0.0133772
692.509	0.0134348
692.587	0.0137856
692.665	0.0138962
692.744	0.0140231
692.822	0.0140825
692.900	0.0142930
692.978	0.0147414
693.056	0.0148656
693.134	0.0151616
693.212	0.0153299
693.290	0.0155427
693.369	0.0156962
693.447	0.0160494
693.525	0.0163695
693.603	0.0165813
693.681	0.0166949
693.759	0.0170203
693.837	0.0171442
693.915	0.0174418
693.994	0.0175737
694.072	0.0176402
694.150	0.0178776
694.228	0.0179562
694.306	0.0180225
694.384	0.0181728
694.462	0.0181322
694.540	0.0181489
694.619	0.0182442
694.697	0.0181742
694.775	0.0181452
694.853	0.0181168
694.931	0.0182525
695.009	0.0180930
695.087	0.0181664
695.165	0.0180241
695.244	0.0179203
695.322	0.0179260
695.400	0.0177999
695.478	0.0175661
695.556	0.0173032
695.634	0.0170551
695.712	0.0166531
695.790	0.0163795
695.869	0.0160054
695.947	0.0156671
696.025	0.0152030
696.103	0.0147879
696.181	0.0144198
696.259	0.0142174
696.337	0.0140173
696.415	0.0137910
696.494	0.0136523
696.572	0.0135699
696.650	0.0135374
696.728	0.0132928
696.806	0.0133096
696.884	0.0135530
696.962	0.0136247
697.040	0.0137015
697.119	0.0138200
697.197	0.0138253
697.275	0.0139473
697.353	0.0142284
697.431	0.0144128
697.509	0.0146006
697.587	0.0147514
697.665	0.0151730
697.744	0.0153821
697.822	0.0154376
697.900	0.0157045
697.978	0.0160653
698.056	0.0163480
698.134	0.0164360
698.212	0.0168561
698.290	0.0171086
698.369	0.0173087
698.447	0.0176264
698.525	0.0177650
698.603	0.0180318
698.681	0.0183098
698.759	0.0183550
698.837	0.0184004
698.915	0.0183914
698.994	0.0183882
699.072	0.0183401
699.150	0.0182667
699.228	0.0182595
699.306	0.0180689
699.384	0.0178514
699.462	0.0177935
699.540	0.0176402
699.619	0.0176021
699.697	0.0174079
699.775	0.0171892
699.853	0.0170663
699.931	0.0172598
700.009	0.0171014
700.087	0.0169928
700.165	0.0167330
700.244	0.0166193
700.322	0.0165584
700.400	0.0165051
700.478	0.0162492
700.556	0.0160656
700.634	0.0157488
700.712	0.0156655
700.790	0.0153095
700.869	0.0152078
700.947	0.0149181
701.025	0.0146847
701.103	0.0145875
701.181	0.0141884
701.259	0.0141653
701.337	0.0141475
701.415	0.0141794
701.494	0.0141234
701.572	0.0141105
701.650	0.0142966
701.728	0.0144964
701.806	0.0144806
701.884	0.0146198
701.962	0.0149471
702.040	0.0151320
702.119	0.0151752
702.197	0.0153396
702.275	0.0157012
702.353	0.0158592
702.431	0.0160211
702.509	0.0161494
702.587	0.0163367
702.665	0.0163869
702.744	0.0165322
702.822	0.0165830
702.900	0.0167875
702.978	0.0169136
703.056	0.0170721
703.134	0.0170869
703.212	0.0172243
703.290	0.0173199
703.369	0.0173445
703.447	0.0173088
703.525	0.0172835
703.603	0.0171813
703.681	0.0171777
703.759	0.0172253
703.837	0.0170824
703.915	0.0168293
703.994	0.0169434
704.072	0.0168372
704.150	0.0166292
704.228	0.0166008
704.306	0.0165551
704.384	0.0165327
704.462	0.0164944
704.540	0.0162122
704.619	0.0164823
704.697	0.0165982
704.775	0.0163721
704.853	0.0164922
704.931	0.0165726
705.009	0.0164719
705.087	0.0165844
705.165	0.0165503
705.244	0.0164761
705.322	0.0165503
705.400	0.0165392
705.478	0.0161830
705.556	0.0161886
705.634	0.0161091
705.712	0.0158433
705.790	0.0157157
705.869	0.0154488
705.947	0.0156371
706.025	0.0154712
706.103	0.0154887
706.181	0.0151932
706.259	0.0151145
706.337	0.0152594
706.415	0.0153986
706.494	0.0155105
706.572	0.0156557
706.650	0.0156199
706.728	0.0156542
706.806	0.0158089
706.884	0.0158775
706.962	0.0159290
707.040	0.0161027
707.119	0.0159656
707.197	0.0161720
707.275	0.0161375
707.353	0.0161217
707.431	0.0161322
707.509	0.0161867
707.587	0.0161462
707.665	0.0160928
707.744	0.0162246
707.822	0.0160439
707.900	0.0162562
707.978	0.0161425
708.056	0.0162662
708.134	0.0162519
708.212	0.0161608
708.290	0.0161871
708.369	0.0161523
708.447	0.0162162
708.525	0.0162012
708.603	0.0161216
708.681	0.0162064
708.759	0.0163381
708.837	0.0161524
708.915	0.0162888
708.994	0.0163847
709.072	0.0162381
709.150	0.0163112
709.228	0.0163533
709.306	0.0163052
709.384	0.0161292
709.462	0.0163943
709.540	0.0164075
709.619	0.0163313
709.697	0.0163448
709.775	0.0164215
709.853	0.0163501
709.931	0.0164811
710.009	0.0165726
710.087	0.0166848
710.165	0.0166621
710.244	0.0166084
710.322	0.0166767
710.400	0.0165457
710.478	0.0166194
710.556	0.0165989
710.634	0.0164505
710.712	0.0163031
710.790	0.0164259
710.869	0.0161317
710.947	0.0159013
711.025	0.0158430
711.103	0.0158318
711.181	0.0157876
711.259	0.0158343
711.337	0.0158902
711.415	0.0158486
711.494	0.0158309
711.572	0.0158210
711.650	0.0158730
711.728	0.0160083
711.806	0.0160162
711.884	0.0161338
711.962	0.0161625
712.040	0.0161800
712.119	0.0163470
712.197	0.0161555
712.275	0.0164524
712.353	0.0164452
712.431	0.0163524
712.509	0.0163127
712.587	0.0163879
712.665	0.0162528
712.744	0.0162378
712.822	0.0162697
712.900	0.0161577
712.978	0.0162378
713.056	0.0161080
713.134	0.0160303
713.212	0.0160793
713.290	0.0161546
713.369	0.0160998
713.447	0.0160616
713.525	0.0162311
713.603	0.0161174
713.681	0.0160564
713.759	0.0162894
713.837	0.0163061
713.915	0.0162544
713.994	0.0161893
714.072	0.0162093
714.150	0.0162805
714.228	0.0163918
714.306	0.0163130
714.384	0.0164282
714.462	0.0163360
714.540	0.0162473
714.619	0.0162494
714.697	0.0162912
714.775	0.0163250
714.853	0.0161449
714.931	0.0162678
715.009	0.0162740
715.087	0.0164236
715.165	0.0164430
715.244	0.0164169
715.322	0.0165134
715.400	0.0165283
715.478	0.0165089
715.556	0.0163675
715.634	0.0164394
715.712	0.0164824
715.790	0.0162852
715.869	0.0161685
715.947	0.0162483
716.025	0.0161891
716.103	0.0161069
716.181	0.0159013
716.259	0.0159990
716.337	0.0158348
716.415	0.0158211
716.494	0.0158202
716.572	0.0157337
716.650	0.0157113
716.728	0.0157408
716.806	0.0158405
716.884	0.0158884
716.962	0.0159077
717.040	0.0160278
717.119	0.0160925
717.197	0.0160246
717.275	0.0160740
717.353	0.0162704
717.431	0.0161769
717.509	0.0162560
717.587	0.0162550
717.665	0.0163032
717.744	0.0162661
717.822	0.0161239
717.900	0.0162127
717.978	0.0161712
718.056	0.0162567
718.134	0.0162517
718.212	0.0161724
718.290	0.0162666
718.369	0.0163860
718.447	0.0162740
718.525	0.0163683
718.603	0.0163128
718.681	0.0164069
718.759	0.0164621
718.837	0.0163802
718.915	0.0162453
718.994	0.0163207
719.072	0.0164024
719.150	0.0162599
719.228	0.0160949
719.306	0.0161922
719.384	0.0161676
719.462	0.0161781
719.540	0.0161459
719.619	0.0161275
719.697	0.0160185
719.775	0.0160738
719.853	0.0160297
719.931	0.0160952
720.009	0.0160507
720.087	0.0161001
720.165	0.0160368
720.244	0.0160957
720.322	0.0161044
720.400	0.0160452
720.478	0.0160413
720.556	0.0161011
720.634	0.0161803
720.712	0.0160596
720.790	0.0160828
720.869	0.0159749
720.947	0.0159379
721.025	0.0159850
721.103	0.0159151
721.181	0.0159441
721.259	0.0159753
721.337	0.0158873
721.415	0.0157411
721.494	0.0158532
721.572	0.0160596
721.650	0.0158903
721.728	0.0159534
721.806	0.0159994
721.884	0.0160228
721.962	0.0160249
722.040	0.0160548
722.119	0.0161124
722.197	0.0162934
722.275	0.0162778
722.353	0.0163116
722.431	0.0162845
722.509	0.0165250
722.587	0.0163924
722.665	0.0164066
722.744	0.0164017
722.822	0.0164737
722.900	0.0164277
722.978	0.0163766
723.056	0.0163532
723.134	0.0162339
723.212	0.0161977
723.290	0.0162875
723.369	0.0161293
723.447	0.0161935
723.525	0.0161210
723.603	0.0162204
723.681	0.0162057
723.759	0.0162292
723.837	0.0163052
723.915	0.0163885
723.994	0.0162656
724.072	0.0163049
724.150	0.0165330
724.228	0.0164111
724.306	0.0163982
724.384	0.0163586
724.462	0.0163641
724.540	0.0163826
724.619	0.0164048
724.697	0.0162567
724.775	0.0161548
724.853	0.0162395
724.931	0.0160744
725.009	0.0161729
725.087	0.0160973
725.165	0.0160664
725.244	0.0160237
725.322	0.0159972
725.400	0.0162021
725.478	0.0160370
725.556	0.0160189
725.634	0.0160847
725.712	0.0160519
725.790	0.0158356
725.869	0.0159256
725.947	0.0159054
726.025	0.0158153
726.103	0.0159321
726.181	0.0157668
726.259	0.0158421
726.337	0.0160019
726.415	0.0160194
726.494	0.0160264
726.572	0.0159259
726.650	0.0161346
726.728	0.0161024
726.806	0.0161688
726.884	0.0162244
726.962	0.0161215
727.040	0.0161654
727.119	0.0163934
727.197	0.0164678
727.275	0.0162389
727.353	0.0162875
727.431	0.0164066
727.509	0.0164462
727.587	0.0163090
727.665	0.0162523
727.744	0.0162114
727.822	0.0163470
727.900	0.0163644
727.978	0.0162830
728.056	0.0162142
728.134	0.0163162
728.212	0.0163310
728.290	0.0163401
728.369	0.0162618
728.447	0.0162678
728.525	0.0161205
728.603	0.0163280
728.681	0.0162975
728.759	0.0162523
728.837	0.0160187
728.915	0.0160093
728.994	0.0160434
729.072	0.0160481
729.150	0.0160075
729.228	0.0159202
729.306	0.0157571
729.384	0.0158546
729.462	0.0158189
729.540	0.0158224
729.619	0.0157904
729.697	0.0157548
729.775	0.0159175
729.853	0.0159528
729.931	0.0159060
730.009	0.0159987
730.087	0.0161089
730.165	0.0159523
730.244	0.0160853
730.322	0.0161582
730.400	0.0162397
730.478	0.0161507
730.556	0.0162428
730.634	0.0163059
730.712	0.0162469
730.790	0.0161623
730.869	0.0162483
730.947	0.0161940
731.025	0.0161930
731.103	0.0160822
731.181	0.0161647
731.259	0.0162251
731.337	0.0161707
731.415	0.0162386
731.494	0.0161349
731.572	0.0163130
731.650	0.0162370
731.728	0.0161996
731.806	0.0161782
731.884	0.0161918
731.962	0.0163251
732.040	0.0164381
732.119	0.0162309
732.197	0.0162293
732.275	0.0163231
732.353	0.0162462
732.431	0.0162305
732.509	0.0163076
732.587	0.0162472
732.665	0.0161532
732.744	0.0160104
732.822	0.0161951
732.900	0.0161985
732.978	0.0160951
733.056	0.0160765
733.134	0.0160294
733.212	0.0160433
733.290	0.0160993
733.369	0.0161018
733.447	0.0160788
733.525	0.0162200
733.603	0.0162801
733.681	0.0163760
733.759	0.0163415
733.837	0.0163140
733.915	0.0165032
733.994	0.0165366
734.072	0.0164203
734.150	0.0164133
734.228	0.0163701
734.306	0.0163847
734.384	0.0162279
734.462	0.0163914
734.540	0.0164291
734.619	0.0162536
734.697	0.0162153
734.775	0.0162360
734.853	0.0161387
734.931	0.0161724
735.009	0.0160581
735.087	0.0161208
735.165	0.0162315
735.244	0.0163498
735.322	0.0161680
735.400	0.0162291
735.478	0.0164040
735.556	0.0163119
735.634	0.0161343
735.712	0.0162189
735.790	0.0163631
735.869	0.0162679
735.947	0.0163603
736.025	0.0164843
736.103	0.0161927
736.181	0.0164617
736.259	0.0164421
736.337	0.0164534
736.415	0.0163215
736.494	0.0164654
736.572	0.0164926
736.650	0.0163554
736.728	0.0163079
736.806	0.0164669
736.884	0.0162567
736.962	0.0164649
737.040	0.0163698
737.119	0.0162247
737.197	0.0161112
737.275	0.0161855
737.353	0.0160663
737.431	0.0160818
737.509	0.0160901
737.587	0.0159884
737.665	0.0160577
737.744	0.0160413
737.822	0.0160174
737.900	0.0160872
737.978	0.0161286
738.056	0.0162457
738.134	0.0163378
738.212	0.0161481
738.290	0.0162603
738.369	0.0161147
738.447	0.0162643
738.525	0.0161227
738.603	0.0162474
738.681	0.0161659
738.759	0.0160793
738.837	0.0159243
738.915	0.0161257
738.994	0.0162254
739.072	0.0158776
739.150	0.0159509
739.228	0.0158806
739.306	0.0160204
739.384	0.0159369
739.462	0.0158593
739.540	0.0160677
739.619	0.0161749
739.697	0.0161388
739.775	0.0161237
739.853	0.0164320
739.931	0.0163866
740.009	0.0162213
740.087	0.0164099
740.165	0.0162881
740.244	0.0162974
740.322	0.0163287
740.400	0.0162981
740.478	0.0163062
740.556	0.0162560
740.634	0.0162994
740.712	0.0163271
740.790	0.0161442
740.869	0.0161839
740.947	0.0162527
741.025	0.0162146
741.103	0.0162099
741.181	0.0160926
741.259	0.0161047
741.337	0.0162498
741.415	0.0161679
741.494	0.0161795
741.572	0.0162040
741.650	0.0161932
741.728	0.0162328
741.806	0.0161993
741.884	0.0161716
741.962	0.0162011
742.040	0.0161100
742.119	0.0162354
742.197	0.0162376
742.275	0.0160576
742.353	0.0159940
742.431	0.0161470
742.509	0.0160370
742.587	0.0160262
742.665	0.0160381
742.744	0.0161134
742.822	0.0159779
742.900	0.0160756
742.978	0.0161051
743.056	0.0160526
743.134	0.0160673
743.212	0.0160246
743.290	0.0160552
743.369	0.0162015
743.447	0.0161790
743.525	0.0161627
743.603	0.0161806
743.681	0.0161963
743.759	0.0161797
743.837	0.0163213
743.915	0.0162083
743.994	0.0163243
744.072	0.0161070
744.150	0.0162807
744.228	0.0162772
744.306	0.0160737
744.384	0.0161895
744.462	0.0160495
744.540	0.0161576
744.619	0.0161728
744.697	0.0161370
744.775	0.0161677
744.853	0.0161513
744.931	0.0161567
745.009	0.0160764
745.087	0.0159609
745.165	0.0160410
745.244	0.0159206
745.322	0.0160325
745.400	0.0159608
745.478	0.0160295
745.556	0.0160135
745.634	0.0160826
745.712	0.0162069
745.790	0.0161755
745.869	0.0161007
745.947	0.0161259
746.025	0.0160723
746.103	0.0162175
746.181	0.0162243
746.259	0.0163017
746.337	0.0163152
746.415	0.0161584
746.494	0.0160536
746.572	0.0160423
746.650	0.0161589
746.728	0.0162390
746.806	0.0162340
746.884	0.0162991
746.962	0.0161018
747.040	0.0161975
747.119	0.0161238
747.197	0.0160904
747.275	0.0163177
747.353	0.0162918
747.431	0.0160561
747.509	0.0162064
747.587	0.0163059
747.665	0.0162794
747.744	0.0164224
747.822	0.0162621
747.900	0.0162986
747.978	0.0163721
748.056	0.0163532
748.134	0.0164608
748.212	0.0163005
748.290	0.0163677
748.369	0.0163947
748.447	0.0163309
748.525	0.0161637
748.603	0.0162200
748.681	0.0163440
748.759	0.0161602
748.837	0.0162602
748.915	0.0161426
748.994	0.0160379
749.072	0.0159825
749.150	0.0159106
749.228	0.0159243
749.306	0.0159905
749.384	0.0161630
749.462	0.0162073
749.540	0.0159635
749.619	0.0160675
749.697	0.0160954
749.775	0.0160139
749.853	0.0160397
749.931	0.0160127
750.009	0.0159478
750.087	0.0161388
750.165	0.0160109
750.244	0.0161227
750.322	0.0162313
750.400	0.0162104
750.478	0.0161407
750.556	0.0161754
750.634	0.0161105
750.712	0.0162422
750.790	0.0162917
750.869	0.0160170
750.947	0.0162317
751.025	0.0162698
751.103	0.0162635
751.181	0.0160330
751.259	0.0160460
751.337	0.0161926
751.415	0.0161429
751.494	0.0160454
751.572	0.0161814
751.650	0.0161684
751.728	0.0161975
751.806	0.0160786
751.884	0.0160874
751.962	0.0161277
752.040	0.0162023
752.119	0.0161845
752.197	0.0161274
752.275	0.0161647
752.353	0.0161728
752.431	0.0162672
752.509	0.0163212
752.587	0.0161694
752.665	0.0162274
752.744	0.0161765
752.822	0.0161235
752.900	0.0160574
752.978	0.0162190
753.056	0.0161877
753.134	0.0160429
753.212	0.0160126
753.290	0.0161045
753.369	0.0162241
753.447	0.0160223
753.525	0.0160870
753.603	0.0160756
753.681	0.0160933
753.759	0.0161572
753.837	0.0161160
753.915	0.0160538
753.994	0.0161559
754.072	0.0161493
754.150	0.0161114
754.228	0.0164777
754.306	0.0163002
754.384	0.0163709
754.462	0.0164190
754.540	0.0162173
754.619	0.0162746
754.697	0.0162181
754.775	0.0162170
754.853	0.0163256
754.931	0.0162869
755.009	0.0162417
755.087	0.0162157
755.165	0.0164281
755.244	0.0161320
755.322	0.0160619
755.400	0.0161983
755.478	0.0162676
755.556	0.0161536
755.634	0.0161362
755.712	0.0161400
755.790	0.0162611
755.869	0.0162675
755.947	0.0162527
756.025	0.0163144
756.103	0.0162667
756.181	0.0163058
756.259	0.0162685
756.337	0.0162974
756.415	0.0162602
756.494	0.0162487
756.572	0.0164565
756.650	0.0161777
756.728	0.0160621
756.806	0.0162097
756.884	0.0160788
756.962	0.0160356
757.040	0.0161641
757.119	0.0160889
757.197	0.0160517
757.275	0.0161684
757.353	0.0161703
757.431	0.0162064
757.509	0.0160052
757.587	0.0162105
757.665	0.0162415
757.744	0.0161762
757.822	0.0160710
757.900	0.0161678
757.978	0.0161147
758.056	0.0162392
758.134	0.0162000
758.212	0.0161845
758.290	0.0161211
758.369	0.0161980
758.447	0.0161970
758.525	0.0162913
758.603	0.0162062
758.681	0.0160622
758.759	0.0161596
758.837	0.0161330
758.915	0.0162100
758.994	0.0161657
759.072	0.0162402
759.150	0.0162374
759.228	0.0161877
759.306	0.0163145
759.384	0.0162059
759.462	0.0161571
759.540	0.0162485
759.619	0.0162404
759.697	0.0161021
759.775	0.0162334
759.853	0.0161383
759.931	0.0161247
760.009	0.0161651
760.087	0.0161485
760.165	0.0160083
760.244	0.0161328
760.322	0.0160719
760.400	0.0160072
760.478	0.0162067
760.556	0.0163117
760.634	0.0162137
760.712	0.0162074
760.790	0.0161858
760.869	0.0160840
760.947	0.0160640
761.025	0.0160672
761.103	0.0161037
761.181	0.0161716
761.259	0.0162264
761.337	0.0160548
761.415	0.0160835
761.494	0.0160934
761.572	0.0159807
761.650	0.0159647
761.728	0.0160058
761.806	0.0160201
761.884	0.0161076
761.962	0.0162660
762.040	0.0160684
762.119	0.0161193
762.197	0.0161022
762.275	0.0161999
762.353	0.0162218
762.431	0.0162867
762.509	0.0162412
762.587	0.0161884
762.665	0.0163120
762.744	0.0163349
762.822	0.0161532
762.900	0.0161976
762.978	0.0161720
763.056	0.0162624
763.134	0.0162331
763.212	0.0162484
763.290	0.0161453
763.369	0.0162246
763.447	0.0163044
763.525	0.0162917
763.603	0.0163033
763.681	0.0162144
763.759	0.0162713
763.837	0.0162753
763.915	0.0162492
763.994	0.0163294
764.072	0.0162494
764.150	0.0162482
764.228	0.0162233
764.306	0.0162397
764.384	0.0162592
764.462	0.0162318
764.540	0.0161909
764.619	0.0161828
764.697	0.0161005
764.775	0.0161224
764.853	0.0160807
764.931	0.0158940
765.009	0.0159126
765.087	0.0161848
765.165	0.0161590
765.244	0.0160174
765.322	0.0161465
765.400	0.0161082
765.478	0.0162325
765.556	0.0161889
765.634	0.0161594
765.712	0.0161864
765.790	0.0161288
765.869	0.0160442
765.947	0.0161089
766.025	0.0161136
766.103	0.0161015
766.181	0.0159438
766.259	0.0159981
766.337	0.0160687
766.415	0.0159539
766.494	0.0159737
766.572	0.0160852
766.650	0.0160716
766.728	0.0161562
766.806	0.0159608
766.884	0.0159960
766.962	0.0160021
767.040	0.0159151
767.119	0.0160161
767.197	0.0162484
767.275	0.0161258
767.353	0.0160533
767.431	0.0161782
767.509	0.0162116
767.587	0.0161350
767.665	0.0162424
767.744	0.0161387
767.822	0.0160767
767.900	0.0161939
767.978	0.0161751
768.056	0.0161632
768.134	0.0161094
768.212	0.0162386
768.290	0.0161255
768.369	0.0162182
768.447	0.0162308
768.525	0.0163545
768.603	0.0160892
768.681	0.0160879
768.759	0.0162237
768.837	0.0161912
768.915	0.0162369
768.994	0.0163602
769.072	0.0162164
769.150	0.0162328
769.228	0.0161012
769.306	0.0161655
769.384	0.0162135
769.462	0.0163752
769.540	0.0160660
769.619	0.0161315
769.697	0.0162172
769.775	0.0161369
769.853	0.0162095
769.931	0.0161468
770.009	0.0161154
770.087	0.0162091
770.165	0.0161236
770.244	0.0161964
770.322	0.0162159
770.400	0.0161073
770.478	0.0161886
770.556	0.0160986
770.634	0.0162572
770.712	0.0162244
770.790	0.0161945
770.869	0.0162174
770.947	0.0162448
771.025	0.0161742
771.103	0.0161429
771.181	0.0160553
771.259	0.0161616
771.337	0.0160383
771.415	0.0160538
771.494	0.0160673
771.572	0.0161333
771.650	0.0160539
771.728	0.0160318
771.806	0.0161478
771.884	0.0161879
771.962	0.0161916
772.040	0.0160577
772.119	0.0161305
772.197	0.0161100
772.275	0.0161823
772.353	0.0160933
772.431	0.0161042
772.509	0.0160454
772.587	0.0162107
772.665	0.0160448
772.744	0.0160659
772.822	0.0162163
772.900	0.0160650
772.978	0.0160528
773.056	0.0160183
773.134	0.0160780
773.212	0.0161674
773.290	0.0160490
773.369	0.0161155
773.447	0.0162004
773.525	0.0161530
773.603	0.0160995
773.681	0.0161633
773.759	0.0160988
773.837	0.0161246
773.915	0.0161535
773.994	0.0160800
774.072	0.0161253
774.150	0.0161104
774.228	0.0161010
774.306	0.0160909
774.384	0.0161901
774.462	0.0161021
774.540	0.0163314
774.619	0.0161121
774.697	0.0160580
774.775	0.0161308
774.853	0.0160263
774.931	0.0161910
775.009	0.0161053
775.087	0.0161168
775.165	0.0159664
775.244	0.0160230
775.322	0.0161918
775.400	0.0161334
775.478	0.0160718
775.556	0.0161398
775.634	0.0161113
775.712	0.0161456
775.790	0.0162189
775.869	0.0160429
775.947	0.0161053
776.025	0.0161407
776.103	0.0160686
776.181	0.0160865
776.259	0.0161131
776.337	0.0161169
776.415	0.0160338
776.494	0.0160461
776.572	0.0162112
776.650	0.0161592
776.728	0.0161196
776.806	0.0162092
776.884	0.0161889
776.962	0.0161411
777.040	0.0161591
777.119	0.0162530
777.197	0.0164005
777.275	0.0161353
777.353	0.0161835
777.431	0.0162323
777.509	0.0163319
777.587	0.0161163
777.665	0.0161140
777.744	0.0161437
777.822	0.0162136
777.900	0.0161897
777.978	0.0161623
778.056	0.0162481
778.134	0.0161372
778.212	0.0162770
778.290	0.0162718
778.369	0.0161546
778.447	0.0161959
778.525	0.0160645
778.603	0.0161283
778.681	0.0161589
778.759	0.0161398
778.837	0.0161324
778.915	0.0161538
778.994	0.0162034
779.072	0.0161447
779.150	0.0162453
779.228	0.0161190
779.306	0.0161251
779.384	0.0160120
779.462	0.0160867
779.540	0.0160069
779.619	0.0160902
779.697	0.0160866
779.775	0.0160355
779.853	0.0160851
779.931	0.0161040
780.009	0.0161618
780.087	0.0162307
780.165	0.0162973
780.244	0.0161104
780.322	0.0163048
780.400	0.0162621
780.478	0.0163004
780.556	0.0163052
780.634	0.0162917
780.712	0.0163560
780.790	0.0163517
780.869	0.0163269
780.947	0.0163966
781.025	0.0162917
781.103	0.0162325
781.181	0.0160606
781.259	0.0162504
781.337	0.0161478
781.415	0.0162358
781.494	0.0162594
781.572	0.0160964
781.650	0.0161893
781.728	0.0159484
781.806	0.0160120
781.884	0.0161133
781.962	0.0161283
782.040	0.0160143
782.119	0.0160345
782.197	0.0160963
782.275	0.0159750
782.353	0.0160960
782.431	0.0161449
782.509	0.0160414
782.587	0.0161278
782.665	0.0160223
782.744	0.0161399
782.822	0.0163993
782.900	0.0161395
782.978	0.0160952
783.056	0.0161372
783.134	0.0161330
783.212	0.0161863
783.290	0.0161415
783.369	0.0161002
783.447	0.0161491
783.525	0.0160840
783.603	0.0160628
783.681	0.0160572
783.759	0.0160075
783.837	0.0160767
783.915	0.0160661
783.994	0.0162065
784.072	0.0160947
784.150	0.0161416
784.228	0.0159806
784.306	0.0162292
784.384	0.0163176
784.462	0.0161343
784.540	0.0162312
784.619	0.0161018
784.697	0.0160869
784.775	0.0161466
784.853	0.0163301
784.931	0.0162135
785.009	0.0160469
785.087	0.0161646
785.165	0.0161703
785.244	0.0162153
785.322	0.0161485
785.400	0.0162654
785.478	0.0162852
785.556	0.0161255
785.634	0.0160445
785.712	0.0162035
785.790	0.0161097
785.869	0.0160435
785.947	0.0160115
786.025	0.0161725
786.103	0.0160316
786.181	0.0159174
786.259	0.0160560
786.337	0.0159827
786.415	0.0161844
786.494	0.0161199
786.572	0.0162559
786.650	0.0162686
786.728	0.0162039
786.806	0.0162589
786.884	0.0163262
786.962	0.0161819
787.040	0.0163459
787.119	0.0162907
787.197	0.0161859
787.275	0.0162740
787.353	0.0162289
787.431	0.0163517
787.509	0.0163674
787.587	0.0161672
787.665	0.0162807
787.744	0.0161403
787.822	0.0162449
787.900	0.0161948
787.978	0.0162587
788.056	0.0162350
788.134	0.0161536
788.212	0.0161621
788.290	0.0161495
788.369	0.0161197
788.447	0.0161481
788.525	0.0161035
788.603	0.0161206
788.681	0.0161506
788.759	0.0160671
788.837	0.0160774
788.915	0.0161666
788.994	0.0160259
789.072	0.0161208
789.150	0.0161204
789.228	0.0159943
789.306	0.0160239
789.384	0.0159749
789.462	0.0160460
789.540	0.0160345
789.619	0.0161271
789.697	0.0160037
789.775	0.0160722
789.853	0.0161695
789.931	0.0160548
790.009	0.0159461
790.087	0.0160258
790.165	0.0161178
790.244	0.0160934
790.322	0.0160922
790.400	0.0161273
790.478	0.0160506
790.556	0.0159969
790.634	0.0160941
790.712	0.0163488
790.790	0.0162734
790.869	0.0162758
790.947	0.0161679
791.025	0.0162121
791.103	0.0163215
791.181	0.0162875
791.259	0.0162962
791.337	0.0164183
791.415	0.0163850
791.494	0.0163246
791.572	0.0163992
791.650	0.0165031
791.728	0.0164749
791.806	0.0162307
791.884	0.0162150
791.962	0.0163064
792.040	0.0162441
792.119	0.0161945
792.197	0.0162337
792.275	0.0162155
792.353	0.0161412
792.431	0.0162102
792.509	0.0161861
792.587	0.0161485
792.665	0.0158697
792.744	0.0160683
792.822	0.0160126
792.900	0.0159588
792.978	0.0161308
793.056	0.0159692
793.134	0.0158751
793.212	0.0160955
793.290	0.0160780
793.369	0.0160519
793.447	0.0159940
793.525	0.0160026
793.603	0.0159222
793.681	0.0158211
793.759	0.0159258
793.837	0.0159919
793.915	0.0159638
793.994	0.0159248
794.072	0.0157866
794.150	0.0160424
794.228	0.0159926
794.306	0.0159646
794.384	0.0159879
794.462	0.0159760
794.540	0.0161446
794.619	0.0161760
794.697	0.0161092
794.775	0.0162981
794.853	0.0162883
794.931	0.0162952
795.009	0.0161645
795.087	0.0163347
795.165	0.0162737
795.244	0.0163152
795.322	0.0161823
795.400	0.0162944
795.478	0.0164031
795.556	0.0163663
795.634	0.0162322
795.712	0.0164229
795.790	0.0164755
795.869	0.0164339
795.947	0.0164522
796.025	0.0163696
796.103	0.0163284
796.181	0.0163291
796.259	0.0162528
796.337	0.0164300
796.415	0.0163337
796.494	0.0162775
796.572	0.0164594
796.650	0.0164005
796.728	0.0163710
796.806	0.0163038
796.884	0.0161649
796.962	0.0160824
797.040	0.0161474
797.119	0.0161158
797.197	0.0160650
797.275	0.0159937
797.353	0.0160490
797.431	0.0159891
797.509	0.0159517
797.587	0.0159152
797.665	0.0158806
797.744	0.0158940
797.822	0.0159133
797.900	0.0160015
797.978	0.0159583
798.056	0.0160130
798.134	0.0160690
798.212	0.0160949
798.290	0.0160063
798.369	0.0160520
798.447	0.0158904
798.525	0.0161193
798.603	0.0160857
798.681	0.0161671
798.759	0.0161777
798.837	0.0160800
798.915	0.0160248
798.994	0.0162165
799.072	0.0162122
799.150	0.0160828
799.228	0.0161630
799.306	0.0162727
799.384	0.0163571
799.462	0.0162485
799.540	0.0161488
799.619	0.0163097
799.697	0.0163672
799.775	0.0163447
799.853	0.0163399
799.931	0.0162888
800.009	0.0163483
800.087	0.0164801
800.165	0.0163986
800.244	0.0162428
800.322	0.0162951
800.400	0.0161966
800.478	0.0161169
800.556	0.0161991
800.634	0.0163641
800.712	0.0162341
800.790	0.0162267
800.869	0.0162247
800.947	0.0162073
801.025	0.0161873
801.103	0.0161501
801.181	0.0161892
801.259	0.0163276
801.337	0.0161332
801.415	0.0161211
801.494	0.0163223
801.572	0.0163256
801.650	0.0161874
801.728	0.0162398
801.806	0.0160467
801.884	0.0161792
801.962	0.0160748
802.040	0.0161085
802.119	0.0160344
802.197	0.0160663
802.275	0.0158504
802.353	0.0159727
802.431	0.0159885
802.509	0.0159935
802.587	0.0161137
802.665	0.0160641
802.744	0.0159488
802.822	0.0160553
802.900	0.0160865
802.978	0.0160503
803.056	0.0161954
803.134	0.0163045
803.212	0.0162953
803.290	0.0161505
803.369	0.0161563
803.447	0.0163329
803.525	0.0162534
803.603	0.0162054
803.681	0.0161953
803.759	0.0161927
803.837	0.0160448
803.915	0.0161550
803.994	0.0162406
804.072	0.0160777
804.150	0.0161165
804.228	0.0161727
804.306	0.0162270
804.384	0.0162415
804.462	0.0162296
804.540	0.0161961
804.619	0.0162453
804.697	0.0162402
804.775	0.0162472
804.853	0.0162009
804.931	0.0159785
805.009	0.0161686
805.087	0.0161936
805.165	0.0162064
805.244	0.0161177
805.322	0.0161474
805.400	0.0164080
805.478	0.0161423
805.556	0.0161076
805.634	0.0162429
805.712	0.0161047
805.790	0.0161453
805.869	0.0161580
805.947	0.0162728
806.025	0.0161017
806.103	0.0163902
806.181	0.0163189
806.259	0.0162145
806.337	0.0162753
806.415	0.0162907
806.494	0.0163128
806.572	0.0162273
806.650	0.0162021
806.728	0.0161320
806.806	0.0162275
806.884	0.0162788
806.962	0.0161550
807.040	0.0162434
807.119	0.0160658
807.197	0.0161684
807.275	0.0162396
807.353	0.0161769
807.431	0.0160297
807.509	0.0160991
807.587	0.0160861
807.665	0.0160890
807.744	0.0160300
807.822	0.0161919
807.900	0.0162604
807.978	0.0160905
808.056	0.0162887
808.134	0.0163302
808.212	0.0161951
808.290	0.0163268
808.369	0.0163232
808.447	0.0163538
808.525	0.0164078
808.603	0.0162833
808.681	0.0161440
808.759	0.0162544
808.837	0.0163354
808.915	0.0162809
808.994	0.0160595
809.072	0.0162159
809.150	0.0161710
809.228	0.0160836
809.306	0.0161914
809.384	0.0162517
809.462	0.0161559
809.540	0.0162210
809.619	0.0162031
809.697	0.0162299
809.775	0.0162342
809.853	0.0161397
809.931	0.0162297
810.009	0.0162671
810.087	0.0162093
810.165	0.0160745
810.244	0.0161893
810.322	0.0160544
810.400	0.0161123
810.478	0.0160163
810.556	0.0161330
810.634	0.0160773
810.712	0.0161377
810.790	0.0161533
810.869	0.0161559
810.947	0.0161424
811.025	0.0161669
811.103	0.0161790
811.181	0.0161389
811.259	0.0161279
811.337	0.0159790
811.415	0.0160974
811.494	0.0161828
811.572	0.0161465
811.650	0.0160963
811.728	0.0161082
811.806	0.0161794
811.884	0.0161010
811.962	0.0160308
812.040	0.0161494
812.119	0.0161794
812.197	0.0160832
812.275	0.0161707
812.353	0.0162800
812.431	0.0162373
812.509	0.0162627
812.587	0.0162759
812.665	0.0163844
812.744	0.0164569
812.822	0.0162601
812.900	0.0164322
812.978	0.0164340
813.056	0.0163959
813.134	0.0163277
813.212	0.0163956
813.290	0.0162533
813.369	0.0162707
813.447	0.0162754
813.525	0.0161510
813.603	0.0162434
813.681	0.0162368
813.759	0.0162158
813.837	0.0162370
813.915	0.0159831
813.994	0.0161116
814.072	0.0161048
814.150	0.0162592
814.228	0.0160327
814.306	0.0161488
814.384	0.0160488
814.462	0.0161736
814.540	0.0161407
814.619	0.0162572
814.697	0.0162897
814.775	0.0161564
814.853	0.0162148
814.931	0.0161753
815.009	0.0161901
815.087	0.0161367
815.165	0.0162840
815.244	0.0161486
815.322	0.0161547
815.400	0.0162923
815.478	0.0161423
815.556	0.0161480
815.634	0.0161920
815.712	0.0161385
815.790	0.0162611
815.869	0.0160429
815.947	0.0160435
816.025	0.0161864
816.103	0.0163927
816.181	0.0162373
816.259	0.0160873
816.337	0.0161988
816.415	0.0161214
816.494	0.0161040
816.572	0.0162451
816.650	0.0161916
816.728	0.0163448
816.806	0.0162289
816.884	0.0161117
816.962	0.0160992
817.040	0.0162750
817.119	0.0163079
817.197	0.0162334
817.275	0.0161293
817.353	0.0162392
817.431	0.0161427
817.509	0.0161270
817.587	0.0161979
817.665	0.0161862
817.744	0.0160989
817.822	0.0159908
817.900	0.0161878
817.978	0.0160567
818.056	0.0160270
818.134	0.0160464
818.212	0.0159457
818.290	0.0160611
818.369	0.0159515
818.447	0.0159665
818.525	0.0157923
818.603	0.0158829
818.681	0.0160796
818.759	0.0159949
818.837	0.0160088
818.915	0.0158671
818.994	0.0160212
819.072	0.0159268
819.150	0.0159913
819.228	0.0160948
819.306	0.0160020
819.384	0.0160468
819.462	0.0161609
819.540	0.0161780
819.619	0.0159460
819.697	0.0160117
819.775	0.0161437
819.853	0.0161070
819.931	0.0161924
820.009	0.0163094
820.087	0.0161509
820.165	0.0162793
820.244	0.0162948
820.322	0.0163305
820.400	0.0162084
820.478	0.0162763
820.556	0.0163490
820.634	0.0163613
820.712	0.0165211
820.790	0.0163693
820.869	0.0163400
820.947	0.0163043
821.025	0.0163879
821.103	0.0162128
821.181	0.0164388
821.259	0.0163204
821.337	0.0164787
821.415	0.0164145
821.494	0.0163326
821.572	0.0163310
821.650	0.0164058
821.728	0.0162348
821.806	0.0162222
821.884	0.0161523
821.962	0.0162338
822.040	0.0162175
822.119	0.0161952
822.197	0.0160991
822.275	0.0162238
822.353	0.0161066
822.431	0.0160579
822.509	0.0159453
822.587	0.0159178
822.665	0.0159782
822.744	0.0158705
822.822	0.0160453
822.900	0.0158865
822.978	0.0159680
823.056	0.0159711
823.134	0.0159502
823.212	0.0159238
823.290	0.0159496
823.369	0.0157491
823.447	0.0159583
823.525	0.0158263
823.603	0.0160266
823.681	0.0159936
823.759	0.0159594
823.837	0.0160912
823.915	0.0160608
823.994	0.0160619
824.072	0.0159715
824.150	0.0159657
824.228	0.0161442
824.306	0.0160594
824.384	0.0162037
824.462	0.0161520
824.540	0.0161591
824.619	0.0162869
824.697	0.0161942
824.775	0.0161493
824.853	0.0162809
824.931	0.0161894
825.009	0.0161379
825.087	0.0160717
825.165	0.0161148
825.244	0.0161791
825.322	0.0161942
825.400	0.0161246
825.478	0.0162813
825.556	0.0161942
825.634	0.0162067
825.712	0.0161996
825.790	0.0160955
825.869	0.0163200
825.947	0.0162034
826.025	0.0162948
826.103	0.0162524
826.181	0.0161584
826.259	0.0162360
826.337	0.0161938
826.415	0.0162977
826.494	0.0163054
826.572	0.0162942
826.650	0.0163692
826.728	0.0164427
826.806	0.0163877
826.884	0.0162212
826.962	0.0162895
827.040	0.0162584
827.119	0.0163142
827.197	0.0162215
827.275	0.0163280
827.353	0.0162131
827.431	0.0160320
827.509	0.0161427
827.587	0.0161388
827.665	0.0161398
827.744	0.0161530
827.822	0.0160368
827.900	0.0160617
827.978	0.0160964
828.056	0.0160824
828.134	0.0161204
828.212	0.0161533
828.290	0.0160135
828.369	0.0160806
828.447	0.0160854
828.525	0.0162203
828.603	0.0161876
828.681	0.0161196
828.759	0.0161520
828.837	0.0161121
828.915	0.0160712
828.994	0.0160568
829.072	0.0161504
829.150	0.0161447
829.228	0.0162014
829.306	0.0161088
829.384	0.0160258
829.462	0.0162054
829.540	0.0161175
829.619	0.0161787
829.697	0.0161129
829.775	0.0160960
829.853	0.0162257
829.931	0.0160885
830.009	0.0161369
830.087	0.0161867
830.165	0.0161906
830.244	0.0161693
830.322	0.0161564
830.400	0.0162159
830.478	0.0161648
830.556	0.0161876
830.634	0.0161182
830.712	0.0161332
830.790	0.0161774
830.869	0.0162587
830.947	0.0162232
831.025	0.0162633
831.103	0.0162566
831.181	0.0163411
831.259	0.0162244
831.337	0.0161394
831.415	0.0161650
831.494	0.0162492
831.572	0.0162456
831.650	0.0161896
831.728	0.0163128
831.806	0.0162434
831.884	0.0161699
831.962	0.0164018
832.040	0.0162995
832.119	0.0162782
832.197	0.0162730
832.275	0.0161911
832.353	0.0161967
832.431	0.0163060
832.509	0.0161497
832.587	0.0161984
832.665	0.0162018
832.744	0.0162238
832.822	0.0161853
832.900	0.0160752
832.978	0.0160345
833.056	0.0162014
833.134	0.0161495
833.212	0.0160635
833.290	0.0159344
833.369	0.0160803
833.447	0.0161920
833.525	0.0161658
833.603	0.0159906
833.681	0.0159193
833.759	0.0159903
833.837	0.0160909
833.915	0.0160008
833.994	0.0159772
834.072	0.0160381
834.150	0.0160216
834.228	0.0160818
834.306	0.0160291
834.384	0.0161267
834.462	0.0160501
834.540	0.0161156
834.619	0.0162363
834.697	0.0161251
834.775	0.0161749
834.853	0.0161102
834.931	0.0160826
835.009	0.0160545
835.087	0.0162278
835.165	0.0162428
835.244	0.0161581
835.322	0.0161910
835.400	0.0161964
835.478	0.0162587
835.556	0.0163747
835.634	0.0162241
835.712	0.0161436
835.790	0.0161606
835.869	0.0161352
835.947	0.0161745
836.025	0.0163400
836.103	0.0163560
836.181	0.0163670
836.259	0.0162650
836.337	0.0163346
836.415	0.0162612
836.494	0.0162279
836.572	0.0162032
836.650	0.0162830
836.728	0.0163076
836.806	0.0162133
836.884	0.0162261
836.962	0.0161273
837.040	0.0162160
837.119	0.0161722
837.197	0.0162377
837.275	0.0162388
837.353	0.0163340
837.431	0.0160744
837.509	0.0161741
837.587	0.0161333
837.665	0.0161331
837.744	0.0162428
837.822	0.0162063
837.900	0.0161371
837.978	0.0160479
838.056	0.0161288
838.134	0.0160186
838.212	0.0160503
838.290	0.0163279
838.369	0.0161606
838.447	0.0160252
838.525	0.0161553
838.603	0.0160508
838.681	0.0159188
838.759	0.0160170
838.837	0.0161620
838.915	0.0160691
838.994	0.0161186
839.072	0.0161739
839.150	0.0161825
839.228	0.0159956
839.306	0.0161007
839.384	0.0161098
839.462	0.0159977
839.540	0.0160628
839.619	0.0160432
839.697	0.0161302
839.775	0.0160535
839.853	0.0160880
839.931	0.0160800
840.009	0.0160799
840.087	0.0160220
840.165	0.0160222
840.244	0.0160815
840.322	0.0161383
840.400	0.0160075
840.478	0.0160669
840.556	0.0160995
840.634	0.0160551
840.712	0.0161135
840.790	0.0161853
840.869	0.0159929
840.947	0.0160625
841.025	0.0161841
841.103	0.0161772
841.181	0.0161378
841.259	0.0161434
841.337	0.0163123
841.415	0.0161832
841.494	0.0162115
841.572	0.0161618
841.650	0.0162605
841.728	0.0161166
841.806	0.0163422
841.884	0.0162180
841.962	0.0160122
842.040	0.0161041
842.119	0.0163232
842.197	0.0161678
842.275	0.0161404
842.353	0.0161369
842.431	0.0161436
842.509	0.0161793
842.587	0.0161119
842.665	0.0161610
842.744	0.0162001
842.822	0.0161100
842.900	0.0162045
842.978	0.0162415
843.056	0.0160902
843.134	0.0161829
843.212	0.0162455
843.290	0.0162656
843.369	0.0162627
843.447	0.0160443
843.525	0.0161775
843.603	0.0162425
843.681	0.0161510
843.759	0.0162023
843.837	0.0161590
843.915	0.0161214
843.994	0.0160776
844.072	0.0159825
844.150	0.0160654
844.228	0.0160658
844.306	0.0160377
844.384	0.0160674
844.462	0.0161749
844.540	0.0161804
844.619	0.0160783
844.697	0.0161970
844.775	0.0161217
844.853	0.0161642
844.931	0.0162261
845.009	0.0162009
845.087	0.0162372
845.165	0.0163010
845.244	0.0161359
845.322	0.0161774
845.400	0.0163061
845.478	0.0161464
845.556	0.0161755
845.634	0.0162278
845.712	0.0160818
845.790	0.0161211
845.869	0.0160354
845.947	0.0160711
846.025	0.0161111
846.103	0.0161529
846.181	0.0160712
846.259	0.0160057
846.337	0.0161488
846.415	0.0161105
846.494	0.0159329
846.572	0.0160251
846.650	0.0160274
846.728	0.0160880
846.806	0.0160929
846.884	0.0161084
846.962	0.0159675
847.040	0.0159976
847.119	0.0161367
847.197	0.0159639
847.275	0.0160220
847.353	0.0161207
847.431	0.0159875
847.509	0.0160997
847.587	0.0161306
847.665	0.0159956
847.744	0.0160703
847.822	0.0160211
847.900	0.0158701
847.978	0.0160009
848.056	0.0161223
848.134	0.0160148
848.212	0.0160565
848.290	0.0160764
848.369	0.0161188
848.447	0.0161879
848.525	0.0160799
848.603	0.0161820
848.681	0.0161842
848.759	0.0161962
848.837	0.0162240
848.915	0.0162706
848.994	0.0161636
849.072	0.0159949
849.150	0.0162561
849.228	0.0162408
849.306	0.0162448
849.384	0.0161253
849.462	0.0162087
849.540	0.0161754
849.619	0.0161059
849.697	0.0161474
849.775	0.0163305
849.853	0.0160392
849.931	0.0160416
850.009	0.0162212
850.087	0.0161627
850.165	0.0160832
850.244	0.0161906
850.322	0.0161208
850.400	0.0161674
850.478	0.0163374
850.556	0.0161734
850.634	0.0161829
850.712	0.0160822
850.790	0.0161017
850.869	0.0161488
850.947	0.0161583
851.025	0.0161314
851.103	0.0160596
851.181	0.0159680
851.259	0.0160997
851.337	0.0161439
851.415	0.0159138
851.494	0.0161430
851.572	0.0161095
851.650	0.0160075
851.728	0.0159753
851.806	0.0161723
851.884	0.0160906
851.962	0.0160666
852.040	0.0160322
852.119	0.0160607
852.197	0.0160459
852.275	0.0160983
852.353	0.0162821
852.431	0.0161816
852.509	0.0160170
852.587	0.0161172
852.665	0.0161468
852.744	0.0162407
852.822	0.0162368
852.900	0.0162256
852.978	0.0161419
853.056	0.0161755
853.134	0.0162126
853.212	0.0161414
853.290	0.0161733
853.369	0.0160716
853.447	0.0161983
853.525	0.0161604
853.603	0.0160816
853.681	0.0163041
853.759	0.0161192
853.837	0.0160509
853.915	0.0160887
853.994	0.0161359
854.072	0.0161036
854.150	0.0161794
854.228	0.0161099
854.306	0.0160903
854.384	0.0160950
854.462	0.0161777
854.540	0.0159963
854.619	0.0161372
854.697	0.0160565
854.775	0.0161765
854.853	0.0162187
854.931	0.0162258
855.009	0.0161420
855.087	0.0161212
855.165	0.0160440
855.244	0.0160944
855.322	0.0162115
855.400	0.0161749
855.478	0.0160904
855.556	0.0160011
855.634	0.0161047
855.712	0.0160204
855.790	0.0159200
855.869	0.0161531
855.947	0.0160603
856.025	0.0159129
856.103	0.0159318
856.181	0.0160653
856.259	0.0161457
856.337	0.0161026
856.415	0.0159685
856.494	0.0159855
856.572	0.0160964
856.650	0.0160500
856.728	0.0158439
856.806	0.0161092
856.884	0.0162145
856.962	0.0161475
857.040	0.0160810
857.119	0.0161039
857.197	0.0160770
857.275	0.0162101
857.353	0.0162473
857.431	0.0162494
857.509	0.0162316
857.587	0.0162698
857.665	0.0164839
857.744	0.0162525
857.822	0.0163277
857.900	0.0163192
857.978	0.0162003
858.056	0.0161951
858.134	0.0162380
858.212	0.0162430
858.290	0.0162112
858.369	0.0162284
858.447	0.0160569
858.525	0.0163165
858.603	0.0162357
858.681	0.0161141
858.759	0.0162136
858.837	0.0162708
858.915	0.0161487
858.994	0.0160310
859.072	0.0162357
859.150	0.0161627
859.228	0.0159023
859.306	0.0160627
859.384	0.0160900
859.462	0.0160655
859.540	0.0161391
859.619	0.0160860
859.697	0.0160463
859.775	0.0160382
859.853	0.0161575
859.931	0.0161241
860.009	0.0161848
860.087	0.0160635
860.165	0.0159346
860.244	0.0159668
860.322	0.0159404
860.400	0.0159016
860.478	0.0159867
860.556	0.0160752
860.634	0.0160581
860.712	0.0160603
860.790	0.0160882
860.869	0.0160168
860.947	0.0159981
861.025	0.0159309
861.103	0.0160050
861.181	0.0161673
861.259	0.0161826
861.337	0.0161280
861.415	0.0161333
861.494	0.0161666
861.572	0.0161819
861.650	0.0161011
861.728	0.0162602
861.806	0.0163359
861.884	0.0163298
861.962	0.0162883
862.040	0.0163054
862.119	0.0164155
862.197	0.0162349
862.275	0.0162435
862.353	0.0162186
862.431	0.0161706
862.509	0.0162553
862.587	0.0162797
862.665	0.0163210
862.744	0.0162681
862.822	0.0161864
862.900	0.0161513
862.978	0.0161984
863.056	0.0162276
863.134	0.0162605
863.212	0.0162247
863.290	0.0162839
863.369	0.0162094
863.447	0.0161761
863.525	0.0162146
863.603	0.0161815
863.681	0.0161816
863.759	0.0161919
863.837	0.0161774
863.915	0.0162539
863.994	0.0160794
864.072	0.0159509
864.150	0.0160238
864.228	0.0160464
864.306	0.0161792
864.384	0.0160642
864.462	0.0160763
864.540	0.0160483
864.619	0.0160825
864.697	0.0159960
864.775	0.0158871
864.853	0.0159653
864.931	0.0158901
865.009	0.0159830
865.087	0.0160277
865.165	0.0160254
865.244	0.0159912
865.322	0.0159109
865.400	0.0159764
865.478	0.0160268
865.556	0.0160851
865.634	0.0160603
865.712	0.0158445
865.790	0.0160794
865.869	0.0161893
865.947	0.0159739
866.025	0.0160929
866.103	0.0161654
866.181	0.0161741
866.259	0.0161492
866.337	0.0161574
866.415	0.0161087
866.494	0.0160939
866.572	0.0162204
866.650	0.0160800
866.728	0.0161256
866.806	0.0163325
866.884	0.0162202
866.962	0.0163056
867.040	0.0160606
867.119	0.0163333
867.197	0.0163744
867.275	0.0162456
867.353	0.0161987
867.431	0.0162568
867.509	0.0164086
867.587	0.0163618
867.665	0.0161607
867.744	0.0161279
867.822	0.0160910
867.900	0.0161352
867.978	0.0162103
868.056	0.0159470
868.134	0.0161405
868.212	0.0161398
868.290	0.0161655
868.369	0.0160600
868.447	0.0160398
868.525	0.0161267
868.603	0.0161598
868.681	0.0160654
868.759	0.0161163
868.837	0.0160567
868.915	0.0162271
868.994	0.0160017
869.072	0.0159961
869.150	0.0159750
869.228	0.0160032
869.306	0.0160491
869.384	0.0159827
869.462	0.0160245
869.540	0.0159570
869.619	0.0159988
869.697	0.0160710
869.775	0.0160555
869.853	0.0158832
869.931	0.0160397
870.009	0.0160171
870.087	0.0160342
870.165	0.0159963
870.244	0.0160802
870.322	0.0161004
870.400	0.0160783
870.478	0.0161056
870.556	0.0160525
870.634	0.0160979
870.712	0.0162772
870.790	0.0163074
870.869	0.0161071
870.947	0.0163029
871.025	0.0161656
871.103	0.0161869
871.181	0.0162300
871.259	0.0161971
871.337	0.0161029
871.415	0.0162032
871.494	0.0161467
871.572	0.0161331
871.650	0.0162718
871.728	0.0163299
871.806	0.0161417
871.884	0.0160825
871.962	0.0162711
872.040	0.0164193
872.119	0.0161685
872.197	0.0160444
872.275	0.0160833
872.353	0.0160925
872.431	0.0161393
872.509	0.0160764
872.587	0.0161990
872.665	0.0160062
872.744	0.0162691
872.822	0.0160751
872.900	0.0160067
872.978	0.0161776
873.056	0.0160448
873.134	0.0159732
873.212	0.0160171
873.290	0.0160313
873.369	0.0160303
873.447	0.0160351
873.525	0.0161167
873.603	0.0160169
873.681	0.0160867
873.759	0.0159715
873.837	0.0160242
873.915	0.0161122
873.994	0.0159538
874.072	0.0160666
874.150	0.0161729
874.228	0.0160609
874.306	0.0160890
874.384	0.0161330
874.462	0.0161990
874.540	0.0161620
874.619	0.0161462
874.697	0.0163225
874.775	0.0163246
874.853	0.0163512
874.931	0.0161900
875.009	0.0162663
875.087	0.0163757
875.165	0.0162899
875.244	0.0162988
875.322	0.0162236
875.400	0.0162611
875.478	0.0163152
875.556	0.0162341
875.634	0.0162415
875.712	0.0161427
875.790	0.0160857
875.869	0.0160286
875.947	0.0161919
876.025	0.0161426
876.103	0.0161034
876.181	0.0160239
876.259	0.0160085
876.337	0.0160207
876.415	0.0160084
876.494	0.0160733
876.572	0.0159533
876.650	0.0160410
876.728	0.0160461
876.806	0.0159902
876.884	0.0161127
876.962	0.0159564
877.040	0.0158997
877.119	0.0161304
877.197	0.0160715
877.275	0.0160075
877.353	0.0161510
877.431	0.0160998
877.509	0.0161316
877.587	0.0160970
877.665	0.0160809
877.744	0.0162330
877.822	0.0162538
877.900	0.0161868
877.978	0.0162028
878.056	0.0164479
878.134	0.0162257
878.212	0.0162231
878.290	0.0163879
878.369	0.0162445
878.447	0.0164880
878.525	0.0164036
878.603	0.0163081
878.681	0.0163332
878.759	0.0162571
878.837	0.0164508
878.915	0.0163544
878.994	0.0163013
879.072	0.0162786
879.150	0.0162018
879.228	0.0162753
879.306	0.0161398
879.384	0.0162959
879.462	0.0163351
879.540	0.0161774
879.619	0.0161732
879.697	0.0162130
879.775	0.0161218
879.853	0.0162579
879.931	0.0162299
880.009	0.0161626
880.087	0.0160474
880.165	0.0162758
880.244	0.0161250
880.322	0.0161127
880.400	0.0160945
880.478	0.0160458
880.556	0.0159970
880.634	0.0160624
880.712	0.0159590
880.790	0.0159907
880.869	0.0161147
880.947	0.0161477
881.025	0.0161403
881.103	0.0160118
881.181	0.0161755
881.259	0.0161302
881.337	0.0160796
881.415	0.0160958
881.494	0.0160235
881.572	0.0161819
881.650	0.0160833
881.728	0.0161527
881.806	0.0162040
881.884	0.0163654
881.962	0.0163333
882.040	0.0163191
882.119	0.0164551
882.197	0.0163255
882.275	0.0163271
882.353	0.0164093
882.431	0.0163505
882.509	0.0163643
882.587	0.0162961
882.665	0.0162661
882.744	0.0162105
882.822	0.0161452
882.900	0.0163280
882.978	0.0163195
883.056	0.0161766
883.134	0.0161040
883.212	0.0160774
883.290	0.0161245
883.369	0.0161146
883.447	0.0159522
883.525	0.0160582
883.603	0.0160364
883.681	0.0160480
883.759	0.0160116
883.837	0.0160821
883.915	0.0161522
883.994	0.0159896
884.072	0.0161897
884.150	0.0161188
884.228	0.0161294
884.306	0.0162461
884.384	0.0162261
884.462	0.0163718
884.540	0.0162540
884.619	0.0163137
884.697	0.0164042
884.775	0.0164431
884.853	0.0163848
884.931	0.0161337
885.009	0.0162103
885.087	0.0161578
885.165	0.0160988
885.244	0.0161671
885.322	0.0161329
885.400	0.0160849
885.478	0.0162341
885.556	0.0160549
885.634	0.0161380
885.712	0.0160612
885.790	0.0160835
885.869	0.0160933
885.947	0.0159783
886.025	0.0161526
886.103	0.0161279
886.181	0.0161743
886.259	0.0162341
886.337	0.0161890
886.415	0.0163116
886.494	0.0162730
886.572	0.0162005
886.650	0.0163789
886.728	0.0162885
886.806	0.0163328
886.884	0.0162681
886.962	0.0162202
887.040	0.0163674
887.119	0.0162943
887.197	0.0163367
887.275	0.0162025
887.353	0.0161430
887.431	0.0163698
887.509	0.0162566
887.587	0.0162345
887.665	0.0159777
887.744	0.0160973
887.822	0.0160907
887.900	0.0160210
887.978	0.0160725
888.056	0.0161879
888.134	0.0160983
888.212	0.0161066
888.290	0.0160856
888.369	0.0160124
888.447	0.0161471
888.525	0.0161732
888.603	0.0161600
888.681	0.0163667
888.759	0.0163842
888.837	0.0163149
888.915	0.0162566
888.994	0.0162023
889.072	0.0162723
889.150	0.0161821
889.228	0.0162808
889.306	0.0162048
889.384	0.0160390
889.462	0.0162830
889.540	0.0161732
889.619	0.0162083
889.697	0.0160296
889.775	0.0160420
889.853	0.0160434
889.931	0.0161794
890.009	0.0162371
890.087	0.0161446
890.165	0.0160223
890.244	0.0161526
890.322	0.0162746
890.400	0.0161765
890.478	0.0162337
890.556	0.0161256
890.634	0.0160870
890.712	0.0160838
890.790	0.0161167
890.869	0.0161894
890.947	0.0160507
891.025	0.0161398
891.103	0.0162968
891.181	0.0162277
891.259	0.0162379
891.337	0.0162283
891.415	0.0163528
891.494	0.0163836
891.572	0.0162306
891.650	0.0162550
891.728	0.0162412
891.806	0.0162085
891.884	0.0162652
891.962	0.0161741
892.040	0.0162328
892.119	0.0161342
892.197	0.0162640
892.275	0.0161459
892.353	0.0161754
892.431	0.0160593
892.509	0.0160567
892.587	0.0159345
892.665	0.0159233
892.744	0.0161359
892.822	0.0160344
892.900	0.0161913
892.978	0.0159596
893.056	0.0160866
893.134	0.0162301
893.212	0.0162339
893.290	0.0161861
893.369	0.0160361
893.447	0.0162234
893.525	0.0162120
893.603	0.0162366
893.681	0.0161897
893.759	0.0160790
893.837	0.0161870
893.915	0.0162560
893.994	0.0161525
894.072	0.0162181
894.150	0.0161028
894.228	0.0161033
894.306	0.0161448
894.384	0.0161343
894.462	0.0162000
894.540	0.0160310
894.619	0.0161462
894.697	0.0160783
894.775	0.0160275
894.853	0.0160926
894.931	0.0161091
895.009	0.0160932
895.087	0.0160940
895.165	0.0161279
895.244	0.0160210
895.322	0.0159923
895.400	0.0161722
895.478	0.0160247
895.556	0.0159924
895.634	0.0161720
895.712	0.0162139
895.790	0.0160432
895.869	0.0160911
895.947	0.0163344
896.025	0.0160794
896.103	0.0162118
896.181	0.0162852
896.259	0.0162341
896.337	0.0161691
896.415	0.0163572
896.494	0.0162002
896.572	0.0161967
896.650	0.0161076
896.728	0.0161890
896.806	0.0163022
896.884	0.0161706
896.962	0.0161602
897.040	0.0161034
897.119	0.0162637
897.197	0.0162792
897.275	0.0160064
897.353	0.0160657
897.431	0.0161386
897.509	0.0162600
897.587	0.0162289
897.665	0.0161440
897.744	0.0161510
897.822	0.0160368
897.900	0.0159210
897.978	0.0159621
898.056	0.0162746
898.134	0.0160760
898.212	0.0162138
898.290	0.0161913
898.369	0.0162508
898.447	0.0161731
898.525	0.0161519
898.603	0.0161393
898.681	0.0160880
898.759	0.0161587
898.837	0.0161971
898.915	0.0160981
898.994	0.0160568
899.072	0.0161433
899.150	0.0161996
899.228	0.0162149
899.306	0.0161287
899.384	0.0162337
899.462	0.0162165
899.540	0.0161932
899.619	0.0162431
899.697	0.0161726
899.775	0.0161703
899.853	0.0162019
899.931	0.0161180
900.009	0.0162058
900.087	0.0161155
900.165	0.0161681
900.244	0.0161352
900.322	0.0162592
900.400	0.0162868
900.478	0.0160497
900.556	0.0160632
900.634	0.0160863
900.712	0.0162074
900.790	0.0161810
900.869	0.0161575
900.947	0.0161700
901.025	0.0162645
901.103	0.0162769
901.181	0.0161428
901.259	0.0161362
901.337	0.0162974
901.415	0.0159977
901.494	0.0160025
901.572	0.0161844
901.650	0.0161557
901.728	0.0160580
901.806	0.0161018
901.884	0.0162700
901.962	0.0162162
902.040	0.0161928
902.119	0.0163876
902.197	0.0163213
902.275	0.0162558
902.353	0.0162361
902.431	0.0163398
902.509	0.0162418
902.587	0.0162536
902.665	0.0163306
902.744	0.0163076
902.822	0.0162505
902.900	0.0163304
902.978	0.0163655
903.056	0.0162414
903.134	0.0162809
903.212	0.0163306
903.290	0.0163146
903.369	0.0164140
903.447	0.0164425
903.525	0.0163456
903.603	0.0164491
903.681	0.0163497
903.759	0.0162111
903.837	0.0162756
903.915	0.0162630
903.994	0.0163509
904.072	0.0163021
904.150	0.0163928
904.228	0.0162086
904.306	0.0161406
904.384	0.0162441
904.462	0.0162822
904.540	0.0162739
904.619	0.0161229
904.697	0.0161623
904.775	0.0161609
904.853	0.0161935
904.931	0.0163440
905.009	0.0161517
905.087	0.0161700
905.165	0.0160348
905.244	0.0160622
905.322	0.0160629
905.400	0.0159995
905.478	0.0160796
905.556	0.0160684
905.634	0.0161872
905.712	0.0161173
905.790	0.0160614
905.869	0.0161155
905.947	0.0160943
906.025	0.0161469
906.103	0.0161795
906.181	0.0161745
906.259	0.0162025
906.337	0.0161189
906.415	0.0161629
906.494	0.0162305
906.572	0.0160810
906.650	0.0161281
906.728	0.0162167
906.806	0.0159926
906.884	0.0161917
906.962	0.0163583
907.040	0.0163187
907.119	0.0164636
907.197	0.0163935
907.275	0.0164387
907.353	0.0165377
907.431	0.0163985
907.509	0.0163485
907.587	0.0164776
907.665	0.0164690
907.744	0.0164120
907.822	0.0164568
907.900	0.0164991
907.978	0.0162753
908.056	0.0163539
908.134	0.0162513
908.212	0.0163705
908.290	0.0163029
908.369	0.0162786
908.447	0.0162617
908.525	0.0162388
908.603	0.0162187
908.681	0.0161294
908.759	0.0160780
908.837	0.0159952
908.915	0.0160874
908.994	0.0162019
909.072	0.0161211
909.150	0.0160004
909.228	0.0159313
909.306	0.0161693
909.384	0.0161004
909.462	0.0160165
909.540	0.0159495
909.619	0.0160226
909.697	0.0159468
909.775	0.0159875
909.853	0.0160925
909.931	0.0160914
910.009	0.0159541
910.087	0.0159830
910.165	0.0159235
910.244	0.0158368
910.322	0.0158677
910.400	0.0160107
910.478	0.0159969
910.556	0.0160271
910.634	0.0161410
910.712	0.0160423
910.790	0.0162910
910.869	0.0162547
910.947	0.0160583
911.025	0.0160126
911.103	0.0162280
911.181	0.0162874
911.259	0.0162324
911.337	0.0162385
911.415	0.0161925
911.494	0.0162504
911.572	0.0162910
911.650	0.0162408
911.728	0.0162625
911.806	0.0162292
911.884	0.0162971
911.962	0.0164321
912.040	0.0164082
912.119	0.0164140
912.197	0.0162757
912.275	0.0161712
912.353	0.0163277
912.431	0.0162509
912.509	0.0161313
912.587	0.0161738
912.665	0.0162355
912.744	0.0161745
912.822	0.0161991
912.900	0.0163029
912.978	0.0160488
913.056	0.0160884
913.134	0.0161038
913.212	0.0161620
913.290	0.0161290
913.369	0.0162875
913.447	0.0160955
913.525	0.0161485
913.603	0.0161807
913.681	0.0161043
913.759	0.0161631
913.837	0.0160316
913.915	0.0160774
913.994	0.0160460
914.072	0.0160900
914.150	0.0160956
914.228	0.0160536
914.306	0.0161118
914.384	0.0161734
914.462	0.0160439
914.540	0.0160503
914.619	0.0159416
914.697	0.0159684
914.775	0.0160833
914.853	0.0161792
914.931	0.0161434
915.009	0.0161127
915.087	0.0160607
915.165	0.0160535
915.244	0.0159650
915.322	0.0160818
915.400	0.0161555
915.478	0.0162211
915.556	0.0162601
915.634	0.0162798
915.712	0.0160899
915.790	0.0161561
915.869	0.0162177
915.947	0.0161996
916.025	0.0162699
916.103	0.0161182
916.181	0.0162909
916.259	0.0162419
916.337	0.0160438
916.415	0.0162324
916.494	0.0162595
916.572	0.0161932
916.650	0.0162209
916.728	0.0162521
916.806	0.0163198
916.884	0.0163084
916.962	0.0163317
917.040	0.0162510
917.119	0.0163641
917.197	0.0163819
917.275	0.0163490
917.353	0.0162887
917.431	0.0164423
917.509	0.0162315
917.587	0.0163642
917.665	0.0163446
917.744	0.0162666
917.822	0.0162321
917.900	0.0162907
917.978	0.0163356
918.056	0.0163028
918.134	0.0162083
918.212	0.0161706
918.290	0.0161732
918.369	0.0161464
918.447	0.0161752
918.525	0.0161497
918.603	0.0161874
918.681	0.0161097
918.759	0.0161533
918.837	0.0160968
918.915	0.0160367
918.994	0.0159474
919.072	0.0162146
919.150	0.0160151
919.228	0.0160474
919.306	0.0160773
919.384	0.0159989
919.462	0.0159978
919.540	0.0161406
919.619	0.0161391
919.697	0.0160288
919.775	0.0159698
919.853	0.0161436
919.931	0.0161026
920.009	0.0159749
920.087	0.0160591
920.165	0.0160719
920.244	0.0160951
920.322	0.0161874
920.400	0.0160050
920.478	0.0161634
920.556	0.0160877
920.634	0.0160567
920.712	0.0161839
920.790	0.0161634
920.869	0.0161814
920.947	0.0162505
921.025	0.0162259
921.103	0.0162473
921.181	0.0161887
921.259	0.0162340
921.337	0.0162344
921.415	0.0163720
921.494	0.0164108
921.572	0.0163971
921.650	0.0163783
921.728	0.0161993
921.806	0.0164818
921.884	0.0163702
921.962	0.0161891
922.040	0.0164641
922.119	0.0164141
922.197	0.0162514
922.275	0.0162932
922.353	0.0163500
922.431	0.0161477
922.509	0.0163454
922.587	0.0160218
922.665	0.0161671
922.744	0.0162263
922.822	0.0162896
922.900	0.0162271
922.978	0.0162218
923.056	0.0161650
923.134	0.0162343
923.212	0.0163315
923.290	0.0161446
923.369	0.0162165
923.447	0.0162145
923.525	0.0162798
923.603	0.0160749
923.681	0.0161235
923.759	0.0162138
923.837	0.0160605
923.915	0.0161886
923.994	0.0162075
924.072	0.0161021
924.150	0.0160797
924.228	0.0161018
924.306	0.0161877
924.384	0.0160434
924.462	0.0160965
924.540	0.0161524
924.619	0.0159927
924.697	0.0160591
924.775	0.0160856
924.853	0.0160751
924.931	0.0161539
925.009	0.0161449
925.087	0.0160757
925.165	0.0162101
925.244	0.0162347
925.322	0.0161774
925.400	0.0162825
925.478	0.0163177
925.556	0.0160716
925.634	0.0161610
925.712	0.0162635
925.790	0.0161176
925.869	0.0161057
925.947	0.0161852
926.025	0.0161245
926.103	0.0161466
926.181	0.0161529
926.259	0.0162513
926.337	0.0162392
926.415	0.0160538
926.494	0.0160822
926.572	0.0162238
926.650	0.0162181
926.728	0.0162367
926.806	0.0160741
926.884	0.0162171
926.962	0.0160867
927.040	0.0162044
927.119	0.0161404
927.197	0.0162751
927.275	0.0162119
927.353	0.0161719
927.431	0.0162117
927.509	0.0162733
927.587	0.0163438
927.665	0.0162468
927.744	0.0162198
927.822	0.0162560
927.900	0.0162971
927.978	0.0161029
928.056	0.0159852
928.134	0.0160651
928.212	0.0161581
928.290	0.0161656
928.369	0.0161359
928.447	0.0160101
928.525	0.0160081
928.603	0.0161855
928.681	0.0161795
928.759	0.0161295
928.837	0.0160255
928.915	0.0160801
928.994	0.0160588
929.072	0.0162152
929.150	0.0160290
929.228	0.0162213
929.306	0.0160994
929.384	0.0161703
929.462	0.0160642
929.540	0.0161113
929.619	0.0162501
929.697	0.0162806
929.775	0.0161639
929.853	0.0162492
929.931	0.0161411
930.009	0.0161188
930.087	0.0162065
930.165	0.0160856
930.244	0.0162683
930.322	0.0161710
930.400	0.0162092
930.478	0.0160630
930.556	0.0160296
930.634	0.0161344
930.712	0.0160870
930.790	0.0161209
930.869	0.0163371
930.947	0.0160464
931.025	0.0162231
931.103	0.0162822
931.181	0.0159406
931.259	0.0160702
931.337	0.0161618
931.415	0.0161677
931.494	0.0162355
931.572	0.0160914
931.650	0.0162334
931.728	0.0162017
931.806	0.0160641
931.884	0.0160809
931.962	0.0160449
932.040	0.0161781
932.119	0.0161488
932.197	0.0160323
932.275	0.0162384
932.353	0.0162388
932.431	0.0161709
932.509	0.0161263
932.587	0.0160950
932.665	0.0162334
932.744	0.0161648
932.822	0.0162026
932.900	0.0161032
932.978	0.0160690
933.056	0.0161520
933.134	0.0161423
933.212	0.0161197
933.290	0.0161353
933.369	0.0161526
933.447	0.0161299
933.525	0.0161709
933.603	0.0162280
933.681	0.0162457
933.759	0.0161285
933.837	0.0161591
933.915	0.0162812
933.994	0.0161813
934.072	0.0163190
934.150	0.0162980
934.228	0.0162278
934.306	0.0161260
934.384	0.0160799
934.462	0.0161087
934.540	0.0160786
934.619	0.0163731
934.697	0.0163677
934.775	0.0162245
934.853	0.0162462
934.931	0.0162934
935.009	0.0162487
935.087	0.0162256
935.165	0.0161459
935.244	0.0161397
935.322	0.0162092
935.400	0.0161820
935.478	0.0161439
935.556	0.0162459
935.634	0.0160861
935.712	0.0162640
935.790	0.0161501
935.869	0.0161831
935.947	0.0162260
936.025	0.0161225
936.103	0.0161444
936.181	0.0161753
936.259	0.0160323
936.337	0.0160201
936.415	0.0161030
936.494	0.0161923
936.572	0.0160497
936.650	0.0161336
936.728	0.0162120
936.806	0.0160129
936.884	0.0160654
936.962	0.0162273
937.040	0.0160646
937.119	0.0160455
937.197	0.0160856
937.275	0.0162524
937.353	0.0161546
937.431	0.0161897
937.509	0.0161387
937.587	0.0161543
937.665	0.0161418
937.744	0.0161877
937.822	0.0162081
937.900	0.0161986
937.978	0.0161375
938.056	0.0161198
938.134	0.0161311
938.212	0.0160194
938.290	0.0162449
938.369	0.0160294
938.447	0.0161427
938.525	0.0160399
938.603	0.0161097
938.681	0.0160556
938.759	0.0159785
938.837	0.0160987
938.915	0.0160738
938.994	0.0160013
939.072	0.0161591
939.150	0.0161507
939.228	0.0162083
939.306	0.0162508
939.384	0.0161999
939.462	0.0162151
939.540	0.0162206
939.619	0.0163103
939.697	0.0161501
939.775	0.0161312
939.853	0.0161826
939.931	0.0163031
940.009	0.0162598
940.087	0.0161502
940.165	0.0161501
940.244	0.0161475
940.322	0.0161702
940.400	0.0160604
940.478	0.0160710
940.556	0.0161481
940.634	0.0160454
940.712	0.0161115
940.790	0.0161423
940.869	0.0161826
940.947	0.0161319
941.025	0.0161772
941.103	0.0161442
941.181	0.0162583
941.259	0.0161474
941.337	0.0162259
941.415	0.0162135
941.494	0.0162210
941.572	0.0163562
941.650	0.0163581
941.728	0.0161837
941.806	0.0162099
941.884	0.0162103
941.962	0.0162453
942.040	0.0162006
942.119	0.0162439
942.197	0.0162224
942.275	0.0161773
942.353	0.0160980
942.431	0.0161163
942.509	0.0160962
942.587	0.0162138
942.665	0.0160420
942.744	0.0160500
942.822	0.0159860
942.900	0.0162054
942.978	0.0160271
943.056	0.0161118
943.134	0.0161097
943.212	0.0160267
943.290	0.0161065
943.369	0.0161017
943.447	0.0161142
943.525	0.0160935
943.603	0.0163021
943.681	0.0161880
943.759	0.0161504
943.837	0.0162715
943.915	0.0163390
943.994	0.0161786
944.072	0.0161777
944.150	0.0162865
944.228	0.0163114
944.306	0.0161169
944.384	0.0163421
944.462	0.0162389
944.540	0.0161475
944.619	0.0161686
944.697	0.0162224
944.775	0.0161585
944.853	0.0161397
944.931	0.0162002
945.009	0.0160749
945.087	0.0160440
945.165	0.0161879
945.244	0.0163605
945.322	0.0161949
945.400	0.0162267
945.478	0.0161563
945.556	0.0163067
945.634	0.0161892
945.712	0.0162468
945.790	0.0162225
945.869	0.0160989
945.947	0.0161720
946.025	0.0161480
946.103	0.0162406
946.181	0.0161864
946.259	0.0161860
946.337	0.0161113
946.415	0.0160950
946.494	0.0160808
946.572	0.0161599
946.650	0.0161201
946.728	0.0160938
946.806	0.0160246
946.884	0.0162704
946.962	0.0161714
947.040	0.0160789
947.119	0.0162336
947.197	0.0160653
947.275	0.0160926
947.353	0.0161327
947.431	0.0161205
947.509	0.0160779
947.587	0.0159700
947.665	0.0161233
947.744	0.0160848
947.822	0.0160294
947.900	0.0161241
947.978	0.0161678
948.056	0.0160359
948.134	0.0161005
948.212	0.0159702
948.290	0.0159952
948.369	0.0160725
948.447	0.0160225
948.525	0.0160291
948.603	0.0161185
948.681	0.0160419
948.759	0.0161344
948.837	0.0160693
948.915	0.0160596
948.994	0.0160837
949.072	0.0159972
949.150	0.0161179
949.228	0.0160365
949.306	0.0159515
949.384	0.0163138
949.462	0.0161291
949.540	0.0161666
949.619	0.0160800
949.697	0.0162540
949.775	0.0161742
949.853	0.0161227
949.931	0.0161729
