05/19/2022	00:41:23	Ver.	4.1	UNKNOWN
Optical Delay	630.002507	Delta X		0.078125	Sweeps	1	Scan Rate	0/0
Coordinates	Axis 1	NaN	Axis 2	NaN	Axis 3	NaN	Axis 4	NaN	Axis 5	NaN	Axis 6	0.000000
TX Power	0.000000	RX Power	0.000000

630.003	0.0159708
630.081	0.0160294
630.159	0.0159097
630.237	0.0159335
630.315	0.0160253
630.393	0.0159423
630.471	0.0158964
630.549	0.0158990
630.628	0.0160284
630.706	0.0160098
630.784	0.0160063
630.862	0.0159489
630.940	0.0160780
631.018	0.0158561
631.096	0.0158900
631.174	0.0159589
631.253	0.0160364
631.331	0.0159098
631.409	0.0158990
631.487	0.0160072
631.565	0.0158822
631.643	0.0160113
631.721	0.0161891
631.799	0.0158468
631.878	0.0158867
631.956	0.0160086
632.034	0.0159066
632.112	0.0159016
632.190	0.0159516
632.268	0.0159212
632.346	0.0159102
632.424	0.0159660
632.503	0.0158868
632.581	0.0158933
632.659	0.0159673
632.737	0.0159809
632.815	0.0160384
632.893	0.0159385
632.971	0.0159432
633.049	0.0159963
633.128	0.0159132
633.206	0.0158505
633.284	0.0158958
633.362	0.0159220
633.440	0.0159798
633.518	0.0158012
633.596	0.0158762
633.674	0.0159453
633.753	0.0159468
633.831	0.0159747
633.909	0.0159692
633.987	0.0158515
634.065	0.0160138
634.143	0.0161108
634.221	0.0158138
634.299	0.0159299
634.378	0.0160074
634.456	0.0160087
634.534	0.0159972
634.612	0.0159102
634.690	0.0159318
634.768	0.0160093
634.846	0.0159490
634.924	0.0159382
635.003	0.0160459
635.081	0.0158759
635.159	0.0159309
635.237	0.0159091
635.315	0.0158391
635.393	0.0159657
635.471	0.0160190
635.549	0.0159873
635.628	0.0160053
635.706	0.0159621
635.784	0.0159082
635.862	0.0158659
635.940	0.0159538
636.018	0.0159571
636.096	0.0159577
636.174	0.0159319
636.253	0.0160663
636.331	0.0159470
636.409	0.0159023
636.487	0.0160545
636.565	0.0158756
636.643	0.0159528
636.721	0.0160975
636.799	0.0160076
636.878	0.0159988
636.956	0.0159624
637.034	0.0159179
637.112	0.0159552
637.190	0.0159271
637.268	0.0160503
637.346	0.0160137
637.424	0.0160455
637.503	0.0158512
637.581	0.0160023
637.659	0.0160368
637.737	0.0160450
637.815	0.0159553
637.893	0.0158897
637.971	0.0159894
638.049	0.0159360
638.128	0.0159853
638.206	0.0159303
638.284	0.0159637
638.362	0.0160064
638.440	0.0159091
638.518	0.0160895
638.596	0.0160119
638.674	0.0161524
638.753	0.0158596
638.831	0.0161823
638.909	0.0160378
638.987	0.0159113
639.065	0.0159927
639.143	0.0159663
639.221	0.0160065
639.299	0.0159541
639.378	0.0161495
639.456	0.0159487
639.534	0.0161452
639.612	0.0159907
639.690	0.0160046
639.768	0.0159659
639.846	0.0159999
639.924	0.0158659
640.003	0.0160356
640.081	0.0160007
640.159	0.0159472
640.237	0.0159496
640.315	0.0160582
640.393	0.0160438
640.471	0.0159820
640.549	0.0159224
640.628	0.0160350
640.706	0.0160091
640.784	0.0160090
640.862	0.0160290
640.940	0.0159577
641.018	0.0159348
641.096	0.0160219
641.174	0.0158709
641.253	0.0160094
641.331	0.0158517
641.409	0.0158114
641.487	0.0158482
641.565	0.0160267
641.643	0.0158858
641.721	0.0158549
641.799	0.0159161
641.878	0.0159093
641.956	0.0159521
642.034	0.0160011
642.112	0.0159690
642.190	0.0157845
642.268	0.0158508
642.346	0.0158456
642.424	0.0159216
642.503	0.0160356
642.581	0.0159280
642.659	0.0159172
642.737	0.0159969
642.815	0.0159608
642.893	0.0159428
642.971	0.0158953
643.049	0.0160155
643.128	0.0158743
643.206	0.0158691
643.284	0.0160721
643.362	0.0159272
643.440	0.0160204
643.518	0.0159267
643.596	0.0159698
643.674	0.0157700
643.753	0.0159390
643.831	0.0159538
643.909	0.0159416
643.987	0.0159009
644.065	0.0158659
644.143	0.0160174
644.221	0.0160170
644.299	0.0158588
644.378	0.0158302
644.456	0.0160316
644.534	0.0160807
644.612	0.0159693
644.690	0.0159121
644.768	0.0159773
644.846	0.0160112
644.924	0.0159744
645.003	0.0159869
645.081	0.0161234
645.159	0.0159818
645.237	0.0159547
645.315	0.0158570
645.393	0.0159338
645.471	0.0158411
645.549	0.0159977
645.628	0.0159924
645.706	0.0158956
645.784	0.0158952
645.862	0.0160039
645.940	0.0160678
646.018	0.0159544
646.096	0.0159534
646.174	0.0159742
646.253	0.0159624
646.331	0.0160039
646.409	0.0161031
646.487	0.0159503
646.565	0.0159753
646.643	0.0161529
646.721	0.0159257
646.799	0.0158732
646.878	0.0160108
646.956	0.0160081
647.034	0.0158885
647.112	0.0159681
647.190	0.0160845
647.268	0.0159976
647.346	0.0159203
647.424	0.0158877
647.503	0.0158667
647.581	0.0158389
647.659	0.0159056
647.737	0.0161405
647.815	0.0158798
647.893	0.0160985
647.971	0.0159272
648.049	0.0159493
648.128	0.0160349
648.206	0.0160073
648.284	0.0158986
648.362	0.0159550
648.440	0.0159661
648.518	0.0160184
648.596	0.0159151
648.674	0.0159095
648.753	0.0160195
648.831	0.0159767
648.909	0.0158246
648.987	0.0159794
649.065	0.0161202
649.143	0.0159473
649.221	0.0158742
649.299	0.0159772
649.378	0.0160200
649.456	0.0160348
649.534	0.0159696
649.612	0.0160135
649.690	0.0159492
649.768	0.0161059
649.846	0.0159200
649.924	0.0159062
650.003	0.0159039
650.081	0.0159556
650.159	0.0159106
650.237	0.0158886
650.315	0.0159458
650.393	0.0160721
650.471	0.0159615
650.549	0.0160034
650.628	0.0159366
650.706	0.0158848
650.784	0.0160052
650.862	0.0159288
650.940	0.0160384
651.018	0.0160970
651.096	0.0160876
651.174	0.0159172
651.253	0.0160254
651.331	0.0159398
651.409	0.0158071
651.487	0.0159460
651.565	0.0159552
651.643	0.0159486
651.721	0.0160790
651.799	0.0160536
651.878	0.0159099
651.956	0.0161069
652.034	0.0161207
652.112	0.0159541
652.190	0.0158974
652.268	0.0161013
652.346	0.0159550
652.424	0.0158762
652.503	0.0160001
652.581	0.0159657
652.659	0.0159136
652.737	0.0161423
652.815	0.0160294
652.893	0.0160023
652.971	0.0159393
653.049	0.0159263
653.128	0.0160730
653.206	0.0159962
653.284	0.0160449
653.362	0.0160169
653.440	0.0160584
653.518	0.0160028
653.596	0.0159106
653.674	0.0159203
653.753	0.0159232
653.831	0.0159539
653.909	0.0159077
653.987	0.0159911
654.065	0.0160147
654.143	0.0159319
654.221	0.0160764
654.299	0.0160599
654.378	0.0160241
654.456	0.0160857
654.534	0.0160670
654.612	0.0159069
654.690	0.0158566
654.768	0.0159088
654.846	0.0159838
654.924	0.0161416
655.003	0.0160532
655.081	0.0159004
655.159	0.0160673
655.237	0.0160050
655.315	0.0159435
655.393	0.0160037
655.471	0.0159794
655.549	0.0160096
655.628	0.0159280
655.706	0.0159817
655.784	0.0160911
655.862	0.0160701
655.940	0.0160414
656.018	0.0159679
656.096	0.0159880
656.174	0.0160058
656.253	0.0160341
656.331	0.0161626
656.409	0.0160986
656.487	0.0159918
656.565	0.0159797
656.643	0.0160316
656.721	0.0159294
656.799	0.0159797
656.878	0.0159315
656.956	0.0161242
657.034	0.0160629
657.112	0.0160038
657.190	0.0159908
657.268	0.0160793
657.346	0.0159480
657.424	0.0159717
657.503	0.0159605
657.581	0.0160180
657.659	0.0159420
657.737	0.0159383
657.815	0.0160423
657.893	0.0161777
657.971	0.0160585
658.049	0.0160110
658.128	0.0159354
658.206	0.0159455
658.284	0.0160774
658.362	0.0160335
658.440	0.0160229
658.518	0.0158620
658.596	0.0160284
658.674	0.0160328
658.753	0.0159612
658.831	0.0160017
658.909	0.0160091
658.987	0.0159441
659.065	0.0160267
659.143	0.0161803
659.221	0.0159746
659.299	0.0158372
659.378	0.0159161
659.456	0.0158949
659.534	0.0161115
659.612	0.0161217
659.690	0.0158811
659.768	0.0159813
659.846	0.0158633
659.924	0.0160219
660.003	0.0160274
660.081	0.0159892
660.159	0.0160587
660.237	0.0159669
660.315	0.0160262
660.393	0.0160063
660.471	0.0159814
660.549	0.0160136
660.628	0.0159868
660.706	0.0161481
660.784	0.0159213
660.862	0.0159650
660.940	0.0161073
661.018	0.0160581
661.096	0.0159277
661.174	0.0159828
661.253	0.0159103
661.331	0.0159940
661.409	0.0159002
661.487	0.0159013
661.565	0.0160294
661.643	0.0160565
661.721	0.0159335
661.799	0.0159421
661.878	0.0159775
661.956	0.0160125
662.034	0.0160448
662.112	0.0159629
662.190	0.0158867
662.268	0.0159087
662.346	0.0159590
662.424	0.0158931
662.503	0.0159274
662.581	0.0160912
662.659	0.0159280
662.737	0.0158578
662.815	0.0159477
662.893	0.0159697
662.971	0.0159801
663.049	0.0157986
663.128	0.0158392
663.206	0.0160722
663.284	0.0160824
663.362	0.0160133
663.440	0.0159557
663.518	0.0158816
663.596	0.0159050
663.674	0.0159482
663.753	0.0158802
663.831	0.0159150
663.909	0.0158411
663.987	0.0159135
664.065	0.0159246
664.143	0.0158992
664.221	0.0159702
664.299	0.0159036
664.378	0.0158355
664.456	0.0159219
664.534	0.0159377
664.612	0.0160155
664.690	0.0158932
664.768	0.0160030
664.846	0.0160167
664.924	0.0160268
665.003	0.0160573
665.081	0.0158128
665.159	0.0158344
665.237	0.0158846
665.315	0.0159409
665.393	0.0159909
665.471	0.0160035
665.549	0.0160580
665.628	0.0159252
665.706	0.0158223
665.784	0.0158890
665.862	0.0159438
665.940	0.0159460
666.018	0.0160014
666.096	0.0159499
666.174	0.0160355
666.253	0.0158891
666.331	0.0159477
666.409	0.0159820
666.487	0.0158378
666.565	0.0159321
666.643	0.0159950
666.721	0.0160139
666.799	0.0158942
666.878	0.0159166
666.956	0.0158521
667.034	0.0157661
667.112	0.0159720
667.190	0.0159403
667.268	0.0158243
667.346	0.0158607
667.424	0.0159449
667.503	0.0158884
667.581	0.0159705
667.659	0.0158949
667.737	0.0158554
667.815	0.0158249
667.893	0.0158889
667.971	0.0157652
668.049	0.0159315
668.128	0.0159954
668.206	0.0159204
668.284	0.0159210
668.362	0.0159105
668.440	0.0159067
668.518	0.0159693
668.596	0.0158794
668.674	0.0159013
668.753	0.0159228
668.831	0.0160054
668.909	0.0158517
668.987	0.0158791
669.065	0.0157690
669.143	0.0158752
669.221	0.0159424
669.299	0.0158105
669.378	0.0158427
669.456	0.0159084
669.534	0.0158857
669.612	0.0158227
669.690	0.0158289
669.768	0.0159263
669.846	0.0158562
669.924	0.0158408
670.003	0.0159678
670.081	0.0159595
670.159	0.0160479
670.237	0.0159752
670.315	0.0157861
670.393	0.0158150
670.471	0.0158570
670.549	0.0159104
670.628	0.0159255
670.706	0.0157883
670.784	0.0159193
670.862	0.0158809
670.940	0.0158698
671.018	0.0158623
671.096	0.0159956
671.174	0.0158981
671.253	0.0158298
671.331	0.0159021
671.409	0.0159868
671.487	0.0160442
671.565	0.0158994
671.643	0.0159123
671.721	0.0159143
671.799	0.0158551
671.878	0.0158828
671.956	0.0160506
672.034	0.0159166
672.112	0.0160265
672.190	0.0160561
672.268	0.0160106
672.346	0.0159462
672.424	0.0159522
672.503	0.0159364
672.581	0.0158736
672.659	0.0159245
672.737	0.0159177
672.815	0.0158755
672.893	0.0160083
672.971	0.0160995
673.049	0.0159380
673.128	0.0159374
673.206	0.0159224
673.284	0.0159985
673.362	0.0158995
673.440	0.0160138
673.518	0.0160284
673.596	0.0159986
673.674	0.0159272
673.753	0.0159965
673.831	0.0159690
673.909	0.0159502
673.987	0.0158804
674.065	0.0159592
674.143	0.0158903
674.221	0.0159845
674.299	0.0158741
674.378	0.0159960
674.456	0.0158503
674.534	0.0159727
674.612	0.0160073
674.690	0.0159821
674.768	0.0158410
674.846	0.0159541
674.924	0.0160110
675.003	0.0159055
675.081	0.0161604
675.159	0.0161295
675.237	0.0159882
675.315	0.0160190
675.393	0.0159027
675.471	0.0160937
675.549	0.0159525
675.628	0.0159090
675.706	0.0160250
675.784	0.0160317
675.862	0.0159052
675.940	0.0160494
676.018	0.0159477
676.096	0.0159949
676.174	0.0158851
676.253	0.0158232
676.331	0.0159945
676.409	0.0159799
676.487	0.0159879
676.565	0.0159079
676.643	0.0159863
676.721	0.0160857
676.799	0.0161111
676.878	0.0159225
676.956	0.0159864
677.034	0.0159432
677.112	0.0159374
677.190	0.0159608
677.268	0.0159210
677.346	0.0158640
677.424	0.0158363
677.503	0.0158907
677.581	0.0159568
677.659	0.0159027
677.737	0.0158810
677.815	0.0158618
677.893	0.0158046
677.971	0.0159182
678.049	0.0159850
678.128	0.0159580
678.206	0.0158690
678.284	0.0158893
678.362	0.0158453
678.440	0.0159380
678.518	0.0159386
678.596	0.0160211
678.674	0.0159059
678.753	0.0159409
678.831	0.0158999
678.909	0.0159230
678.987	0.0159406
679.065	0.0159435
679.143	0.0159727
679.221	0.0158688
679.299	0.0159057
679.378	0.0160465
679.456	0.0159075
679.534	0.0159068
679.612	0.0157732
679.690	0.0158434
679.768	0.0158164
679.846	0.0159770
679.924	0.0159769
680.003	0.0159811
680.081	0.0159098
680.159	0.0159969
680.237	0.0160898
680.315	0.0161020
680.393	0.0161826
680.471	0.0161196
680.549	0.0161092
680.628	0.0160885
680.706	0.0161045
680.784	0.0159876
680.862	0.0160043
680.940	0.0159784
681.018	0.0159200
681.096	0.0159245
681.174	0.0157402
681.253	0.0159582
681.331	0.0158102
681.409	0.0157679
681.487	0.0157067
681.565	0.0157873
681.643	0.0159460
681.721	0.0159959
681.799	0.0160462
681.878	0.0159875
681.956	0.0161213
682.034	0.0161663
682.112	0.0161260
682.190	0.0162279
682.268	0.0163747
682.346	0.0163245
682.424	0.0162438
682.503	0.0162761
682.581	0.0163258
682.659	0.0163835
682.737	0.0162231
682.815	0.0163438
682.893	0.0162056
682.971	0.0160772
683.049	0.0161449
683.128	0.0160574
683.206	0.0160247
683.284	0.0158664
683.362	0.0156017
683.440	0.0156461
683.518	0.0157056
683.596	0.0155480
683.674	0.0155547
683.753	0.0155080
683.831	0.0155939
683.909	0.0154807
683.987	0.0153668
684.065	0.0153987
684.143	0.0152834
684.221	0.0153610
684.299	0.0154581
684.378	0.0155701
684.456	0.0155585
684.534	0.0155632
684.612	0.0156045
684.690	0.0155655
684.768	0.0154807
684.846	0.0155952
684.924	0.0156476
685.003	0.0155166
685.081	0.0155895
685.159	0.0159512
685.237	0.0159659
685.315	0.0159116
685.393	0.0159656
685.471	0.0161837
685.549	0.0163809
685.628	0.0166521
685.706	0.0165353
685.784	0.0167951
685.862	0.0170380
685.940	0.0173950
686.018	0.0174303
686.096	0.0173385
686.174	0.0175311
686.253	0.0174792
686.331	0.0174452
686.409	0.0173663
686.487	0.0172569
686.565	0.0170435
686.643	0.0167709
686.721	0.0166305
686.799	0.0163986
686.878	0.0159791
686.956	0.0158044
687.034	0.0157586
687.112	0.0154625
687.190	0.0152806
687.268	0.0152393
687.346	0.0150718
687.424	0.0151204
687.503	0.0150280
687.581	0.0150944
687.659	0.0150787
687.737	0.0150729
687.815	0.0150918
687.893	0.0149732
687.971	0.0150456
688.049	0.0150706
688.128	0.0150520
688.206	0.0148878
688.284	0.0148458
688.362	0.0149784
688.440	0.0149448
688.518	0.0151682
688.596	0.0152146
688.674	0.0151641
688.753	0.0153497
688.831	0.0153800
688.909	0.0156793
688.987	0.0156696
689.065	0.0157992
689.143	0.0161067
689.221	0.0160382
689.299	0.0161681
689.378	0.0162904
689.456	0.0164815
689.534	0.0165842
689.612	0.0167712
689.690	0.0168612
689.768	0.0170078
689.846	0.0171835
689.924	0.0173221
690.003	0.0173900
690.081	0.0175713
690.159	0.0176532
690.237	0.0178904
690.315	0.0180338
690.393	0.0180587
690.471	0.0180125
690.549	0.0179758
690.628	0.0179927
690.706	0.0178350
690.784	0.0174706
690.862	0.0173255
690.940	0.0168993
691.018	0.0166423
691.096	0.0163423
691.174	0.0159501
691.253	0.0156940
691.331	0.0154125
691.409	0.0149657
691.487	0.0146714
691.565	0.0143843
691.643	0.0141541
691.721	0.0141087
691.799	0.0139774
691.878	0.0139965
691.956	0.0140380
692.034	0.0139444
692.112	0.0139243
692.190	0.0141132
692.268	0.0141862
692.346	0.0142613
692.424	0.0143147
692.503	0.0144491
692.581	0.0143957
692.659	0.0145911
692.737	0.0146882
692.815	0.0147622
692.893	0.0148235
692.971	0.0150197
693.049	0.0148558
693.128	0.0150338
693.206	0.0152933
693.284	0.0152502
693.362	0.0154733
693.440	0.0157944
693.518	0.0160895
693.596	0.0160522
693.674	0.0163705
693.753	0.0167964
693.831	0.0169930
693.909	0.0172723
693.987	0.0175529
694.065	0.0177042
694.143	0.0178706
694.221	0.0181857
694.299	0.0180556
694.378	0.0183370
694.456	0.0183101
694.534	0.0184403
694.612	0.0182298
694.690	0.0182260
694.768	0.0181579
694.846	0.0180886
694.924	0.0179464
695.003	0.0178725
695.081	0.0178139
695.159	0.0177374
695.237	0.0174650
695.315	0.0171167
695.393	0.0169859
695.471	0.0166118
695.549	0.0162140
695.628	0.0157720
695.706	0.0155193
695.784	0.0151028
695.862	0.0147696
695.940	0.0144155
696.018	0.0142442
696.096	0.0141869
696.174	0.0138944
696.253	0.0137623
696.331	0.0135542
696.409	0.0137411
696.487	0.0137776
696.565	0.0136430
696.643	0.0137482
696.721	0.0137634
696.799	0.0138003
696.878	0.0138869
696.956	0.0140664
697.034	0.0140736
697.112	0.0141904
697.190	0.0143578
697.268	0.0144575
697.346	0.0145526
697.424	0.0148387
697.503	0.0148516
697.581	0.0149196
697.659	0.0151932
697.737	0.0152757
697.815	0.0154020
697.893	0.0155463
697.971	0.0156988
698.049	0.0159074
698.128	0.0161408
698.206	0.0164535
698.284	0.0167963
698.362	0.0172215
698.440	0.0173486
698.518	0.0176689
698.596	0.0179140
698.674	0.0181252
698.753	0.0181718
698.831	0.0181709
698.909	0.0183414
698.987	0.0183009
699.065	0.0182790
699.143	0.0181932
699.221	0.0181280
699.299	0.0180979
699.378	0.0180860
699.456	0.0177282
699.534	0.0176356
699.612	0.0176987
699.690	0.0174380
699.768	0.0172437
699.846	0.0173410
699.924	0.0171104
700.003	0.0168507
700.081	0.0166906
700.159	0.0166808
700.237	0.0164066
700.315	0.0162833
700.393	0.0161430
700.471	0.0159173
700.549	0.0156300
700.628	0.0153193
700.706	0.0149850
700.784	0.0148285
700.862	0.0146317
700.940	0.0144035
701.018	0.0142894
701.096	0.0140617
701.174	0.0140456
701.253	0.0139969
701.331	0.0137284
701.409	0.0139025
701.487	0.0139075
701.565	0.0138548
701.643	0.0138892
701.721	0.0141447
701.799	0.0141786
701.878	0.0144025
701.956	0.0144064
702.034	0.0148455
702.112	0.0147839
702.190	0.0149692
702.268	0.0152145
702.346	0.0153846
702.424	0.0154816
702.503	0.0158390
702.581	0.0159656
702.659	0.0160881
702.737	0.0161498
702.815	0.0164403
702.893	0.0165471
702.971	0.0166287
703.049	0.0168406
703.128	0.0170550
703.206	0.0170998
703.284	0.0172327
703.362	0.0173878
703.440	0.0173979
703.518	0.0173310
703.596	0.0172641
703.674	0.0173201
703.753	0.0173424
703.831	0.0173573
703.909	0.0171619
703.987	0.0172084
704.065	0.0172200
704.143	0.0170208
704.221	0.0168367
704.299	0.0166509
704.378	0.0166669
704.456	0.0165561
704.534	0.0164259
704.612	0.0162387
704.690	0.0162298
704.768	0.0162480
704.846	0.0162222
704.924	0.0161935
705.003	0.0160369
705.081	0.0159418
705.159	0.0162217
705.237	0.0162519
705.315	0.0162378
705.393	0.0160755
705.471	0.0160736
705.549	0.0159113
705.628	0.0157922
705.706	0.0156656
705.784	0.0156550
705.862	0.0153722
705.940	0.0151401
706.018	0.0152046
706.096	0.0151036
706.174	0.0150658
706.253	0.0149051
706.331	0.0147964
706.409	0.0147956
706.487	0.0150558
706.565	0.0150481
706.643	0.0150372
706.721	0.0151667
706.799	0.0152471
706.878	0.0152444
706.956	0.0155605
707.034	0.0155212
707.112	0.0157382
707.190	0.0157541
707.268	0.0157730
707.346	0.0158012
707.424	0.0159202
707.503	0.0160210
707.581	0.0161126
707.659	0.0161172
707.737	0.0160915
707.815	0.0160812
707.893	0.0159384
707.971	0.0159898
708.049	0.0159780
708.128	0.0160476
708.206	0.0160341
708.284	0.0159689
708.362	0.0159675
708.440	0.0161743
708.518	0.0162701
708.596	0.0161539
708.674	0.0162778
708.753	0.0163772
708.831	0.0162520
708.909	0.0163429
708.987	0.0163838
709.065	0.0164090
709.143	0.0163685
709.221	0.0163704
709.299	0.0163300
709.378	0.0162411
709.456	0.0162632
709.534	0.0162628
709.612	0.0162680
709.690	0.0163303
709.768	0.0161943
709.846	0.0163594
709.924	0.0163239
710.003	0.0164145
710.081	0.0164688
710.159	0.0164385
710.237	0.0163237
710.315	0.0164124
710.393	0.0163915
710.471	0.0163717
710.549	0.0163285
710.628	0.0162470
710.706	0.0161511
710.784	0.0160181
710.862	0.0160133
710.940	0.0158187
711.018	0.0157951
711.096	0.0157505
711.174	0.0156129
711.253	0.0157726
711.331	0.0157538
711.409	0.0156487
711.487	0.0157559
711.565	0.0158227
711.643	0.0158686
711.721	0.0159343
711.799	0.0158332
711.878	0.0159196
711.956	0.0158063
712.034	0.0163181
712.112	0.0160946
712.190	0.0160181
712.268	0.0159187
712.346	0.0159196
712.424	0.0160341
712.503	0.0158768
712.581	0.0159077
712.659	0.0158595
712.737	0.0158578
712.815	0.0158263
712.893	0.0157819
712.971	0.0157455
713.049	0.0157591
713.128	0.0157446
713.206	0.0158352
713.284	0.0158018
713.362	0.0159401
713.440	0.0160132
713.518	0.0160435
713.596	0.0161890
713.674	0.0161337
713.753	0.0161927
713.831	0.0163142
713.909	0.0164095
713.987	0.0162754
714.065	0.0162090
714.143	0.0162423
714.221	0.0161140
714.299	0.0159719
714.378	0.0160232
714.456	0.0159846
714.534	0.0159397
714.612	0.0158419
714.690	0.0158675
714.768	0.0159149
714.846	0.0159386
714.924	0.0160679
715.003	0.0160705
715.081	0.0161588
715.159	0.0161500
715.237	0.0162836
715.315	0.0161890
715.393	0.0161803
715.471	0.0163019
715.549	0.0163042
715.628	0.0163762
715.706	0.0162418
715.784	0.0161995
715.862	0.0160740
715.940	0.0159210
716.018	0.0161228
716.096	0.0159447
716.174	0.0158356
716.253	0.0158556
716.331	0.0156568
716.409	0.0157354
716.487	0.0157083
716.565	0.0155757
716.643	0.0156660
716.721	0.0154510
716.799	0.0156935
716.878	0.0156438
716.956	0.0155869
717.034	0.0158740
717.112	0.0159378
717.190	0.0159309
717.268	0.0159880
717.346	0.0160071
717.424	0.0160499
717.503	0.0161172
717.581	0.0162209
717.659	0.0162746
717.737	0.0162634
717.815	0.0162141
717.893	0.0161109
717.971	0.0161389
718.049	0.0161775
718.128	0.0161028
718.206	0.0161499
718.284	0.0160430
718.362	0.0161115
718.440	0.0159602
718.518	0.0161362
718.596	0.0161067
718.674	0.0160309
718.753	0.0160846
718.831	0.0158985
718.909	0.0158290
718.987	0.0159779
719.065	0.0159325
719.143	0.0158900
719.221	0.0159554
719.299	0.0158633
719.378	0.0158853
719.456	0.0156493
719.534	0.0158640
719.612	0.0158691
719.690	0.0158955
719.768	0.0159032
719.846	0.0158530
719.924	0.0159103
720.003	0.0158981
720.081	0.0157813
720.159	0.0158012
720.237	0.0157799
720.315	0.0158711
720.393	0.0158761
720.471	0.0158514
720.549	0.0157516
720.628	0.0158877
720.706	0.0157308
720.784	0.0158120
720.862	0.0159000
720.940	0.0159834
721.018	0.0158861
721.096	0.0159359
721.174	0.0158453
721.253	0.0159134
721.331	0.0158709
721.409	0.0158016
721.487	0.0159477
721.565	0.0158083
721.643	0.0157922
721.721	0.0157458
721.799	0.0160006
721.878	0.0158312
721.956	0.0158971
722.034	0.0157724
722.112	0.0157900
722.190	0.0160327
722.268	0.0159719
722.346	0.0160209
722.424	0.0160627
722.503	0.0159879
722.581	0.0159547
722.659	0.0160278
722.737	0.0160235
722.815	0.0160629
722.893	0.0160654
722.971	0.0161960
723.049	0.0163195
723.128	0.0162896
723.206	0.0162919
723.284	0.0161710
723.362	0.0162907
723.440	0.0161532
723.518	0.0161626
723.596	0.0160491
723.674	0.0161751
723.753	0.0161138
723.831	0.0161555
723.909	0.0160125
723.987	0.0159000
724.065	0.0161043
724.143	0.0160305
724.221	0.0160181
724.299	0.0161198
724.378	0.0160757
724.456	0.0160992
724.534	0.0161588
724.612	0.0159805
724.690	0.0160741
724.768	0.0160534
724.846	0.0160077
724.924	0.0160984
725.003	0.0161417
725.081	0.0160875
725.159	0.0160403
725.237	0.0159518
725.315	0.0159236
725.393	0.0159180
725.471	0.0158154
725.549	0.0157347
725.628	0.0157277
725.706	0.0158199
725.784	0.0158562
725.862	0.0157717
725.940	0.0157835
726.018	0.0158545
726.096	0.0158945
726.174	0.0158712
726.253	0.0159027
726.331	0.0160439
726.409	0.0159480
726.487	0.0160749
726.565	0.0162154
726.643	0.0160750
726.721	0.0161940
726.799	0.0160400
726.878	0.0161393
726.956	0.0161597
727.034	0.0161208
727.112	0.0160149
727.190	0.0160735
727.268	0.0160734
727.346	0.0160036
727.424	0.0162152
727.503	0.0160738
727.581	0.0162128
727.659	0.0163136
727.737	0.0161891
727.815	0.0160294
727.893	0.0161771
727.971	0.0161878
728.049	0.0160527
728.128	0.0159689
728.206	0.0159737
728.284	0.0160912
728.362	0.0159027
728.440	0.0160677
728.518	0.0161188
728.596	0.0159616
728.674	0.0159653
728.753	0.0161105
728.831	0.0161941
728.909	0.0159742
728.987	0.0160077
729.065	0.0159875
729.143	0.0159225
729.221	0.0157978
729.299	0.0158910
729.378	0.0157735
729.456	0.0157198
729.534	0.0157491
729.612	0.0156986
729.690	0.0157181
729.768	0.0157155
729.846	0.0156889
729.924	0.0157182
730.003	0.0157486
730.081	0.0158066
730.159	0.0157323
730.237	0.0156946
730.315	0.0158648
730.393	0.0160233
730.471	0.0161667
730.549	0.0160008
730.628	0.0160487
730.706	0.0161276
730.784	0.0160915
730.862	0.0162212
730.940	0.0162354
731.018	0.0160912
731.096	0.0160387
731.174	0.0159766
731.253	0.0160972
731.331	0.0161405
731.409	0.0160406
731.487	0.0160165
731.565	0.0159152
731.643	0.0158286
731.721	0.0160028
731.799	0.0160809
731.878	0.0158371
731.956	0.0157956
732.034	0.0160294
732.112	0.0160048
732.190	0.0159815
732.268	0.0160728
732.346	0.0160436
732.424	0.0161253
732.503	0.0161140
732.581	0.0162231
732.659	0.0162616
732.737	0.0161015
732.815	0.0160265
732.893	0.0162197
732.971	0.0160771
733.049	0.0161234
733.128	0.0161781
733.206	0.0160997
733.284	0.0161943
733.362	0.0161947
733.440	0.0161170
733.518	0.0161617
733.596	0.0161877
733.674	0.0159380
733.753	0.0160088
733.831	0.0158784
733.909	0.0160784
733.987	0.0159730
734.065	0.0160245
734.143	0.0158943
734.221	0.0158718
734.299	0.0159406
734.378	0.0161378
734.456	0.0160171
734.534	0.0159406
734.612	0.0159350
734.690	0.0160810
734.768	0.0160339
734.846	0.0159340
734.924	0.0160168
735.003	0.0161356
735.081	0.0161487
735.159	0.0160623
735.237	0.0161063
735.315	0.0160540
735.393	0.0160038
735.471	0.0159991
735.549	0.0159556
735.628	0.0161320
735.706	0.0161123
735.784	0.0160174
735.862	0.0160150
735.940	0.0160992
736.018	0.0159589
736.096	0.0160940
736.174	0.0161182
736.253	0.0161178
736.331	0.0160468
736.409	0.0160011
736.487	0.0160036
736.565	0.0159828
736.643	0.0159741
736.721	0.0160328
736.799	0.0159415
736.878	0.0160111
736.956	0.0159186
737.034	0.0160069
737.112	0.0160880
737.190	0.0158514
737.268	0.0158979
737.346	0.0158521
737.424	0.0158823
737.503	0.0159749
737.581	0.0160080
737.659	0.0159802
737.737	0.0160767
737.815	0.0160554
737.893	0.0159190
737.971	0.0158803
738.049	0.0161031
738.128	0.0159774
738.206	0.0158981
738.284	0.0159333
738.362	0.0159174
738.440	0.0158251
738.518	0.0158147
738.596	0.0157140
738.674	0.0157368
738.753	0.0156049
738.831	0.0156786
738.909	0.0158218
738.987	0.0157226
739.065	0.0156621
739.143	0.0157862
739.221	0.0158546
739.299	0.0158482
739.378	0.0158246
739.456	0.0159903
739.534	0.0159755
739.612	0.0159208
739.690	0.0161722
739.768	0.0160610
739.846	0.0161620
739.924	0.0161260
740.003	0.0160614
740.081	0.0160834
740.159	0.0161510
740.237	0.0160511
740.315	0.0160161
740.393	0.0162866
740.471	0.0161131
740.549	0.0161069
740.628	0.0159907
740.706	0.0160570
740.784	0.0161205
740.862	0.0160341
740.940	0.0159618
741.018	0.0159883
741.096	0.0160395
741.174	0.0160017
741.253	0.0160004
741.331	0.0158151
741.409	0.0159072
741.487	0.0159016
741.565	0.0159455
741.643	0.0159599
741.721	0.0157549
741.799	0.0158430
741.878	0.0158359
741.956	0.0158519
742.034	0.0159685
742.112	0.0158980
742.190	0.0159399
742.268	0.0157487
742.346	0.0160332
742.424	0.0159679
742.503	0.0160040
742.581	0.0160188
742.659	0.0159238
742.737	0.0158031
742.815	0.0159007
742.893	0.0157447
742.971	0.0158138
743.049	0.0158305
743.128	0.0158373
743.206	0.0156574
743.284	0.0158154
743.362	0.0157828
743.440	0.0158482
743.518	0.0160488
743.596	0.0160133
743.674	0.0160834
743.753	0.0158662
743.831	0.0159657
743.909	0.0159750
743.987	0.0159885
744.065	0.0160278
744.143	0.0159549
744.221	0.0159332
744.299	0.0160126
744.378	0.0158710
744.456	0.0158942
744.534	0.0158798
744.612	0.0158846
744.690	0.0158755
744.768	0.0158022
744.846	0.0157822
744.924	0.0158938
745.003	0.0157781
745.081	0.0157417
745.159	0.0157854
745.237	0.0157429
745.315	0.0157555
745.393	0.0156747
745.471	0.0157801
745.549	0.0157329
745.628	0.0159465
745.706	0.0158394
745.784	0.0159705
745.862	0.0159494
745.940	0.0157207
746.018	0.0159120
746.096	0.0160024
746.174	0.0159323
746.253	0.0160252
746.331	0.0159885
746.409	0.0161096
746.487	0.0159780
746.565	0.0160000
746.643	0.0159251
746.721	0.0160412
746.799	0.0159880
746.878	0.0158311
746.956	0.0160632
747.034	0.0159492
747.112	0.0159653
747.190	0.0158746
747.268	0.0160163
747.346	0.0160514
747.424	0.0160556
747.503	0.0159874
747.581	0.0159554
747.659	0.0160560
747.737	0.0161359
747.815	0.0161854
747.893	0.0161478
747.971	0.0161352
748.049	0.0162232
748.128	0.0161660
748.206	0.0160281
748.284	0.0160027
748.362	0.0160510
748.440	0.0161871
748.518	0.0160526
748.596	0.0159419
748.674	0.0158676
748.753	0.0161106
748.831	0.0159628
748.909	0.0160563
748.987	0.0160506
749.065	0.0159831
749.143	0.0159927
749.221	0.0159490
749.299	0.0159915
749.378	0.0158540
749.456	0.0158094
749.534	0.0159734
749.612	0.0159307
749.690	0.0158791
749.768	0.0157861
749.846	0.0159280
749.924	0.0158602
750.003	0.0159244
750.081	0.0159763
750.159	0.0158408
750.237	0.0160168
750.315	0.0160729
750.393	0.0159589
750.471	0.0160404
750.549	0.0159196
750.628	0.0160028
750.706	0.0160509
750.784	0.0161088
750.862	0.0159229
750.940	0.0159608
751.018	0.0160026
751.096	0.0160426
751.174	0.0159847
751.253	0.0159586
751.331	0.0159542
751.409	0.0161588
751.487	0.0160801
751.565	0.0160713
751.643	0.0160596
751.721	0.0160178
751.799	0.0160780
751.878	0.0159389
751.956	0.0159416
752.034	0.0160819
752.112	0.0160124
752.190	0.0159509
752.268	0.0159158
752.346	0.0158709
752.424	0.0159095
752.503	0.0159769
752.581	0.0157789
752.659	0.0159462
752.737	0.0159496
752.815	0.0160100
752.893	0.0160067
752.971	0.0160260
753.049	0.0159191
753.128	0.0159205
753.206	0.0160194
753.284	0.0160994
753.362	0.0160652
753.440	0.0159779
753.518	0.0159003
753.596	0.0160441
753.674	0.0158163
753.753	0.0158957
753.831	0.0160141
753.909	0.0157829
753.987	0.0158985
754.065	0.0159251
754.143	0.0160422
754.221	0.0159984
754.299	0.0161131
754.378	0.0159682
754.456	0.0159954
754.534	0.0160867
754.612	0.0160484
754.690	0.0160944
754.768	0.0160198
754.846	0.0161063
754.924	0.0160818
755.003	0.0159097
755.081	0.0161252
755.159	0.0162260
755.237	0.0159798
755.315	0.0159412
755.393	0.0159961
755.471	0.0159881
755.549	0.0159879
755.628	0.0159433
755.706	0.0159110
755.784	0.0159257
755.862	0.0160874
755.940	0.0160081
756.018	0.0160223
756.096	0.0159447
756.174	0.0161313
756.253	0.0159758
756.331	0.0158791
756.409	0.0159885
756.487	0.0159411
756.565	0.0159724
756.643	0.0160573
756.721	0.0158120
756.799	0.0158990
756.878	0.0158720
756.956	0.0159088
757.034	0.0159550
757.112	0.0159844
757.190	0.0158805
757.268	0.0158901
757.346	0.0161466
757.424	0.0161578
757.503	0.0160387
757.581	0.0159830
757.659	0.0159747
757.737	0.0160081
757.815	0.0159257
757.893	0.0160258
757.971	0.0160003
758.049	0.0158839
758.128	0.0159645
758.206	0.0159077
758.284	0.0159650
758.362	0.0159248
758.440	0.0161170
758.518	0.0160449
758.596	0.0158796
758.674	0.0159057
758.753	0.0159096
758.831	0.0159212
758.909	0.0157809
758.987	0.0160062
759.065	0.0159073
759.143	0.0158146
759.221	0.0159851
759.299	0.0160562
759.378	0.0160115
759.456	0.0159710
759.534	0.0158455
759.612	0.0158974
759.690	0.0159869
759.768	0.0160143
759.846	0.0160235
759.924	0.0160034
760.003	0.0161227
760.081	0.0159522
760.159	0.0159180
760.237	0.0159570
760.315	0.0160230
760.393	0.0158888
760.471	0.0160172
760.549	0.0159230
760.628	0.0158747
760.706	0.0158678
760.784	0.0158804
760.862	0.0157457
760.940	0.0159817
761.018	0.0158355
761.096	0.0159026
761.174	0.0157044
761.253	0.0157583
761.331	0.0157766
761.409	0.0157475
761.487	0.0158615
761.565	0.0159893
761.643	0.0159068
761.721	0.0159511
761.799	0.0159473
761.878	0.0158883
761.956	0.0159556
762.034	0.0158486
762.112	0.0159321
762.190	0.0158970
762.268	0.0160084
762.346	0.0159452
762.424	0.0161555
762.503	0.0160025
762.581	0.0159090
762.659	0.0160553
762.737	0.0160891
762.815	0.0160144
762.893	0.0159271
762.971	0.0160228
763.049	0.0160664
763.128	0.0159885
763.206	0.0159990
763.284	0.0160445
763.362	0.0161079
763.440	0.0159940
763.518	0.0161647
763.596	0.0161034
763.674	0.0160167
763.753	0.0161826
763.831	0.0160490
763.909	0.0160796
763.987	0.0160171
764.065	0.0161472
764.143	0.0160739
764.221	0.0161095
764.299	0.0160895
764.378	0.0160703
764.456	0.0161070
764.534	0.0159486
764.612	0.0158674
764.690	0.0159446
764.768	0.0160659
764.846	0.0159267
764.924	0.0160038
765.003	0.0159429
765.081	0.0158392
765.159	0.0157642
765.237	0.0159571
765.315	0.0159222
765.393	0.0158757
765.471	0.0158909
765.549	0.0159193
765.628	0.0158637
765.706	0.0158396
765.784	0.0159259
765.862	0.0160371
765.940	0.0157919
766.018	0.0158277
766.096	0.0157893
766.174	0.0158694
766.253	0.0157645
766.331	0.0157333
766.409	0.0160594
766.487	0.0156959
766.565	0.0158643
766.643	0.0157855
766.721	0.0158379
766.799	0.0158313
766.878	0.0158661
766.956	0.0157955
767.034	0.0158318
767.112	0.0159150
767.190	0.0158430
767.268	0.0159315
767.346	0.0158445
767.424	0.0158636
767.503	0.0159463
767.581	0.0159187
767.659	0.0158293
767.737	0.0159411
767.815	0.0158449
767.893	0.0159804
767.971	0.0158945
768.049	0.0160419
768.128	0.0158284
768.206	0.0158971
768.284	0.0161756
768.362	0.0158877
768.440	0.0159925
768.518	0.0161292
768.596	0.0159860
768.674	0.0160951
768.753	0.0160545
768.831	0.0160493
768.909	0.0160805
768.987	0.0160451
769.065	0.0161012
769.143	0.0160361
769.221	0.0159480
769.299	0.0160195
769.378	0.0160379
769.456	0.0160564
769.534	0.0158874
769.612	0.0159142
769.690	0.0159664
769.768	0.0159939
769.846	0.0159830
769.924	0.0158698
770.003	0.0159418
770.081	0.0158728
770.159	0.0159488
770.237	0.0159584
770.315	0.0159617
770.393	0.0160160
770.471	0.0159637
770.549	0.0160017
770.628	0.0159327
770.706	0.0159998
770.784	0.0159894
770.862	0.0159115
770.940	0.0159000
771.018	0.0160257
771.096	0.0158414
771.174	0.0159727
771.253	0.0160456
771.331	0.0160262
771.409	0.0160570
771.487	0.0159184
771.565	0.0159626
771.643	0.0159805
771.721	0.0159958
771.799	0.0159563
771.878	0.0158655
771.956	0.0160187
772.034	0.0159532
772.112	0.0159266
772.190	0.0158913
772.268	0.0158739
772.346	0.0159569
772.424	0.0159905
772.503	0.0160377
772.581	0.0158584
772.659	0.0158302
772.737	0.0159625
772.815	0.0160252
772.893	0.0159592
772.971	0.0159746
773.049	0.0158754
773.128	0.0160009
773.206	0.0160446
773.284	0.0159735
773.362	0.0159262
773.440	0.0159620
773.518	0.0159753
773.596	0.0160410
773.674	0.0160024
773.753	0.0159697
773.831	0.0160151
773.909	0.0159972
773.987	0.0159312
774.065	0.0159566
774.143	0.0159290
774.221	0.0159653
774.299	0.0159573
774.378	0.0159618
774.456	0.0160490
774.534	0.0158572
774.612	0.0160401
774.690	0.0158831
774.768	0.0158154
774.846	0.0157179
774.924	0.0157970
775.003	0.0158974
775.081	0.0157580
775.159	0.0159480
775.237	0.0158887
775.315	0.0159475
775.393	0.0159529
775.471	0.0159065
775.549	0.0159257
775.628	0.0158583
775.706	0.0159482
775.784	0.0160423
775.862	0.0160194
775.940	0.0158617
776.018	0.0160260
776.096	0.0160474
776.174	0.0160529
776.253	0.0160548
776.331	0.0159512
776.409	0.0159866
776.487	0.0159629
776.565	0.0159268
776.643	0.0158900
776.721	0.0161120
776.799	0.0159997
776.878	0.0159969
776.956	0.0158095
777.034	0.0160126
777.112	0.0159961
777.190	0.0158707
777.268	0.0161140
777.346	0.0158845
777.424	0.0159635
777.503	0.0159774
777.581	0.0158670
777.659	0.0160042
777.737	0.0161122
777.815	0.0159500
777.893	0.0159341
777.971	0.0160345
778.049	0.0159837
778.128	0.0159593
778.206	0.0159368
778.284	0.0161037
778.362	0.0161208
778.440	0.0160567
778.518	0.0159649
778.596	0.0160014
778.674	0.0161021
778.753	0.0160735
778.831	0.0159364
778.909	0.0159306
778.987	0.0161509
779.065	0.0160394
779.143	0.0160138
779.221	0.0158765
779.299	0.0159525
779.378	0.0159580
779.456	0.0158057
779.534	0.0159756
779.612	0.0159615
779.690	0.0159651
779.768	0.0159509
779.846	0.0159678
779.924	0.0160352
780.003	0.0159238
780.081	0.0159426
780.159	0.0159820
780.237	0.0160438
780.315	0.0159563
780.393	0.0159329
780.471	0.0160800
780.549	0.0160339
780.628	0.0159756
780.706	0.0161181
780.784	0.0161266
780.862	0.0161665
780.940	0.0159921
781.018	0.0161244
781.096	0.0161169
781.174	0.0161385
781.253	0.0160637
781.331	0.0159564
781.409	0.0160732
781.487	0.0160841
781.565	0.0159935
781.643	0.0159566
781.721	0.0159727
781.799	0.0157862
781.878	0.0158767
781.956	0.0159525
782.034	0.0159386
782.112	0.0159047
782.190	0.0159088
782.268	0.0158651
782.346	0.0158298
782.424	0.0159039
782.503	0.0157767
782.581	0.0157768
782.659	0.0159399
782.737	0.0158941
782.815	0.0158611
782.893	0.0160239
782.971	0.0158978
783.049	0.0158520
783.128	0.0159194
783.206	0.0159711
783.284	0.0160369
783.362	0.0160279
783.440	0.0160256
783.518	0.0160248
783.596	0.0158769
783.674	0.0159222
783.753	0.0159975
783.831	0.0160337
783.909	0.0159823
783.987	0.0160778
784.065	0.0159508
784.143	0.0157344
784.221	0.0159006
784.299	0.0158093
784.378	0.0158713
784.456	0.0159108
784.534	0.0159240
784.612	0.0158695
784.690	0.0159563
784.768	0.0159512
784.846	0.0159944
784.924	0.0160338
785.003	0.0160448
785.081	0.0159055
785.159	0.0160416
785.237	0.0160960
785.315	0.0159908
785.393	0.0160557
785.471	0.0159585
785.549	0.0159212
785.628	0.0159349
785.706	0.0157281
785.784	0.0158350
785.862	0.0159588
785.940	0.0158710
786.018	0.0159528
786.096	0.0159331
786.174	0.0159724
786.253	0.0160915
786.331	0.0159779
786.409	0.0160226
786.487	0.0160358
786.565	0.0160401
786.643	0.0162495
786.721	0.0163079
786.799	0.0159544
786.878	0.0161273
786.956	0.0161193
787.034	0.0160811
787.112	0.0161340
787.190	0.0160648
787.268	0.0160537
787.346	0.0160533
787.424	0.0160938
787.503	0.0160248
787.581	0.0160339
787.659	0.0160548
787.737	0.0158655
787.815	0.0159453
787.893	0.0160621
787.971	0.0159237
788.049	0.0157760
788.128	0.0161549
788.206	0.0160268
788.284	0.0158844
788.362	0.0160214
788.440	0.0160502
788.518	0.0159169
788.596	0.0158927
788.674	0.0159393
788.753	0.0159422
788.831	0.0160635
788.909	0.0158652
788.987	0.0159992
789.065	0.0159300
789.143	0.0158994
789.221	0.0158080
789.299	0.0156959
789.378	0.0157175
789.456	0.0157996
789.534	0.0158101
789.612	0.0158959
789.690	0.0159717
789.768	0.0159464
789.846	0.0158413
789.924	0.0159758
790.003	0.0159871
790.081	0.0159667
790.159	0.0159201
790.237	0.0158292
790.315	0.0159542
790.393	0.0160549
790.471	0.0159501
790.549	0.0160857
790.628	0.0159325
790.706	0.0161352
790.784	0.0159660
790.862	0.0160326
790.940	0.0160378
791.018	0.0160814
791.096	0.0159654
791.174	0.0160912
791.253	0.0161019
791.331	0.0160833
791.409	0.0160172
791.487	0.0161186
791.565	0.0161706
791.643	0.0161358
791.721	0.0161948
791.799	0.0161532
791.878	0.0160465
791.956	0.0159786
792.034	0.0160297
792.112	0.0161477
792.190	0.0160330
792.268	0.0159361
792.346	0.0159659
792.424	0.0159427
792.503	0.0159186
792.581	0.0158892
792.659	0.0157846
792.737	0.0157175
792.815	0.0158058
792.893	0.0157384
792.971	0.0156628
793.049	0.0158982
793.128	0.0157831
793.206	0.0158006
793.284	0.0159673
793.362	0.0158295
793.440	0.0157186
793.518	0.0157954
793.596	0.0159240
793.674	0.0156689
793.753	0.0158362
793.831	0.0158237
793.909	0.0157063
793.987	0.0157429
794.065	0.0159132
794.143	0.0158207
794.221	0.0158991
794.299	0.0160603
794.378	0.0160234
794.456	0.0158739
794.534	0.0160268
794.612	0.0160906
794.690	0.0160329
794.768	0.0161243
794.846	0.0161308
794.924	0.0161808
795.003	0.0160875
795.081	0.0160384
795.159	0.0161530
795.237	0.0162906
795.315	0.0161314
795.393	0.0160186
795.471	0.0162215
795.549	0.0161999
795.628	0.0162779
795.706	0.0162777
795.784	0.0162051
795.862	0.0162012
795.940	0.0162576
796.018	0.0160445
796.096	0.0161833
796.174	0.0161581
796.253	0.0161199
796.331	0.0161535
796.409	0.0161937
796.487	0.0162042
796.565	0.0161072
796.643	0.0160510
796.721	0.0160473
796.799	0.0160127
796.878	0.0159345
796.956	0.0159432
797.034	0.0159888
797.112	0.0157340
797.190	0.0156811
797.268	0.0156922
797.346	0.0157291
797.424	0.0156600
797.503	0.0156871
797.581	0.0157474
797.659	0.0155871
797.737	0.0154980
797.815	0.0157279
797.893	0.0156081
797.971	0.0157174
798.049	0.0156512
798.128	0.0156627
798.206	0.0157201
798.284	0.0158033
798.362	0.0158967
798.440	0.0158544
798.518	0.0157923
798.596	0.0158746
798.674	0.0158324
798.753	0.0159848
798.831	0.0160474
798.909	0.0159399
798.987	0.0158463
799.065	0.0159650
799.143	0.0160567
799.221	0.0161614
799.299	0.0159766
799.378	0.0160384
799.456	0.0161165
799.534	0.0161481
799.612	0.0161185
799.690	0.0161070
799.768	0.0161217
799.846	0.0161833
799.924	0.0160780
800.003	0.0161192
800.081	0.0162084
800.159	0.0163390
800.237	0.0161088
800.315	0.0162554
800.393	0.0161562
800.471	0.0161456
800.549	0.0161450
800.628	0.0160479
800.706	0.0160199
800.784	0.0160282
800.862	0.0161440
800.940	0.0161946
801.018	0.0160772
801.096	0.0160588
801.174	0.0161855
801.253	0.0161346
801.331	0.0159940
801.409	0.0160692
801.487	0.0161162
801.565	0.0159965
801.643	0.0159767
801.721	0.0157957
801.799	0.0159602
801.878	0.0158356
801.956	0.0159225
802.034	0.0159167
802.112	0.0157834
802.190	0.0157594
802.268	0.0156902
802.346	0.0158209
802.424	0.0158334
802.503	0.0158551
802.581	0.0158353
802.659	0.0157922
802.737	0.0159468
802.815	0.0158878
802.893	0.0159395
802.971	0.0160374
803.049	0.0159125
803.128	0.0160345
803.206	0.0159490
803.284	0.0158999
803.362	0.0160760
803.440	0.0160352
803.518	0.0160473
803.596	0.0161007
803.674	0.0159718
803.753	0.0159983
803.831	0.0158877
803.909	0.0159721
803.987	0.0159890
804.065	0.0159434
804.143	0.0161504
804.221	0.0160623
804.299	0.0160410
804.378	0.0160802
804.456	0.0159041
804.534	0.0160204
804.612	0.0161520
804.690	0.0161699
804.768	0.0161048
804.846	0.0161616
804.924	0.0160671
805.003	0.0160231
805.081	0.0160915
805.159	0.0159982
805.237	0.0159301
805.315	0.0159769
805.393	0.0160979
805.471	0.0162555
805.549	0.0159898
805.628	0.0160474
805.706	0.0160728
805.784	0.0160264
805.862	0.0159782
805.940	0.0159615
806.018	0.0158505
806.096	0.0159766
806.174	0.0160717
806.253	0.0159962
806.331	0.0159036
806.409	0.0159576
806.487	0.0158978
806.565	0.0158657
806.643	0.0159350
806.721	0.0159206
806.799	0.0158986
806.878	0.0159826
806.956	0.0160573
807.034	0.0158978
807.112	0.0159991
807.190	0.0160290
807.268	0.0159153
807.346	0.0158660
807.424	0.0160490
807.503	0.0160013
807.581	0.0159956
807.659	0.0159988
807.737	0.0158975
807.815	0.0158801
807.893	0.0160511
807.971	0.0160460
808.049	0.0160337
808.128	0.0159734
808.206	0.0160950
808.284	0.0160896
808.362	0.0161810
808.440	0.0160683
808.518	0.0160599
808.596	0.0160455
808.674	0.0160066
808.753	0.0162070
808.831	0.0160965
808.909	0.0159599
808.987	0.0160086
809.065	0.0160665
809.143	0.0160176
809.221	0.0159560
809.299	0.0160746
809.378	0.0161557
809.456	0.0159978
809.534	0.0161042
809.612	0.0160526
809.690	0.0160004
809.768	0.0159176
809.846	0.0159507
809.924	0.0159551
810.003	0.0159138
810.081	0.0159387
810.159	0.0158830
810.237	0.0158266
810.315	0.0157605
810.393	0.0158638
810.471	0.0157679
810.549	0.0158823
810.628	0.0159734
810.706	0.0158195
810.784	0.0158018
810.862	0.0159001
810.940	0.0160371
811.018	0.0158115
811.096	0.0157828
811.174	0.0159818
811.253	0.0159444
811.331	0.0159850
811.409	0.0157748
811.487	0.0159792
811.565	0.0158308
811.643	0.0159518
811.721	0.0159991
811.799	0.0159141
811.878	0.0160033
811.956	0.0159328
812.034	0.0159129
812.112	0.0160522
812.190	0.0160633
812.268	0.0160934
812.346	0.0161307
812.424	0.0160595
812.503	0.0159863
812.581	0.0159586
812.659	0.0160919
812.737	0.0160423
812.815	0.0159940
812.893	0.0160126
812.971	0.0159775
813.049	0.0159684
813.128	0.0160262
813.206	0.0159731
813.284	0.0159994
813.362	0.0161019
813.440	0.0159877
813.518	0.0159863
813.596	0.0160644
813.674	0.0159122
813.753	0.0159850
813.831	0.0160150
813.909	0.0159690
813.987	0.0160704
814.065	0.0160349
814.143	0.0160501
814.221	0.0159847
814.299	0.0160915
814.378	0.0161287
814.456	0.0159475
814.534	0.0158605
814.612	0.0158491
814.690	0.0160101
814.768	0.0160117
814.846	0.0159698
814.924	0.0158450
815.003	0.0159417
815.081	0.0160164
815.159	0.0161172
815.237	0.0160126
815.315	0.0159575
815.393	0.0159302
815.471	0.0158557
815.549	0.0160513
815.628	0.0159692
815.706	0.0161066
815.784	0.0160534
815.862	0.0159202
815.940	0.0159005
816.018	0.0159963
816.096	0.0160935
816.174	0.0160187
816.253	0.0160134
816.331	0.0159887
816.409	0.0160863
816.487	0.0159665
816.565	0.0160534
816.643	0.0160221
816.721	0.0159885
816.799	0.0159657
816.878	0.0161933
816.956	0.0161228
817.034	0.0160533
817.112	0.0161021
817.190	0.0158806
817.268	0.0159698
817.346	0.0159272
817.424	0.0160837
817.503	0.0160186
817.581	0.0160692
817.659	0.0159844
817.737	0.0159449
817.815	0.0157059
817.893	0.0159384
817.971	0.0158982
818.049	0.0158294
818.128	0.0157495
818.206	0.0156362
818.284	0.0157734
818.362	0.0158514
818.440	0.0157414
818.518	0.0157845
818.596	0.0157275
818.674	0.0157824
818.753	0.0157458
818.831	0.0157484
818.909	0.0157278
818.987	0.0158298
819.065	0.0159071
819.143	0.0156248
819.221	0.0157359
819.299	0.0159380
819.378	0.0158442
819.456	0.0158717
819.534	0.0160153
819.612	0.0159451
819.690	0.0158118
819.768	0.0160278
819.846	0.0160102
819.924	0.0159583
820.003	0.0159887
820.081	0.0159333
820.159	0.0160732
820.237	0.0159244
820.315	0.0160892
820.393	0.0161293
820.471	0.0161537
820.549	0.0161201
820.628	0.0161687
820.706	0.0161089
820.784	0.0162146
820.862	0.0162877
820.940	0.0161817
821.018	0.0160509
821.096	0.0162240
821.174	0.0163014
821.253	0.0161712
821.331	0.0161239
821.409	0.0161111
821.487	0.0160954
821.565	0.0161519
821.643	0.0160472
821.721	0.0160559
821.799	0.0160159
821.878	0.0160688
821.956	0.0160344
822.034	0.0159167
822.112	0.0159809
822.190	0.0159379
822.268	0.0159311
822.346	0.0160846
822.424	0.0159181
822.503	0.0157214
822.581	0.0158559
822.659	0.0159955
822.737	0.0158891
822.815	0.0158418
822.893	0.0158054
822.971	0.0157734
823.049	0.0158585
823.128	0.0157654
823.206	0.0157861
823.284	0.0158726
823.362	0.0156809
823.440	0.0159484
823.518	0.0157648
823.596	0.0158932
823.674	0.0157394
823.753	0.0157874
823.831	0.0158434
823.909	0.0158206
823.987	0.0159851
824.065	0.0159068
824.143	0.0160172
824.221	0.0158539
824.299	0.0158720
824.378	0.0159469
824.456	0.0159123
824.534	0.0158658
824.612	0.0158386
824.690	0.0158872
824.768	0.0159871
824.846	0.0159740
824.924	0.0159669
825.003	0.0159701
825.081	0.0160737
825.159	0.0159959
825.237	0.0159040
825.315	0.0159476
825.393	0.0159296
825.471	0.0159142
825.549	0.0160458
825.628	0.0159728
825.706	0.0160544
825.784	0.0159882
825.862	0.0160712
825.940	0.0160036
826.018	0.0160320
826.096	0.0160246
826.174	0.0161564
826.253	0.0161275
826.331	0.0160661
826.409	0.0160848
826.487	0.0159985
826.565	0.0162207
826.643	0.0161955
826.721	0.0161574
826.799	0.0161004
826.878	0.0159579
826.956	0.0160714
827.034	0.0160716
827.112	0.0160551
827.190	0.0159837
827.268	0.0159408
827.346	0.0160162
827.424	0.0160320
827.503	0.0158399
827.581	0.0160645
827.659	0.0159842
827.737	0.0159202
827.815	0.0160235
827.893	0.0160820
827.971	0.0159242
828.049	0.0158787
828.128	0.0159840
828.206	0.0159760
828.284	0.0159650
828.362	0.0159286
828.440	0.0159689
828.518	0.0159810
828.596	0.0160667
828.674	0.0160068
828.753	0.0159274
828.831	0.0158920
828.909	0.0159412
828.987	0.0158260
829.065	0.0159943
829.143	0.0159276
829.221	0.0159416
829.299	0.0160829
829.378	0.0159957
829.456	0.0160210
829.534	0.0158583
829.612	0.0159072
829.690	0.0160538
829.768	0.0158701
829.846	0.0159824
829.924	0.0160046
830.003	0.0160031
830.081	0.0159900
830.159	0.0159769
830.237	0.0159364
830.315	0.0160237
830.393	0.0160877
830.471	0.0160683
830.549	0.0160578
830.628	0.0159985
830.706	0.0160184
830.784	0.0161056
830.862	0.0161224
830.940	0.0160026
831.018	0.0159726
831.096	0.0159115
831.174	0.0160234
831.253	0.0159074
831.331	0.0159952
831.409	0.0159850
831.487	0.0160568
831.565	0.0160728
831.643	0.0159521
831.721	0.0159330
831.799	0.0159098
831.878	0.0158846
831.956	0.0159491
832.034	0.0159765
832.112	0.0158884
832.190	0.0159202
832.268	0.0160011
832.346	0.0158884
832.424	0.0158791
832.503	0.0158507
832.581	0.0158294
832.659	0.0160191
832.737	0.0158750
832.815	0.0158602
832.893	0.0159569
832.971	0.0161430
833.049	0.0159626
833.128	0.0157561
833.206	0.0158707
833.284	0.0160073
833.362	0.0158762
833.440	0.0158622
833.518	0.0157406
833.596	0.0157738
833.674	0.0158648
833.753	0.0158450
833.831	0.0158757
833.909	0.0158145
833.987	0.0158348
834.065	0.0157718
834.143	0.0156657
834.221	0.0157263
834.299	0.0158587
834.378	0.0158721
834.456	0.0158944
834.534	0.0158884
834.612	0.0159731
834.690	0.0159570
834.768	0.0160082
834.846	0.0158981
834.924	0.0159261
835.003	0.0160345
835.081	0.0160084
835.159	0.0161002
835.237	0.0160132
835.315	0.0159933
835.393	0.0160308
835.471	0.0160105
835.549	0.0159959
835.628	0.0159888
835.706	0.0159834
835.784	0.0159185
835.862	0.0159711
835.940	0.0159801
836.018	0.0158591
836.096	0.0160071
836.174	0.0159782
836.253	0.0158802
836.331	0.0160821
836.409	0.0160445
836.487	0.0162089
836.565	0.0160412
836.643	0.0160867
836.721	0.0160084
836.799	0.0160175
836.878	0.0159328
836.956	0.0160474
837.034	0.0160160
837.112	0.0159382
837.190	0.0160346
837.268	0.0160250
837.346	0.0160014
837.424	0.0159612
837.503	0.0160690
837.581	0.0159290
837.659	0.0159348
837.737	0.0159984
837.815	0.0159655
837.893	0.0160469
837.971	0.0160957
838.049	0.0160282
838.128	0.0159552
838.206	0.0160369
838.284	0.0160539
838.362	0.0159526
838.440	0.0158036
838.518	0.0157761
838.596	0.0157764
838.674	0.0158193
838.753	0.0159611
838.831	0.0157459
838.909	0.0157070
838.987	0.0158253
839.065	0.0157751
839.143	0.0158526
839.221	0.0157860
839.299	0.0158437
839.378	0.0157629
839.456	0.0157717
839.534	0.0158463
839.612	0.0159339
839.690	0.0158649
839.768	0.0157687
839.846	0.0158595
839.924	0.0158202
840.003	0.0159222
840.081	0.0158615
840.159	0.0159206
840.237	0.0159373
840.315	0.0158534
840.393	0.0159809
840.471	0.0160548
840.549	0.0159559
840.628	0.0158536
840.706	0.0157549
840.784	0.0159197
840.862	0.0159286
840.940	0.0157896
841.018	0.0159576
841.096	0.0157700
841.174	0.0158008
841.253	0.0158625
841.331	0.0158225
841.409	0.0158194
841.487	0.0159024
841.565	0.0158841
841.643	0.0160780
841.721	0.0159258
841.799	0.0158439
841.878	0.0160064
841.956	0.0158466
842.034	0.0159368
842.112	0.0159017
842.190	0.0158903
842.268	0.0159238
842.346	0.0159695
842.424	0.0160873
842.503	0.0159370
842.581	0.0159431
842.659	0.0160805
842.737	0.0160783
842.815	0.0160816
842.893	0.0160677
842.971	0.0159936
843.049	0.0159805
843.128	0.0159988
843.206	0.0159776
843.284	0.0159428
843.362	0.0159570
843.440	0.0159060
843.518	0.0156966
843.596	0.0158024
843.674	0.0157783
843.753	0.0158920
843.831	0.0158777
843.909	0.0158891
843.987	0.0160086
844.065	0.0158586
844.143	0.0158362
844.221	0.0158978
844.299	0.0157777
844.378	0.0159498
844.456	0.0159225
844.534	0.0159718
844.612	0.0160856
844.690	0.0159177
844.768	0.0160136
844.846	0.0160313
844.924	0.0159286
845.003	0.0159564
845.081	0.0161331
845.159	0.0158675
845.237	0.0161275
845.315	0.0161291
845.393	0.0159827
845.471	0.0160877
845.549	0.0160892
845.628	0.0159882
845.706	0.0159823
845.784	0.0160065
845.862	0.0161073
845.940	0.0159580
846.018	0.0158813
846.096	0.0159235
846.174	0.0160351
846.253	0.0159409
846.331	0.0159086
846.409	0.0158386
846.487	0.0158218
846.565	0.0158482
846.643	0.0156502
846.721	0.0157352
846.799	0.0157825
846.878	0.0156742
846.956	0.0158839
847.034	0.0158773
847.112	0.0158362
847.190	0.0158939
847.268	0.0159544
847.346	0.0158751
847.424	0.0159169
847.503	0.0159789
847.581	0.0158694
847.659	0.0158865
847.737	0.0157561
847.815	0.0158562
847.893	0.0159076
847.971	0.0158897
848.049	0.0158284
848.128	0.0158543
848.206	0.0158761
848.284	0.0157395
848.362	0.0158212
848.440	0.0158978
848.518	0.0159364
848.596	0.0159886
848.674	0.0157531
848.753	0.0158136
848.831	0.0159229
848.909	0.0159819
848.987	0.0159103
849.065	0.0159458
849.143	0.0159949
849.221	0.0160361
849.299	0.0159302
849.378	0.0158844
849.456	0.0159286
849.534	0.0161356
849.612	0.0160599
849.690	0.0159682
849.768	0.0157986
849.846	0.0158711
849.924	0.0160625
850.003	0.0161604
850.081	0.0159854
850.159	0.0160564
850.237	0.0159933
850.315	0.0158954
850.393	0.0158612
850.471	0.0159766
850.549	0.0159665
850.628	0.0159933
850.706	0.0158406
850.784	0.0159303
850.862	0.0158894
850.940	0.0156978
851.018	0.0157845
851.096	0.0158310
851.174	0.0159408
851.253	0.0158502
851.331	0.0159052
851.409	0.0159251
851.487	0.0157887
851.565	0.0158524
851.643	0.0159460
851.721	0.0159488
851.799	0.0159801
851.878	0.0158469
851.956	0.0159532
852.034	0.0158456
852.112	0.0159431
852.190	0.0159895
852.268	0.0159475
852.346	0.0158640
852.424	0.0159846
852.503	0.0160972
852.581	0.0160719
852.659	0.0160438
852.737	0.0160448
852.815	0.0160282
852.893	0.0159745
852.971	0.0160012
853.049	0.0160502
853.128	0.0159203
853.206	0.0158092
853.284	0.0159826
853.362	0.0159240
853.440	0.0159481
853.518	0.0159969
853.596	0.0161366
853.674	0.0160009
853.753	0.0158734
853.831	0.0159381
853.909	0.0160976
853.987	0.0158505
854.065	0.0160087
854.143	0.0159638
854.221	0.0159466
854.299	0.0159715
854.378	0.0158871
854.456	0.0160054
854.534	0.0159724
854.612	0.0159820
854.690	0.0160648
854.768	0.0158986
854.846	0.0158064
854.924	0.0158923
855.003	0.0158167
855.081	0.0158086
855.159	0.0158606
855.237	0.0158950
855.315	0.0159012
855.393	0.0157616
855.471	0.0158513
855.549	0.0157996
855.628	0.0158273
855.706	0.0159520
855.784	0.0157880
855.862	0.0158041
855.940	0.0159937
856.018	0.0158340
856.096	0.0158958
856.174	0.0160256
856.253	0.0158640
856.331	0.0158244
856.409	0.0158846
856.487	0.0158736
856.565	0.0159072
856.643	0.0159438
856.721	0.0160235
856.799	0.0159495
856.878	0.0158870
856.956	0.0159886
857.034	0.0160681
857.112	0.0161630
857.190	0.0158819
857.268	0.0160802
857.346	0.0162086
857.424	0.0161111
857.503	0.0160625
857.581	0.0160043
857.659	0.0160432
857.737	0.0161270
857.815	0.0160137
857.893	0.0159826
857.971	0.0160045
858.049	0.0160648
858.128	0.0160472
858.206	0.0160416
858.284	0.0159992
858.362	0.0160369
858.440	0.0161705
858.518	0.0160413
858.596	0.0160763
858.674	0.0161907
858.753	0.0160159
858.831	0.0161372
858.909	0.0158714
858.987	0.0161803
859.065	0.0160297
859.143	0.0159355
859.221	0.0159711
859.299	0.0158560
859.378	0.0158163
859.456	0.0159330
859.534	0.0158479
859.612	0.0159041
859.690	0.0157811
859.768	0.0157191
859.846	0.0157021
859.924	0.0156938
860.003	0.0157262
860.081	0.0158602
860.159	0.0158311
860.237	0.0158167
860.315	0.0157088
860.393	0.0155994
860.471	0.0158472
860.549	0.0157320
860.628	0.0158454
860.706	0.0157909
860.784	0.0157732
860.862	0.0159142
860.940	0.0158834
861.018	0.0159480
861.096	0.0159953
861.174	0.0158781
861.253	0.0159119
861.331	0.0159557
861.409	0.0159109
861.487	0.0157960
861.565	0.0160047
861.643	0.0160820
861.721	0.0161281
861.799	0.0159718
861.878	0.0160402
861.956	0.0160664
862.034	0.0160612
862.112	0.0161149
862.190	0.0160601
862.268	0.0161427
862.346	0.0159988
862.424	0.0161126
862.503	0.0162038
862.581	0.0161385
862.659	0.0160830
862.737	0.0161174
862.815	0.0162131
862.893	0.0159220
862.971	0.0159647
863.049	0.0160956
863.128	0.0159549
863.206	0.0160703
863.284	0.0159322
863.362	0.0159277
863.440	0.0159588
863.518	0.0159525
863.596	0.0159074
863.674	0.0157458
863.753	0.0159784
863.831	0.0159274
863.909	0.0159039
863.987	0.0158411
864.065	0.0158887
864.143	0.0159655
864.221	0.0158508
864.299	0.0158681
864.378	0.0158359
864.456	0.0157883
864.534	0.0157780
864.612	0.0159248
864.690	0.0158120
864.768	0.0158792
864.846	0.0159637
864.924	0.0156535
865.003	0.0158084
865.081	0.0158649
865.159	0.0157446
865.237	0.0158469
865.315	0.0158253
865.393	0.0158594
865.471	0.0158507
865.549	0.0157514
865.628	0.0157224
865.706	0.0159112
865.784	0.0158820
865.862	0.0157291
865.940	0.0158285
866.018	0.0159623
866.096	0.0158611
866.174	0.0157052
866.253	0.0159834
866.331	0.0159811
866.409	0.0159363
866.487	0.0160043
866.565	0.0160985
866.643	0.0161509
866.721	0.0161446
866.799	0.0161713
866.878	0.0160301
866.956	0.0162170
867.034	0.0161099
867.112	0.0160464
867.190	0.0160966
867.268	0.0161726
867.346	0.0161858
867.424	0.0160487
867.503	0.0160232
867.581	0.0158642
867.659	0.0159794
867.737	0.0159673
867.815	0.0159975
867.893	0.0157924
867.971	0.0157912
868.049	0.0158208
868.128	0.0159290
868.206	0.0158668
868.284	0.0158714
868.362	0.0158332
868.440	0.0157661
868.518	0.0158901
868.596	0.0158984
868.674	0.0158394
868.753	0.0158877
868.831	0.0159709
868.909	0.0159700
868.987	0.0158672
869.065	0.0159325
869.143	0.0158372
869.221	0.0159604
869.299	0.0157724
869.378	0.0157928
869.456	0.0158364
869.534	0.0159097
869.612	0.0157899
869.690	0.0158787
869.768	0.0160201
869.846	0.0159361
869.924	0.0158894
870.003	0.0158285
870.081	0.0159433
870.159	0.0158511
870.237	0.0159650
870.315	0.0160091
870.393	0.0160881
870.471	0.0157807
870.549	0.0160677
870.628	0.0160606
870.706	0.0158189
870.784	0.0159912
870.862	0.0160905
870.940	0.0161802
871.018	0.0160737
871.096	0.0159485
871.174	0.0159593
871.253	0.0160938
871.331	0.0160660
871.409	0.0160818
871.487	0.0160261
871.565	0.0160273
871.643	0.0160236
871.721	0.0160404
871.799	0.0160765
871.878	0.0160325
871.956	0.0160062
872.034	0.0160584
872.112	0.0160428
872.190	0.0162126
872.268	0.0160838
872.346	0.0158686
872.424	0.0160974
872.503	0.0161015
872.581	0.0159120
872.659	0.0158324
872.737	0.0159046
872.815	0.0159689
872.893	0.0158934
872.971	0.0157854
873.049	0.0160383
873.128	0.0158904
873.206	0.0157133
873.284	0.0157957
873.362	0.0159057
873.440	0.0157764
873.518	0.0158195
873.596	0.0158356
873.674	0.0159048
873.753	0.0158090
873.831	0.0158877
873.909	0.0159869
873.987	0.0159518
874.065	0.0159389
874.143	0.0159521
874.221	0.0159480
874.299	0.0159378
874.378	0.0161693
874.456	0.0162318
874.534	0.0160764
874.612	0.0160369
874.690	0.0160992
874.768	0.0161976
874.846	0.0161308
874.924	0.0160555
875.003	0.0159814
875.081	0.0160403
875.159	0.0161161
875.237	0.0161184
875.315	0.0160435
875.393	0.0160879
875.471	0.0159399
875.549	0.0159693
875.628	0.0159557
875.706	0.0160804
875.784	0.0159839
875.862	0.0159055
875.940	0.0158886
876.018	0.0159387
876.096	0.0158484
876.174	0.0158802
876.253	0.0160178
876.331	0.0159013
876.409	0.0158540
876.487	0.0157545
876.565	0.0158289
876.643	0.0157919
876.721	0.0157130
876.799	0.0158427
876.878	0.0160033
876.956	0.0159386
877.034	0.0158556
877.112	0.0158038
877.190	0.0158487
877.268	0.0158901
877.346	0.0160169
877.424	0.0160245
877.503	0.0160159
877.581	0.0160435
877.659	0.0160413
877.737	0.0161320
877.815	0.0161072
877.893	0.0159839
877.971	0.0161340
878.049	0.0162187
878.128	0.0161436
878.206	0.0161118
878.284	0.0159931
878.362	0.0160980
878.440	0.0160061
878.518	0.0160332
878.596	0.0160526
878.674	0.0160060
878.753	0.0159444
878.831	0.0159130
878.909	0.0160750
878.987	0.0160276
879.065	0.0160529
879.143	0.0159716
879.221	0.0158936
879.299	0.0159457
879.378	0.0161010
879.456	0.0158782
879.534	0.0159097
879.612	0.0158562
879.690	0.0158221
879.768	0.0159269
879.846	0.0160175
879.924	0.0159064
880.003	0.0160053
880.081	0.0159427
880.159	0.0158622
880.237	0.0159265
880.315	0.0159503
880.393	0.0158714
880.471	0.0158177
880.549	0.0159475
880.628	0.0159558
880.706	0.0157938
880.784	0.0157845
880.862	0.0159547
880.940	0.0159464
881.018	0.0159747
881.096	0.0159715
881.174	0.0158821
881.253	0.0159315
881.331	0.0159132
881.409	0.0160205
881.487	0.0159374
881.565	0.0158416
881.643	0.0159586
881.721	0.0160514
881.799	0.0159711
881.878	0.0161443
881.956	0.0161539
882.034	0.0160802
882.112	0.0162123
882.190	0.0161008
882.268	0.0161163
882.346	0.0161491
882.424	0.0161401
882.503	0.0159539
882.581	0.0159535
882.659	0.0160475
882.737	0.0159202
882.815	0.0158189
882.893	0.0158328
882.971	0.0158611
883.049	0.0159616
883.128	0.0158773
883.206	0.0158877
883.284	0.0159644
883.362	0.0159668
883.440	0.0159565
883.518	0.0158714
883.596	0.0159252
883.674	0.0160563
883.753	0.0159988
883.831	0.0160725
883.909	0.0160012
883.987	0.0159460
884.065	0.0160610
884.143	0.0159714
884.221	0.0160224
884.299	0.0159456
884.378	0.0159454
884.456	0.0160313
884.534	0.0159695
884.612	0.0160664
884.690	0.0158953
884.768	0.0159274
884.846	0.0159435
884.924	0.0159253
885.003	0.0159063
885.081	0.0158048
885.159	0.0159074
885.237	0.0160008
885.315	0.0158609
885.393	0.0158722
885.471	0.0158910
885.549	0.0158946
885.628	0.0159688
885.706	0.0159987
885.784	0.0160220
885.862	0.0159808
885.940	0.0160772
886.018	0.0160440
886.096	0.0159644
886.174	0.0160497
886.253	0.0159679
886.331	0.0160224
886.409	0.0160329
886.487	0.0160714
886.565	0.0161726
886.643	0.0160402
886.721	0.0160737
886.799	0.0158797
886.878	0.0159764
886.956	0.0159464
887.034	0.0158598
887.112	0.0157930
887.190	0.0159483
887.268	0.0158663
887.346	0.0158102
887.424	0.0158839
887.503	0.0157697
887.581	0.0159251
887.659	0.0158353
887.737	0.0158528
887.815	0.0159211
887.893	0.0158496
887.971	0.0157965
888.049	0.0159021
888.128	0.0159481
888.206	0.0159924
888.284	0.0159839
888.362	0.0159959
888.440	0.0159561
888.518	0.0160909
888.596	0.0160541
888.674	0.0159874
888.753	0.0160770
888.831	0.0159729
888.909	0.0159648
888.987	0.0159396
889.065	0.0160520
889.143	0.0159951
889.221	0.0158440
889.299	0.0159405
889.378	0.0160385
889.456	0.0159271
889.534	0.0158910
889.612	0.0158028
889.690	0.0157644
889.768	0.0157781
889.846	0.0158968
889.924	0.0158997
890.003	0.0160664
890.081	0.0159280
890.159	0.0158043
890.237	0.0158643
890.315	0.0160730
890.393	0.0160864
890.471	0.0158986
890.549	0.0160572
890.628	0.0161064
890.706	0.0160712
890.784	0.0160002
890.862	0.0161533
890.940	0.0160619
891.018	0.0160729
891.096	0.0160463
891.174	0.0160413
891.253	0.0161524
891.331	0.0160398
891.409	0.0159289
891.487	0.0162270
891.565	0.0159993
891.643	0.0162110
891.721	0.0161643
891.799	0.0160509
891.878	0.0160233
891.956	0.0159798
892.034	0.0159499
892.112	0.0158917
892.190	0.0159254
892.268	0.0159385
892.346	0.0158511
892.424	0.0159392
892.503	0.0159612
892.581	0.0158322
892.659	0.0158288
892.737	0.0158755
892.815	0.0158595
892.893	0.0158954
892.971	0.0158510
893.049	0.0160065
893.128	0.0158851
893.206	0.0159391
893.284	0.0159588
893.362	0.0158720
893.440	0.0160720
893.518	0.0160092
893.596	0.0160443
893.674	0.0161655
893.753	0.0158804
893.831	0.0160644
893.909	0.0159082
893.987	0.0159717
894.065	0.0161383
894.143	0.0161023
894.221	0.0159933
894.299	0.0158826
894.378	0.0161024
894.456	0.0160656
894.534	0.0161031
894.612	0.0159281
894.690	0.0159409
894.768	0.0160081
894.846	0.0160312
894.924	0.0159635
895.003	0.0159521
895.081	0.0159220
895.159	0.0159554
895.237	0.0160178
895.315	0.0159460
895.393	0.0158226
895.471	0.0159131
895.549	0.0160487
895.628	0.0160576
895.706	0.0159186
895.784	0.0159055
895.862	0.0160826
895.940	0.0160947
896.018	0.0159658
896.096	0.0160069
896.174	0.0160311
896.253	0.0159232
896.331	0.0159705
896.409	0.0161479
896.487	0.0160287
896.565	0.0159775
896.643	0.0159829
896.721	0.0158304
896.799	0.0160143
896.878	0.0159576
896.956	0.0159019
897.034	0.0160649
897.112	0.0160641
897.190	0.0160010
897.268	0.0159309
897.346	0.0159819
897.424	0.0158873
897.503	0.0157741
897.581	0.0158454
897.659	0.0158804
897.737	0.0159695
897.815	0.0157810
897.893	0.0160213
897.971	0.0159681
898.049	0.0158926
898.128	0.0159409
898.206	0.0158785
898.284	0.0159799
898.362	0.0159943
898.440	0.0160651
898.518	0.0160197
898.596	0.0159607
898.674	0.0159891
898.753	0.0160303
898.831	0.0161368
898.909	0.0160018
898.987	0.0159989
899.065	0.0160294
899.143	0.0160034
899.221	0.0156971
899.299	0.0159348
899.378	0.0160345
899.456	0.0157923
899.534	0.0159084
899.612	0.0159560
899.690	0.0159577
899.768	0.0159919
899.846	0.0158570
899.924	0.0159236
900.003	0.0158977
900.081	0.0159417
900.159	0.0160989
900.237	0.0157639
900.315	0.0158556
900.393	0.0160551
900.471	0.0159783
900.549	0.0157500
900.628	0.0160725
900.706	0.0159515
900.784	0.0159247
900.862	0.0160284
900.940	0.0158377
901.018	0.0158492
901.096	0.0159068
901.174	0.0159278
901.253	0.0159035
901.331	0.0157871
901.409	0.0159162
901.487	0.0158684
901.565	0.0158389
901.643	0.0158317
901.721	0.0160373
901.799	0.0158937
901.878	0.0159277
901.956	0.0159305
902.034	0.0160590
902.112	0.0158997
902.190	0.0159988
902.268	0.0158733
902.346	0.0159325
902.424	0.0159440
902.503	0.0159619
902.581	0.0159077
902.659	0.0159315
902.737	0.0159557
902.815	0.0160141
902.893	0.0160008
902.971	0.0160567
903.049	0.0158755
903.128	0.0161182
903.206	0.0160512
903.284	0.0160810
903.362	0.0161114
903.440	0.0159469
903.518	0.0160609
903.596	0.0159808
903.674	0.0159887
903.753	0.0160619
903.831	0.0159743
903.909	0.0160077
903.987	0.0159830
904.065	0.0159466
904.143	0.0159267
904.221	0.0160207
904.299	0.0159898
904.378	0.0158685
904.456	0.0160076
904.534	0.0159958
904.612	0.0158083
904.690	0.0158264
904.768	0.0159728
904.846	0.0157535
904.924	0.0158313
905.003	0.0158717
905.081	0.0158717
905.159	0.0157107
905.237	0.0158152
905.315	0.0158825
905.393	0.0158343
905.471	0.0159322
905.549	0.0159090
905.628	0.0159306
905.706	0.0159319
905.784	0.0158954
905.862	0.0158719
905.940	0.0158986
906.018	0.0159853
906.096	0.0158852
906.174	0.0158865
906.253	0.0160159
906.331	0.0159273
906.409	0.0160477
906.487	0.0160188
906.565	0.0160659
906.643	0.0160620
906.721	0.0158866
906.799	0.0160899
906.878	0.0160272
906.956	0.0160220
907.034	0.0160065
907.112	0.0162115
907.190	0.0161804
907.268	0.0162672
907.346	0.0161165
907.424	0.0160643
907.503	0.0159915
907.581	0.0159461
907.659	0.0159561
907.737	0.0160285
907.815	0.0161131
907.893	0.0160706
907.971	0.0159431
908.049	0.0160629
908.128	0.0159317
908.206	0.0159267
908.284	0.0160529
908.362	0.0159744
908.440	0.0159692
908.518	0.0158984
908.596	0.0159092
908.674	0.0158681
908.753	0.0157580
908.831	0.0158580
908.909	0.0160056
908.987	0.0158323
909.065	0.0158574
909.143	0.0157700
909.221	0.0157547
909.299	0.0158176
909.378	0.0156692
909.456	0.0157972
909.534	0.0159048
909.612	0.0157852
909.690	0.0157195
909.768	0.0157288
909.846	0.0155964
909.924	0.0155824
910.003	0.0157468
910.081	0.0157534
910.159	0.0157767
910.237	0.0159280
910.315	0.0157465
910.393	0.0157692
910.471	0.0158371
910.549	0.0159133
910.628	0.0158904
910.706	0.0158569
910.784	0.0160205
910.862	0.0160409
910.940	0.0160838
911.018	0.0160442
911.096	0.0159103
911.174	0.0161924
911.253	0.0161391
911.331	0.0160458
911.409	0.0161143
911.487	0.0160796
911.565	0.0159801
911.643	0.0160159
911.721	0.0161921
911.799	0.0161551
911.878	0.0161943
911.956	0.0161871
912.034	0.0162648
912.112	0.0161179
912.190	0.0162045
912.268	0.0160529
912.346	0.0159903
912.424	0.0159844
912.503	0.0162158
912.581	0.0162016
912.659	0.0160121
912.737	0.0159887
912.815	0.0159644
912.893	0.0160233
912.971	0.0159998
913.049	0.0159737
913.128	0.0159055
913.206	0.0159617
913.284	0.0157332
913.362	0.0159228
913.440	0.0159755
913.518	0.0157437
913.596	0.0157953
913.674	0.0157626
913.753	0.0159002
913.831	0.0158511
913.909	0.0159238
913.987	0.0157339
914.065	0.0158366
914.143	0.0157827
914.221	0.0158183
914.299	0.0158193
914.378	0.0157002
914.456	0.0157802
914.534	0.0158981
914.612	0.0157740
914.690	0.0157842
914.768	0.0159843
914.846	0.0159349
914.924	0.0159429
915.003	0.0160355
915.081	0.0160356
915.159	0.0158877
915.237	0.0158644
915.315	0.0160030
915.393	0.0160838
915.471	0.0159055
915.549	0.0159245
915.628	0.0159892
915.706	0.0158748
915.784	0.0159312
915.862	0.0158695
915.940	0.0159990
916.018	0.0159081
916.096	0.0158847
916.174	0.0160163
916.253	0.0159828
916.331	0.0159604
916.409	0.0160329
916.487	0.0160828
916.565	0.0161617
916.643	0.0160203
916.721	0.0160487
916.799	0.0159887
916.878	0.0161475
916.956	0.0161774
917.034	0.0161491
917.112	0.0159848
917.190	0.0161221
917.268	0.0161169
917.346	0.0161329
917.424	0.0160292
917.503	0.0160591
917.581	0.0161607
917.659	0.0161116
917.737	0.0160347
917.815	0.0161259
917.893	0.0161730
917.971	0.0158466
918.049	0.0159664
918.128	0.0159766
918.206	0.0158214
918.284	0.0159374
918.362	0.0159417
918.440	0.0159667
918.518	0.0158997
918.596	0.0158806
918.674	0.0159177
918.753	0.0159447
918.831	0.0158662
918.909	0.0157664
918.987	0.0160202
919.065	0.0157107
919.143	0.0159142
919.221	0.0159363
919.299	0.0158610
919.378	0.0157645
919.456	0.0157868
919.534	0.0158765
919.612	0.0159535
919.690	0.0157762
919.768	0.0158867
919.846	0.0160255
919.924	0.0159222
920.003	0.0159061
920.081	0.0158195
920.159	0.0158360
920.237	0.0159940
920.315	0.0159278
920.393	0.0158965
920.471	0.0160902
920.549	0.0158854
920.628	0.0160976
920.706	0.0160127
920.784	0.0159604
920.862	0.0159328
920.940	0.0159518
921.018	0.0159196
921.096	0.0160256
921.174	0.0160796
921.253	0.0159830
921.331	0.0159187
921.409	0.0161503
921.487	0.0159533
921.565	0.0159580
921.643	0.0160903
921.721	0.0160286
921.799	0.0160605
921.878	0.0159446
921.956	0.0161583
922.034	0.0162936
922.112	0.0160626
922.190	0.0159776
922.268	0.0161371
922.346	0.0161011
922.424	0.0162287
922.503	0.0160854
922.581	0.0160758
922.659	0.0160607
922.737	0.0160419
922.815	0.0159486
922.893	0.0160627
922.971	0.0160542
923.049	0.0158521
923.128	0.0159109
923.206	0.0157654
923.284	0.0158702
923.362	0.0158982
923.440	0.0159050
923.518	0.0158646
923.596	0.0159347
923.674	0.0159200
923.753	0.0157452
923.831	0.0158552
923.909	0.0158979
923.987	0.0158745
924.065	0.0158056
924.143	0.0158522
924.221	0.0158793
924.299	0.0158492
924.378	0.0159007
924.456	0.0159093
924.534	0.0157992
924.612	0.0158440
924.690	0.0159818
924.768	0.0158586
924.846	0.0159325
924.924	0.0159524
925.003	0.0157397
925.081	0.0157935
925.159	0.0159011
925.237	0.0158964
925.315	0.0158978
925.393	0.0158647
925.471	0.0160243
925.549	0.0159924
925.628	0.0158761
925.706	0.0158087
925.784	0.0160013
925.862	0.0159695
925.940	0.0159229
926.018	0.0158415
926.096	0.0161391
926.174	0.0158538
926.253	0.0158020
926.331	0.0160193
926.409	0.0160827
926.487	0.0160967
926.565	0.0159193
926.643	0.0159376
926.721	0.0159702
926.799	0.0159081
926.878	0.0159307
926.956	0.0161284
927.034	0.0160366
927.112	0.0159172
927.190	0.0159473
927.268	0.0159250
927.346	0.0157929
927.424	0.0159656
927.503	0.0158956
927.581	0.0158865
927.659	0.0158971
927.737	0.0158434
927.815	0.0159044
927.893	0.0158761
927.971	0.0159061
928.049	0.0159757
928.128	0.0158992
928.206	0.0157867
928.284	0.0159894
928.362	0.0158389
928.440	0.0159866
928.518	0.0158871
928.596	0.0158424
928.674	0.0158785
928.753	0.0159403
928.831	0.0160137
928.909	0.0159131
928.987	0.0158498
929.065	0.0159483
929.143	0.0159204
929.221	0.0158974
929.299	0.0159398
929.378	0.0160341
929.456	0.0158865
929.534	0.0158811
929.612	0.0159931
929.690	0.0159849
929.768	0.0161552
929.846	0.0160537
929.924	0.0159775
930.003	0.0160159
930.081	0.0160017
930.159	0.0160954
930.237	0.0159458
930.315	0.0158651
930.393	0.0160723
930.471	0.0158762
930.549	0.0158433
930.628	0.0159945
930.706	0.0159148
930.784	0.0158566
930.862	0.0159424
930.940	0.0159467
931.018	0.0157774
931.096	0.0159087
931.174	0.0159761
931.253	0.0159390
931.331	0.0158974
931.409	0.0159669
931.487	0.0159998
931.565	0.0158837
931.643	0.0159108
931.721	0.0160523
931.799	0.0160712
931.878	0.0159595
931.956	0.0159399
932.034	0.0161214
932.112	0.0161143
932.190	0.0160091
932.268	0.0157426
932.346	0.0158038
932.424	0.0158714
932.503	0.0160085
932.581	0.0160321
932.659	0.0159275
932.737	0.0159077
932.815	0.0160661
932.893	0.0159859
932.971	0.0158340
933.049	0.0159073
933.128	0.0159768
933.206	0.0158581
933.284	0.0160663
933.362	0.0158932
933.440	0.0158767
933.518	0.0159731
933.596	0.0159741
933.674	0.0159589
933.753	0.0159952
933.831	0.0161263
933.909	0.0161220
933.987	0.0159549
934.065	0.0160181
934.143	0.0161434
934.221	0.0159839
934.299	0.0160567
934.378	0.0159719
934.456	0.0159843
934.534	0.0160832
934.612	0.0160496
934.690	0.0159644
934.768	0.0159283
934.846	0.0160994
934.924	0.0159192
935.003	0.0158600
935.081	0.0159691
935.159	0.0159501
935.237	0.0160049
935.315	0.0160665
935.393	0.0160372
935.471	0.0159916
935.549	0.0159559
935.628	0.0159972
935.706	0.0159354
935.784	0.0158658
935.862	0.0157851
935.940	0.0159281
936.018	0.0158769
936.096	0.0158949
936.174	0.0159247
936.253	0.0157671
936.331	0.0158163
936.409	0.0159023
936.487	0.0159502
936.565	0.0158282
936.643	0.0158018
936.721	0.0158617
936.799	0.0157790
936.878	0.0159933
936.956	0.0159333
937.034	0.0159271
937.112	0.0159383
937.190	0.0159231
937.268	0.0158766
937.346	0.0159281
937.424	0.0158236
937.503	0.0158688
937.581	0.0158685
937.659	0.0158312
937.737	0.0159441
937.815	0.0159953
937.893	0.0159132
937.971	0.0158767
938.049	0.0159203
938.128	0.0158919
938.206	0.0158703
938.284	0.0158857
938.362	0.0159023
938.440	0.0159698
938.518	0.0159850
938.596	0.0159541
938.674	0.0160329
938.753	0.0160406
938.831	0.0160247
938.909	0.0159567
938.987	0.0159550
939.065	0.0161040
939.143	0.0158855
939.221	0.0159741
939.299	0.0160014
939.378	0.0160576
939.456	0.0159508
939.534	0.0158736
939.612	0.0160007
939.690	0.0160235
939.768	0.0158864
939.846	0.0159052
939.924	0.0160628
940.003	0.0158749
940.081	0.0159599
940.159	0.0158484
940.237	0.0159370
940.315	0.0158511
940.393	0.0157607
940.471	0.0159393
940.549	0.0160001
940.628	0.0159589
940.706	0.0161498
940.784	0.0160563
940.862	0.0158649
940.940	0.0159916
941.018	0.0159531
941.096	0.0160997
941.174	0.0160416
941.253	0.0158838
941.331	0.0159209
941.409	0.0159315
941.487	0.0159522
941.565	0.0158187
941.643	0.0158547
941.721	0.0158669
941.799	0.0157476
941.878	0.0159052
941.956	0.0160017
942.034	0.0159158
942.112	0.0156274
942.190	0.0158400
942.268	0.0158328
942.346	0.0158071
942.424	0.0158612
942.503	0.0158193
942.581	0.0157446
942.659	0.0158162
942.737	0.0158437
942.815	0.0158595
942.893	0.0159633
942.971	0.0159589
943.049	0.0159262
943.128	0.0158862
943.206	0.0160265
943.284	0.0160080
943.362	0.0160492
943.440	0.0159992
943.518	0.0160532
943.596	0.0159904
943.674	0.0161240
943.753	0.0159856
943.831	0.0160075
943.909	0.0161494
943.987	0.0161028
944.065	0.0161701
944.143	0.0160337
944.221	0.0160587
944.299	0.0160194
944.378	0.0159814
944.456	0.0160334
944.534	0.0160667
944.612	0.0160181
944.690	0.0158737
944.768	0.0160651
944.846	0.0159917
944.924	0.0159950
945.003	0.0159989
945.081	0.0159997
945.159	0.0159061
945.237	0.0160871
945.315	0.0160317
945.393	0.0160088
945.471	0.0160786
945.549	0.0159915
945.628	0.0158480
945.706	0.0158865
945.784	0.0158846
945.862	0.0158958
945.940	0.0159460
946.018	0.0159191
946.096	0.0158516
946.174	0.0158866
946.253	0.0159361
946.331	0.0159344
946.409	0.0158204
946.487	0.0159135
946.565	0.0159239
946.643	0.0160137
946.721	0.0158652
946.799	0.0159141
946.878	0.0157536
946.956	0.0158782
947.034	0.0159789
947.112	0.0158982
947.190	0.0158427
947.268	0.0158234
947.346	0.0158660
947.424	0.0158386
947.503	0.0158438
947.581	0.0158628
947.659	0.0158308
947.737	0.0157322
947.815	0.0159485
947.893	0.0158096
947.971	0.0158036
948.049	0.0158604
948.128	0.0158405
948.206	0.0159166
948.284	0.0159141
948.362	0.0156978
948.440	0.0156578
948.518	0.0158385
948.596	0.0158266
948.674	0.0159071
948.753	0.0159142
948.831	0.0158652
948.909	0.0158576
948.987	0.0159743
949.065	0.0159207
949.143	0.0159951
949.221	0.0159119
949.299	0.0159517
949.378	0.0159951
949.456	0.0158572
949.534	0.0160221
949.612	0.0159103
949.690	0.0159336
949.768	0.0158813
949.846	0.0157442
949.924	0.0159784
