05/19/2022	00:42:53	Ver.	4.1	UNKNOWN
Optical Delay	630.002507	Delta X		0.078125	Sweeps	1	Scan Rate	0/0
Coordinates	Axis 1	NaN	Axis 2	NaN	Axis 3	NaN	Axis 4	NaN	Axis 5	NaN	Axis 6	0.000000
TX Power	0.000000	RX Power	0.000000

630.003	0.0161559
630.081	0.0161729
630.159	0.0159969
630.237	0.0161776
630.315	0.0160818
630.393	0.0161022
630.471	0.0161666
630.549	0.0161894
630.628	0.0162164
630.706	0.0161946
630.784	0.0160866
630.862	0.0162344
630.940	0.0158778
631.018	0.0161156
631.096	0.0162195
631.174	0.0161147
631.253	0.0160586
631.331	0.0161216
631.409	0.0161401
631.487	0.0161755
631.565	0.0160864
631.643	0.0160938
631.721	0.0161587
631.799	0.0160926
631.878	0.0162231
631.956	0.0161711
632.034	0.0161047
632.112	0.0162137
632.190	0.0161024
632.268	0.0161733
632.346	0.0160638
632.424	0.0161605
632.503	0.0160032
632.581	0.0160674
632.659	0.0161954
632.737	0.0160951
632.815	0.0163013
632.893	0.0160030
632.971	0.0162231
633.049	0.0162344
633.128	0.0161076
633.206	0.0161428
633.284	0.0162640
633.362	0.0162276
633.440	0.0161095
633.518	0.0161160
633.596	0.0161210
633.674	0.0161362
633.753	0.0162484
633.831	0.0161715
633.909	0.0161755
633.987	0.0162235
634.065	0.0162017
634.143	0.0162486
634.221	0.0162114
634.299	0.0160469
634.378	0.0162434
634.456	0.0162900
634.534	0.0161716
634.612	0.0161711
634.690	0.0161218
634.768	0.0160163
634.846	0.0161022
634.924	0.0163005
635.003	0.0160991
635.081	0.0161659
635.159	0.0161933
635.237	0.0161739
635.315	0.0160633
635.393	0.0161244
635.471	0.0162118
635.549	0.0161923
635.628	0.0162700
635.706	0.0162376
635.784	0.0161372
635.862	0.0160674
635.940	0.0162569
636.018	0.0161443
636.096	0.0162115
636.174	0.0161320
636.253	0.0162548
636.331	0.0161717
636.409	0.0160912
636.487	0.0162591
636.565	0.0162146
636.643	0.0161375
636.721	0.0161063
636.799	0.0162462
636.878	0.0160947
636.956	0.0160826
637.034	0.0161817
637.112	0.0162572
637.190	0.0161708
637.268	0.0161728
637.346	0.0162251
637.424	0.0163268
637.503	0.0161375
637.581	0.0159911
637.659	0.0162295
637.737	0.0161726
637.815	0.0161766
637.893	0.0162282
637.971	0.0161417
638.049	0.0161928
638.128	0.0162589
638.206	0.0161625
638.284	0.0160979
638.362	0.0160545
638.440	0.0160843
638.518	0.0163457
638.596	0.0162990
638.674	0.0160382
638.753	0.0160004
638.831	0.0161604
638.909	0.0159488
638.987	0.0161608
639.065	0.0161839
639.143	0.0160065
639.221	0.0161875
639.299	0.0161388
639.378	0.0161405
639.456	0.0160708
639.534	0.0160769
639.612	0.0160555
639.690	0.0160395
639.768	0.0162688
639.846	0.0161543
639.924	0.0161031
640.003	0.0161686
640.081	0.0161850
640.159	0.0162050
640.237	0.0161485
640.315	0.0160423
640.393	0.0159962
640.471	0.0160664
640.549	0.0162406
640.628	0.0160464
640.706	0.0161377
640.784	0.0160441
640.862	0.0160652
640.940	0.0162556
641.018	0.0161845
641.096	0.0161123
641.174	0.0160336
641.253	0.0161772
641.331	0.0160741
641.409	0.0161355
641.487	0.0162031
641.565	0.0161652
641.643	0.0161246
641.721	0.0159695
641.799	0.0161604
641.878	0.0161850
641.956	0.0161275
642.034	0.0161607
642.112	0.0160703
642.190	0.0161040
642.268	0.0162637
642.346	0.0161814
642.424	0.0160516
642.503	0.0160487
642.581	0.0161082
642.659	0.0161560
642.737	0.0161382
642.815	0.0162241
642.893	0.0161465
642.971	0.0161590
643.049	0.0160715
643.128	0.0160461
643.206	0.0161619
643.284	0.0160969
643.362	0.0161578
643.440	0.0161369
643.518	0.0159908
643.596	0.0161317
643.674	0.0160285
643.753	0.0161140
643.831	0.0161273
643.909	0.0162264
643.987	0.0161268
644.065	0.0162063
644.143	0.0160957
644.221	0.0160651
644.299	0.0161650
644.378	0.0161949
644.456	0.0161311
644.534	0.0162679
644.612	0.0163026
644.690	0.0162244
644.768	0.0161280
644.846	0.0160520
644.924	0.0161312
645.003	0.0161731
645.081	0.0161005
645.159	0.0160158
645.237	0.0161222
645.315	0.0161992
645.393	0.0161086
645.471	0.0160841
645.549	0.0161462
645.628	0.0162146
645.706	0.0162466
645.784	0.0161758
645.862	0.0160933
645.940	0.0162477
646.018	0.0162492
646.096	0.0162298
646.174	0.0161991
646.253	0.0162340
646.331	0.0161637
646.409	0.0160471
646.487	0.0160673
646.565	0.0161471
646.643	0.0161874
646.721	0.0161976
646.799	0.0160441
646.878	0.0161120
646.956	0.0162930
647.034	0.0161818
647.112	0.0162096
647.190	0.0161870
647.268	0.0161061
647.346	0.0161185
647.424	0.0160202
647.503	0.0162258
647.581	0.0162094
647.659	0.0161088
647.737	0.0161311
647.815	0.0163076
647.893	0.0161425
647.971	0.0161317
648.049	0.0160946
648.128	0.0162636
648.206	0.0161316
648.284	0.0161242
648.362	0.0160206
648.440	0.0160410
648.518	0.0160966
648.596	0.0162886
648.674	0.0161348
648.753	0.0162016
648.831	0.0161102
648.909	0.0161414
648.987	0.0161362
649.065	0.0162042
649.143	0.0161781
649.221	0.0162085
649.299	0.0162119
649.378	0.0161230
649.456	0.0160966
649.534	0.0161217
649.612	0.0162086
649.690	0.0161990
649.768	0.0160873
649.846	0.0160405
649.924	0.0161018
650.003	0.0162440
650.081	0.0162276
650.159	0.0161605
650.237	0.0161200
650.315	0.0161427
650.393	0.0160530
650.471	0.0160918
650.549	0.0160823
650.628	0.0161622
650.706	0.0162750
650.784	0.0161391
650.862	0.0161561
650.940	0.0162022
651.018	0.0160793
651.096	0.0163341
651.174	0.0162535
651.253	0.0160516
651.331	0.0161208
651.409	0.0162820
651.487	0.0162097
651.565	0.0161687
651.643	0.0161885
651.721	0.0160939
651.799	0.0162548
651.878	0.0163272
651.956	0.0161311
652.034	0.0162650
652.112	0.0162193
652.190	0.0161527
652.268	0.0162534
652.346	0.0161256
652.424	0.0160650
652.503	0.0163635
652.581	0.0161995
652.659	0.0161243
652.737	0.0160422
652.815	0.0161198
652.893	0.0161840
652.971	0.0162906
653.049	0.0161328
653.128	0.0161369
653.206	0.0161974
653.284	0.0162337
653.362	0.0160304
653.440	0.0161842
653.518	0.0162932
653.596	0.0161142
653.674	0.0161576
653.753	0.0160911
653.831	0.0160718
653.909	0.0160701
653.987	0.0161086
654.065	0.0161256
654.143	0.0162585
654.221	0.0160883
654.299	0.0162601
654.378	0.0162927
654.456	0.0160147
654.534	0.0160880
654.612	0.0163042
654.690	0.0161658
654.768	0.0160314
654.846	0.0161201
654.924	0.0161827
655.003	0.0161257
655.081	0.0162344
655.159	0.0161564
655.237	0.0162032
655.315	0.0161568
655.393	0.0160690
655.471	0.0160508
655.549	0.0162530
655.628	0.0163110
655.706	0.0160702
655.784	0.0162065
655.862	0.0162420
655.940	0.0161831
656.018	0.0161725
656.096	0.0161938
656.174	0.0161172
656.253	0.0161439
656.331	0.0161592
656.409	0.0161331
656.487	0.0161436
656.565	0.0161659
656.643	0.0163116
656.721	0.0163209
656.799	0.0160999
656.878	0.0162202
656.956	0.0161513
657.034	0.0161353
657.112	0.0161320
657.190	0.0161701
657.268	0.0162354
657.346	0.0161626
657.424	0.0161290
657.503	0.0161388
657.581	0.0160757
657.659	0.0162011
657.737	0.0161697
657.815	0.0160954
657.893	0.0161104
657.971	0.0161305
658.049	0.0163709
658.128	0.0161411
658.206	0.0161156
658.284	0.0162215
658.362	0.0161600
658.440	0.0161075
658.518	0.0161044
658.596	0.0162515
658.674	0.0161816
658.753	0.0162028
658.831	0.0162488
658.909	0.0161437
658.987	0.0162372
659.065	0.0161934
659.143	0.0160629
659.221	0.0161957
659.299	0.0161176
659.378	0.0163278
659.456	0.0163783
659.534	0.0161352
659.612	0.0162156
659.690	0.0161356
659.768	0.0161638
659.846	0.0161837
659.924	0.0160098
660.003	0.0161800
660.081	0.0162116
660.159	0.0162042
660.237	0.0162484
660.315	0.0162461
660.393	0.0161927
660.471	0.0159495
660.549	0.0161871
660.628	0.0162219
660.706	0.0161810
660.784	0.0162818
660.862	0.0161932
660.940	0.0161010
661.018	0.0161031
661.096	0.0162283
661.174	0.0161936
661.253	0.0161888
661.331	0.0160944
661.409	0.0162003
661.487	0.0162142
661.565	0.0161269
661.643	0.0161606
661.721	0.0162238
661.799	0.0162385
661.878	0.0162229
661.956	0.0162495
662.034	0.0161845
662.112	0.0161702
662.190	0.0160896
662.268	0.0161174
662.346	0.0161635
662.424	0.0162289
662.503	0.0162122
662.581	0.0159768
662.659	0.0162402
662.737	0.0162666
662.815	0.0160902
662.893	0.0161539
662.971	0.0161601
663.049	0.0161434
663.128	0.0161375
663.206	0.0160612
663.284	0.0161586
663.362	0.0162790
663.440	0.0160411
663.518	0.0162271
663.596	0.0160903
663.674	0.0162635
663.753	0.0161024
663.831	0.0162019
663.909	0.0161312
663.987	0.0161355
664.065	0.0161294
664.143	0.0161292
664.221	0.0160597
664.299	0.0161469
664.378	0.0162386
664.456	0.0161706
664.534	0.0160414
664.612	0.0161357
664.690	0.0161024
664.768	0.0161399
664.846	0.0160050
664.924	0.0160448
665.003	0.0161958
665.081	0.0161077
665.159	0.0161675
665.237	0.0161937
665.315	0.0160720
665.393	0.0162134
665.471	0.0162394
665.549	0.0160988
665.628	0.0160404
665.706	0.0161514
665.784	0.0161732
665.862	0.0162640
665.940	0.0161211
666.018	0.0160482
666.096	0.0160206
666.174	0.0161783
666.253	0.0161517
666.331	0.0161194
666.409	0.0160584
666.487	0.0161583
666.565	0.0163210
666.643	0.0160336
666.721	0.0159845
666.799	0.0161388
666.878	0.0161674
666.956	0.0162876
667.034	0.0161263
667.112	0.0159151
667.190	0.0160342
667.268	0.0162307
667.346	0.0162581
667.424	0.0161616
667.503	0.0160516
667.581	0.0160292
667.659	0.0160984
667.737	0.0161614
667.815	0.0159808
667.893	0.0162386
667.971	0.0160904
668.049	0.0160787
668.128	0.0160902
668.206	0.0160637
668.284	0.0160104
668.362	0.0159533
668.440	0.0161664
668.518	0.0161868
668.596	0.0161870
668.674	0.0161565
668.753	0.0160671
668.831	0.0161536
668.909	0.0161678
668.987	0.0162914
669.065	0.0162120
669.143	0.0161506
669.221	0.0160849
669.299	0.0161644
669.378	0.0161916
669.456	0.0161890
669.534	0.0161613
669.612	0.0161121
669.690	0.0162858
669.768	0.0161621
669.846	0.0162186
669.924	0.0161086
670.003	0.0160626
670.081	0.0161223
670.159	0.0162447
670.237	0.0162109
670.315	0.0161549
670.393	0.0162237
670.471	0.0161153
670.549	0.0161546
670.628	0.0161313
670.706	0.0162281
670.784	0.0160549
670.862	0.0161484
670.940	0.0161318
671.018	0.0161354
671.096	0.0160911
671.174	0.0162016
671.253	0.0161977
671.331	0.0160612
671.409	0.0162183
671.487	0.0160925
671.565	0.0160220
671.643	0.0160010
671.721	0.0161143
671.799	0.0160092
671.878	0.0161100
671.956	0.0162515
672.034	0.0160963
672.112	0.0161370
672.190	0.0160893
672.268	0.0160689
672.346	0.0159815
672.424	0.0161431
672.503	0.0161112
672.581	0.0161129
672.659	0.0161595
672.737	0.0161922
672.815	0.0160882
672.893	0.0160155
672.971	0.0161289
673.049	0.0161325
673.128	0.0162674
673.206	0.0161404
673.284	0.0162437
673.362	0.0161216
673.440	0.0162098
673.518	0.0160184
673.596	0.0162954
673.674	0.0160802
673.753	0.0161460
673.831	0.0163250
673.909	0.0161579
673.987	0.0161359
674.065	0.0161073
674.143	0.0161823
674.221	0.0162583
674.299	0.0160563
674.378	0.0162228
674.456	0.0161668
674.534	0.0162513
674.612	0.0161018
674.690	0.0161675
674.768	0.0161996
674.846	0.0161389
674.924	0.0161382
675.003	0.0162035
675.081	0.0161447
675.159	0.0161404
675.237	0.0162222
675.315	0.0161752
675.393	0.0162691
675.471	0.0163345
675.549	0.0162595
675.628	0.0162709
675.706	0.0163139
675.784	0.0161973
675.862	0.0161932
675.940	0.0162170
676.018	0.0161031
676.096	0.0162168
676.174	0.0162189
676.253	0.0160802
676.331	0.0162296
676.409	0.0160231
676.487	0.0159415
676.565	0.0159681
676.643	0.0161603
676.721	0.0161103
676.799	0.0160071
676.878	0.0161528
676.956	0.0160001
677.034	0.0160976
677.112	0.0162133
677.190	0.0161518
677.268	0.0161395
677.346	0.0163885
677.424	0.0163190
677.503	0.0162265
677.581	0.0163351
677.659	0.0161600
677.737	0.0164793
677.815	0.0164823
677.893	0.0163125
677.971	0.0163298
678.049	0.0161086
678.128	0.0160387
678.206	0.0161273
678.284	0.0160732
678.362	0.0160854
678.440	0.0161113
678.518	0.0160820
678.596	0.0160744
678.674	0.0159760
678.753	0.0161071
678.831	0.0160766
678.909	0.0159882
678.987	0.0160970
679.065	0.0159596
679.143	0.0160841
679.221	0.0160535
679.299	0.0160809
679.378	0.0161876
679.456	0.0161753
679.534	0.0161015
679.612	0.0161230
679.690	0.0161037
679.768	0.0159882
679.846	0.0160659
679.924	0.0161412
680.003	0.0160976
680.081	0.0160072
680.159	0.0159712
680.237	0.0160052
680.315	0.0160558
680.393	0.0160350
680.471	0.0159000
680.549	0.0157656
680.628	0.0159731
680.706	0.0160118
680.784	0.0158949
680.862	0.0161003
680.940	0.0159794
681.018	0.0160414
681.096	0.0160877
681.174	0.0162698
681.253	0.0161909
681.331	0.0163595
681.409	0.0163475
681.487	0.0162753
681.565	0.0163495
681.643	0.0163589
681.721	0.0164262
681.799	0.0162653
681.878	0.0162457
681.956	0.0163090
682.034	0.0163717
682.112	0.0163416
682.190	0.0164106
682.268	0.0162560
682.346	0.0162457
682.424	0.0163561
682.503	0.0164118
682.581	0.0162731
682.659	0.0163752
682.737	0.0162877
682.815	0.0162776
682.893	0.0161539
682.971	0.0164873
683.049	0.0164856
683.128	0.0163164
683.206	0.0165947
683.284	0.0165756
683.362	0.0167207
683.440	0.0166531
683.518	0.0166614
683.596	0.0167188
683.674	0.0168680
683.753	0.0167785
683.831	0.0167693
683.909	0.0167453
683.987	0.0166329
684.065	0.0164512
684.143	0.0166047
684.221	0.0164904
684.299	0.0163073
684.378	0.0162589
684.456	0.0161312
684.534	0.0159900
684.612	0.0159682
684.690	0.0159121
684.768	0.0156718
684.846	0.0153580
684.924	0.0151728
685.003	0.0153036
685.081	0.0151315
685.159	0.0150789
685.237	0.0150420
685.315	0.0150169
685.393	0.0151141
685.471	0.0151368
685.549	0.0152750
685.628	0.0153009
685.706	0.0153669
685.784	0.0154998
685.862	0.0157304
685.940	0.0158279
686.018	0.0160927
686.096	0.0160825
686.174	0.0162470
686.253	0.0164507
686.331	0.0166183
686.409	0.0166578
686.487	0.0167611
686.565	0.0168619
686.643	0.0168855
686.721	0.0167973
686.799	0.0167719
686.878	0.0167579
686.956	0.0167915
687.034	0.0169458
687.112	0.0169381
687.190	0.0169273
687.268	0.0169237
687.346	0.0170818
687.424	0.0169869
687.503	0.0169062
687.581	0.0169637
687.659	0.0168355
687.737	0.0168932
687.815	0.0168761
687.893	0.0168218
687.971	0.0168102
688.049	0.0165747
688.128	0.0165252
688.206	0.0164175
688.284	0.0162962
688.362	0.0160350
688.440	0.0161596
688.518	0.0161639
688.596	0.0158735
688.674	0.0158379
688.753	0.0155624
688.831	0.0155840
688.909	0.0154661
688.987	0.0153310
689.065	0.0150882
689.143	0.0150026
689.221	0.0148221
689.299	0.0147903
689.378	0.0148486
689.456	0.0148529
689.534	0.0147330
689.612	0.0148566
689.690	0.0149293
689.768	0.0149819
689.846	0.0150913
689.924	0.0152983
690.003	0.0152826
690.081	0.0152892
690.159	0.0156155
690.237	0.0157446
690.315	0.0160273
690.393	0.0160014
690.471	0.0160825
690.549	0.0162855
690.628	0.0164802
690.706	0.0166879
690.784	0.0167936
690.862	0.0167767
690.940	0.0169866
691.018	0.0169242
691.096	0.0169561
691.174	0.0171024
691.253	0.0171042
691.331	0.0169733
691.409	0.0171492
691.487	0.0171202
691.565	0.0172170
691.643	0.0170750
691.721	0.0170193
691.799	0.0169966
691.878	0.0172627
691.956	0.0172308
692.034	0.0172217
692.112	0.0171980
692.190	0.0170284
692.268	0.0172763
692.346	0.0173395
692.424	0.0172762
692.503	0.0173411
692.581	0.0172333
692.659	0.0171966
692.737	0.0171649
692.815	0.0171759
692.893	0.0169814
692.971	0.0168764
693.049	0.0166548
693.128	0.0164477
693.206	0.0162732
693.284	0.0160613
693.362	0.0157832
693.440	0.0156014
693.518	0.0156190
693.596	0.0151940
693.674	0.0152324
693.753	0.0151931
693.831	0.0150735
693.909	0.0150932
693.987	0.0147736
694.065	0.0148569
694.143	0.0150425
694.221	0.0149508
694.299	0.0148141
694.378	0.0148740
694.456	0.0148278
694.534	0.0148590
694.612	0.0149085
694.690	0.0149945
694.768	0.0146918
694.846	0.0149355
694.924	0.0150460
695.003	0.0150990
695.081	0.0151505
695.159	0.0151032
695.237	0.0152331
695.315	0.0153776
695.393	0.0154884
695.471	0.0155380
695.549	0.0156267
695.628	0.0158373
695.706	0.0161181
695.784	0.0160378
695.862	0.0163018
695.940	0.0163837
696.018	0.0166574
696.096	0.0167589
696.174	0.0169314
696.253	0.0170817
696.331	0.0172259
696.409	0.0173589
696.487	0.0173913
696.565	0.0174391
696.643	0.0175877
696.721	0.0174491
696.799	0.0177049
696.878	0.0179659
696.956	0.0179268
697.034	0.0178133
697.112	0.0179939
697.190	0.0177890
697.268	0.0176344
697.346	0.0177505
697.424	0.0176485
697.503	0.0175416
697.581	0.0173245
697.659	0.0173344
697.737	0.0172562
697.815	0.0171864
697.893	0.0169110
697.971	0.0168342
698.049	0.0166840
698.128	0.0166404
698.206	0.0162605
698.284	0.0160862
698.362	0.0160090
698.440	0.0158777
698.518	0.0156485
698.596	0.0153033
698.674	0.0152769
698.753	0.0150138
698.831	0.0150057
698.909	0.0146795
698.987	0.0144823
699.065	0.0146238
699.143	0.0146090
699.221	0.0144300
699.299	0.0145292
699.378	0.0145577
699.456	0.0143877
699.534	0.0144582
699.612	0.0144973
699.690	0.0147167
699.768	0.0148316
699.846	0.0147726
699.924	0.0149593
700.003	0.0149767
700.081	0.0150118
700.159	0.0150762
700.237	0.0151683
700.315	0.0153593
700.393	0.0155590
700.471	0.0155445
700.549	0.0157390
700.628	0.0158434
700.706	0.0158826
700.784	0.0162389
700.862	0.0164202
700.940	0.0165952
701.018	0.0167764
701.096	0.0167988
701.174	0.0170489
701.253	0.0168961
701.331	0.0170470
701.409	0.0171973
701.487	0.0172204
701.565	0.0171850
701.643	0.0172686
701.721	0.0174481
701.799	0.0174323
701.878	0.0173723
701.956	0.0174533
702.034	0.0175117
702.112	0.0173211
702.190	0.0172176
702.268	0.0173616
702.346	0.0175298
702.424	0.0171722
702.503	0.0172652
702.581	0.0173341
702.659	0.0172521
702.737	0.0173676
702.815	0.0173004
702.893	0.0171851
702.971	0.0170880
703.049	0.0170620
703.128	0.0170483
703.206	0.0169864
703.284	0.0169608
703.362	0.0166756
703.440	0.0166624
703.518	0.0163913
703.596	0.0162372
703.674	0.0161234
703.753	0.0159792
703.831	0.0159341
703.909	0.0156863
703.987	0.0154424
704.065	0.0152091
704.143	0.0151663
704.221	0.0148444
704.299	0.0147235
704.378	0.0146751
704.456	0.0145500
704.534	0.0143761
704.612	0.0142670
704.690	0.0144588
704.768	0.0143640
704.846	0.0144270
704.924	0.0144665
705.003	0.0146728
705.081	0.0147282
705.159	0.0148472
705.237	0.0150628
705.315	0.0153555
705.393	0.0152202
705.471	0.0153616
705.549	0.0156770
705.628	0.0157446
705.706	0.0155653
705.784	0.0158285
705.862	0.0160203
705.940	0.0160663
706.018	0.0160934
706.096	0.0161517
706.174	0.0162128
706.253	0.0163372
706.331	0.0162430
706.409	0.0164716
706.487	0.0165339
706.565	0.0166535
706.643	0.0167009
706.721	0.0167097
706.799	0.0169332
706.878	0.0168590
706.956	0.0169358
707.034	0.0169861
707.112	0.0172122
707.190	0.0171478
707.268	0.0171074
707.346	0.0172190
707.424	0.0172443
707.503	0.0171906
707.581	0.0172435
707.659	0.0169707
707.737	0.0168728
707.815	0.0169227
707.893	0.0169399
707.971	0.0169189
708.049	0.0167072
708.128	0.0168560
708.206	0.0168192
708.284	0.0167029
708.362	0.0166812
708.440	0.0167002
708.518	0.0166234
708.596	0.0166842
708.674	0.0166856
708.753	0.0167673
708.831	0.0167750
708.909	0.0167627
708.987	0.0166572
709.065	0.0165826
709.143	0.0165331
709.221	0.0164732
709.299	0.0163920
709.378	0.0161766
709.456	0.0160616
709.534	0.0159299
709.612	0.0159100
709.690	0.0157925
709.768	0.0156551
709.846	0.0154013
709.924	0.0154094
710.003	0.0151649
710.081	0.0150345
710.159	0.0152172
710.237	0.0150481
710.315	0.0150686
710.393	0.0150697
710.471	0.0148653
710.549	0.0151566
710.628	0.0153045
710.706	0.0151977
710.784	0.0153585
710.862	0.0155803
710.940	0.0157393
711.018	0.0157085
711.096	0.0159317
711.174	0.0160803
711.253	0.0161565
711.331	0.0163354
711.409	0.0164798
711.487	0.0164809
711.565	0.0165178
711.643	0.0166952
711.721	0.0166246
711.799	0.0166653
711.878	0.0167274
711.956	0.0168890
712.034	0.0168267
712.112	0.0167344
712.190	0.0166713
712.268	0.0166392
712.346	0.0166547
712.424	0.0166392
712.503	0.0165433
712.581	0.0165709
712.659	0.0165111
712.737	0.0165704
712.815	0.0165775
712.893	0.0165680
712.971	0.0167833
713.049	0.0167182
713.128	0.0167706
713.206	0.0166765
713.284	0.0166488
713.362	0.0166461
713.440	0.0165974
713.518	0.0164324
713.596	0.0163174
713.674	0.0165392
713.753	0.0164088
713.831	0.0163162
713.909	0.0163147
713.987	0.0163044
714.065	0.0162872
714.143	0.0162248
714.221	0.0164038
714.299	0.0165043
714.378	0.0165019
714.456	0.0164687
714.534	0.0164678
714.612	0.0166320
714.690	0.0166599
714.768	0.0167330
714.846	0.0166704
714.924	0.0167481
715.003	0.0165777
715.081	0.0163780
715.159	0.0164109
715.237	0.0163695
715.315	0.0162604
715.393	0.0160487
715.471	0.0159472
715.549	0.0159605
715.628	0.0157114
715.706	0.0155405
715.784	0.0155488
715.862	0.0155462
715.940	0.0155341
716.018	0.0154939
716.096	0.0155081
716.174	0.0155109
716.253	0.0155927
716.331	0.0156078
716.409	0.0155475
716.487	0.0156290
716.565	0.0157208
716.643	0.0157556
716.721	0.0159077
716.799	0.0159456
716.878	0.0158449
716.956	0.0160951
717.034	0.0161859
717.112	0.0163795
717.190	0.0163200
717.268	0.0161858
717.346	0.0162531
717.424	0.0164692
717.503	0.0165627
717.581	0.0163461
717.659	0.0163988
717.737	0.0165014
717.815	0.0164158
717.893	0.0164017
717.971	0.0164058
718.049	0.0163186
718.128	0.0162453
718.206	0.0161525
718.284	0.0162813
718.362	0.0161272
718.440	0.0161443
718.518	0.0162038
718.596	0.0161214
718.674	0.0161185
718.753	0.0163306
718.831	0.0163425
718.909	0.0161785
718.987	0.0163561
719.065	0.0163414
719.143	0.0161955
719.221	0.0162011
719.299	0.0160962
719.378	0.0158627
719.456	0.0159794
719.534	0.0160915
719.612	0.0159444
719.690	0.0159322
719.768	0.0161000
719.846	0.0161163
719.924	0.0161623
720.003	0.0161251
720.081	0.0161401
720.159	0.0163737
720.237	0.0163995
720.315	0.0163425
720.393	0.0164384
720.471	0.0164414
720.549	0.0165233
720.628	0.0165282
720.706	0.0165864
720.784	0.0166136
720.862	0.0165346
720.940	0.0165425
721.018	0.0164619
721.096	0.0163902
721.174	0.0164707
721.253	0.0163744
721.331	0.0161971
721.409	0.0161282
721.487	0.0160392
721.565	0.0159601
721.643	0.0159096
721.721	0.0159066
721.799	0.0157734
721.878	0.0156947
721.956	0.0157063
722.034	0.0156771
722.112	0.0157862
722.190	0.0157055
722.268	0.0156495
722.346	0.0157955
722.424	0.0159433
722.503	0.0158501
722.581	0.0157494
722.659	0.0159837
722.737	0.0160903
722.815	0.0161013
722.893	0.0161832
722.971	0.0162501
723.049	0.0161823
723.128	0.0163242
723.206	0.0162672
723.284	0.0162735
723.362	0.0163021
723.440	0.0163960
723.518	0.0162702
723.596	0.0162414
723.674	0.0162020
723.753	0.0161515
723.831	0.0162070
723.909	0.0160255
723.987	0.0160667
724.065	0.0160477
724.143	0.0160651
724.221	0.0160123
724.299	0.0161258
724.378	0.0160399
724.456	0.0159658
724.534	0.0160167
724.612	0.0161211
724.690	0.0159227
724.768	0.0160098
724.846	0.0160747
724.924	0.0161425
725.003	0.0159801
725.081	0.0160816
725.159	0.0160400
725.237	0.0159810
725.315	0.0158987
725.393	0.0160046
725.471	0.0159055
725.549	0.0159978
725.628	0.0159888
725.706	0.0160531
725.784	0.0160471
725.862	0.0161272
725.940	0.0160274
726.018	0.0160484
726.096	0.0164096
726.174	0.0162962
726.253	0.0163146
726.331	0.0163660
726.409	0.0164555
726.487	0.0162875
726.565	0.0163773
726.643	0.0164142
726.721	0.0163647
726.799	0.0163702
726.878	0.0164354
726.956	0.0162634
727.034	0.0162321
727.112	0.0160696
727.190	0.0161468
727.268	0.0161071
727.346	0.0161770
727.424	0.0159271
727.503	0.0160623
727.581	0.0159908
727.659	0.0158810
727.737	0.0158659
727.815	0.0158047
727.893	0.0157706
727.971	0.0158982
728.049	0.0157275
728.128	0.0159227
728.206	0.0158738
728.284	0.0159431
728.362	0.0160034
728.440	0.0160353
728.518	0.0161301
728.596	0.0160792
728.674	0.0160810
728.753	0.0161269
728.831	0.0163189
728.909	0.0164407
728.987	0.0164048
729.065	0.0164216
729.143	0.0164459
729.221	0.0164032
729.299	0.0164063
729.378	0.0164035
729.456	0.0163929
729.534	0.0164536
729.612	0.0164320
729.690	0.0163539
729.768	0.0162381
729.846	0.0163058
729.924	0.0162040
730.003	0.0161815
730.081	0.0160975
730.159	0.0160181
730.237	0.0160278
730.315	0.0160464
730.393	0.0161483
730.471	0.0160136
730.549	0.0159457
730.628	0.0160954
730.706	0.0160085
730.784	0.0160757
730.862	0.0161440
730.940	0.0161523
731.018	0.0161145
731.096	0.0161627
731.174	0.0161473
731.253	0.0162700
731.331	0.0162473
731.409	0.0160782
731.487	0.0162387
731.565	0.0160174
731.643	0.0161108
731.721	0.0162035
731.799	0.0162719
731.878	0.0161942
731.956	0.0160948
732.034	0.0161176
732.112	0.0160960
732.190	0.0162365
732.268	0.0161953
732.346	0.0162189
732.424	0.0163670
732.503	0.0163548
732.581	0.0163442
732.659	0.0163251
732.737	0.0163209
732.815	0.0163053
732.893	0.0162820
732.971	0.0163335
733.049	0.0162127
733.128	0.0162231
733.206	0.0162721
733.284	0.0162684
733.362	0.0162843
733.440	0.0163844
733.518	0.0163227
733.596	0.0162298
733.674	0.0161055
733.753	0.0161511
733.831	0.0164548
733.909	0.0163226
733.987	0.0162535
734.065	0.0162648
734.143	0.0161647
734.221	0.0162700
734.299	0.0162217
734.378	0.0162139
734.456	0.0161080
734.534	0.0160448
734.612	0.0161438
734.690	0.0161311
734.768	0.0161270
734.846	0.0159690
734.924	0.0161478
735.003	0.0161153
735.081	0.0160497
735.159	0.0160074
735.237	0.0161322
735.315	0.0161009
735.393	0.0163616
735.471	0.0161838
735.549	0.0162804
735.628	0.0164091
735.706	0.0163873
735.784	0.0163412
735.862	0.0164702
735.940	0.0162534
736.018	0.0162563
736.096	0.0162524
736.174	0.0161114
736.253	0.0161637
736.331	0.0160207
736.409	0.0159194
736.487	0.0159375
736.565	0.0159200
736.643	0.0158837
736.721	0.0158884
736.799	0.0159357
736.878	0.0158672
736.956	0.0161317
737.034	0.0158961
737.112	0.0160614
737.190	0.0160980
737.268	0.0160931
737.346	0.0161547
737.424	0.0161450
737.503	0.0161546
737.581	0.0163799
737.659	0.0162507
737.737	0.0161255
737.815	0.0160896
737.893	0.0162672
737.971	0.0162278
738.049	0.0161669
738.128	0.0161714
738.206	0.0162102
738.284	0.0161840
738.362	0.0162556
738.440	0.0163599
738.518	0.0163074
738.596	0.0163556
738.674	0.0162770
738.753	0.0163701
738.831	0.0163565
738.909	0.0164026
738.987	0.0163665
739.065	0.0163129
739.143	0.0162176
739.221	0.0161416
739.299	0.0162217
739.378	0.0162564
739.456	0.0162520
739.534	0.0161275
739.612	0.0162495
739.690	0.0160769
739.768	0.0160999
739.846	0.0162225
739.924	0.0161240
740.003	0.0162402
740.081	0.0162179
740.159	0.0161620
740.237	0.0160516
740.315	0.0160077
740.393	0.0160314
740.471	0.0160075
740.549	0.0161436
740.628	0.0159980
740.706	0.0159995
740.784	0.0159176
740.862	0.0160325
740.940	0.0160815
741.018	0.0160514
741.096	0.0159219
741.174	0.0158720
741.253	0.0160717
741.331	0.0161823
741.409	0.0161298
741.487	0.0160447
741.565	0.0163026
741.643	0.0161389
741.721	0.0163102
741.799	0.0163565
741.878	0.0162077
741.956	0.0162798
742.034	0.0162146
742.112	0.0162257
742.190	0.0162350
742.268	0.0163695
742.346	0.0161626
742.424	0.0160675
742.503	0.0161929
742.581	0.0161750
742.659	0.0162444
742.737	0.0161018
742.815	0.0160252
742.893	0.0160354
742.971	0.0161019
743.049	0.0161179
743.128	0.0160379
743.206	0.0160446
743.284	0.0161447
743.362	0.0161787
743.440	0.0160543
743.518	0.0161617
743.596	0.0162704
743.674	0.0162465
743.753	0.0161674
743.831	0.0161823
743.909	0.0160990
743.987	0.0160838
744.065	0.0161620
744.143	0.0159693
744.221	0.0160353
744.299	0.0160949
744.378	0.0160584
744.456	0.0160143
744.534	0.0160105
744.612	0.0159996
744.690	0.0161230
744.768	0.0160806
744.846	0.0162209
744.924	0.0161842
745.003	0.0162000
745.081	0.0162817
745.159	0.0161795
745.237	0.0162604
745.315	0.0161570
745.393	0.0161095
745.471	0.0162358
745.549	0.0161616
745.628	0.0163010
745.706	0.0160960
745.784	0.0162173
745.862	0.0161510
745.940	0.0161013
746.018	0.0162179
746.096	0.0161753
746.174	0.0162540
746.253	0.0161503
746.331	0.0162202
746.409	0.0162622
746.487	0.0161304
746.565	0.0161696
746.643	0.0161356
746.721	0.0162099
746.799	0.0161475
746.878	0.0161572
746.956	0.0163421
747.034	0.0162056
747.112	0.0161893
747.190	0.0163393
747.268	0.0163274
747.346	0.0162680
747.424	0.0161637
747.503	0.0162010
747.581	0.0161615
747.659	0.0160928
747.737	0.0162134
747.815	0.0160437
747.893	0.0160860
747.971	0.0160789
748.049	0.0161111
748.128	0.0161112
748.206	0.0161588
748.284	0.0159731
748.362	0.0160597
748.440	0.0159740
748.518	0.0160566
748.596	0.0158895
748.674	0.0160439
748.753	0.0159196
748.831	0.0159048
748.909	0.0158894
748.987	0.0158661
749.065	0.0158769
749.143	0.0160223
749.221	0.0159943
749.299	0.0159949
749.378	0.0161999
749.456	0.0161762
749.534	0.0160703
749.612	0.0160750
749.690	0.0159930
749.768	0.0162605
749.846	0.0162292
749.924	0.0161606
750.003	0.0160864
750.081	0.0160757
750.159	0.0161635
750.237	0.0161530
750.315	0.0161776
750.393	0.0160118
750.471	0.0160031
750.549	0.0162234
750.628	0.0161603
750.706	0.0160394
750.784	0.0160877
750.862	0.0161542
750.940	0.0159586
751.018	0.0162032
751.096	0.0160631
751.174	0.0161468
751.253	0.0161105
751.331	0.0161398
751.409	0.0162073
751.487	0.0161720
751.565	0.0163057
751.643	0.0162656
751.721	0.0162936
751.799	0.0163376
751.878	0.0163266
751.956	0.0161179
752.034	0.0163115
752.112	0.0163403
752.190	0.0161899
752.268	0.0162161
752.346	0.0162668
752.424	0.0162125
752.503	0.0161972
752.581	0.0161842
752.659	0.0160159
752.737	0.0161383
752.815	0.0162769
752.893	0.0162188
752.971	0.0161339
753.049	0.0161304
753.128	0.0159784
753.206	0.0161074
753.284	0.0161428
753.362	0.0160764
753.440	0.0161342
753.518	0.0160427
753.596	0.0160421
753.674	0.0160913
753.753	0.0160356
753.831	0.0161477
753.909	0.0160179
753.987	0.0160075
754.065	0.0161083
754.143	0.0160688
754.221	0.0161536
754.299	0.0159386
754.378	0.0159207
754.456	0.0160268
754.534	0.0160908
754.612	0.0160499
754.690	0.0161120
754.768	0.0160448
754.846	0.0160668
754.924	0.0159960
755.003	0.0160212
755.081	0.0161639
755.159	0.0160702
755.237	0.0160424
755.315	0.0159836
755.393	0.0160357
755.471	0.0160468
755.549	0.0161554
755.628	0.0160302
755.706	0.0161374
755.784	0.0160979
755.862	0.0160680
755.940	0.0162064
756.018	0.0160519
756.096	0.0161426
756.174	0.0161050
756.253	0.0160439
756.331	0.0160390
756.409	0.0160847
756.487	0.0162815
756.565	0.0161650
756.643	0.0161562
756.721	0.0161872
756.799	0.0163120
756.878	0.0162213
756.956	0.0160682
757.034	0.0160906
757.112	0.0161739
757.190	0.0162144
757.268	0.0161005
757.346	0.0162081
757.424	0.0163004
757.503	0.0162208
757.581	0.0161692
757.659	0.0162842
757.737	0.0161711
757.815	0.0163154
757.893	0.0163857
757.971	0.0162115
758.049	0.0163242
758.128	0.0163631
758.206	0.0160714
758.284	0.0160268
758.362	0.0162566
758.440	0.0162313
758.518	0.0161591
758.596	0.0160541
758.674	0.0161747
758.753	0.0161282
758.831	0.0161584
758.909	0.0162682
758.987	0.0162111
759.065	0.0161162
759.143	0.0161133
759.221	0.0162132
759.299	0.0163242
759.378	0.0163570
759.456	0.0161524
759.534	0.0161128
759.612	0.0160740
759.690	0.0161137
759.768	0.0161713
759.846	0.0161423
759.924	0.0162803
760.003	0.0160313
760.081	0.0161692
760.159	0.0162816
760.237	0.0162791
760.315	0.0160906
760.393	0.0161550
760.471	0.0159247
760.549	0.0161680
760.628	0.0163021
760.706	0.0161960
760.784	0.0161929
760.862	0.0160554
760.940	0.0161781
761.018	0.0161661
761.096	0.0161323
761.174	0.0162801
761.253	0.0161181
761.331	0.0161240
761.409	0.0161259
761.487	0.0161658
761.565	0.0162209
761.643	0.0161695
761.721	0.0161338
761.799	0.0160519
761.878	0.0161705
761.956	0.0161738
762.034	0.0161146
762.112	0.0160215
762.190	0.0161140
762.268	0.0160394
762.346	0.0161793
762.424	0.0160096
762.503	0.0160728
762.581	0.0161363
762.659	0.0160685
762.737	0.0161356
762.815	0.0162555
762.893	0.0160827
762.971	0.0163026
763.049	0.0161822
763.128	0.0161558
763.206	0.0161338
763.284	0.0163223
763.362	0.0163176
763.440	0.0161953
763.518	0.0162650
763.596	0.0161805
763.674	0.0161068
763.753	0.0161956
763.831	0.0161475
763.909	0.0162520
763.987	0.0160465
764.065	0.0162364
764.143	0.0161236
764.221	0.0161221
764.299	0.0159825
764.378	0.0161134
764.456	0.0161543
764.534	0.0161432
764.612	0.0161063
764.690	0.0160325
764.768	0.0160321
764.846	0.0161952
764.924	0.0161165
765.003	0.0161286
765.081	0.0160110
765.159	0.0162098
765.237	0.0160648
765.315	0.0162280
765.393	0.0162011
765.471	0.0162024
765.549	0.0162174
765.628	0.0162258
765.706	0.0161823
765.784	0.0162514
765.862	0.0162924
765.940	0.0162852
766.018	0.0163985
766.096	0.0161963
766.174	0.0162206
766.253	0.0162128
766.331	0.0162787
766.409	0.0162207
766.487	0.0161895
766.565	0.0161904
766.643	0.0161667
766.721	0.0161551
766.799	0.0162534
766.878	0.0161323
766.956	0.0162070
767.034	0.0162148
767.112	0.0162514
767.190	0.0161828
767.268	0.0161937
767.346	0.0161543
767.424	0.0161846
767.503	0.0162323
767.581	0.0163277
767.659	0.0161937
767.737	0.0162254
767.815	0.0160818
767.893	0.0161569
767.971	0.0161906
768.049	0.0161834
768.128	0.0161384
768.206	0.0160175
768.284	0.0159240
768.362	0.0161347
768.440	0.0158860
768.518	0.0158049
768.596	0.0159555
768.674	0.0160989
768.753	0.0160347
768.831	0.0160570
768.909	0.0161213
768.987	0.0159937
769.065	0.0159646
769.143	0.0160571
769.221	0.0159650
769.299	0.0160213
769.378	0.0161204
769.456	0.0159716
769.534	0.0160739
769.612	0.0160662
769.690	0.0161229
769.768	0.0160828
769.846	0.0160548
769.924	0.0161012
770.003	0.0162807
770.081	0.0162474
770.159	0.0161726
770.237	0.0162667
770.315	0.0161025
770.393	0.0161929
770.471	0.0160052
770.549	0.0161060
770.628	0.0162168
770.706	0.0161952
770.784	0.0162389
770.862	0.0160938
770.940	0.0161525
771.018	0.0164232
771.096	0.0162565
771.174	0.0162022
771.253	0.0160260
771.331	0.0161667
771.409	0.0160632
771.487	0.0161909
771.565	0.0162745
771.643	0.0161536
771.721	0.0161972
771.799	0.0162017
771.878	0.0161353
771.956	0.0162427
772.034	0.0162441
772.112	0.0160251
772.190	0.0161417
772.268	0.0161601
772.346	0.0162447
772.424	0.0160900
772.503	0.0159464
772.581	0.0161718
772.659	0.0160189
772.737	0.0160038
772.815	0.0161137
772.893	0.0160196
772.971	0.0160822
773.049	0.0161544
773.128	0.0160013
773.206	0.0160895
773.284	0.0160378
773.362	0.0159746
773.440	0.0160797
773.518	0.0161461
773.596	0.0160847
773.674	0.0159826
773.753	0.0161739
773.831	0.0162628
773.909	0.0162614
773.987	0.0161550
774.065	0.0161708
774.143	0.0162562
774.221	0.0162067
774.299	0.0160430
774.378	0.0161667
774.456	0.0160783
774.534	0.0161527
774.612	0.0161962
774.690	0.0161440
774.768	0.0161972
774.846	0.0163029
774.924	0.0161487
775.003	0.0160918
775.081	0.0162008
775.159	0.0163352
775.237	0.0162471
775.315	0.0161608
775.393	0.0162331
775.471	0.0161952
775.549	0.0161320
775.628	0.0162868
775.706	0.0163525
775.784	0.0161839
775.862	0.0161711
775.940	0.0162189
776.018	0.0160841
776.096	0.0161533
776.174	0.0161041
776.253	0.0160004
776.331	0.0161360
776.409	0.0160885
776.487	0.0160737
776.565	0.0160952
776.643	0.0161865
776.721	0.0161600
776.799	0.0161748
776.878	0.0161205
776.956	0.0162214
777.034	0.0162572
777.112	0.0161102
777.190	0.0162092
777.268	0.0163035
777.346	0.0162361
777.424	0.0162479
777.503	0.0162531
777.581	0.0162284
777.659	0.0161793
777.737	0.0160477
777.815	0.0161782
777.893	0.0161333
777.971	0.0162997
778.049	0.0162187
778.128	0.0161147
778.206	0.0162561
778.284	0.0161352
778.362	0.0161897
778.440	0.0162271
778.518	0.0162618
778.596	0.0162811
778.674	0.0161617
778.753	0.0163372
778.831	0.0162619
778.909	0.0162946
778.987	0.0161198
779.065	0.0161864
779.143	0.0160962
779.221	0.0162756
779.299	0.0161913
779.378	0.0161642
779.456	0.0161240
779.534	0.0162289
779.612	0.0162714
779.690	0.0161854
779.768	0.0161165
779.846	0.0161310
779.924	0.0162644
780.003	0.0161205
780.081	0.0161430
780.159	0.0161075
780.237	0.0161120
780.315	0.0161880
780.393	0.0159581
780.471	0.0161690
780.549	0.0162233
780.628	0.0162722
780.706	0.0158984
780.784	0.0160304
780.862	0.0160760
780.940	0.0161485
781.018	0.0161353
781.096	0.0160950
781.174	0.0160873
781.253	0.0161098
781.331	0.0162006
781.409	0.0162650
781.487	0.0161868
781.565	0.0163805
781.643	0.0162235
781.721	0.0162279
781.799	0.0163190
781.878	0.0163957
781.956	0.0163574
782.034	0.0163471
782.112	0.0161755
782.190	0.0162716
782.268	0.0163456
782.346	0.0162291
782.424	0.0162444
782.503	0.0162712
782.581	0.0163876
782.659	0.0161958
782.737	0.0162897
782.815	0.0163409
782.893	0.0162791
782.971	0.0161771
783.049	0.0161843
783.128	0.0162302
783.206	0.0161734
783.284	0.0163058
783.362	0.0161735
783.440	0.0161872
783.518	0.0162644
783.596	0.0162296
783.674	0.0164187
783.753	0.0164254
783.831	0.0162605
783.909	0.0162175
783.987	0.0162116
784.065	0.0162579
784.143	0.0164159
784.221	0.0164277
784.299	0.0163354
784.378	0.0162847
784.456	0.0163468
784.534	0.0162566
784.612	0.0163230
784.690	0.0162223
784.768	0.0163341
784.846	0.0162204
784.924	0.0162373
785.003	0.0161912
785.081	0.0161087
785.159	0.0161491
785.237	0.0161763
785.315	0.0162208
785.393	0.0161793
785.471	0.0159380
785.549	0.0162561
785.628	0.0162667
785.706	0.0161926
785.784	0.0160540
785.862	0.0162254
785.940	0.0161815
786.018	0.0161327
786.096	0.0161942
786.174	0.0161068
786.253	0.0162568
786.331	0.0162724
786.409	0.0162755
786.487	0.0161808
786.565	0.0162145
786.643	0.0162071
786.721	0.0161845
786.799	0.0162228
786.878	0.0160632
786.956	0.0161125
787.034	0.0161121
787.112	0.0160547
787.190	0.0161790
787.268	0.0160771
787.346	0.0162550
787.424	0.0160516
787.503	0.0162486
787.581	0.0161337
787.659	0.0161152
787.737	0.0162637
787.815	0.0162253
787.893	0.0161263
787.971	0.0161621
788.049	0.0161931
788.128	0.0161921
788.206	0.0161621
788.284	0.0162364
788.362	0.0163986
788.440	0.0162202
788.518	0.0162978
788.596	0.0163538
788.674	0.0163399
788.753	0.0163181
788.831	0.0163692
788.909	0.0164287
788.987	0.0163370
789.065	0.0161681
789.143	0.0163167
789.221	0.0163638
789.299	0.0162586
789.378	0.0162406
789.456	0.0163465
789.534	0.0162386
789.612	0.0162702
789.690	0.0163616
789.768	0.0163446
789.846	0.0161591
789.924	0.0162186
790.003	0.0161763
790.081	0.0163213
790.159	0.0163247
790.237	0.0162981
790.315	0.0162543
790.393	0.0162640
790.471	0.0161387
790.549	0.0163324
790.628	0.0161649
790.706	0.0161823
790.784	0.0162276
790.862	0.0162480
790.940	0.0161511
791.018	0.0162433
791.096	0.0161224
791.174	0.0161486
791.253	0.0160809
791.331	0.0161152
791.409	0.0160022
791.487	0.0160277
791.565	0.0160641
791.643	0.0160200
791.721	0.0160321
791.799	0.0159949
791.878	0.0159523
791.956	0.0160823
792.034	0.0160246
792.112	0.0161338
792.190	0.0159644
792.268	0.0160094
792.346	0.0161104
792.424	0.0162002
792.503	0.0162304
792.581	0.0162012
792.659	0.0161777
792.737	0.0159505
792.815	0.0162416
792.893	0.0161943
792.971	0.0162426
793.049	0.0162328
793.128	0.0163569
793.206	0.0164643
793.284	0.0161651
793.362	0.0163514
793.440	0.0162540
793.518	0.0162466
793.596	0.0163784
793.674	0.0163915
793.753	0.0163452
793.831	0.0164086
793.909	0.0163404
793.987	0.0163573
794.065	0.0163541
794.143	0.0163702
794.221	0.0161797
794.299	0.0162523
794.378	0.0163047
794.456	0.0162947
794.534	0.0161758
794.612	0.0161731
794.690	0.0162620
794.768	0.0161677
794.846	0.0160806
794.924	0.0160526
795.003	0.0161161
795.081	0.0161389
795.159	0.0159653
795.237	0.0159328
795.315	0.0161816
795.393	0.0160220
795.471	0.0159824
795.549	0.0160638
795.628	0.0159193
795.706	0.0160339
795.784	0.0161304
795.862	0.0160091
795.940	0.0159077
796.018	0.0158854
796.096	0.0160452
796.174	0.0159680
796.253	0.0159659
796.331	0.0159587
796.409	0.0159800
796.487	0.0159296
796.565	0.0160860
796.643	0.0162038
796.721	0.0159816
796.799	0.0159769
796.878	0.0160607
796.956	0.0161317
797.034	0.0160463
797.112	0.0162296
797.190	0.0161055
797.268	0.0161664
797.346	0.0161427
797.424	0.0163062
797.503	0.0163319
797.581	0.0164320
797.659	0.0163564
797.737	0.0162531
797.815	0.0163496
797.893	0.0164304
797.971	0.0162991
798.049	0.0163165
798.128	0.0163756
798.206	0.0163263
798.284	0.0163727
798.362	0.0162876
798.440	0.0162320
798.518	0.0162178
798.596	0.0164368
798.674	0.0164175
798.753	0.0162782
798.831	0.0161800
798.909	0.0163567
798.987	0.0163171
799.065	0.0164400
799.143	0.0162595
799.221	0.0165610
799.299	0.0162875
799.378	0.0162238
799.456	0.0162442
799.534	0.0162867
799.612	0.0162367
799.690	0.0163749
799.768	0.0162248
799.846	0.0161464
799.924	0.0162430
800.003	0.0161313
800.081	0.0161584
800.159	0.0159878
800.237	0.0160065
800.315	0.0159221
800.393	0.0161700
800.471	0.0161136
800.549	0.0159594
800.628	0.0158250
800.706	0.0160872
800.784	0.0160197
800.862	0.0159012
800.940	0.0159035
801.018	0.0160075
801.096	0.0160144
801.174	0.0159325
801.253	0.0161420
801.331	0.0159672
801.409	0.0159594
801.487	0.0160545
801.565	0.0159301
801.643	0.0160725
801.721	0.0160577
801.799	0.0160780
801.878	0.0161404
801.956	0.0161006
802.034	0.0161145
802.112	0.0161074
802.190	0.0161707
802.268	0.0161256
802.346	0.0159401
802.424	0.0159324
802.503	0.0160588
802.581	0.0159780
802.659	0.0160431
802.737	0.0162057
802.815	0.0160802
802.893	0.0161153
802.971	0.0161228
803.049	0.0161626
803.128	0.0162059
803.206	0.0163710
803.284	0.0162814
803.362	0.0162131
803.440	0.0161443
803.518	0.0162478
803.596	0.0163535
803.674	0.0162057
803.753	0.0162533
803.831	0.0163252
803.909	0.0163207
803.987	0.0162968
804.065	0.0162635
804.143	0.0162288
804.221	0.0162065
804.299	0.0162139
804.378	0.0162132
804.456	0.0161066
804.534	0.0163047
804.612	0.0162984
804.690	0.0161915
804.768	0.0161857
804.846	0.0162605
804.924	0.0163152
805.003	0.0163509
805.081	0.0162851
805.159	0.0163471
805.237	0.0164294
805.315	0.0162796
805.393	0.0162965
805.471	0.0163587
805.549	0.0163192
805.628	0.0162904
805.706	0.0161736
805.784	0.0163556
805.862	0.0161540
805.940	0.0163271
806.018	0.0162467
806.096	0.0162637
806.174	0.0162254
806.253	0.0161646
806.331	0.0161949
806.409	0.0162579
806.487	0.0162067
806.565	0.0160713
806.643	0.0161010
806.721	0.0161456
806.799	0.0161116
806.878	0.0160161
806.956	0.0161313
807.034	0.0161922
807.112	0.0161374
807.190	0.0161169
807.268	0.0162300
807.346	0.0162788
807.424	0.0162889
807.503	0.0161881
807.581	0.0163301
807.659	0.0162362
807.737	0.0162799
807.815	0.0161703
807.893	0.0162464
807.971	0.0161967
808.049	0.0162212
808.128	0.0162569
808.206	0.0163534
808.284	0.0161770
808.362	0.0162626
808.440	0.0162403
808.518	0.0162830
808.596	0.0162822
808.674	0.0162015
808.753	0.0161925
808.831	0.0163836
808.909	0.0163516
808.987	0.0161895
809.065	0.0162598
809.143	0.0161891
809.221	0.0163322
809.299	0.0161398
809.378	0.0161584
809.456	0.0162643
809.534	0.0161178
809.612	0.0161114
809.690	0.0162639
809.768	0.0162518
809.846	0.0161662
809.924	0.0160924
810.003	0.0164190
810.081	0.0161597
810.159	0.0160926
810.237	0.0161066
810.315	0.0162460
810.393	0.0160682
810.471	0.0160818
810.549	0.0162733
810.628	0.0161871
810.706	0.0161389
810.784	0.0161761
810.862	0.0161682
810.940	0.0161292
811.018	0.0161945
811.096	0.0161605
811.174	0.0162265
811.253	0.0161510
811.331	0.0161533
811.409	0.0161802
811.487	0.0163184
811.565	0.0161267
811.643	0.0162521
811.721	0.0161738
811.799	0.0161069
811.878	0.0161992
811.956	0.0161614
812.034	0.0162531
812.112	0.0162017
812.190	0.0161573
812.268	0.0161968
812.346	0.0162027
812.424	0.0161293
812.503	0.0163120
812.581	0.0162442
812.659	0.0161868
812.737	0.0162465
812.815	0.0161697
812.893	0.0161120
812.971	0.0162096
813.049	0.0162625
813.128	0.0162704
813.206	0.0162307
813.284	0.0163918
813.362	0.0162588
813.440	0.0161485
813.518	0.0163640
813.596	0.0162185
813.674	0.0162497
813.753	0.0164439
813.831	0.0161755
813.909	0.0162013
813.987	0.0164815
814.065	0.0163388
814.143	0.0163126
814.221	0.0162414
814.299	0.0162824
814.378	0.0163490
814.456	0.0163258
814.534	0.0161699
814.612	0.0162204
814.690	0.0161807
814.768	0.0162524
814.846	0.0163315
814.924	0.0162640
815.003	0.0162762
815.081	0.0163111
815.159	0.0161327
815.237	0.0161636
815.315	0.0160920
815.393	0.0161131
815.471	0.0161862
815.549	0.0160624
815.628	0.0160557
815.706	0.0162411
815.784	0.0160602
815.862	0.0159190
815.940	0.0159710
816.018	0.0160850
816.096	0.0160001
816.174	0.0158020
816.253	0.0159186
816.331	0.0161448
816.409	0.0160536
816.487	0.0160683
816.565	0.0159987
816.643	0.0159877
816.721	0.0159813
816.799	0.0160331
816.878	0.0161053
816.956	0.0160192
817.034	0.0160836
817.112	0.0161262
817.190	0.0161569
817.268	0.0161219
817.346	0.0160545
817.424	0.0159784
817.503	0.0161006
817.581	0.0162868
817.659	0.0161828
817.737	0.0160823
817.815	0.0161572
817.893	0.0163593
817.971	0.0162459
818.049	0.0162923
818.128	0.0161053
818.206	0.0161998
818.284	0.0162463
818.362	0.0160612
818.440	0.0163112
818.518	0.0161636
818.596	0.0163000
818.674	0.0161216
818.753	0.0161518
818.831	0.0160409
818.909	0.0160397
818.987	0.0162296
819.065	0.0162500
819.143	0.0160398
819.221	0.0162526
819.299	0.0162109
819.378	0.0161891
819.456	0.0161363
819.534	0.0160564
819.612	0.0162683
819.690	0.0162711
819.768	0.0162122
819.846	0.0162861
819.924	0.0161673
820.003	0.0161169
820.081	0.0161447
820.159	0.0161998
820.237	0.0160889
820.315	0.0160534
820.393	0.0160339
820.471	0.0161347
820.549	0.0161433
820.628	0.0160349
820.706	0.0160284
820.784	0.0160975
820.862	0.0161320
820.940	0.0160001
821.018	0.0162000
821.096	0.0161235
821.174	0.0161626
821.253	0.0160253
821.331	0.0160430
821.409	0.0162141
821.487	0.0161293
821.565	0.0160790
821.643	0.0160718
821.721	0.0161765
821.799	0.0162399
821.878	0.0162421
821.956	0.0162731
822.034	0.0162868
822.112	0.0162169
822.190	0.0161901
822.268	0.0162103
822.346	0.0162099
822.424	0.0161259
822.503	0.0162090
822.581	0.0162087
822.659	0.0162418
822.737	0.0162594
822.815	0.0160811
822.893	0.0161011
822.971	0.0160739
823.049	0.0162239
823.128	0.0162002
823.206	0.0161086
823.284	0.0160956
823.362	0.0162280
823.440	0.0162167
823.518	0.0160963
823.596	0.0160883
823.674	0.0162135
823.753	0.0161781
823.831	0.0162269
823.909	0.0162077
823.987	0.0161790
824.065	0.0162483
824.143	0.0160249
824.221	0.0161121
824.299	0.0161533
824.378	0.0162053
824.456	0.0159663
824.534	0.0161176
824.612	0.0160866
824.690	0.0160783
824.768	0.0159454
824.846	0.0160306
824.924	0.0159922
825.003	0.0160832
825.081	0.0160024
825.159	0.0160587
825.237	0.0159618
825.315	0.0158406
825.393	0.0159390
825.471	0.0160287
825.549	0.0159890
825.628	0.0160343
825.706	0.0160331
825.784	0.0160502
825.862	0.0159643
825.940	0.0158804
826.018	0.0161200
826.096	0.0160567
826.174	0.0159805
826.253	0.0160615
826.331	0.0159848
826.409	0.0160097
826.487	0.0160171
826.565	0.0159726
826.643	0.0159839
826.721	0.0160591
826.799	0.0161317
826.878	0.0162473
826.956	0.0162400
827.034	0.0161247
827.112	0.0161355
827.190	0.0161504
827.268	0.0162205
827.346	0.0161684
827.424	0.0161391
827.503	0.0161941
827.581	0.0161623
827.659	0.0162616
827.737	0.0164489
827.815	0.0162725
827.893	0.0161458
827.971	0.0161610
828.049	0.0162654
828.128	0.0161376
828.206	0.0161707
828.284	0.0162837
828.362	0.0161374
828.440	0.0162492
828.518	0.0162691
828.596	0.0161201
828.674	0.0162560
828.753	0.0163514
828.831	0.0161864
828.909	0.0161349
828.987	0.0160996
829.065	0.0162463
829.143	0.0161859
829.221	0.0161162
829.299	0.0162067
829.378	0.0162388
829.456	0.0161700
829.534	0.0159814
829.612	0.0161382
829.690	0.0161913
829.768	0.0162138
829.846	0.0161252
829.924	0.0161292
830.003	0.0160675
830.081	0.0161467
830.159	0.0160721
830.237	0.0161774
830.315	0.0161475
830.393	0.0161549
830.471	0.0160563
830.549	0.0160580
830.628	0.0159801
830.706	0.0159380
830.784	0.0159499
830.862	0.0158501
830.940	0.0159415
831.018	0.0159468
831.096	0.0159634
831.174	0.0159838
831.253	0.0159821
831.331	0.0159989
831.409	0.0160601
831.487	0.0159973
831.565	0.0159858
831.643	0.0160147
831.721	0.0160735
831.799	0.0159988
831.878	0.0160652
831.956	0.0160262
832.034	0.0160262
832.112	0.0160282
832.190	0.0159713
832.268	0.0160005
832.346	0.0160643
832.424	0.0161741
832.503	0.0160596
832.581	0.0161169
832.659	0.0161555
832.737	0.0161581
832.815	0.0160928
832.893	0.0162029
832.971	0.0161626
833.049	0.0162522
833.128	0.0160466
833.206	0.0160774
833.284	0.0161868
833.362	0.0163213
833.440	0.0162756
833.518	0.0161343
833.596	0.0163121
833.674	0.0163162
833.753	0.0161287
833.831	0.0162966
833.909	0.0162714
833.987	0.0163618
834.065	0.0162531
834.143	0.0163215
834.221	0.0161674
834.299	0.0164160
834.378	0.0163111
834.456	0.0164025
834.534	0.0161787
834.612	0.0162865
834.690	0.0162871
834.768	0.0163313
834.846	0.0162593
834.924	0.0162369
835.003	0.0162589
835.081	0.0162211
835.159	0.0162738
835.237	0.0163407
835.315	0.0162561
835.393	0.0163229
835.471	0.0162909
835.549	0.0162342
835.628	0.0161890
835.706	0.0162650
835.784	0.0161533
835.862	0.0162014
835.940	0.0162402
836.018	0.0161198
836.096	0.0160355
836.174	0.0161083
836.253	0.0162281
836.331	0.0158900
836.409	0.0162128
836.487	0.0161238
836.565	0.0159174
836.643	0.0160845
836.721	0.0159434
836.799	0.0160941
836.878	0.0160837
836.956	0.0160043
837.034	0.0160552
837.112	0.0160972
837.190	0.0160390
837.268	0.0160948
837.346	0.0162041
837.424	0.0160981
837.503	0.0160890
837.581	0.0160302
837.659	0.0160005
837.737	0.0161562
837.815	0.0161674
837.893	0.0161657
837.971	0.0162936
838.049	0.0163445
838.128	0.0161802
838.206	0.0163139
838.284	0.0163773
838.362	0.0163367
838.440	0.0163741
838.518	0.0162818
838.596	0.0162904
838.674	0.0161672
838.753	0.0162560
838.831	0.0162147
838.909	0.0162677
838.987	0.0162321
839.065	0.0161920
839.143	0.0162843
839.221	0.0161520
839.299	0.0162403
839.378	0.0162420
839.456	0.0161604
839.534	0.0162176
839.612	0.0162831
839.690	0.0161943
839.768	0.0162801
839.846	0.0163341
839.924	0.0163100
840.003	0.0161562
840.081	0.0161879
840.159	0.0161015
840.237	0.0161275
840.315	0.0163400
840.393	0.0161855
840.471	0.0163041
840.549	0.0160778
840.628	0.0160587
840.706	0.0161812
840.784	0.0162197
840.862	0.0161258
840.940	0.0161407
841.018	0.0160918
841.096	0.0161160
841.174	0.0161675
841.253	0.0160884
841.331	0.0160809
841.409	0.0162468
841.487	0.0162385
841.565	0.0162852
841.643	0.0160315
841.721	0.0161096
841.799	0.0161169
841.878	0.0160718
841.956	0.0160851
842.034	0.0160861
842.112	0.0162241
842.190	0.0161433
842.268	0.0161576
842.346	0.0161124
842.424	0.0160272
842.503	0.0160748
842.581	0.0160983
842.659	0.0161532
842.737	0.0161560
842.815	0.0162041
842.893	0.0162891
842.971	0.0161272
843.049	0.0161389
843.128	0.0162196
843.206	0.0162630
843.284	0.0162650
843.362	0.0162959
843.440	0.0164067
843.518	0.0162495
843.596	0.0163376
843.674	0.0162897
843.753	0.0163338
843.831	0.0163332
843.909	0.0161655
843.987	0.0162363
844.065	0.0162296
844.143	0.0161255
844.221	0.0161208
844.299	0.0161528
844.378	0.0160957
844.456	0.0161070
844.534	0.0161629
844.612	0.0162395
844.690	0.0161289
844.768	0.0162441
844.846	0.0161444
844.924	0.0161315
845.003	0.0160903
845.081	0.0161572
845.159	0.0160959
845.237	0.0161598
845.315	0.0160193
845.393	0.0160108
845.471	0.0160128
845.549	0.0161556
845.628	0.0160767
845.706	0.0160535
845.784	0.0161413
845.862	0.0161657
845.940	0.0161526
846.018	0.0160941
846.096	0.0162255
846.174	0.0161273
846.253	0.0161702
846.331	0.0160570
846.409	0.0161022
846.487	0.0161990
846.565	0.0160890
846.643	0.0159415
846.721	0.0160574
846.799	0.0161330
846.878	0.0160899
846.956	0.0160329
847.034	0.0159435
847.112	0.0159406
847.190	0.0160939
847.268	0.0161135
847.346	0.0160365
847.424	0.0160702
847.503	0.0161450
847.581	0.0161192
847.659	0.0160608
847.737	0.0160733
847.815	0.0163113
847.893	0.0161922
847.971	0.0161194
848.049	0.0161593
848.128	0.0162266
848.206	0.0162836
848.284	0.0162897
848.362	0.0162560
848.440	0.0161660
848.518	0.0161253
848.596	0.0161049
848.674	0.0162532
848.753	0.0161771
848.831	0.0162892
848.909	0.0163177
848.987	0.0162511
849.065	0.0160702
849.143	0.0161893
849.221	0.0162896
849.299	0.0160959
849.378	0.0161477
849.456	0.0162064
849.534	0.0161583
849.612	0.0161326
849.690	0.0162002
849.768	0.0162930
849.846	0.0161707
849.924	0.0162079
850.003	0.0161666
850.081	0.0160037
850.159	0.0162036
850.237	0.0162280
850.315	0.0160598
850.393	0.0162392
850.471	0.0160566
850.549	0.0161093
850.628	0.0163052
850.706	0.0161899
850.784	0.0160849
850.862	0.0161869
850.940	0.0160690
851.018	0.0161264
851.096	0.0160909
851.174	0.0161037
851.253	0.0161721
851.331	0.0161907
851.409	0.0160952
851.487	0.0161778
851.565	0.0161938
851.643	0.0162511
851.721	0.0159860
851.799	0.0161710
851.878	0.0161446
851.956	0.0160307
852.034	0.0162125
852.112	0.0162387
852.190	0.0162083
852.268	0.0161256
852.346	0.0162109
852.424	0.0161274
852.503	0.0159850
852.581	0.0160716
852.659	0.0161295
852.737	0.0161377
852.815	0.0161784
852.893	0.0160712
852.971	0.0160567
853.049	0.0162449
853.128	0.0161214
853.206	0.0160810
853.284	0.0160263
853.362	0.0161980
853.440	0.0163246
853.518	0.0161683
853.596	0.0161518
853.674	0.0162251
853.753	0.0162053
853.831	0.0160360
853.909	0.0162078
853.987	0.0161964
854.065	0.0161380
854.143	0.0162676
854.221	0.0162300
854.299	0.0162643
854.378	0.0161507
854.456	0.0161795
854.534	0.0163470
854.612	0.0162402
854.690	0.0161369
854.768	0.0163118
854.846	0.0161827
854.924	0.0163465
855.003	0.0162603
855.081	0.0161268
855.159	0.0162439
855.237	0.0161951
855.315	0.0161236
855.393	0.0160998
855.471	0.0162498
855.549	0.0163079
855.628	0.0162654
855.706	0.0161626
855.784	0.0161914
855.862	0.0162118
855.940	0.0162561
856.018	0.0161402
856.096	0.0164336
856.174	0.0162955
856.253	0.0161440
856.331	0.0161034
856.409	0.0162813
856.487	0.0162517
856.565	0.0161965
856.643	0.0162295
856.721	0.0162335
856.799	0.0162255
856.878	0.0162303
856.956	0.0162222
857.034	0.0161227
857.112	0.0162367
857.190	0.0162817
857.268	0.0160297
857.346	0.0160995
857.424	0.0163014
857.503	0.0161359
857.581	0.0160555
857.659	0.0162632
857.737	0.0160531
857.815	0.0161591
857.893	0.0161507
857.971	0.0160452
858.049	0.0160850
858.128	0.0161488
858.206	0.0161261
858.284	0.0160268
858.362	0.0160124
858.440	0.0160902
858.518	0.0160597
858.596	0.0160938
858.674	0.0160943
858.753	0.0162330
858.831	0.0159871
858.909	0.0161312
858.987	0.0162170
859.065	0.0161006
859.143	0.0161640
859.221	0.0162708
859.299	0.0162867
859.378	0.0162321
859.456	0.0162289
859.534	0.0162910
859.612	0.0163245
859.690	0.0162374
859.768	0.0163444
859.846	0.0163859
859.924	0.0162309
860.003	0.0162802
860.081	0.0162581
860.159	0.0163481
860.237	0.0162581
860.315	0.0163414
860.393	0.0162003
860.471	0.0162518
860.549	0.0162117
860.628	0.0162384
860.706	0.0161634
860.784	0.0160800
860.862	0.0162268
860.940	0.0162526
861.018	0.0162354
861.096	0.0161774
861.174	0.0162460
861.253	0.0162232
861.331	0.0162740
861.409	0.0161461
861.487	0.0162390
861.565	0.0162210
861.643	0.0161996
861.721	0.0162001
861.799	0.0161501
861.878	0.0161096
861.956	0.0162153
862.034	0.0161478
862.112	0.0160580
862.190	0.0160107
862.268	0.0160452
862.346	0.0161008
862.424	0.0160632
862.503	0.0161041
862.581	0.0161129
862.659	0.0161582
862.737	0.0161186
862.815	0.0162264
862.893	0.0160309
862.971	0.0161295
863.049	0.0161909
863.128	0.0161189
863.206	0.0160615
863.284	0.0161330
863.362	0.0162350
863.440	0.0162113
863.518	0.0161004
863.596	0.0161073
863.674	0.0161607
863.753	0.0163270
863.831	0.0162148
863.909	0.0162937
863.987	0.0162867
864.065	0.0162072
864.143	0.0162794
864.221	0.0163178
864.299	0.0161941
864.378	0.0162895
864.456	0.0162628
864.534	0.0161058
864.612	0.0162771
864.690	0.0161757
864.768	0.0162656
864.846	0.0163082
864.924	0.0161909
865.003	0.0161696
865.081	0.0162121
865.159	0.0162902
865.237	0.0162575
865.315	0.0161907
865.393	0.0161295
865.471	0.0160957
865.549	0.0163361
865.628	0.0162112
865.706	0.0162824
865.784	0.0162612
865.862	0.0162039
865.940	0.0161790
866.018	0.0162452
866.096	0.0162086
866.174	0.0161169
866.253	0.0161640
866.331	0.0161314
866.409	0.0160683
866.487	0.0161485
866.565	0.0160997
866.643	0.0159389
866.721	0.0161543
866.799	0.0160605
866.878	0.0162086
866.956	0.0160963
867.034	0.0161053
867.112	0.0161333
867.190	0.0160562
867.268	0.0160918
867.346	0.0161164
867.424	0.0160554
867.503	0.0160579
867.581	0.0160625
867.659	0.0161736
867.737	0.0161550
867.815	0.0161018
867.893	0.0162062
867.971	0.0161296
868.049	0.0160958
868.128	0.0160866
868.206	0.0162000
868.284	0.0160981
868.362	0.0161479
868.440	0.0161505
868.518	0.0161422
868.596	0.0162023
868.674	0.0162408
868.753	0.0161136
868.831	0.0161537
868.909	0.0162233
868.987	0.0162259
869.065	0.0161979
869.143	0.0161846
869.221	0.0162028
869.299	0.0161707
869.378	0.0163745
869.456	0.0162365
869.534	0.0161664
869.612	0.0161691
869.690	0.0162789
869.768	0.0162335
869.846	0.0161849
869.924	0.0162303
870.003	0.0162761
870.081	0.0163795
870.159	0.0161991
870.237	0.0161100
870.315	0.0163020
870.393	0.0162957
870.471	0.0161384
870.549	0.0162420
870.628	0.0163173
870.706	0.0162276
870.784	0.0161292
870.862	0.0161791
870.940	0.0161183
871.018	0.0162403
871.096	0.0162075
871.174	0.0162282
871.253	0.0162807
871.331	0.0162348
871.409	0.0163428
871.487	0.0162806
871.565	0.0162890
871.643	0.0162417
871.721	0.0162118
871.799	0.0162561
871.878	0.0162262
871.956	0.0162278
872.034	0.0163410
872.112	0.0164724
872.190	0.0162893
872.268	0.0162218
872.346	0.0162693
872.424	0.0163131
872.503	0.0162990
872.581	0.0162337
872.659	0.0161593
872.737	0.0161583
872.815	0.0161617
872.893	0.0160788
872.971	0.0161636
873.049	0.0161262
873.128	0.0161409
873.206	0.0161167
873.284	0.0161304
873.362	0.0162183
873.440	0.0161463
873.518	0.0161015
873.596	0.0161316
873.674	0.0160023
873.753	0.0160137
873.831	0.0161029
873.909	0.0161547
873.987	0.0161597
874.065	0.0160529
874.143	0.0161316
874.221	0.0161874
874.299	0.0161208
874.378	0.0162564
874.456	0.0161984
874.534	0.0160911
874.612	0.0161887
874.690	0.0162345
874.768	0.0161064
874.846	0.0161552
874.924	0.0162833
875.003	0.0162928
875.081	0.0162149
875.159	0.0162697
875.237	0.0162985
875.315	0.0163303
875.393	0.0163351
875.471	0.0162580
875.549	0.0162527
875.628	0.0163673
875.706	0.0162669
875.784	0.0163428
875.862	0.0162225
875.940	0.0163604
876.018	0.0162318
876.096	0.0162771
876.174	0.0163526
876.253	0.0163935
876.331	0.0160576
876.409	0.0163051
876.487	0.0162660
876.565	0.0162215
876.643	0.0161918
876.721	0.0161008
876.799	0.0161417
876.878	0.0163399
876.956	0.0160940
877.034	0.0162334
877.112	0.0161151
877.190	0.0160603
877.268	0.0161597
877.346	0.0162200
877.424	0.0162553
877.503	0.0161659
877.581	0.0161068
877.659	0.0160219
877.737	0.0162024
877.815	0.0161902
877.893	0.0160349
877.971	0.0162871
878.049	0.0160452
878.128	0.0160656
878.206	0.0161905
878.284	0.0161327
878.362	0.0162369
878.440	0.0162165
878.518	0.0162715
878.596	0.0162122
878.674	0.0162597
878.753	0.0163279
878.831	0.0163341
878.909	0.0163093
878.987	0.0162753
879.065	0.0162412
879.143	0.0163993
879.221	0.0163200
879.299	0.0162807
879.378	0.0163724
879.456	0.0163550
879.534	0.0162798
879.612	0.0163169
879.690	0.0162138
879.768	0.0162106
879.846	0.0163147
879.924	0.0164085
880.003	0.0162144
880.081	0.0162241
880.159	0.0161884
880.237	0.0161440
880.315	0.0160654
880.393	0.0161064
880.471	0.0161176
880.549	0.0161084
880.628	0.0159843
880.706	0.0160546
880.784	0.0159893
880.862	0.0160469
880.940	0.0160112
881.018	0.0160763
881.096	0.0160671
881.174	0.0160454
881.253	0.0161386
881.331	0.0159945
881.409	0.0161560
881.487	0.0160954
881.565	0.0161758
881.643	0.0161418
881.721	0.0162355
881.799	0.0162365
881.878	0.0161672
881.956	0.0162344
882.034	0.0163944
882.112	0.0163359
882.190	0.0162105
882.268	0.0163124
882.346	0.0162125
882.424	0.0162592
882.503	0.0162370
882.581	0.0162266
882.659	0.0160948
882.737	0.0162450
882.815	0.0160995
882.893	0.0160757
882.971	0.0161576
883.049	0.0161996
883.128	0.0160703
883.206	0.0162273
883.284	0.0160955
883.362	0.0162423
883.440	0.0161850
883.518	0.0161848
883.596	0.0161512
883.674	0.0162520
883.753	0.0162376
883.831	0.0161774
883.909	0.0162309
883.987	0.0162987
884.065	0.0163357
884.143	0.0162447
884.221	0.0159988
884.299	0.0163892
884.378	0.0162740
884.456	0.0163026
884.534	0.0161774
884.612	0.0162254
884.690	0.0162055
884.768	0.0162025
884.846	0.0161385
884.924	0.0161628
885.003	0.0160280
885.081	0.0158875
885.159	0.0161371
885.237	0.0160612
885.315	0.0161179
885.393	0.0160486
885.471	0.0161521
885.549	0.0161459
885.628	0.0161830
885.706	0.0162634
885.784	0.0161311
885.862	0.0161456
885.940	0.0162062
886.018	0.0161007
886.096	0.0161471
886.174	0.0161528
886.253	0.0161150
886.331	0.0160452
886.409	0.0160302
886.487	0.0162006
886.565	0.0160956
886.643	0.0160781
886.721	0.0161163
886.799	0.0161121
886.878	0.0161822
886.956	0.0159886
887.034	0.0161205
887.112	0.0162148
887.190	0.0162200
887.268	0.0161687
887.346	0.0163134
887.424	0.0161878
887.503	0.0162692
887.581	0.0161548
887.659	0.0161846
887.737	0.0162576
887.815	0.0162805
887.893	0.0162249
887.971	0.0164062
888.049	0.0161764
888.128	0.0162666
888.206	0.0163140
888.284	0.0161823
888.362	0.0163202
888.440	0.0162769
888.518	0.0162045
888.596	0.0162032
888.674	0.0160054
888.753	0.0162482
888.831	0.0162518
888.909	0.0162419
888.987	0.0162455
889.065	0.0162672
889.143	0.0161140
889.221	0.0162057
889.299	0.0161938
889.378	0.0161886
889.456	0.0161909
889.534	0.0162811
889.612	0.0160275
889.690	0.0160879
889.768	0.0160497
889.846	0.0158983
889.924	0.0160242
890.003	0.0160315
890.081	0.0160385
890.159	0.0159876
890.237	0.0160251
890.315	0.0160399
890.393	0.0159637
890.471	0.0159418
890.549	0.0159363
890.628	0.0160189
890.706	0.0160143
890.784	0.0159889
890.862	0.0160515
890.940	0.0159846
891.018	0.0159538
891.096	0.0160549
891.174	0.0161479
891.253	0.0160765
891.331	0.0161154
891.409	0.0160990
891.487	0.0160923
891.565	0.0161758
891.643	0.0161069
891.721	0.0161805
891.799	0.0161479
891.878	0.0162254
891.956	0.0160783
892.034	0.0161768
892.112	0.0161951
892.190	0.0160233
892.268	0.0161269
892.346	0.0163334
892.424	0.0162214
892.503	0.0161607
892.581	0.0162600
892.659	0.0163541
892.737	0.0162328
892.815	0.0162215
892.893	0.0162434
892.971	0.0163734
893.049	0.0162708
893.128	0.0162635
893.206	0.0163336
893.284	0.0163383
893.362	0.0163330
893.440	0.0163217
893.518	0.0163349
893.596	0.0162019
893.674	0.0163414
893.753	0.0162578
893.831	0.0162388
893.909	0.0161079
893.987	0.0162464
894.065	0.0161199
894.143	0.0160824
894.221	0.0159476
894.299	0.0161456
894.378	0.0161947
894.456	0.0161755
894.534	0.0162386
894.612	0.0163487
894.690	0.0161035
894.768	0.0160290
894.846	0.0160962
894.924	0.0160453
895.003	0.0160701
895.081	0.0161013
895.159	0.0160723
895.237	0.0161048
895.315	0.0161774
895.393	0.0161911
895.471	0.0161243
895.549	0.0160714
895.628	0.0161260
895.706	0.0160788
895.784	0.0162684
895.862	0.0163268
895.940	0.0161816
896.018	0.0162688
896.096	0.0161165
896.174	0.0159431
896.253	0.0161213
896.331	0.0161648
896.409	0.0162301
896.487	0.0161883
896.565	0.0161599
896.643	0.0161498
896.721	0.0161293
896.799	0.0160967
896.878	0.0162186
896.956	0.0161224
897.034	0.0161730
897.112	0.0162427
897.190	0.0160558
897.268	0.0161797
897.346	0.0161575
897.424	0.0162332
897.503	0.0161167
897.581	0.0160511
897.659	0.0161208
897.737	0.0160723
897.815	0.0159381
897.893	0.0160223
897.971	0.0159144
898.049	0.0159549
898.128	0.0161192
898.206	0.0161073
898.284	0.0160554
898.362	0.0161211
898.440	0.0161142
898.518	0.0160110
898.596	0.0161289
898.674	0.0161898
898.753	0.0162983
898.831	0.0161987
898.909	0.0163249
898.987	0.0162377
899.065	0.0162540
899.143	0.0161970
899.221	0.0163290
899.299	0.0163973
899.378	0.0162808
899.456	0.0162473
899.534	0.0164705
899.612	0.0162592
899.690	0.0161906
899.768	0.0163021
899.846	0.0162634
899.924	0.0162519
900.003	0.0162273
900.081	0.0161717
900.159	0.0161168
900.237	0.0159856
900.315	0.0161700
900.393	0.0161736
900.471	0.0161449
900.549	0.0161126
900.628	0.0160963
900.706	0.0160255
900.784	0.0161261
900.862	0.0162236
900.940	0.0161339
901.018	0.0161084
901.096	0.0162048
901.174	0.0162162
901.253	0.0161676
901.331	0.0162064
901.409	0.0161912
901.487	0.0162861
901.565	0.0160841
901.643	0.0161280
901.721	0.0162004
901.799	0.0162543
901.878	0.0161516
901.956	0.0161066
902.034	0.0160974
902.112	0.0161565
902.190	0.0160148
902.268	0.0160106
902.346	0.0161500
902.424	0.0161719
902.503	0.0162785
902.581	0.0161457
902.659	0.0160505
902.737	0.0161289
902.815	0.0163658
902.893	0.0162689
902.971	0.0162010
903.049	0.0161552
903.128	0.0161350
903.206	0.0161942
903.284	0.0163615
903.362	0.0162470
903.440	0.0161893
903.518	0.0162021
903.596	0.0162374
903.674	0.0162198
903.753	0.0163113
903.831	0.0160369
903.909	0.0161262
903.987	0.0161932
904.065	0.0160641
904.143	0.0161489
904.221	0.0162566
904.299	0.0161768
904.378	0.0162825
904.456	0.0162700
904.534	0.0162074
904.612	0.0160952
904.690	0.0161755
904.768	0.0162883
904.846	0.0162760
904.924	0.0161749
905.003	0.0161562
905.081	0.0160918
905.159	0.0163290
905.237	0.0162453
905.315	0.0163595
905.393	0.0162549
905.471	0.0162370
905.549	0.0162209
905.628	0.0162689
905.706	0.0162032
905.784	0.0161255
905.862	0.0160235
905.940	0.0161867
906.018	0.0161250
906.096	0.0161490
906.174	0.0161217
906.253	0.0162718
906.331	0.0160183
906.409	0.0162025
906.487	0.0160751
906.565	0.0161926
906.643	0.0161480
906.721	0.0160052
906.799	0.0159498
906.878	0.0160247
906.956	0.0161213
907.034	0.0159915
907.112	0.0161263
907.190	0.0159427
907.268	0.0159353
907.346	0.0160509
907.424	0.0159596
907.503	0.0159407
907.581	0.0161090
907.659	0.0161134
907.737	0.0159470
907.815	0.0159325
907.893	0.0161242
907.971	0.0160416
908.049	0.0161295
908.128	0.0160722
908.206	0.0161643
908.284	0.0161150
908.362	0.0160246
908.440	0.0162116
908.518	0.0162561
908.596	0.0162199
908.674	0.0162383
908.753	0.0161831
908.831	0.0161291
908.909	0.0161885
908.987	0.0163738
909.065	0.0163336
909.143	0.0162785
909.221	0.0162679
909.299	0.0161783
909.378	0.0162209
909.456	0.0164075
909.534	0.0163251
909.612	0.0163146
909.690	0.0163859
909.768	0.0162790
909.846	0.0163206
909.924	0.0164514
910.003	0.0163599
910.081	0.0163853
910.159	0.0162516
910.237	0.0162799
910.315	0.0162245
910.393	0.0162682
910.471	0.0162875
910.549	0.0163116
910.628	0.0161729
910.706	0.0161172
910.784	0.0162597
910.862	0.0163753
910.940	0.0162617
911.018	0.0161028
911.096	0.0162400
911.174	0.0162297
911.253	0.0160966
911.331	0.0162345
911.409	0.0162257
911.487	0.0159795
911.565	0.0161288
911.643	0.0160696
911.721	0.0160526
911.799	0.0159933
911.878	0.0161153
911.956	0.0161664
912.034	0.0160306
912.112	0.0160483
912.190	0.0161597
912.268	0.0160503
912.346	0.0159718
912.424	0.0159351
912.503	0.0159540
912.581	0.0161087
912.659	0.0159645
912.737	0.0160725
912.815	0.0160811
912.893	0.0161578
912.971	0.0160893
913.049	0.0161722
913.128	0.0162018
913.206	0.0160879
913.284	0.0162116
913.362	0.0162199
913.440	0.0161897
913.518	0.0162714
913.596	0.0162851
913.674	0.0161367
913.753	0.0161640
913.831	0.0162453
913.909	0.0162117
913.987	0.0162068
914.065	0.0163319
914.143	0.0163520
914.221	0.0161438
914.299	0.0161254
914.378	0.0162449
914.456	0.0164111
914.534	0.0163284
914.612	0.0164544
914.690	0.0163523
914.768	0.0163739
914.846	0.0164529
914.924	0.0164506
915.003	0.0163896
915.081	0.0162757
915.159	0.0163503
915.237	0.0162956
915.315	0.0163198
915.393	0.0163393
915.471	0.0163251
915.549	0.0162878
915.628	0.0162125
915.706	0.0162038
915.784	0.0161279
915.862	0.0162066
915.940	0.0163164
916.018	0.0161050
916.096	0.0160512
916.174	0.0161192
916.253	0.0161467
916.331	0.0161874
916.409	0.0161775
916.487	0.0160324
916.565	0.0161572
916.643	0.0162720
916.721	0.0163000
916.799	0.0161163
916.878	0.0160023
916.956	0.0162789
917.034	0.0161749
917.112	0.0160965
917.190	0.0160622
917.268	0.0161317
917.346	0.0161990
917.424	0.0160526
917.503	0.0161105
917.581	0.0161659
917.659	0.0161687
917.737	0.0160026
917.815	0.0160873
917.893	0.0159953
917.971	0.0161824
918.049	0.0160947
918.128	0.0161392
918.206	0.0161452
918.284	0.0159116
918.362	0.0160555
918.440	0.0160464
918.518	0.0161164
918.596	0.0159081
918.674	0.0161064
918.753	0.0161023
918.831	0.0161755
918.909	0.0161816
918.987	0.0162468
919.065	0.0162045
919.143	0.0161667
919.221	0.0162647
919.299	0.0161850
919.378	0.0162139
919.456	0.0162509
919.534	0.0161685
919.612	0.0162713
919.690	0.0161121
919.768	0.0162370
919.846	0.0161945
919.924	0.0161713
920.003	0.0161844
920.081	0.0162582
920.159	0.0163522
920.237	0.0162757
920.315	0.0162461
920.393	0.0163210
920.471	0.0162083
920.549	0.0163229
920.628	0.0162191
920.706	0.0161932
920.784	0.0162547
920.862	0.0162742
920.940	0.0162006
921.018	0.0162668
921.096	0.0162756
921.174	0.0162452
921.253	0.0161929
921.331	0.0160471
921.409	0.0161969
921.487	0.0162524
921.565	0.0161773
921.643	0.0160506
921.721	0.0160299
921.799	0.0160365
921.878	0.0161256
921.956	0.0159895
922.034	0.0160666
922.112	0.0160262
922.190	0.0160528
922.268	0.0159834
922.346	0.0160046
922.424	0.0160313
922.503	0.0161293
922.581	0.0161072
922.659	0.0160463
922.737	0.0160883
922.815	0.0161546
922.893	0.0161504
922.971	0.0161337
923.049	0.0161692
923.128	0.0161265
923.206	0.0161901
923.284	0.0161356
923.362	0.0162018
923.440	0.0162173
923.518	0.0162193
923.596	0.0162624
923.674	0.0160918
923.753	0.0162595
923.831	0.0162861
923.909	0.0161896
923.987	0.0161122
924.065	0.0161263
924.143	0.0161924
924.221	0.0160544
924.299	0.0162115
924.378	0.0160795
924.456	0.0160830
924.534	0.0160973
924.612	0.0161869
924.690	0.0160990
924.768	0.0162202
924.846	0.0161754
924.924	0.0160708
925.003	0.0161962
925.081	0.0162418
925.159	0.0162213
925.237	0.0163052
925.315	0.0161652
925.393	0.0161666
925.471	0.0161482
925.549	0.0162206
925.628	0.0162483
925.706	0.0161449
925.784	0.0162523
925.862	0.0162034
925.940	0.0161781
926.018	0.0161130
926.096	0.0161372
926.174	0.0161131
926.253	0.0161392
926.331	0.0163390
926.409	0.0162336
926.487	0.0162585
926.565	0.0161794
926.643	0.0162466
926.721	0.0162757
926.799	0.0161956
926.878	0.0161472
926.956	0.0162045
927.034	0.0161274
927.112	0.0161740
927.190	0.0161629
927.268	0.0162592
927.346	0.0161853
927.424	0.0160657
927.503	0.0161079
927.581	0.0161153
927.659	0.0161910
927.737	0.0161156
927.815	0.0161453
927.893	0.0160941
927.971	0.0160665
928.049	0.0160410
928.128	0.0161985
928.206	0.0161829
928.284	0.0161301
928.362	0.0160059
928.440	0.0161900
928.518	0.0160751
928.596	0.0160612
928.674	0.0161096
928.753	0.0161105
928.831	0.0161267
928.909	0.0161172
928.987	0.0160561
929.065	0.0161387
929.143	0.0161639
929.221	0.0161758
929.299	0.0161632
929.378	0.0160841
929.456	0.0160951
929.534	0.0162403
929.612	0.0161131
929.690	0.0162643
929.768	0.0160702
929.846	0.0160999
929.924	0.0161130
930.003	0.0161436
930.081	0.0162328
930.159	0.0161051
930.237	0.0162189
930.315	0.0161887
930.393	0.0160974
930.471	0.0161699
930.549	0.0161857
930.628	0.0163001
930.706	0.0160453
930.784	0.0162417
930.862	0.0161921
930.940	0.0162181
931.018	0.0162218
931.096	0.0163229
931.174	0.0161515
931.253	0.0161365
931.331	0.0162811
931.409	0.0162878
931.487	0.0162189
931.565	0.0164175
931.643	0.0163429
931.721	0.0163228
931.799	0.0162330
931.878	0.0162947
931.956	0.0163045
932.034	0.0162817
932.112	0.0163522
932.190	0.0162537
932.268	0.0163299
932.346	0.0163250
932.424	0.0161573
932.503	0.0161577
932.581	0.0162099
932.659	0.0162434
932.737	0.0162932
932.815	0.0162739
932.893	0.0162749
932.971	0.0161986
933.049	0.0160902
933.128	0.0160873
933.206	0.0161407
933.284	0.0163068
933.362	0.0162074
933.440	0.0160798
933.518	0.0160902
933.596	0.0160424
933.674	0.0160659
933.753	0.0161029
933.831	0.0159162
933.909	0.0160707
933.987	0.0159377
934.065	0.0160460
934.143	0.0159825
934.221	0.0160750
934.299	0.0160255
934.378	0.0160200
934.456	0.0160800
934.534	0.0160586
934.612	0.0161060
934.690	0.0160660
934.768	0.0160663
934.846	0.0161871
934.924	0.0160940
935.003	0.0160352
935.081	0.0160777
935.159	0.0160448
935.237	0.0161685
935.315	0.0161372
935.393	0.0163025
935.471	0.0162649
935.549	0.0161802
935.628	0.0160737
935.706	0.0162280
935.784	0.0162086
935.862	0.0161761
935.940	0.0161940
936.018	0.0163251
936.096	0.0161519
936.174	0.0163794
936.253	0.0162320
936.331	0.0162808
936.409	0.0163954
936.487	0.0163448
936.565	0.0162933
936.643	0.0162858
936.721	0.0163099
936.799	0.0162973
936.878	0.0162724
936.956	0.0162972
937.034	0.0164383
937.112	0.0163315
937.190	0.0162730
937.268	0.0162588
937.346	0.0163239
937.424	0.0162850
937.503	0.0162754
937.581	0.0161971
937.659	0.0160800
937.737	0.0161665
937.815	0.0162180
937.893	0.0163078
937.971	0.0163200
938.049	0.0161505
938.128	0.0161369
938.206	0.0161959
938.284	0.0161150
938.362	0.0162636
938.440	0.0161028
938.518	0.0160061
938.596	0.0161692
938.674	0.0161709
938.753	0.0161410
938.831	0.0161335
938.909	0.0161261
938.987	0.0161684
939.065	0.0160516
939.143	0.0160588
939.221	0.0160713
939.299	0.0160590
939.378	0.0160729
939.456	0.0160857
939.534	0.0159882
939.612	0.0160863
939.690	0.0159885
939.768	0.0159933
939.846	0.0161154
939.924	0.0161199
940.003	0.0160474
940.081	0.0161394
940.159	0.0160567
940.237	0.0159954
940.315	0.0159573
940.393	0.0160793
940.471	0.0160844
940.549	0.0161378
940.628	0.0160194
940.706	0.0159407
940.784	0.0161951
940.862	0.0161459
940.940	0.0159562
941.018	0.0161259
941.096	0.0161782
941.174	0.0161032
941.253	0.0161130
941.331	0.0162627
941.409	0.0162762
941.487	0.0161097
941.565	0.0160063
941.643	0.0162186
941.721	0.0163076
941.799	0.0162020
941.878	0.0161451
941.956	0.0160929
942.034	0.0161324
942.112	0.0162388
942.190	0.0163435
942.268	0.0161150
942.346	0.0163345
942.424	0.0162714
942.503	0.0161411
942.581	0.0161758
942.659	0.0162291
942.737	0.0163511
942.815	0.0160896
942.893	0.0161488
942.971	0.0161630
943.049	0.0160820
943.128	0.0162482
943.206	0.0160387
943.284	0.0161415
943.362	0.0161691
943.440	0.0162279
943.518	0.0162563
943.596	0.0160983
943.674	0.0161436
943.753	0.0161124
943.831	0.0160406
943.909	0.0160203
943.987	0.0159747
944.065	0.0160971
944.143	0.0160979
944.221	0.0160771
944.299	0.0161165
944.378	0.0160828
944.456	0.0161369
944.534	0.0160959
944.612	0.0159613
944.690	0.0160866
944.768	0.0160717
944.846	0.0160750
944.924	0.0160336
945.003	0.0160448
945.081	0.0160619
945.159	0.0160919
945.237	0.0158887
945.315	0.0159328
945.393	0.0160959
945.471	0.0160789
945.549	0.0159953
945.628	0.0160146
945.706	0.0160022
945.784	0.0159087
945.862	0.0160524
945.940	0.0159956
946.018	0.0160326
946.096	0.0160989
946.174	0.0161867
946.253	0.0162119
946.331	0.0160262
946.409	0.0161538
946.487	0.0160582
946.565	0.0161639
946.643	0.0161820
946.721	0.0161707
946.799	0.0161855
946.878	0.0161099
946.956	0.0160801
947.034	0.0162087
947.112	0.0162734
947.190	0.0161152
947.268	0.0161919
947.346	0.0162395
947.424	0.0162605
947.503	0.0160905
947.581	0.0162347
947.659	0.0161401
947.737	0.0161873
947.815	0.0162017
947.893	0.0162226
947.971	0.0163103
948.049	0.0161454
948.128	0.0163385
948.206	0.0162955
948.284	0.0161992
948.362	0.0162601
948.440	0.0162434
948.518	0.0162183
948.596	0.0163051
948.674	0.0162373
948.753	0.0162971
948.831	0.0161676
948.909	0.0162875
948.987	0.0160436
949.065	0.0161416
949.143	0.0160646
949.221	0.0161187
949.299	0.0162159
949.378	0.0161349
949.456	0.0160712
949.534	0.0160732
949.612	0.0160616
949.690	0.0161353
949.768	0.0161607
949.846	0.0161389
949.924	0.0161860
