05/19/2022	00:44:43	Ver.	4.1	UNKNOWN
Optical Delay	630.009178	Delta X		0.078125	Sweeps	1	Scan Rate	0/0
Coordinates	Axis 1	NaN	Axis 2	NaN	Axis 3	NaN	Axis 4	NaN	Axis 5	NaN	Axis 6	0.000000
TX Power	0.000000	RX Power	0.000000

630.009	0.0170691
630.087	0.0170397
630.165	0.0171338
630.244	0.0170226
630.322	0.0170193
630.400	0.0170325
630.478	0.0170103
630.556	0.0170532
630.634	0.0170830
630.712	0.0170377
630.790	0.0171319
630.869	0.0170754
630.947	0.0170731
631.025	0.0169666
631.103	0.0170467
631.181	0.0171972
631.259	0.0169528
631.337	0.0168699
631.415	0.0171533
631.494	0.0170693
631.572	0.0170462
631.650	0.0170058
631.728	0.0170467
631.806	0.0170412
631.884	0.0170209
631.962	0.0170937
632.040	0.0170541
632.119	0.0171655
632.197	0.0169155
632.275	0.0170355
632.353	0.0170109
632.431	0.0171090
632.509	0.0171722
632.587	0.0169913
632.665	0.0169909
632.744	0.0169672
632.822	0.0170851
632.900	0.0172360
632.978	0.0168999
633.056	0.0170786
633.134	0.0170779
633.212	0.0169788
633.290	0.0169778
633.369	0.0169886
633.447	0.0171169
633.525	0.0170599
633.603	0.0169572
633.681	0.0170634
633.759	0.0169382
633.837	0.0169190
633.915	0.0171081
633.994	0.0170700
634.072	0.0170776
634.150	0.0170110
634.228	0.0170032
634.306	0.0170547
634.384	0.0170629
634.462	0.0170165
634.540	0.0171307
634.619	0.0170312
634.697	0.0170929
634.775	0.0170225
634.853	0.0170555
634.931	0.0169871
635.009	0.0170028
635.087	0.0169347
635.165	0.0170493
635.244	0.0169767
635.322	0.0169408
635.400	0.0170296
635.478	0.0170609
635.556	0.0170741
635.634	0.0170423
635.712	0.0170477
635.790	0.0170260
635.869	0.0170519
635.947	0.0169878
636.025	0.0169997
636.103	0.0170515
636.181	0.0171101
636.259	0.0169511
636.337	0.0169863
636.415	0.0168525
636.494	0.0170907
636.572	0.0170860
636.650	0.0170582
636.728	0.0170120
636.806	0.0169916
636.884	0.0170995
636.962	0.0170951
637.040	0.0170043
637.119	0.0170392
637.197	0.0170818
637.275	0.0170588
637.353	0.0169214
637.431	0.0169854
637.509	0.0169877
637.587	0.0170537
637.665	0.0170003
637.744	0.0171834
637.822	0.0170933
637.900	0.0170375
637.978	0.0170704
638.056	0.0169904
638.134	0.0169435
638.212	0.0171854
638.290	0.0171201
638.369	0.0169351
638.447	0.0169929
638.525	0.0170757
638.603	0.0171838
638.681	0.0170557
638.759	0.0168202
638.837	0.0172563
638.915	0.0171390
638.994	0.0169537
639.072	0.0170788
639.150	0.0170694
639.228	0.0170903
639.306	0.0169852
639.384	0.0170472
639.462	0.0169717
639.540	0.0169656
639.619	0.0170897
639.697	0.0171692
639.775	0.0170459
639.853	0.0171429
639.931	0.0171014
640.009	0.0170459
640.087	0.0171376
640.165	0.0170543
640.244	0.0171429
640.322	0.0169696
640.400	0.0170381
640.478	0.0169734
640.556	0.0169616
640.634	0.0170629
640.712	0.0169117
640.790	0.0169109
640.869	0.0170860
640.947	0.0169566
641.025	0.0170370
641.103	0.0169592
641.181	0.0169166
641.259	0.0170796
641.337	0.0170381
641.415	0.0169942
641.494	0.0169334
641.572	0.0171723
641.650	0.0169767
641.728	0.0168931
641.806	0.0170187
641.884	0.0171158
641.962	0.0170783
642.040	0.0169837
642.119	0.0170010
642.197	0.0169121
642.275	0.0170019
642.353	0.0171262
642.431	0.0170587
642.509	0.0170470
642.587	0.0170680
642.665	0.0170335
642.744	0.0171070
642.822	0.0170679
642.900	0.0170186
642.978	0.0171111
643.056	0.0172855
643.134	0.0170950
643.212	0.0169859
643.290	0.0170104
643.369	0.0170538
643.447	0.0170056
643.525	0.0171282
643.603	0.0170806
643.681	0.0170834
643.759	0.0169904
643.837	0.0169208
643.915	0.0170421
643.994	0.0170535
644.072	0.0170458
644.150	0.0169754
644.228	0.0170461
644.306	0.0170196
644.384	0.0170049
644.462	0.0170576
644.540	0.0169621
644.619	0.0170358
644.697	0.0170231
644.775	0.0169344
644.853	0.0170216
644.931	0.0170058
645.009	0.0169548
645.087	0.0169613
645.165	0.0168917
645.244	0.0170362
645.322	0.0170188
645.400	0.0170120
645.478	0.0170525
645.556	0.0171272
645.634	0.0171348
645.712	0.0169311
645.790	0.0170901
645.869	0.0170035
645.947	0.0170275
646.025	0.0170056
646.103	0.0170181
646.181	0.0169984
646.259	0.0170192
646.337	0.0170879
646.415	0.0170315
646.494	0.0170964
646.572	0.0170679
646.650	0.0169536
646.728	0.0171086
646.806	0.0169984
646.884	0.0169587
646.962	0.0170879
647.040	0.0168966
647.119	0.0169984
647.197	0.0170113
647.275	0.0170395
647.353	0.0170348
647.431	0.0169318
647.509	0.0170205
647.587	0.0170037
647.665	0.0169135
647.744	0.0170403
647.822	0.0169778
647.900	0.0169647
647.978	0.0171125
648.056	0.0169499
648.134	0.0169366
648.212	0.0170049
648.290	0.0169588
648.369	0.0170730
648.447	0.0170503
648.525	0.0169318
648.603	0.0169361
648.681	0.0169648
648.759	0.0169868
648.837	0.0168330
648.915	0.0169758
648.994	0.0171548
649.072	0.0170529
649.150	0.0170156
649.228	0.0170370
649.306	0.0169634
649.384	0.0169785
649.462	0.0169876
649.540	0.0169872
649.619	0.0169237
649.697	0.0170043
649.775	0.0168893
649.853	0.0170338
649.931	0.0169357
650.009	0.0169633
650.087	0.0170904
650.165	0.0169942
650.244	0.0169295
650.322	0.0169807
650.400	0.0170953
650.478	0.0169835
650.556	0.0168553
650.634	0.0170767
650.712	0.0171028
650.790	0.0172033
650.869	0.0169797
650.947	0.0168670
651.025	0.0169635
651.103	0.0170073
651.181	0.0170255
651.259	0.0170837
651.337	0.0170645
651.415	0.0169581
651.494	0.0168831
651.572	0.0169376
651.650	0.0171296
651.728	0.0171363
651.806	0.0171144
651.884	0.0170737
651.962	0.0170414
652.040	0.0170617
652.119	0.0171295
652.197	0.0170319
652.275	0.0170804
652.353	0.0171112
652.431	0.0171446
652.509	0.0170723
652.587	0.0169588
652.665	0.0169296
652.744	0.0169812
652.822	0.0169786
652.900	0.0170518
652.978	0.0170002
653.056	0.0169704
653.134	0.0171177
653.212	0.0170303
653.290	0.0168887
653.369	0.0170607
653.447	0.0170452
653.525	0.0171455
653.603	0.0169771
653.681	0.0169686
653.759	0.0169443
653.837	0.0170737
653.915	0.0169969
653.994	0.0168713
654.072	0.0170887
654.150	0.0170955
654.228	0.0169707
654.306	0.0170000
654.384	0.0170049
654.462	0.0170868
654.540	0.0169765
654.619	0.0169556
654.697	0.0169491
654.775	0.0169109
654.853	0.0170223
654.931	0.0171648
655.009	0.0168920
655.087	0.0168031
655.165	0.0169434
655.244	0.0168466
655.322	0.0170155
655.400	0.0170375
655.478	0.0170058
655.556	0.0169747
655.634	0.0170238
655.712	0.0170783
655.790	0.0169779
655.869	0.0169797
655.947	0.0169127
656.025	0.0169930
656.103	0.0170735
656.181	0.0169444
656.259	0.0169681
656.337	0.0170344
656.415	0.0169931
656.494	0.0169888
656.572	0.0170520
656.650	0.0169881
656.728	0.0170242
656.806	0.0170151
656.884	0.0169542
656.962	0.0170869
657.040	0.0170332
657.119	0.0169815
657.197	0.0169588
657.275	0.0170007
657.353	0.0169283
657.431	0.0169640
657.509	0.0170663
657.587	0.0171015
657.665	0.0168968
657.744	0.0169891
657.822	0.0169907
657.900	0.0170531
657.978	0.0169929
658.056	0.0169157
658.134	0.0168517
658.212	0.0170061
658.290	0.0171246
658.369	0.0171609
658.447	0.0169922
658.525	0.0172785
658.603	0.0171823
658.681	0.0170057
658.759	0.0170594
658.837	0.0169650
658.915	0.0171072
658.994	0.0170756
659.072	0.0168706
659.150	0.0170926
659.228	0.0169354
659.306	0.0170229
659.384	0.0169630
659.462	0.0170715
659.540	0.0170124
659.619	0.0170063
659.697	0.0170542
659.775	0.0170760
659.853	0.0170834
659.931	0.0169350
660.009	0.0170895
660.087	0.0170599
660.165	0.0170709
660.244	0.0169411
660.322	0.0170464
660.400	0.0171433
660.478	0.0170908
660.556	0.0168902
660.634	0.0170286
660.712	0.0169196
660.790	0.0171723
660.869	0.0171389
660.947	0.0169782
661.025	0.0170061
661.103	0.0171069
661.181	0.0169499
661.259	0.0170901
661.337	0.0170348
661.415	0.0170608
661.494	0.0169409
661.572	0.0170908
661.650	0.0171265
661.728	0.0169489
661.806	0.0171053
661.884	0.0170608
661.962	0.0170727
662.040	0.0171236
662.119	0.0170947
662.197	0.0170168
662.275	0.0170873
662.353	0.0169043
662.431	0.0171008
662.509	0.0171307
662.587	0.0171284
662.665	0.0170717
662.744	0.0170010
662.822	0.0171273
662.900	0.0170695
662.978	0.0170614
663.056	0.0170888
663.134	0.0170416
663.212	0.0171144
663.290	0.0170616
663.369	0.0169373
663.447	0.0171214
663.525	0.0169848
663.603	0.0170492
663.681	0.0170052
663.759	0.0171176
663.837	0.0169990
663.915	0.0170087
663.994	0.0170232
664.072	0.0169064
664.150	0.0169985
664.228	0.0170232
664.306	0.0170322
664.384	0.0171078
664.462	0.0169955
664.540	0.0170663
664.619	0.0169636
664.697	0.0171396
664.775	0.0170727
664.853	0.0169111
664.931	0.0171862
665.009	0.0170910
665.087	0.0168186
665.165	0.0170905
665.244	0.0171311
665.322	0.0170015
665.400	0.0170736
665.478	0.0170232
665.556	0.0171297
665.634	0.0170831
665.712	0.0170072
665.790	0.0170155
665.869	0.0170642
665.947	0.0169158
666.025	0.0169511
666.103	0.0170221
666.181	0.0170603
666.259	0.0169708
666.337	0.0170957
666.415	0.0169367
666.494	0.0171213
666.572	0.0171558
666.650	0.0169782
666.728	0.0169901
666.806	0.0170787
666.884	0.0170957
666.962	0.0170881
667.040	0.0172179
667.119	0.0172393
667.197	0.0172279
667.275	0.0171536
667.353	0.0171498
667.431	0.0170791
667.509	0.0170395
667.587	0.0171679
667.665	0.0172042
667.744	0.0170705
667.822	0.0170712
667.900	0.0170674
667.978	0.0171333
668.056	0.0169908
668.134	0.0171725
668.212	0.0171975
668.290	0.0170913
668.369	0.0171810
668.447	0.0171222
668.525	0.0170709
668.603	0.0172289
668.681	0.0171301
668.759	0.0172212
668.837	0.0172063
668.915	0.0171118
668.994	0.0171111
669.072	0.0171550
669.150	0.0171430
669.228	0.0171023
669.306	0.0170839
669.384	0.0172249
669.462	0.0170344
669.540	0.0168639
669.619	0.0168478
669.697	0.0170107
669.775	0.0169137
669.853	0.0169271
669.931	0.0170000
670.009	0.0170604
670.087	0.0170921
670.165	0.0170284
670.244	0.0170600
670.322	0.0170763
670.400	0.0169833
670.478	0.0170979
670.556	0.0169441
670.634	0.0172009
670.712	0.0171249
670.790	0.0170129
670.869	0.0170076
670.947	0.0169600
671.025	0.0171708
671.103	0.0170053
671.181	0.0169980
671.259	0.0169449
671.337	0.0170132
671.415	0.0169958
671.494	0.0169944
671.572	0.0168848
671.650	0.0169505
671.728	0.0169192
671.806	0.0168844
671.884	0.0168197
671.962	0.0168018
672.040	0.0169164
672.119	0.0168719
672.197	0.0170573
672.275	0.0168806
672.353	0.0168732
672.431	0.0169039
672.509	0.0169714
672.587	0.0169512
672.665	0.0169767
672.744	0.0169070
672.822	0.0168320
672.900	0.0169197
672.978	0.0168234
673.056	0.0168230
673.134	0.0170071
673.212	0.0169768
673.290	0.0168963
673.369	0.0169779
673.447	0.0171503
673.525	0.0169125
673.603	0.0170530
673.681	0.0169878
673.759	0.0169487
673.837	0.0169513
673.915	0.0170183
673.994	0.0167859
674.072	0.0169051
674.150	0.0168829
674.228	0.0168748
674.306	0.0168710
674.384	0.0167770
674.462	0.0169268
674.540	0.0169025
674.619	0.0167987
674.697	0.0169792
674.775	0.0170074
674.853	0.0169661
674.931	0.0170342
675.009	0.0168545
675.087	0.0170930
675.165	0.0170766
675.244	0.0171105
675.322	0.0170758
675.400	0.0170330
675.478	0.0171455
675.556	0.0171375
675.634	0.0172784
675.712	0.0171164
675.790	0.0172115
675.869	0.0171442
675.947	0.0170087
676.025	0.0168900
676.103	0.0169771
676.181	0.0169085
676.259	0.0170767
676.337	0.0170240
676.415	0.0169331
676.494	0.0169441
676.572	0.0169706
676.650	0.0168875
676.728	0.0170358
676.806	0.0169902
676.884	0.0171336
676.962	0.0171118
677.040	0.0171792
677.119	0.0171784
677.197	0.0170098
677.275	0.0173870
677.353	0.0172778
677.431	0.0172113
677.509	0.0173053
677.587	0.0173169
677.665	0.0172624
677.744	0.0174092
677.822	0.0171672
677.900	0.0171802
677.978	0.0172392
678.056	0.0170541
678.134	0.0170136
678.212	0.0169464
678.290	0.0170031
678.369	0.0170371
678.447	0.0170296
678.525	0.0169248
678.603	0.0170087
678.681	0.0170654
678.759	0.0169921
678.837	0.0168520
678.915	0.0168724
678.994	0.0169598
679.072	0.0171535
679.150	0.0170811
679.228	0.0169615
679.306	0.0168912
679.384	0.0169765
679.462	0.0171612
679.540	0.0169941
679.619	0.0172025
679.697	0.0170471
679.775	0.0169402
679.853	0.0170102
679.931	0.0168688
680.009	0.0167680
680.087	0.0168298
680.165	0.0169179
680.244	0.0168091
680.322	0.0167114
680.400	0.0168502
680.478	0.0166684
680.556	0.0169025
680.634	0.0168586
680.712	0.0169113
680.790	0.0167362
680.869	0.0168461
680.947	0.0168552
681.025	0.0169276
681.103	0.0168570
681.181	0.0170764
681.259	0.0169767
681.337	0.0170110
681.415	0.0169888
681.494	0.0169917
681.572	0.0169221
681.650	0.0169386
681.728	0.0168712
681.806	0.0168740
681.884	0.0168977
681.962	0.0169116
682.040	0.0170535
682.119	0.0169360
682.197	0.0170107
682.275	0.0171571
682.353	0.0169923
682.431	0.0168916
682.509	0.0169591
682.587	0.0170728
682.665	0.0170359
682.744	0.0170309
682.822	0.0169024
682.900	0.0170773
682.978	0.0170168
683.056	0.0170421
683.134	0.0169174
683.212	0.0169232
683.290	0.0169503
683.369	0.0170049
683.447	0.0169785
683.525	0.0171004
683.603	0.0171328
683.681	0.0172153
683.759	0.0174032
683.837	0.0174987
683.915	0.0174950
683.994	0.0174393
684.072	0.0175007
684.150	0.0176637
684.228	0.0175850
684.306	0.0174621
684.384	0.0176625
684.462	0.0175735
684.540	0.0173578
684.619	0.0173767
684.697	0.0176345
684.775	0.0175102
684.853	0.0174518
684.931	0.0174200
685.009	0.0173991
685.087	0.0173764
685.165	0.0173192
685.244	0.0172412
685.322	0.0172620
685.400	0.0171478
685.478	0.0172781
685.556	0.0172154
685.634	0.0168938
685.712	0.0169603
685.790	0.0169136
685.869	0.0169012
685.947	0.0169450
686.025	0.0167830
686.103	0.0168291
686.181	0.0167253
686.259	0.0166304
686.337	0.0166950
686.415	0.0165976
686.494	0.0165966
686.572	0.0166366
686.650	0.0166474
686.728	0.0166480
686.806	0.0166840
686.884	0.0167668
686.962	0.0167440
687.040	0.0169921
687.119	0.0168308
687.197	0.0170198
687.275	0.0172463
687.353	0.0172807
687.431	0.0173461
687.509	0.0173439
687.587	0.0173631
687.665	0.0176235
687.744	0.0175137
687.822	0.0176566
687.900	0.0177602
687.978	0.0178138
688.056	0.0179631
688.134	0.0177515
688.212	0.0178271
688.290	0.0178260
688.369	0.0179149
688.447	0.0179290
688.525	0.0178340
688.603	0.0178278
688.681	0.0177863
688.759	0.0178596
688.837	0.0177848
688.915	0.0177894
688.994	0.0176871
689.072	0.0176070
689.150	0.0175524
689.228	0.0174723
689.306	0.0173910
689.384	0.0173328
689.462	0.0172100
689.540	0.0171897
689.619	0.0172617
689.697	0.0171497
689.775	0.0169077
689.853	0.0168691
689.931	0.0168126
690.009	0.0167379
690.087	0.0165261
690.165	0.0163242
690.244	0.0163172
690.322	0.0161053
690.400	0.0159196
690.478	0.0158717
690.556	0.0156174
690.634	0.0154440
690.712	0.0155549
690.790	0.0155722
690.869	0.0154406
690.947	0.0155617
691.025	0.0155701
691.103	0.0155855
691.181	0.0158013
691.259	0.0158061
691.337	0.0161497
691.415	0.0161635
691.494	0.0165395
691.572	0.0165542
691.650	0.0167202
691.728	0.0169065
691.806	0.0169546
691.884	0.0171207
691.962	0.0172915
692.040	0.0173706
692.119	0.0175983
692.197	0.0176125
692.275	0.0177481
692.353	0.0177431
692.431	0.0180225
692.509	0.0181890
692.587	0.0181973
692.665	0.0181790
692.744	0.0182802
692.822	0.0181976
692.900	0.0183728
692.978	0.0185402
693.056	0.0183778
693.134	0.0182146
693.212	0.0183810
693.290	0.0184882
693.369	0.0182494
693.447	0.0181738
693.525	0.0181445
693.603	0.0180651
693.681	0.0179774
693.759	0.0179176
693.837	0.0177895
693.915	0.0175592
693.994	0.0174850
694.072	0.0173264
694.150	0.0170892
694.228	0.0172160
694.306	0.0169534
694.384	0.0168125
694.462	0.0166752
694.540	0.0164501
694.619	0.0164472
694.697	0.0161948
694.775	0.0159998
694.853	0.0160857
694.931	0.0160300
695.009	0.0158495
695.087	0.0158945
695.165	0.0158690
695.244	0.0157523
695.322	0.0158432
695.400	0.0156422
695.478	0.0155841
695.556	0.0157189
695.634	0.0157787
695.712	0.0159787
695.790	0.0159953
695.869	0.0160545
695.947	0.0161601
696.025	0.0161585
696.103	0.0164674
696.181	0.0165416
696.259	0.0166538
696.337	0.0165974
696.415	0.0167935
696.494	0.0167511
696.572	0.0167687
696.650	0.0169013
696.728	0.0169416
696.806	0.0169946
696.884	0.0168107
696.962	0.0168567
697.040	0.0170567
697.119	0.0171861
697.197	0.0172034
697.275	0.0173705
697.353	0.0173717
697.431	0.0173971
697.509	0.0174682
697.587	0.0174834
697.665	0.0177621
697.744	0.0176402
697.822	0.0176591
697.900	0.0176328
697.978	0.0175755
698.056	0.0175426
698.134	0.0176311
698.212	0.0175471
698.290	0.0174592
698.369	0.0173944
698.447	0.0174120
698.525	0.0174079
698.603	0.0172076
698.681	0.0172235
698.759	0.0174194
698.837	0.0173044
698.915	0.0172346
698.994	0.0170836
699.072	0.0172166
699.150	0.0174002
699.228	0.0172856
699.306	0.0172673
699.384	0.0174136
699.462	0.0174829
699.540	0.0175922
699.619	0.0175871
699.697	0.0174249
699.775	0.0175172
699.853	0.0175280
699.931	0.0173502
700.009	0.0173725
700.087	0.0174586
700.165	0.0173369
700.244	0.0172414
700.322	0.0171678
700.400	0.0170420
700.478	0.0170045
700.556	0.0170381
700.634	0.0168502
700.712	0.0167735
700.790	0.0167680
700.869	0.0165662
700.947	0.0164755
701.025	0.0164370
701.103	0.0162576
701.181	0.0161876
701.259	0.0161642
701.337	0.0160871
701.415	0.0160195
701.494	0.0159097
701.572	0.0157918
701.650	0.0160483
701.728	0.0159930
701.806	0.0158279
701.884	0.0160861
701.962	0.0160204
702.040	0.0159897
702.119	0.0161885
702.197	0.0163836
702.275	0.0162845
702.353	0.0164251
702.431	0.0165810
702.509	0.0165120
702.587	0.0165932
702.665	0.0165092
702.744	0.0165904
702.822	0.0166103
702.900	0.0166505
702.978	0.0167989
703.056	0.0167719
703.134	0.0169177
703.212	0.0169849
703.290	0.0169315
703.369	0.0171764
703.447	0.0173847
703.525	0.0175229
703.603	0.0176991
703.681	0.0177802
703.759	0.0178296
703.837	0.0178354
703.915	0.0177650
703.994	0.0176514
704.072	0.0177377
704.150	0.0178155
704.228	0.0177036
704.306	0.0177854
704.384	0.0178856
704.462	0.0176668
704.540	0.0177759
704.619	0.0178178
704.697	0.0178187
704.775	0.0179377
704.853	0.0179047
704.931	0.0180067
705.009	0.0179820
705.087	0.0181015
705.165	0.0180922
705.244	0.0179944
705.322	0.0180328
705.400	0.0180479
705.478	0.0180422
705.556	0.0180248
705.634	0.0179875
705.712	0.0178470
705.790	0.0178217
705.869	0.0177166
705.947	0.0176585
706.025	0.0174453
706.103	0.0173445
706.181	0.0172581
706.259	0.0171307
706.337	0.0170798
706.415	0.0169689
706.494	0.0166313
706.572	0.0166525
706.650	0.0166442
706.728	0.0163742
706.806	0.0163023
706.884	0.0163636
706.962	0.0163372
707.040	0.0161996
707.119	0.0161748
707.197	0.0161609
707.275	0.0162437
707.353	0.0160363
707.431	0.0159936
707.509	0.0160718
707.587	0.0160091
707.665	0.0159651
707.744	0.0160117
707.822	0.0161600
707.900	0.0161122
707.978	0.0160297
708.056	0.0161807
708.134	0.0163274
708.212	0.0163116
708.290	0.0163017
708.369	0.0162614
708.447	0.0165368
708.525	0.0165974
708.603	0.0167771
708.681	0.0167788
708.759	0.0167464
708.837	0.0167546
708.915	0.0169811
708.994	0.0169463
709.072	0.0170269
709.150	0.0170957
709.228	0.0171136
709.306	0.0172803
709.384	0.0174293
709.462	0.0175224
709.540	0.0175461
709.619	0.0176144
709.697	0.0175629
709.775	0.0178418
709.853	0.0177584
709.931	0.0177177
710.009	0.0178575
710.087	0.0179205
710.165	0.0179000
710.244	0.0176575
710.322	0.0178741
710.400	0.0176811
710.478	0.0177814
710.556	0.0176283
710.634	0.0175891
710.712	0.0175452
710.790	0.0175092
710.869	0.0176263
710.947	0.0176206
711.025	0.0175257
711.103	0.0175826
711.181	0.0174526
711.259	0.0177370
711.337	0.0177410
711.415	0.0177453
711.494	0.0178039
711.572	0.0177284
711.650	0.0176738
711.728	0.0177701
711.806	0.0176569
711.884	0.0175405
711.962	0.0175214
712.040	0.0174348
712.119	0.0174840
712.197	0.0171429
712.275	0.0171380
712.353	0.0171682
712.431	0.0168189
712.509	0.0169891
712.587	0.0168815
712.665	0.0167122
712.744	0.0166156
712.822	0.0164504
712.900	0.0163816
712.978	0.0163252
713.056	0.0163766
713.134	0.0163573
713.212	0.0161638
713.290	0.0162381
713.369	0.0163070
713.447	0.0162039
713.525	0.0161475
713.603	0.0160257
713.681	0.0159480
713.759	0.0160760
713.837	0.0161017
713.915	0.0160864
713.994	0.0160706
714.072	0.0161752
714.150	0.0161324
714.228	0.0162122
714.306	0.0163206
714.384	0.0162364
714.462	0.0163588
714.540	0.0163435
714.619	0.0164709
714.697	0.0167464
714.775	0.0165810
714.853	0.0168292
714.931	0.0168196
715.009	0.0169242
715.087	0.0170652
715.165	0.0170962
715.244	0.0171172
715.322	0.0172678
715.400	0.0174511
715.478	0.0175269
715.556	0.0175854
715.634	0.0177357
715.712	0.0178983
715.790	0.0178844
715.869	0.0178219
715.947	0.0179436
716.025	0.0180438
716.103	0.0179028
716.181	0.0178823
716.259	0.0178532
716.337	0.0178109
716.415	0.0176659
716.494	0.0175546
716.572	0.0174700
716.650	0.0174272
716.728	0.0172854
716.806	0.0172327
716.884	0.0172957
716.962	0.0171386
717.040	0.0173705
717.119	0.0174123
717.197	0.0172176
717.275	0.0171478
717.353	0.0171070
717.431	0.0170238
717.509	0.0171505
717.587	0.0171493
717.665	0.0171144
717.744	0.0171727
717.822	0.0172552
717.900	0.0172967
717.978	0.0173289
718.056	0.0173211
718.134	0.0173587
718.212	0.0173479
718.290	0.0172563
718.369	0.0173309
718.447	0.0172374
718.525	0.0171954
718.603	0.0171416
718.681	0.0170688
718.759	0.0171085
718.837	0.0169976
718.915	0.0169090
718.994	0.0168694
719.072	0.0168056
719.150	0.0168376
719.228	0.0167152
719.306	0.0165979
719.384	0.0165324
719.462	0.0164807
719.540	0.0163857
719.619	0.0165081
719.697	0.0164631
719.775	0.0164552
719.853	0.0164198
719.931	0.0164012
720.009	0.0164198
720.087	0.0162119
720.165	0.0162088
720.244	0.0163123
720.322	0.0163265
720.400	0.0163227
720.478	0.0164255
720.556	0.0163332
720.634	0.0163501
720.712	0.0166013
720.790	0.0165276
720.869	0.0166008
720.947	0.0166083
721.025	0.0168084
721.103	0.0168461
721.181	0.0167635
721.259	0.0168762
721.337	0.0169037
721.415	0.0170392
721.494	0.0170773
721.572	0.0171183
721.650	0.0172224
721.728	0.0171613
721.806	0.0172812
721.884	0.0172366
721.962	0.0173780
722.040	0.0173707
722.119	0.0173185
722.197	0.0173393
722.275	0.0174155
722.353	0.0174223
722.431	0.0174665
722.509	0.0174962
722.587	0.0174496
722.665	0.0174005
722.744	0.0172208
722.822	0.0172420
722.900	0.0173459
722.978	0.0173551
723.056	0.0173395
723.134	0.0172766
723.212	0.0172803
723.290	0.0171221
723.369	0.0170551
723.447	0.0170429
723.525	0.0168678
723.603	0.0167561
723.681	0.0170181
723.759	0.0167525
723.837	0.0167427
723.915	0.0168928
723.994	0.0169242
724.072	0.0168919
724.150	0.0168538
724.228	0.0169121
724.306	0.0169317
724.384	0.0170570
724.462	0.0170409
724.540	0.0170642
724.619	0.0171766
724.697	0.0171075
724.775	0.0172522
724.853	0.0172102
724.931	0.0172920
725.009	0.0174150
725.087	0.0173226
725.165	0.0170056
725.244	0.0172980
725.322	0.0172768
725.400	0.0171235
725.478	0.0170518
725.556	0.0170557
725.634	0.0170611
725.712	0.0169996
725.790	0.0168770
725.869	0.0167810
725.947	0.0167702
726.025	0.0168928
726.103	0.0167609
726.181	0.0167149
726.259	0.0168103
726.337	0.0167657
726.415	0.0166291
726.494	0.0166897
726.572	0.0166929
726.650	0.0167272
726.728	0.0167400
726.806	0.0166755
726.884	0.0166581
726.962	0.0165027
727.040	0.0166247
727.119	0.0166953
727.197	0.0167662
727.275	0.0166445
727.353	0.0167211
727.431	0.0167472
727.509	0.0168083
727.587	0.0169444
727.665	0.0169154
727.744	0.0168958
727.822	0.0168587
727.900	0.0169762
727.978	0.0171508
728.056	0.0171729
728.134	0.0172289
728.212	0.0171678
728.290	0.0174345
728.369	0.0171915
728.447	0.0174134
728.525	0.0174114
728.603	0.0173693
728.681	0.0171998
728.759	0.0171468
728.837	0.0172829
728.915	0.0174183
728.994	0.0173167
729.072	0.0172589
729.150	0.0171352
729.228	0.0172673
729.306	0.0170332
729.384	0.0170820
729.462	0.0172250
729.540	0.0170433
729.619	0.0171548
729.697	0.0171777
729.775	0.0170837
729.853	0.0170387
729.931	0.0170675
730.009	0.0170898
730.087	0.0170177
730.165	0.0170430
730.244	0.0168499
730.322	0.0168198
730.400	0.0169846
730.478	0.0169445
730.556	0.0169045
730.634	0.0168415
730.712	0.0168420
730.790	0.0168402
730.869	0.0168824
730.947	0.0168694
731.025	0.0170154
731.103	0.0169406
731.181	0.0170484
731.259	0.0170074
731.337	0.0169914
731.415	0.0172775
731.494	0.0171252
731.572	0.0172887
731.650	0.0172413
731.728	0.0172781
731.806	0.0172149
731.884	0.0172803
731.962	0.0171483
732.040	0.0170900
732.119	0.0171201
732.197	0.0172858
732.275	0.0170798
732.353	0.0169723
732.431	0.0169798
732.509	0.0170024
732.587	0.0170438
732.665	0.0170230
732.744	0.0169656
732.822	0.0169127
732.900	0.0168345
732.978	0.0169843
733.056	0.0169176
733.134	0.0169543
733.212	0.0170416
733.290	0.0168731
733.369	0.0168231
733.447	0.0169794
733.525	0.0169203
733.603	0.0168571
733.681	0.0169769
733.759	0.0170592
733.837	0.0170926
733.915	0.0170899
733.994	0.0169012
734.072	0.0170181
734.150	0.0171049
734.228	0.0170530
734.306	0.0170819
734.384	0.0170122
734.462	0.0171226
734.540	0.0172669
734.619	0.0171513
734.697	0.0170168
734.775	0.0171758
734.853	0.0172122
734.931	0.0171625
735.009	0.0170769
735.087	0.0171222
735.165	0.0171442
735.244	0.0170375
735.322	0.0171664
735.400	0.0170912
735.478	0.0170546
735.556	0.0172388
735.634	0.0170091
735.712	0.0169796
735.790	0.0170990
735.869	0.0170381
735.947	0.0171759
736.025	0.0171960
736.103	0.0170831
736.181	0.0167957
736.259	0.0169341
736.337	0.0170734
736.415	0.0170840
736.494	0.0169444
736.572	0.0168181
736.650	0.0168234
736.728	0.0168621
736.806	0.0168059
736.884	0.0167998
736.962	0.0168980
737.040	0.0169628
737.119	0.0169280
737.197	0.0168186
737.275	0.0167858
737.353	0.0168847
737.431	0.0169199
737.509	0.0170348
737.587	0.0170007
737.665	0.0170256
737.744	0.0171617
737.822	0.0170970
737.900	0.0171262
737.978	0.0171526
738.056	0.0171449
738.134	0.0171210
738.212	0.0171796
738.290	0.0171321
738.369	0.0172382
738.447	0.0173385
738.525	0.0171864
738.603	0.0173372
738.681	0.0173115
738.759	0.0173945
738.837	0.0172882
738.915	0.0172752
738.994	0.0172079
739.072	0.0171394
739.150	0.0172155
739.228	0.0172697
739.306	0.0172128
739.384	0.0170853
739.462	0.0170943
739.540	0.0170735
739.619	0.0170139
739.697	0.0171509
739.775	0.0169873
739.853	0.0170255
739.931	0.0170164
740.009	0.0167632
740.087	0.0169122
740.165	0.0168256
740.244	0.0168253
740.322	0.0169246
740.400	0.0170275
740.478	0.0169249
740.556	0.0170032
740.634	0.0169917
740.712	0.0169686
740.790	0.0170908
740.869	0.0170319
740.947	0.0170537
741.025	0.0171381
741.103	0.0170605
741.181	0.0170058
741.259	0.0169395
741.337	0.0170380
741.415	0.0170472
741.494	0.0170571
741.572	0.0170451
741.650	0.0169396
741.728	0.0169469
741.806	0.0169987
741.884	0.0168237
741.962	0.0169359
742.040	0.0168623
742.119	0.0169781
742.197	0.0168420
742.275	0.0169760
742.353	0.0169571
742.431	0.0169355
742.509	0.0167326
742.587	0.0168878
742.665	0.0168861
742.744	0.0168742
742.822	0.0167846
742.900	0.0168397
742.978	0.0169213
743.056	0.0169372
743.134	0.0169448
743.212	0.0169898
743.290	0.0169392
743.369	0.0169756
743.447	0.0169532
743.525	0.0167836
743.603	0.0168084
743.681	0.0169300
743.759	0.0169796
743.837	0.0168548
743.915	0.0169968
743.994	0.0168572
744.072	0.0168560
744.150	0.0168452
744.228	0.0167996
744.306	0.0167470
744.384	0.0168073
744.462	0.0168643
744.540	0.0169551
744.619	0.0169013
744.697	0.0170235
744.775	0.0171710
744.853	0.0171664
744.931	0.0170089
745.009	0.0172044
745.087	0.0170914
745.165	0.0172853
745.244	0.0173367
745.322	0.0172814
745.400	0.0172734
745.478	0.0172144
745.556	0.0172550
745.634	0.0174525
745.712	0.0173367
745.790	0.0171007
745.869	0.0171449
745.947	0.0171076
746.025	0.0170547
746.103	0.0169595
746.181	0.0171439
746.259	0.0168252
746.337	0.0169097
746.415	0.0171317
746.494	0.0169511
746.572	0.0170745
746.650	0.0168859
746.728	0.0171353
746.806	0.0171646
746.884	0.0171461
746.962	0.0170934
747.040	0.0169934
747.119	0.0171181
747.197	0.0172621
747.275	0.0170979
747.353	0.0171125
747.431	0.0170727
747.509	0.0170969
747.587	0.0170998
747.665	0.0170915
747.744	0.0169806
747.822	0.0171581
747.900	0.0170796
747.978	0.0169956
748.056	0.0171254
748.134	0.0170335
748.212	0.0170733
748.290	0.0170251
748.369	0.0169907
748.447	0.0169407
748.525	0.0169424
748.603	0.0169145
748.681	0.0168664
748.759	0.0169343
748.837	0.0169168
748.915	0.0168967
748.994	0.0168709
749.072	0.0168018
749.150	0.0167641
749.228	0.0168310
749.306	0.0167916
749.384	0.0169556
749.462	0.0168771
749.540	0.0169778
749.619	0.0168784
749.697	0.0168130
749.775	0.0168306
749.853	0.0169528
749.931	0.0169679
750.009	0.0169237
750.087	0.0168343
750.165	0.0169183
750.244	0.0169966
750.322	0.0169817
750.400	0.0169978
750.478	0.0170853
750.556	0.0170542
750.634	0.0168936
750.712	0.0170210
750.790	0.0171891
750.869	0.0168439
750.947	0.0168671
751.025	0.0169799
751.103	0.0168875
751.181	0.0169228
751.259	0.0171522
751.337	0.0169736
751.415	0.0170156
751.494	0.0169879
751.572	0.0170680
751.650	0.0171162
751.728	0.0171966
751.806	0.0171119
751.884	0.0172252
751.962	0.0171246
752.040	0.0170555
752.119	0.0171471
752.197	0.0170200
752.275	0.0172131
752.353	0.0170715
752.431	0.0170436
752.509	0.0172516
752.587	0.0171130
752.665	0.0172197
752.744	0.0169817
752.822	0.0170934
752.900	0.0170438
752.978	0.0170657
753.056	0.0171307
753.134	0.0170148
753.212	0.0170405
753.290	0.0170488
753.369	0.0170573
753.447	0.0169949
753.525	0.0169503
753.603	0.0169283
753.681	0.0170130
753.759	0.0168893
753.837	0.0169851
753.915	0.0170205
753.994	0.0169284
754.072	0.0169311
754.150	0.0169581
754.228	0.0169626
754.306	0.0170486
754.384	0.0170335
754.462	0.0170863
754.540	0.0170875
754.619	0.0169420
754.697	0.0172238
754.775	0.0171044
754.853	0.0171233
754.931	0.0172226
755.009	0.0171995
755.087	0.0171469
755.165	0.0171738
755.244	0.0171742
755.322	0.0171537
755.400	0.0169753
755.478	0.0169002
755.556	0.0170048
755.634	0.0169347
755.712	0.0169244
755.790	0.0168060
755.869	0.0169221
755.947	0.0167416
756.025	0.0167863
756.103	0.0168294
756.181	0.0168817
756.259	0.0168292
756.337	0.0168204
756.415	0.0168872
756.494	0.0169904
756.572	0.0168264
756.650	0.0170404
756.728	0.0170053
756.806	0.0170704
756.884	0.0171484
756.962	0.0170417
757.040	0.0171585
757.119	0.0172575
757.197	0.0170227
757.275	0.0171886
757.353	0.0170301
757.431	0.0170799
757.509	0.0170949
757.587	0.0168563
757.665	0.0169981
757.744	0.0171530
757.822	0.0170294
757.900	0.0170906
757.978	0.0171435
758.056	0.0170115
758.134	0.0171666
758.212	0.0169543
758.290	0.0170342
758.369	0.0169930
758.447	0.0170951
758.525	0.0170852
758.603	0.0171960
758.681	0.0170939
758.759	0.0171116
758.837	0.0170899
758.915	0.0171027
758.994	0.0170585
759.072	0.0171278
759.150	0.0171775
759.228	0.0172389
759.306	0.0170891
759.384	0.0171803
759.462	0.0171062
759.540	0.0172752
759.619	0.0172465
759.697	0.0171323
759.775	0.0170911
759.853	0.0171360
759.931	0.0170611
760.009	0.0171086
760.087	0.0170182
760.165	0.0170361
760.244	0.0172005
760.322	0.0172284
760.400	0.0171029
760.478	0.0171789
760.556	0.0171858
760.634	0.0170252
760.712	0.0170705
760.790	0.0170744
760.869	0.0170332
760.947	0.0170973
761.025	0.0170895
761.103	0.0170918
761.181	0.0169556
761.259	0.0171033
761.337	0.0172267
761.415	0.0169302
761.494	0.0170250
761.572	0.0170392
761.650	0.0170140
761.728	0.0171906
761.806	0.0170988
761.884	0.0171458
761.962	0.0172736
762.040	0.0171817
762.119	0.0171217
762.197	0.0172605
762.275	0.0172194
762.353	0.0171384
762.431	0.0170007
762.509	0.0171025
762.587	0.0171790
762.665	0.0171351
762.744	0.0170367
762.822	0.0170641
762.900	0.0170447
762.978	0.0170051
763.056	0.0169853
763.134	0.0171508
763.212	0.0168865
763.290	0.0169220
763.369	0.0168853
763.447	0.0170364
763.525	0.0171069
763.603	0.0170317
763.681	0.0169054
763.759	0.0170396
763.837	0.0170018
763.915	0.0170760
763.994	0.0170577
764.072	0.0170521
764.150	0.0171014
764.228	0.0170336
764.306	0.0171181
764.384	0.0171658
764.462	0.0171645
764.540	0.0172132
764.619	0.0171470
764.697	0.0170840
764.775	0.0170762
764.853	0.0170493
764.931	0.0169814
765.009	0.0168914
765.087	0.0169455
765.165	0.0169988
765.244	0.0170089
765.322	0.0169944
765.400	0.0170122
765.478	0.0169282
765.556	0.0169490
765.634	0.0171260
765.712	0.0169779
765.790	0.0168971
765.869	0.0170150
765.947	0.0171790
766.025	0.0170889
766.103	0.0171047
766.181	0.0170177
766.259	0.0171805
766.337	0.0171629
766.415	0.0170293
766.494	0.0171626
766.572	0.0171020
766.650	0.0170849
766.728	0.0171236
766.806	0.0171031
766.884	0.0171710
766.962	0.0171055
767.040	0.0170839
767.119	0.0169580
767.197	0.0168383
767.275	0.0170399
767.353	0.0170761
767.431	0.0169902
767.509	0.0169662
767.587	0.0169008
767.665	0.0169488
767.744	0.0169604
767.822	0.0171048
767.900	0.0169201
767.978	0.0170650
768.056	0.0171183
768.134	0.0170644
768.212	0.0170113
768.290	0.0171497
768.369	0.0170763
768.447	0.0170916
768.525	0.0171690
768.603	0.0172348
768.681	0.0169960
768.759	0.0171499
768.837	0.0170992
768.915	0.0172095
768.994	0.0171432
769.072	0.0171571
769.150	0.0170822
769.228	0.0171233
769.306	0.0170778
769.384	0.0171930
769.462	0.0171629
769.540	0.0171709
769.619	0.0170545
769.697	0.0170219
769.775	0.0169444
769.853	0.0170067
769.931	0.0170953
770.009	0.0169529
770.087	0.0168941
770.165	0.0170242
770.244	0.0169209
770.322	0.0169642
770.400	0.0169469
770.478	0.0169769
770.556	0.0169802
770.634	0.0169243
770.712	0.0168488
770.790	0.0169054
770.869	0.0168558
770.947	0.0169501
771.025	0.0169836
771.103	0.0170813
771.181	0.0170558
771.259	0.0169032
771.337	0.0170732
771.415	0.0170959
771.494	0.0172054
771.572	0.0171483
771.650	0.0170609
771.728	0.0171310
771.806	0.0171343
771.884	0.0171169
771.962	0.0170760
772.040	0.0171720
772.119	0.0171133
772.197	0.0171213
772.275	0.0169574
772.353	0.0169495
772.431	0.0168824
772.509	0.0169324
772.587	0.0169618
772.665	0.0170857
772.744	0.0169006
772.822	0.0170618
772.900	0.0170731
772.978	0.0169543
773.056	0.0169431
773.134	0.0168597
773.212	0.0171045
773.290	0.0169844
773.369	0.0169241
773.447	0.0168816
773.525	0.0169506
773.603	0.0168839
773.681	0.0168501
773.759	0.0169453
773.837	0.0169499
773.915	0.0169848
773.994	0.0169533
774.072	0.0170441
774.150	0.0171296
774.228	0.0170979
774.306	0.0168468
774.384	0.0169094
774.462	0.0169590
774.540	0.0169164
774.619	0.0169507
774.697	0.0169069
774.775	0.0169466
774.853	0.0169711
774.931	0.0170213
775.009	0.0168746
775.087	0.0170630
775.165	0.0170326
775.244	0.0170055
775.322	0.0169202
775.400	0.0170473
775.478	0.0170398
775.556	0.0170576
775.634	0.0170206
775.712	0.0170082
775.790	0.0171784
775.869	0.0170093
775.947	0.0171136
776.025	0.0170854
776.103	0.0170708
776.181	0.0171709
776.259	0.0171255
776.337	0.0170296
776.415	0.0171507
776.494	0.0169523
776.572	0.0172358
776.650	0.0171428
776.728	0.0169935
776.806	0.0171087
776.884	0.0170779
776.962	0.0169509
777.040	0.0170085
777.119	0.0170541
777.197	0.0170718
777.275	0.0170940
777.353	0.0171171
777.431	0.0170895
777.509	0.0170501
777.587	0.0171120
777.665	0.0171313
777.744	0.0172160
777.822	0.0171754
777.900	0.0170731
777.978	0.0171238
778.056	0.0170979
778.134	0.0169812
778.212	0.0170033
778.290	0.0170860
778.369	0.0170611
778.447	0.0170744
778.525	0.0169829
778.603	0.0170248
778.681	0.0170609
778.759	0.0171529
778.837	0.0172387
778.915	0.0170530
778.994	0.0170733
779.072	0.0169927
779.150	0.0170329
779.228	0.0171341
779.306	0.0170724
779.384	0.0170022
779.462	0.0171384
779.540	0.0171051
779.619	0.0170779
779.697	0.0168921
779.775	0.0170259
779.853	0.0169792
779.931	0.0169746
780.009	0.0170448
780.087	0.0170525
780.165	0.0169841
780.244	0.0169606
780.322	0.0169677
780.400	0.0170200
780.478	0.0170571
780.556	0.0170821
780.634	0.0170702
780.712	0.0170895
780.790	0.0172087
780.869	0.0171669
780.947	0.0170850
781.025	0.0171166
781.103	0.0171233
781.181	0.0171774
781.259	0.0169906
781.337	0.0170215
781.415	0.0171809
781.494	0.0171578
781.572	0.0170618
781.650	0.0171680
781.728	0.0170586
781.806	0.0170992
781.884	0.0169439
781.962	0.0171043
782.040	0.0171018
782.119	0.0169449
782.197	0.0171012
782.275	0.0169663
782.353	0.0170478
782.431	0.0168357
782.509	0.0170477
782.587	0.0170441
782.665	0.0170378
782.744	0.0170199
782.822	0.0170628
782.900	0.0171017
782.978	0.0170673
783.056	0.0170949
783.134	0.0171566
783.212	0.0170211
783.290	0.0167726
783.369	0.0170148
783.447	0.0170608
783.525	0.0170610
783.603	0.0171776
783.681	0.0171357
783.759	0.0170789
783.837	0.0170650
783.915	0.0171100
783.994	0.0170204
784.072	0.0170307
784.150	0.0169621
784.228	0.0170504
784.306	0.0171172
784.384	0.0171611
784.462	0.0171967
784.540	0.0170901
784.619	0.0170543
784.697	0.0170692
784.775	0.0171223
784.853	0.0171283
784.931	0.0171616
785.009	0.0171828
785.087	0.0170712
785.165	0.0171374
785.244	0.0171828
785.322	0.0172141
785.400	0.0171582
785.478	0.0171507
785.556	0.0173770
785.634	0.0173106
785.712	0.0171521
785.790	0.0170486
785.869	0.0171021
785.947	0.0172201
786.025	0.0173022
786.103	0.0173277
786.181	0.0171777
786.259	0.0171487
786.337	0.0172079
786.415	0.0171984
786.494	0.0170365
786.572	0.0171762
786.650	0.0171555
786.728	0.0169321
786.806	0.0170096
786.884	0.0170615
786.962	0.0169527
787.040	0.0169630
787.119	0.0169445
787.197	0.0170359
787.275	0.0169666
787.353	0.0168938
787.431	0.0170575
787.509	0.0171664
787.587	0.0171132
787.665	0.0168987
787.744	0.0170195
787.822	0.0170329
787.900	0.0171255
787.978	0.0169656
788.056	0.0169933
788.134	0.0171671
788.212	0.0171259
788.290	0.0170157
788.369	0.0171590
788.447	0.0169845
788.525	0.0169721
788.603	0.0170304
788.681	0.0169444
788.759	0.0171099
788.837	0.0171130
788.915	0.0169813
788.994	0.0171531
789.072	0.0172604
789.150	0.0170734
789.228	0.0171035
789.306	0.0171382
789.384	0.0171212
789.462	0.0171145
789.540	0.0170831
789.619	0.0173116
789.697	0.0171223
789.775	0.0172079
789.853	0.0171204
789.931	0.0171268
790.009	0.0171185
790.087	0.0171674
790.165	0.0171872
790.244	0.0172046
790.322	0.0173487
790.400	0.0172059
790.478	0.0170621
790.556	0.0171251
790.634	0.0171069
790.712	0.0171677
790.790	0.0171632
790.869	0.0172946
790.947	0.0172670
791.025	0.0171026
791.103	0.0170856
791.181	0.0170887
791.259	0.0170158
791.337	0.0170529
791.415	0.0169048
791.494	0.0170136
791.572	0.0169790
791.650	0.0170957
791.728	0.0170671
791.806	0.0170529
791.884	0.0170107
791.962	0.0169631
792.040	0.0170369
792.119	0.0171006
792.197	0.0170944
792.275	0.0170096
792.353	0.0169015
792.431	0.0170706
792.509	0.0170161
792.587	0.0169193
792.665	0.0169933
792.744	0.0170147
792.822	0.0169845
792.900	0.0170168
792.978	0.0170078
793.056	0.0170488
793.134	0.0169720
793.212	0.0170844
793.290	0.0170136
793.369	0.0169795
793.447	0.0169449
793.525	0.0170711
793.603	0.0169944
793.681	0.0168934
793.759	0.0171281
793.837	0.0170271
793.915	0.0171996
793.994	0.0171072
794.072	0.0170392
794.150	0.0171815
794.228	0.0171085
794.306	0.0171402
794.384	0.0171503
794.462	0.0171233
794.540	0.0171198
794.619	0.0171490
794.697	0.0171050
794.775	0.0170920
794.853	0.0170757
794.931	0.0170768
795.009	0.0171225
795.087	0.0169966
795.165	0.0171949
795.244	0.0172508
795.322	0.0170780
795.400	0.0171614
795.478	0.0172028
795.556	0.0171255
795.634	0.0170448
795.712	0.0172805
795.790	0.0171394
795.869	0.0170607
795.947	0.0171339
796.025	0.0171645
796.103	0.0170280
796.181	0.0169733
796.259	0.0170187
796.337	0.0170369
796.415	0.0168790
796.494	0.0169625
796.572	0.0170338
796.650	0.0169216
796.728	0.0169946
796.806	0.0169895
796.884	0.0169391
796.962	0.0169374
797.040	0.0169141
797.119	0.0170477
797.197	0.0168593
797.275	0.0168037
797.353	0.0170611
797.431	0.0170206
797.509	0.0170151
797.587	0.0168899
797.665	0.0168800
797.744	0.0168644
797.822	0.0169441
797.900	0.0169868
797.978	0.0170689
798.056	0.0168881
798.134	0.0169064
798.212	0.0168827
798.290	0.0169774
798.369	0.0169408
798.447	0.0168819
798.525	0.0168340
798.603	0.0169906
798.681	0.0171127
798.759	0.0169180
798.837	0.0169866
798.915	0.0168932
798.994	0.0169392
799.072	0.0169533
799.150	0.0169778
799.228	0.0171632
799.306	0.0170058
799.384	0.0169306
799.462	0.0169038
799.540	0.0170457
799.619	0.0169839
799.697	0.0169318
799.775	0.0169880
799.853	0.0169939
799.931	0.0169558
800.009	0.0170320
800.087	0.0170175
800.165	0.0169758
800.244	0.0169608
800.322	0.0169936
800.400	0.0170382
800.478	0.0170126
800.556	0.0172140
800.634	0.0170354
800.712	0.0171068
800.790	0.0170618
800.869	0.0171594
800.947	0.0171501
801.025	0.0169790
801.103	0.0169836
801.181	0.0170919
801.259	0.0171378
801.337	0.0171056
801.415	0.0171175
801.494	0.0172214
801.572	0.0172006
801.650	0.0170189
801.728	0.0171510
801.806	0.0170227
801.884	0.0170717
801.962	0.0170710
802.040	0.0170067
802.119	0.0168669
802.197	0.0170513
802.275	0.0170708
802.353	0.0169985
802.431	0.0169495
802.509	0.0169727
802.587	0.0170927
802.665	0.0169471
802.744	0.0169238
802.822	0.0169846
802.900	0.0170263
802.978	0.0168964
803.056	0.0170124
803.134	0.0168739
803.212	0.0168649
803.290	0.0169701
803.369	0.0169602
803.447	0.0168710
803.525	0.0168626
803.603	0.0169370
803.681	0.0168917
803.759	0.0167924
803.837	0.0168762
803.915	0.0170107
803.994	0.0167572
804.072	0.0168138
804.150	0.0168314
804.228	0.0168569
804.306	0.0169837
804.384	0.0168786
804.462	0.0168566
804.540	0.0169688
804.619	0.0168404
804.697	0.0168614
804.775	0.0170709
804.853	0.0170337
804.931	0.0169534
805.009	0.0169403
805.087	0.0169340
805.165	0.0170909
805.244	0.0170318
805.322	0.0170589
805.400	0.0170882
805.478	0.0170060
805.556	0.0170956
805.634	0.0169992
805.712	0.0170868
805.790	0.0170824
805.869	0.0170599
805.947	0.0170992
806.025	0.0170622
806.103	0.0171048
806.181	0.0170779
806.259	0.0170180
806.337	0.0170715
806.415	0.0170507
806.494	0.0170540
806.572	0.0171081
806.650	0.0170467
806.728	0.0170216
806.806	0.0170090
806.884	0.0170419
806.962	0.0170581
807.040	0.0170436
807.119	0.0170881
807.197	0.0170903
807.275	0.0170588
807.353	0.0170609
807.431	0.0170094
807.509	0.0170566
807.587	0.0171040
807.665	0.0170023
807.744	0.0171895
807.822	0.0171405
807.900	0.0171379
807.978	0.0170525
808.056	0.0170302
808.134	0.0170840
808.212	0.0170995
808.290	0.0171103
808.369	0.0171520
808.447	0.0171606
808.525	0.0170680
808.603	0.0172744
808.681	0.0171293
808.759	0.0170754
808.837	0.0172552
808.915	0.0171484
808.994	0.0171440
809.072	0.0171284
809.150	0.0171801
809.228	0.0171113
809.306	0.0171434
809.384	0.0171109
809.462	0.0171972
809.540	0.0169723
809.619	0.0170083
809.697	0.0170279
809.775	0.0170387
809.853	0.0170120
809.931	0.0170367
810.009	0.0170251
810.087	0.0169154
810.165	0.0169688
810.244	0.0169968
810.322	0.0171515
810.400	0.0169888
810.478	0.0169617
810.556	0.0169061
810.634	0.0171753
810.712	0.0171805
810.790	0.0170001
810.869	0.0171082
810.947	0.0170193
811.025	0.0170248
811.103	0.0170816
811.181	0.0170106
811.259	0.0169286
811.337	0.0170299
811.415	0.0170810
811.494	0.0170535
811.572	0.0169910
811.650	0.0171025
811.728	0.0171615
811.806	0.0170197
811.884	0.0169113
811.962	0.0170834
812.040	0.0171609
812.119	0.0172150
812.197	0.0170753
812.275	0.0170319
812.353	0.0170566
812.431	0.0169755
812.509	0.0170090
812.587	0.0169811
812.665	0.0169898
812.744	0.0170580
812.822	0.0169714
812.900	0.0170000
812.978	0.0170185
813.056	0.0169306
813.134	0.0171579
813.212	0.0170322
813.290	0.0170315
813.369	0.0168764
813.447	0.0170383
813.525	0.0169563
813.603	0.0170625
813.681	0.0169357
813.759	0.0169232
813.837	0.0170610
813.915	0.0169382
813.994	0.0169991
814.072	0.0170643
814.150	0.0171679
814.228	0.0170484
814.306	0.0170094
814.384	0.0171689
814.462	0.0171343
814.540	0.0170567
814.619	0.0171114
814.697	0.0170564
814.775	0.0171796
814.853	0.0170424
814.931	0.0171454
815.009	0.0172047
815.087	0.0169671
815.165	0.0170400
815.244	0.0171352
815.322	0.0170450
815.400	0.0170232
815.478	0.0170081
815.556	0.0170657
815.634	0.0169833
815.712	0.0169601
815.790	0.0169376
815.869	0.0168580
815.947	0.0168774
816.025	0.0168925
816.103	0.0169442
816.181	0.0168561
816.259	0.0167307
816.337	0.0170340
816.415	0.0169038
816.494	0.0169172
816.572	0.0169158
816.650	0.0168484
816.728	0.0167661
816.806	0.0170162
816.884	0.0169121
816.962	0.0170154
817.040	0.0168006
817.119	0.0168766
817.197	0.0168124
817.275	0.0169657
817.353	0.0169067
817.431	0.0168101
817.509	0.0169588
817.587	0.0169528
817.665	0.0168379
817.744	0.0169318
817.822	0.0170367
817.900	0.0170615
817.978	0.0170779
818.056	0.0171853
818.134	0.0170589
818.212	0.0170144
818.290	0.0170176
818.369	0.0172358
818.447	0.0171562
818.525	0.0172431
818.603	0.0171881
818.681	0.0171362
818.759	0.0170649
818.837	0.0171084
818.915	0.0171816
818.994	0.0170399
819.072	0.0171637
819.150	0.0171674
819.228	0.0171182
819.306	0.0171017
819.384	0.0170200
819.462	0.0171558
819.540	0.0171891
819.619	0.0171653
819.697	0.0170145
819.775	0.0170006
819.853	0.0172164
819.931	0.0170663
820.009	0.0170676
820.087	0.0170600
820.165	0.0169920
820.244	0.0169422
820.322	0.0169650
820.400	0.0169855
820.478	0.0170485
820.556	0.0170493
820.634	0.0170395
820.712	0.0170305
820.790	0.0170261
820.869	0.0171319
820.947	0.0171134
821.025	0.0168549
821.103	0.0170527
821.181	0.0170123
821.259	0.0169503
821.337	0.0170774
821.415	0.0170418
821.494	0.0170609
821.572	0.0169261
821.650	0.0169310
821.728	0.0168983
821.806	0.0169474
821.884	0.0168514
821.962	0.0168551
822.040	0.0169917
822.119	0.0168582
822.197	0.0166655
822.275	0.0168751
822.353	0.0169071
822.431	0.0168459
822.509	0.0168417
822.587	0.0168496
822.665	0.0169537
822.744	0.0169089
822.822	0.0169315
822.900	0.0168631
822.978	0.0169235
823.056	0.0168584
823.134	0.0170419
823.212	0.0169305
823.290	0.0168214
823.369	0.0168869
823.447	0.0168805
823.525	0.0169907
823.603	0.0168700
823.681	0.0170422
823.759	0.0168961
823.837	0.0168497
823.915	0.0169438
823.994	0.0169687
824.072	0.0169704
824.150	0.0170348
824.228	0.0169062
824.306	0.0168417
824.384	0.0170206
824.462	0.0169242
824.540	0.0171214
824.619	0.0169304
824.697	0.0170798
824.775	0.0171152
824.853	0.0170001
824.931	0.0171555
825.009	0.0171658
825.087	0.0169562
825.165	0.0170408
825.244	0.0170949
825.322	0.0171036
825.400	0.0170852
825.478	0.0170654
825.556	0.0171399
825.634	0.0171583
825.712	0.0171043
825.790	0.0169968
825.869	0.0171317
825.947	0.0171071
826.025	0.0169769
826.103	0.0171215
826.181	0.0171075
826.259	0.0170023
826.337	0.0171079
826.415	0.0172024
826.494	0.0170739
826.572	0.0170512
826.650	0.0170779
826.728	0.0171832
826.806	0.0171086
826.884	0.0169703
826.962	0.0170700
827.040	0.0170135
827.119	0.0170805
827.197	0.0169390
827.275	0.0170700
827.353	0.0171535
827.431	0.0169743
827.509	0.0170173
827.587	0.0170385
827.665	0.0169242
827.744	0.0170979
827.822	0.0170476
827.900	0.0170502
827.978	0.0170563
828.056	0.0167671
828.134	0.0169633
828.212	0.0169554
828.290	0.0170599
828.369	0.0170679
828.447	0.0168710
828.525	0.0170060
828.603	0.0169463
828.681	0.0168866
828.759	0.0170771
828.837	0.0169260
828.915	0.0168797
828.994	0.0169265
829.072	0.0169655
829.150	0.0169621
829.228	0.0170645
829.306	0.0170626
829.384	0.0169782
829.462	0.0170014
829.540	0.0169129
829.619	0.0171172
829.697	0.0170992
829.775	0.0171625
829.853	0.0169714
829.931	0.0169424
830.009	0.0170858
830.087	0.0169672
830.165	0.0169718
830.244	0.0170077
830.322	0.0170836
830.400	0.0170615
830.478	0.0171013
830.556	0.0171064
830.634	0.0172367
830.712	0.0172137
830.790	0.0171103
830.869	0.0170399
830.947	0.0170461
831.025	0.0170454
831.103	0.0171540
831.181	0.0170682
831.259	0.0170963
831.337	0.0171858
831.415	0.0172669
831.494	0.0170993
831.572	0.0171377
831.650	0.0171114
831.728	0.0169546
831.806	0.0170907
831.884	0.0172966
831.962	0.0171503
832.040	0.0170858
832.119	0.0169326
832.197	0.0170963
832.275	0.0171242
832.353	0.0171621
832.431	0.0171217
832.509	0.0170589
832.587	0.0171770
832.665	0.0171488
832.744	0.0171526
832.822	0.0171708
832.900	0.0170821
832.978	0.0171873
833.056	0.0170687
833.134	0.0169770
833.212	0.0168734
833.290	0.0169813
833.369	0.0170404
833.447	0.0169658
833.525	0.0169644
833.603	0.0170895
833.681	0.0169250
833.759	0.0170322
833.837	0.0170550
833.915	0.0170147
833.994	0.0170467
834.072	0.0170102
834.150	0.0170924
834.228	0.0171093
834.306	0.0171495
834.384	0.0169794
834.462	0.0171243
834.540	0.0173206
834.619	0.0171214
834.697	0.0171149
834.775	0.0171568
834.853	0.0171741
834.931	0.0170950
835.009	0.0170612
835.087	0.0172269
835.165	0.0171762
835.244	0.0172191
835.322	0.0171419
835.400	0.0169995
835.478	0.0170615
835.556	0.0171465
835.634	0.0172029
835.712	0.0171201
835.790	0.0169599
835.869	0.0170041
835.947	0.0171484
836.025	0.0171502
836.103	0.0168537
836.181	0.0170748
836.259	0.0170425
836.337	0.0169964
836.415	0.0169029
836.494	0.0169470
836.572	0.0169382
836.650	0.0168714
836.728	0.0169685
836.806	0.0171400
836.884	0.0170683
836.962	0.0170062
837.040	0.0171391
837.119	0.0169907
837.197	0.0171548
837.275	0.0171601
837.353	0.0170705
837.431	0.0171682
837.509	0.0170818
837.587	0.0172373
837.665	0.0171095
837.744	0.0171035
837.822	0.0170346
837.900	0.0170969
837.978	0.0169633
838.056	0.0171185
838.134	0.0169962
838.212	0.0169223
838.290	0.0168597
838.369	0.0170482
838.447	0.0170178
838.525	0.0168797
838.603	0.0169933
838.681	0.0170148
838.759	0.0169465
838.837	0.0170416
838.915	0.0170352
838.994	0.0169907
839.072	0.0169865
839.150	0.0170404
839.228	0.0170908
839.306	0.0169500
839.384	0.0170467
839.462	0.0170615
839.540	0.0170276
839.619	0.0170409
839.697	0.0170590
839.775	0.0169464
839.853	0.0170219
839.931	0.0170190
840.009	0.0170194
840.087	0.0170656
840.165	0.0170114
840.244	0.0169704
840.322	0.0169532
840.400	0.0171051
840.478	0.0171552
840.556	0.0170363
840.634	0.0171032
840.712	0.0169549
840.790	0.0170116
840.869	0.0171471
840.947	0.0171443
841.025	0.0170823
841.103	0.0169546
841.181	0.0170998
841.259	0.0171340
841.337	0.0170454
841.415	0.0171263
841.494	0.0172588
841.572	0.0171274
841.650	0.0170233
841.728	0.0171278
841.806	0.0169991
841.884	0.0172359
841.962	0.0173103
842.040	0.0170793
842.119	0.0170641
842.197	0.0170942
842.275	0.0170180
842.353	0.0171648
842.431	0.0169424
842.509	0.0170554
842.587	0.0170601
842.665	0.0170014
842.744	0.0171573
842.822	0.0170041
842.900	0.0169022
842.978	0.0170222
843.056	0.0170526
843.134	0.0170097
843.212	0.0170342
843.290	0.0170623
843.369	0.0169718
843.447	0.0169741
843.525	0.0170789
843.603	0.0169238
843.681	0.0171439
843.759	0.0171238
843.837	0.0169804
843.915	0.0169564
843.994	0.0170014
844.072	0.0170077
844.150	0.0172026
844.228	0.0170739
844.306	0.0169919
844.384	0.0170180
844.462	0.0170168
844.540	0.0170184
844.619	0.0170300
844.697	0.0171138
844.775	0.0171345
844.853	0.0171497
844.931	0.0171097
845.009	0.0170550
845.087	0.0170616
845.165	0.0170376
845.244	0.0171445
845.322	0.0170615
845.400	0.0171214
845.478	0.0171409
845.556	0.0170818
845.634	0.0170850
845.712	0.0171741
845.790	0.0169893
845.869	0.0170412
845.947	0.0171133
846.025	0.0171893
846.103	0.0170477
846.181	0.0170683
846.259	0.0170463
846.337	0.0171420
846.415	0.0171744
846.494	0.0170475
846.572	0.0171991
846.650	0.0171439
846.728	0.0171173
846.806	0.0170200
846.884	0.0171144
846.962	0.0171521
847.040	0.0171762
847.119	0.0170232
847.197	0.0170252
847.275	0.0169220
847.353	0.0169357
847.431	0.0170821
847.509	0.0170397
847.587	0.0171931
847.665	0.0171416
847.744	0.0170687
847.822	0.0170770
847.900	0.0170659
847.978	0.0171655
848.056	0.0171149
848.134	0.0171838
848.212	0.0171169
848.290	0.0170224
848.369	0.0171465
848.447	0.0170067
848.525	0.0171081
848.603	0.0171118
848.681	0.0169664
848.759	0.0169552
848.837	0.0170796
848.915	0.0170522
848.994	0.0170345
849.072	0.0171020
849.150	0.0169792
849.228	0.0168703
849.306	0.0168445
849.384	0.0168362
849.462	0.0168757
849.540	0.0170963
849.619	0.0168803
849.697	0.0169668
849.775	0.0169038
849.853	0.0169180
849.931	0.0168538
850.009	0.0170044
850.087	0.0168887
850.165	0.0169226
850.244	0.0169304
850.322	0.0169551
850.400	0.0169868
850.478	0.0170702
850.556	0.0169592
850.634	0.0169621
850.712	0.0172117
850.790	0.0171388
850.869	0.0171104
850.947	0.0170948
851.025	0.0170456
851.103	0.0172192
851.181	0.0172149
851.259	0.0171616
851.337	0.0171392
851.415	0.0171613
851.494	0.0172071
851.572	0.0172272
851.650	0.0171957
851.728	0.0171088
851.806	0.0170380
851.884	0.0171245
851.962	0.0170647
852.040	0.0170506
852.119	0.0171591
852.197	0.0171309
852.275	0.0170465
852.353	0.0171967
852.431	0.0171689
852.509	0.0170057
852.587	0.0170135
852.665	0.0170457
852.744	0.0170663
852.822	0.0170744
852.900	0.0171402
852.978	0.0171175
853.056	0.0170028
853.134	0.0170926
853.212	0.0170713
853.290	0.0171502
853.369	0.0170993
853.447	0.0169100
853.525	0.0170953
853.603	0.0171407
853.681	0.0170264
853.759	0.0170260
853.837	0.0170134
853.915	0.0170787
853.994	0.0170210
854.072	0.0171401
854.150	0.0169854
854.228	0.0169169
854.306	0.0169617
854.384	0.0170322
854.462	0.0170347
854.540	0.0170963
854.619	0.0170039
854.697	0.0170827
854.775	0.0170758
854.853	0.0168798
854.931	0.0170087
855.009	0.0171448
855.087	0.0169269
855.165	0.0171762
855.244	0.0171541
855.322	0.0170572
855.400	0.0171458
855.478	0.0170518
855.556	0.0170892
855.634	0.0170786
855.712	0.0169879
855.790	0.0169642
855.869	0.0169301
855.947	0.0170441
856.025	0.0168991
856.103	0.0170112
856.181	0.0169910
856.259	0.0170250
856.337	0.0169983
856.415	0.0169833
856.494	0.0170068
856.572	0.0170324
856.650	0.0170706
856.728	0.0171105
856.806	0.0170301
856.884	0.0171212
856.962	0.0171662
857.040	0.0170039
857.119	0.0169370
857.197	0.0168721
857.275	0.0170964
857.353	0.0170218
857.431	0.0171406
857.509	0.0169456
857.587	0.0170581
857.665	0.0170773
857.744	0.0169115
857.822	0.0170762
857.900	0.0170258
857.978	0.0171187
858.056	0.0170193
858.134	0.0169646
858.212	0.0169677
858.290	0.0171272
858.369	0.0172099
858.447	0.0170914
858.525	0.0170643
858.603	0.0171761
858.681	0.0171694
858.759	0.0170246
858.837	0.0170749
858.915	0.0169656
858.994	0.0170094
859.072	0.0170010
859.150	0.0170547
859.228	0.0170234
859.306	0.0170893
859.384	0.0169913
859.462	0.0170058
859.540	0.0169324
859.619	0.0170388
859.697	0.0170830
859.775	0.0168196
859.853	0.0169720
859.931	0.0169672
860.009	0.0172253
860.087	0.0171363
860.165	0.0170717
860.244	0.0169884
860.322	0.0169437
860.400	0.0171201
860.478	0.0171873
860.556	0.0171714
860.634	0.0170294
860.712	0.0170497
860.790	0.0170731
860.869	0.0172748
860.947	0.0170192
861.025	0.0169908
861.103	0.0170274
861.181	0.0169695
861.259	0.0169505
861.337	0.0171623
861.415	0.0171264
861.494	0.0170998
861.572	0.0171300
861.650	0.0171672
861.728	0.0171067
861.806	0.0172157
861.884	0.0171832
861.962	0.0172580
862.040	0.0169834
862.119	0.0170824
862.197	0.0171408
862.275	0.0171263
862.353	0.0170833
862.431	0.0169237
862.509	0.0171229
862.587	0.0171563
862.665	0.0169946
862.744	0.0169473
862.822	0.0170007
862.900	0.0170361
862.978	0.0171302
863.056	0.0169626
863.134	0.0169358
863.212	0.0170303
863.290	0.0168393
863.369	0.0167674
863.447	0.0168511
863.525	0.0168964
863.603	0.0169157
863.681	0.0169089
863.759	0.0168967
863.837	0.0169421
863.915	0.0169653
863.994	0.0170100
864.072	0.0170568
864.150	0.0170689
864.228	0.0169798
864.306	0.0170567
864.384	0.0170184
864.462	0.0169789
864.540	0.0170852
864.619	0.0170242
864.697	0.0170491
864.775	0.0170866
864.853	0.0170580
864.931	0.0170812
865.009	0.0170560
865.087	0.0172106
865.165	0.0171565
865.244	0.0170149
865.322	0.0171523
865.400	0.0170393
865.478	0.0170174
865.556	0.0170944
865.634	0.0172037
865.712	0.0171573
865.790	0.0171669
865.869	0.0171729
865.947	0.0170494
866.025	0.0169849
866.103	0.0171723
866.181	0.0170380
866.259	0.0171326
866.337	0.0169927
866.415	0.0169980
866.494	0.0171861
866.572	0.0171447
866.650	0.0169534
866.728	0.0172443
866.806	0.0171247
866.884	0.0171781
866.962	0.0171519
867.040	0.0170153
867.119	0.0170671
867.197	0.0170879
867.275	0.0172292
867.353	0.0171078
867.431	0.0170262
867.509	0.0170378
867.587	0.0171587
867.665	0.0170095
867.744	0.0170293
867.822	0.0169292
867.900	0.0170899
867.978	0.0171409
868.056	0.0171210
868.134	0.0171474
868.212	0.0170911
868.290	0.0171619
868.369	0.0170539
868.447	0.0172119
868.525	0.0171738
868.603	0.0172841
868.681	0.0172104
868.759	0.0171335
868.837	0.0171412
868.915	0.0171400
868.994	0.0171535
869.072	0.0170592
869.150	0.0170660
869.228	0.0171331
869.306	0.0169431
869.384	0.0170781
869.462	0.0171309
869.540	0.0170292
869.619	0.0169088
869.697	0.0168997
869.775	0.0169895
869.853	0.0169136
869.931	0.0168787
870.009	0.0168832
870.087	0.0169033
870.165	0.0168507
870.244	0.0168253
870.322	0.0168497
870.400	0.0169156
870.478	0.0168329
870.556	0.0169212
870.634	0.0169485
870.712	0.0169595
870.790	0.0169324
870.869	0.0170013
870.947	0.0169485
871.025	0.0168855
871.103	0.0170522
871.181	0.0169510
871.259	0.0170551
871.337	0.0170235
871.415	0.0169968
871.494	0.0170381
871.572	0.0170990
871.650	0.0170486
871.728	0.0170476
871.806	0.0170366
871.884	0.0170327
871.962	0.0171302
872.040	0.0170752
872.119	0.0170764
872.197	0.0170763
872.275	0.0171574
872.353	0.0170436
872.431	0.0171429
872.509	0.0171316
872.587	0.0171151
872.665	0.0170631
872.744	0.0169344
872.822	0.0170461
872.900	0.0171829
872.978	0.0170525
873.056	0.0170127
873.134	0.0170174
873.212	0.0169118
873.290	0.0170490
873.369	0.0169853
873.447	0.0170422
873.525	0.0169328
873.603	0.0169441
873.681	0.0169051
873.759	0.0170160
873.837	0.0170084
873.915	0.0170565
873.994	0.0170822
874.072	0.0170539
874.150	0.0170387
874.228	0.0169957
874.306	0.0170000
874.384	0.0170641
874.462	0.0168967
874.540	0.0169566
874.619	0.0170450
874.697	0.0170531
874.775	0.0169899
874.853	0.0169684
874.931	0.0168196
875.009	0.0169626
875.087	0.0169566
875.165	0.0169577
875.244	0.0171067
875.322	0.0169579
875.400	0.0170234
875.478	0.0170940
875.556	0.0169302
875.634	0.0170361
875.712	0.0169761
875.790	0.0170226
875.869	0.0170079
875.947	0.0170502
876.025	0.0171178
876.103	0.0170647
876.181	0.0171138
876.259	0.0169256
876.337	0.0170656
876.415	0.0169742
876.494	0.0168937
876.572	0.0169374
876.650	0.0169468
876.728	0.0168479
876.806	0.0170273
876.884	0.0169617
876.962	0.0170271
877.040	0.0169987
877.119	0.0169216
877.197	0.0169940
877.275	0.0169855
877.353	0.0169229
877.431	0.0170403
877.509	0.0169621
877.587	0.0170749
877.665	0.0169057
877.744	0.0170178
877.822	0.0169978
877.900	0.0170269
877.978	0.0169684
878.056	0.0168791
878.134	0.0169759
878.212	0.0170196
878.290	0.0168999
878.369	0.0169806
878.447	0.0170164
878.525	0.0169288
878.603	0.0169975
878.681	0.0169928
878.759	0.0171571
878.837	0.0171008
878.915	0.0169234
878.994	0.0171000
879.072	0.0170419
879.150	0.0170482
879.228	0.0170671
879.306	0.0169630
879.384	0.0172498
879.462	0.0172578
879.540	0.0170486
879.619	0.0171599
879.697	0.0170197
879.775	0.0171323
879.853	0.0172572
879.931	0.0171065
880.009	0.0172188
880.087	0.0170679
880.165	0.0172230
880.244	0.0171693
880.322	0.0170870
880.400	0.0170310
880.478	0.0170331
880.556	0.0171456
880.634	0.0171140
880.712	0.0170527
880.790	0.0169180
880.869	0.0169331
880.947	0.0169414
881.025	0.0170719
881.103	0.0170390
881.181	0.0169288
881.259	0.0168652
881.337	0.0169056
881.415	0.0168590
881.494	0.0169973
881.572	0.0168715
881.650	0.0168363
881.728	0.0168651
881.806	0.0167725
881.884	0.0169887
881.962	0.0170160
882.040	0.0168679
882.119	0.0169218
882.197	0.0169567
882.275	0.0169814
882.353	0.0169253
882.431	0.0169510
882.509	0.0169814
882.587	0.0169162
882.665	0.0170313
882.744	0.0169849
882.822	0.0170518
882.900	0.0170547
882.978	0.0170018
883.056	0.0168697
883.134	0.0170602
883.212	0.0170397
883.290	0.0172063
883.369	0.0169106
883.447	0.0170335
883.525	0.0171194
883.603	0.0169010
883.681	0.0171779
883.759	0.0170720
883.837	0.0169307
883.915	0.0172123
883.994	0.0170881
884.072	0.0172169
884.150	0.0170494
884.228	0.0171438
884.306	0.0171613
884.384	0.0170335
884.462	0.0170828
884.540	0.0171133
884.619	0.0170142
884.697	0.0170029
884.775	0.0170914
884.853	0.0171148
884.931	0.0170220
885.009	0.0170647
885.087	0.0169733
885.165	0.0170161
885.244	0.0168364
885.322	0.0170296
885.400	0.0171425
885.478	0.0170872
885.556	0.0170245
885.634	0.0169377
885.712	0.0170029
885.790	0.0170354
885.869	0.0170554
885.947	0.0170071
886.025	0.0169901
886.103	0.0170480
886.181	0.0169891
886.259	0.0169534
886.337	0.0168872
886.415	0.0169004
886.494	0.0169150
886.572	0.0167238
886.650	0.0168338
886.728	0.0169598
886.806	0.0167754
886.884	0.0169572
886.962	0.0168241
887.040	0.0168141
887.119	0.0168121
887.197	0.0168269
887.275	0.0168631
887.353	0.0169445
887.431	0.0168626
887.509	0.0170487
887.587	0.0170511
887.665	0.0169575
887.744	0.0169585
887.822	0.0169391
887.900	0.0170146
887.978	0.0170112
888.056	0.0170844
888.134	0.0170308
888.212	0.0170205
888.290	0.0170959
888.369	0.0170394
888.447	0.0171073
888.525	0.0169505
888.603	0.0170795
888.681	0.0170084
888.759	0.0170590
888.837	0.0170511
888.915	0.0171291
888.994	0.0171584
889.072	0.0171150
889.150	0.0170844
889.228	0.0169961
889.306	0.0171310
889.384	0.0173206
889.462	0.0173087
889.540	0.0172000
889.619	0.0172755
889.697	0.0171914
889.775	0.0171794
889.853	0.0171653
889.931	0.0171727
890.009	0.0172279
890.087	0.0173076
890.165	0.0172823
890.244	0.0173026
890.322	0.0171263
890.400	0.0171360
890.478	0.0171166
890.556	0.0170824
890.634	0.0169609
890.712	0.0169886
890.790	0.0170025
890.869	0.0168542
890.947	0.0169759
891.025	0.0169047
891.103	0.0168927
891.181	0.0168414
891.259	0.0169989
891.337	0.0169080
891.415	0.0169329
891.494	0.0170293
891.572	0.0169278
891.650	0.0168510
891.728	0.0171864
891.806	0.0168205
891.884	0.0168722
891.962	0.0170186
892.040	0.0168390
892.119	0.0169597
892.197	0.0169919
892.275	0.0168594
892.353	0.0167684
892.431	0.0167239
892.509	0.0167825
892.587	0.0168039
892.665	0.0168811
892.744	0.0169466
892.822	0.0168535
892.900	0.0168549
892.978	0.0168674
893.056	0.0168644
893.134	0.0167405
893.212	0.0168481
893.290	0.0167973
893.369	0.0169299
893.447	0.0169345
893.525	0.0168732
893.603	0.0168382
893.681	0.0168579
893.759	0.0169031
893.837	0.0170511
893.915	0.0168539
893.994	0.0169329
894.072	0.0170570
894.150	0.0169947
894.228	0.0170668
894.306	0.0169661
894.384	0.0169477
894.462	0.0169900
894.540	0.0170567
894.619	0.0170986
894.697	0.0170340
894.775	0.0170943
894.853	0.0170158
894.931	0.0170616
895.009	0.0170852
895.087	0.0170431
895.165	0.0170473
895.244	0.0171033
895.322	0.0171685
895.400	0.0171060
895.478	0.0172386
895.556	0.0171355
895.634	0.0170979
895.712	0.0170845
895.790	0.0170925
895.869	0.0171469
895.947	0.0172228
896.025	0.0170428
896.103	0.0171825
896.181	0.0170153
896.259	0.0170920
896.337	0.0170204
896.415	0.0171611
896.494	0.0170090
896.572	0.0169673
896.650	0.0170016
896.728	0.0169981
896.806	0.0170311
896.884	0.0169746
896.962	0.0170438
897.040	0.0168744
897.119	0.0169783
897.197	0.0169201
897.275	0.0169482
897.353	0.0169508
897.431	0.0170603
897.509	0.0170249
897.587	0.0168351
897.665	0.0168994
897.744	0.0169031
897.822	0.0168985
897.900	0.0169954
897.978	0.0169953
898.056	0.0169879
898.134	0.0169659
898.212	0.0171611
898.290	0.0170732
898.369	0.0170631
898.447	0.0170587
898.525	0.0169926
898.603	0.0171002
898.681	0.0170338
898.759	0.0169601
898.837	0.0170520
898.915	0.0170258
898.994	0.0168439
899.072	0.0168130
899.150	0.0170586
899.228	0.0170224
899.306	0.0169465
899.384	0.0170404
899.462	0.0170582
899.540	0.0171107
899.619	0.0170259
899.697	0.0170274
899.775	0.0171140
899.853	0.0171125
899.931	0.0170159
900.009	0.0168758
900.087	0.0169737
900.165	0.0170387
900.244	0.0170711
900.322	0.0170363
900.400	0.0170439
900.478	0.0171290
900.556	0.0169608
900.634	0.0169524
900.712	0.0169209
900.790	0.0168567
900.869	0.0169175
900.947	0.0168496
901.025	0.0169711
901.103	0.0169964
901.181	0.0169270
901.259	0.0170740
901.337	0.0170044
901.415	0.0169910
901.494	0.0170239
901.572	0.0171259
901.650	0.0172212
901.728	0.0171223
901.806	0.0170785
901.884	0.0170356
901.962	0.0168517
902.040	0.0169900
902.119	0.0170830
902.197	0.0170736
902.275	0.0171193
902.353	0.0170276
902.431	0.0169804
902.509	0.0170326
902.587	0.0169209
902.665	0.0168502
902.744	0.0168510
902.822	0.0168929
902.900	0.0169221
902.978	0.0167945
903.056	0.0168214
903.134	0.0168288
903.212	0.0168040
903.290	0.0169189
903.369	0.0168626
903.447	0.0169180
903.525	0.0169570
903.603	0.0168103
903.681	0.0169657
903.759	0.0169185
903.837	0.0169597
903.915	0.0169888
903.994	0.0168353
904.072	0.0168850
904.150	0.0170384
904.228	0.0169565
904.306	0.0170570
904.384	0.0170153
904.462	0.0171383
904.540	0.0170529
904.619	0.0170222
904.697	0.0170345
904.775	0.0170210
904.853	0.0171282
904.931	0.0170359
905.009	0.0170534
905.087	0.0171466
905.165	0.0171091
905.244	0.0170525
905.322	0.0171609
905.400	0.0172281
905.478	0.0170360
905.556	0.0171245
905.634	0.0170761
905.712	0.0171963
905.790	0.0171472
905.869	0.0170773
905.947	0.0170990
906.025	0.0171532
906.103	0.0171247
906.181	0.0170434
906.259	0.0169828
906.337	0.0169818
906.415	0.0171443
906.494	0.0170330
906.572	0.0170679
906.650	0.0169587
906.728	0.0170281
906.806	0.0169182
906.884	0.0169984
906.962	0.0171655
907.040	0.0170024
907.119	0.0169523
907.197	0.0169711
907.275	0.0169414
907.353	0.0169227
907.431	0.0170531
907.509	0.0169538
907.587	0.0170084
907.665	0.0171196
907.744	0.0168996
907.822	0.0168298
907.900	0.0170446
907.978	0.0170242
908.056	0.0169964
908.134	0.0170337
908.212	0.0170341
908.290	0.0171539
908.369	0.0170823
908.447	0.0170863
908.525	0.0170699
908.603	0.0170473
908.681	0.0169881
908.759	0.0170970
908.837	0.0172050
908.915	0.0170588
908.994	0.0170485
909.072	0.0169862
909.150	0.0171494
909.228	0.0170737
909.306	0.0171342
909.384	0.0170074
909.462	0.0168910
909.540	0.0169819
909.619	0.0171821
909.697	0.0170946
909.775	0.0171068
909.853	0.0171447
909.931	0.0169998
910.009	0.0171122
910.087	0.0171896
910.165	0.0170835
910.244	0.0171403
910.322	0.0171861
910.400	0.0172256
910.478	0.0170770
910.556	0.0170233
910.634	0.0170850
910.712	0.0170742
910.790	0.0170467
910.869	0.0171011
910.947	0.0170887
911.025	0.0171436
911.103	0.0171359
911.181	0.0171641
911.259	0.0171597
911.337	0.0170493
911.415	0.0171362
911.494	0.0171131
911.572	0.0168867
911.650	0.0170560
911.728	0.0171221
911.806	0.0170438
911.884	0.0171317
911.962	0.0169132
912.040	0.0171868
912.119	0.0170609
912.197	0.0169674
912.275	0.0172152
912.353	0.0169656
912.431	0.0169798
912.509	0.0170181
912.587	0.0169760
912.665	0.0170608
912.744	0.0170144
912.822	0.0170326
912.900	0.0169809
912.978	0.0168353
913.056	0.0170760
913.134	0.0170509
913.212	0.0169774
913.290	0.0170668
913.369	0.0170298
913.447	0.0169166
913.525	0.0170290
913.603	0.0169604
913.681	0.0170100
913.759	0.0170275
913.837	0.0169499
913.915	0.0171525
913.994	0.0171803
914.072	0.0172031
914.150	0.0170703
914.228	0.0170301
914.306	0.0171317
914.384	0.0172099
914.462	0.0169912
914.540	0.0170634
914.619	0.0171478
914.697	0.0169717
914.775	0.0170585
914.853	0.0170705
914.931	0.0170475
915.009	0.0170155
915.087	0.0169712
915.165	0.0170264
915.244	0.0169698
915.322	0.0169481
915.400	0.0169198
915.478	0.0169212
915.556	0.0168774
915.634	0.0170569
915.712	0.0169403
915.790	0.0168586
915.869	0.0170033
915.947	0.0169703
916.025	0.0168068
916.103	0.0169496
916.181	0.0169385
916.259	0.0169863
916.337	0.0167766
916.415	0.0168581
916.494	0.0169121
916.572	0.0169518
916.650	0.0169880
916.728	0.0170876
916.806	0.0169891
916.884	0.0170338
916.962	0.0172224
917.040	0.0169559
917.119	0.0170180
917.197	0.0171175
917.275	0.0170066
917.353	0.0170301
917.431	0.0170345
917.509	0.0168862
917.587	0.0169844
917.665	0.0170057
917.744	0.0168373
917.822	0.0169981
917.900	0.0170230
917.978	0.0169544
918.056	0.0170248
918.134	0.0170105
918.212	0.0169764
918.290	0.0168770
918.369	0.0168319
918.447	0.0169655
918.525	0.0170136
918.603	0.0169733
918.681	0.0170100
918.759	0.0169814
918.837	0.0168987
918.915	0.0168825
918.994	0.0171372
919.072	0.0170990
919.150	0.0169363
919.228	0.0171040
919.306	0.0172117
919.384	0.0170686
919.462	0.0171186
919.540	0.0170537
919.619	0.0171342
919.697	0.0169273
919.775	0.0169660
919.853	0.0170811
919.931	0.0170498
920.009	0.0170320
920.087	0.0171091
920.165	0.0171288
920.244	0.0169829
920.322	0.0169425
920.400	0.0169593
920.478	0.0170324
920.556	0.0170522
920.634	0.0169717
920.712	0.0170193
920.790	0.0170287
920.869	0.0168283
920.947	0.0168227
921.025	0.0168839
921.103	0.0169456
921.181	0.0169107
921.259	0.0168119
921.337	0.0170708
921.415	0.0170230
921.494	0.0170103
921.572	0.0170123
921.650	0.0171563
921.728	0.0170599
921.806	0.0170334
921.884	0.0169437
921.962	0.0170280
922.040	0.0169943
922.119	0.0170837
922.197	0.0170992
922.275	0.0169939
922.353	0.0170657
922.431	0.0170567
922.509	0.0170898
922.587	0.0170065
922.665	0.0170483
922.744	0.0170371
922.822	0.0169390
922.900	0.0170837
922.978	0.0170861
923.056	0.0170701
923.134	0.0170389
923.212	0.0170287
923.290	0.0171335
923.369	0.0169706
923.447	0.0170962
923.525	0.0169123
923.603	0.0170267
923.681	0.0171049
923.759	0.0171454
923.837	0.0171142
923.915	0.0171053
923.994	0.0169871
924.072	0.0170043
924.150	0.0170913
924.228	0.0171765
924.306	0.0170899
924.384	0.0169271
924.462	0.0169922
924.540	0.0168414
924.619	0.0170226
924.697	0.0169125
924.775	0.0169513
924.853	0.0168190
924.931	0.0168098
925.009	0.0170374
925.087	0.0169392
925.165	0.0168235
925.244	0.0170289
925.322	0.0170292
925.400	0.0168145
925.478	0.0168745
925.556	0.0169856
925.634	0.0168459
925.712	0.0170279
925.790	0.0168868
925.869	0.0169047
925.947	0.0171426
926.025	0.0169943
926.103	0.0169624
926.181	0.0171461
926.259	0.0171365
926.337	0.0171809
926.415	0.0170685
926.494	0.0168719
926.572	0.0169949
926.650	0.0169470
926.728	0.0170380
926.806	0.0169566
926.884	0.0169160
926.962	0.0170481
927.040	0.0170232
927.119	0.0170121
927.197	0.0169673
927.275	0.0170113
927.353	0.0169495
927.431	0.0169551
927.509	0.0170093
927.587	0.0169931
927.665	0.0170841
927.744	0.0171645
927.822	0.0171603
927.900	0.0170958
927.978	0.0171607
928.056	0.0170853
928.134	0.0171111
928.212	0.0171125
928.290	0.0170608
928.369	0.0170409
928.447	0.0172177
928.525	0.0172353
928.603	0.0170767
928.681	0.0171522
928.759	0.0171937
928.837	0.0171266
928.915	0.0170169
928.994	0.0170343
929.072	0.0170970
929.150	0.0169884
929.228	0.0168801
929.306	0.0170039
929.384	0.0170122
929.462	0.0169714
929.540	0.0169176
929.619	0.0168372
929.697	0.0169086
929.775	0.0169202
929.853	0.0169666
929.931	0.0169662
930.009	0.0168959
930.087	0.0168458
930.165	0.0170064
930.244	0.0169198
930.322	0.0169659
930.400	0.0170158
930.478	0.0170151
930.556	0.0168416
930.634	0.0168944
930.712	0.0170063
930.790	0.0170026
930.869	0.0169963
930.947	0.0170078
931.025	0.0169416
931.103	0.0169952
931.181	0.0171360
931.259	0.0170310
931.337	0.0170837
931.415	0.0171814
931.494	0.0171028
931.572	0.0170475
931.650	0.0171194
931.728	0.0171887
931.806	0.0171933
931.884	0.0170117
931.962	0.0170576
932.040	0.0171902
932.119	0.0171880
932.197	0.0171052
932.275	0.0172066
932.353	0.0172410
932.431	0.0172083
932.509	0.0171960
932.587	0.0172190
932.665	0.0171622
932.744	0.0172144
932.822	0.0171257
932.900	0.0171431
932.978	0.0171110
933.056	0.0170695
933.134	0.0170498
933.212	0.0171611
933.290	0.0172404
933.369	0.0171219
933.447	0.0171404
933.525	0.0170245
933.603	0.0171645
933.681	0.0170148
933.759	0.0171472
933.837	0.0172085
933.915	0.0170554
933.994	0.0171532
934.072	0.0170008
934.150	0.0170467
934.228	0.0171007
934.306	0.0170070
934.384	0.0168969
934.462	0.0169175
934.540	0.0169274
934.619	0.0170494
934.697	0.0169974
934.775	0.0171357
934.853	0.0170367
934.931	0.0170875
935.009	0.0170618
935.087	0.0169817
935.165	0.0170075
935.244	0.0170067
935.322	0.0169823
935.400	0.0170558
935.478	0.0169592
935.556	0.0169152
935.634	0.0170816
935.712	0.0169550
935.790	0.0169894
935.869	0.0170558
935.947	0.0169888
936.025	0.0169227
936.103	0.0169231
936.181	0.0169872
936.259	0.0169096
936.337	0.0170644
936.415	0.0169234
936.494	0.0170210
936.572	0.0168780
936.650	0.0169234
936.728	0.0168352
936.806	0.0168672
936.884	0.0169115
936.962	0.0169836
937.040	0.0168439
937.119	0.0169097
937.197	0.0169307
937.275	0.0169631
937.353	0.0170191
937.431	0.0170000
937.509	0.0168880
937.587	0.0170609
937.665	0.0170294
937.744	0.0169173
937.822	0.0171214
937.900	0.0170815
937.978	0.0170675
938.056	0.0171929
938.134	0.0171155
938.212	0.0171096
938.290	0.0172051
938.369	0.0170638
938.447	0.0171493
938.525	0.0172080
938.603	0.0171912
938.681	0.0170501
938.759	0.0171058
938.837	0.0171492
938.915	0.0170992
938.994	0.0171178
939.072	0.0170597
939.150	0.0171319
939.228	0.0170832
939.306	0.0169681
939.384	0.0171849
939.462	0.0171337
939.540	0.0171196
939.619	0.0171962
939.697	0.0171337
939.775	0.0171066
939.853	0.0170469
939.931	0.0170712
940.009	0.0171495
940.087	0.0171074
940.165	0.0171088
940.244	0.0171484
940.322	0.0171384
940.400	0.0170387
940.478	0.0169926
940.556	0.0170647
940.634	0.0168779
940.712	0.0171061
940.790	0.0169747
940.869	0.0168086
940.947	0.0168930
941.025	0.0170409
941.103	0.0168700
941.181	0.0170181
941.259	0.0170581
941.337	0.0168853
941.415	0.0169626
941.494	0.0169451
941.572	0.0169756
941.650	0.0169230
941.728	0.0168774
941.806	0.0170203
941.884	0.0169761
941.962	0.0168393
942.040	0.0170116
942.119	0.0170060
942.197	0.0170333
942.275	0.0169572
942.353	0.0170052
942.431	0.0170222
942.509	0.0169393
942.587	0.0169069
942.665	0.0170201
942.744	0.0170233
942.822	0.0170061
942.900	0.0168784
942.978	0.0169558
943.056	0.0168401
943.134	0.0169707
943.212	0.0170335
943.290	0.0168749
943.369	0.0169295
943.447	0.0171498
943.525	0.0170214
943.603	0.0169144
943.681	0.0169803
943.759	0.0171124
943.837	0.0171178
943.915	0.0170677
943.994	0.0169031
944.072	0.0172771
944.150	0.0170857
944.228	0.0170427
944.306	0.0171160
944.384	0.0172458
944.462	0.0171445
944.540	0.0171263
944.619	0.0172516
944.697	0.0172639
944.775	0.0171608
944.853	0.0170770
944.931	0.0171168
945.009	0.0170790
945.087	0.0172049
945.165	0.0170931
945.244	0.0171513
945.322	0.0171244
945.400	0.0171126
945.478	0.0172080
945.556	0.0170524
945.634	0.0171391
945.712	0.0170670
945.790	0.0171144
945.869	0.0170177
945.947	0.0169628
946.025	0.0171264
946.103	0.0170487
946.181	0.0170133
946.259	0.0169756
946.337	0.0171077
946.415	0.0169234
946.494	0.0170407
946.572	0.0171143
946.650	0.0170277
946.728	0.0169711
946.806	0.0170734
946.884	0.0169907
946.962	0.0168069
947.040	0.0168314
947.119	0.0169854
947.197	0.0170266
947.275	0.0168642
947.353	0.0168689
947.431	0.0168265
947.509	0.0169064
947.587	0.0168847
947.665	0.0168948
947.744	0.0168296
947.822	0.0169541
947.900	0.0168495
947.978	0.0168665
948.056	0.0169749
948.134	0.0169978
948.212	0.0168783
948.290	0.0167863
948.369	0.0168809
948.447	0.0169965
948.525	0.0170085
948.603	0.0169402
948.681	0.0170077
948.759	0.0169981
948.837	0.0170321
948.915	0.0170497
948.994	0.0168896
949.072	0.0169743
949.150	0.0168919
949.228	0.0169595
949.306	0.0170531
949.384	0.0169571
949.462	0.0169218
949.540	0.0169269
949.619	0.0169788
949.697	0.0168855
949.775	0.0169463
949.853	0.0170377
949.931	0.0169875
