05/19/2022	00:45:08	Ver.	4.1	UNKNOWN
Optical Delay	630.009178	Delta X		0.078125	Sweeps	1	Scan Rate	0/0
Coordinates	Axis 1	NaN	Axis 2	NaN	Axis 3	NaN	Axis 4	NaN	Axis 5	NaN	Axis 6	0.000000
TX Power	0.000000	RX Power	0.000000

630.009	0.0161536
630.087	0.0161800
630.165	0.0161875
630.244	0.0161085
630.322	0.0161648
630.400	0.0162373
630.478	0.0161757
630.556	0.0161749
630.634	0.0161245
630.712	0.0162858
630.790	0.0161683
630.869	0.0160680
630.947	0.0161101
631.025	0.0160835
631.103	0.0161426
631.181	0.0161543
631.259	0.0161069
631.337	0.0162122
631.415	0.0161437
631.494	0.0161700
631.572	0.0161549
631.650	0.0161418
631.728	0.0162379
631.806	0.0161877
631.884	0.0161659
631.962	0.0161002
632.040	0.0161033
632.119	0.0161411
632.197	0.0160748
632.275	0.0162583
632.353	0.0162213
632.431	0.0160241
632.509	0.0160968
632.587	0.0162049
632.665	0.0162237
632.744	0.0162437
632.822	0.0160093
632.900	0.0161858
632.978	0.0160568
633.056	0.0161119
633.134	0.0161275
633.212	0.0161015
633.290	0.0162074
633.369	0.0162068
633.447	0.0160485
633.525	0.0161033
633.603	0.0160929
633.681	0.0160851
633.759	0.0161611
633.837	0.0161395
633.915	0.0160958
633.994	0.0160938
634.072	0.0162305
634.150	0.0161343
634.228	0.0160172
634.306	0.0161598
634.384	0.0162405
634.462	0.0161969
634.540	0.0161109
634.619	0.0160341
634.697	0.0162425
634.775	0.0161892
634.853	0.0161641
634.931	0.0160872
635.009	0.0162419
635.087	0.0161869
635.165	0.0161552
635.244	0.0162063
635.322	0.0162247
635.400	0.0161914
635.478	0.0161451
635.556	0.0161388
635.634	0.0161798
635.712	0.0161031
635.790	0.0161127
635.869	0.0161586
635.947	0.0161198
636.025	0.0161674
636.103	0.0161488
636.181	0.0161038
636.259	0.0161140
636.337	0.0161782
636.415	0.0161028
636.494	0.0161604
636.572	0.0160679
636.650	0.0161354
636.728	0.0161966
636.806	0.0161151
636.884	0.0162128
636.962	0.0161245
637.040	0.0160641
637.119	0.0161302
637.197	0.0162265
637.275	0.0162796
637.353	0.0162289
637.431	0.0161389
637.509	0.0161336
637.587	0.0161992
637.665	0.0161111
637.744	0.0161717
637.822	0.0161549
637.900	0.0160827
637.978	0.0160517
638.056	0.0163411
638.134	0.0162048
638.212	0.0160396
638.290	0.0161349
638.369	0.0162346
638.447	0.0162125
638.525	0.0161770
638.603	0.0161009
638.681	0.0162132
638.759	0.0161491
638.837	0.0162389
638.915	0.0162816
638.994	0.0160931
639.072	0.0161564
639.150	0.0161620
639.228	0.0161443
639.306	0.0161536
639.384	0.0161088
639.462	0.0162152
639.540	0.0162766
639.619	0.0161810
639.697	0.0162247
639.775	0.0160991
639.853	0.0161218
639.931	0.0161359
640.009	0.0160825
640.087	0.0159882
640.165	0.0161694
640.244	0.0162197
640.322	0.0161148
640.400	0.0160287
640.478	0.0161020
640.556	0.0160382
640.634	0.0160722
640.712	0.0160968
640.790	0.0161784
640.869	0.0162130
640.947	0.0160951
641.025	0.0162463
641.103	0.0160726
641.181	0.0161429
641.259	0.0160263
641.337	0.0160555
641.415	0.0160626
641.494	0.0161194
641.572	0.0161039
641.650	0.0161183
641.728	0.0161478
641.806	0.0161209
641.884	0.0160456
641.962	0.0161657
642.040	0.0160857
642.119	0.0163596
642.197	0.0161243
642.275	0.0162203
642.353	0.0160609
642.431	0.0161111
642.509	0.0160130
642.587	0.0161732
642.665	0.0161423
642.744	0.0162170
642.822	0.0160196
642.900	0.0160635
642.978	0.0160612
643.056	0.0161941
643.134	0.0160294
643.212	0.0161181
643.290	0.0161581
643.369	0.0162093
643.447	0.0159480
643.525	0.0162006
643.603	0.0159673
643.681	0.0160898
643.759	0.0160638
643.837	0.0161021
643.915	0.0160612
643.994	0.0160949
644.072	0.0160645
644.150	0.0160224
644.228	0.0160710
644.306	0.0162352
644.384	0.0161937
644.462	0.0159425
644.540	0.0160778
644.619	0.0162413
644.697	0.0162273
644.775	0.0160636
644.853	0.0160839
644.931	0.0160799
645.009	0.0161559
645.087	0.0161791
645.165	0.0160760
645.244	0.0160397
645.322	0.0159356
645.400	0.0160067
645.478	0.0161684
645.556	0.0161080
645.634	0.0161606
645.712	0.0161386
645.790	0.0161528
645.869	0.0160274
645.947	0.0160427
646.025	0.0161562
646.103	0.0160313
646.181	0.0161157
646.259	0.0161311
646.337	0.0160706
646.415	0.0161165
646.494	0.0161641
646.572	0.0161478
646.650	0.0161028
646.728	0.0161871
646.806	0.0161703
646.884	0.0160791
646.962	0.0161138
647.040	0.0162584
647.119	0.0163158
647.197	0.0162453
647.275	0.0159929
647.353	0.0160638
647.431	0.0160792
647.509	0.0161877
647.587	0.0161878
647.665	0.0161829
647.744	0.0160986
647.822	0.0161359
647.900	0.0160587
647.978	0.0160480
648.056	0.0162394
648.134	0.0161718
648.212	0.0162543
648.290	0.0161134
648.369	0.0162474
648.447	0.0160703
648.525	0.0160869
648.603	0.0160886
648.681	0.0162030
648.759	0.0160241
648.837	0.0161295
648.915	0.0161207
648.994	0.0161837
649.072	0.0160226
649.150	0.0160669
649.228	0.0161012
649.306	0.0161143
649.384	0.0160528
649.462	0.0162122
649.540	0.0162554
649.619	0.0160693
649.697	0.0161003
649.775	0.0161065
649.853	0.0161984
649.931	0.0161031
650.009	0.0161169
650.087	0.0161036
650.165	0.0160520
650.244	0.0161906
650.322	0.0161980
650.400	0.0160834
650.478	0.0161572
650.556	0.0162128
650.634	0.0161007
650.712	0.0161655
650.790	0.0161987
650.869	0.0160827
650.947	0.0159840
651.025	0.0160778
651.103	0.0161266
651.181	0.0162145
651.259	0.0162029
651.337	0.0162199
651.415	0.0160841
651.494	0.0162056
651.572	0.0160942
651.650	0.0160818
651.728	0.0161440
651.806	0.0162231
651.884	0.0162775
651.962	0.0162178
652.040	0.0161692
652.119	0.0161399
652.197	0.0160986
652.275	0.0162081
652.353	0.0161975
652.431	0.0161205
652.509	0.0160433
652.587	0.0159678
652.665	0.0161830
652.744	0.0161091
652.822	0.0161311
652.900	0.0160825
652.978	0.0161134
653.056	0.0161241
653.134	0.0161506
653.212	0.0161384
653.290	0.0162276
653.369	0.0162709
653.447	0.0161119
653.525	0.0160534
653.603	0.0161621
653.681	0.0161244
653.759	0.0161935
653.837	0.0160946
653.915	0.0160757
653.994	0.0161456
654.072	0.0160952
654.150	0.0162705
654.228	0.0161679
654.306	0.0161418
654.384	0.0161993
654.462	0.0162954
654.540	0.0162171
654.619	0.0160858
654.697	0.0162266
654.775	0.0160931
654.853	0.0160896
654.931	0.0161920
655.009	0.0161130
655.087	0.0161294
655.165	0.0160200
655.244	0.0161607
655.322	0.0161650
655.400	0.0161559
655.478	0.0160936
655.556	0.0161642
655.634	0.0160970
655.712	0.0161376
655.790	0.0161852
655.869	0.0161826
655.947	0.0160353
656.025	0.0162099
656.103	0.0161891
656.181	0.0161904
656.259	0.0161636
656.337	0.0160559
656.415	0.0162149
656.494	0.0162174
656.572	0.0161348
656.650	0.0163221
656.728	0.0161359
656.806	0.0161610
656.884	0.0161121
656.962	0.0162292
657.040	0.0161933
657.119	0.0163200
657.197	0.0162383
657.275	0.0160022
657.353	0.0160542
657.431	0.0161221
657.509	0.0161407
657.587	0.0160027
657.665	0.0160912
657.744	0.0162666
657.822	0.0162711
657.900	0.0162663
657.978	0.0161886
658.056	0.0162249
658.134	0.0161436
658.212	0.0159848
658.290	0.0160831
658.369	0.0162007
658.447	0.0161765
658.525	0.0162103
658.603	0.0161935
658.681	0.0161749
658.759	0.0161449
658.837	0.0161298
658.915	0.0161420
658.994	0.0162650
659.072	0.0162881
659.150	0.0161463
659.228	0.0161263
659.306	0.0161845
659.384	0.0162299
659.462	0.0162529
659.540	0.0161637
659.619	0.0159883
659.697	0.0162060
659.775	0.0160878
659.853	0.0161677
659.931	0.0162145
660.009	0.0161865
660.087	0.0161857
660.165	0.0162481
660.244	0.0161257
660.322	0.0161482
660.400	0.0161894
660.478	0.0161135
660.556	0.0160913
660.634	0.0160710
660.712	0.0162199
660.790	0.0160520
660.869	0.0161413
660.947	0.0161608
661.025	0.0162012
661.103	0.0161692
661.181	0.0163301
661.259	0.0160970
661.337	0.0159663
661.415	0.0160649
661.494	0.0161337
661.572	0.0162381
661.650	0.0161727
661.728	0.0162720
661.806	0.0162475
661.884	0.0162554
661.962	0.0162209
662.040	0.0161642
662.119	0.0161544
662.197	0.0162244
662.275	0.0161051
662.353	0.0161613
662.431	0.0160761
662.509	0.0161426
662.587	0.0161542
662.665	0.0161182
662.744	0.0160921
662.822	0.0161137
662.900	0.0161268
662.978	0.0162143
663.056	0.0160140
663.134	0.0159959
663.212	0.0161494
663.290	0.0160014
663.369	0.0161803
663.447	0.0160771
663.525	0.0160986
663.603	0.0161085
663.681	0.0160524
663.759	0.0161111
663.837	0.0161596
663.915	0.0160803
663.994	0.0161172
664.072	0.0161285
664.150	0.0161189
664.228	0.0160489
664.306	0.0162349
664.384	0.0159399
664.462	0.0162390
664.540	0.0161834
664.619	0.0160810
664.697	0.0160857
664.775	0.0160663
664.853	0.0162667
664.931	0.0161098
665.009	0.0161236
665.087	0.0161145
665.165	0.0160315
665.244	0.0160007
665.322	0.0161108
665.400	0.0160284
665.478	0.0159689
665.556	0.0160309
665.634	0.0160740
665.712	0.0161689
665.790	0.0160731
665.869	0.0159978
665.947	0.0160266
666.025	0.0162243
666.103	0.0160735
666.181	0.0161308
666.259	0.0161513
666.337	0.0162363
666.415	0.0162271
666.494	0.0161780
666.572	0.0162945
666.650	0.0162430
666.728	0.0162295
666.806	0.0162132
666.884	0.0161807
666.962	0.0162539
667.040	0.0160195
667.119	0.0161555
667.197	0.0160913
667.275	0.0160328
667.353	0.0161295
667.431	0.0159785
667.509	0.0161037
667.587	0.0160525
667.665	0.0159435
667.744	0.0160268
667.822	0.0159463
667.900	0.0160920
667.978	0.0160988
668.056	0.0161684
668.134	0.0160606
668.212	0.0162650
668.290	0.0161266
668.369	0.0160699
668.447	0.0162183
668.525	0.0162087
668.603	0.0161069
668.681	0.0161085
668.759	0.0161429
668.837	0.0161119
668.915	0.0161488
668.994	0.0161015
669.072	0.0161263
669.150	0.0160359
669.228	0.0160860
669.306	0.0161028
669.384	0.0159399
669.462	0.0160017
669.540	0.0159152
669.619	0.0158537
669.697	0.0160315
669.775	0.0160377
669.853	0.0160600
669.931	0.0159874
670.009	0.0158944
670.087	0.0160087
670.165	0.0161193
670.244	0.0160434
670.322	0.0159554
670.400	0.0162151
670.478	0.0159768
670.556	0.0159847
670.634	0.0160519
670.712	0.0160429
670.790	0.0160292
670.869	0.0160139
670.947	0.0159705
671.025	0.0160989
671.103	0.0160010
671.181	0.0161125
671.259	0.0161189
671.337	0.0162143
671.415	0.0159343
671.494	0.0159724
671.572	0.0161480
671.650	0.0159989
671.728	0.0159684
671.806	0.0159737
671.884	0.0158795
671.962	0.0159625
672.040	0.0160429
672.119	0.0158919
672.197	0.0159694
672.275	0.0159649
672.353	0.0161144
672.431	0.0160877
672.509	0.0160818
672.587	0.0161973
672.665	0.0161462
672.744	0.0162660
672.822	0.0163076
672.900	0.0162552
672.978	0.0162099
673.056	0.0162846
673.134	0.0162584
673.212	0.0163584
673.290	0.0164124
673.369	0.0162387
673.447	0.0161514
673.525	0.0161937
673.603	0.0160565
673.681	0.0161583
673.759	0.0161037
673.837	0.0161564
673.915	0.0161066
673.994	0.0160929
674.072	0.0162409
674.150	0.0161726
674.228	0.0161726
674.306	0.0160783
674.384	0.0162220
674.462	0.0160741
674.540	0.0162451
674.619	0.0162487
674.697	0.0162503
674.775	0.0163972
674.853	0.0163281
674.931	0.0163608
675.009	0.0163362
675.087	0.0163682
675.165	0.0163599
675.244	0.0162896
675.322	0.0163534
675.400	0.0163419
675.478	0.0165667
675.556	0.0163148
675.634	0.0161466
675.712	0.0165186
675.790	0.0164117
675.869	0.0162828
675.947	0.0165775
676.025	0.0163409
676.103	0.0164667
676.181	0.0164504
676.259	0.0163033
676.337	0.0163346
676.415	0.0163040
676.494	0.0162840
676.572	0.0163177
676.650	0.0162101
676.728	0.0162948
676.806	0.0163335
676.884	0.0160957
676.962	0.0163556
677.040	0.0163449
677.119	0.0161207
677.197	0.0163402
677.275	0.0164300
677.353	0.0162817
677.431	0.0162160
677.509	0.0163031
677.587	0.0163326
677.665	0.0164637
677.744	0.0162035
677.822	0.0162810
677.900	0.0161964
677.978	0.0162632
678.056	0.0162536
678.134	0.0161732
678.212	0.0161591
678.290	0.0161279
678.369	0.0162096
678.447	0.0160229
678.525	0.0160017
678.603	0.0160065
678.681	0.0160724
678.759	0.0160461
678.837	0.0159263
678.915	0.0160383
678.994	0.0159709
679.072	0.0160140
679.150	0.0160756
679.228	0.0158500
679.306	0.0159691
679.384	0.0160098
679.462	0.0160307
679.540	0.0160185
679.619	0.0158917
679.697	0.0160976
679.775	0.0161127
679.853	0.0162803
679.931	0.0160547
680.009	0.0160391
680.087	0.0161855
680.165	0.0162656
680.244	0.0162321
680.322	0.0162060
680.400	0.0163883
680.478	0.0162914
680.556	0.0162030
680.634	0.0162249
680.712	0.0162030
680.790	0.0160832
680.869	0.0163300
680.947	0.0160880
681.025	0.0160842
681.103	0.0161158
681.181	0.0160619
681.259	0.0161243
681.337	0.0160136
681.415	0.0159421
681.494	0.0160688
681.572	0.0161282
681.650	0.0161599
681.728	0.0161672
681.806	0.0161710
681.884	0.0163087
681.962	0.0162029
682.040	0.0162849
682.119	0.0163833
682.197	0.0162285
682.275	0.0163776
682.353	0.0163121
682.431	0.0162849
682.509	0.0161497
682.587	0.0161864
682.665	0.0163442
682.744	0.0163191
682.822	0.0162082
682.900	0.0163713
682.978	0.0163937
683.056	0.0163105
683.134	0.0163242
683.212	0.0164446
683.290	0.0164516
683.369	0.0165214
683.447	0.0164827
683.525	0.0164382
683.603	0.0163885
683.681	0.0165119
683.759	0.0164149
683.837	0.0162846
683.915	0.0163217
683.994	0.0164114
684.072	0.0162508
684.150	0.0162907
684.228	0.0162517
684.306	0.0164309
684.384	0.0162176
684.462	0.0163653
684.540	0.0161796
684.619	0.0162490
684.697	0.0162312
684.775	0.0160928
684.853	0.0160402
684.931	0.0159837
685.009	0.0161531
685.087	0.0160465
685.165	0.0159899
685.244	0.0159256
685.322	0.0159926
685.400	0.0160176
685.478	0.0158960
685.556	0.0159624
685.634	0.0159787
685.712	0.0159643
685.790	0.0159397
685.869	0.0159176
685.947	0.0158872
686.025	0.0158755
686.103	0.0159100
686.181	0.0158816
686.259	0.0159718
686.337	0.0158825
686.415	0.0162082
686.494	0.0161275
686.572	0.0160747
686.650	0.0160544
686.728	0.0161677
686.806	0.0162010
686.884	0.0161951
686.962	0.0162749
687.040	0.0163802
687.119	0.0162707
687.197	0.0163005
687.275	0.0164232
687.353	0.0164249
687.431	0.0164938
687.509	0.0164601
687.587	0.0165059
687.665	0.0164600
687.744	0.0164786
687.822	0.0165538
687.900	0.0165578
687.978	0.0164789
688.056	0.0164908
688.134	0.0164776
688.212	0.0164711
688.290	0.0164244
688.369	0.0163420
688.447	0.0163103
688.525	0.0163600
688.603	0.0162486
688.681	0.0160664
688.759	0.0160895
688.837	0.0159790
688.915	0.0159122
688.994	0.0159194
689.072	0.0158551
689.150	0.0157880
689.228	0.0158915
689.306	0.0156796
689.384	0.0154336
689.462	0.0154787
689.540	0.0154716
689.619	0.0153563
689.697	0.0152808
689.775	0.0151259
689.853	0.0150468
689.931	0.0151282
690.009	0.0149841
690.087	0.0148879
690.165	0.0150687
690.244	0.0149384
690.322	0.0149886
690.400	0.0151865
690.478	0.0151524
690.556	0.0151951
690.634	0.0151540
690.712	0.0155236
690.790	0.0154879
690.869	0.0155897
690.947	0.0156223
691.025	0.0157696
691.103	0.0159290
691.181	0.0161345
691.259	0.0161292
691.337	0.0163646
691.415	0.0166539
691.494	0.0166711
691.572	0.0166457
691.650	0.0168131
691.728	0.0169510
691.806	0.0170467
691.884	0.0171541
691.962	0.0172434
692.040	0.0171599
692.119	0.0173187
692.197	0.0172814
692.275	0.0173716
692.353	0.0174455
692.431	0.0175314
692.509	0.0173244
692.587	0.0172795
692.665	0.0171952
692.744	0.0172779
692.822	0.0172776
692.900	0.0170699
692.978	0.0171076
693.056	0.0169736
693.134	0.0168649
693.212	0.0165857
693.290	0.0164004
693.369	0.0163589
693.447	0.0161630
693.525	0.0159982
693.603	0.0159779
693.681	0.0156965
693.759	0.0156038
693.837	0.0154835
693.915	0.0153528
693.994	0.0152293
694.072	0.0151697
694.150	0.0150983
694.228	0.0149165
694.306	0.0148429
694.384	0.0149152
694.462	0.0148981
694.540	0.0148652
694.619	0.0149626
694.697	0.0148035
694.775	0.0149474
694.853	0.0149701
694.931	0.0149503
695.009	0.0151051
695.087	0.0151265
695.165	0.0153683
695.244	0.0152676
695.322	0.0154282
695.400	0.0155583
695.478	0.0156258
695.556	0.0156975
695.634	0.0158650
695.712	0.0159019
695.790	0.0161127
695.869	0.0160567
695.947	0.0161099
696.025	0.0163049
696.103	0.0162909
696.181	0.0164342
696.259	0.0164894
696.337	0.0165518
696.415	0.0165446
696.494	0.0166464
696.572	0.0166060
696.650	0.0167854
696.728	0.0167946
696.806	0.0168394
696.884	0.0170000
696.962	0.0169750
697.040	0.0168113
697.119	0.0169223
697.197	0.0169791
697.275	0.0168829
697.353	0.0168436
697.431	0.0169669
697.509	0.0169395
697.587	0.0169762
697.665	0.0167876
697.744	0.0169049
697.822	0.0166627
697.900	0.0166666
697.978	0.0165205
698.056	0.0166287
698.134	0.0165456
698.212	0.0165780
698.290	0.0163631
698.369	0.0163131
698.447	0.0163435
698.525	0.0162735
698.603	0.0162370
698.681	0.0162864
698.759	0.0162621
698.837	0.0160992
698.915	0.0160425
698.994	0.0160455
699.072	0.0159055
699.150	0.0157569
699.228	0.0157817
699.306	0.0158325
699.384	0.0157234
699.462	0.0157407
699.540	0.0157784
699.619	0.0158284
699.697	0.0156713
699.775	0.0158183
699.853	0.0157141
699.931	0.0157928
700.009	0.0156134
700.087	0.0157408
700.165	0.0157698
700.244	0.0158298
700.322	0.0156716
700.400	0.0157767
700.478	0.0157292
700.556	0.0157368
700.634	0.0158857
700.712	0.0159109
700.790	0.0158257
700.869	0.0158076
700.947	0.0157762
701.025	0.0157487
701.103	0.0158204
701.181	0.0157140
701.259	0.0155423
701.337	0.0156454
701.415	0.0157451
701.494	0.0157268
701.572	0.0156614
701.650	0.0157899
701.728	0.0157435
701.806	0.0158064
701.884	0.0158154
701.962	0.0158197
702.040	0.0158775
702.119	0.0160558
702.197	0.0160899
702.275	0.0160686
702.353	0.0161119
702.431	0.0160914
702.509	0.0161948
702.587	0.0164001
702.665	0.0163312
702.744	0.0162571
702.822	0.0164267
702.900	0.0164872
702.978	0.0166036
703.056	0.0164821
703.134	0.0164435
703.212	0.0166386
703.290	0.0164516
703.369	0.0163803
703.447	0.0165663
703.525	0.0166153
703.603	0.0167430
703.681	0.0166725
703.759	0.0168602
703.837	0.0168742
703.915	0.0168993
703.994	0.0170339
704.072	0.0170734
704.150	0.0169525
704.228	0.0171044
704.306	0.0171039
704.384	0.0169479
704.462	0.0169961
704.540	0.0170100
704.619	0.0169734
704.697	0.0169836
704.775	0.0167635
704.853	0.0168362
704.931	0.0168335
705.009	0.0167690
705.087	0.0167747
705.165	0.0165997
705.244	0.0165093
705.322	0.0164475
705.400	0.0165308
705.478	0.0162718
705.556	0.0162185
705.634	0.0161275
705.712	0.0161263
705.790	0.0160072
705.869	0.0158058
705.947	0.0158036
706.025	0.0156508
706.103	0.0156457
706.181	0.0155457
706.259	0.0153526
706.337	0.0155224
706.415	0.0153271
706.494	0.0154392
706.572	0.0152676
706.650	0.0150754
706.728	0.0150928
706.806	0.0152294
706.884	0.0150570
706.962	0.0150289
707.040	0.0150306
707.119	0.0150145
707.197	0.0152113
707.275	0.0153517
707.353	0.0153350
707.431	0.0152988
707.509	0.0154049
707.587	0.0154478
707.665	0.0155160
707.744	0.0155680
707.822	0.0157224
707.900	0.0158330
707.978	0.0159141
708.056	0.0161523
708.134	0.0161618
708.212	0.0161115
708.290	0.0162386
708.369	0.0163825
708.447	0.0165382
708.525	0.0164941
708.603	0.0165617
708.681	0.0165028
708.759	0.0166192
708.837	0.0167162
708.915	0.0167754
708.994	0.0168982
709.072	0.0167527
709.150	0.0167500
709.228	0.0167142
709.306	0.0167782
709.384	0.0166953
709.462	0.0166918
709.540	0.0165875
709.619	0.0166323
709.697	0.0165989
709.775	0.0166036
709.853	0.0165778
709.931	0.0166286
710.009	0.0164996
710.087	0.0166102
710.165	0.0166898
710.244	0.0166853
710.322	0.0167560
710.400	0.0166055
710.478	0.0168018
710.556	0.0166805
710.634	0.0167651
710.712	0.0166812
710.790	0.0167574
710.869	0.0166389
710.947	0.0166879
711.025	0.0165388
711.103	0.0165303
711.181	0.0163883
711.259	0.0162487
711.337	0.0164768
711.415	0.0162803
711.494	0.0162426
711.572	0.0160293
711.650	0.0160224
711.728	0.0160484
711.806	0.0159136
711.884	0.0158124
711.962	0.0157202
712.040	0.0157307
712.119	0.0155814
712.197	0.0155193
712.275	0.0155067
712.353	0.0154464
712.431	0.0153461
712.509	0.0154744
712.587	0.0153037
712.665	0.0153290
712.744	0.0152724
712.822	0.0153757
712.900	0.0153649
712.978	0.0150637
713.056	0.0152067
713.134	0.0151959
713.212	0.0152944
713.290	0.0153855
713.369	0.0153767
713.447	0.0153722
713.525	0.0155569
713.603	0.0155919
713.681	0.0155058
713.759	0.0156083
713.837	0.0156841
713.915	0.0156956
713.994	0.0156233
714.072	0.0156897
714.150	0.0158003
714.228	0.0158084
714.306	0.0158694
714.384	0.0158324
714.462	0.0160126
714.540	0.0161272
714.619	0.0162959
714.697	0.0162282
714.775	0.0164262
714.853	0.0165044
714.931	0.0164765
715.009	0.0165837
715.087	0.0165943
715.165	0.0166415
715.244	0.0166685
715.322	0.0167069
715.400	0.0167297
715.478	0.0167467
715.556	0.0167490
715.634	0.0168055
715.712	0.0167612
715.790	0.0166917
715.869	0.0167245
715.947	0.0165873
716.025	0.0165476
716.103	0.0165249
716.181	0.0165152
716.259	0.0165318
716.337	0.0162685
716.415	0.0163863
716.494	0.0163670
716.572	0.0162113
716.650	0.0163673
716.728	0.0163092
716.806	0.0162827
716.884	0.0162210
716.962	0.0163615
717.040	0.0164140
717.119	0.0164272
717.197	0.0163796
717.275	0.0163467
717.353	0.0163745
717.431	0.0164182
717.509	0.0163477
717.587	0.0163133
717.665	0.0161325
717.744	0.0163229
717.822	0.0162457
717.900	0.0161283
717.978	0.0161250
718.056	0.0161526
718.134	0.0159669
718.212	0.0159469
718.290	0.0159334
718.369	0.0159331
718.447	0.0157475
718.525	0.0156898
718.603	0.0157952
718.681	0.0157618
718.759	0.0155441
718.837	0.0154839
718.915	0.0156229
718.994	0.0155564
719.072	0.0155995
719.150	0.0154366
719.228	0.0154355
719.306	0.0154632
719.384	0.0153176
719.462	0.0154634
719.540	0.0156481
719.619	0.0157233
719.697	0.0154926
719.775	0.0154879
719.853	0.0155934
719.931	0.0155995
720.009	0.0155750
720.087	0.0156468
720.165	0.0156395
720.244	0.0158455
720.322	0.0157279
720.400	0.0158640
720.478	0.0160425
720.556	0.0158723
720.634	0.0159684
720.712	0.0161711
720.790	0.0160258
720.869	0.0160329
720.947	0.0162670
721.025	0.0163439
721.103	0.0162562
721.181	0.0163091
721.259	0.0163838
721.337	0.0165360
721.415	0.0165103
721.494	0.0164825
721.572	0.0166759
721.650	0.0165958
721.728	0.0166303
721.806	0.0167341
721.884	0.0166722
721.962	0.0165874
722.040	0.0165897
722.119	0.0165631
722.197	0.0165184
722.275	0.0165733
722.353	0.0164188
722.431	0.0164232
722.509	0.0163191
722.587	0.0163625
722.665	0.0165240
722.744	0.0164204
722.822	0.0164098
722.900	0.0161720
722.978	0.0162652
723.056	0.0163515
723.134	0.0161490
723.212	0.0161726
723.290	0.0164272
723.369	0.0162512
723.447	0.0161295
723.525	0.0163965
723.603	0.0162657
723.681	0.0162914
723.759	0.0162700
723.837	0.0162784
723.915	0.0162785
723.994	0.0163032
724.072	0.0162289
724.150	0.0161752
724.228	0.0163598
724.306	0.0162519
724.384	0.0160948
724.462	0.0162923
724.540	0.0162202
724.619	0.0162129
724.697	0.0163342
724.775	0.0161552
724.853	0.0162074
724.931	0.0161493
725.009	0.0161871
725.087	0.0161439
725.165	0.0160428
725.244	0.0159324
725.322	0.0157992
725.400	0.0157710
725.478	0.0158482
725.556	0.0157574
725.634	0.0157414
725.712	0.0157543
725.790	0.0156393
725.869	0.0156919
725.947	0.0157356
726.025	0.0157339
726.103	0.0154263
726.181	0.0157158
726.259	0.0155761
726.337	0.0157056
726.415	0.0157378
726.494	0.0157001
726.572	0.0158659
726.650	0.0159664
726.728	0.0159886
726.806	0.0159898
726.884	0.0159912
726.962	0.0160471
727.040	0.0161161
727.119	0.0161794
727.197	0.0161841
727.275	0.0161071
727.353	0.0161559
727.431	0.0163107
727.509	0.0164129
727.587	0.0163579
727.665	0.0161798
727.744	0.0163692
727.822	0.0164415
727.900	0.0164466
727.978	0.0165158
728.056	0.0163355
728.134	0.0163033
728.212	0.0164569
728.290	0.0164294
728.369	0.0163833
728.447	0.0163635
728.525	0.0164003
728.603	0.0163040
728.681	0.0162684
728.759	0.0164259
728.837	0.0164079
728.915	0.0165443
728.994	0.0165242
729.072	0.0163809
729.150	0.0163867
729.228	0.0164723
729.306	0.0163109
729.384	0.0162429
729.462	0.0163181
729.540	0.0163038
729.619	0.0161085
729.697	0.0161304
729.775	0.0161098
729.853	0.0159788
729.931	0.0159132
730.009	0.0160560
730.087	0.0159344
730.165	0.0158947
730.244	0.0159011
730.322	0.0160478
730.400	0.0160806
730.478	0.0161222
730.556	0.0160211
730.634	0.0159254
730.712	0.0161525
730.790	0.0161127
730.869	0.0161845
730.947	0.0161270
731.025	0.0162724
731.103	0.0162711
731.181	0.0161662
731.259	0.0162302
731.337	0.0162769
731.415	0.0161773
731.494	0.0161628
731.572	0.0162295
731.650	0.0161762
731.728	0.0161997
731.806	0.0161955
731.884	0.0160466
731.962	0.0161549
732.040	0.0161453
732.119	0.0161349
732.197	0.0160507
732.275	0.0159018
732.353	0.0159840
732.431	0.0158958
732.509	0.0158788
732.587	0.0159241
732.665	0.0157688
732.744	0.0159024
732.822	0.0158600
732.900	0.0159482
732.978	0.0159019
733.056	0.0158822
733.134	0.0159577
733.212	0.0159196
733.290	0.0158946
733.369	0.0160297
733.447	0.0158952
733.525	0.0160063
733.603	0.0162029
733.681	0.0162852
733.759	0.0164133
733.837	0.0163370
733.915	0.0162633
733.994	0.0164314
734.072	0.0163539
734.150	0.0161648
734.228	0.0162848
734.306	0.0160723
734.384	0.0161615
734.462	0.0162160
734.540	0.0162386
734.619	0.0160952
734.697	0.0161221
734.775	0.0161198
734.853	0.0160664
734.931	0.0162064
735.009	0.0162321
735.087	0.0161018
735.165	0.0162657
735.244	0.0162323
735.322	0.0160078
735.400	0.0161024
735.478	0.0162051
735.556	0.0161200
735.634	0.0162244
735.712	0.0160419
735.790	0.0162250
735.869	0.0161440
735.947	0.0161669
736.025	0.0160178
736.103	0.0159695
736.181	0.0160810
736.259	0.0161981
736.337	0.0160976
736.415	0.0159927
736.494	0.0160798
736.572	0.0161577
736.650	0.0160198
736.728	0.0159319
736.806	0.0159444
736.884	0.0160201
736.962	0.0158540
737.040	0.0159597
737.119	0.0161314
737.197	0.0160883
737.275	0.0160848
737.353	0.0161708
737.431	0.0162426
737.509	0.0162080
737.587	0.0161859
737.665	0.0162342
737.744	0.0162704
737.822	0.0162955
737.900	0.0163483
737.978	0.0164210
738.056	0.0164342
738.134	0.0164070
738.212	0.0163047
738.290	0.0162733
738.369	0.0164629
738.447	0.0162521
738.525	0.0163187
738.603	0.0162829
738.681	0.0162804
738.759	0.0163248
738.837	0.0161228
738.915	0.0162366
738.994	0.0161516
739.072	0.0161334
739.150	0.0161927
739.228	0.0160773
739.306	0.0160983
739.384	0.0160823
739.462	0.0160308
739.540	0.0159081
739.619	0.0160949
739.697	0.0160512
739.775	0.0160383
739.853	0.0160697
739.931	0.0160867
740.009	0.0160859
740.087	0.0160574
740.165	0.0160456
740.244	0.0160861
740.322	0.0161427
740.400	0.0161099
740.478	0.0161435
740.556	0.0162154
740.634	0.0162344
740.712	0.0161629
740.790	0.0163001
740.869	0.0162505
740.947	0.0161849
741.025	0.0162481
741.103	0.0160011
741.181	0.0161021
741.259	0.0160793
741.337	0.0159325
741.415	0.0160895
741.494	0.0159722
741.572	0.0161319
741.650	0.0160236
741.728	0.0160804
741.806	0.0161275
741.884	0.0160642
741.962	0.0160531
742.040	0.0161024
742.119	0.0160098
742.197	0.0159123
742.275	0.0160606
742.353	0.0160744
742.431	0.0160663
742.509	0.0160995
742.587	0.0161948
742.665	0.0160074
742.744	0.0158661
742.822	0.0161300
742.900	0.0160180
742.978	0.0159544
743.056	0.0161514
743.134	0.0159286
743.212	0.0160513
743.290	0.0160501
743.369	0.0159918
743.447	0.0161221
743.525	0.0159085
743.603	0.0159521
743.681	0.0160312
743.759	0.0161335
743.837	0.0159857
743.915	0.0160176
743.994	0.0159996
744.072	0.0161691
744.150	0.0161947
744.228	0.0160742
744.306	0.0160777
744.384	0.0161358
744.462	0.0161082
744.540	0.0162949
744.619	0.0161222
744.697	0.0162633
744.775	0.0164034
744.853	0.0162568
744.931	0.0163815
745.009	0.0164025
745.087	0.0164503
745.165	0.0163074
745.244	0.0161658
745.322	0.0164201
745.400	0.0164786
745.478	0.0162857
745.556	0.0163464
745.634	0.0162237
745.712	0.0162255
745.790	0.0162469
745.869	0.0162749
745.947	0.0163853
746.025	0.0161744
746.103	0.0161884
746.181	0.0162178
746.259	0.0160957
746.337	0.0160612
746.415	0.0161299
746.494	0.0161246
746.572	0.0160603
746.650	0.0159895
746.728	0.0161308
746.806	0.0160957
746.884	0.0159862
746.962	0.0160984
747.040	0.0161418
747.119	0.0161133
747.197	0.0161832
747.275	0.0160590
747.353	0.0161847
747.431	0.0161996
747.509	0.0162593
747.587	0.0162679
747.665	0.0161603
747.744	0.0162472
747.822	0.0161398
747.900	0.0161317
747.978	0.0162514
748.056	0.0161378
748.134	0.0161443
748.212	0.0162859
748.290	0.0161129
748.369	0.0161484
748.447	0.0161642
748.525	0.0160979
748.603	0.0159753
748.681	0.0161638
748.759	0.0158724
748.837	0.0160299
748.915	0.0159293
748.994	0.0159584
749.072	0.0159731
749.150	0.0159402
749.228	0.0159338
749.306	0.0159775
749.384	0.0159771
749.462	0.0158666
749.540	0.0159556
749.619	0.0159798
749.697	0.0161234
749.775	0.0159937
749.853	0.0160992
749.931	0.0162325
750.009	0.0161750
750.087	0.0161435
750.165	0.0162365
750.244	0.0161959
750.322	0.0162398
750.400	0.0161605
750.478	0.0161189
750.556	0.0161330
750.634	0.0162051
750.712	0.0161417
750.790	0.0160798
750.869	0.0161859
750.947	0.0160246
751.025	0.0161302
751.103	0.0161517
751.181	0.0160925
751.259	0.0162248
751.337	0.0161790
751.415	0.0162101
751.494	0.0162218
751.572	0.0160931
751.650	0.0162952
751.728	0.0163474
751.806	0.0164266
751.884	0.0162007
751.962	0.0162251
752.040	0.0163889
752.119	0.0164961
752.197	0.0164022
752.275	0.0162800
752.353	0.0162108
752.431	0.0162210
752.509	0.0162311
752.587	0.0162093
752.665	0.0163111
752.744	0.0162907
752.822	0.0161972
752.900	0.0160210
752.978	0.0163460
753.056	0.0161228
753.134	0.0161462
753.212	0.0162560
753.290	0.0162463
753.369	0.0162228
753.447	0.0160638
753.525	0.0162923
753.603	0.0162685
753.681	0.0161558
753.759	0.0161565
753.837	0.0162126
753.915	0.0161607
753.994	0.0163422
754.072	0.0161765
754.150	0.0161124
754.228	0.0160971
754.306	0.0160091
754.384	0.0163081
754.462	0.0162348
754.540	0.0161881
754.619	0.0162958
754.697	0.0161176
754.775	0.0162004
754.853	0.0162378
754.931	0.0162832
755.009	0.0163429
755.087	0.0162467
755.165	0.0161679
755.244	0.0160617
755.322	0.0160976
755.400	0.0161849
755.478	0.0160003
755.556	0.0160876
755.634	0.0160743
755.712	0.0159536
755.790	0.0160148
755.869	0.0160448
755.947	0.0161069
756.025	0.0160533
756.103	0.0161769
756.181	0.0162418
756.259	0.0161758
756.337	0.0161829
756.415	0.0161680
756.494	0.0163078
756.572	0.0160492
756.650	0.0161964
756.728	0.0161753
756.806	0.0162107
756.884	0.0161946
756.962	0.0161575
757.040	0.0162952
757.119	0.0162108
757.197	0.0161951
757.275	0.0162431
757.353	0.0161520
757.431	0.0160885
757.509	0.0161731
757.587	0.0163405
757.665	0.0162427
757.744	0.0161417
757.822	0.0161160
757.900	0.0161393
757.978	0.0161342
758.056	0.0161719
758.134	0.0163512
758.212	0.0161105
758.290	0.0161345
758.369	0.0162368
758.447	0.0162644
758.525	0.0162419
758.603	0.0161906
758.681	0.0161792
758.759	0.0161739
758.837	0.0161301
758.915	0.0162276
758.994	0.0162927
759.072	0.0161975
759.150	0.0161015
759.228	0.0163290
759.306	0.0161613
759.384	0.0163031
759.462	0.0162881
759.540	0.0162511
759.619	0.0162212
759.697	0.0163159
759.775	0.0163918
759.853	0.0162514
759.931	0.0163039
760.009	0.0162687
760.087	0.0161823
760.165	0.0161922
760.244	0.0162154
760.322	0.0161819
760.400	0.0161601
760.478	0.0162364
760.556	0.0163027
760.634	0.0161995
760.712	0.0160599
760.790	0.0162005
760.869	0.0162039
760.947	0.0161065
761.025	0.0162016
761.103	0.0161562
761.181	0.0161916
761.259	0.0161883
761.337	0.0160386
761.415	0.0162463
761.494	0.0161228
761.572	0.0161655
761.650	0.0162185
761.728	0.0161122
761.806	0.0162412
761.884	0.0161986
761.962	0.0162288
762.040	0.0161977
762.119	0.0161649
762.197	0.0163280
762.275	0.0162731
762.353	0.0161624
762.431	0.0162844
762.509	0.0162754
762.587	0.0162432
762.665	0.0161421
762.744	0.0160943
762.822	0.0160424
762.900	0.0161482
762.978	0.0160358
763.056	0.0159636
763.134	0.0159499
763.212	0.0160598
763.290	0.0159821
763.369	0.0159641
763.447	0.0159895
763.525	0.0161721
763.603	0.0159576
763.681	0.0160941
763.759	0.0160646
763.837	0.0160654
763.915	0.0161713
763.994	0.0161279
764.072	0.0161787
764.150	0.0161635
764.228	0.0162022
764.306	0.0161708
764.384	0.0159811
764.462	0.0161715
764.540	0.0161674
764.619	0.0161053
764.697	0.0159996
764.775	0.0160943
764.853	0.0161411
764.931	0.0161304
765.009	0.0161544
765.087	0.0162305
765.165	0.0160792
765.244	0.0160298
765.322	0.0163253
765.400	0.0161931
765.478	0.0160810
765.556	0.0160266
765.634	0.0161605
765.712	0.0162753
765.790	0.0162195
765.869	0.0161134
765.947	0.0161774
766.025	0.0161753
766.103	0.0161615
766.181	0.0161242
766.259	0.0162495
766.337	0.0161327
766.415	0.0161008
766.494	0.0162553
766.572	0.0163175
766.650	0.0161950
766.728	0.0161160
766.806	0.0160913
766.884	0.0161632
766.962	0.0161200
767.040	0.0162755
767.119	0.0161983
767.197	0.0162759
767.275	0.0161316
767.353	0.0161537
767.431	0.0162096
767.509	0.0162598
767.587	0.0162234
767.665	0.0160700
767.744	0.0160621
767.822	0.0161187
767.900	0.0161906
767.978	0.0161670
768.056	0.0161892
768.134	0.0161362
768.212	0.0162025
768.290	0.0161623
768.369	0.0162596
768.447	0.0162163
768.525	0.0160390
768.603	0.0161251
768.681	0.0161917
768.759	0.0161459
768.837	0.0161013
768.915	0.0161932
768.994	0.0160958
769.072	0.0161777
769.150	0.0162104
769.228	0.0161951
769.306	0.0161457
769.384	0.0163306
769.462	0.0161983
769.540	0.0161335
769.619	0.0161835
769.697	0.0161690
769.775	0.0161437
769.853	0.0161023
769.931	0.0162846
770.009	0.0160432
770.087	0.0162070
770.165	0.0160821
770.244	0.0159770
770.322	0.0160833
770.400	0.0160976
770.478	0.0161720
770.556	0.0159757
770.634	0.0160638
770.712	0.0161282
770.790	0.0161476
770.869	0.0160587
770.947	0.0159757
771.025	0.0159945
771.103	0.0162278
771.181	0.0160985
771.259	0.0161941
771.337	0.0161628
771.415	0.0162292
771.494	0.0161025
771.572	0.0162730
771.650	0.0162435
771.728	0.0161855
771.806	0.0163232
771.884	0.0163125
771.962	0.0161575
772.040	0.0162560
772.119	0.0161470
772.197	0.0161526
772.275	0.0162748
772.353	0.0161514
772.431	0.0160744
772.509	0.0161669
772.587	0.0162492
772.665	0.0161096
772.744	0.0161647
772.822	0.0160983
772.900	0.0160925
772.978	0.0159978
773.056	0.0160110
773.134	0.0161691
773.212	0.0161513
773.290	0.0161244
773.369	0.0161291
773.447	0.0161629
773.525	0.0161895
773.603	0.0161510
773.681	0.0161548
773.759	0.0160336
773.837	0.0162002
773.915	0.0161484
773.994	0.0161940
774.072	0.0161709
774.150	0.0162962
774.228	0.0160244
774.306	0.0160046
774.384	0.0161293
774.462	0.0160664
774.540	0.0160784
774.619	0.0161012
774.697	0.0160506
774.775	0.0161283
774.853	0.0162131
774.931	0.0161437
775.009	0.0161961
775.087	0.0161863
775.165	0.0161637
775.244	0.0161989
775.322	0.0162717
775.400	0.0160910
775.478	0.0161881
775.556	0.0162245
775.634	0.0161755
775.712	0.0162181
775.790	0.0162336
775.869	0.0161111
775.947	0.0161422
776.025	0.0162937
776.103	0.0163166
776.181	0.0162196
776.259	0.0160792
776.337	0.0162092
776.415	0.0160703
776.494	0.0161880
776.572	0.0160440
776.650	0.0160497
776.728	0.0163245
776.806	0.0161979
776.884	0.0160670
776.962	0.0162093
777.040	0.0162728
777.119	0.0161777
777.197	0.0161184
777.275	0.0163149
777.353	0.0161438
777.431	0.0162178
777.509	0.0160676
777.587	0.0159851
777.665	0.0161157
777.744	0.0162197
777.822	0.0162884
777.900	0.0159745
777.978	0.0160409
778.056	0.0162051
778.134	0.0160639
778.212	0.0159935
778.290	0.0161063
778.369	0.0161637
778.447	0.0161740
778.525	0.0161556
778.603	0.0162189
778.681	0.0161970
778.759	0.0160769
778.837	0.0162178
778.915	0.0162031
778.994	0.0162319
779.072	0.0161607
779.150	0.0161690
779.228	0.0162115
779.306	0.0162229
779.384	0.0163083
779.462	0.0162303
779.540	0.0160381
779.619	0.0161571
779.697	0.0163083
779.775	0.0161475
779.853	0.0160643
779.931	0.0162646
780.009	0.0161993
780.087	0.0162766
780.165	0.0161560
780.244	0.0161000
780.322	0.0161147
780.400	0.0160399
780.478	0.0160819
780.556	0.0162904
780.634	0.0159711
780.712	0.0161805
780.790	0.0161845
780.869	0.0162354
780.947	0.0161362
781.025	0.0161246
781.103	0.0161217
781.181	0.0161732
781.259	0.0161433
781.337	0.0162091
781.415	0.0162323
781.494	0.0162318
781.572	0.0160910
781.650	0.0160336
781.728	0.0160862
781.806	0.0161974
781.884	0.0161279
781.962	0.0161006
782.040	0.0160218
782.119	0.0159898
782.197	0.0160794
782.275	0.0160471
782.353	0.0160254
782.431	0.0160697
782.509	0.0161345
782.587	0.0161134
782.665	0.0161433
782.744	0.0161492
782.822	0.0160278
782.900	0.0160160
782.978	0.0160104
783.056	0.0161160
783.134	0.0161566
783.212	0.0161736
783.290	0.0162537
783.369	0.0162572
783.447	0.0162067
783.525	0.0162400
783.603	0.0164330
783.681	0.0161544
783.759	0.0160856
783.837	0.0161684
783.915	0.0162360
783.994	0.0162153
784.072	0.0161988
784.150	0.0163297
784.228	0.0161800
784.306	0.0161621
784.384	0.0161687
784.462	0.0161823
784.540	0.0160965
784.619	0.0162589
784.697	0.0161066
784.775	0.0162429
784.853	0.0162343
784.931	0.0161987
785.009	0.0161718
785.087	0.0161194
785.165	0.0160327
785.244	0.0161746
785.322	0.0161600
785.400	0.0160429
785.478	0.0160280
785.556	0.0160439
785.634	0.0160992
785.712	0.0162061
785.790	0.0159397
785.869	0.0160854
785.947	0.0161475
786.025	0.0160773
786.103	0.0159991
786.181	0.0160901
786.259	0.0160880
786.337	0.0161243
786.415	0.0160402
786.494	0.0161306
786.572	0.0161321
786.650	0.0161559
786.728	0.0161806
786.806	0.0160686
786.884	0.0160218
786.962	0.0160279
787.040	0.0159440
787.119	0.0160162
787.197	0.0160053
787.275	0.0159508
787.353	0.0158704
787.431	0.0160460
787.509	0.0159457
787.587	0.0158607
787.665	0.0160116
787.744	0.0160069
787.822	0.0159999
787.900	0.0160483
787.978	0.0161512
788.056	0.0160986
788.134	0.0162270
788.212	0.0162357
788.290	0.0161060
788.369	0.0161118
788.447	0.0163652
788.525	0.0161516
788.603	0.0161858
788.681	0.0163107
788.759	0.0162333
788.837	0.0161720
788.915	0.0162350
788.994	0.0161298
789.072	0.0160809
789.150	0.0162111
789.228	0.0162679
789.306	0.0162327
789.384	0.0162968
789.462	0.0162092
789.540	0.0162653
789.619	0.0161776
789.697	0.0160683
789.775	0.0162022
789.853	0.0162477
789.931	0.0162389
790.009	0.0161417
790.087	0.0160401
790.165	0.0161087
790.244	0.0161219
790.322	0.0161002
790.400	0.0161183
790.478	0.0159695
790.556	0.0160095
790.634	0.0159369
790.712	0.0160444
790.790	0.0160118
790.869	0.0160894
790.947	0.0161575
791.025	0.0160973
791.103	0.0160371
791.181	0.0160480
791.259	0.0160050
791.337	0.0158032
791.415	0.0160854
791.494	0.0159132
791.572	0.0160109
791.650	0.0161104
791.728	0.0161916
791.806	0.0161657
791.884	0.0162074
791.962	0.0160201
792.040	0.0160729
792.119	0.0160054
792.197	0.0160204
792.275	0.0160382
792.353	0.0159125
792.431	0.0161877
792.509	0.0159934
792.587	0.0160369
792.665	0.0160299
792.744	0.0161539
792.822	0.0160829
792.900	0.0159366
792.978	0.0161419
793.056	0.0160383
793.134	0.0161787
793.212	0.0161681
793.290	0.0161098
793.369	0.0160857
793.447	0.0161314
793.525	0.0160792
793.603	0.0158768
793.681	0.0162312
793.759	0.0160979
793.837	0.0160912
793.915	0.0162786
793.994	0.0162496
794.072	0.0162445
794.150	0.0162265
794.228	0.0161118
794.306	0.0162247
794.384	0.0162047
794.462	0.0161975
794.540	0.0161083
794.619	0.0161935
794.697	0.0161169
794.775	0.0160286
794.853	0.0161375
794.931	0.0160256
795.009	0.0160639
795.087	0.0161327
795.165	0.0159944
795.244	0.0160429
795.322	0.0160880
795.400	0.0161223
795.478	0.0160875
795.556	0.0159192
795.634	0.0160276
795.712	0.0159908
795.790	0.0160760
795.869	0.0161153
795.947	0.0159727
796.025	0.0160920
796.103	0.0160402
796.181	0.0160586
796.259	0.0160661
796.337	0.0160195
796.415	0.0161189
796.494	0.0160670
796.572	0.0160351
796.650	0.0160321
796.728	0.0160149
796.806	0.0160417
796.884	0.0159368
796.962	0.0159377
797.040	0.0158727
797.119	0.0160723
797.197	0.0161600
797.275	0.0160726
797.353	0.0159608
797.431	0.0160508
797.509	0.0159309
797.587	0.0161585
797.665	0.0160042
797.744	0.0160997
797.822	0.0160481
797.900	0.0160549
797.978	0.0161443
798.056	0.0160833
798.134	0.0160020
798.212	0.0160093
798.290	0.0160480
798.369	0.0161490
798.447	0.0162001
798.525	0.0161317
798.603	0.0161343
798.681	0.0161206
798.759	0.0161602
798.837	0.0162077
798.915	0.0161765
798.994	0.0162496
799.072	0.0161407
799.150	0.0160713
799.228	0.0162329
799.306	0.0162539
799.384	0.0161149
799.462	0.0160012
799.540	0.0161026
799.619	0.0161568
799.697	0.0160213
799.775	0.0160971
799.853	0.0161649
799.931	0.0162370
800.009	0.0162395
800.087	0.0163054
800.165	0.0162846
800.244	0.0160983
800.322	0.0162383
800.400	0.0163587
800.478	0.0162965
800.556	0.0161066
800.634	0.0162015
800.712	0.0162212
800.790	0.0162242
800.869	0.0161872
800.947	0.0164462
801.025	0.0163132
801.103	0.0161700
801.181	0.0163391
801.259	0.0163403
801.337	0.0162421
801.415	0.0162663
801.494	0.0162097
801.572	0.0162060
801.650	0.0161538
801.728	0.0163309
801.806	0.0161642
801.884	0.0161504
801.962	0.0161140
802.040	0.0159830
802.119	0.0161251
802.197	0.0160545
802.275	0.0160120
802.353	0.0160570
802.431	0.0159529
802.509	0.0158369
802.587	0.0159391
802.665	0.0159306
802.744	0.0160060
802.822	0.0159624
802.900	0.0159815
802.978	0.0158449
803.056	0.0159237
803.134	0.0158979
803.212	0.0160101
803.290	0.0160566
803.369	0.0160261
803.447	0.0159190
803.525	0.0160025
803.603	0.0159686
803.681	0.0161042
803.759	0.0161039
803.837	0.0160113
803.915	0.0160978
803.994	0.0160695
804.072	0.0159361
804.150	0.0162411
804.228	0.0162119
804.306	0.0161781
804.384	0.0161558
804.462	0.0160954
804.540	0.0162556
804.619	0.0162112
804.697	0.0161416
804.775	0.0160400
804.853	0.0160805
804.931	0.0161612
805.009	0.0162366
805.087	0.0160970
805.165	0.0162299
805.244	0.0162023
805.322	0.0161710
805.400	0.0162221
805.478	0.0162516
805.556	0.0161731
805.634	0.0161754
805.712	0.0161756
805.790	0.0161541
805.869	0.0161944
805.947	0.0160919
806.025	0.0161425
806.103	0.0162371
806.181	0.0162749
806.259	0.0161012
806.337	0.0161026
806.415	0.0162327
806.494	0.0162609
806.572	0.0161528
806.650	0.0161640
806.728	0.0162096
806.806	0.0161370
806.884	0.0161254
806.962	0.0161057
807.040	0.0162589
807.119	0.0161126
807.197	0.0160185
807.275	0.0160405
807.353	0.0160638
807.431	0.0159152
807.509	0.0159034
807.587	0.0161635
807.665	0.0161173
807.744	0.0159971
807.822	0.0160337
807.900	0.0160743
807.978	0.0161417
808.056	0.0160306
808.134	0.0161221
808.212	0.0161358
808.290	0.0159274
808.369	0.0162505
808.447	0.0161881
808.525	0.0160297
808.603	0.0161350
808.681	0.0160505
808.759	0.0160995
808.837	0.0160014
808.915	0.0160788
808.994	0.0160669
809.072	0.0161183
809.150	0.0160640
809.228	0.0161068
809.306	0.0160529
809.384	0.0160719
809.462	0.0160525
809.540	0.0161304
809.619	0.0161147
809.697	0.0161559
809.775	0.0160126
809.853	0.0161071
809.931	0.0161142
810.009	0.0160349
810.087	0.0159602
810.165	0.0160783
810.244	0.0161301
810.322	0.0161731
810.400	0.0160651
810.478	0.0161528
810.556	0.0161083
810.634	0.0159756
810.712	0.0160892
810.790	0.0160799
810.869	0.0161555
810.947	0.0161038
811.025	0.0160380
811.103	0.0160682
811.181	0.0161171
811.259	0.0161353
811.337	0.0160683
811.415	0.0160955
811.494	0.0160205
811.572	0.0161218
811.650	0.0161165
811.728	0.0160953
811.806	0.0160307
811.884	0.0158730
811.962	0.0159718
812.040	0.0161226
812.119	0.0160344
812.197	0.0160994
812.275	0.0160020
812.353	0.0160509
812.431	0.0161034
812.509	0.0160555
812.587	0.0161603
812.665	0.0160562
812.744	0.0161477
812.822	0.0161233
812.900	0.0161529
812.978	0.0159905
813.056	0.0160342
813.134	0.0161692
813.212	0.0161777
813.290	0.0160947
813.369	0.0162135
813.447	0.0160234
813.525	0.0161076
813.603	0.0161713
813.681	0.0161021
813.759	0.0159451
813.837	0.0160640
813.915	0.0160767
813.994	0.0160494
814.072	0.0160426
814.150	0.0160643
814.228	0.0161427
814.306	0.0161227
814.384	0.0159026
814.462	0.0160692
814.540	0.0158994
814.619	0.0159879
814.697	0.0160147
814.775	0.0160775
814.853	0.0160511
814.931	0.0160744
815.009	0.0160828
815.087	0.0158844
815.165	0.0159181
815.244	0.0159009
815.322	0.0159651
815.400	0.0161043
815.478	0.0159390
815.556	0.0159300
815.634	0.0160660
815.712	0.0160378
815.790	0.0159322
815.869	0.0160101
815.947	0.0159843
816.025	0.0160269
816.103	0.0161368
816.181	0.0160098
816.259	0.0160548
816.337	0.0161188
816.415	0.0158973
816.494	0.0160637
816.572	0.0160310
816.650	0.0161045
816.728	0.0160406
816.806	0.0160838
816.884	0.0160453
816.962	0.0161491
817.040	0.0161404
817.119	0.0161333
817.197	0.0162107
817.275	0.0162177
817.353	0.0161291
817.431	0.0162231
817.509	0.0162392
817.587	0.0163178
817.665	0.0162483
817.744	0.0161624
817.822	0.0161388
817.900	0.0162114
817.978	0.0163282
818.056	0.0163188
818.134	0.0162741
818.212	0.0163728
818.290	0.0162579
818.369	0.0161922
818.447	0.0163218
818.525	0.0162380
818.603	0.0161408
818.681	0.0163463
818.759	0.0164066
818.837	0.0161899
818.915	0.0161928
818.994	0.0162389
819.072	0.0162524
819.150	0.0162177
819.228	0.0163325
819.306	0.0162379
819.384	0.0161736
819.462	0.0161407
819.540	0.0162030
819.619	0.0162474
819.697	0.0162056
819.775	0.0160706
819.853	0.0161079
819.931	0.0160483
820.009	0.0161366
820.087	0.0162093
820.165	0.0160983
820.244	0.0162041
820.322	0.0163410
820.400	0.0161068
820.478	0.0160040
820.556	0.0160224
820.634	0.0160515
820.712	0.0160893
820.790	0.0159399
820.869	0.0160033
820.947	0.0159172
821.025	0.0159483
821.103	0.0160492
821.181	0.0159962
821.259	0.0160423
821.337	0.0159894
821.415	0.0160170
821.494	0.0161397
821.572	0.0160110
821.650	0.0158777
821.728	0.0159647
821.806	0.0160706
821.884	0.0160545
821.962	0.0160402
822.040	0.0159895
822.119	0.0160685
822.197	0.0159805
822.275	0.0160073
822.353	0.0160896
822.431	0.0161665
822.509	0.0160435
822.587	0.0159924
822.665	0.0160925
822.744	0.0160817
822.822	0.0160311
822.900	0.0160928
822.978	0.0160753
823.056	0.0159275
823.134	0.0159953
823.212	0.0161684
823.290	0.0160783
823.369	0.0162552
823.447	0.0160263
823.525	0.0161142
823.603	0.0161343
823.681	0.0161608
823.759	0.0161572
823.837	0.0162305
823.915	0.0163116
823.994	0.0162555
824.072	0.0162100
824.150	0.0162613
824.228	0.0161954
824.306	0.0162631
824.384	0.0162231
824.462	0.0162038
824.540	0.0162806
824.619	0.0160710
824.697	0.0163174
824.775	0.0162118
824.853	0.0161256
824.931	0.0161850
825.009	0.0163944
825.087	0.0164214
825.165	0.0163070
825.244	0.0163419
825.322	0.0163087
825.400	0.0163742
825.478	0.0162298
825.556	0.0162687
825.634	0.0161594
825.712	0.0161781
825.790	0.0162020
825.869	0.0163005
825.947	0.0162284
826.025	0.0162377
826.103	0.0162640
826.181	0.0161286
826.259	0.0162476
826.337	0.0162051
826.415	0.0162526
826.494	0.0161169
826.572	0.0160699
826.650	0.0160403
826.728	0.0161677
826.806	0.0160087
826.884	0.0160717
826.962	0.0161538
827.040	0.0161700
827.119	0.0160741
827.197	0.0159548
827.275	0.0160760
827.353	0.0161217
827.431	0.0160870
827.509	0.0160596
827.587	0.0160165
827.665	0.0159781
827.744	0.0159834
827.822	0.0160336
827.900	0.0160069
827.978	0.0160577
828.056	0.0160632
828.134	0.0161561
828.212	0.0160535
828.290	0.0161822
828.369	0.0159849
828.447	0.0161280
828.525	0.0161511
828.603	0.0160244
828.681	0.0161739
828.759	0.0160813
828.837	0.0160695
828.915	0.0161658
828.994	0.0160994
829.072	0.0161466
829.150	0.0161160
829.228	0.0160687
829.306	0.0160896
829.384	0.0160921
829.462	0.0160261
829.540	0.0161163
829.619	0.0160089
829.697	0.0160751
829.775	0.0161952
829.853	0.0161498
829.931	0.0161530
830.009	0.0160973
830.087	0.0160048
830.165	0.0161333
830.244	0.0162303
830.322	0.0162928
830.400	0.0161868
830.478	0.0162675
830.556	0.0163360
830.634	0.0162455
830.712	0.0162498
830.790	0.0161351
830.869	0.0162958
830.947	0.0162382
831.025	0.0160690
831.103	0.0162929
831.181	0.0164182
831.259	0.0162334
831.337	0.0162004
831.415	0.0162776
831.494	0.0161902
831.572	0.0161718
831.650	0.0162244
831.728	0.0161432
831.806	0.0162069
831.884	0.0161809
831.962	0.0161623
832.040	0.0161868
832.119	0.0161985
832.197	0.0161858
832.275	0.0160105
832.353	0.0161847
832.431	0.0163103
832.509	0.0161023
832.587	0.0161143
832.665	0.0161153
832.744	0.0160300
832.822	0.0160672
832.900	0.0161192
832.978	0.0159966
833.056	0.0160793
833.134	0.0160886
833.212	0.0161021
833.290	0.0161803
833.369	0.0160953
833.447	0.0159681
833.525	0.0162633
833.603	0.0160958
833.681	0.0159855
833.759	0.0160441
833.837	0.0160184
833.915	0.0159682
833.994	0.0162580
834.072	0.0160902
834.150	0.0161002
834.228	0.0160849
834.306	0.0162041
834.384	0.0161961
834.462	0.0161792
834.540	0.0161842
834.619	0.0161764
834.697	0.0162713
834.775	0.0162783
834.853	0.0161199
834.931	0.0161927
835.009	0.0161269
835.087	0.0160506
835.165	0.0160064
835.244	0.0161197
835.322	0.0162119
835.400	0.0160899
835.478	0.0160616
835.556	0.0160750
835.634	0.0160368
835.712	0.0160808
835.790	0.0161452
835.869	0.0161138
835.947	0.0161084
836.025	0.0159203
836.103	0.0159867
836.181	0.0160162
836.259	0.0160300
836.337	0.0162514
836.415	0.0160086
836.494	0.0160313
836.572	0.0160441
836.650	0.0161575
836.728	0.0161002
836.806	0.0161997
836.884	0.0162405
836.962	0.0162582
837.040	0.0162321
837.119	0.0162528
837.197	0.0162496
837.275	0.0162160
837.353	0.0161616
837.431	0.0161121
837.509	0.0161880
837.587	0.0161119
837.665	0.0162511
837.744	0.0162078
837.822	0.0160662
837.900	0.0160937
837.978	0.0160861
838.056	0.0160616
838.134	0.0162404
838.212	0.0161211
838.290	0.0161686
838.369	0.0159824
838.447	0.0160929
838.525	0.0162400
838.603	0.0162214
838.681	0.0160732
838.759	0.0162243
838.837	0.0163586
838.915	0.0162105
838.994	0.0161078
839.072	0.0162512
839.150	0.0161639
839.228	0.0160999
839.306	0.0162354
839.384	0.0161603
839.462	0.0161853
839.540	0.0161453
839.619	0.0162202
839.697	0.0161497
839.775	0.0161732
839.853	0.0162383
839.931	0.0162996
840.009	0.0161123
840.087	0.0162068
840.165	0.0161208
840.244	0.0161812
840.322	0.0161102
840.400	0.0161343
840.478	0.0161916
840.556	0.0162027
840.634	0.0163399
840.712	0.0162662
840.790	0.0160898
840.869	0.0162437
840.947	0.0162657
841.025	0.0161063
841.103	0.0163035
841.181	0.0161352
841.259	0.0161067
841.337	0.0162780
841.415	0.0162920
841.494	0.0161731
841.572	0.0160955
841.650	0.0161244
841.728	0.0161749
841.806	0.0160632
841.884	0.0161787
841.962	0.0161552
842.040	0.0161166
842.119	0.0160384
842.197	0.0160945
842.275	0.0160829
842.353	0.0160643
842.431	0.0160413
842.509	0.0160835
842.587	0.0160806
842.665	0.0159596
842.744	0.0160722
842.822	0.0161185
842.900	0.0159648
842.978	0.0159552
843.056	0.0161018
843.134	0.0159952
843.212	0.0160062
843.290	0.0160339
843.369	0.0161492
843.447	0.0162067
843.525	0.0161115
843.603	0.0161475
843.681	0.0160639
843.759	0.0162486
843.837	0.0162161
843.915	0.0163101
843.994	0.0164310
844.072	0.0162628
844.150	0.0161320
844.228	0.0161451
844.306	0.0161514
844.384	0.0162761
844.462	0.0161101
844.540	0.0160723
844.619	0.0162470
844.697	0.0162135
844.775	0.0160195
844.853	0.0161395
844.931	0.0161331
845.009	0.0160743
845.087	0.0161864
845.165	0.0162962
845.244	0.0160320
845.322	0.0160930
845.400	0.0161262
845.478	0.0160989
845.556	0.0161053
845.634	0.0161197
845.712	0.0160992
845.790	0.0161436
845.869	0.0161494
845.947	0.0161654
846.025	0.0162138
846.103	0.0161337
846.181	0.0161757
846.259	0.0161011
846.337	0.0160461
846.415	0.0160995
846.494	0.0160809
846.572	0.0160645
846.650	0.0161983
846.728	0.0162192
846.806	0.0160622
846.884	0.0160635
846.962	0.0160432
847.040	0.0161645
847.119	0.0160126
847.197	0.0159374
847.275	0.0160951
847.353	0.0163153
847.431	0.0161118
847.509	0.0161075
847.587	0.0161829
847.665	0.0162254
847.744	0.0160171
847.822	0.0161999
847.900	0.0160681
847.978	0.0160820
848.056	0.0161736
848.134	0.0163034
848.212	0.0160545
848.290	0.0161245
848.369	0.0160445
848.447	0.0160172
848.525	0.0160661
848.603	0.0160753
848.681	0.0161941
848.759	0.0160312
848.837	0.0161322
848.915	0.0160188
848.994	0.0161095
849.072	0.0160239
849.150	0.0159278
849.228	0.0159405
849.306	0.0160098
849.384	0.0160569
849.462	0.0159126
849.540	0.0159040
849.619	0.0161305
849.697	0.0159378
849.775	0.0159615
849.853	0.0160989
849.931	0.0160162
850.009	0.0160234
850.087	0.0161797
850.165	0.0160848
850.244	0.0159669
850.322	0.0161297
850.400	0.0161685
850.478	0.0161612
850.556	0.0161643
850.634	0.0162065
850.712	0.0163306
850.790	0.0162848
850.869	0.0161974
850.947	0.0161988
851.025	0.0162512
851.103	0.0161277
851.181	0.0162722
851.259	0.0161192
851.337	0.0161018
851.415	0.0163702
851.494	0.0161845
851.572	0.0161595
851.650	0.0162337
851.728	0.0160503
851.806	0.0162218
851.884	0.0160531
851.962	0.0160746
852.040	0.0162940
852.119	0.0161820
852.197	0.0161213
852.275	0.0160551
852.353	0.0161214
852.431	0.0160560
852.509	0.0162199
852.587	0.0160835
852.665	0.0160505
852.744	0.0161425
852.822	0.0162160
852.900	0.0162262
852.978	0.0162322
853.056	0.0162078
853.134	0.0162171
853.212	0.0160690
853.290	0.0160275
853.369	0.0162538
853.447	0.0162014
853.525	0.0162312
853.603	0.0162480
853.681	0.0159744
853.759	0.0160148
853.837	0.0161320
853.915	0.0161308
853.994	0.0161455
854.072	0.0162179
854.150	0.0160181
854.228	0.0160858
854.306	0.0160632
854.384	0.0161024
854.462	0.0160793
854.540	0.0161197
854.619	0.0161208
854.697	0.0161874
854.775	0.0161409
854.853	0.0161906
854.931	0.0161519
855.009	0.0160240
855.087	0.0161812
855.165	0.0160107
855.244	0.0160125
855.322	0.0161076
855.400	0.0160788
855.478	0.0160355
855.556	0.0160110
855.634	0.0161617
855.712	0.0162586
855.790	0.0159684
855.869	0.0160387
855.947	0.0160281
856.025	0.0161105
856.103	0.0161167
856.181	0.0160586
856.259	0.0161010
856.337	0.0161102
856.415	0.0158966
856.494	0.0160058
856.572	0.0160818
856.650	0.0161254
856.728	0.0161640
856.806	0.0160888
856.884	0.0160420
856.962	0.0161015
857.040	0.0161324
857.119	0.0161336
857.197	0.0161972
857.275	0.0161572
857.353	0.0160928
857.431	0.0161160
857.509	0.0161613
857.587	0.0160879
857.665	0.0161090
857.744	0.0161160
857.822	0.0160802
857.900	0.0161273
857.978	0.0160530
858.056	0.0160991
858.134	0.0160614
858.212	0.0162395
858.290	0.0160283
858.369	0.0161546
858.447	0.0161848
858.525	0.0161741
858.603	0.0160054
858.681	0.0161304
858.759	0.0161609
858.837	0.0161961
858.915	0.0160807
858.994	0.0161532
859.072	0.0162717
859.150	0.0161292
859.228	0.0160677
859.306	0.0160600
859.384	0.0161620
859.462	0.0162146
859.540	0.0161842
859.619	0.0161996
859.697	0.0161860
859.775	0.0161551
859.853	0.0161620
859.931	0.0161702
860.009	0.0162286
860.087	0.0161901
860.165	0.0161106
860.244	0.0161804
860.322	0.0161887
860.400	0.0162797
860.478	0.0162640
860.556	0.0161750
860.634	0.0162113
860.712	0.0162321
860.790	0.0162818
860.869	0.0162754
860.947	0.0164375
861.025	0.0162696
861.103	0.0161507
861.181	0.0162963
861.259	0.0162418
861.337	0.0162216
861.415	0.0162726
861.494	0.0162157
861.572	0.0162053
861.650	0.0163251
861.728	0.0161830
861.806	0.0160921
861.884	0.0162924
861.962	0.0160562
862.040	0.0161422
862.119	0.0161600
862.197	0.0161748
862.275	0.0160046
862.353	0.0161307
862.431	0.0161652
862.509	0.0160844
862.587	0.0160362
862.665	0.0160584
862.744	0.0161905
862.822	0.0161026
862.900	0.0160123
862.978	0.0160023
863.056	0.0161578
863.134	0.0161853
863.212	0.0160175
863.290	0.0160382
863.369	0.0162119
863.447	0.0161647
863.525	0.0159630
863.603	0.0160759
863.681	0.0162315
863.759	0.0160756
863.837	0.0160743
863.915	0.0161263
863.994	0.0161176
864.072	0.0161525
864.150	0.0161251
864.228	0.0161719
864.306	0.0163790
864.384	0.0163074
864.462	0.0161359
864.540	0.0161919
864.619	0.0162546
864.697	0.0161889
864.775	0.0162390
864.853	0.0162312
864.931	0.0162228
865.009	0.0161129
865.087	0.0161885
865.165	0.0160960
865.244	0.0161906
865.322	0.0162691
865.400	0.0160614
865.478	0.0160792
865.556	0.0162642
865.634	0.0162310
865.712	0.0163070
865.790	0.0161840
865.869	0.0160459
865.947	0.0161398
866.025	0.0162396
866.103	0.0161649
866.181	0.0161981
866.259	0.0161787
866.337	0.0162817
866.415	0.0162849
866.494	0.0160490
866.572	0.0162627
866.650	0.0161391
866.728	0.0160979
866.806	0.0161368
866.884	0.0161321
866.962	0.0161509
867.040	0.0162983
867.119	0.0162804
867.197	0.0162138
867.275	0.0161094
867.353	0.0161064
867.431	0.0162477
867.509	0.0161537
867.587	0.0161973
867.665	0.0162050
867.744	0.0162462
867.822	0.0162215
867.900	0.0160877
867.978	0.0162485
868.056	0.0162100
868.134	0.0160905
868.212	0.0161592
868.290	0.0161488
868.369	0.0161605
868.447	0.0161192
868.525	0.0161207
868.603	0.0159948
868.681	0.0161100
868.759	0.0161021
868.837	0.0160935
868.915	0.0159438
868.994	0.0162100
869.072	0.0160925
869.150	0.0161276
869.228	0.0162959
869.306	0.0162066
869.384	0.0160295
869.462	0.0161628
869.540	0.0160699
869.619	0.0160525
869.697	0.0159516
869.775	0.0161740
869.853	0.0159557
869.931	0.0160096
870.009	0.0161440
870.087	0.0160441
870.165	0.0159851
870.244	0.0160971
870.322	0.0160755
870.400	0.0161408
870.478	0.0160973
870.556	0.0159644
870.634	0.0161144
870.712	0.0161674
870.790	0.0158868
870.869	0.0161269
870.947	0.0162523
871.025	0.0162701
871.103	0.0162013
871.181	0.0161560
871.259	0.0161440
871.337	0.0159757
871.415	0.0161717
871.494	0.0161566
871.572	0.0162492
871.650	0.0160588
871.728	0.0159895
871.806	0.0160809
871.884	0.0160030
871.962	0.0159496
872.040	0.0161717
872.119	0.0159454
872.197	0.0160568
872.275	0.0161651
872.353	0.0162222
872.431	0.0162284
872.509	0.0160974
872.587	0.0159760
872.665	0.0161391
872.744	0.0162241
872.822	0.0162162
872.900	0.0161980
872.978	0.0160320
873.056	0.0161084
873.134	0.0162192
873.212	0.0161842
873.290	0.0162012
873.369	0.0160857
873.447	0.0160851
873.525	0.0162601
873.603	0.0161064
873.681	0.0160046
873.759	0.0161025
873.837	0.0160781
873.915	0.0161983
873.994	0.0160303
874.072	0.0160609
874.150	0.0161046
874.228	0.0161982
874.306	0.0161546
874.384	0.0160479
874.462	0.0161694
874.540	0.0162344
874.619	0.0162034
874.697	0.0162045
874.775	0.0161276
874.853	0.0160818
874.931	0.0161439
875.009	0.0161250
875.087	0.0160957
875.165	0.0160642
875.244	0.0161626
875.322	0.0159711
875.400	0.0160329
875.478	0.0161002
875.556	0.0161375
875.634	0.0159595
875.712	0.0161468
875.790	0.0161131
875.869	0.0162176
875.947	0.0160090
876.025	0.0160520
876.103	0.0160480
876.181	0.0160821
876.259	0.0160677
876.337	0.0160600
876.415	0.0161830
876.494	0.0161652
876.572	0.0161765
876.650	0.0161902
876.728	0.0160630
876.806	0.0162154
876.884	0.0161388
876.962	0.0160553
877.040	0.0161282
877.119	0.0162019
877.197	0.0161609
877.275	0.0159783
877.353	0.0161486
877.431	0.0160810
877.509	0.0161096
877.587	0.0161700
877.665	0.0160878
877.744	0.0160938
877.822	0.0160408
877.900	0.0160599
877.978	0.0161387
878.056	0.0160992
878.134	0.0160700
878.212	0.0160782
878.290	0.0162839
878.369	0.0161903
878.447	0.0160487
878.525	0.0161219
878.603	0.0160727
878.681	0.0160269
878.759	0.0162034
878.837	0.0161533
878.915	0.0160741
878.994	0.0160902
879.072	0.0160581
879.150	0.0161118
879.228	0.0161198
879.306	0.0161589
879.384	0.0160857
879.462	0.0161467
879.540	0.0160226
879.619	0.0160330
879.697	0.0161284
879.775	0.0160567
879.853	0.0161064
879.931	0.0161868
880.009	0.0161739
880.087	0.0160788
880.165	0.0160181
880.244	0.0161703
880.322	0.0162049
880.400	0.0163112
880.478	0.0160218
880.556	0.0162211
880.634	0.0163184
880.712	0.0160809
880.790	0.0160556
880.869	0.0160977
880.947	0.0160846
881.025	0.0161629
881.103	0.0159177
881.181	0.0160164
881.259	0.0160565
881.337	0.0161168
881.415	0.0160199
881.494	0.0159306
881.572	0.0159794
881.650	0.0159964
881.728	0.0158820
881.806	0.0159558
881.884	0.0158608
881.962	0.0160690
882.040	0.0160117
882.119	0.0160046
882.197	0.0159235
882.275	0.0160777
882.353	0.0161480
882.431	0.0161755
882.509	0.0160953
882.587	0.0161884
882.665	0.0161562
882.744	0.0160962
882.822	0.0161423
882.900	0.0161421
882.978	0.0161808
883.056	0.0162569
883.134	0.0162032
883.212	0.0161769
883.290	0.0163605
883.369	0.0162939
883.447	0.0162788
883.525	0.0162994
883.603	0.0160970
883.681	0.0161642
883.759	0.0161871
883.837	0.0160074
883.915	0.0160244
883.994	0.0162069
884.072	0.0163231
884.150	0.0162061
884.228	0.0161618
884.306	0.0161342
884.384	0.0162205
884.462	0.0161745
884.540	0.0160912
884.619	0.0161751
884.697	0.0160685
884.775	0.0161667
884.853	0.0161704
884.931	0.0161275
885.009	0.0160528
885.087	0.0160761
885.165	0.0160854
885.244	0.0161620
885.322	0.0160297
885.400	0.0160619
885.478	0.0160176
885.556	0.0160184
885.634	0.0161111
885.712	0.0160752
885.790	0.0160395
885.869	0.0159508
885.947	0.0159982
886.025	0.0160030
886.103	0.0159943
886.181	0.0161018
886.259	0.0159481
886.337	0.0159808
886.415	0.0161030
886.494	0.0160805
886.572	0.0159928
886.650	0.0159893
886.728	0.0159711
886.806	0.0160499
886.884	0.0160079
886.962	0.0159962
887.040	0.0161404
887.119	0.0159269
887.197	0.0159876
887.275	0.0161063
887.353	0.0160352
887.431	0.0162197
887.509	0.0160929
887.587	0.0161581
887.665	0.0162877
887.744	0.0161178
887.822	0.0162074
887.900	0.0162489
887.978	0.0160648
888.056	0.0160233
888.134	0.0161856
888.212	0.0162093
888.290	0.0162225
888.369	0.0163441
888.447	0.0162065
888.525	0.0161610
888.603	0.0162421
888.681	0.0162681
888.759	0.0161758
888.837	0.0162113
888.915	0.0162171
888.994	0.0160938
889.072	0.0162955
889.150	0.0161954
889.228	0.0162224
889.306	0.0160996
889.384	0.0161072
889.462	0.0160400
889.540	0.0160150
889.619	0.0160989
889.697	0.0160873
889.775	0.0159068
889.853	0.0161260
889.931	0.0161786
890.009	0.0160822
890.087	0.0159477
890.165	0.0161321
890.244	0.0160510
890.322	0.0160643
890.400	0.0160527
890.478	0.0160128
890.556	0.0160331
890.634	0.0159227
890.712	0.0159946
890.790	0.0159594
890.869	0.0159605
890.947	0.0159135
891.025	0.0159437
891.103	0.0160376
891.181	0.0159976
891.259	0.0158717
891.337	0.0159439
891.415	0.0160455
891.494	0.0159979
891.572	0.0159145
891.650	0.0160007
891.728	0.0158630
891.806	0.0159175
891.884	0.0160406
891.962	0.0160625
892.040	0.0159634
892.119	0.0160065
892.197	0.0160043
892.275	0.0160107
892.353	0.0161163
892.431	0.0160142
892.509	0.0160566
892.587	0.0161867
892.665	0.0161702
892.744	0.0159391
892.822	0.0159055
892.900	0.0160675
892.978	0.0160684
893.056	0.0161171
893.134	0.0159652
893.212	0.0161641
893.290	0.0160254
893.369	0.0160165
893.447	0.0159754
893.525	0.0160506
893.603	0.0160033
893.681	0.0161005
893.759	0.0161939
893.837	0.0159619
893.915	0.0161869
893.994	0.0161916
894.072	0.0161794
894.150	0.0162022
894.228	0.0160989
894.306	0.0161217
894.384	0.0160591
894.462	0.0162159
894.540	0.0163043
894.619	0.0163345
894.697	0.0162318
894.775	0.0162204
894.853	0.0162825
894.931	0.0161894
895.009	0.0163184
895.087	0.0162615
895.165	0.0161133
895.244	0.0161728
895.322	0.0162050
895.400	0.0162077
895.478	0.0162910
895.556	0.0161014
895.634	0.0161636
895.712	0.0162283
895.790	0.0160178
895.869	0.0160633
895.947	0.0161846
896.025	0.0161162
896.103	0.0160722
896.181	0.0159034
896.259	0.0159805
896.337	0.0159908
896.415	0.0160625
896.494	0.0160442
896.572	0.0159826
896.650	0.0159328
896.728	0.0160526
896.806	0.0160948
896.884	0.0159891
896.962	0.0160416
897.040	0.0161354
897.119	0.0160891
897.197	0.0160415
897.275	0.0162914
897.353	0.0160153
897.431	0.0160837
897.509	0.0161783
897.587	0.0161730
897.665	0.0160004
897.744	0.0160592
897.822	0.0162330
897.900	0.0161900
897.978	0.0162099
898.056	0.0160380
898.134	0.0160741
898.212	0.0161140
898.290	0.0162510
898.369	0.0160983
898.447	0.0160876
898.525	0.0162347
898.603	0.0162167
898.681	0.0161721
898.759	0.0161071
898.837	0.0161596
898.915	0.0161234
898.994	0.0161826
899.072	0.0161287
899.150	0.0161075
899.228	0.0161636
899.306	0.0163603
899.384	0.0162347
899.462	0.0161066
899.540	0.0162023
899.619	0.0162643
899.697	0.0162771
899.775	0.0161342
899.853	0.0162218
899.931	0.0162891
900.009	0.0160741
900.087	0.0161273
900.165	0.0161864
900.244	0.0162047
900.322	0.0162280
900.400	0.0161446
900.478	0.0161194
900.556	0.0161080
900.634	0.0161536
900.712	0.0161961
900.790	0.0161658
900.869	0.0162748
900.947	0.0160310
901.025	0.0162150
901.103	0.0161094
901.181	0.0160641
901.259	0.0161901
901.337	0.0161737
901.415	0.0160181
901.494	0.0161050
901.572	0.0161166
901.650	0.0161532
901.728	0.0161181
901.806	0.0160780
901.884	0.0160955
901.962	0.0160872
902.040	0.0161435
902.119	0.0160798
902.197	0.0160262
902.275	0.0160609
902.353	0.0159274
902.431	0.0159533
902.509	0.0160778
902.587	0.0160148
902.665	0.0160230
902.744	0.0160693
902.822	0.0161475
902.900	0.0161595
902.978	0.0161407
903.056	0.0161021
903.134	0.0162023
903.212	0.0161140
903.290	0.0162394
903.369	0.0162786
903.447	0.0162991
903.525	0.0160764
903.603	0.0161566
903.681	0.0161890
903.759	0.0161263
903.837	0.0162124
903.915	0.0163340
903.994	0.0162772
904.072	0.0162796
904.150	0.0163084
904.228	0.0162659
904.306	0.0162582
904.384	0.0162260
904.462	0.0163072
904.540	0.0163811
904.619	0.0162954
904.697	0.0161936
904.775	0.0160906
904.853	0.0162448
904.931	0.0163892
905.009	0.0161440
905.087	0.0162611
905.165	0.0163806
905.244	0.0161427
905.322	0.0162787
905.400	0.0162616
905.478	0.0162161
905.556	0.0161288
905.634	0.0160857
905.712	0.0162452
905.790	0.0161951
905.869	0.0160948
905.947	0.0161034
906.025	0.0161830
906.103	0.0160341
906.181	0.0161820
906.259	0.0160522
906.337	0.0161311
906.415	0.0160852
906.494	0.0161581
906.572	0.0160487
906.650	0.0160790
906.728	0.0160606
906.806	0.0160693
906.884	0.0162076
906.962	0.0160427
907.040	0.0161198
907.119	0.0159866
907.197	0.0161638
907.275	0.0162027
907.353	0.0161423
907.431	0.0161539
907.509	0.0160173
907.587	0.0159715
907.665	0.0160700
907.744	0.0162157
907.822	0.0160201
907.900	0.0159533
907.978	0.0160374
908.056	0.0160909
908.134	0.0161597
908.212	0.0161270
908.290	0.0161800
908.369	0.0161195
908.447	0.0161628
908.525	0.0160063
908.603	0.0161768
908.681	0.0161862
908.759	0.0161886
908.837	0.0162550
908.915	0.0160298
908.994	0.0161566
909.072	0.0162647
909.150	0.0161567
909.228	0.0161549
909.306	0.0161720
909.384	0.0161939
909.462	0.0161939
909.540	0.0162981
909.619	0.0161658
909.697	0.0163126
909.775	0.0162975
909.853	0.0161907
909.931	0.0163301
910.009	0.0161675
910.087	0.0162314
910.165	0.0160933
910.244	0.0162098
910.322	0.0161597
910.400	0.0160855
910.478	0.0160587
910.556	0.0160472
910.634	0.0161067
910.712	0.0160876
910.790	0.0161267
910.869	0.0160594
910.947	0.0158955
911.025	0.0159901
911.103	0.0158529
911.181	0.0159602
911.259	0.0160974
911.337	0.0160052
911.415	0.0161083
911.494	0.0160535
911.572	0.0160807
911.650	0.0159682
911.728	0.0159993
911.806	0.0162463
911.884	0.0161884
911.962	0.0161070
912.040	0.0161290
912.119	0.0161815
912.197	0.0161562
912.275	0.0161255
912.353	0.0158871
912.431	0.0160819
912.509	0.0160908
912.587	0.0161187
912.665	0.0161517
912.744	0.0161716
912.822	0.0163613
912.900	0.0161533
912.978	0.0162783
913.056	0.0163044
913.134	0.0162383
913.212	0.0163039
913.290	0.0162142
913.369	0.0160403
913.447	0.0161667
913.525	0.0161285
913.603	0.0161770
913.681	0.0162156
913.759	0.0161977
913.837	0.0161210
913.915	0.0161506
913.994	0.0161828
914.072	0.0162256
914.150	0.0161693
914.228	0.0161211
914.306	0.0161150
914.384	0.0160197
914.462	0.0161768
914.540	0.0161278
914.619	0.0161774
914.697	0.0161461
914.775	0.0160561
914.853	0.0162057
914.931	0.0161264
915.009	0.0161356
915.087	0.0161891
915.165	0.0161774
915.244	0.0161716
915.322	0.0161182
915.400	0.0160988
915.478	0.0161544
915.556	0.0161572
915.634	0.0162588
915.712	0.0160629
915.790	0.0160863
915.869	0.0161176
915.947	0.0161579
916.025	0.0161595
916.103	0.0161855
916.181	0.0162015
916.259	0.0161503
916.337	0.0160684
916.415	0.0160168
916.494	0.0161388
916.572	0.0161878
916.650	0.0160892
916.728	0.0161076
916.806	0.0161398
916.884	0.0161055
916.962	0.0159329
917.040	0.0159734
917.119	0.0161118
917.197	0.0160987
917.275	0.0159614
917.353	0.0159425
917.431	0.0160915
917.509	0.0160574
917.587	0.0159872
917.665	0.0161634
917.744	0.0161436
917.822	0.0160645
917.900	0.0161156
917.978	0.0161066
918.056	0.0161425
918.134	0.0161710
918.212	0.0161388
918.290	0.0162926
918.369	0.0162521
918.447	0.0162973
918.525	0.0161899
918.603	0.0161956
918.681	0.0162971
918.759	0.0163590
918.837	0.0164151
918.915	0.0162815
918.994	0.0163423
919.072	0.0163099
919.150	0.0161799
919.228	0.0162683
919.306	0.0162196
919.384	0.0162466
919.462	0.0162357
919.540	0.0163818
919.619	0.0162560
919.697	0.0164149
919.775	0.0162129
919.853	0.0161942
919.931	0.0162119
920.009	0.0162037
920.087	0.0161053
920.165	0.0161786
920.244	0.0162399
920.322	0.0160590
920.400	0.0161459
920.478	0.0162160
920.556	0.0161420
920.634	0.0161057
920.712	0.0160396
920.790	0.0160630
920.869	0.0161600
920.947	0.0161355
921.025	0.0160819
921.103	0.0161122
921.181	0.0160669
921.259	0.0160757
921.337	0.0161884
921.415	0.0161118
921.494	0.0160523
921.572	0.0160851
921.650	0.0162483
921.728	0.0162656
921.806	0.0161568
921.884	0.0161430
921.962	0.0162166
922.040	0.0161414
922.119	0.0161427
922.197	0.0161753
922.275	0.0160681
922.353	0.0162324
922.431	0.0162802
922.509	0.0160946
922.587	0.0160699
922.665	0.0160666
922.744	0.0161240
922.822	0.0162227
922.900	0.0161456
922.978	0.0161423
923.056	0.0161889
923.134	0.0162387
923.212	0.0163146
923.290	0.0160644
923.369	0.0163617
923.447	0.0161568
923.525	0.0161307
923.603	0.0162157
923.681	0.0160181
923.759	0.0161623
923.837	0.0161059
923.915	0.0160630
923.994	0.0160310
924.072	0.0161349
924.150	0.0161240
924.228	0.0162291
924.306	0.0162045
924.384	0.0160226
924.462	0.0160258
924.540	0.0160891
924.619	0.0162499
924.697	0.0160737
924.775	0.0159504
924.853	0.0160571
924.931	0.0160987
925.009	0.0160886
925.087	0.0161014
925.165	0.0160770
925.244	0.0160822
925.322	0.0162978
925.400	0.0161478
925.478	0.0161049
925.556	0.0162904
925.634	0.0161705
925.712	0.0161229
925.790	0.0162312
925.869	0.0160304
925.947	0.0160943
926.025	0.0160411
926.103	0.0162283
926.181	0.0162421
926.259	0.0162603
926.337	0.0161016
926.415	0.0162155
926.494	0.0162684
926.572	0.0161117
926.650	0.0159363
926.728	0.0162138
926.806	0.0161739
926.884	0.0160426
926.962	0.0161934
927.040	0.0163010
927.119	0.0162254
927.197	0.0162338
927.275	0.0161752
927.353	0.0163019
927.431	0.0162318
927.509	0.0160474
927.587	0.0160811
927.665	0.0161396
927.744	0.0163102
927.822	0.0161664
927.900	0.0161269
927.978	0.0159252
928.056	0.0160625
928.134	0.0162109
928.212	0.0162727
928.290	0.0161613
928.369	0.0161607
928.447	0.0161717
928.525	0.0159923
928.603	0.0162488
928.681	0.0161353
928.759	0.0161314
928.837	0.0160445
928.915	0.0160542
928.994	0.0161409
929.072	0.0161829
929.150	0.0161243
929.228	0.0160452
929.306	0.0160150
929.384	0.0161045
929.462	0.0159859
929.540	0.0161716
929.619	0.0162029
929.697	0.0160503
929.775	0.0160969
929.853	0.0161888
929.931	0.0161620
930.009	0.0159803
930.087	0.0160031
930.165	0.0160175
930.244	0.0160950
930.322	0.0160793
930.400	0.0159837
930.478	0.0160184
930.556	0.0161671
930.634	0.0160905
930.712	0.0162023
930.790	0.0161394
930.869	0.0163030
930.947	0.0162902
931.025	0.0162637
931.103	0.0162641
931.181	0.0162849
931.259	0.0162099
931.337	0.0162363
931.415	0.0162004
931.494	0.0162428
931.572	0.0163201
931.650	0.0161677
931.728	0.0162286
931.806	0.0162080
931.884	0.0162222
931.962	0.0163177
932.040	0.0161312
932.119	0.0161588
932.197	0.0162395
932.275	0.0162999
932.353	0.0163799
932.431	0.0162086
932.509	0.0162113
932.587	0.0162154
932.665	0.0160429
932.744	0.0161742
932.822	0.0162098
932.900	0.0162333
932.978	0.0161888
933.056	0.0162057
933.134	0.0161551
933.212	0.0160627
933.290	0.0161146
933.369	0.0160441
933.447	0.0160548
933.525	0.0160001
933.603	0.0161842
933.681	0.0162049
933.759	0.0160389
933.837	0.0160484
933.915	0.0160818
933.994	0.0159052
934.072	0.0159277
934.150	0.0158593
934.228	0.0161366
934.306	0.0160446
934.384	0.0159962
934.462	0.0160934
934.540	0.0160620
934.619	0.0160334
934.697	0.0159652
934.775	0.0161420
934.853	0.0159961
934.931	0.0161289
935.009	0.0160332
935.087	0.0162076
935.165	0.0160981
935.244	0.0160868
935.322	0.0160456
935.400	0.0162541
935.478	0.0160706
935.556	0.0161340
935.634	0.0161712
935.712	0.0161619
935.790	0.0161913
935.869	0.0160135
935.947	0.0161792
936.025	0.0161134
936.103	0.0161549
936.181	0.0162589
936.259	0.0161590
936.337	0.0161395
936.415	0.0161190
936.494	0.0161288
936.572	0.0162051
936.650	0.0160783
936.728	0.0161626
936.806	0.0161643
936.884	0.0160429
936.962	0.0162290
937.040	0.0163658
937.119	0.0162890
937.197	0.0162067
937.275	0.0162366
937.353	0.0162008
937.431	0.0161770
937.509	0.0161533
937.587	0.0162510
937.665	0.0162559
937.744	0.0162191
937.822	0.0161241
937.900	0.0160852
937.978	0.0161283
938.056	0.0162340
938.134	0.0160784
938.212	0.0161495
938.290	0.0162041
938.369	0.0162689
938.447	0.0161388
938.525	0.0160697
938.603	0.0161929
938.681	0.0161463
938.759	0.0162947
938.837	0.0162518
938.915	0.0161184
938.994	0.0161617
939.072	0.0162669
939.150	0.0162171
939.228	0.0162556
939.306	0.0161762
939.384	0.0163355
939.462	0.0161806
939.540	0.0162476
939.619	0.0160735
939.697	0.0161651
939.775	0.0161686
939.853	0.0162077
939.931	0.0160835
940.009	0.0162078
940.087	0.0161092
940.165	0.0160850
940.244	0.0162222
940.322	0.0160349
940.400	0.0161062
940.478	0.0161013
940.556	0.0161337
940.634	0.0162305
940.712	0.0161656
940.790	0.0161610
940.869	0.0160970
940.947	0.0160353
941.025	0.0162070
941.103	0.0160074
941.181	0.0160006
941.259	0.0161230
941.337	0.0162074
941.415	0.0160437
941.494	0.0162006
941.572	0.0161571
941.650	0.0161483
941.728	0.0160403
941.806	0.0161529
941.884	0.0160469
941.962	0.0161119
942.040	0.0162553
942.119	0.0160356
942.197	0.0161448
942.275	0.0162189
942.353	0.0162201
942.431	0.0162366
942.509	0.0160470
942.587	0.0161972
942.665	0.0160229
942.744	0.0161374
942.822	0.0163316
942.900	0.0162418
942.978	0.0162187
943.056	0.0162245
943.134	0.0162226
943.212	0.0162097
943.290	0.0162534
943.369	0.0162566
943.447	0.0164014
943.525	0.0163755
943.603	0.0162579
943.681	0.0162683
943.759	0.0162504
943.837	0.0162575
943.915	0.0161204
943.994	0.0161613
944.072	0.0160555
944.150	0.0161971
944.228	0.0162053
944.306	0.0161746
944.384	0.0163130
944.462	0.0161800
944.540	0.0161160
944.619	0.0160931
944.697	0.0162383
944.775	0.0162342
944.853	0.0161952
944.931	0.0161913
945.009	0.0162329
945.087	0.0161341
945.165	0.0160757
945.244	0.0161637
945.322	0.0161876
945.400	0.0161991
945.478	0.0160786
945.556	0.0161548
945.634	0.0160875
945.712	0.0160461
945.790	0.0161965
945.869	0.0161037
945.947	0.0161713
946.025	0.0160947
946.103	0.0160753
946.181	0.0161150
946.259	0.0161070
946.337	0.0160478
946.415	0.0161071
946.494	0.0160747
946.572	0.0160161
946.650	0.0160486
946.728	0.0161002
946.806	0.0160909
946.884	0.0161127
946.962	0.0160429
947.040	0.0159921
947.119	0.0160334
947.197	0.0160686
947.275	0.0160995
947.353	0.0160821
947.431	0.0161079
947.509	0.0161213
947.587	0.0162549
947.665	0.0160915
947.744	0.0159685
947.822	0.0160147
947.900	0.0160965
947.978	0.0160921
948.056	0.0160960
948.134	0.0161256
948.212	0.0160289
948.290	0.0160472
948.369	0.0161756
948.447	0.0162761
948.525	0.0160726
948.603	0.0159658
948.681	0.0161892
948.759	0.0162077
948.837	0.0161946
948.915	0.0161426
948.994	0.0162148
949.072	0.0160107
949.150	0.0162054
949.228	0.0160442
949.306	0.0161308
949.384	0.0160856
949.462	0.0160784
949.540	0.0161314
949.619	0.0160738
949.697	0.0162106
949.775	0.0161844
949.853	0.0161680
949.931	0.0162379
