05/19/2022	00:45:43	Ver.	4.1	UNKNOWN
Optical Delay	630.002507	Delta X		0.078125	Sweeps	1	Scan Rate	0/0
Coordinates	Axis 1	NaN	Axis 2	NaN	Axis 3	NaN	Axis 4	NaN	Axis 5	NaN	Axis 6	0.000000
TX Power	0.000000	RX Power	0.000000

630.003	0.0149963
630.081	0.0150053
630.159	0.0149392
630.237	0.0149503
630.315	0.0150499
630.393	0.0149448
630.471	0.0150017
630.549	0.0150321
630.628	0.0149132
630.706	0.0150127
630.784	0.0149454
630.862	0.0149622
630.940	0.0150169
631.018	0.0149932
631.096	0.0150775
631.174	0.0148608
631.253	0.0149191
631.331	0.0149490
631.409	0.0148828
631.487	0.0149916
631.565	0.0150184
631.643	0.0148203
631.721	0.0149728
631.799	0.0149983
631.878	0.0150767
631.956	0.0148764
632.034	0.0149086
632.112	0.0150207
632.190	0.0150392
632.268	0.0150167
632.346	0.0148869
632.424	0.0148540
632.503	0.0148120
632.581	0.0149052
632.659	0.0151538
632.737	0.0149906
632.815	0.0149809
632.893	0.0149601
632.971	0.0150652
633.049	0.0148182
633.128	0.0148790
633.206	0.0149212
633.284	0.0149801
633.362	0.0149803
633.440	0.0150418
633.518	0.0150311
633.596	0.0149013
633.674	0.0149752
633.753	0.0149997
633.831	0.0149815
633.909	0.0148944
633.987	0.0149515
634.065	0.0149473
634.143	0.0149801
634.221	0.0149471
634.299	0.0149873
634.378	0.0150322
634.456	0.0148254
634.534	0.0149445
634.612	0.0148811
634.690	0.0148721
634.768	0.0150153
634.846	0.0148637
634.924	0.0149773
635.003	0.0150440
635.081	0.0147952
635.159	0.0149171
635.237	0.0150072
635.315	0.0150382
635.393	0.0150712
635.471	0.0150484
635.549	0.0148771
635.628	0.0149892
635.706	0.0150148
635.784	0.0149120
635.862	0.0149075
635.940	0.0149915
636.018	0.0149255
636.096	0.0148280
636.174	0.0149933
636.253	0.0150092
636.331	0.0150072
636.409	0.0149875
636.487	0.0150078
636.565	0.0149034
636.643	0.0149549
636.721	0.0150113
636.799	0.0148780
636.878	0.0149483
636.956	0.0149452
637.034	0.0148595
637.112	0.0148321
637.190	0.0150125
637.268	0.0150893
637.346	0.0148609
637.424	0.0148685
637.503	0.0150557
637.581	0.0151101
637.659	0.0149780
637.737	0.0149699
637.815	0.0149296
637.893	0.0149957
637.971	0.0150454
638.049	0.0149171
638.128	0.0150148
638.206	0.0149787
638.284	0.0150034
638.362	0.0150357
638.440	0.0149839
638.518	0.0150004
638.596	0.0149967
638.674	0.0148901
638.753	0.0149055
638.831	0.0151025
638.909	0.0149863
638.987	0.0150158
639.065	0.0149108
639.143	0.0149132
639.221	0.0149123
639.299	0.0150792
639.378	0.0150131
639.456	0.0148548
639.534	0.0148382
639.612	0.0150523
639.690	0.0150598
639.768	0.0149921
639.846	0.0149461
639.924	0.0148810
640.003	0.0149078
640.081	0.0147961
640.159	0.0150698
640.237	0.0149533
640.315	0.0149063
640.393	0.0149928
640.471	0.0150578
640.549	0.0149686
640.628	0.0150510
640.706	0.0149075
640.784	0.0148400
640.862	0.0149947
640.940	0.0151256
641.018	0.0149455
641.096	0.0150536
641.174	0.0150201
641.253	0.0149264
641.331	0.0149291
641.409	0.0149221
641.487	0.0148882
641.565	0.0148626
641.643	0.0149844
641.721	0.0149584
641.799	0.0150089
641.878	0.0150024
641.956	0.0147677
642.034	0.0149483
642.112	0.0148818
642.190	0.0148795
642.268	0.0148519
642.346	0.0150065
642.424	0.0149730
642.503	0.0149057
642.581	0.0149241
642.659	0.0149651
642.737	0.0149530
642.815	0.0150662
642.893	0.0150064
642.971	0.0148988
643.049	0.0149121
643.128	0.0150043
643.206	0.0149387
643.284	0.0149329
643.362	0.0148554
643.440	0.0149368
643.518	0.0149832
643.596	0.0148219
643.674	0.0149393
643.753	0.0149506
643.831	0.0150841
643.909	0.0150567
643.987	0.0149403
644.065	0.0149708
644.143	0.0149093
644.221	0.0149307
644.299	0.0150417
644.378	0.0149134
644.456	0.0148901
644.534	0.0149236
644.612	0.0149409
644.690	0.0150594
644.768	0.0149038
644.846	0.0149657
644.924	0.0150932
645.003	0.0151897
645.081	0.0150386
645.159	0.0149689
645.237	0.0150041
645.315	0.0150661
645.393	0.0149046
645.471	0.0149146
645.549	0.0149824
645.628	0.0148630
645.706	0.0149209
645.784	0.0150385
645.862	0.0150551
645.940	0.0149019
646.018	0.0149749
646.096	0.0150256
646.174	0.0150246
646.253	0.0149434
646.331	0.0149863
646.409	0.0149496
646.487	0.0148906
646.565	0.0150480
646.643	0.0150148
646.721	0.0149264
646.799	0.0148975
646.878	0.0150330
646.956	0.0149628
647.034	0.0150401
647.112	0.0149197
647.190	0.0149664
647.268	0.0148061
647.346	0.0150587
647.424	0.0151342
647.503	0.0148808
647.581	0.0149115
647.659	0.0150029
647.737	0.0150227
647.815	0.0149846
647.893	0.0148529
647.971	0.0149863
648.049	0.0150696
648.128	0.0149709
648.206	0.0149806
648.284	0.0149846
648.362	0.0150130
648.440	0.0150850
648.518	0.0150227
648.596	0.0151356
648.674	0.0150415
648.753	0.0150158
648.831	0.0150225
648.909	0.0150614
648.987	0.0150348
649.065	0.0151764
649.143	0.0150800
649.221	0.0150481
649.299	0.0149961
649.378	0.0151157
649.456	0.0150229
649.534	0.0150113
649.612	0.0149948
649.690	0.0150154
649.768	0.0151247
649.846	0.0149908
649.924	0.0151087
650.003	0.0149546
650.081	0.0149223
650.159	0.0150616
650.237	0.0149899
650.315	0.0150181
650.393	0.0150316
650.471	0.0150962
650.549	0.0149990
650.628	0.0151859
650.706	0.0149784
650.784	0.0150858
650.862	0.0151598
650.940	0.0149711
651.018	0.0148199
651.096	0.0150222
651.174	0.0150439
651.253	0.0149730
651.331	0.0150102
651.409	0.0150720
651.487	0.0150974
651.565	0.0149876
651.643	0.0149260
651.721	0.0149115
651.799	0.0150092
651.878	0.0150007
651.956	0.0150121
652.034	0.0149846
652.112	0.0149542
652.190	0.0149776
652.268	0.0148959
652.346	0.0149462
652.424	0.0150558
652.503	0.0150552
652.581	0.0150237
652.659	0.0151023
652.737	0.0150130
652.815	0.0150329
652.893	0.0149596
652.971	0.0149690
653.049	0.0149442
653.128	0.0150170
653.206	0.0151473
653.284	0.0150233
653.362	0.0150996
653.440	0.0149580
653.518	0.0150581
653.596	0.0151099
653.674	0.0150594
653.753	0.0151608
653.831	0.0149885
653.909	0.0150349
653.987	0.0149459
654.065	0.0150020
654.143	0.0150083
654.221	0.0149779
654.299	0.0148928
654.378	0.0149628
654.456	0.0150889
654.534	0.0149572
654.612	0.0149865
654.690	0.0148676
654.768	0.0148665
654.846	0.0149583
654.924	0.0148318
655.003	0.0149756
655.081	0.0148649
655.159	0.0149749
655.237	0.0149030
655.315	0.0150558
655.393	0.0150288
655.471	0.0148986
655.549	0.0150391
655.628	0.0148904
655.706	0.0148932
655.784	0.0150834
655.862	0.0149910
655.940	0.0148839
656.018	0.0149565
656.096	0.0150415
656.174	0.0149654
656.253	0.0148965
656.331	0.0149667
656.409	0.0149805
656.487	0.0149229
656.565	0.0150508
656.643	0.0148969
656.721	0.0149583
656.799	0.0150327
656.878	0.0149960
656.956	0.0149899
657.034	0.0149693
657.112	0.0149332
657.190	0.0148584
657.268	0.0147790
657.346	0.0149525
657.424	0.0147438
657.503	0.0148700
657.581	0.0149789
657.659	0.0149158
657.737	0.0148600
657.815	0.0149409
657.893	0.0148288
657.971	0.0148647
658.049	0.0148857
658.128	0.0149267
658.206	0.0148228
658.284	0.0149438
658.362	0.0148658
658.440	0.0149917
658.518	0.0148804
658.596	0.0149783
658.674	0.0147553
658.753	0.0147321
658.831	0.0147788
658.909	0.0148212
658.987	0.0149416
659.065	0.0149390
659.143	0.0148615
659.221	0.0146587
659.299	0.0148345
659.378	0.0148857
659.456	0.0149040
659.534	0.0148667
659.612	0.0148702
659.690	0.0149557
659.768	0.0148589
659.846	0.0148721
659.924	0.0148384
660.003	0.0148296
660.081	0.0149532
660.159	0.0148516
660.237	0.0148981
660.315	0.0149046
660.393	0.0148728
660.471	0.0150054
660.549	0.0149963
660.628	0.0148566
660.706	0.0149108
660.784	0.0149344
660.862	0.0149429
660.940	0.0148231
661.018	0.0149254
661.096	0.0148458
661.174	0.0148283
661.253	0.0149519
661.331	0.0149361
661.409	0.0147885
661.487	0.0147787
661.565	0.0148562
661.643	0.0149386
661.721	0.0148361
661.799	0.0150195
661.878	0.0149049
661.956	0.0149063
662.034	0.0149706
662.112	0.0148957
662.190	0.0148902
662.268	0.0149184
662.346	0.0149321
662.424	0.0148875
662.503	0.0149183
662.581	0.0148949
662.659	0.0147327
662.737	0.0149169
662.815	0.0148315
662.893	0.0148032
662.971	0.0148989
663.049	0.0149491
663.128	0.0149167
663.206	0.0149045
663.284	0.0148129
663.362	0.0148676
663.440	0.0149637
663.518	0.0149837
663.596	0.0148819
663.674	0.0150039
663.753	0.0150928
663.831	0.0149207
663.909	0.0149487
663.987	0.0149979
664.065	0.0151547
664.143	0.0150652
664.221	0.0150026
664.299	0.0151156
664.378	0.0149564
664.456	0.0148460
664.534	0.0149380
664.612	0.0149914
664.690	0.0150803
664.768	0.0148495
664.846	0.0150381
664.924	0.0149794
665.003	0.0149318
665.081	0.0150854
665.159	0.0149931
665.237	0.0149210
665.315	0.0150005
665.393	0.0149933
665.471	0.0150249
665.549	0.0150881
665.628	0.0149824
665.706	0.0149094
665.784	0.0151090
665.862	0.0151103
665.940	0.0149098
666.018	0.0148435
666.096	0.0150103
666.174	0.0150634
666.253	0.0150043
666.331	0.0149948
666.409	0.0150652
666.487	0.0149815
666.565	0.0149323
666.643	0.0149619
666.721	0.0151075
666.799	0.0149915
666.878	0.0150715
666.956	0.0151384
667.034	0.0151314
667.112	0.0148986
667.190	0.0149394
667.268	0.0149426
667.346	0.0149850
667.424	0.0149306
667.503	0.0150523
667.581	0.0150492
667.659	0.0149417
667.737	0.0150081
667.815	0.0149606
667.893	0.0149413
667.971	0.0149981
668.049	0.0149887
668.128	0.0148441
668.206	0.0150078
668.284	0.0149997
668.362	0.0148923
668.440	0.0147114
668.518	0.0148549
668.596	0.0149105
668.674	0.0148560
668.753	0.0150079
668.831	0.0147421
668.909	0.0147477
668.987	0.0149798
669.065	0.0148138
669.143	0.0148959
669.221	0.0148890
669.299	0.0148447
669.378	0.0147691
669.456	0.0148926
669.534	0.0148629
669.612	0.0148923
669.690	0.0150483
669.768	0.0148647
669.846	0.0150343
669.924	0.0149626
670.003	0.0150159
670.081	0.0149937
670.159	0.0150719
670.237	0.0151767
670.315	0.0151030
670.393	0.0150006
670.471	0.0151373
670.549	0.0150589
670.628	0.0149194
670.706	0.0151733
670.784	0.0151994
670.862	0.0150598
670.940	0.0150431
671.018	0.0149585
671.096	0.0150717
671.174	0.0150399
671.253	0.0149569
671.331	0.0150125
671.409	0.0149648
671.487	0.0151015
671.565	0.0149889
671.643	0.0149870
671.721	0.0150956
671.799	0.0150540
671.878	0.0151676
671.956	0.0151694
672.034	0.0152048
672.112	0.0151793
672.190	0.0152414
672.268	0.0152262
672.346	0.0152538
672.424	0.0153394
672.503	0.0152724
672.581	0.0152843
672.659	0.0152664
672.737	0.0153089
672.815	0.0152617
672.893	0.0152613
672.971	0.0152414
673.049	0.0152724
673.128	0.0150797
673.206	0.0150720
673.284	0.0150830
673.362	0.0151437
673.440	0.0151993
673.518	0.0150732
673.596	0.0150738
673.674	0.0151376
673.753	0.0149889
673.831	0.0150795
673.909	0.0151198
673.987	0.0151709
674.065	0.0149946
674.143	0.0151869
674.221	0.0152108
674.299	0.0152722
674.378	0.0152292
674.456	0.0152673
674.534	0.0153345
674.612	0.0153659
674.690	0.0154245
674.768	0.0153561
674.846	0.0154548
674.924	0.0153603
675.003	0.0152139
675.081	0.0153468
675.159	0.0151940
675.237	0.0151538
675.315	0.0151253
675.393	0.0150646
675.471	0.0149848
675.549	0.0147769
675.628	0.0147149
675.706	0.0147174
675.784	0.0147153
675.862	0.0146328
675.940	0.0146375
676.018	0.0145837
676.096	0.0148843
676.174	0.0148322
676.253	0.0146010
676.331	0.0148165
676.409	0.0148977
676.487	0.0147112
676.565	0.0148234
676.643	0.0149178
676.721	0.0149221
676.799	0.0149573
676.878	0.0148866
676.956	0.0149027
677.034	0.0150455
677.112	0.0148677
677.190	0.0149901
677.268	0.0150689
677.346	0.0150143
677.424	0.0147575
677.503	0.0148047
677.581	0.0148460
677.659	0.0147385
677.737	0.0148014
677.815	0.0147768
677.893	0.0146976
677.971	0.0146269
678.049	0.0145208
678.128	0.0146408
678.206	0.0146933
678.284	0.0146557
678.362	0.0146521
678.440	0.0146247
678.518	0.0146655
678.596	0.0146056
678.674	0.0145535
678.753	0.0145954
678.831	0.0146967
678.909	0.0148557
678.987	0.0147498
679.065	0.0149278
679.143	0.0149738
679.221	0.0149614
679.299	0.0151124
679.378	0.0151753
679.456	0.0151321
679.534	0.0152919
679.612	0.0151081
679.690	0.0151818
679.768	0.0153146
679.846	0.0151619
679.924	0.0151447
680.003	0.0150788
680.081	0.0149949
680.159	0.0149574
680.237	0.0149467
680.315	0.0149599
680.393	0.0149124
680.471	0.0149868
680.549	0.0148227
680.628	0.0149106
680.706	0.0148636
680.784	0.0150760
680.862	0.0147616
680.940	0.0148370
681.018	0.0150612
681.096	0.0147949
681.174	0.0147650
681.253	0.0146494
681.331	0.0148675
681.409	0.0147532
681.487	0.0148018
681.565	0.0147929
681.643	0.0148682
681.721	0.0148539
681.799	0.0148034
681.878	0.0150623
681.956	0.0150845
682.034	0.0152169
682.112	0.0151855
682.190	0.0152203
682.268	0.0151891
682.346	0.0152705
682.424	0.0151277
682.503	0.0151686
682.581	0.0151479
682.659	0.0150149
682.737	0.0150905
682.815	0.0150015
682.893	0.0149252
682.971	0.0150308
683.049	0.0150881
683.128	0.0148810
683.206	0.0147982
683.284	0.0148402
683.362	0.0147954
683.440	0.0148814
683.518	0.0147945
683.596	0.0147002
683.674	0.0147452
683.753	0.0147338
683.831	0.0147626
683.909	0.0146526
683.987	0.0147141
684.065	0.0146329
684.143	0.0147403
684.221	0.0147786
684.299	0.0149703
684.378	0.0148728
684.456	0.0148598
684.534	0.0149384
684.612	0.0149644
684.690	0.0149757
684.768	0.0148997
684.846	0.0150268
684.924	0.0150293
685.003	0.0147606
685.081	0.0149393
685.159	0.0151129
685.237	0.0149302
685.315	0.0149106
685.393	0.0148843
685.471	0.0150334
685.549	0.0147594
685.628	0.0148495
685.706	0.0146280
685.784	0.0148007
685.862	0.0148955
685.940	0.0147942
686.018	0.0148038
686.096	0.0148051
686.174	0.0148441
686.253	0.0149355
686.331	0.0148914
686.409	0.0150362
686.487	0.0151131
686.565	0.0150684
686.643	0.0150317
686.721	0.0150783
686.799	0.0151709
686.878	0.0150950
686.956	0.0152011
687.034	0.0151682
687.112	0.0149496
687.190	0.0151530
687.268	0.0152078
687.346	0.0149684
687.424	0.0149367
687.503	0.0149535
687.581	0.0149295
687.659	0.0148804
687.737	0.0147474
687.815	0.0146516
687.893	0.0147724
687.971	0.0146638
688.049	0.0146435
688.128	0.0146736
688.206	0.0146509
688.284	0.0148345
688.362	0.0145671
688.440	0.0147769
688.518	0.0144952
688.596	0.0146307
688.674	0.0146378
688.753	0.0146692
688.831	0.0145410
688.909	0.0144276
688.987	0.0144086
689.065	0.0144651
689.143	0.0145220
689.221	0.0143121
689.299	0.0145071
689.378	0.0144669
689.456	0.0145729
689.534	0.0146061
689.612	0.0145284
689.690	0.0146642
689.768	0.0146355
689.846	0.0146884
689.924	0.0147724
690.003	0.0146269
690.081	0.0148257
690.159	0.0149511
690.237	0.0151167
690.315	0.0150793
690.393	0.0151580
690.471	0.0152998
690.549	0.0154615
690.628	0.0155267
690.706	0.0155683
690.784	0.0157359
690.862	0.0159315
690.940	0.0160369
691.018	0.0159545
691.096	0.0160158
691.174	0.0160210
691.253	0.0160344
691.331	0.0161918
691.409	0.0160291
691.487	0.0161211
691.565	0.0159750
691.643	0.0159251
691.721	0.0160851
691.799	0.0157880
691.878	0.0155920
691.956	0.0158403
692.034	0.0155289
692.112	0.0153615
692.190	0.0153693
692.268	0.0153181
692.346	0.0152480
692.424	0.0151947
692.503	0.0149818
692.581	0.0147488
692.659	0.0147615
692.737	0.0146184
692.815	0.0145979
692.893	0.0145010
692.971	0.0144669
693.049	0.0142844
693.128	0.0143684
693.206	0.0143618
693.284	0.0142226
693.362	0.0141112
693.440	0.0142842
693.518	0.0140649
693.596	0.0140902
693.674	0.0141228
693.753	0.0140951
693.831	0.0141380
693.909	0.0141133
693.987	0.0139378
694.065	0.0139790
694.143	0.0140182
694.221	0.0141054
694.299	0.0140508
694.378	0.0139944
694.456	0.0141051
694.534	0.0142371
694.612	0.0143947
694.690	0.0143304
694.768	0.0144604
694.846	0.0145827
694.924	0.0148325
695.003	0.0148940
695.081	0.0147269
695.159	0.0151867
695.237	0.0151468
695.315	0.0152379
695.393	0.0154275
695.471	0.0156584
695.549	0.0155649
695.628	0.0158089
695.706	0.0159009
695.784	0.0159964
695.862	0.0160899
695.940	0.0161677
696.018	0.0161719
696.096	0.0162502
696.174	0.0162611
696.253	0.0163271
696.331	0.0162080
696.409	0.0161901
696.487	0.0161273
696.565	0.0160196
696.643	0.0159426
696.721	0.0158467
696.799	0.0158558
696.878	0.0156815
696.956	0.0155373
697.034	0.0154549
697.112	0.0154111
697.190	0.0154102
697.268	0.0152541
697.346	0.0150139
697.424	0.0148311
697.503	0.0149476
697.581	0.0148853
697.659	0.0146159
697.737	0.0146214
697.815	0.0148840
697.893	0.0145946
697.971	0.0144911
698.049	0.0146130
698.128	0.0146568
698.206	0.0145512
698.284	0.0145626
698.362	0.0143060
698.440	0.0144896
698.518	0.0143060
698.596	0.0141756
698.674	0.0141941
698.753	0.0142638
698.831	0.0141491
698.909	0.0140185
698.987	0.0138801
699.065	0.0139262
699.143	0.0140541
699.221	0.0140196
699.299	0.0139615
699.378	0.0141320
699.456	0.0141232
699.534	0.0142079
699.612	0.0144151
699.690	0.0144203
699.768	0.0146255
699.846	0.0148129
699.924	0.0148765
700.003	0.0148936
700.081	0.0150210
700.159	0.0149681
700.237	0.0150745
700.315	0.0151606
700.393	0.0153951
700.471	0.0154605
700.549	0.0153401
700.628	0.0153799
700.706	0.0154359
700.784	0.0152586
700.862	0.0153045
700.940	0.0152026
701.018	0.0153695
701.096	0.0153151
701.174	0.0151411
701.253	0.0152135
701.331	0.0151272
701.409	0.0151927
701.487	0.0152810
701.565	0.0152424
701.643	0.0151823
701.721	0.0151814
701.799	0.0150893
701.878	0.0152906
701.956	0.0151762
702.034	0.0152258
702.112	0.0151459
702.190	0.0151006
702.268	0.0152959
702.346	0.0152304
702.424	0.0153082
702.503	0.0152020
702.581	0.0152969
702.659	0.0153112
702.737	0.0151662
702.815	0.0153942
702.893	0.0153801
702.971	0.0153634
703.049	0.0154794
703.128	0.0154575
703.206	0.0156109
703.284	0.0155112
703.362	0.0154971
703.440	0.0155266
703.518	0.0155370
703.596	0.0154757
703.674	0.0154582
703.753	0.0154271
703.831	0.0153078
703.909	0.0154033
703.987	0.0153072
704.065	0.0152686
704.143	0.0150932
704.221	0.0150140
704.299	0.0149751
704.378	0.0148592
704.456	0.0147432
704.534	0.0147452
704.612	0.0146921
704.690	0.0147543
704.768	0.0145992
704.846	0.0144930
704.924	0.0145221
705.003	0.0143503
705.081	0.0144286
705.159	0.0144167
705.237	0.0143776
705.315	0.0142935
705.393	0.0143780
705.471	0.0143089
705.549	0.0141965
705.628	0.0141306
705.706	0.0142474
705.784	0.0141922
705.862	0.0142327
705.940	0.0143561
706.018	0.0142740
706.096	0.0144700
706.174	0.0144705
706.253	0.0143809
706.331	0.0144612
706.409	0.0145670
706.487	0.0146739
706.565	0.0146059
706.643	0.0146358
706.721	0.0147308
706.799	0.0145911
706.878	0.0150200
706.956	0.0149245
707.034	0.0148661
707.112	0.0150034
707.190	0.0148551
707.268	0.0148628
707.346	0.0149522
707.424	0.0149981
707.503	0.0150582
707.581	0.0152906
707.659	0.0151881
707.737	0.0151859
707.815	0.0151980
707.893	0.0152264
707.971	0.0153094
708.049	0.0154693
708.128	0.0153665
708.206	0.0153223
708.284	0.0153783
708.362	0.0153239
708.440	0.0154082
708.518	0.0153107
708.596	0.0153465
708.674	0.0153904
708.753	0.0153435
708.831	0.0153802
708.909	0.0153802
708.987	0.0155260
709.065	0.0154471
709.143	0.0156831
709.221	0.0156775
709.299	0.0156424
709.378	0.0158058
709.456	0.0156934
709.534	0.0155502
709.612	0.0156333
709.690	0.0157741
709.768	0.0156738
709.846	0.0155293
709.924	0.0154575
710.003	0.0152849
710.081	0.0152217
710.159	0.0150921
710.237	0.0151112
710.315	0.0150286
710.393	0.0149861
710.471	0.0149882
710.549	0.0147572
710.628	0.0145130
710.706	0.0146291
710.784	0.0145557
710.862	0.0144547
710.940	0.0144170
711.018	0.0142859
711.096	0.0143278
711.174	0.0143212
711.253	0.0143119
711.331	0.0143469
711.409	0.0142807
711.487	0.0143176
711.565	0.0142838
711.643	0.0144137
711.721	0.0141386
711.799	0.0144143
711.878	0.0142545
711.956	0.0143440
712.034	0.0140576
712.112	0.0141980
712.190	0.0143910
712.268	0.0143884
712.346	0.0144745
712.424	0.0144014
712.503	0.0144424
712.581	0.0145562
712.659	0.0145815
712.737	0.0147507
712.815	0.0146471
712.893	0.0147773
712.971	0.0147054
713.049	0.0148126
713.128	0.0147995
713.206	0.0148859
713.284	0.0148135
713.362	0.0149178
713.440	0.0150407
713.518	0.0150176
713.596	0.0150566
713.674	0.0151984
713.753	0.0152122
713.831	0.0152953
713.909	0.0153751
713.987	0.0155028
714.065	0.0154437
714.143	0.0154154
714.221	0.0154784
714.299	0.0154809
714.378	0.0152233
714.456	0.0154740
714.534	0.0154954
714.612	0.0155737
714.690	0.0153965
714.768	0.0153845
714.846	0.0154459
714.924	0.0153529
715.003	0.0154964
715.081	0.0152979
715.159	0.0153786
715.237	0.0153743
715.315	0.0153139
715.393	0.0152662
715.471	0.0154232
715.549	0.0154388
715.628	0.0154469
715.706	0.0153936
715.784	0.0153732
715.862	0.0153660
715.940	0.0154050
716.018	0.0153944
716.096	0.0153429
716.174	0.0154473
716.253	0.0152367
716.331	0.0153503
716.409	0.0153719
716.487	0.0152859
716.565	0.0151338
716.643	0.0152979
716.721	0.0151348
716.799	0.0150618
716.878	0.0149163
716.956	0.0150933
717.034	0.0149494
717.112	0.0148376
717.190	0.0147478
717.268	0.0148020
717.346	0.0147778
717.424	0.0147671
717.503	0.0145951
717.581	0.0146803
717.659	0.0145911
717.737	0.0146262
717.815	0.0145332
717.893	0.0145441
717.971	0.0145557
718.049	0.0144766
718.128	0.0145384
718.206	0.0145357
718.284	0.0144227
718.362	0.0143284
718.440	0.0144453
718.518	0.0145052
718.596	0.0145098
718.674	0.0145798
718.753	0.0145775
718.831	0.0143506
718.909	0.0144769
718.987	0.0144984
719.065	0.0145834
719.143	0.0146078
719.221	0.0145712
719.299	0.0146342
719.378	0.0146751
719.456	0.0149209
719.534	0.0148442
719.612	0.0147379
719.690	0.0148555
719.768	0.0148356
719.846	0.0148978
719.924	0.0149641
720.003	0.0149463
720.081	0.0150011
720.159	0.0151126
720.237	0.0151602
720.315	0.0152423
720.393	0.0152266
720.471	0.0153511
720.549	0.0154765
720.628	0.0155616
720.706	0.0155239
720.784	0.0155890
720.862	0.0157543
720.940	0.0155446
721.018	0.0156155
721.096	0.0156348
721.174	0.0156300
721.253	0.0155978
721.331	0.0156120
721.409	0.0155513
721.487	0.0154624
721.565	0.0155124
721.643	0.0154468
721.721	0.0154688
721.799	0.0154001
721.878	0.0153973
721.956	0.0152940
722.034	0.0152112
722.112	0.0151596
722.190	0.0151476
722.268	0.0152144
722.346	0.0151698
722.424	0.0151624
722.503	0.0151379
722.581	0.0150069
722.659	0.0148783
722.737	0.0150685
722.815	0.0150816
722.893	0.0148579
722.971	0.0147734
723.049	0.0149984
723.128	0.0149722
723.206	0.0150166
723.284	0.0149093
723.362	0.0150566
723.440	0.0150835
723.518	0.0149714
723.596	0.0150880
723.674	0.0150687
723.753	0.0151297
723.831	0.0150361
723.909	0.0149483
723.987	0.0148819
724.065	0.0149104
724.143	0.0147945
724.221	0.0146895
724.299	0.0147989
724.378	0.0147681
724.456	0.0146061
724.534	0.0145679
724.612	0.0143143
724.690	0.0144964
724.768	0.0143354
724.846	0.0143099
724.924	0.0142390
725.003	0.0143008
725.081	0.0142446
725.159	0.0144363
725.237	0.0144714
725.315	0.0143428
725.393	0.0143832
725.471	0.0144057
725.549	0.0145181
725.628	0.0146500
725.706	0.0145874
725.784	0.0147376
725.862	0.0147753
725.940	0.0147775
726.018	0.0147245
726.096	0.0149439
726.174	0.0149857
726.253	0.0150325
726.331	0.0149037
726.409	0.0148225
726.487	0.0149645
726.565	0.0147980
726.643	0.0149310
726.721	0.0150175
726.799	0.0150864
726.878	0.0150976
726.956	0.0150238
727.034	0.0150341
727.112	0.0151450
727.190	0.0151466
727.268	0.0153586
727.346	0.0152753
727.424	0.0154065
727.503	0.0154806
727.581	0.0153416
727.659	0.0153761
727.737	0.0154813
727.815	0.0154201
727.893	0.0154955
727.971	0.0153921
728.049	0.0154501
728.128	0.0153775
728.206	0.0152733
728.284	0.0152571
728.362	0.0152104
728.440	0.0151341
728.518	0.0150679
728.596	0.0152112
728.674	0.0151673
728.753	0.0150539
728.831	0.0150239
728.909	0.0150344
728.987	0.0150138
729.065	0.0150386
729.143	0.0147678
729.221	0.0149223
729.299	0.0148019
729.378	0.0147937
729.456	0.0148415
729.534	0.0148325
729.612	0.0147624
729.690	0.0147976
729.768	0.0147876
729.846	0.0149047
729.924	0.0149749
730.003	0.0149104
730.081	0.0150288
730.159	0.0150004
730.237	0.0148368
730.315	0.0149778
730.393	0.0150887
730.471	0.0150259
730.549	0.0148940
730.628	0.0149669
730.706	0.0149338
730.784	0.0150238
730.862	0.0149419
730.940	0.0150254
731.018	0.0149695
731.096	0.0146331
731.174	0.0148203
731.253	0.0147762
731.331	0.0148621
731.409	0.0147854
731.487	0.0147694
731.565	0.0146020
731.643	0.0147375
731.721	0.0146531
731.799	0.0146237
731.878	0.0146350
731.956	0.0147252
732.034	0.0144659
732.112	0.0147045
732.190	0.0146326
732.268	0.0145792
732.346	0.0146187
732.424	0.0146921
732.503	0.0146973
732.581	0.0148505
732.659	0.0148121
732.737	0.0149889
732.815	0.0149062
732.893	0.0148903
732.971	0.0150858
733.049	0.0151877
733.128	0.0150978
733.206	0.0152077
733.284	0.0151752
733.362	0.0150880
733.440	0.0152425
733.518	0.0151113
733.596	0.0150882
733.674	0.0151025
733.753	0.0151501
733.831	0.0151100
733.909	0.0151633
733.987	0.0152602
734.065	0.0152050
734.143	0.0151730
734.221	0.0151785
734.299	0.0150692
734.378	0.0150709
734.456	0.0151266
734.534	0.0151483
734.612	0.0153492
734.690	0.0151455
734.768	0.0151142
734.846	0.0150859
734.924	0.0151886
735.003	0.0150536
735.081	0.0151194
735.159	0.0150110
735.237	0.0152528
735.315	0.0149063
735.393	0.0150733
735.471	0.0150668
735.549	0.0149204
735.628	0.0148650
735.706	0.0148995
735.784	0.0148724
735.862	0.0149471
735.940	0.0146916
736.018	0.0147775
736.096	0.0146558
736.174	0.0147678
736.253	0.0147256
736.331	0.0148650
736.409	0.0147787
736.487	0.0148224
736.565	0.0149281
736.643	0.0148679
736.721	0.0149088
736.799	0.0150517
736.878	0.0150040
736.956	0.0149936
737.034	0.0151733
737.112	0.0151447
737.190	0.0150854
737.268	0.0150343
737.346	0.0152011
737.424	0.0149938
737.503	0.0149202
737.581	0.0150903
737.659	0.0150973
737.737	0.0151112
737.815	0.0150155
737.893	0.0151241
737.971	0.0150436
738.049	0.0150715
738.128	0.0149739
738.206	0.0151376
738.284	0.0149999
738.362	0.0149265
738.440	0.0149429
738.518	0.0149844
738.596	0.0148656
738.674	0.0148190
738.753	0.0146822
738.831	0.0148039
738.909	0.0148351
738.987	0.0147103
739.065	0.0146457
739.143	0.0147643
739.221	0.0149408
739.299	0.0147662
739.378	0.0148340
739.456	0.0148772
739.534	0.0148726
739.612	0.0150090
739.690	0.0150660
739.768	0.0148762
739.846	0.0150132
739.924	0.0150961
740.003	0.0151511
740.081	0.0151568
740.159	0.0150121
740.237	0.0151865
740.315	0.0150969
740.393	0.0149796
740.471	0.0152095
740.549	0.0151226
740.628	0.0150129
740.706	0.0150473
740.784	0.0150548
740.862	0.0149383
740.940	0.0150666
741.018	0.0150577
741.096	0.0148344
741.174	0.0150645
741.253	0.0149973
741.331	0.0149020
741.409	0.0149805
741.487	0.0148619
741.565	0.0150497
741.643	0.0149702
741.721	0.0149187
741.799	0.0148585
741.878	0.0149823
741.956	0.0150247
742.034	0.0149491
742.112	0.0149178
742.190	0.0149999
742.268	0.0149575
742.346	0.0148062
742.424	0.0149892
742.503	0.0148186
742.581	0.0148887
742.659	0.0149916
742.737	0.0148001
742.815	0.0148692
742.893	0.0149473
742.971	0.0149079
743.049	0.0149420
743.128	0.0147417
743.206	0.0149052
743.284	0.0150414
743.362	0.0148968
743.440	0.0148667
743.518	0.0150014
743.596	0.0151488
743.674	0.0150845
743.753	0.0151749
743.831	0.0151430
743.909	0.0151437
743.987	0.0151265
744.065	0.0151846
744.143	0.0152221
744.221	0.0152142
744.299	0.0152750
744.378	0.0151951
744.456	0.0150478
744.534	0.0152575
744.612	0.0153138
744.690	0.0151059
744.768	0.0150603
744.846	0.0150673
744.924	0.0150096
745.003	0.0151245
745.081	0.0150504
745.159	0.0150516
745.237	0.0150640
745.315	0.0150980
745.393	0.0150893
745.471	0.0150324
745.549	0.0149384
745.628	0.0150343
745.706	0.0150111
745.784	0.0149083
745.862	0.0149514
745.940	0.0149772
746.018	0.0149470
746.096	0.0149673
746.174	0.0149494
746.253	0.0148700
746.331	0.0148521
746.409	0.0148190
746.487	0.0148515
746.565	0.0147929
746.643	0.0149056
746.721	0.0148340
746.799	0.0149962
746.878	0.0149141
746.956	0.0150249
747.034	0.0151199
747.112	0.0151234
747.190	0.0150938
747.268	0.0151163
747.346	0.0150638
747.424	0.0151398
747.503	0.0152348
747.581	0.0152119
747.659	0.0151817
747.737	0.0150395
747.815	0.0151064
747.893	0.0151765
747.971	0.0150466
748.049	0.0150624
748.128	0.0150119
748.206	0.0149332
748.284	0.0148094
748.362	0.0149702
748.440	0.0148784
748.518	0.0147336
748.596	0.0148911
748.674	0.0150165
748.753	0.0149609
748.831	0.0148257
748.909	0.0149168
748.987	0.0148894
749.065	0.0149556
749.143	0.0149557
749.221	0.0149983
749.299	0.0150615
749.378	0.0148328
749.456	0.0150349
749.534	0.0150173
749.612	0.0150587
749.690	0.0150066
749.768	0.0149095
749.846	0.0149947
749.924	0.0148186
750.003	0.0149561
750.081	0.0149191
750.159	0.0150116
750.237	0.0148941
750.315	0.0147304
750.393	0.0150731
750.471	0.0148920
750.549	0.0150120
750.628	0.0150817
750.706	0.0150047
750.784	0.0151837
750.862	0.0150765
750.940	0.0150940
751.018	0.0151909
751.096	0.0150455
751.174	0.0151698
751.253	0.0152595
751.331	0.0153470
751.409	0.0152661
751.487	0.0151498
751.565	0.0152489
751.643	0.0151880
751.721	0.0150442
751.799	0.0150471
751.878	0.0151848
751.956	0.0150249
752.034	0.0150168
752.112	0.0149213
752.190	0.0150124
752.268	0.0149894
752.346	0.0148460
752.424	0.0149176
752.503	0.0150122
752.581	0.0149004
752.659	0.0149332
752.737	0.0148871
752.815	0.0148209
752.893	0.0149272
752.971	0.0150359
753.049	0.0149228
753.128	0.0149582
753.206	0.0149191
753.284	0.0147697
753.362	0.0149044
753.440	0.0150308
753.518	0.0149342
753.596	0.0148901
753.674	0.0149822
753.753	0.0149468
753.831	0.0149123
753.909	0.0149925
753.987	0.0148619
754.065	0.0150233
754.143	0.0150890
754.221	0.0150130
754.299	0.0150985
754.378	0.0151266
754.456	0.0151746
754.534	0.0149606
754.612	0.0151050
754.690	0.0150924
754.768	0.0150603
754.846	0.0148995
754.924	0.0150439
755.003	0.0148998
755.081	0.0150416
755.159	0.0149680
755.237	0.0150401
755.315	0.0148949
755.393	0.0148205
755.471	0.0148475
755.549	0.0149271
755.628	0.0148159
755.706	0.0149088
755.784	0.0148660
755.862	0.0148649
755.940	0.0149380
756.018	0.0148511
756.096	0.0148848
756.174	0.0148797
756.253	0.0149721
756.331	0.0149802
756.409	0.0150082
756.487	0.0149981
756.565	0.0150398
756.643	0.0148439
756.721	0.0149697
756.799	0.0151701
756.878	0.0149988
756.956	0.0149349
757.034	0.0150168
757.112	0.0150587
757.190	0.0150927
757.268	0.0150101
757.346	0.0150636
757.424	0.0148060
757.503	0.0149333
757.581	0.0149728
757.659	0.0150372
757.737	0.0150089
757.815	0.0149722
757.893	0.0149674
757.971	0.0150166
758.049	0.0150004
758.128	0.0149556
758.206	0.0151040
758.284	0.0150201
758.362	0.0150114
758.440	0.0149346
758.518	0.0148781
758.596	0.0150607
758.674	0.0150569
758.753	0.0150948
758.831	0.0151476
758.909	0.0150993
758.987	0.0150093
759.065	0.0150432
759.143	0.0150468
759.221	0.0151444
759.299	0.0149304
759.378	0.0149773
759.456	0.0149456
759.534	0.0149014
759.612	0.0149303
759.690	0.0148706
759.768	0.0148754
759.846	0.0149641
759.924	0.0148921
760.003	0.0148346
760.081	0.0147900
760.159	0.0149150
760.237	0.0149352
760.315	0.0147997
760.393	0.0148792
760.471	0.0147803
760.549	0.0148454
760.628	0.0148568
760.706	0.0148238
760.784	0.0149027
760.862	0.0147936
760.940	0.0148455
761.018	0.0150130
761.096	0.0147679
761.174	0.0148337
761.253	0.0148539
761.331	0.0148700
761.409	0.0149509
761.487	0.0148526
761.565	0.0148832
761.643	0.0150437
761.721	0.0150026
761.799	0.0149258
761.878	0.0151309
761.956	0.0149678
762.034	0.0150802
762.112	0.0151664
762.190	0.0150591
762.268	0.0150481
762.346	0.0149571
762.424	0.0149265
762.503	0.0148339
762.581	0.0148405
762.659	0.0149447
762.737	0.0148791
762.815	0.0148026
762.893	0.0148271
762.971	0.0148208
763.049	0.0149017
763.128	0.0148402
763.206	0.0148121
763.284	0.0148100
763.362	0.0149272
763.440	0.0149757
763.518	0.0150464
763.596	0.0150540
763.674	0.0149995
763.753	0.0151320
763.831	0.0151785
763.909	0.0151399
763.987	0.0150837
764.065	0.0150244
764.143	0.0150013
764.221	0.0150333
764.299	0.0150109
764.378	0.0150235
764.456	0.0149854
764.534	0.0149571
764.612	0.0150527
764.690	0.0151041
764.768	0.0150970
764.846	0.0150014
764.924	0.0149357
765.003	0.0149427
765.081	0.0150003
765.159	0.0150073
765.237	0.0149007
765.315	0.0149317
765.393	0.0150191
765.471	0.0150075
765.549	0.0147913
765.628	0.0149160
765.706	0.0150732
765.784	0.0151041
765.862	0.0150526
765.940	0.0149599
766.018	0.0149617
766.096	0.0149301
766.174	0.0150124
766.253	0.0150932
766.331	0.0149097
766.409	0.0149851
766.487	0.0149828
766.565	0.0151149
766.643	0.0150374
766.721	0.0149990
766.799	0.0150253
766.878	0.0150424
766.956	0.0150298
767.034	0.0148730
767.112	0.0150946
767.190	0.0148917
767.268	0.0149326
767.346	0.0149798
767.424	0.0149220
767.503	0.0148829
767.581	0.0149754
767.659	0.0149273
767.737	0.0150475
767.815	0.0150439
767.893	0.0150516
767.971	0.0150121
768.049	0.0149631
768.128	0.0149431
768.206	0.0149934
768.284	0.0151291
768.362	0.0150764
768.440	0.0149716
768.518	0.0149512
768.596	0.0150099
768.674	0.0148595
768.753	0.0149693
768.831	0.0150642
768.909	0.0149680
768.987	0.0151008
769.065	0.0149905
769.143	0.0150060
769.221	0.0150026
769.299	0.0149495
769.378	0.0150202
769.456	0.0150811
769.534	0.0150321
769.612	0.0149455
769.690	0.0150698
769.768	0.0151086
769.846	0.0150070
769.924	0.0150029
770.003	0.0150346
770.081	0.0150410
770.159	0.0150015
770.237	0.0149161
770.315	0.0149882
770.393	0.0150091
770.471	0.0148785
770.549	0.0149606
770.628	0.0150135
770.706	0.0149518
770.784	0.0149495
770.862	0.0149591
770.940	0.0150589
771.018	0.0150007
771.096	0.0150928
771.174	0.0150789
771.253	0.0150051
771.331	0.0150459
771.409	0.0150695
771.487	0.0150570
771.565	0.0150217
771.643	0.0150761
771.721	0.0151208
771.799	0.0150553
771.878	0.0150848
771.956	0.0151028
772.034	0.0149848
772.112	0.0150117
772.190	0.0150017
772.268	0.0149393
772.346	0.0150369
772.424	0.0149464
772.503	0.0150116
772.581	0.0148430
772.659	0.0149954
772.737	0.0150445
772.815	0.0151241
772.893	0.0149639
772.971	0.0149202
773.049	0.0150150
773.128	0.0149459
773.206	0.0150918
773.284	0.0149372
773.362	0.0151445
773.440	0.0150805
773.518	0.0150056
773.596	0.0150928
773.674	0.0150675
773.753	0.0151425
773.831	0.0150153
773.909	0.0150350
773.987	0.0151495
774.065	0.0150577
774.143	0.0149881
774.221	0.0149094
774.299	0.0150110
774.378	0.0151337
774.456	0.0151003
774.534	0.0150121
774.612	0.0150130
774.690	0.0151131
774.768	0.0150323
774.846	0.0150026
774.924	0.0149676
775.003	0.0149545
775.081	0.0150417
775.159	0.0149648
775.237	0.0149559
775.315	0.0149693
775.393	0.0149434
775.471	0.0148891
775.549	0.0150390
775.628	0.0149873
775.706	0.0149903
775.784	0.0148527
775.862	0.0149598
775.940	0.0150644
776.018	0.0149605
776.096	0.0148867
776.174	0.0149072
776.253	0.0148631
776.331	0.0148817
776.409	0.0148148
776.487	0.0149335
776.565	0.0148459
776.643	0.0148478
776.721	0.0147727
776.799	0.0147488
776.878	0.0148307
776.956	0.0150229
777.034	0.0148788
777.112	0.0148282
777.190	0.0148811
777.268	0.0148728
777.346	0.0148210
777.424	0.0150319
777.503	0.0149136
777.581	0.0150076
777.659	0.0150394
777.737	0.0149472
777.815	0.0149726
777.893	0.0150133
777.971	0.0149971
778.049	0.0150229
778.128	0.0149572
778.206	0.0149780
778.284	0.0150483
778.362	0.0149476
778.440	0.0150259
778.518	0.0151106
778.596	0.0150909
778.674	0.0150521
778.753	0.0150579
778.831	0.0151234
778.909	0.0149979
778.987	0.0150523
779.065	0.0151556
779.143	0.0151722
779.221	0.0150206
779.299	0.0149919
779.378	0.0151270
779.456	0.0150631
779.534	0.0149226
779.612	0.0149038
779.690	0.0148370
779.768	0.0149958
779.846	0.0148849
779.924	0.0149799
780.003	0.0148888
780.081	0.0147558
780.159	0.0149280
780.237	0.0148595
780.315	0.0148244
780.393	0.0147956
780.471	0.0149447
780.549	0.0149365
780.628	0.0147955
780.706	0.0149290
780.784	0.0149763
780.862	0.0149498
780.940	0.0148534
781.018	0.0149216
781.096	0.0149549
781.174	0.0149608
781.253	0.0149001
781.331	0.0148013
781.409	0.0149694
781.487	0.0149682
781.565	0.0149003
781.643	0.0146558
781.721	0.0148412
781.799	0.0149957
781.878	0.0149581
781.956	0.0148496
782.034	0.0146806
782.112	0.0148314
782.190	0.0148729
782.268	0.0148477
782.346	0.0149364
782.424	0.0149510
782.503	0.0148025
782.581	0.0149941
782.659	0.0149062
782.737	0.0148538
782.815	0.0149157
782.893	0.0150227
782.971	0.0149799
783.049	0.0149777
783.128	0.0149374
783.206	0.0149560
783.284	0.0150003
783.362	0.0150992
783.440	0.0150929
783.518	0.0151517
783.596	0.0150889
783.674	0.0149573
783.753	0.0149819
783.831	0.0149656
783.909	0.0149834
783.987	0.0150479
784.065	0.0149395
784.143	0.0149166
784.221	0.0150465
784.299	0.0149149
784.378	0.0148512
784.456	0.0149551
784.534	0.0149480
784.612	0.0148035
784.690	0.0149860
784.768	0.0149440
784.846	0.0148694
784.924	0.0148731
785.003	0.0149731
785.081	0.0149002
785.159	0.0148650
785.237	0.0148418
785.315	0.0148314
785.393	0.0150218
785.471	0.0149776
785.549	0.0147815
785.628	0.0148228
785.706	0.0147134
785.784	0.0147805
785.862	0.0148660
785.940	0.0148038
786.018	0.0148024
786.096	0.0149414
786.174	0.0148320
786.253	0.0148897
786.331	0.0149219
786.409	0.0148032
786.487	0.0149212
786.565	0.0148346
786.643	0.0149672
786.721	0.0148815
786.799	0.0148824
786.878	0.0149451
786.956	0.0149231
787.034	0.0150089
787.112	0.0150290
787.190	0.0150089
787.268	0.0149483
787.346	0.0150208
787.424	0.0149059
787.503	0.0150460
787.581	0.0151146
787.659	0.0150503
787.737	0.0150017
787.815	0.0150504
787.893	0.0150102
787.971	0.0151656
788.049	0.0151096
788.128	0.0150577
788.206	0.0151177
788.284	0.0150350
788.362	0.0149937
788.440	0.0150180
788.518	0.0148689
788.596	0.0150056
788.674	0.0149984
788.753	0.0150159
788.831	0.0149355
788.909	0.0149582
788.987	0.0149436
789.065	0.0149229
789.143	0.0148092
789.221	0.0149261
789.299	0.0150418
789.378	0.0149682
789.456	0.0149566
789.534	0.0150024
789.612	0.0149145
789.690	0.0149121
789.768	0.0149658
789.846	0.0149342
789.924	0.0150182
790.003	0.0149298
790.081	0.0149378
790.159	0.0150120
790.237	0.0148576
790.315	0.0149234
790.393	0.0148863
790.471	0.0148019
790.549	0.0148667
790.628	0.0149197
790.706	0.0149135
790.784	0.0149167
790.862	0.0148594
790.940	0.0149442
791.018	0.0148903
791.096	0.0148268
791.174	0.0148889
791.253	0.0149212
791.331	0.0149232
791.409	0.0148650
791.487	0.0149800
791.565	0.0149203
791.643	0.0149527
791.721	0.0148576
791.799	0.0149337
791.878	0.0149093
791.956	0.0150642
792.034	0.0150302
792.112	0.0149213
792.190	0.0148911
792.268	0.0150115
792.346	0.0150739
792.424	0.0151093
792.503	0.0150393
792.581	0.0151057
792.659	0.0150529
792.737	0.0148983
792.815	0.0150638
792.893	0.0152264
792.971	0.0150890
793.049	0.0150538
793.128	0.0151280
793.206	0.0150811
793.284	0.0151517
793.362	0.0152624
793.440	0.0150505
793.518	0.0150665
793.596	0.0150449
793.674	0.0151433
793.753	0.0151312
793.831	0.0150366
793.909	0.0150847
793.987	0.0150776
794.065	0.0151493
794.143	0.0151477
794.221	0.0150091
794.299	0.0148881
794.378	0.0150319
794.456	0.0150257
794.534	0.0149936
794.612	0.0149834
794.690	0.0148895
794.768	0.0150041
794.846	0.0149130
794.924	0.0148241
795.003	0.0148097
795.081	0.0147441
795.159	0.0147419
795.237	0.0148721
795.315	0.0148424
795.393	0.0148500
795.471	0.0149095
795.549	0.0148866
795.628	0.0149891
795.706	0.0148858
795.784	0.0148542
795.862	0.0150037
795.940	0.0150964
796.018	0.0149890
796.096	0.0149269
796.174	0.0150343
796.253	0.0149928
796.331	0.0149780
796.409	0.0152058
796.487	0.0150394
796.565	0.0149952
796.643	0.0150369
796.721	0.0150256
796.799	0.0150755
796.878	0.0150370
796.956	0.0150491
797.034	0.0150402
797.112	0.0150611
797.190	0.0149479
797.268	0.0149416
797.346	0.0150434
797.424	0.0149737
797.503	0.0149229
797.581	0.0150590
797.659	0.0150147
797.737	0.0149741
797.815	0.0150639
797.893	0.0150232
797.971	0.0149416
798.049	0.0150260
798.128	0.0149676
798.206	0.0151125
798.284	0.0150333
798.362	0.0150448
798.440	0.0149767
798.518	0.0150266
798.596	0.0152590
798.674	0.0151485
798.753	0.0149491
798.831	0.0149909
798.909	0.0152068
798.987	0.0149891
799.065	0.0150217
799.143	0.0151077
799.221	0.0149619
799.299	0.0150710
799.378	0.0150722
799.456	0.0150365
799.534	0.0150508
799.612	0.0149774
799.690	0.0149613
799.768	0.0150377
799.846	0.0149387
799.924	0.0149108
800.003	0.0149371
800.081	0.0148975
800.159	0.0149358
800.237	0.0149872
800.315	0.0150967
800.393	0.0149283
800.471	0.0146408
800.549	0.0149297
800.628	0.0149789
800.706	0.0150304
800.784	0.0147965
800.862	0.0149539
800.940	0.0148848
801.018	0.0148779
801.096	0.0149197
801.174	0.0148229
801.253	0.0148382
801.331	0.0148322
801.409	0.0148413
801.487	0.0147649
801.565	0.0146864
801.643	0.0149055
801.721	0.0148395
801.799	0.0148248
801.878	0.0148738
801.956	0.0148396
802.034	0.0149411
802.112	0.0149936
802.190	0.0148722
802.268	0.0148795
802.346	0.0147992
802.424	0.0147972
802.503	0.0149298
802.581	0.0148392
802.659	0.0146901
802.737	0.0148682
802.815	0.0147679
802.893	0.0147411
802.971	0.0148296
803.049	0.0148246
803.128	0.0149190
803.206	0.0149085
803.284	0.0148647
803.362	0.0149017
803.440	0.0147598
803.518	0.0149453
803.596	0.0149592
803.674	0.0149507
803.753	0.0149296
803.831	0.0150717
803.909	0.0149001
803.987	0.0150510
804.065	0.0150892
804.143	0.0151183
804.221	0.0149103
804.299	0.0148843
804.378	0.0150147
804.456	0.0150041
804.534	0.0149242
804.612	0.0150764
804.690	0.0150541
804.768	0.0147855
804.846	0.0148714
804.924	0.0150986
805.003	0.0150772
805.081	0.0149686
805.159	0.0149588
805.237	0.0149639
805.315	0.0149558
805.393	0.0149928
805.471	0.0150305
805.549	0.0150271
805.628	0.0149664
805.706	0.0150138
805.784	0.0149512
805.862	0.0149682
805.940	0.0149166
806.018	0.0149614
806.096	0.0148734
806.174	0.0148428
806.253	0.0149875
806.331	0.0150543
806.409	0.0147588
806.487	0.0148882
806.565	0.0149157
806.643	0.0149023
806.721	0.0148965
806.799	0.0148460
806.878	0.0148232
806.956	0.0147653
807.034	0.0147115
807.112	0.0145998
807.190	0.0147039
807.268	0.0147470
807.346	0.0148161
807.424	0.0148524
807.503	0.0147479
807.581	0.0148011
807.659	0.0146647
807.737	0.0145904
807.815	0.0147370
807.893	0.0148244
807.971	0.0147428
808.049	0.0148135
808.128	0.0149160
808.206	0.0149144
808.284	0.0148652
808.362	0.0147499
808.440	0.0148378
808.518	0.0147105
808.596	0.0148615
808.674	0.0149810
808.753	0.0148893
808.831	0.0149384
808.909	0.0149203
808.987	0.0149818
809.065	0.0149164
809.143	0.0150072
809.221	0.0149492
809.299	0.0148853
809.378	0.0149541
809.456	0.0148375
809.534	0.0148872
809.612	0.0149406
809.690	0.0150024
809.768	0.0148881
809.846	0.0149871
809.924	0.0148904
810.003	0.0149792
810.081	0.0147857
810.159	0.0148810
810.237	0.0151094
810.315	0.0149330
810.393	0.0150311
810.471	0.0151042
810.549	0.0150806
810.628	0.0152141
810.706	0.0149744
810.784	0.0150718
810.862	0.0149835
810.940	0.0149954
811.018	0.0150895
811.096	0.0150482
811.174	0.0150264
811.253	0.0150666
811.331	0.0150719
811.409	0.0150367
811.487	0.0149416
811.565	0.0152347
811.643	0.0150345
811.721	0.0150288
811.799	0.0152187
811.878	0.0149854
811.956	0.0150232
812.034	0.0150691
812.112	0.0150052
812.190	0.0150244
812.268	0.0150154
812.346	0.0150615
812.424	0.0150291
812.503	0.0149257
812.581	0.0151673
812.659	0.0150877
812.737	0.0149717
812.815	0.0149698
812.893	0.0150462
812.971	0.0149598
813.049	0.0149030
813.128	0.0149287
813.206	0.0150945
813.284	0.0149026
813.362	0.0149683
813.440	0.0149580
813.518	0.0150552
813.596	0.0149716
813.674	0.0148360
813.753	0.0149017
813.831	0.0149158
813.909	0.0148071
813.987	0.0149095
814.065	0.0148060
814.143	0.0148766
814.221	0.0148566
814.299	0.0148521
814.378	0.0149641
814.456	0.0149241
814.534	0.0148827
814.612	0.0148502
814.690	0.0149383
814.768	0.0148961
814.846	0.0145834
814.924	0.0148573
815.003	0.0148931
815.081	0.0150243
815.159	0.0148286
815.237	0.0147404
815.315	0.0148626
815.393	0.0147462
815.471	0.0151424
815.549	0.0151103
815.628	0.0149024
815.706	0.0148923
815.784	0.0149570
815.862	0.0148971
815.940	0.0149596
816.018	0.0150082
816.096	0.0150871
816.174	0.0149673
816.253	0.0150386
816.331	0.0149899
816.409	0.0150835
816.487	0.0150921
816.565	0.0151449
816.643	0.0150405
816.721	0.0152116
816.799	0.0151050
816.878	0.0151552
816.956	0.0151049
817.034	0.0150570
817.112	0.0151692
817.190	0.0151479
817.268	0.0151044
817.346	0.0151525
817.424	0.0149738
817.503	0.0150748
817.581	0.0150834
817.659	0.0151729
817.737	0.0151104
817.815	0.0151516
817.893	0.0151145
817.971	0.0151054
818.049	0.0150867
818.128	0.0150351
818.206	0.0150520
818.284	0.0151350
818.362	0.0150690
818.440	0.0150668
818.518	0.0151369
818.596	0.0151324
818.674	0.0150587
818.753	0.0150002
818.831	0.0150372
818.909	0.0151112
818.987	0.0148320
819.065	0.0149020
819.143	0.0150693
819.221	0.0150711
819.299	0.0148707
819.378	0.0149261
819.456	0.0149332
819.534	0.0149402
819.612	0.0149168
819.690	0.0149104
819.768	0.0148742
819.846	0.0148569
819.924	0.0147399
820.003	0.0148132
820.081	0.0147959
820.159	0.0146599
820.237	0.0148096
820.315	0.0148370
820.393	0.0148705
820.471	0.0146604
820.549	0.0146916
820.628	0.0146987
820.706	0.0148294
820.784	0.0147195
820.862	0.0148079
820.940	0.0149076
821.018	0.0148184
821.096	0.0148144
821.174	0.0148852
821.253	0.0147050
821.331	0.0148482
821.409	0.0149062
821.487	0.0148439
821.565	0.0147448
821.643	0.0149328
821.721	0.0149009
821.799	0.0148358
821.878	0.0149067
821.956	0.0148909
822.034	0.0148787
822.112	0.0148946
822.190	0.0148934
822.268	0.0150050
822.346	0.0148507
822.424	0.0149040
822.503	0.0150154
822.581	0.0148393
822.659	0.0149741
822.737	0.0150382
822.815	0.0149505
822.893	0.0149323
822.971	0.0150022
823.049	0.0149303
823.128	0.0149837
823.206	0.0151151
823.284	0.0149935
823.362	0.0150603
823.440	0.0150688
823.518	0.0150808
823.596	0.0150342
823.674	0.0150212
823.753	0.0150496
823.831	0.0150115
823.909	0.0150808
823.987	0.0152193
824.065	0.0151029
824.143	0.0150703
824.221	0.0152627
824.299	0.0151182
824.378	0.0150134
824.456	0.0150725
824.534	0.0151735
824.612	0.0151601
824.690	0.0151447
824.768	0.0149921
824.846	0.0150349
824.924	0.0150761
825.003	0.0149412
825.081	0.0150198
825.159	0.0150690
825.237	0.0150075
825.315	0.0148862
825.393	0.0149858
825.471	0.0150459
825.549	0.0150064
825.628	0.0147768
825.706	0.0149165
825.784	0.0147409
825.862	0.0148330
825.940	0.0149158
826.018	0.0148002
826.096	0.0148705
826.174	0.0149340
826.253	0.0148234
826.331	0.0147895
826.409	0.0149208
826.487	0.0148508
826.565	0.0147739
826.643	0.0148399
826.721	0.0148488
826.799	0.0148383
826.878	0.0148804
826.956	0.0147722
827.034	0.0148030
827.112	0.0147955
827.190	0.0148084
827.268	0.0148104
827.346	0.0147985
827.424	0.0148194
827.503	0.0148073
827.581	0.0148241
827.659	0.0147670
827.737	0.0148915
827.815	0.0149052
827.893	0.0147775
827.971	0.0147491
828.049	0.0149310
828.128	0.0150003
828.206	0.0147821
828.284	0.0148609
828.362	0.0149473
828.440	0.0149473
828.518	0.0149238
828.596	0.0149623
828.674	0.0148043
828.753	0.0149419
828.831	0.0149827
828.909	0.0148534
828.987	0.0150580
829.065	0.0150737
829.143	0.0150427
829.221	0.0149928
829.299	0.0150066
829.378	0.0149834
829.456	0.0150784
829.534	0.0151512
829.612	0.0150610
829.690	0.0150890
829.768	0.0151990
829.846	0.0151494
829.924	0.0150808
830.003	0.0150002
830.081	0.0149947
830.159	0.0149944
830.237	0.0151199
830.315	0.0152643
830.393	0.0151453
830.471	0.0150409
830.549	0.0151670
830.628	0.0152036
830.706	0.0151295
830.784	0.0151675
830.862	0.0151273
830.940	0.0149876
831.018	0.0150929
831.096	0.0150630
831.174	0.0150732
831.253	0.0152064
831.331	0.0149720
831.409	0.0149324
831.487	0.0149184
831.565	0.0149400
831.643	0.0149588
831.721	0.0149670
831.799	0.0149534
831.878	0.0149355
831.956	0.0149091
832.034	0.0150442
832.112	0.0151289
832.190	0.0149417
832.268	0.0149554
832.346	0.0148344
832.424	0.0148811
832.503	0.0149967
832.581	0.0149549
832.659	0.0149693
832.737	0.0149209
832.815	0.0149911
832.893	0.0148859
832.971	0.0148211
833.049	0.0149514
833.128	0.0148938
833.206	0.0150018
833.284	0.0149154
833.362	0.0148799
833.440	0.0148763
833.518	0.0149918
833.596	0.0149660
833.674	0.0149363
833.753	0.0149303
833.831	0.0150648
833.909	0.0150558
833.987	0.0148811
834.065	0.0149350
834.143	0.0150232
834.221	0.0151286
834.299	0.0149361
834.378	0.0149157
834.456	0.0150394
834.534	0.0151575
834.612	0.0149799
834.690	0.0150090
834.768	0.0149894
834.846	0.0150893
834.924	0.0151695
835.003	0.0149612
835.081	0.0150002
835.159	0.0149843
835.237	0.0150780
835.315	0.0149526
835.393	0.0148966
835.471	0.0149610
835.549	0.0151196
835.628	0.0149760
835.706	0.0149777
835.784	0.0149789
835.862	0.0151314
835.940	0.0148213
836.018	0.0149464
836.096	0.0151665
836.174	0.0151051
836.253	0.0150696
836.331	0.0149541
836.409	0.0151143
836.487	0.0149933
836.565	0.0148978
836.643	0.0149460
836.721	0.0151012
836.799	0.0150425
836.878	0.0149317
836.956	0.0150636
837.034	0.0149919
837.112	0.0150865
837.190	0.0149855
837.268	0.0150546
837.346	0.0150292
837.424	0.0149756
837.503	0.0150872
837.581	0.0150438
837.659	0.0149898
837.737	0.0149156
837.815	0.0149061
837.893	0.0150614
837.971	0.0148823
838.049	0.0150572
838.128	0.0149472
838.206	0.0150069
838.284	0.0150602
838.362	0.0151255
838.440	0.0150015
838.518	0.0149194
838.596	0.0149924
838.674	0.0150748
838.753	0.0149813
838.831	0.0149449
838.909	0.0150166
838.987	0.0148565
839.065	0.0149523
839.143	0.0150809
839.221	0.0150999
839.299	0.0148769
839.378	0.0150096
839.456	0.0149751
839.534	0.0152357
839.612	0.0149606
839.690	0.0149496
839.768	0.0150749
839.846	0.0151204
839.924	0.0150684
840.003	0.0150802
840.081	0.0150488
840.159	0.0150652
840.237	0.0149142
840.315	0.0148977
840.393	0.0150115
840.471	0.0150077
840.549	0.0149955
840.628	0.0149325
840.706	0.0150456
840.784	0.0149081
840.862	0.0148643
840.940	0.0149533
841.018	0.0148449
841.096	0.0147842
841.174	0.0148470
841.253	0.0148798
841.331	0.0149705
841.409	0.0148148
841.487	0.0150680
841.565	0.0148978
841.643	0.0149113
841.721	0.0147572
841.799	0.0150191
841.878	0.0150381
841.956	0.0150175
842.034	0.0149112
842.112	0.0150926
842.190	0.0150772
842.268	0.0150423
842.346	0.0148614
842.424	0.0149686
842.503	0.0151099
842.581	0.0150469
842.659	0.0149879
842.737	0.0148802
842.815	0.0150121
842.893	0.0150646
842.971	0.0150565
843.049	0.0149559
843.128	0.0149477
843.206	0.0150063
843.284	0.0149498
843.362	0.0148743
843.440	0.0149228
843.518	0.0151664
843.596	0.0151747
843.674	0.0151929
843.753	0.0150107
843.831	0.0149443
843.909	0.0150967
843.987	0.0150758
844.065	0.0150278
844.143	0.0150673
844.221	0.0150064
844.299	0.0151275
844.378	0.0151160
844.456	0.0149911
844.534	0.0150069
844.612	0.0149268
844.690	0.0149091
844.768	0.0149738
844.846	0.0149648
844.924	0.0149505
845.003	0.0150517
845.081	0.0149796
845.159	0.0150774
845.237	0.0150012
845.315	0.0149488
845.393	0.0150562
845.471	0.0149552
845.549	0.0150708
845.628	0.0150896
845.706	0.0150411
845.784	0.0150405
845.862	0.0150350
845.940	0.0149091
846.018	0.0150074
846.096	0.0149507
846.174	0.0150487
846.253	0.0150892
846.331	0.0151207
846.409	0.0151504
846.487	0.0148897
846.565	0.0150011
846.643	0.0149245
846.721	0.0150384
846.799	0.0149230
846.878	0.0149097
846.956	0.0149536
847.034	0.0148440
847.112	0.0150200
847.190	0.0149434
847.268	0.0148538
847.346	0.0148462
847.424	0.0149675
847.503	0.0148441
847.581	0.0148395
847.659	0.0148869
847.737	0.0148883
847.815	0.0147562
847.893	0.0149178
847.971	0.0149293
848.049	0.0148101
848.128	0.0147607
848.206	0.0149234
848.284	0.0149084
848.362	0.0146840
848.440	0.0147907
848.518	0.0150627
848.596	0.0148519
848.674	0.0148541
848.753	0.0148335
848.831	0.0149189
848.909	0.0147826
848.987	0.0148698
849.065	0.0148408
849.143	0.0149588
849.221	0.0148270
849.299	0.0148965
849.378	0.0149756
849.456	0.0150462
849.534	0.0149697
849.612	0.0150471
849.690	0.0150923
849.768	0.0150874
849.846	0.0150713
849.924	0.0150814
850.003	0.0149842
850.081	0.0151215
850.159	0.0151083
850.237	0.0150529
850.315	0.0151961
850.393	0.0151182
850.471	0.0150547
850.549	0.0149951
850.628	0.0151550
850.706	0.0150166
850.784	0.0149580
850.862	0.0149423
850.940	0.0149281
851.018	0.0149412
851.096	0.0149626
851.174	0.0148902
851.253	0.0151134
851.331	0.0148902
851.409	0.0148546
851.487	0.0149918
851.565	0.0148839
851.643	0.0150806
851.721	0.0149913
851.799	0.0148723
851.878	0.0150800
851.956	0.0150330
852.034	0.0149298
852.112	0.0149760
852.190	0.0151244
852.268	0.0149532
852.346	0.0148943
852.424	0.0148924
852.503	0.0149718
852.581	0.0149177
852.659	0.0150755
852.737	0.0149860
852.815	0.0149339
852.893	0.0150312
852.971	0.0151003
853.049	0.0149907
853.128	0.0149128
853.206	0.0149752
853.284	0.0149495
853.362	0.0148741
853.440	0.0148709
853.518	0.0150638
853.596	0.0150201
853.674	0.0150489
853.753	0.0151172
853.831	0.0150405
853.909	0.0149509
853.987	0.0150742
854.065	0.0150465
854.143	0.0149616
854.221	0.0149535
854.299	0.0149568
854.378	0.0149257
854.456	0.0148838
854.534	0.0150124
854.612	0.0149790
854.690	0.0149959
854.768	0.0148795
854.846	0.0149525
854.924	0.0150211
855.003	0.0149184
855.081	0.0149927
855.159	0.0149813
855.237	0.0150420
855.315	0.0149734
855.393	0.0148870
855.471	0.0150303
855.549	0.0150913
855.628	0.0150787
855.706	0.0149877
855.784	0.0149811
855.862	0.0149161
855.940	0.0149429
856.018	0.0149390
856.096	0.0148892
856.174	0.0148711
856.253	0.0148441
856.331	0.0149585
856.409	0.0151240
856.487	0.0148989
856.565	0.0150417
856.643	0.0150917
856.721	0.0148354
856.799	0.0148611
856.878	0.0149699
856.956	0.0149610
857.034	0.0150432
857.112	0.0148893
857.190	0.0149818
857.268	0.0149750
857.346	0.0149892
857.424	0.0148624
857.503	0.0149102
857.581	0.0149992
857.659	0.0149086
857.737	0.0150235
857.815	0.0149654
857.893	0.0150497
857.971	0.0150214
858.049	0.0149724
858.128	0.0149762
858.206	0.0149643
858.284	0.0151623
858.362	0.0151444
858.440	0.0150018
858.518	0.0150849
858.596	0.0149910
858.674	0.0151221
858.753	0.0149672
858.831	0.0149095
858.909	0.0151789
858.987	0.0149886
859.065	0.0149543
859.143	0.0150216
859.221	0.0150866
859.299	0.0151381
859.378	0.0149395
859.456	0.0150069
859.534	0.0150274
859.612	0.0150346
859.690	0.0150437
859.768	0.0151572
859.846	0.0149038
859.924	0.0149467
860.003	0.0150789
860.081	0.0151641
860.159	0.0151466
860.237	0.0150451
860.315	0.0151468
860.393	0.0150089
860.471	0.0149999
860.549	0.0150978
860.628	0.0150252
860.706	0.0150322
860.784	0.0150056
860.862	0.0150336
860.940	0.0150512
861.018	0.0148963
861.096	0.0148529
861.174	0.0150230
861.253	0.0148685
861.331	0.0148837
861.409	0.0150206
861.487	0.0149485
861.565	0.0149889
861.643	0.0150809
861.721	0.0148801
861.799	0.0148427
861.878	0.0149467
861.956	0.0148738
862.034	0.0149822
862.112	0.0148529
862.190	0.0149287
862.268	0.0149133
862.346	0.0148688
862.424	0.0149020
862.503	0.0149663
862.581	0.0149741
862.659	0.0148801
862.737	0.0148552
862.815	0.0148424
862.893	0.0148932
862.971	0.0149180
863.049	0.0149743
863.128	0.0150482
863.206	0.0149868
863.284	0.0149641
863.362	0.0149112
863.440	0.0150317
863.518	0.0151226
863.596	0.0150233
863.674	0.0151376
863.753	0.0150546
863.831	0.0150199
863.909	0.0149536
863.987	0.0150209
864.065	0.0150291
864.143	0.0149316
864.221	0.0149759
864.299	0.0149609
864.378	0.0148766
864.456	0.0149010
864.534	0.0150957
864.612	0.0151065
864.690	0.0150474
864.768	0.0150534
864.846	0.0150557
864.924	0.0150123
865.003	0.0150980
865.081	0.0149419
865.159	0.0150195
865.237	0.0150056
865.315	0.0149696
865.393	0.0149372
865.471	0.0149828
865.549	0.0149795
865.628	0.0150182
865.706	0.0149983
865.784	0.0149911
865.862	0.0149583
865.940	0.0148503
866.018	0.0149728
866.096	0.0148935
866.174	0.0149217
866.253	0.0149900
866.331	0.0150844
866.409	0.0149495
866.487	0.0149025
866.565	0.0150492
866.643	0.0149015
866.721	0.0148231
866.799	0.0149953
866.878	0.0150491
866.956	0.0149992
867.034	0.0149779
867.112	0.0148296
867.190	0.0149691
867.268	0.0149396
867.346	0.0149282
867.424	0.0149493
867.503	0.0149818
867.581	0.0148241
867.659	0.0147939
867.737	0.0150126
867.815	0.0149579
867.893	0.0150254
867.971	0.0149622
868.049	0.0148996
868.128	0.0149556
868.206	0.0147995
868.284	0.0149625
868.362	0.0149954
868.440	0.0149239
868.518	0.0149230
868.596	0.0149958
868.674	0.0149879
868.753	0.0148948
868.831	0.0148385
868.909	0.0148756
868.987	0.0148909
869.065	0.0148405
869.143	0.0147968
869.221	0.0148387
869.299	0.0148506
869.378	0.0148013
869.456	0.0147916
869.534	0.0148088
869.612	0.0149092
869.690	0.0149107
869.768	0.0147831
869.846	0.0148730
869.924	0.0150149
870.003	0.0150259
870.081	0.0148822
870.159	0.0150591
870.237	0.0150345
870.315	0.0148889
870.393	0.0149046
870.471	0.0149310
870.549	0.0148812
870.628	0.0149107
870.706	0.0148235
870.784	0.0149183
870.862	0.0149766
870.940	0.0149197
871.018	0.0148069
871.096	0.0149593
871.174	0.0150648
871.253	0.0149414
871.331	0.0149501
871.409	0.0149416
871.487	0.0150371
871.565	0.0149692
871.643	0.0149289
871.721	0.0149065
871.799	0.0149503
871.878	0.0148190
871.956	0.0148080
872.034	0.0148519
872.112	0.0149497
872.190	0.0150537
872.268	0.0150436
872.346	0.0148416
872.424	0.0150110
872.503	0.0150657
872.581	0.0149422
872.659	0.0150312
872.737	0.0150573
872.815	0.0150237
872.893	0.0150234
872.971	0.0150144
873.049	0.0149567
873.128	0.0149195
873.206	0.0148460
873.284	0.0149595
873.362	0.0149799
873.440	0.0149214
873.518	0.0149570
873.596	0.0149483
873.674	0.0148499
873.753	0.0150974
873.831	0.0148948
873.909	0.0148083
873.987	0.0148888
874.065	0.0148863
874.143	0.0148926
874.221	0.0149102
874.299	0.0148788
874.378	0.0149703
874.456	0.0149300
874.534	0.0149438
874.612	0.0150037
874.690	0.0150352
874.768	0.0148986
874.846	0.0150129
874.924	0.0149994
875.003	0.0148733
875.081	0.0148689
875.159	0.0150600
875.237	0.0150156
875.315	0.0149572
875.393	0.0148861
875.471	0.0149079
875.549	0.0151328
875.628	0.0149125
875.706	0.0149352
875.784	0.0150175
875.862	0.0149258
875.940	0.0148580
876.018	0.0149846
876.096	0.0150294
876.174	0.0148493
876.253	0.0148558
876.331	0.0149206
876.409	0.0149299
876.487	0.0149899
876.565	0.0149735
876.643	0.0148096
876.721	0.0150790
876.799	0.0149399
876.878	0.0148462
876.956	0.0150201
877.034	0.0150004
877.112	0.0149285
877.190	0.0149360
877.268	0.0149962
877.346	0.0150867
877.424	0.0150195
877.503	0.0151892
877.581	0.0150606
877.659	0.0150654
877.737	0.0149655
877.815	0.0150817
877.893	0.0149643
877.971	0.0150223
878.049	0.0151471
878.128	0.0150857
878.206	0.0150449
878.284	0.0149453
878.362	0.0149085
878.440	0.0150143
878.518	0.0150145
878.596	0.0147977
878.674	0.0150368
878.753	0.0147762
878.831	0.0148884
878.909	0.0149013
878.987	0.0149773
879.065	0.0148328
879.143	0.0148883
879.221	0.0149028
879.299	0.0149641
879.378	0.0148843
879.456	0.0150120
879.534	0.0149361
879.612	0.0149406
879.690	0.0147527
879.768	0.0149796
879.846	0.0148875
879.924	0.0148644
880.003	0.0149358
880.081	0.0149062
880.159	0.0148684
880.237	0.0148722
880.315	0.0148177
880.393	0.0148537
880.471	0.0149312
880.549	0.0148547
880.628	0.0147668
880.706	0.0148504
880.784	0.0149316
880.862	0.0149628
880.940	0.0149226
881.018	0.0149102
881.096	0.0149238
881.174	0.0148737
881.253	0.0151986
881.331	0.0151491
881.409	0.0151877
881.487	0.0149240
881.565	0.0150082
881.643	0.0150227
881.721	0.0150826
881.799	0.0150837
881.878	0.0149142
881.956	0.0148846
882.034	0.0151479
882.112	0.0149981
882.190	0.0149232
882.268	0.0149323
882.346	0.0150134
882.424	0.0149638
882.503	0.0149548
882.581	0.0148923
882.659	0.0149348
882.737	0.0148920
882.815	0.0149802
882.893	0.0150713
882.971	0.0148911
883.049	0.0150199
883.128	0.0150908
883.206	0.0148394
883.284	0.0151104
883.362	0.0149824
883.440	0.0149459
883.518	0.0150043
883.596	0.0149310
883.674	0.0149887
883.753	0.0149442
883.831	0.0149079
883.909	0.0150706
883.987	0.0149867
884.065	0.0148425
884.143	0.0149755
884.221	0.0148866
884.299	0.0148573
884.378	0.0149876
884.456	0.0148415
884.534	0.0149576
884.612	0.0147632
884.690	0.0148772
884.768	0.0148869
884.846	0.0148185
884.924	0.0148033
885.003	0.0147040
885.081	0.0149294
885.159	0.0149535
885.237	0.0147600
885.315	0.0148337
885.393	0.0148223
885.471	0.0148417
885.549	0.0149425
885.628	0.0149088
885.706	0.0148283
885.784	0.0149638
885.862	0.0149351
885.940	0.0148045
886.018	0.0149059
886.096	0.0148929
886.174	0.0148058
886.253	0.0148779
886.331	0.0148513
886.409	0.0148795
886.487	0.0148856
886.565	0.0149841
886.643	0.0148178
886.721	0.0149370
886.799	0.0149841
886.878	0.0149627
886.956	0.0150175
887.034	0.0149966
887.112	0.0151620
887.190	0.0151248
887.268	0.0149841
887.346	0.0150532
887.424	0.0150851
887.503	0.0151543
887.581	0.0151125
887.659	0.0151608
887.737	0.0150461
887.815	0.0150330
887.893	0.0150686
887.971	0.0150556
888.049	0.0150009
888.128	0.0149764
888.206	0.0150069
888.284	0.0150224
888.362	0.0148394
888.440	0.0148267
888.518	0.0149153
888.596	0.0148945
888.674	0.0148603
888.753	0.0147434
888.831	0.0148732
888.909	0.0149133
888.987	0.0148277
889.065	0.0148610
889.143	0.0147896
889.221	0.0148236
889.299	0.0149136
889.378	0.0147668
889.456	0.0148712
889.534	0.0149323
889.612	0.0147285
889.690	0.0149048
889.768	0.0147718
889.846	0.0149316
889.924	0.0150050
890.003	0.0149026
890.081	0.0149264
890.159	0.0148906
890.237	0.0148867
890.315	0.0149274
890.393	0.0148345
890.471	0.0149076
890.549	0.0148024
890.628	0.0147483
890.706	0.0149196
890.784	0.0148605
890.862	0.0149116
890.940	0.0148518
891.018	0.0150117
891.096	0.0150108
891.174	0.0149067
891.253	0.0147391
891.331	0.0148679
891.409	0.0149307
891.487	0.0149987
891.565	0.0150562
891.643	0.0148969
891.721	0.0150983
891.799	0.0150130
891.878	0.0149932
891.956	0.0151332
892.034	0.0150922
892.112	0.0151958
892.190	0.0151170
892.268	0.0148981
892.346	0.0150387
892.424	0.0150248
892.503	0.0148880
892.581	0.0149254
892.659	0.0150542
892.737	0.0150218
892.815	0.0150463
892.893	0.0150803
892.971	0.0150069
893.049	0.0149287
893.128	0.0149832
893.206	0.0150041
893.284	0.0149395
893.362	0.0151066
893.440	0.0150760
893.518	0.0150773
893.596	0.0151334
893.674	0.0149775
893.753	0.0150066
893.831	0.0151469
893.909	0.0151922
893.987	0.0151524
894.065	0.0149837
894.143	0.0150650
894.221	0.0150346
894.299	0.0149820
894.378	0.0150925
894.456	0.0149840
894.534	0.0149471
894.612	0.0150631
894.690	0.0151587
894.768	0.0149301
894.846	0.0149152
894.924	0.0147917
895.003	0.0149120
895.081	0.0149754
895.159	0.0149660
895.237	0.0150117
895.315	0.0149390
895.393	0.0149484
895.471	0.0149651
895.549	0.0150066
895.628	0.0148759
895.706	0.0148840
895.784	0.0148897
895.862	0.0148550
895.940	0.0148137
896.018	0.0147916
896.096	0.0148056
896.174	0.0148217
896.253	0.0149034
896.331	0.0149637
896.409	0.0147753
896.487	0.0148386
896.565	0.0148673
896.643	0.0148061
896.721	0.0149671
896.799	0.0148482
896.878	0.0148090
896.956	0.0149397
897.034	0.0149570
897.112	0.0149148
897.190	0.0149361
897.268	0.0151288
897.346	0.0149763
897.424	0.0150499
897.503	0.0149706
897.581	0.0150221
897.659	0.0150414
897.737	0.0149380
897.815	0.0150346
897.893	0.0148888
897.971	0.0150227
898.049	0.0149824
898.128	0.0150220
898.206	0.0150957
898.284	0.0149149
898.362	0.0148611
898.440	0.0149846
898.518	0.0150642
898.596	0.0148738
898.674	0.0149091
898.753	0.0149787
898.831	0.0150401
898.909	0.0149983
898.987	0.0149052
899.065	0.0149493
899.143	0.0148260
899.221	0.0150332
899.299	0.0149581
899.378	0.0149765
899.456	0.0150578
899.534	0.0150942
899.612	0.0149289
899.690	0.0148617
899.768	0.0149340
899.846	0.0149435
899.924	0.0149141
900.003	0.0149697
900.081	0.0149135
900.159	0.0149467
900.237	0.0150193
900.315	0.0149256
900.393	0.0148970
900.471	0.0149940
900.549	0.0149302
900.628	0.0150269
900.706	0.0151014
900.784	0.0149370
900.862	0.0149905
900.940	0.0148515
901.018	0.0148927
901.096	0.0149229
901.174	0.0149332
901.253	0.0149022
901.331	0.0149008
901.409	0.0149182
901.487	0.0149545
901.565	0.0147990
901.643	0.0148415
901.721	0.0149238
901.799	0.0148607
901.878	0.0149976
901.956	0.0148895
902.034	0.0150591
902.112	0.0150471
902.190	0.0148782
902.268	0.0150247
902.346	0.0148238
902.424	0.0149269
902.503	0.0150344
902.581	0.0148034
902.659	0.0149998
902.737	0.0150053
902.815	0.0150843
902.893	0.0148105
902.971	0.0150354
903.049	0.0147649
903.128	0.0151213
903.206	0.0150632
903.284	0.0149960
903.362	0.0149674
903.440	0.0149749
903.518	0.0150118
903.596	0.0150361
903.674	0.0151761
903.753	0.0150600
903.831	0.0148809
903.909	0.0148869
903.987	0.0150909
904.065	0.0149839
904.143	0.0148994
904.221	0.0150018
904.299	0.0150787
904.378	0.0150034
904.456	0.0148968
904.534	0.0149265
904.612	0.0148769
904.690	0.0148663
904.768	0.0149855
904.846	0.0149187
904.924	0.0149417
905.003	0.0151006
905.081	0.0149014
905.159	0.0150269
905.237	0.0149712
905.315	0.0147433
905.393	0.0149756
905.471	0.0149100
905.549	0.0148668
905.628	0.0149921
905.706	0.0149761
905.784	0.0150030
905.862	0.0150107
905.940	0.0148977
906.018	0.0149464
906.096	0.0149785
906.174	0.0150168
906.253	0.0150198
906.331	0.0149328
906.409	0.0149511
906.487	0.0150745
906.565	0.0148764
906.643	0.0149271
906.721	0.0150580
906.799	0.0149090
906.878	0.0148536
906.956	0.0150575
907.034	0.0149354
907.112	0.0148656
907.190	0.0150898
907.268	0.0150245
907.346	0.0150944
907.424	0.0150492
907.503	0.0149968
907.581	0.0151019
907.659	0.0150725
907.737	0.0149750
907.815	0.0150353
907.893	0.0150774
907.971	0.0148930
908.049	0.0149818
908.128	0.0149655
908.206	0.0150711
908.284	0.0150622
908.362	0.0149671
908.440	0.0149358
908.518	0.0149910
908.596	0.0147799
908.674	0.0150857
908.753	0.0151907
908.831	0.0150204
908.909	0.0149649
908.987	0.0149577
909.065	0.0149444
909.143	0.0150204
909.221	0.0149891
909.299	0.0150636
909.378	0.0149659
909.456	0.0149891
909.534	0.0150819
909.612	0.0149172
909.690	0.0150472
909.768	0.0147895
909.846	0.0148749
909.924	0.0149496
910.003	0.0148920
910.081	0.0148572
910.159	0.0149773
910.237	0.0148260
910.315	0.0149254
910.393	0.0149620
910.471	0.0148437
910.549	0.0148647
910.628	0.0149454
910.706	0.0149274
910.784	0.0148910
910.862	0.0149211
910.940	0.0149259
911.018	0.0149778
911.096	0.0147810
911.174	0.0147838
911.253	0.0149126
911.331	0.0148252
911.409	0.0148808
911.487	0.0150664
911.565	0.0149524
911.643	0.0149512
911.721	0.0150662
911.799	0.0149951
911.878	0.0149937
911.956	0.0150547
912.034	0.0150934
912.112	0.0149974
912.190	0.0151708
912.268	0.0151108
912.346	0.0151125
912.424	0.0151425
912.503	0.0152021
912.581	0.0151010
912.659	0.0152216
912.737	0.0151114
912.815	0.0151780
912.893	0.0151360
912.971	0.0150868
913.049	0.0150825
913.128	0.0150230
913.206	0.0150802
913.284	0.0151634
913.362	0.0148458
913.440	0.0148287
913.518	0.0148707
913.596	0.0148405
913.674	0.0148880
913.753	0.0149638
913.831	0.0149377
913.909	0.0149458
913.987	0.0148797
914.065	0.0149333
914.143	0.0151794
914.221	0.0149582
914.299	0.0150264
914.378	0.0150182
914.456	0.0151041
914.534	0.0151170
914.612	0.0150563
914.690	0.0151934
914.768	0.0150888
914.846	0.0150343
914.924	0.0152186
915.003	0.0151245
915.081	0.0149450
915.159	0.0150986
915.237	0.0150065
915.315	0.0148661
915.393	0.0151137
915.471	0.0151391
915.549	0.0150394
915.628	0.0150020
915.706	0.0151234
915.784	0.0150265
915.862	0.0149376
915.940	0.0150251
916.018	0.0149963
916.096	0.0150700
916.174	0.0149583
916.253	0.0149791
916.331	0.0151253
916.409	0.0149370
916.487	0.0150287
916.565	0.0149609
916.643	0.0151210
916.721	0.0150523
916.799	0.0149217
916.878	0.0148882
916.956	0.0150481
917.034	0.0150718
917.112	0.0151297
917.190	0.0149916
917.268	0.0149467
917.346	0.0150874
917.424	0.0150032
917.503	0.0149639
917.581	0.0150130
917.659	0.0150958
917.737	0.0151116
917.815	0.0149987
917.893	0.0150951
917.971	0.0151284
918.049	0.0150266
918.128	0.0150813
918.206	0.0150419
918.284	0.0150467
918.362	0.0150469
918.440	0.0150394
918.518	0.0151269
918.596	0.0150671
918.674	0.0149540
918.753	0.0150488
918.831	0.0150661
918.909	0.0150694
918.987	0.0150318
919.065	0.0151658
919.143	0.0149591
919.221	0.0150890
919.299	0.0151882
919.378	0.0149705
919.456	0.0150587
919.534	0.0150029
919.612	0.0149604
919.690	0.0150562
919.768	0.0150075
919.846	0.0148753
919.924	0.0151096
920.003	0.0149575
920.081	0.0148558
920.159	0.0149882
920.237	0.0150110
920.315	0.0149810
920.393	0.0150158
920.471	0.0148851
920.549	0.0150592
920.628	0.0149144
920.706	0.0149480
920.784	0.0149362
920.862	0.0149613
920.940	0.0149313
921.018	0.0150490
921.096	0.0150859
921.174	0.0149767
921.253	0.0148763
921.331	0.0149776
921.409	0.0150623
921.487	0.0150421
921.565	0.0151143
921.643	0.0149884
921.721	0.0150952
921.799	0.0150858
921.878	0.0150265
921.956	0.0151041
922.034	0.0149800
922.112	0.0150647
922.190	0.0149548
922.268	0.0148981
922.346	0.0149223
922.424	0.0148896
922.503	0.0150623
922.581	0.0149573
922.659	0.0149381
922.737	0.0149252
922.815	0.0148840
922.893	0.0149239
922.971	0.0150265
923.049	0.0150101
923.128	0.0149990
923.206	0.0149718
923.284	0.0151006
923.362	0.0150816
923.440	0.0149512
923.518	0.0150890
923.596	0.0151315
923.674	0.0149107
923.753	0.0149103
923.831	0.0148949
923.909	0.0150128
923.987	0.0150642
924.065	0.0149757
924.143	0.0148328
924.221	0.0149330
924.299	0.0151074
924.378	0.0149643
924.456	0.0149499
924.534	0.0148096
924.612	0.0149238
924.690	0.0149519
924.768	0.0149238
924.846	0.0149570
924.924	0.0149529
925.003	0.0150301
925.081	0.0149860
925.159	0.0148684
925.237	0.0149783
925.315	0.0150626
925.393	0.0150249
925.471	0.0149251
925.549	0.0149818
925.628	0.0148386
925.706	0.0149805
925.784	0.0150536
925.862	0.0149155
925.940	0.0149932
926.018	0.0148975
926.096	0.0150819
926.174	0.0150215
926.253	0.0148146
926.331	0.0149440
926.409	0.0149355
926.487	0.0149895
926.565	0.0148916
926.643	0.0149038
926.721	0.0149574
926.799	0.0148239
926.878	0.0150081
926.956	0.0148964
927.034	0.0148293
927.112	0.0149715
927.190	0.0149510
927.268	0.0148939
927.346	0.0149259
927.424	0.0149043
927.503	0.0150025
927.581	0.0149611
927.659	0.0150877
927.737	0.0148569
927.815	0.0149123
927.893	0.0149619
927.971	0.0148634
928.049	0.0149434
928.128	0.0148131
928.206	0.0147742
928.284	0.0149827
928.362	0.0148808
928.440	0.0147935
928.518	0.0149876
928.596	0.0149043
928.674	0.0147612
928.753	0.0149831
928.831	0.0150627
928.909	0.0148153
928.987	0.0149203
929.065	0.0150207
929.143	0.0148196
929.221	0.0148931
929.299	0.0149626
929.378	0.0149176
929.456	0.0149543
929.534	0.0150441
929.612	0.0150390
929.690	0.0150169
929.768	0.0150554
929.846	0.0150499
929.924	0.0149914
930.003	0.0150490
930.081	0.0151140
930.159	0.0151341
930.237	0.0151122
930.315	0.0151290
930.393	0.0150184
930.471	0.0151820
930.549	0.0150740
930.628	0.0150697
930.706	0.0150564
930.784	0.0151163
930.862	0.0150938
930.940	0.0150089
931.018	0.0151455
931.096	0.0151237
931.174	0.0150674
931.253	0.0149514
931.331	0.0150384
931.409	0.0151744
931.487	0.0150875
931.565	0.0151467
931.643	0.0151617
931.721	0.0148796
931.799	0.0149283
931.878	0.0151248
931.956	0.0149708
932.034	0.0150009
932.112	0.0150454
932.190	0.0150148
932.268	0.0148306
932.346	0.0148342
932.424	0.0149014
932.503	0.0148713
932.581	0.0148707
932.659	0.0150014
932.737	0.0149268
932.815	0.0149718
932.893	0.0149426
932.971	0.0149421
933.049	0.0150407
933.128	0.0149854
933.206	0.0149059
933.284	0.0148410
933.362	0.0149876
933.440	0.0150195
933.518	0.0148480
933.596	0.0148524
933.674	0.0149548
933.753	0.0149113
933.831	0.0148744
933.909	0.0148495
933.987	0.0149793
934.065	0.0149945
934.143	0.0148049
934.221	0.0149318
934.299	0.0150439
934.378	0.0149879
934.456	0.0148862
934.534	0.0148958
934.612	0.0149625
934.690	0.0150436
934.768	0.0150442
934.846	0.0150209
934.924	0.0149810
935.003	0.0149982
935.081	0.0150600
935.159	0.0150121
935.237	0.0149960
935.315	0.0150897
935.393	0.0150700
935.471	0.0150142
935.549	0.0151432
935.628	0.0150331
935.706	0.0150111
935.784	0.0151399
935.862	0.0150901
935.940	0.0150198
936.018	0.0150256
936.096	0.0151208
936.174	0.0149901
936.253	0.0149921
936.331	0.0149680
936.409	0.0150727
936.487	0.0151057
936.565	0.0149926
936.643	0.0149523
936.721	0.0150044
936.799	0.0150921
936.878	0.0150261
936.956	0.0151836
937.034	0.0150195
937.112	0.0150941
937.190	0.0149281
937.268	0.0150458
937.346	0.0150050
937.424	0.0150418
937.503	0.0151433
937.581	0.0149699
937.659	0.0150591
937.737	0.0148793
937.815	0.0150678
937.893	0.0149278
937.971	0.0150623
938.049	0.0149548
938.128	0.0149644
938.206	0.0150211
938.284	0.0149631
938.362	0.0149432
938.440	0.0150973
938.518	0.0150270
938.596	0.0149371
938.674	0.0148255
938.753	0.0149083
938.831	0.0150401
938.909	0.0149577
938.987	0.0148197
939.065	0.0148699
939.143	0.0149798
939.221	0.0148499
939.299	0.0149113
939.378	0.0149387
939.456	0.0150199
939.534	0.0149653
939.612	0.0149998
939.690	0.0149664
939.768	0.0148676
939.846	0.0148905
939.924	0.0148757
940.003	0.0148473
940.081	0.0151215
940.159	0.0150337
940.237	0.0150536
940.315	0.0150170
940.393	0.0150015
940.471	0.0149617
940.549	0.0149843
940.628	0.0150130
940.706	0.0149174
940.784	0.0149660
940.862	0.0147709
940.940	0.0150433
941.018	0.0149665
941.096	0.0150309
941.174	0.0148594
941.253	0.0149929
941.331	0.0149908
941.409	0.0151008
941.487	0.0149764
941.565	0.0148591
941.643	0.0150354
941.721	0.0151186
941.799	0.0149346
941.878	0.0151326
941.956	0.0149318
942.034	0.0150382
942.112	0.0150845
942.190	0.0150155
942.268	0.0151282
942.346	0.0149917
942.424	0.0151205
942.503	0.0151289
942.581	0.0149547
942.659	0.0150264
942.737	0.0150510
942.815	0.0150169
942.893	0.0149841
942.971	0.0149947
943.049	0.0151071
943.128	0.0149321
943.206	0.0150134
943.284	0.0150359
943.362	0.0149391
943.440	0.0149821
943.518	0.0151147
943.596	0.0150169
943.674	0.0149849
943.753	0.0150429
943.831	0.0149871
943.909	0.0150536
943.987	0.0150298
944.065	0.0150406
944.143	0.0147920
944.221	0.0148791
944.299	0.0148980
944.378	0.0150523
944.456	0.0148093
944.534	0.0148564
944.612	0.0147816
944.690	0.0148335
944.768	0.0147948
944.846	0.0148715
944.924	0.0147622
945.003	0.0148437
945.081	0.0148964
945.159	0.0148114
945.237	0.0149244
945.315	0.0148750
945.393	0.0147735
945.471	0.0147028
945.549	0.0148883
945.628	0.0148884
945.706	0.0147980
945.784	0.0148037
945.862	0.0148975
945.940	0.0148148
946.018	0.0147818
946.096	0.0148352
946.174	0.0148168
946.253	0.0147753
946.331	0.0148588
946.409	0.0149164
946.487	0.0148657
946.565	0.0148203
946.643	0.0149171
946.721	0.0147948
946.799	0.0148621
946.878	0.0148415
946.956	0.0148142
947.034	0.0148810
947.112	0.0147958
947.190	0.0148540
947.268	0.0149059
947.346	0.0150266
947.424	0.0148927
947.503	0.0149387
947.581	0.0149326
947.659	0.0150163
947.737	0.0150153
947.815	0.0148832
947.893	0.0149690
947.971	0.0149767
948.049	0.0149491
948.128	0.0149330
948.206	0.0149815
948.284	0.0150835
948.362	0.0151213
948.440	0.0149696
948.518	0.0150378
948.596	0.0150016
948.674	0.0149720
948.753	0.0149031
948.831	0.0150195
948.909	0.0150233
948.987	0.0150870
949.065	0.0149340
949.143	0.0148853
949.221	0.0150293
949.299	0.0148822
949.378	0.0148103
949.456	0.0149585
949.534	0.0148038
949.612	0.0150536
949.690	0.0150210
949.768	0.0147806
949.846	0.0149863
949.924	0.0149055
