05/19/2022	00:46:13	Ver.	4.1	UNKNOWN
Optical Delay	630.002507	Delta X		0.078125	Sweeps	1	Scan Rate	0/0
Coordinates	Axis 1	NaN	Axis 2	NaN	Axis 3	NaN	Axis 4	NaN	Axis 5	NaN	Axis 6	0.000000
TX Power	0.000000	RX Power	0.000000

630.003	0.0156558
630.081	0.0156184
630.159	0.0156892
630.237	0.0155669
630.315	0.0156342
630.393	0.0156007
630.471	0.0156217
630.549	0.0156345
630.628	0.0155845
630.706	0.0156326
630.784	0.0155672
630.862	0.0156339
630.940	0.0156091
631.018	0.0156343
631.096	0.0155926
631.174	0.0155035
631.253	0.0156716
631.331	0.0155745
631.409	0.0154357
631.487	0.0155505
631.565	0.0155898
631.643	0.0156238
631.721	0.0156798
631.799	0.0156181
631.878	0.0155355
631.956	0.0155029
632.034	0.0154878
632.112	0.0155434
632.190	0.0155682
632.268	0.0157662
632.346	0.0156203
632.424	0.0155807
632.503	0.0156943
632.581	0.0154726
632.659	0.0156413
632.737	0.0155457
632.815	0.0157076
632.893	0.0155609
632.971	0.0154338
633.049	0.0154505
633.128	0.0156225
633.206	0.0156020
633.284	0.0155077
633.362	0.0156058
633.440	0.0157010
633.518	0.0155133
633.596	0.0156549
633.674	0.0154857
633.753	0.0156488
633.831	0.0156204
633.909	0.0156593
633.987	0.0155662
634.065	0.0155367
634.143	0.0154045
634.221	0.0155968
634.299	0.0156516
634.378	0.0156153
634.456	0.0156148
634.534	0.0156199
634.612	0.0155579
634.690	0.0156175
634.768	0.0156200
634.846	0.0156302
634.924	0.0155768
635.003	0.0156174
635.081	0.0157677
635.159	0.0156534
635.237	0.0156210
635.315	0.0157227
635.393	0.0155406
635.471	0.0156316
635.549	0.0156678
635.628	0.0156921
635.706	0.0156615
635.784	0.0155297
635.862	0.0156770
635.940	0.0156170
636.018	0.0156084
636.096	0.0155938
636.174	0.0156876
636.253	0.0156539
636.331	0.0155489
636.409	0.0155127
636.487	0.0156416
636.565	0.0157042
636.643	0.0156506
636.721	0.0156451
636.799	0.0156228
636.878	0.0155590
636.956	0.0155686
637.034	0.0155899
637.112	0.0156832
637.190	0.0157706
637.268	0.0156114
637.346	0.0155982
637.424	0.0155908
637.503	0.0157832
637.581	0.0155442
637.659	0.0154774
637.737	0.0155677
637.815	0.0156287
637.893	0.0155836
637.971	0.0155825
638.049	0.0155965
638.128	0.0155578
638.206	0.0156083
638.284	0.0156538
638.362	0.0157550
638.440	0.0156306
638.518	0.0156055
638.596	0.0157067
638.674	0.0156674
638.753	0.0155130
638.831	0.0155486
638.909	0.0156512
638.987	0.0156765
639.065	0.0155906
639.143	0.0155962
639.221	0.0156302
639.299	0.0156097
639.378	0.0156998
639.456	0.0156391
639.534	0.0156372
639.612	0.0155637
639.690	0.0156058
639.768	0.0156387
639.846	0.0156933
639.924	0.0157181
640.003	0.0156172
640.081	0.0157783
640.159	0.0156684
640.237	0.0155132
640.315	0.0156886
640.393	0.0157630
640.471	0.0156425
640.549	0.0157463
640.628	0.0157852
640.706	0.0157796
640.784	0.0156281
640.862	0.0156584
640.940	0.0156290
641.018	0.0155812
641.096	0.0156360
641.174	0.0157076
641.253	0.0156861
641.331	0.0157391
641.409	0.0155779
641.487	0.0155800
641.565	0.0157494
641.643	0.0156549
641.721	0.0156513
641.799	0.0156084
641.878	0.0157409
641.956	0.0157475
642.034	0.0156792
642.112	0.0156857
642.190	0.0156917
642.268	0.0155550
642.346	0.0156770
642.424	0.0156340
642.503	0.0158049
642.581	0.0156890
642.659	0.0156508
642.737	0.0157426
642.815	0.0158343
642.893	0.0155403
642.971	0.0156555
643.049	0.0156432
643.128	0.0155986
643.206	0.0157651
643.284	0.0157538
643.362	0.0157575
643.440	0.0158014
643.518	0.0156567
643.596	0.0155960
643.674	0.0157203
643.753	0.0158744
643.831	0.0155965
643.909	0.0156370
643.987	0.0156980
644.065	0.0155749
644.143	0.0155860
644.221	0.0157189
644.299	0.0157002
644.378	0.0157327
644.456	0.0158291
644.534	0.0156282
644.612	0.0156664
644.690	0.0157600
644.768	0.0157275
644.846	0.0157079
644.924	0.0156775
645.003	0.0156538
645.081	0.0156069
645.159	0.0156751
645.237	0.0157472
645.315	0.0156237
645.393	0.0157948
645.471	0.0155585
645.549	0.0156483
645.628	0.0156013
645.706	0.0157033
645.784	0.0157100
645.862	0.0155684
645.940	0.0156277
646.018	0.0157760
646.096	0.0156302
646.174	0.0155820
646.253	0.0155915
646.331	0.0156175
646.409	0.0157563
646.487	0.0156106
646.565	0.0156887
646.643	0.0155467
646.721	0.0155737
646.799	0.0155698
646.878	0.0155043
646.956	0.0155508
647.034	0.0155309
647.112	0.0155382
647.190	0.0155315
647.268	0.0156792
647.346	0.0155550
647.424	0.0156263
647.503	0.0155238
647.581	0.0155869
647.659	0.0155067
647.737	0.0155111
647.815	0.0153912
647.893	0.0154636
647.971	0.0156244
648.049	0.0156772
648.128	0.0156111
648.206	0.0154583
648.284	0.0155407
648.362	0.0155863
648.440	0.0155454
648.518	0.0156545
648.596	0.0156005
648.674	0.0155730
648.753	0.0156533
648.831	0.0155955
648.909	0.0155023
648.987	0.0156999
649.065	0.0154140
649.143	0.0154984
649.221	0.0154627
649.299	0.0155665
649.378	0.0154396
649.456	0.0155783
649.534	0.0155350
649.612	0.0154163
649.690	0.0155224
649.768	0.0153860
649.846	0.0155409
649.924	0.0155100
650.003	0.0154585
650.081	0.0153136
650.159	0.0154898
650.237	0.0155889
650.315	0.0154068
650.393	0.0155119
650.471	0.0155292
650.549	0.0153748
650.628	0.0155114
650.706	0.0155741
650.784	0.0155559
650.862	0.0156030
650.940	0.0153837
651.018	0.0154720
651.096	0.0155192
651.174	0.0155070
651.253	0.0155254
651.331	0.0155415
651.409	0.0156432
651.487	0.0155462
651.565	0.0156144
651.643	0.0155343
651.721	0.0154977
651.799	0.0154903
651.878	0.0154462
651.956	0.0156658
652.034	0.0156393
652.112	0.0156767
652.190	0.0156218
652.268	0.0156401
652.346	0.0156987
652.424	0.0157028
652.503	0.0154679
652.581	0.0154828
652.659	0.0157524
652.737	0.0156163
652.815	0.0155962
652.893	0.0156786
652.971	0.0154767
653.049	0.0155377
653.128	0.0157708
653.206	0.0155957
653.284	0.0155270
653.362	0.0155943
653.440	0.0156861
653.518	0.0155703
653.596	0.0155347
653.674	0.0156387
653.753	0.0154759
653.831	0.0154568
653.909	0.0155527
653.987	0.0155941
654.065	0.0155568
654.143	0.0155811
654.221	0.0155640
654.299	0.0155231
654.378	0.0155540
654.456	0.0156584
654.534	0.0155527
654.612	0.0156557
654.690	0.0156886
654.768	0.0157177
654.846	0.0155712
654.924	0.0154881
655.003	0.0157910
655.081	0.0156622
655.159	0.0156747
655.237	0.0156583
655.315	0.0155531
655.393	0.0155385
655.471	0.0156071
655.549	0.0156429
655.628	0.0156657
655.706	0.0156300
655.784	0.0155397
655.862	0.0155361
655.940	0.0155848
656.018	0.0154971
656.096	0.0155329
656.174	0.0154877
656.253	0.0156778
656.331	0.0156284
656.409	0.0154889
656.487	0.0155856
656.565	0.0156465
656.643	0.0156306
656.721	0.0156007
656.799	0.0156350
656.878	0.0155962
656.956	0.0155919
657.034	0.0155904
657.112	0.0156815
657.190	0.0156905
657.268	0.0157043
657.346	0.0156456
657.424	0.0155369
657.503	0.0156489
657.581	0.0158259
657.659	0.0156305
657.737	0.0155578
657.815	0.0156178
657.893	0.0157195
657.971	0.0156680
658.049	0.0156442
658.128	0.0157034
658.206	0.0156870
658.284	0.0156269
658.362	0.0156715
658.440	0.0155274
658.518	0.0156466
658.596	0.0157578
658.674	0.0158001
658.753	0.0159325
658.831	0.0156692
658.909	0.0156827
658.987	0.0156441
659.065	0.0156419
659.143	0.0157034
659.221	0.0157504
659.299	0.0157600
659.378	0.0156854
659.456	0.0157198
659.534	0.0157272
659.612	0.0155485
659.690	0.0157643
659.768	0.0157286
659.846	0.0156303
659.924	0.0156932
660.003	0.0157304
660.081	0.0156232
660.159	0.0155969
660.237	0.0155541
660.315	0.0156990
660.393	0.0156660
660.471	0.0156509
660.549	0.0154974
660.628	0.0156446
660.706	0.0157507
660.784	0.0155946
660.862	0.0156659
660.940	0.0158378
661.018	0.0157915
661.096	0.0156802
661.174	0.0156870
661.253	0.0158573
661.331	0.0157256
661.409	0.0157263
661.487	0.0157864
661.565	0.0157294
661.643	0.0158247
661.721	0.0157896
661.799	0.0156510
661.878	0.0157252
661.956	0.0157357
662.034	0.0156784
662.112	0.0156840
662.190	0.0157542
662.268	0.0157586
662.346	0.0158765
662.424	0.0158186
662.503	0.0158121
662.581	0.0158306
662.659	0.0159615
662.737	0.0159112
662.815	0.0158759
662.893	0.0159331
662.971	0.0157230
663.049	0.0157517
663.128	0.0157378
663.206	0.0156606
663.284	0.0157071
663.362	0.0156236
663.440	0.0157462
663.518	0.0157845
663.596	0.0155060
663.674	0.0155917
663.753	0.0155962
663.831	0.0155615
663.909	0.0156706
663.987	0.0156003
664.065	0.0156778
664.143	0.0156142
664.221	0.0156973
664.299	0.0157188
664.378	0.0157565
664.456	0.0157397
664.534	0.0158070
664.612	0.0158081
664.690	0.0158293
664.768	0.0157817
664.846	0.0158810
664.924	0.0157925
665.003	0.0157644
665.081	0.0157960
665.159	0.0157037
665.237	0.0156981
665.315	0.0156517
665.393	0.0156440
665.471	0.0157636
665.549	0.0156796
665.628	0.0157103
665.706	0.0157186
665.784	0.0156619
665.862	0.0156007
665.940	0.0156113
666.018	0.0155804
666.096	0.0155126
666.174	0.0154638
666.253	0.0154359
666.331	0.0155856
666.409	0.0155663
666.487	0.0155608
666.565	0.0153650
666.643	0.0154852
666.721	0.0154931
666.799	0.0153796
666.878	0.0153776
666.956	0.0154995
667.034	0.0154858
667.112	0.0155249
667.190	0.0155432
667.268	0.0154697
667.346	0.0154682
667.424	0.0155454
667.503	0.0156046
667.581	0.0155302
667.659	0.0155959
667.737	0.0156104
667.815	0.0156434
667.893	0.0157231
667.971	0.0155264
668.049	0.0155061
668.128	0.0155776
668.206	0.0154588
668.284	0.0155018
668.362	0.0154797
668.440	0.0154318
668.518	0.0155148
668.596	0.0154823
668.674	0.0154894
668.753	0.0156028
668.831	0.0155809
668.909	0.0155677
668.987	0.0155547
669.065	0.0155001
669.143	0.0156011
669.221	0.0157328
669.299	0.0156658
669.378	0.0156106
669.456	0.0156233
669.534	0.0157262
669.612	0.0157449
669.690	0.0156413
669.768	0.0158138
669.846	0.0156200
669.924	0.0155371
670.003	0.0155761
670.081	0.0157057
670.159	0.0155885
670.237	0.0156361
670.315	0.0155109
670.393	0.0153387
670.471	0.0154482
670.549	0.0156660
670.628	0.0153988
670.706	0.0155748
670.784	0.0156017
670.862	0.0156602
670.940	0.0156548
671.018	0.0157236
671.096	0.0157061
671.174	0.0157956
671.253	0.0156556
671.331	0.0155670
671.409	0.0156081
671.487	0.0157643
671.565	0.0158025
671.643	0.0157106
671.721	0.0158476
671.799	0.0158249
671.878	0.0156934
671.956	0.0156948
672.034	0.0156039
672.112	0.0156017
672.190	0.0156243
672.268	0.0155202
672.346	0.0156369
672.424	0.0157661
672.503	0.0156386
672.581	0.0155661
672.659	0.0156187
672.737	0.0154798
672.815	0.0155025
672.893	0.0154718
672.971	0.0154053
673.049	0.0154310
673.128	0.0155055
673.206	0.0154192
673.284	0.0153761
673.362	0.0155972
673.440	0.0155569
673.518	0.0154807
673.596	0.0156452
673.674	0.0156038
673.753	0.0154533
673.831	0.0153942
673.909	0.0155531
673.987	0.0155919
674.065	0.0156208
674.143	0.0155618
674.221	0.0154989
674.299	0.0156071
674.378	0.0154453
674.456	0.0154726
674.534	0.0153281
674.612	0.0153850
674.690	0.0153684
674.768	0.0153046
674.846	0.0152818
674.924	0.0151207
675.003	0.0152235
675.081	0.0151883
675.159	0.0151794
675.237	0.0151240
675.315	0.0151999
675.393	0.0149983
675.471	0.0153053
675.549	0.0152584
675.628	0.0152409
675.706	0.0153292
675.784	0.0154219
675.862	0.0153718
675.940	0.0153159
676.018	0.0155618
676.096	0.0154262
676.174	0.0154139
676.253	0.0155942
676.331	0.0155152
676.409	0.0156490
676.487	0.0156223
676.565	0.0156721
676.643	0.0155968
676.721	0.0155920
676.799	0.0155454
676.878	0.0154305
676.956	0.0154760
677.034	0.0155888
677.112	0.0155858
677.190	0.0156216
677.268	0.0152978
677.346	0.0155116
677.424	0.0154916
677.503	0.0153704
677.581	0.0155121
677.659	0.0156097
677.737	0.0153797
677.815	0.0152717
677.893	0.0154881
677.971	0.0153960
678.049	0.0155720
678.128	0.0155724
678.206	0.0155436
678.284	0.0155327
678.362	0.0156414
678.440	0.0156583
678.518	0.0157443
678.596	0.0158961
678.674	0.0159142
678.753	0.0159049
678.831	0.0159987
678.909	0.0161346
678.987	0.0160712
679.065	0.0158930
679.143	0.0160088
679.221	0.0159335
679.299	0.0158287
679.378	0.0158541
679.456	0.0159335
679.534	0.0159196
679.612	0.0158105
679.690	0.0159196
679.768	0.0158416
679.846	0.0157384
679.924	0.0159062
680.003	0.0156865
680.081	0.0156857
680.159	0.0155766
680.237	0.0156446
680.315	0.0154128
680.393	0.0154520
680.471	0.0154350
680.549	0.0153842
680.628	0.0151967
680.706	0.0155225
680.784	0.0154980
680.862	0.0154269
680.940	0.0154962
681.018	0.0156051
681.096	0.0157876
681.174	0.0156650
681.253	0.0157359
681.331	0.0158208
681.409	0.0157674
681.487	0.0158852
681.565	0.0159083
681.643	0.0157576
681.721	0.0160233
681.799	0.0158626
681.878	0.0158061
681.956	0.0158259
682.034	0.0158363
682.112	0.0158119
682.190	0.0157884
682.268	0.0157539
682.346	0.0156977
682.424	0.0156487
682.503	0.0156829
682.581	0.0156316
682.659	0.0154786
682.737	0.0154083
682.815	0.0154554
682.893	0.0153732
682.971	0.0153048
683.049	0.0153970
683.128	0.0155557
683.206	0.0153954
683.284	0.0155206
683.362	0.0154419
683.440	0.0155740
683.518	0.0155633
683.596	0.0154499
683.674	0.0157936
683.753	0.0157246
683.831	0.0158291
683.909	0.0157000
683.987	0.0157552
684.065	0.0157254
684.143	0.0157320
684.221	0.0158139
684.299	0.0156841
684.378	0.0157829
684.456	0.0156952
684.534	0.0156171
684.612	0.0154898
684.690	0.0156370
684.768	0.0155601
684.846	0.0157015
684.924	0.0156758
685.003	0.0156062
685.081	0.0154556
685.159	0.0157024
685.237	0.0157049
685.315	0.0156762
685.393	0.0155750
685.471	0.0155929
685.549	0.0156938
685.628	0.0156847
685.706	0.0156817
685.784	0.0155470
685.862	0.0155653
685.940	0.0156970
686.018	0.0158141
686.096	0.0155759
686.174	0.0156680
686.253	0.0156926
686.331	0.0156155
686.409	0.0157389
686.487	0.0157160
686.565	0.0155387
686.643	0.0155345
686.721	0.0154757
686.799	0.0153647
686.878	0.0153903
686.956	0.0152642
687.034	0.0154031
687.112	0.0153699
687.190	0.0152995
687.268	0.0154114
687.346	0.0154444
687.424	0.0154990
687.503	0.0154073
687.581	0.0155663
687.659	0.0154670
687.737	0.0153504
687.815	0.0155202
687.893	0.0156327
687.971	0.0154820
688.049	0.0156510
688.128	0.0156931
688.206	0.0157388
688.284	0.0157500
688.362	0.0158170
688.440	0.0157846
688.518	0.0157266
688.596	0.0157473
688.674	0.0157195
688.753	0.0157451
688.831	0.0157574
688.909	0.0155025
688.987	0.0152197
689.065	0.0153574
689.143	0.0153332
689.221	0.0154471
689.299	0.0155447
689.378	0.0155280
689.456	0.0156229
689.534	0.0156451
689.612	0.0160314
689.690	0.0158665
689.768	0.0159454
689.846	0.0160997
689.924	0.0162753
690.003	0.0163818
690.081	0.0162758
690.159	0.0162815
690.237	0.0164368
690.315	0.0162575
690.393	0.0164268
690.471	0.0163293
690.549	0.0161588
690.628	0.0161263
690.706	0.0160910
690.784	0.0160106
690.862	0.0159363
690.940	0.0159827
691.018	0.0158418
691.096	0.0158313
691.174	0.0159610
691.253	0.0158140
691.331	0.0158045
691.409	0.0157125
691.487	0.0155825
691.565	0.0156808
691.643	0.0156042
691.721	0.0157055
691.799	0.0154869
691.878	0.0153945
691.956	0.0153732
692.034	0.0154734
692.112	0.0153673
692.190	0.0151987
692.268	0.0152238
692.346	0.0151372
692.424	0.0150298
692.503	0.0149783
692.581	0.0149908
692.659	0.0148672
692.737	0.0146947
692.815	0.0146476
692.893	0.0147401
692.971	0.0147053
693.049	0.0146253
693.128	0.0147810
693.206	0.0147388
693.284	0.0147766
693.362	0.0148134
693.440	0.0148346
693.518	0.0150325
693.596	0.0151376
693.674	0.0150133
693.753	0.0150548
693.831	0.0152418
693.909	0.0152644
693.987	0.0153953
694.065	0.0153277
694.143	0.0153455
694.221	0.0156017
694.299	0.0155259
694.378	0.0156403
694.456	0.0158109
694.534	0.0158797
694.612	0.0161550
694.690	0.0161028
694.768	0.0162350
694.846	0.0163290
694.924	0.0165693
695.003	0.0165736
695.081	0.0165318
695.159	0.0166151
695.237	0.0166279
695.315	0.0167299
695.393	0.0167545
695.471	0.0166442
695.549	0.0165579
695.628	0.0165162
695.706	0.0164497
695.784	0.0163106
695.862	0.0164703
695.940	0.0164451
696.018	0.0162116
696.096	0.0161495
696.174	0.0162219
696.253	0.0160506
696.331	0.0159754
696.409	0.0159198
696.487	0.0158149
696.565	0.0157037
696.643	0.0156759
696.721	0.0156069
696.799	0.0154668
696.878	0.0152699
696.956	0.0151172
697.034	0.0149522
697.112	0.0150175
697.190	0.0148428
697.268	0.0147514
697.346	0.0147070
697.424	0.0146893
697.503	0.0146648
697.581	0.0147574
697.659	0.0147878
697.737	0.0147026
697.815	0.0146432
697.893	0.0147697
697.971	0.0147807
698.049	0.0146318
698.128	0.0149175
698.206	0.0146498
698.284	0.0148118
698.362	0.0147472
698.440	0.0148372
698.518	0.0148875
698.596	0.0147793
698.674	0.0149961
698.753	0.0149216
698.831	0.0149264
698.909	0.0151082
698.987	0.0150623
699.065	0.0151865
699.143	0.0152612
699.221	0.0151933
699.299	0.0153891
699.378	0.0155762
699.456	0.0155803
699.534	0.0158139
699.612	0.0158292
699.690	0.0158138
699.768	0.0160445
699.846	0.0160880
699.924	0.0160635
700.003	0.0160860
700.081	0.0162401
700.159	0.0160955
700.237	0.0160809
700.315	0.0161772
700.393	0.0163646
700.471	0.0163254
700.549	0.0162934
700.628	0.0162367
700.706	0.0163917
700.784	0.0161977
700.862	0.0162421
700.940	0.0162743
701.018	0.0161198
701.096	0.0162528
701.174	0.0161837
701.253	0.0160722
701.331	0.0161082
701.409	0.0158798
701.487	0.0160577
701.565	0.0158276
701.643	0.0159743
701.721	0.0159674
701.799	0.0157466
701.878	0.0157095
701.956	0.0156808
702.034	0.0155808
702.112	0.0156265
702.190	0.0157010
702.268	0.0156281
702.346	0.0155045
702.424	0.0154692
702.503	0.0153895
702.581	0.0154453
702.659	0.0155485
702.737	0.0153732
702.815	0.0153664
702.893	0.0154965
702.971	0.0154227
703.049	0.0153954
703.128	0.0153349
703.206	0.0152171
703.284	0.0154215
703.362	0.0153805
703.440	0.0151911
703.518	0.0152477
703.596	0.0153721
703.674	0.0153578
703.753	0.0152676
703.831	0.0152723
703.909	0.0149734
703.987	0.0151541
704.065	0.0151453
704.143	0.0151007
704.221	0.0150151
704.299	0.0149628
704.378	0.0151362
704.456	0.0150193
704.534	0.0149025
704.612	0.0148653
704.690	0.0149850
704.768	0.0150568
704.846	0.0150507
704.924	0.0151033
705.003	0.0150193
705.081	0.0151025
705.159	0.0151397
705.237	0.0151296
705.315	0.0151853
705.393	0.0153292
705.471	0.0155467
705.549	0.0154857
705.628	0.0154016
705.706	0.0156463
705.784	0.0157722
705.862	0.0157633
705.940	0.0158927
706.018	0.0159197
706.096	0.0159310
706.174	0.0160435
706.253	0.0157550
706.331	0.0160080
706.409	0.0160284
706.487	0.0161411
706.565	0.0161541
706.643	0.0160847
706.721	0.0160769
706.799	0.0159822
706.878	0.0159985
706.956	0.0160107
707.034	0.0159942
707.112	0.0160320
707.190	0.0160021
707.268	0.0159064
707.346	0.0159402
707.424	0.0159531
707.503	0.0158435
707.581	0.0158774
707.659	0.0158918
707.737	0.0159164
707.815	0.0158215
707.893	0.0158949
707.971	0.0158773
708.049	0.0158995
708.128	0.0158885
708.206	0.0161763
708.284	0.0160674
708.362	0.0162389
708.440	0.0161584
708.518	0.0162610
708.596	0.0162531
708.674	0.0163728
708.753	0.0162057
708.831	0.0161314
708.909	0.0161186
708.987	0.0161665
709.065	0.0160026
709.143	0.0158734
709.221	0.0159116
709.299	0.0158509
709.378	0.0157620
709.456	0.0157378
709.534	0.0156090
709.612	0.0155899
709.690	0.0155016
709.768	0.0155480
709.846	0.0154197
709.924	0.0153046
710.003	0.0152737
710.081	0.0152094
710.159	0.0152032
710.237	0.0150026
710.315	0.0151151
710.393	0.0150433
710.471	0.0149483
710.549	0.0149516
710.628	0.0149490
710.706	0.0148290
710.784	0.0148334
710.862	0.0146278
710.940	0.0148816
711.018	0.0148829
711.096	0.0149391
711.174	0.0150572
711.253	0.0150068
711.331	0.0150626
711.409	0.0151118
711.487	0.0152844
711.565	0.0152238
711.643	0.0151900
711.721	0.0152325
711.799	0.0154403
711.878	0.0152499
711.956	0.0154371
712.034	0.0153897
712.112	0.0155533
712.190	0.0155113
712.268	0.0154628
712.346	0.0155724
712.424	0.0155672
712.503	0.0157151
712.581	0.0159397
712.659	0.0160636
712.737	0.0159748
712.815	0.0161644
712.893	0.0162845
712.971	0.0161124
713.049	0.0161598
713.128	0.0160808
713.206	0.0161380
713.284	0.0161342
713.362	0.0162499
713.440	0.0160339
713.518	0.0160835
713.596	0.0159840
713.674	0.0160038
713.753	0.0159193
713.831	0.0158881
713.909	0.0159454
713.987	0.0160722
714.065	0.0159659
714.143	0.0159927
714.221	0.0159728
714.299	0.0158965
714.378	0.0159415
714.456	0.0159846
714.534	0.0160796
714.612	0.0160178
714.690	0.0158716
714.768	0.0160249
714.846	0.0161347
714.924	0.0160707
715.003	0.0160435
715.081	0.0160822
715.159	0.0159244
715.237	0.0160101
715.315	0.0159465
715.393	0.0159210
715.471	0.0158170
715.549	0.0158810
715.628	0.0158252
715.706	0.0157319
715.784	0.0154809
715.862	0.0154372
715.940	0.0156122
716.018	0.0154592
716.096	0.0154318
716.174	0.0154234
716.253	0.0153477
716.331	0.0153901
716.409	0.0150175
716.487	0.0150554
716.565	0.0151402
716.643	0.0151070
716.721	0.0151407
716.799	0.0150800
716.878	0.0149518
716.956	0.0151122
717.034	0.0151810
717.112	0.0149944
717.190	0.0150313
717.268	0.0151524
717.346	0.0151617
717.424	0.0151566
717.503	0.0152746
717.581	0.0153625
717.659	0.0153146
717.737	0.0152053
717.815	0.0152747
717.893	0.0151810
717.971	0.0151888
718.049	0.0152377
718.128	0.0151523
718.206	0.0152104
718.284	0.0153255
718.362	0.0153152
718.440	0.0153971
718.518	0.0154605
718.596	0.0154353
718.674	0.0154236
718.753	0.0154637
718.831	0.0153419
718.909	0.0153105
718.987	0.0154846
719.065	0.0154164
719.143	0.0154757
719.221	0.0154981
719.299	0.0155158
719.378	0.0155508
719.456	0.0157986
719.534	0.0157518
719.612	0.0158685
719.690	0.0160606
719.768	0.0159801
719.846	0.0160848
719.924	0.0160680
720.003	0.0160110
720.081	0.0161325
720.159	0.0161842
720.237	0.0160585
720.315	0.0161328
720.393	0.0162139
720.471	0.0159929
720.549	0.0161249
720.628	0.0162295
720.706	0.0161498
720.784	0.0161433
720.862	0.0161205
720.940	0.0160530
721.018	0.0161095
721.096	0.0160589
721.174	0.0160268
721.253	0.0160165
721.331	0.0160113
721.409	0.0160193
721.487	0.0158292
721.565	0.0159026
721.643	0.0158717
721.721	0.0157898
721.799	0.0157356
721.878	0.0158186
721.956	0.0157646
722.034	0.0156609
722.112	0.0157004
722.190	0.0155034
722.268	0.0155666
722.346	0.0157131
722.424	0.0156087
722.503	0.0154379
722.581	0.0154848
722.659	0.0156042
722.737	0.0155451
722.815	0.0155723
722.893	0.0153866
722.971	0.0153181
723.049	0.0154162
723.128	0.0153074
723.206	0.0151820
723.284	0.0152319
723.362	0.0151675
723.440	0.0150356
723.518	0.0149391
723.596	0.0149972
723.674	0.0149004
723.753	0.0149223
723.831	0.0149792
723.909	0.0149596
723.987	0.0148999
724.065	0.0149299
724.143	0.0148398
724.221	0.0150269
724.299	0.0149536
724.378	0.0149252
724.456	0.0151051
724.534	0.0150776
724.612	0.0153347
724.690	0.0152917
724.768	0.0152547
724.846	0.0154667
724.924	0.0154973
725.003	0.0155551
725.081	0.0153861
725.159	0.0154790
725.237	0.0155459
725.315	0.0154377
725.393	0.0153889
725.471	0.0153802
725.549	0.0154087
725.628	0.0154373
725.706	0.0154586
725.784	0.0155349
725.862	0.0156436
725.940	0.0155853
726.018	0.0157118
726.096	0.0156797
726.174	0.0157835
726.253	0.0159583
726.331	0.0158578
726.409	0.0158930
726.487	0.0159901
726.565	0.0160995
726.643	0.0161359
726.721	0.0161598
726.799	0.0161734
726.878	0.0162404
726.956	0.0162464
727.034	0.0162382
727.112	0.0161415
727.190	0.0162396
727.268	0.0163732
727.346	0.0161532
727.424	0.0161643
727.503	0.0161399
727.581	0.0160623
727.659	0.0159852
727.737	0.0158397
727.815	0.0160116
727.893	0.0158641
727.971	0.0158665
728.049	0.0157708
728.128	0.0157490
728.206	0.0156249
728.284	0.0156377
728.362	0.0156129
728.440	0.0154215
728.518	0.0154957
728.596	0.0154043
728.674	0.0153915
728.753	0.0154763
728.831	0.0155140
728.909	0.0153678
728.987	0.0154181
729.065	0.0154478
729.143	0.0154809
729.221	0.0155299
729.299	0.0153269
729.378	0.0152975
729.456	0.0153683
729.534	0.0154436
729.612	0.0154050
729.690	0.0153288
729.768	0.0154716
729.846	0.0154311
729.924	0.0153617
730.003	0.0154950
730.081	0.0155003
730.159	0.0154217
730.237	0.0154993
730.315	0.0154080
730.393	0.0153585
730.471	0.0154257
730.549	0.0154540
730.628	0.0153754
730.706	0.0154223
730.784	0.0153588
730.862	0.0153111
730.940	0.0154174
731.018	0.0153217
731.096	0.0152988
731.174	0.0153316
731.253	0.0153548
731.331	0.0152070
731.409	0.0152741
731.487	0.0153582
731.565	0.0154573
731.643	0.0154997
731.721	0.0155070
731.799	0.0155825
731.878	0.0157195
731.956	0.0157504
732.034	0.0158681
732.112	0.0157940
732.190	0.0158618
732.268	0.0159789
732.346	0.0158694
732.424	0.0159361
732.503	0.0158755
732.581	0.0158009
732.659	0.0157715
732.737	0.0158097
732.815	0.0158411
732.893	0.0157371
732.971	0.0158262
733.049	0.0159461
733.128	0.0159911
733.206	0.0159157
733.284	0.0157680
733.362	0.0159611
733.440	0.0158187
733.518	0.0158179
733.596	0.0158237
733.674	0.0158466
733.753	0.0158271
733.831	0.0157845
733.909	0.0158566
733.987	0.0159158
734.065	0.0159753
734.143	0.0156929
734.221	0.0158681
734.299	0.0160094
734.378	0.0159613
734.456	0.0158173
734.534	0.0158170
734.612	0.0159017
734.690	0.0158130
734.768	0.0157094
734.846	0.0158067
734.924	0.0156033
735.003	0.0157372
735.081	0.0157121
735.159	0.0154129
735.237	0.0156380
735.315	0.0154382
735.393	0.0154316
735.471	0.0153604
735.549	0.0154029
735.628	0.0153757
735.706	0.0154177
735.784	0.0155588
735.862	0.0154225
735.940	0.0156409
736.018	0.0155761
736.096	0.0157172
736.174	0.0155698
736.253	0.0155904
736.331	0.0156134
736.409	0.0157242
736.487	0.0155750
736.565	0.0156426
736.643	0.0156331
736.721	0.0156245
736.799	0.0156236
736.878	0.0156526
736.956	0.0156424
737.034	0.0156257
737.112	0.0155826
737.190	0.0156725
737.268	0.0155407
737.346	0.0155938
737.424	0.0156242
737.503	0.0155280
737.581	0.0153992
737.659	0.0154622
737.737	0.0154607
737.815	0.0154854
737.893	0.0155277
737.971	0.0154126
738.049	0.0153577
738.128	0.0153418
738.206	0.0154535
738.284	0.0154037
738.362	0.0154034
738.440	0.0153042
738.518	0.0153899
738.596	0.0153861
738.674	0.0153586
738.753	0.0154641
738.831	0.0155245
738.909	0.0155705
738.987	0.0157072
739.065	0.0157234
739.143	0.0158588
739.221	0.0157542
739.299	0.0158199
739.378	0.0157937
739.456	0.0160054
739.534	0.0159061
739.612	0.0158649
739.690	0.0159187
739.768	0.0159552
739.846	0.0158561
739.924	0.0158056
740.003	0.0156294
740.081	0.0158395
740.159	0.0156874
740.237	0.0156789
740.315	0.0156619
740.393	0.0156226
740.471	0.0157808
740.549	0.0156969
740.628	0.0156773
740.706	0.0155465
740.784	0.0156079
740.862	0.0157880
740.940	0.0156336
741.018	0.0156332
741.096	0.0156094
741.174	0.0157124
741.253	0.0155070
741.331	0.0156161
741.409	0.0156772
741.487	0.0157795
741.565	0.0157556
741.643	0.0157247
741.721	0.0156301
741.799	0.0156490
741.878	0.0155914
741.956	0.0157964
742.034	0.0156947
742.112	0.0155791
742.190	0.0156772
742.268	0.0157182
742.346	0.0156118
742.424	0.0157013
742.503	0.0157472
742.581	0.0157273
742.659	0.0156006
742.737	0.0155408
742.815	0.0156227
742.893	0.0156871
742.971	0.0155679
743.049	0.0156201
743.128	0.0157770
743.206	0.0158015
743.284	0.0157512
743.362	0.0158004
743.440	0.0159345
743.518	0.0158500
743.596	0.0158567
743.674	0.0158457
743.753	0.0158232
743.831	0.0158925
743.909	0.0158132
743.987	0.0158096
744.065	0.0156835
744.143	0.0155860
744.221	0.0157307
744.299	0.0157557
744.378	0.0158034
744.456	0.0155898
744.534	0.0156207
744.612	0.0155955
744.690	0.0157100
744.768	0.0154702
744.846	0.0154112
744.924	0.0156672
745.003	0.0155653
745.081	0.0155126
745.159	0.0154913
745.237	0.0154332
745.315	0.0155177
745.393	0.0154086
745.471	0.0155134
745.549	0.0152917
745.628	0.0154519
745.706	0.0153170
745.784	0.0153719
745.862	0.0154737
745.940	0.0152522
746.018	0.0153563
746.096	0.0154919
746.174	0.0153275
746.253	0.0153954
746.331	0.0155884
746.409	0.0155224
746.487	0.0156683
746.565	0.0157224
746.643	0.0157538
746.721	0.0159117
746.799	0.0157848
746.878	0.0157276
746.956	0.0158414
747.034	0.0158546
747.112	0.0156813
747.190	0.0156290
747.268	0.0157278
747.346	0.0156355
747.424	0.0155361
747.503	0.0156241
747.581	0.0156134
747.659	0.0155054
747.737	0.0156217
747.815	0.0156841
747.893	0.0155323
747.971	0.0155306
748.049	0.0156216
748.128	0.0156339
748.206	0.0154134
748.284	0.0154693
748.362	0.0156859
748.440	0.0156443
748.518	0.0156815
748.596	0.0156343
748.674	0.0157113
748.753	0.0156931
748.831	0.0156253
748.909	0.0155555
748.987	0.0158081
749.065	0.0157233
749.143	0.0157682
749.221	0.0157152
749.299	0.0156245
749.378	0.0155752
749.456	0.0156053
749.534	0.0156187
749.612	0.0156207
749.690	0.0155744
749.768	0.0156303
749.846	0.0154404
749.924	0.0155000
750.003	0.0156184
750.081	0.0157534
750.159	0.0156470
750.237	0.0156923
750.315	0.0156617
750.393	0.0155868
750.471	0.0157549
750.549	0.0157153
750.628	0.0158231
750.706	0.0157339
750.784	0.0156548
750.862	0.0156781
750.940	0.0157332
751.018	0.0157578
751.096	0.0156991
751.174	0.0157531
751.253	0.0158391
751.331	0.0156593
751.409	0.0156374
751.487	0.0156828
751.565	0.0156544
751.643	0.0156951
751.721	0.0155116
751.799	0.0153750
751.878	0.0156406
751.956	0.0157109
752.034	0.0155653
752.112	0.0155391
752.190	0.0154700
752.268	0.0155341
752.346	0.0155679
752.424	0.0156158
752.503	0.0153999
752.581	0.0154877
752.659	0.0155207
752.737	0.0157400
752.815	0.0156079
752.893	0.0154906
752.971	0.0154837
753.049	0.0154535
753.128	0.0154177
753.206	0.0155655
753.284	0.0155138
753.362	0.0155762
753.440	0.0154655
753.518	0.0153826
753.596	0.0154436
753.674	0.0156377
753.753	0.0155838
753.831	0.0154704
753.909	0.0157501
753.987	0.0157462
754.065	0.0157973
754.143	0.0156746
754.221	0.0157607
754.299	0.0157067
754.378	0.0157720
754.456	0.0158291
754.534	0.0157583
754.612	0.0157343
754.690	0.0157439
754.768	0.0158233
754.846	0.0155801
754.924	0.0155702
755.003	0.0157623
755.081	0.0157465
755.159	0.0155680
755.237	0.0156089
755.315	0.0155514
755.393	0.0155747
755.471	0.0156144
755.549	0.0157005
755.628	0.0157218
755.706	0.0156941
755.784	0.0156048
755.862	0.0156471
755.940	0.0155971
756.018	0.0157252
756.096	0.0157964
756.174	0.0157645
756.253	0.0157822
756.331	0.0158533
756.409	0.0158624
756.487	0.0158245
756.565	0.0157188
756.643	0.0157479
756.721	0.0157281
756.799	0.0157899
756.878	0.0157793
756.956	0.0157877
757.034	0.0155441
757.112	0.0156454
757.190	0.0156403
757.268	0.0157327
757.346	0.0158585
757.424	0.0158080
757.503	0.0155447
757.581	0.0157280
757.659	0.0158100
757.737	0.0158498
757.815	0.0156638
757.893	0.0157958
757.971	0.0158728
758.049	0.0158389
758.128	0.0156984
758.206	0.0158109
758.284	0.0158063
758.362	0.0158495
758.440	0.0158172
758.518	0.0157841
758.596	0.0155468
758.674	0.0156277
758.753	0.0156798
758.831	0.0156816
758.909	0.0156884
758.987	0.0154858
759.065	0.0157208
759.143	0.0155581
759.221	0.0155766
759.299	0.0155662
759.378	0.0155181
759.456	0.0156441
759.534	0.0157397
759.612	0.0157151
759.690	0.0155140
759.768	0.0155485
759.846	0.0155247
759.924	0.0155220
760.003	0.0154982
760.081	0.0155474
760.159	0.0155154
760.237	0.0155705
760.315	0.0155401
760.393	0.0154581
760.471	0.0154967
760.549	0.0157162
760.628	0.0156332
760.706	0.0155517
760.784	0.0156410
760.862	0.0155502
760.940	0.0156728
761.018	0.0155365
761.096	0.0156912
761.174	0.0156790
761.253	0.0157231
761.331	0.0156706
761.409	0.0157115
761.487	0.0157199
761.565	0.0156040
761.643	0.0157893
761.721	0.0156137
761.799	0.0156815
761.878	0.0157710
761.956	0.0156525
762.034	0.0156348
762.112	0.0157007
762.190	0.0158599
762.268	0.0156863
762.346	0.0157219
762.424	0.0156441
762.503	0.0156245
762.581	0.0156273
762.659	0.0156964
762.737	0.0157197
762.815	0.0156771
762.893	0.0156831
762.971	0.0157641
763.049	0.0156832
763.128	0.0155672
763.206	0.0155671
763.284	0.0157289
763.362	0.0159453
763.440	0.0157502
763.518	0.0158111
763.596	0.0158274
763.674	0.0157822
763.753	0.0159295
763.831	0.0156530
763.909	0.0157040
763.987	0.0158775
764.065	0.0157538
764.143	0.0157688
764.221	0.0158273
764.299	0.0157593
764.378	0.0157327
764.456	0.0156425
764.534	0.0156749
764.612	0.0156115
764.690	0.0157506
764.768	0.0155930
764.846	0.0156607
764.924	0.0156646
765.003	0.0156574
765.081	0.0158509
765.159	0.0158212
765.237	0.0157549
765.315	0.0156345
765.393	0.0156437
765.471	0.0156600
765.549	0.0156665
765.628	0.0158104
765.706	0.0156470
765.784	0.0157084
765.862	0.0156355
765.940	0.0157725
766.018	0.0155588
766.096	0.0155912
766.174	0.0155926
766.253	0.0155424
766.331	0.0156207
766.409	0.0156161
766.487	0.0155158
766.565	0.0156194
766.643	0.0155921
766.721	0.0155232
766.799	0.0155249
766.878	0.0153828
766.956	0.0155286
767.034	0.0155934
767.112	0.0154713
767.190	0.0155699
767.268	0.0155509
767.346	0.0154908
767.424	0.0156696
767.503	0.0156653
767.581	0.0156091
767.659	0.0154910
767.737	0.0156405
767.815	0.0153921
767.893	0.0155626
767.971	0.0157033
768.049	0.0155886
768.128	0.0156842
768.206	0.0156229
768.284	0.0155994
768.362	0.0157400
768.440	0.0155318
768.518	0.0154670
768.596	0.0157162
768.674	0.0157578
768.753	0.0156614
768.831	0.0155886
768.909	0.0157392
768.987	0.0155688
769.065	0.0156069
769.143	0.0156875
769.221	0.0156182
769.299	0.0156413
769.378	0.0155759
769.456	0.0156902
769.534	0.0157085
769.612	0.0156779
769.690	0.0155918
769.768	0.0155924
769.846	0.0158006
769.924	0.0155501
770.003	0.0155434
770.081	0.0155756
770.159	0.0156071
770.237	0.0154842
770.315	0.0154913
770.393	0.0155379
770.471	0.0155731
770.549	0.0156622
770.628	0.0154826
770.706	0.0156124
770.784	0.0157211
770.862	0.0158227
770.940	0.0156697
771.018	0.0157106
771.096	0.0156168
771.174	0.0155807
771.253	0.0156583
771.331	0.0156509
771.409	0.0156152
771.487	0.0156087
771.565	0.0156332
771.643	0.0156631
771.721	0.0155713
771.799	0.0156210
771.878	0.0155973
771.956	0.0156440
772.034	0.0154583
772.112	0.0155217
772.190	0.0155425
772.268	0.0154693
772.346	0.0156000
772.424	0.0156163
772.503	0.0155025
772.581	0.0154218
772.659	0.0154594
772.737	0.0156498
772.815	0.0154633
772.893	0.0155323
772.971	0.0155771
773.049	0.0156300
773.128	0.0155587
773.206	0.0155736
773.284	0.0155073
773.362	0.0155031
773.440	0.0155186
773.518	0.0156011
773.596	0.0155354
773.674	0.0154710
773.753	0.0154030
773.831	0.0155428
773.909	0.0155611
773.987	0.0156256
774.065	0.0155926
774.143	0.0155123
774.221	0.0155434
774.299	0.0155405
774.378	0.0156415
774.456	0.0155836
774.534	0.0157277
774.612	0.0156566
774.690	0.0155618
774.768	0.0154610
774.846	0.0155817
774.924	0.0156118
775.003	0.0155907
775.081	0.0154218
775.159	0.0155393
775.237	0.0154102
775.315	0.0154727
775.393	0.0155918
775.471	0.0156453
775.549	0.0155354
775.628	0.0155984
775.706	0.0156019
775.784	0.0156419
775.862	0.0157552
775.940	0.0156593
776.018	0.0155247
776.096	0.0155798
776.174	0.0156572
776.253	0.0155790
776.331	0.0155008
776.409	0.0155825
776.487	0.0156302
776.565	0.0155617
776.643	0.0155994
776.721	0.0156446
776.799	0.0157085
776.878	0.0156022
776.956	0.0154782
777.034	0.0156710
777.112	0.0155933
777.190	0.0156495
777.268	0.0155370
777.346	0.0155666
777.424	0.0155669
777.503	0.0156055
777.581	0.0156624
777.659	0.0156461
777.737	0.0156792
777.815	0.0156120
777.893	0.0155742
777.971	0.0156367
778.049	0.0155477
778.128	0.0155843
778.206	0.0154972
778.284	0.0156585
778.362	0.0156628
778.440	0.0156937
778.518	0.0156217
778.596	0.0155231
778.674	0.0156562
778.753	0.0157327
778.831	0.0157551
778.909	0.0156578
778.987	0.0156386
779.065	0.0156572
779.143	0.0156529
779.221	0.0156767
779.299	0.0154674
779.378	0.0154600
779.456	0.0155428
779.534	0.0154450
779.612	0.0154189
779.690	0.0154539
779.768	0.0155641
779.846	0.0154224
779.924	0.0155093
780.003	0.0154884
780.081	0.0155500
780.159	0.0154515
780.237	0.0155626
780.315	0.0156123
780.393	0.0155585
780.471	0.0156069
780.549	0.0155878
780.628	0.0154739
780.706	0.0155990
780.784	0.0155155
780.862	0.0154103
780.940	0.0153613
781.018	0.0155785
781.096	0.0155437
781.174	0.0155753
781.253	0.0154932
781.331	0.0154322
781.409	0.0156392
781.487	0.0155553
781.565	0.0155043
781.643	0.0154474
781.721	0.0156367
781.799	0.0155769
781.878	0.0155553
781.956	0.0156487
782.034	0.0156846
782.112	0.0156893
782.190	0.0157083
782.268	0.0157471
782.346	0.0156918
782.424	0.0156985
782.503	0.0157043
782.581	0.0156563
782.659	0.0155980
782.737	0.0156873
782.815	0.0156936
782.893	0.0156624
782.971	0.0155981
783.049	0.0156709
783.128	0.0157034
783.206	0.0158109
783.284	0.0156397
783.362	0.0157597
783.440	0.0157806
783.518	0.0155206
783.596	0.0157132
783.674	0.0157395
783.753	0.0156998
783.831	0.0156752
783.909	0.0157584
783.987	0.0157117
784.065	0.0156949
784.143	0.0155669
784.221	0.0156331
784.299	0.0157741
784.378	0.0156890
784.456	0.0156114
784.534	0.0157427
784.612	0.0157201
784.690	0.0157791
784.768	0.0156723
784.846	0.0157859
784.924	0.0157674
785.003	0.0158237
785.081	0.0158129
785.159	0.0156288
785.237	0.0156626
785.315	0.0157134
785.393	0.0157004
785.471	0.0157555
785.549	0.0158421
785.628	0.0156924
785.706	0.0156433
785.784	0.0156340
785.862	0.0156214
785.940	0.0155933
786.018	0.0157404
786.096	0.0156414
786.174	0.0155941
786.253	0.0156617
786.331	0.0155108
786.409	0.0155659
786.487	0.0156865
786.565	0.0156092
786.643	0.0156424
786.721	0.0156284
786.799	0.0156166
786.878	0.0155389
786.956	0.0155137
787.034	0.0156734
787.112	0.0155350
787.190	0.0155198
787.268	0.0155689
787.346	0.0156287
787.424	0.0155087
787.503	0.0155033
787.581	0.0155570
787.659	0.0157346
787.737	0.0156595
787.815	0.0157263
787.893	0.0157558
787.971	0.0158300
788.049	0.0157398
788.128	0.0156287
788.206	0.0157821
788.284	0.0158401
788.362	0.0158084
788.440	0.0158437
788.518	0.0156905
788.596	0.0158520
788.674	0.0156776
788.753	0.0156971
788.831	0.0156712
788.909	0.0155867
788.987	0.0156454
789.065	0.0155799
789.143	0.0156571
789.221	0.0157325
789.299	0.0156924
789.378	0.0155592
789.456	0.0156605
789.534	0.0156366
789.612	0.0156164
789.690	0.0157735
789.768	0.0156710
789.846	0.0157164
789.924	0.0156976
790.003	0.0156919
790.081	0.0157138
790.159	0.0156627
790.237	0.0158207
790.315	0.0156921
790.393	0.0157156
790.471	0.0155766
790.549	0.0156161
790.628	0.0157574
790.706	0.0155927
790.784	0.0154602
790.862	0.0156956
790.940	0.0157458
791.018	0.0156093
791.096	0.0156757
791.174	0.0158143
791.253	0.0157177
791.331	0.0157114
791.409	0.0157036
791.487	0.0157960
791.565	0.0157554
791.643	0.0156353
791.721	0.0158379
791.799	0.0157581
791.878	0.0157636
791.956	0.0156507
792.034	0.0156245
792.112	0.0156592
792.190	0.0156454
792.268	0.0156409
792.346	0.0157026
792.424	0.0156531
792.503	0.0155229
792.581	0.0156796
792.659	0.0156622
792.737	0.0156448
792.815	0.0156149
792.893	0.0155663
792.971	0.0155997
793.049	0.0155856
793.128	0.0155999
793.206	0.0154818
793.284	0.0155173
793.362	0.0153154
793.440	0.0155244
793.518	0.0154427
793.596	0.0154543
793.674	0.0154462
793.753	0.0153131
793.831	0.0153795
793.909	0.0154188
793.987	0.0152401
794.065	0.0153996
794.143	0.0152612
794.221	0.0154559
794.299	0.0155485
794.378	0.0154082
794.456	0.0154185
794.534	0.0154114
794.612	0.0153834
794.690	0.0154537
794.768	0.0153876
794.846	0.0154528
794.924	0.0155748
795.003	0.0154314
795.081	0.0154323
795.159	0.0154449
795.237	0.0155446
795.315	0.0156478
795.393	0.0155523
795.471	0.0156273
795.549	0.0156962
795.628	0.0155319
795.706	0.0156293
795.784	0.0156633
795.862	0.0157482
795.940	0.0157674
796.018	0.0156905
796.096	0.0157119
796.174	0.0156489
796.253	0.0156805
796.331	0.0156741
796.409	0.0156790
796.487	0.0156349
796.565	0.0156416
796.643	0.0157594
796.721	0.0156820
796.799	0.0155555
796.878	0.0156091
796.956	0.0156612
797.034	0.0156073
797.112	0.0155482
797.190	0.0156618
797.268	0.0157016
797.346	0.0156511
797.424	0.0157462
797.503	0.0157149
797.581	0.0157664
797.659	0.0157111
797.737	0.0157662
797.815	0.0156342
797.893	0.0156277
797.971	0.0156832
798.049	0.0156045
798.128	0.0156325
798.206	0.0157449
798.284	0.0156954
798.362	0.0156543
798.440	0.0155255
798.518	0.0155026
798.596	0.0154837
798.674	0.0155215
798.753	0.0154993
798.831	0.0154422
798.909	0.0156270
798.987	0.0155169
799.065	0.0156036
799.143	0.0155637
799.221	0.0154019
799.299	0.0154107
799.378	0.0156224
799.456	0.0156672
799.534	0.0156416
799.612	0.0155839
799.690	0.0154198
799.768	0.0154730
799.846	0.0155088
799.924	0.0155446
800.003	0.0154296
800.081	0.0153873
800.159	0.0154648
800.237	0.0154255
800.315	0.0154128
800.393	0.0154077
800.471	0.0154801
800.549	0.0154004
800.628	0.0154095
800.706	0.0155309
800.784	0.0155216
800.862	0.0155126
800.940	0.0155437
801.018	0.0154938
801.096	0.0155439
801.174	0.0155858
801.253	0.0155843
801.331	0.0155658
801.409	0.0154410
801.487	0.0156278
801.565	0.0155908
801.643	0.0155421
801.721	0.0155637
801.799	0.0156085
801.878	0.0155889
801.956	0.0156602
802.034	0.0155879
802.112	0.0156653
802.190	0.0156931
802.268	0.0156999
802.346	0.0156776
802.424	0.0156293
802.503	0.0157800
802.581	0.0156540
802.659	0.0158560
802.737	0.0157148
802.815	0.0156454
802.893	0.0157599
802.971	0.0156822
803.049	0.0156931
803.128	0.0158368
803.206	0.0157870
803.284	0.0157188
803.362	0.0157874
803.440	0.0159565
803.518	0.0158343
803.596	0.0157528
803.674	0.0156769
803.753	0.0157916
803.831	0.0157542
803.909	0.0157967
803.987	0.0158325
804.065	0.0157819
804.143	0.0157732
804.221	0.0158492
804.299	0.0157777
804.378	0.0157283
804.456	0.0157613
804.534	0.0157414
804.612	0.0157536
804.690	0.0158635
804.768	0.0156904
804.846	0.0155762
804.924	0.0158209
805.003	0.0157939
805.081	0.0157107
805.159	0.0156371
805.237	0.0156452
805.315	0.0157267
805.393	0.0156838
805.471	0.0156413
805.549	0.0156532
805.628	0.0156485
805.706	0.0155653
805.784	0.0156425
805.862	0.0155539
805.940	0.0155585
806.018	0.0154884
806.096	0.0155637
806.174	0.0154751
806.253	0.0154416
806.331	0.0154994
806.409	0.0153391
806.487	0.0154317
806.565	0.0152853
806.643	0.0154971
806.721	0.0154682
806.799	0.0154531
806.878	0.0154670
806.956	0.0153844
807.034	0.0155515
807.112	0.0154410
807.190	0.0155593
807.268	0.0154608
807.346	0.0155091
807.424	0.0154929
807.503	0.0155049
807.581	0.0154998
807.659	0.0155167
807.737	0.0155286
807.815	0.0155366
807.893	0.0155701
807.971	0.0157235
808.049	0.0157563
808.128	0.0156755
808.206	0.0155698
808.284	0.0155849
808.362	0.0156640
808.440	0.0156928
808.518	0.0157050
808.596	0.0157104
808.674	0.0157726
808.753	0.0156843
808.831	0.0156554
808.909	0.0158150
808.987	0.0159343
809.065	0.0158420
809.143	0.0158364
809.221	0.0157387
809.299	0.0159702
809.378	0.0157039
809.456	0.0158474
809.534	0.0157534
809.612	0.0158332
809.690	0.0158836
809.768	0.0157789
809.846	0.0155954
809.924	0.0157332
810.003	0.0157678
810.081	0.0156475
810.159	0.0156946
810.237	0.0156650
810.315	0.0155373
810.393	0.0157825
810.471	0.0158405
810.549	0.0157684
810.628	0.0158060
810.706	0.0156496
810.784	0.0157389
810.862	0.0158092
810.940	0.0157021
811.018	0.0156763
811.096	0.0158293
811.174	0.0157380
811.253	0.0158692
811.331	0.0157476
811.409	0.0158670
811.487	0.0157391
811.565	0.0157526
811.643	0.0157558
811.721	0.0158090
811.799	0.0155462
811.878	0.0157258
811.956	0.0157227
812.034	0.0156603
812.112	0.0156821
812.190	0.0156145
812.268	0.0156072
812.346	0.0155738
812.424	0.0155698
812.503	0.0154997
812.581	0.0155149
812.659	0.0156621
812.737	0.0156841
812.815	0.0155028
812.893	0.0156400
812.971	0.0155621
813.049	0.0154853
813.128	0.0157112
813.206	0.0155614
813.284	0.0157517
813.362	0.0156983
813.440	0.0156602
813.518	0.0155132
813.596	0.0154932
813.674	0.0156141
813.753	0.0155774
813.831	0.0155444
813.909	0.0155269
813.987	0.0154163
814.065	0.0156130
814.143	0.0156170
814.221	0.0154568
814.299	0.0154809
814.378	0.0155038
814.456	0.0155172
814.534	0.0155496
814.612	0.0155753
814.690	0.0154409
814.768	0.0156049
814.846	0.0154874
814.924	0.0154095
815.003	0.0154636
815.081	0.0154829
815.159	0.0155122
815.237	0.0154737
815.315	0.0155614
815.393	0.0154794
815.471	0.0155569
815.549	0.0156015
815.628	0.0155667
815.706	0.0156100
815.784	0.0156866
815.862	0.0156006
815.940	0.0156391
816.018	0.0156448
816.096	0.0156171
816.174	0.0156523
816.253	0.0157220
816.331	0.0157266
816.409	0.0157272
816.487	0.0156766
816.565	0.0156392
816.643	0.0156240
816.721	0.0157584
816.799	0.0157858
816.878	0.0156593
816.956	0.0158225
817.034	0.0157948
817.112	0.0157014
817.190	0.0156564
817.268	0.0158345
817.346	0.0159509
817.424	0.0156115
817.503	0.0157287
817.581	0.0157677
817.659	0.0158643
817.737	0.0157948
817.815	0.0158101
817.893	0.0157667
817.971	0.0157284
818.049	0.0157656
818.128	0.0157220
818.206	0.0158576
818.284	0.0157343
818.362	0.0157758
818.440	0.0156329
818.518	0.0157386
818.596	0.0156290
818.674	0.0156057
818.753	0.0157070
818.831	0.0155027
818.909	0.0155732
818.987	0.0156710
819.065	0.0156644
819.143	0.0155286
819.221	0.0154697
819.299	0.0155174
819.378	0.0154675
819.456	0.0155952
819.534	0.0154224
819.612	0.0153993
819.690	0.0155068
819.768	0.0154726
819.846	0.0155424
819.924	0.0153529
820.003	0.0153849
820.081	0.0154346
820.159	0.0155098
820.237	0.0155808
820.315	0.0155476
820.393	0.0154435
820.471	0.0154728
820.549	0.0155341
820.628	0.0155283
820.706	0.0156039
820.784	0.0154946
820.862	0.0156444
820.940	0.0156593
821.018	0.0155910
821.096	0.0157255
821.174	0.0155795
821.253	0.0156802
821.331	0.0157446
821.409	0.0154889
821.487	0.0156362
821.565	0.0156601
821.643	0.0158137
821.721	0.0157011
821.799	0.0157233
821.878	0.0156986
821.956	0.0156810
822.034	0.0156963
822.112	0.0157838
822.190	0.0158602
822.268	0.0156458
822.346	0.0156357
822.424	0.0156367
822.503	0.0156414
822.581	0.0157400
822.659	0.0156919
822.737	0.0157443
822.815	0.0157199
822.893	0.0156508
822.971	0.0157909
823.049	0.0158230
823.128	0.0157398
823.206	0.0156681
823.284	0.0157118
823.362	0.0157460
823.440	0.0157645
823.518	0.0157497
823.596	0.0158022
823.674	0.0158569
823.753	0.0159399
823.831	0.0158772
823.909	0.0156822
823.987	0.0158817
824.065	0.0158504
824.143	0.0159048
824.221	0.0156982
824.299	0.0157594
824.378	0.0158488
824.456	0.0156592
824.534	0.0157991
824.612	0.0158937
824.690	0.0157850
824.768	0.0157027
824.846	0.0156950
824.924	0.0156103
825.003	0.0157476
825.081	0.0156675
825.159	0.0156557
825.237	0.0156465
825.315	0.0155654
825.393	0.0156214
825.471	0.0156448
825.549	0.0156055
825.628	0.0156688
825.706	0.0158268
825.784	0.0155045
825.862	0.0155414
825.940	0.0154957
826.018	0.0155463
826.096	0.0154946
826.174	0.0154839
826.253	0.0155596
826.331	0.0155286
826.409	0.0156694
826.487	0.0155434
826.565	0.0154788
826.643	0.0154488
826.721	0.0155491
826.799	0.0155659
826.878	0.0155267
826.956	0.0156184
827.034	0.0156682
827.112	0.0155689
827.190	0.0155727
827.268	0.0156840
827.346	0.0156414
827.424	0.0156785
827.503	0.0156438
827.581	0.0156853
827.659	0.0156635
827.737	0.0156017
827.815	0.0155878
827.893	0.0158315
827.971	0.0156789
828.049	0.0157407
828.128	0.0156763
828.206	0.0155529
828.284	0.0156194
828.362	0.0156940
828.440	0.0157238
828.518	0.0157728
828.596	0.0156354
828.674	0.0156113
828.753	0.0157840
828.831	0.0158282
828.909	0.0157540
828.987	0.0156541
829.065	0.0155653
829.143	0.0156777
829.221	0.0157008
829.299	0.0157962
829.378	0.0158442
829.456	0.0156850
829.534	0.0156560
829.612	0.0158624
829.690	0.0158273
829.768	0.0157394
829.846	0.0157697
829.924	0.0157568
830.003	0.0158115
830.081	0.0157298
830.159	0.0157167
830.237	0.0156187
830.315	0.0156142
830.393	0.0158074
830.471	0.0155982
830.549	0.0156025
830.628	0.0157107
830.706	0.0158366
830.784	0.0156569
830.862	0.0156039
830.940	0.0155573
831.018	0.0157270
831.096	0.0155846
831.174	0.0157767
831.253	0.0156110
831.331	0.0155122
831.409	0.0156502
831.487	0.0156042
831.565	0.0157074
831.643	0.0155953
831.721	0.0156276
831.799	0.0156197
831.878	0.0155989
831.956	0.0155866
832.034	0.0156478
832.112	0.0155577
832.190	0.0157751
832.268	0.0156165
832.346	0.0156199
832.424	0.0155192
832.503	0.0155711
832.581	0.0155807
832.659	0.0156409
832.737	0.0155256
832.815	0.0155245
832.893	0.0155156
832.971	0.0155988
833.049	0.0155833
833.128	0.0155402
833.206	0.0155488
833.284	0.0154890
833.362	0.0155140
833.440	0.0155226
833.518	0.0156058
833.596	0.0156289
833.674	0.0155662
833.753	0.0155243
833.831	0.0155652
833.909	0.0155914
833.987	0.0156551
834.065	0.0155302
834.143	0.0156139
834.221	0.0156899
834.299	0.0156734
834.378	0.0155757
834.456	0.0156808
834.534	0.0158313
834.612	0.0154359
834.690	0.0156966
834.768	0.0156273
834.846	0.0156487
834.924	0.0157727
835.003	0.0156850
835.081	0.0156634
835.159	0.0155913
835.237	0.0157273
835.315	0.0156868
835.393	0.0157613
835.471	0.0155900
835.549	0.0156317
835.628	0.0159224
835.706	0.0157386
835.784	0.0156763
835.862	0.0158320
835.940	0.0156924
836.018	0.0157222
836.096	0.0157875
836.174	0.0156775
836.253	0.0157743
836.331	0.0157483
836.409	0.0157494
836.487	0.0158741
836.565	0.0156969
836.643	0.0157647
836.721	0.0156076
836.799	0.0156638
836.878	0.0156933
836.956	0.0157081
837.034	0.0155456
837.112	0.0156387
837.190	0.0155817
837.268	0.0156699
837.346	0.0157265
837.424	0.0156307
837.503	0.0156767
837.581	0.0156350
837.659	0.0157079
837.737	0.0157539
837.815	0.0156174
837.893	0.0155433
837.971	0.0157162
838.049	0.0155695
838.128	0.0157099
838.206	0.0156061
838.284	0.0156973
838.362	0.0155902
838.440	0.0155539
838.518	0.0156503
838.596	0.0156397
838.674	0.0155869
838.753	0.0155511
838.831	0.0155755
838.909	0.0155024
838.987	0.0154690
839.065	0.0155936
839.143	0.0155510
839.221	0.0155739
839.299	0.0156242
839.378	0.0155492
839.456	0.0156667
839.534	0.0156850
839.612	0.0157418
839.690	0.0155647
839.768	0.0155499
839.846	0.0155703
839.924	0.0156725
840.003	0.0156408
840.081	0.0156614
840.159	0.0156637
840.237	0.0156765
840.315	0.0155513
840.393	0.0155785
840.471	0.0155915
840.549	0.0154843
840.628	0.0156097
840.706	0.0156594
840.784	0.0156866
840.862	0.0156124
840.940	0.0156873
841.018	0.0156351
841.096	0.0156367
841.174	0.0155846
841.253	0.0156512
841.331	0.0156322
841.409	0.0157134
841.487	0.0156642
841.565	0.0156432
841.643	0.0157550
841.721	0.0157066
841.799	0.0156528
841.878	0.0156785
841.956	0.0156595
842.034	0.0156999
842.112	0.0156071
842.190	0.0155099
842.268	0.0157301
842.346	0.0157578
842.424	0.0156240
842.503	0.0157387
842.581	0.0156564
842.659	0.0156873
842.737	0.0157346
842.815	0.0158834
842.893	0.0157263
842.971	0.0157428
843.049	0.0157732
843.128	0.0156290
843.206	0.0157256
843.284	0.0157959
843.362	0.0156567
843.440	0.0156683
843.518	0.0157316
843.596	0.0157834
843.674	0.0158955
843.753	0.0156982
843.831	0.0156874
843.909	0.0156748
843.987	0.0157123
844.065	0.0156784
844.143	0.0156844
844.221	0.0156561
844.299	0.0157671
844.378	0.0155511
844.456	0.0157186
844.534	0.0157465
844.612	0.0156333
844.690	0.0157844
844.768	0.0158181
844.846	0.0155921
844.924	0.0157184
845.003	0.0156589
845.081	0.0156692
845.159	0.0157026
845.237	0.0156606
845.315	0.0156396
845.393	0.0155118
845.471	0.0156771
845.549	0.0156021
845.628	0.0156696
845.706	0.0157355
845.784	0.0155383
845.862	0.0156578
845.940	0.0156857
846.018	0.0156345
846.096	0.0156219
846.174	0.0155301
846.253	0.0155540
846.331	0.0157454
846.409	0.0156693
846.487	0.0156136
846.565	0.0155793
846.643	0.0156403
846.721	0.0156695
846.799	0.0155079
846.878	0.0155620
846.956	0.0155923
847.034	0.0156850
847.112	0.0156896
847.190	0.0156147
847.268	0.0156057
847.346	0.0156007
847.424	0.0154082
847.503	0.0155502
847.581	0.0155302
847.659	0.0155584
847.737	0.0155992
847.815	0.0156425
847.893	0.0155713
847.971	0.0156329
848.049	0.0156328
848.128	0.0155638
848.206	0.0156029
848.284	0.0157243
848.362	0.0156062
848.440	0.0156863
848.518	0.0155959
848.596	0.0156498
848.674	0.0156281
848.753	0.0157120
848.831	0.0156503
848.909	0.0156508
848.987	0.0158572
849.065	0.0156576
849.143	0.0156713
849.221	0.0157889
849.299	0.0155328
849.378	0.0156161
849.456	0.0156943
849.534	0.0156533
849.612	0.0157682
849.690	0.0156528
849.768	0.0155841
849.846	0.0155872
849.924	0.0155910
850.003	0.0156310
850.081	0.0156568
850.159	0.0158417
850.237	0.0157426
850.315	0.0156773
850.393	0.0156405
850.471	0.0156791
850.549	0.0157298
850.628	0.0156882
850.706	0.0156572
850.784	0.0156504
850.862	0.0156722
850.940	0.0157104
851.018	0.0155319
851.096	0.0155541
851.174	0.0156599
851.253	0.0156688
851.331	0.0156661
851.409	0.0155456
851.487	0.0156541
851.565	0.0157857
851.643	0.0156892
851.721	0.0155263
851.799	0.0155283
851.878	0.0155965
851.956	0.0156815
852.034	0.0154870
852.112	0.0157461
852.190	0.0157426
852.268	0.0157970
852.346	0.0157558
852.424	0.0156822
852.503	0.0156744
852.581	0.0157289
852.659	0.0157056
852.737	0.0157290
852.815	0.0156680
852.893	0.0156487
852.971	0.0155923
853.049	0.0155752
853.128	0.0155864
853.206	0.0155851
853.284	0.0156901
853.362	0.0156676
853.440	0.0157732
853.518	0.0156676
853.596	0.0156357
853.674	0.0157224
853.753	0.0155735
853.831	0.0156022
853.909	0.0157291
853.987	0.0154510
854.065	0.0156526
854.143	0.0157463
854.221	0.0157289
854.299	0.0157290
854.378	0.0155625
854.456	0.0157345
854.534	0.0156429
854.612	0.0158572
854.690	0.0156937
854.768	0.0156469
854.846	0.0157083
854.924	0.0157136
855.003	0.0156046
855.081	0.0157454
855.159	0.0157320
855.237	0.0154430
855.315	0.0156501
855.393	0.0156765
855.471	0.0156814
855.549	0.0156071
855.628	0.0155921
855.706	0.0155428
855.784	0.0155832
855.862	0.0154617
855.940	0.0155264
856.018	0.0154807
856.096	0.0156461
856.174	0.0155695
856.253	0.0156422
856.331	0.0157347
856.409	0.0156496
856.487	0.0157169
856.565	0.0155599
856.643	0.0157439
856.721	0.0157201
856.799	0.0155360
856.878	0.0156462
856.956	0.0157494
857.034	0.0156114
857.112	0.0154227
857.190	0.0156834
857.268	0.0156375
857.346	0.0155317
857.424	0.0156456
857.503	0.0157303
857.581	0.0157506
857.659	0.0156629
857.737	0.0156868
857.815	0.0157880
857.893	0.0157777
857.971	0.0156896
858.049	0.0158099
858.128	0.0157835
858.206	0.0155901
858.284	0.0157773
858.362	0.0158112
858.440	0.0157010
858.518	0.0157428
858.596	0.0158330
858.674	0.0157157
858.753	0.0157130
858.831	0.0156631
858.909	0.0157695
858.987	0.0156992
859.065	0.0155990
859.143	0.0157729
859.221	0.0155562
859.299	0.0156626
859.378	0.0158385
859.456	0.0156966
859.534	0.0155842
859.612	0.0156957
859.690	0.0157944
859.768	0.0156530
859.846	0.0156628
859.924	0.0157070
860.003	0.0157675
860.081	0.0156961
860.159	0.0156960
860.237	0.0155928
860.315	0.0155605
860.393	0.0157165
860.471	0.0156490
860.549	0.0155453
860.628	0.0154695
860.706	0.0156440
860.784	0.0155049
860.862	0.0156240
860.940	0.0156601
861.018	0.0155071
861.096	0.0155371
861.174	0.0154769
861.253	0.0154723
861.331	0.0154254
861.409	0.0156322
861.487	0.0153291
861.565	0.0154150
861.643	0.0155130
861.721	0.0154983
861.799	0.0154054
861.878	0.0155732
861.956	0.0155636
862.034	0.0154836
862.112	0.0156750
862.190	0.0156163
862.268	0.0156119
862.346	0.0154543
862.424	0.0157458
862.503	0.0155529
862.581	0.0156194
862.659	0.0157352
862.737	0.0157201
862.815	0.0156718
862.893	0.0157722
862.971	0.0156348
863.049	0.0156399
863.128	0.0155524
863.206	0.0157548
863.284	0.0157751
863.362	0.0156402
863.440	0.0156868
863.518	0.0156023
863.596	0.0156110
863.674	0.0156227
863.753	0.0156562
863.831	0.0155335
863.909	0.0156615
863.987	0.0154913
864.065	0.0156726
864.143	0.0156532
864.221	0.0158066
864.299	0.0155846
864.378	0.0154838
864.456	0.0155600
864.534	0.0156779
864.612	0.0155434
864.690	0.0156178
864.768	0.0156135
864.846	0.0156512
864.924	0.0156551
865.003	0.0156129
865.081	0.0155523
865.159	0.0155875
865.237	0.0155607
865.315	0.0156844
865.393	0.0156992
865.471	0.0156265
865.549	0.0156654
865.628	0.0157572
865.706	0.0158179
865.784	0.0156812
865.862	0.0155892
865.940	0.0156546
866.018	0.0157082
866.096	0.0155557
866.174	0.0156348
866.253	0.0156113
866.331	0.0155321
866.409	0.0155766
866.487	0.0154766
866.565	0.0155865
866.643	0.0156238
866.721	0.0156425
866.799	0.0155187
866.878	0.0155639
866.956	0.0156123
867.034	0.0156940
867.112	0.0156492
867.190	0.0156226
867.268	0.0157123
867.346	0.0156273
867.424	0.0156390
867.503	0.0156221
867.581	0.0157217
867.659	0.0155830
867.737	0.0156354
867.815	0.0156882
867.893	0.0155524
867.971	0.0156087
868.049	0.0155835
868.128	0.0154490
868.206	0.0156249
868.284	0.0155490
868.362	0.0156130
868.440	0.0155787
868.518	0.0155833
868.596	0.0155496
868.674	0.0155926
868.753	0.0156187
868.831	0.0156829
868.909	0.0155533
868.987	0.0155195
869.065	0.0155676
869.143	0.0155470
869.221	0.0156590
869.299	0.0156475
869.378	0.0155396
869.456	0.0156038
869.534	0.0158179
869.612	0.0156518
869.690	0.0154823
869.768	0.0156052
869.846	0.0155837
869.924	0.0155754
870.003	0.0156050
870.081	0.0155616
870.159	0.0156366
870.237	0.0156598
870.315	0.0156535
870.393	0.0155752
870.471	0.0155771
870.549	0.0156325
870.628	0.0156110
870.706	0.0156229
870.784	0.0157153
870.862	0.0156062
870.940	0.0154330
871.018	0.0156738
871.096	0.0155460
871.174	0.0155269
871.253	0.0155670
871.331	0.0156818
871.409	0.0156448
871.487	0.0156156
871.565	0.0156109
871.643	0.0156196
871.721	0.0156367
871.799	0.0156792
871.878	0.0158147
871.956	0.0155987
872.034	0.0155745
872.112	0.0156747
872.190	0.0156293
872.268	0.0155895
872.346	0.0156345
872.424	0.0157409
872.503	0.0157059
872.581	0.0156892
872.659	0.0155240
872.737	0.0155716
872.815	0.0156763
872.893	0.0156214
872.971	0.0156680
873.049	0.0156397
873.128	0.0156578
873.206	0.0155676
873.284	0.0157047
873.362	0.0157101
873.440	0.0155813
873.518	0.0155756
873.596	0.0155495
873.674	0.0157725
873.753	0.0156589
873.831	0.0156780
873.909	0.0155702
873.987	0.0155643
874.065	0.0156879
874.143	0.0154887
874.221	0.0157125
874.299	0.0154871
874.378	0.0154614
874.456	0.0154285
874.534	0.0154086
874.612	0.0156370
874.690	0.0155668
874.768	0.0156007
874.846	0.0155545
874.924	0.0154108
875.003	0.0156151
875.081	0.0156439
875.159	0.0155959
875.237	0.0155723
875.315	0.0156273
875.393	0.0155003
875.471	0.0154922
875.549	0.0156369
875.628	0.0155264
875.706	0.0156935
875.784	0.0155384
875.862	0.0156030
875.940	0.0156094
876.018	0.0155877
876.096	0.0156605
876.174	0.0158115
876.253	0.0157162
876.331	0.0157661
876.409	0.0157102
876.487	0.0156931
876.565	0.0157687
876.643	0.0156633
876.721	0.0156625
876.799	0.0156195
876.878	0.0157821
876.956	0.0157098
877.034	0.0156071
877.112	0.0156012
877.190	0.0155256
877.268	0.0156950
877.346	0.0155746
877.424	0.0156781
877.503	0.0155298
877.581	0.0155119
877.659	0.0155788
877.737	0.0156705
877.815	0.0156075
877.893	0.0155173
877.971	0.0154722
878.049	0.0154459
878.128	0.0156372
878.206	0.0155422
878.284	0.0156187
878.362	0.0155649
878.440	0.0154964
878.518	0.0157165
878.596	0.0156523
878.674	0.0157349
878.753	0.0157269
878.831	0.0155511
878.909	0.0156083
878.987	0.0155926
879.065	0.0156540
879.143	0.0155640
879.221	0.0156028
879.299	0.0155373
879.378	0.0155024
879.456	0.0156618
879.534	0.0156514
879.612	0.0156892
879.690	0.0156838
879.768	0.0156149
879.846	0.0155936
879.924	0.0156549
880.003	0.0156729
880.081	0.0156666
880.159	0.0156569
880.237	0.0157780
880.315	0.0156297
880.393	0.0156371
880.471	0.0156990
880.549	0.0157708
880.628	0.0156497
880.706	0.0157099
880.784	0.0155717
880.862	0.0156729
880.940	0.0155816
881.018	0.0156058
881.096	0.0156584
881.174	0.0156656
881.253	0.0155999
881.331	0.0158253
881.409	0.0155647
881.487	0.0156540
881.565	0.0157307
881.643	0.0157457
881.721	0.0156890
881.799	0.0156189
881.878	0.0156561
881.956	0.0156258
882.034	0.0156284
882.112	0.0156250
882.190	0.0155926
882.268	0.0155737
882.346	0.0156322
882.424	0.0156746
882.503	0.0155773
882.581	0.0156469
882.659	0.0157035
882.737	0.0155723
882.815	0.0155254
882.893	0.0156388
882.971	0.0156033
883.049	0.0155865
883.128	0.0156560
883.206	0.0157616
883.284	0.0155387
883.362	0.0156276
883.440	0.0158143
883.518	0.0156999
883.596	0.0155552
883.674	0.0156493
883.753	0.0156056
883.831	0.0157698
883.909	0.0156947
883.987	0.0155763
884.065	0.0155431
884.143	0.0155431
884.221	0.0154925
884.299	0.0154846
884.378	0.0155219
884.456	0.0154077
884.534	0.0156056
884.612	0.0154218
884.690	0.0155112
884.768	0.0155235
884.846	0.0156043
884.924	0.0157161
885.003	0.0156089
885.081	0.0154839
885.159	0.0156517
885.237	0.0156628
885.315	0.0158486
885.393	0.0156714
885.471	0.0157134
885.549	0.0157086
885.628	0.0157442
885.706	0.0157103
885.784	0.0157995
885.862	0.0156976
885.940	0.0157638
886.018	0.0157491
886.096	0.0156799
886.174	0.0158031
886.253	0.0157413
886.331	0.0158775
886.409	0.0157139
886.487	0.0156279
886.565	0.0156293
886.643	0.0157045
886.721	0.0158096
886.799	0.0156397
886.878	0.0155867
886.956	0.0157669
887.034	0.0157078
887.112	0.0155769
887.190	0.0156370
887.268	0.0157370
887.346	0.0156713
887.424	0.0158000
887.503	0.0156828
887.581	0.0155914
887.659	0.0157611
887.737	0.0155573
887.815	0.0157166
887.893	0.0155652
887.971	0.0157030
888.049	0.0156068
888.128	0.0156332
888.206	0.0155376
888.284	0.0155148
888.362	0.0155650
888.440	0.0155407
888.518	0.0156258
888.596	0.0155526
888.674	0.0156337
888.753	0.0156548
888.831	0.0155089
888.909	0.0154633
888.987	0.0154459
889.065	0.0155755
889.143	0.0155684
889.221	0.0156121
889.299	0.0157094
889.378	0.0155499
889.456	0.0155928
889.534	0.0156197
889.612	0.0157439
889.690	0.0155612
889.768	0.0155936
889.846	0.0156410
889.924	0.0157122
890.003	0.0157898
890.081	0.0157148
890.159	0.0156573
890.237	0.0157360
890.315	0.0157028
890.393	0.0156819
890.471	0.0155827
890.549	0.0156118
890.628	0.0155972
890.706	0.0156833
890.784	0.0157520
890.862	0.0156108
890.940	0.0156839
891.018	0.0157072
891.096	0.0156257
891.174	0.0157500
891.253	0.0156633
891.331	0.0157771
891.409	0.0157025
891.487	0.0156900
891.565	0.0157215
891.643	0.0156608
891.721	0.0157912
891.799	0.0157352
891.878	0.0157084
891.956	0.0158566
892.034	0.0158032
892.112	0.0156893
892.190	0.0156621
892.268	0.0156795
892.346	0.0156013
892.424	0.0157858
892.503	0.0158820
892.581	0.0156551
892.659	0.0157195
892.737	0.0156966
892.815	0.0155460
892.893	0.0155920
892.971	0.0156850
893.049	0.0156615
893.128	0.0156376
893.206	0.0156228
893.284	0.0154934
893.362	0.0154853
893.440	0.0155497
893.518	0.0154856
893.596	0.0155862
893.674	0.0154889
893.753	0.0154344
893.831	0.0156269
893.909	0.0156365
893.987	0.0155123
894.065	0.0154881
894.143	0.0155907
894.221	0.0154781
894.299	0.0154699
894.378	0.0156720
894.456	0.0155804
894.534	0.0155143
894.612	0.0154263
894.690	0.0155214
894.768	0.0156036
894.846	0.0154906
894.924	0.0154385
895.003	0.0154487
895.081	0.0155317
895.159	0.0154811
895.237	0.0154515
895.315	0.0154358
895.393	0.0154262
895.471	0.0154662
895.549	0.0154198
895.628	0.0154843
895.706	0.0155512
895.784	0.0155930
895.862	0.0154153
895.940	0.0154964
896.018	0.0154659
896.096	0.0154118
896.174	0.0154243
896.253	0.0155410
896.331	0.0156229
896.409	0.0156110
896.487	0.0156508
896.565	0.0156219
896.643	0.0155617
896.721	0.0155954
896.799	0.0156966
896.878	0.0157414
896.956	0.0157653
897.034	0.0157106
897.112	0.0156937
897.190	0.0156465
897.268	0.0158270
897.346	0.0157124
897.424	0.0158208
897.503	0.0156814
897.581	0.0157331
897.659	0.0157056
897.737	0.0156598
897.815	0.0154903
897.893	0.0157922
897.971	0.0156033
898.049	0.0156268
898.128	0.0156496
898.206	0.0156229
898.284	0.0157169
898.362	0.0156757
898.440	0.0155631
898.518	0.0155686
898.596	0.0156606
898.674	0.0157092
898.753	0.0156917
898.831	0.0157486
898.909	0.0156789
898.987	0.0156326
899.065	0.0156187
899.143	0.0157401
899.221	0.0157719
899.299	0.0157706
899.378	0.0156189
899.456	0.0157096
899.534	0.0155478
899.612	0.0156823
899.690	0.0156905
899.768	0.0157193
899.846	0.0157637
899.924	0.0157430
900.003	0.0157561
900.081	0.0156750
900.159	0.0156905
900.237	0.0156403
900.315	0.0158099
900.393	0.0157453
900.471	0.0156588
900.549	0.0155377
900.628	0.0156849
900.706	0.0157983
900.784	0.0155954
900.862	0.0155962
900.940	0.0157549
901.018	0.0156329
901.096	0.0155604
901.174	0.0157233
901.253	0.0156480
901.331	0.0156702
901.409	0.0155376
901.487	0.0156569
901.565	0.0156378
901.643	0.0156828
901.721	0.0156754
901.799	0.0157265
901.878	0.0156464
901.956	0.0156939
902.034	0.0156384
902.112	0.0155816
902.190	0.0156468
902.268	0.0156482
902.346	0.0156385
902.424	0.0157711
902.503	0.0156554
902.581	0.0156232
902.659	0.0156737
902.737	0.0157132
902.815	0.0158136
902.893	0.0157018
902.971	0.0157606
903.049	0.0158274
903.128	0.0157275
903.206	0.0156435
903.284	0.0156702
903.362	0.0156828
903.440	0.0156677
903.518	0.0156772
903.596	0.0156847
903.674	0.0156050
903.753	0.0156650
903.831	0.0156017
903.909	0.0157045
903.987	0.0156525
904.065	0.0156106
904.143	0.0156832
904.221	0.0157425
904.299	0.0156855
904.378	0.0157616
904.456	0.0155921
904.534	0.0156652
904.612	0.0157486
904.690	0.0157153
904.768	0.0156611
904.846	0.0156824
904.924	0.0156941
905.003	0.0155750
905.081	0.0155636
905.159	0.0157165
905.237	0.0157218
905.315	0.0155090
905.393	0.0157143
905.471	0.0157671
905.549	0.0154646
905.628	0.0156980
905.706	0.0155636
905.784	0.0153792
905.862	0.0156473
905.940	0.0156630
906.018	0.0155544
906.096	0.0156742
906.174	0.0155887
906.253	0.0156370
906.331	0.0157954
906.409	0.0157487
906.487	0.0156937
906.565	0.0156386
906.643	0.0159023
906.721	0.0157471
906.799	0.0157670
906.878	0.0158386
906.956	0.0158475
907.034	0.0157106
907.112	0.0157601
907.190	0.0155996
907.268	0.0156818
907.346	0.0156835
907.424	0.0157458
907.503	0.0158260
907.581	0.0157367
907.659	0.0158373
907.737	0.0156452
907.815	0.0156021
907.893	0.0157227
907.971	0.0157108
908.049	0.0156343
908.128	0.0157098
908.206	0.0156778
908.284	0.0156123
908.362	0.0156453
908.440	0.0156877
908.518	0.0157546
908.596	0.0156161
908.674	0.0156695
908.753	0.0156437
908.831	0.0156397
908.909	0.0156707
908.987	0.0157162
909.065	0.0155162
909.143	0.0157364
909.221	0.0156462
909.299	0.0156470
909.378	0.0157781
909.456	0.0155729
909.534	0.0155431
909.612	0.0156463
909.690	0.0157027
909.768	0.0156131
909.846	0.0156876
909.924	0.0156207
910.003	0.0155426
910.081	0.0154786
910.159	0.0154308
910.237	0.0154472
910.315	0.0155225
910.393	0.0154742
910.471	0.0154902
910.549	0.0154932
910.628	0.0154154
910.706	0.0156281
910.784	0.0155191
910.862	0.0155304
910.940	0.0156036
911.018	0.0154901
911.096	0.0154808
911.174	0.0156560
911.253	0.0156711
911.331	0.0157603
911.409	0.0157657
911.487	0.0156738
911.565	0.0157063
911.643	0.0156274
911.721	0.0156649
911.799	0.0158077
911.878	0.0156239
911.956	0.0157935
912.034	0.0156072
912.112	0.0157028
912.190	0.0156683
912.268	0.0156599
912.346	0.0157031
912.424	0.0156430
912.503	0.0157173
912.581	0.0156191
912.659	0.0156659
912.737	0.0156422
912.815	0.0155658
912.893	0.0155634
912.971	0.0156041
913.049	0.0156125
913.128	0.0156306
913.206	0.0155896
913.284	0.0156800
913.362	0.0156030
913.440	0.0155234
913.518	0.0156299
913.596	0.0156669
913.674	0.0158060
913.753	0.0156435
913.831	0.0157156
913.909	0.0156801
913.987	0.0156364
914.065	0.0158150
914.143	0.0155914
914.221	0.0155659
914.299	0.0157887
914.378	0.0157346
914.456	0.0155703
914.534	0.0155981
914.612	0.0156986
914.690	0.0156095
914.768	0.0155905
914.846	0.0157294
914.924	0.0156381
915.003	0.0156806
915.081	0.0157421
915.159	0.0155743
915.237	0.0155957
915.315	0.0155853
915.393	0.0157835
915.471	0.0156532
915.549	0.0155746
915.628	0.0156316
915.706	0.0156548
915.784	0.0154932
915.862	0.0156121
915.940	0.0155881
916.018	0.0156267
916.096	0.0155169
916.174	0.0156115
916.253	0.0155968
916.331	0.0156042
916.409	0.0156623
916.487	0.0157239
916.565	0.0155423
916.643	0.0156380
916.721	0.0156647
916.799	0.0155401
916.878	0.0155432
916.956	0.0154561
917.034	0.0156889
917.112	0.0156396
917.190	0.0155945
917.268	0.0156826
917.346	0.0156349
917.424	0.0155861
917.503	0.0156002
917.581	0.0156012
917.659	0.0155936
917.737	0.0156612
917.815	0.0156904
917.893	0.0156184
917.971	0.0157601
918.049	0.0157664
918.128	0.0157261
918.206	0.0156443
918.284	0.0156590
918.362	0.0157075
918.440	0.0155842
918.518	0.0156548
918.596	0.0155724
918.674	0.0156136
918.753	0.0156294
918.831	0.0155550
918.909	0.0154323
918.987	0.0155534
919.065	0.0154699
919.143	0.0155591
919.221	0.0156046
919.299	0.0155786
919.378	0.0155760
919.456	0.0155203
919.534	0.0155662
919.612	0.0154190
919.690	0.0154800
919.768	0.0156605
919.846	0.0155705
919.924	0.0156284
920.003	0.0155743
920.081	0.0156107
920.159	0.0156921
920.237	0.0154926
920.315	0.0154844
920.393	0.0155260
920.471	0.0157052
920.549	0.0157062
920.628	0.0157188
920.706	0.0156757
920.784	0.0157364
920.862	0.0155873
920.940	0.0157427
921.018	0.0156429
921.096	0.0155493
921.174	0.0157194
921.253	0.0157468
921.331	0.0156898
921.409	0.0156561
921.487	0.0156346
921.565	0.0156792
921.643	0.0155296
921.721	0.0156110
921.799	0.0156496
921.878	0.0155954
921.956	0.0157539
922.034	0.0157262
922.112	0.0155129
922.190	0.0157290
922.268	0.0157119
922.346	0.0157387
922.424	0.0156080
922.503	0.0156861
922.581	0.0157820
922.659	0.0156690
922.737	0.0156932
922.815	0.0159124
922.893	0.0157393
922.971	0.0155978
923.049	0.0157738
923.128	0.0156982
923.206	0.0157503
923.284	0.0156645
923.362	0.0157542
923.440	0.0156514
923.518	0.0156640
923.596	0.0157100
923.674	0.0157500
923.753	0.0155660
923.831	0.0156567
923.909	0.0156652
923.987	0.0156723
924.065	0.0156416
924.143	0.0157242
924.221	0.0156424
924.299	0.0156224
924.378	0.0155857
924.456	0.0155725
924.534	0.0156240
924.612	0.0155273
924.690	0.0155197
924.768	0.0155350
924.846	0.0157393
924.924	0.0156922
925.003	0.0155619
925.081	0.0156210
925.159	0.0155280
925.237	0.0155490
925.315	0.0156535
925.393	0.0156345
925.471	0.0154839
925.549	0.0155980
925.628	0.0156026
925.706	0.0156640
925.784	0.0156774
925.862	0.0156641
925.940	0.0156050
926.018	0.0155743
926.096	0.0155720
926.174	0.0155846
926.253	0.0155719
926.331	0.0155322
926.409	0.0156534
926.487	0.0157455
926.565	0.0157529
926.643	0.0157780
926.721	0.0156213
926.799	0.0156428
926.878	0.0157655
926.956	0.0156602
927.034	0.0155765
927.112	0.0155792
927.190	0.0156575
927.268	0.0156068
927.346	0.0156511
927.424	0.0155310
927.503	0.0157079
927.581	0.0156535
927.659	0.0155979
927.737	0.0156156
927.815	0.0157542
927.893	0.0156794
927.971	0.0156593
928.049	0.0157298
928.128	0.0157293
928.206	0.0157284
928.284	0.0156606
928.362	0.0156907
928.440	0.0157069
928.518	0.0156030
928.596	0.0156892
928.674	0.0156865
928.753	0.0156547
928.831	0.0156962
928.909	0.0156722
928.987	0.0156632
929.065	0.0155149
929.143	0.0156022
929.221	0.0156050
929.299	0.0157583
929.378	0.0156883
929.456	0.0157409
929.534	0.0156017
929.612	0.0158634
929.690	0.0156535
929.768	0.0156966
929.846	0.0156005
929.924	0.0158678
930.003	0.0157175
930.081	0.0157697
930.159	0.0157841
930.237	0.0156705
930.315	0.0155903
930.393	0.0157248
930.471	0.0157291
930.549	0.0156551
930.628	0.0156614
930.706	0.0156583
930.784	0.0155353
930.862	0.0156979
930.940	0.0157244
931.018	0.0155090
931.096	0.0154812
931.174	0.0155840
931.253	0.0155956
931.331	0.0154002
931.409	0.0154076
931.487	0.0156413
931.565	0.0157216
931.643	0.0156305
931.721	0.0154863
931.799	0.0155302
931.878	0.0155369
931.956	0.0155129
932.034	0.0155117
932.112	0.0154534
932.190	0.0156180
932.268	0.0155313
932.346	0.0155148
932.424	0.0155693
932.503	0.0156141
932.581	0.0156672
932.659	0.0157140
932.737	0.0155427
932.815	0.0155401
932.893	0.0154389
932.971	0.0155907
933.049	0.0156427
933.128	0.0155392
933.206	0.0155582
933.284	0.0156021
933.362	0.0155646
933.440	0.0156776
933.518	0.0157829
933.596	0.0156913
933.674	0.0157407
933.753	0.0156111
933.831	0.0156981
933.909	0.0155880
933.987	0.0157610
934.065	0.0157218
934.143	0.0157192
934.221	0.0156248
934.299	0.0156640
934.378	0.0157562
934.456	0.0156329
934.534	0.0157473
934.612	0.0157576
934.690	0.0157623
934.768	0.0157014
934.846	0.0157660
934.924	0.0157507
935.003	0.0157274
935.081	0.0156036
935.159	0.0155458
935.237	0.0154937
935.315	0.0158434
935.393	0.0155197
935.471	0.0157159
935.549	0.0156057
935.628	0.0156013
935.706	0.0156010
935.784	0.0155520
935.862	0.0156841
935.940	0.0156215
936.018	0.0155603
936.096	0.0157026
936.174	0.0157677
936.253	0.0155827
936.331	0.0156610
936.409	0.0157027
936.487	0.0155422
936.565	0.0155817
936.643	0.0157114
936.721	0.0155900
936.799	0.0157392
936.878	0.0157310
936.956	0.0155130
937.034	0.0156526
937.112	0.0156110
937.190	0.0156092
937.268	0.0154532
937.346	0.0154272
937.424	0.0157053
937.503	0.0154650
937.581	0.0155347
937.659	0.0155347
937.737	0.0156371
937.815	0.0155257
937.893	0.0154126
937.971	0.0155301
938.049	0.0154129
938.128	0.0155986
938.206	0.0155130
938.284	0.0155231
938.362	0.0157064
938.440	0.0154862
938.518	0.0155354
938.596	0.0154491
938.674	0.0156622
938.753	0.0155872
938.831	0.0156167
938.909	0.0156310
938.987	0.0156207
939.065	0.0157438
939.143	0.0157150
939.221	0.0155202
939.299	0.0155529
939.378	0.0156264
939.456	0.0156416
939.534	0.0155857
939.612	0.0157201
939.690	0.0156356
939.768	0.0155517
939.846	0.0154846
939.924	0.0155990
940.003	0.0157903
940.081	0.0156573
940.159	0.0155656
940.237	0.0156441
940.315	0.0156149
940.393	0.0155994
940.471	0.0156937
940.549	0.0155914
940.628	0.0155990
940.706	0.0154889
940.784	0.0155634
940.862	0.0155951
940.940	0.0157500
941.018	0.0155829
941.096	0.0156372
941.174	0.0156667
941.253	0.0155319
941.331	0.0156333
941.409	0.0155651
941.487	0.0156178
941.565	0.0156394
941.643	0.0157827
941.721	0.0156845
941.799	0.0154710
941.878	0.0155080
941.956	0.0156329
942.034	0.0156310
942.112	0.0155998
942.190	0.0156824
942.268	0.0155103
942.346	0.0155501
942.424	0.0156106
942.503	0.0155795
942.581	0.0156538
942.659	0.0156404
942.737	0.0155251
942.815	0.0156793
942.893	0.0156484
942.971	0.0154840
943.049	0.0156105
943.128	0.0155654
943.206	0.0155937
943.284	0.0155914
943.362	0.0156967
943.440	0.0155541
943.518	0.0155310
943.596	0.0155473
943.674	0.0156717
943.753	0.0155511
943.831	0.0156743
943.909	0.0156052
943.987	0.0154549
944.065	0.0156286
944.143	0.0156326
944.221	0.0156705
944.299	0.0155843
944.378	0.0155813
944.456	0.0156193
944.534	0.0155441
944.612	0.0154928
944.690	0.0155707
944.768	0.0155781
944.846	0.0155568
944.924	0.0155340
945.003	0.0156718
945.081	0.0157153
945.159	0.0155404
945.237	0.0155193
945.315	0.0157648
945.393	0.0158106
945.471	0.0157073
945.549	0.0156648
945.628	0.0157276
945.706	0.0156052
945.784	0.0156378
945.862	0.0158254
945.940	0.0156562
946.018	0.0156737
946.096	0.0156213
946.174	0.0156602
946.253	0.0158681
946.331	0.0157271
946.409	0.0157865
946.487	0.0157351
946.565	0.0157283
946.643	0.0157835
946.721	0.0157750
946.799	0.0157202
946.878	0.0158044
946.956	0.0157997
947.034	0.0157870
947.112	0.0157423
947.190	0.0157768
947.268	0.0157409
947.346	0.0157939
947.424	0.0156552
947.503	0.0156509
947.581	0.0157226
947.659	0.0158527
947.737	0.0158635
947.815	0.0157096
947.893	0.0155730
947.971	0.0156466
948.049	0.0157054
948.128	0.0156504
948.206	0.0157607
948.284	0.0156745
948.362	0.0155335
948.440	0.0155434
948.518	0.0156878
948.596	0.0156729
948.674	0.0156345
948.753	0.0155926
948.831	0.0156453
948.909	0.0154693
948.987	0.0155701
949.065	0.0156730
949.143	0.0155922
949.221	0.0155822
949.299	0.0155454
949.378	0.0155547
949.456	0.0157156
949.534	0.0155983
949.612	0.0156983
949.690	0.0156770
949.768	0.0156131
949.846	0.0156858
949.924	0.0156437
