05/19/2022	00:46:38	Ver.	4.1	UNKNOWN
Optical Delay	630.002507	Delta X		0.078125	Sweeps	1	Scan Rate	0/0
Coordinates	Axis 1	NaN	Axis 2	NaN	Axis 3	NaN	Axis 4	NaN	Axis 5	NaN	Axis 6	0.000000
TX Power	0.000000	RX Power	0.000000

630.003	0.0157899
630.081	0.0157032
630.159	0.0157652
630.237	0.0158057
630.315	0.0157615
630.393	0.0156352
630.471	0.0156881
630.549	0.0156580
630.628	0.0158227
630.706	0.0157527
630.784	0.0156174
630.862	0.0157404
630.940	0.0157579
631.018	0.0157473
631.096	0.0157188
631.174	0.0157333
631.253	0.0158052
631.331	0.0156734
631.409	0.0158324
631.487	0.0157688
631.565	0.0156931
631.643	0.0156879
631.721	0.0157639
631.799	0.0158352
631.878	0.0158262
631.956	0.0156805
632.034	0.0157194
632.112	0.0158088
632.190	0.0156807
632.268	0.0158282
632.346	0.0158146
632.424	0.0158127
632.503	0.0157271
632.581	0.0157541
632.659	0.0158799
632.737	0.0158469
632.815	0.0157495
632.893	0.0157528
632.971	0.0157787
633.049	0.0157645
633.128	0.0157719
633.206	0.0157872
633.284	0.0158150
633.362	0.0158307
633.440	0.0157627
633.518	0.0158584
633.596	0.0156464
633.674	0.0157177
633.753	0.0158598
633.831	0.0159342
633.909	0.0160240
633.987	0.0158000
634.065	0.0158860
634.143	0.0157654
634.221	0.0159795
634.299	0.0158548
634.378	0.0158070
634.456	0.0158171
634.534	0.0158183
634.612	0.0158650
634.690	0.0156971
634.768	0.0156970
634.846	0.0157851
634.924	0.0157914
635.003	0.0157552
635.081	0.0159363
635.159	0.0159302
635.237	0.0158182
635.315	0.0158128
635.393	0.0158125
635.471	0.0159210
635.549	0.0157594
635.628	0.0157845
635.706	0.0158425
635.784	0.0158720
635.862	0.0157642
635.940	0.0158095
636.018	0.0158195
636.096	0.0157233
636.174	0.0159327
636.253	0.0159041
636.331	0.0157674
636.409	0.0157565
636.487	0.0156073
636.565	0.0158210
636.643	0.0157906
636.721	0.0158264
636.799	0.0158742
636.878	0.0157256
636.956	0.0157931
637.034	0.0157669
637.112	0.0157726
637.190	0.0158728
637.268	0.0157549
637.346	0.0157993
637.424	0.0156963
637.503	0.0158379
637.581	0.0157051
637.659	0.0157702
637.737	0.0157590
637.815	0.0157575
637.893	0.0157948
637.971	0.0158237
638.049	0.0156979
638.128	0.0156418
638.206	0.0158186
638.284	0.0158201
638.362	0.0157295
638.440	0.0157047
638.518	0.0156973
638.596	0.0157314
638.674	0.0156064
638.753	0.0157117
638.831	0.0157539
638.909	0.0156680
638.987	0.0157344
639.065	0.0156802
639.143	0.0157658
639.221	0.0156320
639.299	0.0156343
639.378	0.0156801
639.456	0.0156956
639.534	0.0156470
639.612	0.0156174
639.690	0.0157995
639.768	0.0158440
639.846	0.0156288
639.924	0.0157397
640.003	0.0157737
640.081	0.0156371
640.159	0.0157397
640.237	0.0157090
640.315	0.0155363
640.393	0.0156579
640.471	0.0156984
640.549	0.0157853
640.628	0.0157651
640.706	0.0155583
640.784	0.0157474
640.862	0.0156612
640.940	0.0156104
641.018	0.0157758
641.096	0.0158237
641.174	0.0157108
641.253	0.0155276
641.331	0.0155937
641.409	0.0157310
641.487	0.0155848
641.565	0.0156892
641.643	0.0156554
641.721	0.0156662
641.799	0.0156258
641.878	0.0155060
641.956	0.0155665
642.034	0.0157378
642.112	0.0157533
642.190	0.0156217
642.268	0.0157309
642.346	0.0156657
642.424	0.0155593
642.503	0.0155924
642.581	0.0156911
642.659	0.0155871
642.737	0.0156310
642.815	0.0156184
642.893	0.0156464
642.971	0.0156950
643.049	0.0155828
643.128	0.0156653
643.206	0.0156563
643.284	0.0156564
643.362	0.0155033
643.440	0.0156222
643.518	0.0157278
643.596	0.0156468
643.674	0.0155673
643.753	0.0157166
643.831	0.0155907
643.909	0.0155950
643.987	0.0156628
644.065	0.0156613
644.143	0.0156455
644.221	0.0156728
644.299	0.0157215
644.378	0.0156177
644.456	0.0156531
644.534	0.0156202
644.612	0.0155563
644.690	0.0157711
644.768	0.0157199
644.846	0.0156042
644.924	0.0155937
645.003	0.0157460
645.081	0.0156004
645.159	0.0155881
645.237	0.0156479
645.315	0.0156769
645.393	0.0156414
645.471	0.0156136
645.549	0.0156763
645.628	0.0157758
645.706	0.0157233
645.784	0.0157462
645.862	0.0157079
645.940	0.0156169
646.018	0.0157634
646.096	0.0157642
646.174	0.0156445
646.253	0.0157633
646.331	0.0158470
646.409	0.0157582
646.487	0.0157888
646.565	0.0156393
646.643	0.0158639
646.721	0.0157111
646.799	0.0158613
646.878	0.0158061
646.956	0.0157242
647.034	0.0156692
647.112	0.0157166
647.190	0.0157285
647.268	0.0156317
647.346	0.0157307
647.424	0.0157045
647.503	0.0157574
647.581	0.0156649
647.659	0.0157146
647.737	0.0157826
647.815	0.0158128
647.893	0.0157076
647.971	0.0156902
648.049	0.0158371
648.128	0.0157110
648.206	0.0156015
648.284	0.0156850
648.362	0.0157114
648.440	0.0158492
648.518	0.0157748
648.596	0.0157314
648.674	0.0157537
648.753	0.0156806
648.831	0.0157291
648.909	0.0156857
648.987	0.0157617
649.065	0.0157752
649.143	0.0157566
649.221	0.0158383
649.299	0.0158325
649.378	0.0158504
649.456	0.0157907
649.534	0.0157909
649.612	0.0158123
649.690	0.0157629
649.768	0.0158356
649.846	0.0158048
649.924	0.0157825
650.003	0.0159993
650.081	0.0159278
650.159	0.0157796
650.237	0.0157793
650.315	0.0158373
650.393	0.0158931
650.471	0.0158675
650.549	0.0159231
650.628	0.0157727
650.706	0.0158054
650.784	0.0159299
650.862	0.0158349
650.940	0.0157591
651.018	0.0158607
651.096	0.0158642
651.174	0.0158333
651.253	0.0158601
651.331	0.0158579
651.409	0.0158684
651.487	0.0157598
651.565	0.0157828
651.643	0.0159586
651.721	0.0159794
651.799	0.0159013
651.878	0.0158778
651.956	0.0157291
652.034	0.0157838
652.112	0.0158633
652.190	0.0158591
652.268	0.0158340
652.346	0.0159187
652.424	0.0159461
652.503	0.0158768
652.581	0.0158870
652.659	0.0158454
652.737	0.0158722
652.815	0.0158970
652.893	0.0159373
652.971	0.0159184
653.049	0.0158656
653.128	0.0158614
653.206	0.0158575
653.284	0.0157981
653.362	0.0157793
653.440	0.0158017
653.518	0.0158616
653.596	0.0158338
653.674	0.0158128
653.753	0.0158272
653.831	0.0157417
653.909	0.0159132
653.987	0.0159103
654.065	0.0159376
654.143	0.0158952
654.221	0.0157867
654.299	0.0159109
654.378	0.0158029
654.456	0.0157291
654.534	0.0157090
654.612	0.0159230
654.690	0.0158266
654.768	0.0160947
654.846	0.0158516
654.924	0.0157119
655.003	0.0160486
655.081	0.0158806
655.159	0.0159205
655.237	0.0158789
655.315	0.0158509
655.393	0.0156933
655.471	0.0158255
655.549	0.0158047
655.628	0.0159037
655.706	0.0158759
655.784	0.0158693
655.862	0.0158794
655.940	0.0158828
656.018	0.0158064
656.096	0.0158158
656.174	0.0160182
656.253	0.0157739
656.331	0.0158838
656.409	0.0158180
656.487	0.0159007
656.565	0.0158965
656.643	0.0156819
656.721	0.0157826
656.799	0.0158221
656.878	0.0159126
656.956	0.0157956
657.034	0.0157872
657.112	0.0158112
657.190	0.0156999
657.268	0.0157976
657.346	0.0158588
657.424	0.0158539
657.503	0.0157274
657.581	0.0157558
657.659	0.0158948
657.737	0.0156767
657.815	0.0158831
657.893	0.0158726
657.971	0.0159058
658.049	0.0159116
658.128	0.0159108
658.206	0.0158548
658.284	0.0158142
658.362	0.0157835
658.440	0.0157268
658.518	0.0159748
658.596	0.0157731
658.674	0.0157922
658.753	0.0158099
658.831	0.0158179
658.909	0.0158174
658.987	0.0158257
659.065	0.0157189
659.143	0.0157426
659.221	0.0157110
659.299	0.0158435
659.378	0.0158421
659.456	0.0157681
659.534	0.0157679
659.612	0.0159127
659.690	0.0158061
659.768	0.0158971
659.846	0.0159351
659.924	0.0158157
660.003	0.0158965
660.081	0.0161104
660.159	0.0159705
660.237	0.0159444
660.315	0.0158732
660.393	0.0158630
660.471	0.0159945
660.549	0.0158272
660.628	0.0157288
660.706	0.0157230
660.784	0.0156912
660.862	0.0157311
660.940	0.0156212
661.018	0.0155537
661.096	0.0155740
661.174	0.0156150
661.253	0.0157117
661.331	0.0155508
661.409	0.0156853
661.487	0.0158004
661.565	0.0156780
661.643	0.0156922
661.721	0.0158014
661.799	0.0158327
661.878	0.0158284
661.956	0.0157611
662.034	0.0157422
662.112	0.0157407
662.190	0.0157353
662.268	0.0158961
662.346	0.0158528
662.424	0.0159189
662.503	0.0157542
662.581	0.0157182
662.659	0.0157396
662.737	0.0157812
662.815	0.0155724
662.893	0.0157187
662.971	0.0156000
663.049	0.0156175
663.128	0.0156654
663.206	0.0154671
663.284	0.0156139
663.362	0.0156324
663.440	0.0156110
663.518	0.0154977
663.596	0.0155705
663.674	0.0155524
663.753	0.0155920
663.831	0.0155270
663.909	0.0155536
663.987	0.0154974
664.065	0.0155235
664.143	0.0153834
664.221	0.0155920
664.299	0.0155061
664.378	0.0156044
664.456	0.0155206
664.534	0.0155151
664.612	0.0154860
664.690	0.0154389
664.768	0.0155354
664.846	0.0155386
664.924	0.0155204
665.003	0.0154929
665.081	0.0156458
665.159	0.0156314
665.237	0.0155491
665.315	0.0153507
665.393	0.0154079
665.471	0.0155305
665.549	0.0155656
665.628	0.0156050
665.706	0.0153221
665.784	0.0153785
665.862	0.0153470
665.940	0.0154828
666.018	0.0154569
666.096	0.0156055
666.174	0.0156303
666.253	0.0155311
666.331	0.0155276
666.409	0.0158606
666.487	0.0157410
666.565	0.0157761
666.643	0.0158511
666.721	0.0158526
666.799	0.0159679
666.878	0.0158392
666.956	0.0158557
667.034	0.0159168
667.112	0.0158517
667.190	0.0158084
667.268	0.0158119
667.346	0.0157011
667.424	0.0157488
667.503	0.0157407
667.581	0.0156536
667.659	0.0156865
667.737	0.0157768
667.815	0.0155934
667.893	0.0157369
667.971	0.0155708
668.049	0.0155557
668.128	0.0157500
668.206	0.0157243
668.284	0.0157600
668.362	0.0155811
668.440	0.0157693
668.518	0.0156932
668.596	0.0157957
668.674	0.0159745
668.753	0.0159880
668.831	0.0159040
668.909	0.0158333
668.987	0.0159814
669.065	0.0159673
669.143	0.0159171
669.221	0.0159947
669.299	0.0160802
669.378	0.0160043
669.456	0.0159286
669.534	0.0159513
669.612	0.0160667
669.690	0.0159255
669.768	0.0160161
669.846	0.0159857
669.924	0.0158191
670.003	0.0160887
670.081	0.0159097
670.159	0.0158656
670.237	0.0157727
670.315	0.0158135
670.393	0.0159063
670.471	0.0157295
670.549	0.0157158
670.628	0.0156756
670.706	0.0157604
670.784	0.0157043
670.862	0.0157191
670.940	0.0156342
671.018	0.0154910
671.096	0.0156511
671.174	0.0156945
671.253	0.0156460
671.331	0.0156416
671.409	0.0157022
671.487	0.0156375
671.565	0.0156820
671.643	0.0157468
671.721	0.0156329
671.799	0.0154826
671.878	0.0156918
671.956	0.0156697
672.034	0.0157163
672.112	0.0156777
672.190	0.0156852
672.268	0.0156272
672.346	0.0155761
672.424	0.0156845
672.503	0.0157327
672.581	0.0155987
672.659	0.0156007
672.737	0.0155730
672.815	0.0155679
672.893	0.0157584
672.971	0.0159129
673.049	0.0158134
673.128	0.0155328
673.206	0.0156155
673.284	0.0157351
673.362	0.0156707
673.440	0.0157247
673.518	0.0159281
673.596	0.0157377
673.674	0.0157018
673.753	0.0157314
673.831	0.0156885
673.909	0.0157329
673.987	0.0156824
674.065	0.0157716
674.143	0.0157368
674.221	0.0155535
674.299	0.0156680
674.378	0.0155500
674.456	0.0155240
674.534	0.0155815
674.612	0.0155331
674.690	0.0156196
674.768	0.0156618
674.846	0.0155352
674.924	0.0156601
675.003	0.0157256
675.081	0.0158609
675.159	0.0158854
675.237	0.0159247
675.315	0.0159538
675.393	0.0158046
675.471	0.0158484
675.549	0.0159267
675.628	0.0159030
675.706	0.0158592
675.784	0.0160865
675.862	0.0159052
675.940	0.0161071
676.018	0.0160670
676.096	0.0159747
676.174	0.0160433
676.253	0.0159443
676.331	0.0160787
676.409	0.0159174
676.487	0.0158069
676.565	0.0158132
676.643	0.0157052
676.721	0.0156929
676.799	0.0158151
676.878	0.0157291
676.956	0.0156522
677.034	0.0155672
677.112	0.0156540
677.190	0.0157087
677.268	0.0157288
677.346	0.0156641
677.424	0.0158846
677.503	0.0158064
677.581	0.0157890
677.659	0.0158884
677.737	0.0160461
677.815	0.0161271
677.893	0.0161726
677.971	0.0160733
678.049	0.0161190
678.128	0.0160381
678.206	0.0160680
678.284	0.0161475
678.362	0.0160942
678.440	0.0161806
678.518	0.0160975
678.596	0.0160155
678.674	0.0161565
678.753	0.0159603
678.831	0.0159770
678.909	0.0159304
678.987	0.0158034
679.065	0.0158380
679.143	0.0157610
679.221	0.0157533
679.299	0.0156649
679.378	0.0154784
679.456	0.0154552
679.534	0.0153874
679.612	0.0155991
679.690	0.0156384
679.768	0.0155328
679.846	0.0156072
679.924	0.0155146
680.003	0.0155293
680.081	0.0154230
680.159	0.0154440
680.237	0.0156245
680.315	0.0157388
680.393	0.0157809
680.471	0.0157138
680.549	0.0158028
680.628	0.0157059
680.706	0.0157699
680.784	0.0159462
680.862	0.0159957
680.940	0.0160488
681.018	0.0160080
681.096	0.0161127
681.174	0.0159949
681.253	0.0161218
681.331	0.0160712
681.409	0.0159563
681.487	0.0159746
681.565	0.0159361
681.643	0.0159222
681.721	0.0157530
681.799	0.0158157
681.878	0.0158204
681.956	0.0158281
682.034	0.0155364
682.112	0.0155556
682.190	0.0155819
682.268	0.0155421
682.346	0.0154145
682.424	0.0153290
682.503	0.0152030
682.581	0.0155786
682.659	0.0154894
682.737	0.0153734
682.815	0.0154289
682.893	0.0154966
682.971	0.0156098
683.049	0.0157145
683.128	0.0156583
683.206	0.0156332
683.284	0.0157410
683.362	0.0158080
683.440	0.0157787
683.518	0.0158287
683.596	0.0158115
683.674	0.0158579
683.753	0.0159299
683.831	0.0158566
683.909	0.0159357
683.987	0.0158945
684.065	0.0157648
684.143	0.0158958
684.221	0.0158289
684.299	0.0159520
684.378	0.0159220
684.456	0.0159574
684.534	0.0157178
684.612	0.0157699
684.690	0.0156338
684.768	0.0158905
684.846	0.0156617
684.924	0.0156693
685.003	0.0155985
685.081	0.0157178
685.159	0.0156961
685.237	0.0156918
685.315	0.0154755
685.393	0.0155184
685.471	0.0156776
685.549	0.0155193
685.628	0.0154363
685.706	0.0155007
685.784	0.0154593
685.862	0.0155904
685.940	0.0156915
686.018	0.0156221
686.096	0.0156019
686.174	0.0157418
686.253	0.0157697
686.331	0.0157521
686.409	0.0156181
686.487	0.0158179
686.565	0.0158111
686.643	0.0157370
686.721	0.0155878
686.799	0.0157492
686.878	0.0157470
686.956	0.0157203
687.034	0.0157671
687.112	0.0158084
687.190	0.0157751
687.268	0.0158049
687.346	0.0158722
687.424	0.0159335
687.503	0.0159324
687.581	0.0160728
687.659	0.0159763
687.737	0.0160161
687.815	0.0159864
687.893	0.0158839
687.971	0.0160324
688.049	0.0159411
688.128	0.0159594
688.206	0.0159795
688.284	0.0158203
688.362	0.0159757
688.440	0.0159743
688.518	0.0157661
688.596	0.0158404
688.674	0.0159436
688.753	0.0158352
688.831	0.0156905
688.909	0.0155763
688.987	0.0158065
689.065	0.0158609
689.143	0.0157823
689.221	0.0155663
689.299	0.0158395
689.378	0.0157526
689.456	0.0158952
689.534	0.0158170
689.612	0.0158052
689.690	0.0158003
689.768	0.0159102
689.846	0.0159871
689.924	0.0158664
690.003	0.0160796
690.081	0.0158758
690.159	0.0158168
690.237	0.0158582
690.315	0.0158794
690.393	0.0158565
690.471	0.0158393
690.549	0.0157054
690.628	0.0155946
690.706	0.0155579
690.784	0.0154425
690.862	0.0155418
690.940	0.0153733
691.018	0.0153190
691.096	0.0154111
691.174	0.0152462
691.253	0.0153113
691.331	0.0154044
691.409	0.0151621
691.487	0.0152915
691.565	0.0153062
691.643	0.0151618
691.721	0.0150932
691.799	0.0150878
691.878	0.0152441
691.956	0.0153291
692.034	0.0151218
692.112	0.0150428
692.190	0.0150876
692.268	0.0151715
692.346	0.0152599
692.424	0.0153560
692.503	0.0153806
692.581	0.0153444
692.659	0.0154568
692.737	0.0155421
692.815	0.0155647
692.893	0.0155908
692.971	0.0156762
693.049	0.0157175
693.128	0.0157822
693.206	0.0156076
693.284	0.0157369
693.362	0.0158804
693.440	0.0160154
693.518	0.0159328
693.596	0.0160410
693.674	0.0159470
693.753	0.0160557
693.831	0.0160458
693.909	0.0160979
693.987	0.0161637
694.065	0.0161971
694.143	0.0162841
694.221	0.0161506
694.299	0.0161903
694.378	0.0161963
694.456	0.0162283
694.534	0.0162559
694.612	0.0162491
694.690	0.0162683
694.768	0.0163400
694.846	0.0163189
694.924	0.0163676
695.003	0.0162650
695.081	0.0162482
695.159	0.0163316
695.237	0.0161273
695.315	0.0161472
695.393	0.0160396
695.471	0.0160791
695.549	0.0158907
695.628	0.0158847
695.706	0.0159691
695.784	0.0156847
695.862	0.0156941
695.940	0.0156570
696.018	0.0154134
696.096	0.0154154
696.174	0.0155898
696.253	0.0153498
696.331	0.0152780
696.409	0.0152047
696.487	0.0150160
696.565	0.0151569
696.643	0.0151021
696.721	0.0148843
696.799	0.0151336
696.878	0.0149638
696.956	0.0149546
697.034	0.0149638
697.112	0.0148383
697.190	0.0149919
697.268	0.0149512
697.346	0.0150414
697.424	0.0150197
697.503	0.0150390
697.581	0.0151038
697.659	0.0152035
697.737	0.0152630
697.815	0.0151546
697.893	0.0153326
697.971	0.0153652
698.049	0.0153263
698.128	0.0152377
698.206	0.0155412
698.284	0.0154544
698.362	0.0155652
698.440	0.0156245
698.518	0.0157912
698.596	0.0157107
698.674	0.0158607
698.753	0.0161070
698.831	0.0161198
698.909	0.0162546
698.987	0.0162601
699.065	0.0164690
699.143	0.0166248
699.221	0.0165584
699.299	0.0165583
699.378	0.0165323
699.456	0.0165771
699.534	0.0165880
699.612	0.0164780
699.690	0.0165087
699.768	0.0167222
699.846	0.0164919
699.924	0.0165336
700.003	0.0163844
700.081	0.0164104
700.159	0.0163946
700.237	0.0162768
700.315	0.0164883
700.393	0.0163332
700.471	0.0164107
700.549	0.0163509
700.628	0.0163696
700.706	0.0163178
700.784	0.0161972
700.862	0.0161865
700.940	0.0162279
701.018	0.0160725
701.096	0.0159589
701.174	0.0160572
701.253	0.0157321
701.331	0.0157143
701.409	0.0156676
701.487	0.0154657
701.565	0.0154000
701.643	0.0154184
701.721	0.0153989
701.799	0.0154002
701.878	0.0153497
701.956	0.0152166
702.034	0.0153455
702.112	0.0152647
702.190	0.0151559
702.268	0.0152657
702.346	0.0152119
702.424	0.0152809
702.503	0.0152998
702.581	0.0152753
702.659	0.0152852
702.737	0.0153062
702.815	0.0152396
702.893	0.0152506
702.971	0.0153767
703.049	0.0154058
703.128	0.0153693
703.206	0.0152345
703.284	0.0152998
703.362	0.0152690
703.440	0.0152374
703.518	0.0151156
703.596	0.0153111
703.674	0.0152592
703.753	0.0152887
703.831	0.0151869
703.909	0.0152152
703.987	0.0152491
704.065	0.0155028
704.143	0.0154906
704.221	0.0154797
704.299	0.0157167
704.378	0.0156768
704.456	0.0156979
704.534	0.0159477
704.612	0.0159360
704.690	0.0160745
704.768	0.0162114
704.846	0.0161926
704.924	0.0161182
705.003	0.0164878
705.081	0.0164655
705.159	0.0162279
705.237	0.0163883
705.315	0.0164762
705.393	0.0162173
705.471	0.0164306
705.549	0.0164833
705.628	0.0163601
705.706	0.0162857
705.784	0.0161964
705.862	0.0162956
705.940	0.0161597
706.018	0.0160457
706.096	0.0160584
706.174	0.0160062
706.253	0.0159369
706.331	0.0159673
706.409	0.0160145
706.487	0.0159600
706.565	0.0160012
706.643	0.0161446
706.721	0.0162350
706.799	0.0161881
706.878	0.0161493
706.956	0.0161783
707.034	0.0161447
707.112	0.0162217
707.190	0.0162222
707.268	0.0160529
707.346	0.0160462
707.424	0.0159949
707.503	0.0158804
707.581	0.0157931
707.659	0.0158793
707.737	0.0156413
707.815	0.0156815
707.893	0.0154813
707.971	0.0155488
708.049	0.0154742
708.128	0.0153929
708.206	0.0152618
708.284	0.0152513
708.362	0.0152767
708.440	0.0154214
708.518	0.0153033
708.596	0.0152898
708.674	0.0152344
708.753	0.0153483
708.831	0.0155008
708.909	0.0155087
708.987	0.0154734
709.065	0.0155123
709.143	0.0154126
709.221	0.0155674
709.299	0.0154969
709.378	0.0156319
709.456	0.0155932
709.534	0.0155186
709.612	0.0154799
709.690	0.0153459
709.768	0.0153642
709.846	0.0154076
709.924	0.0153786
710.003	0.0154169
710.081	0.0153146
710.159	0.0154678
710.237	0.0154356
710.315	0.0152361
710.393	0.0151495
710.471	0.0153230
710.549	0.0151597
710.628	0.0151714
710.706	0.0152681
710.784	0.0153005
710.862	0.0154430
710.940	0.0155993
711.018	0.0155787
711.096	0.0155584
711.174	0.0157249
711.253	0.0157339
711.331	0.0160032
711.409	0.0159977
711.487	0.0160484
711.565	0.0161059
711.643	0.0161218
711.721	0.0160988
711.799	0.0161516
711.878	0.0161597
711.956	0.0161446
712.034	0.0160849
712.112	0.0161136
712.190	0.0161629
712.268	0.0160248
712.346	0.0161139
712.424	0.0159985
712.503	0.0160151
712.581	0.0159758
712.659	0.0160221
712.737	0.0160799
712.815	0.0159953
712.893	0.0158809
712.971	0.0159579
713.049	0.0161391
713.128	0.0160416
713.206	0.0160027
713.284	0.0160781
713.362	0.0161583
713.440	0.0161969
713.518	0.0159908
713.596	0.0160322
713.674	0.0160444
713.753	0.0160420
713.831	0.0160744
713.909	0.0160955
713.987	0.0160184
714.065	0.0161404
714.143	0.0159718
714.221	0.0161044
714.299	0.0161879
714.378	0.0161680
714.456	0.0160728
714.534	0.0161334
714.612	0.0161415
714.690	0.0160382
714.768	0.0160194
714.846	0.0159938
714.924	0.0157870
715.003	0.0156961
715.081	0.0155058
715.159	0.0154480
715.237	0.0153958
715.315	0.0152549
715.393	0.0152486
715.471	0.0152180
715.549	0.0151842
715.628	0.0150241
715.706	0.0149737
715.784	0.0150996
715.862	0.0150454
715.940	0.0149616
716.018	0.0151929
716.096	0.0150934
716.174	0.0151138
716.253	0.0152477
716.331	0.0152498
716.409	0.0153147
716.487	0.0153796
716.565	0.0152493
716.643	0.0153927
716.721	0.0154232
716.799	0.0153651
716.878	0.0155663
716.956	0.0154253
717.034	0.0154259
717.112	0.0155574
717.190	0.0155167
717.268	0.0156187
717.346	0.0155257
717.424	0.0155485
717.503	0.0156322
717.581	0.0156495
717.659	0.0156480
717.737	0.0155692
717.815	0.0155843
717.893	0.0154915
717.971	0.0156075
718.049	0.0155882
718.128	0.0155460
718.206	0.0158097
718.284	0.0159419
718.362	0.0159293
718.440	0.0158520
718.518	0.0159808
718.596	0.0160524
718.674	0.0160672
718.753	0.0162465
718.831	0.0160953
718.909	0.0159407
718.987	0.0161396
719.065	0.0162081
719.143	0.0160759
719.221	0.0161415
719.299	0.0160899
719.378	0.0162238
719.456	0.0159898
719.534	0.0160823
719.612	0.0162234
719.690	0.0161065
719.768	0.0160893
719.846	0.0161065
719.924	0.0160312
720.003	0.0161391
720.081	0.0161559
720.159	0.0161900
720.237	0.0160124
720.315	0.0161877
720.393	0.0162260
720.471	0.0160081
720.549	0.0159653
720.628	0.0161868
720.706	0.0161352
720.784	0.0160460
720.862	0.0159066
720.940	0.0158820
721.018	0.0158617
721.096	0.0158938
721.174	0.0158064
721.253	0.0158684
721.331	0.0158528
721.409	0.0158344
721.487	0.0157344
721.565	0.0157208
721.643	0.0155045
721.721	0.0156783
721.799	0.0156345
721.878	0.0155324
721.956	0.0154204
722.034	0.0153575
722.112	0.0151506
722.190	0.0152957
722.268	0.0150714
722.346	0.0150442
722.424	0.0150745
722.503	0.0149734
722.581	0.0149858
722.659	0.0148515
722.737	0.0149561
722.815	0.0150482
722.893	0.0149560
722.971	0.0150641
723.049	0.0150005
723.128	0.0151492
723.206	0.0152066
723.284	0.0153403
723.362	0.0153287
723.440	0.0152969
723.518	0.0154967
723.596	0.0155769
723.674	0.0155479
723.753	0.0157426
723.831	0.0157882
723.909	0.0156853
723.987	0.0156239
724.065	0.0157675
724.143	0.0159142
724.221	0.0157942
724.299	0.0157777
724.378	0.0156890
724.456	0.0157819
724.534	0.0160228
724.612	0.0160702
724.690	0.0159446
724.768	0.0159999
724.846	0.0159671
724.924	0.0160262
725.003	0.0158471
725.081	0.0159473
725.159	0.0158376
725.237	0.0159336
725.315	0.0159253
725.393	0.0159826
725.471	0.0159148
725.549	0.0159574
725.628	0.0160241
725.706	0.0161632
725.784	0.0160555
725.862	0.0162363
725.940	0.0161789
726.018	0.0161826
726.096	0.0163846
726.174	0.0163313
726.253	0.0163762
726.331	0.0162675
726.409	0.0162978
726.487	0.0163184
726.565	0.0163184
726.643	0.0162259
726.721	0.0163754
726.799	0.0162369
726.878	0.0160833
726.956	0.0160244
727.034	0.0161120
727.112	0.0161340
727.190	0.0159544
727.268	0.0159592
727.346	0.0158526
727.424	0.0160104
727.503	0.0158791
727.581	0.0157794
727.659	0.0157954
727.737	0.0157722
727.815	0.0157908
727.893	0.0157774
727.971	0.0159709
728.049	0.0157838
728.128	0.0156226
728.206	0.0155544
728.284	0.0157294
728.362	0.0156453
728.440	0.0156877
728.518	0.0156220
728.596	0.0156456
728.674	0.0156573
728.753	0.0155038
728.831	0.0155392
728.909	0.0154362
728.987	0.0155512
729.065	0.0155715
729.143	0.0155045
729.221	0.0155049
729.299	0.0154324
729.378	0.0154635
729.456	0.0154163
729.534	0.0154593
729.612	0.0154352
729.690	0.0152505
729.768	0.0151613
729.846	0.0154919
729.924	0.0154296
730.003	0.0151041
730.081	0.0152386
730.159	0.0152658
730.237	0.0151662
730.315	0.0153577
730.393	0.0153064
730.471	0.0153249
730.549	0.0155746
730.628	0.0157433
730.706	0.0157840
730.784	0.0157732
730.862	0.0159041
730.940	0.0159130
731.018	0.0160355
731.096	0.0160924
731.174	0.0160228
731.253	0.0160471
731.331	0.0161359
731.409	0.0160115
731.487	0.0160817
731.565	0.0160925
731.643	0.0160555
731.721	0.0161024
731.799	0.0160978
731.878	0.0160930
731.956	0.0159757
732.034	0.0161375
732.112	0.0161267
732.190	0.0161855
732.268	0.0161935
732.346	0.0161606
732.424	0.0161002
732.503	0.0160731
732.581	0.0161012
732.659	0.0162508
732.737	0.0161018
732.815	0.0161497
732.893	0.0160704
732.971	0.0161994
733.049	0.0160624
733.128	0.0160040
733.206	0.0159875
733.284	0.0161286
733.362	0.0161689
733.440	0.0159791
733.518	0.0160165
733.596	0.0161997
733.674	0.0159347
733.753	0.0158665
733.831	0.0160702
733.909	0.0158860
733.987	0.0159446
734.065	0.0158929
734.143	0.0159385
734.221	0.0157359
734.299	0.0157143
734.378	0.0157131
734.456	0.0157257
734.534	0.0156818
734.612	0.0156026
734.690	0.0156065
734.768	0.0155030
734.846	0.0155639
734.924	0.0156528
735.003	0.0156131
735.081	0.0155933
735.159	0.0157249
735.237	0.0157430
735.315	0.0156485
735.393	0.0157005
735.471	0.0157027
735.549	0.0155809
735.628	0.0156666
735.706	0.0156918
735.784	0.0156471
735.862	0.0156192
735.940	0.0156117
736.018	0.0157791
736.096	0.0157368
736.174	0.0158192
736.253	0.0155870
736.331	0.0156971
736.409	0.0157684
736.487	0.0156747
736.565	0.0156075
736.643	0.0156093
736.721	0.0155228
736.799	0.0155309
736.878	0.0155424
736.956	0.0155602
737.034	0.0153436
737.112	0.0154238
737.190	0.0154879
737.268	0.0154060
737.346	0.0154524
737.424	0.0153757
737.503	0.0153056
737.581	0.0154942
737.659	0.0154510
737.737	0.0156077
737.815	0.0154817
737.893	0.0157067
737.971	0.0156790
738.049	0.0157643
738.128	0.0159179
738.206	0.0158749
738.284	0.0160464
738.362	0.0161069
738.440	0.0160892
738.518	0.0159673
738.596	0.0160579
738.674	0.0162453
738.753	0.0162050
738.831	0.0160844
738.909	0.0160648
738.987	0.0159494
739.065	0.0160267
739.143	0.0158822
739.221	0.0159130
739.299	0.0159360
739.378	0.0159428
739.456	0.0158630
739.534	0.0158924
739.612	0.0159077
739.690	0.0157912
739.768	0.0157870
739.846	0.0157469
739.924	0.0157658
740.003	0.0159106
740.081	0.0158642
740.159	0.0156841
740.237	0.0156735
740.315	0.0156689
740.393	0.0157574
740.471	0.0159290
740.549	0.0158221
740.628	0.0157851
740.706	0.0158471
740.784	0.0157413
740.862	0.0158092
740.940	0.0157833
741.018	0.0157573
741.096	0.0157645
741.174	0.0157591
741.253	0.0155912
741.331	0.0157382
741.409	0.0156066
741.487	0.0154258
741.565	0.0156958
741.643	0.0155856
741.721	0.0157697
741.799	0.0156367
741.878	0.0155530
741.956	0.0158086
742.034	0.0157908
742.112	0.0157538
742.190	0.0157260
742.268	0.0157610
742.346	0.0157617
742.424	0.0158053
742.503	0.0158346
742.581	0.0158811
742.659	0.0158519
742.737	0.0158429
742.815	0.0159491
742.893	0.0158779
742.971	0.0159081
743.049	0.0157689
743.128	0.0159718
743.206	0.0159110
743.284	0.0156491
743.362	0.0157445
743.440	0.0158257
743.518	0.0158115
743.596	0.0157626
743.674	0.0159475
743.753	0.0158020
743.831	0.0156375
743.909	0.0157043
743.987	0.0157337
744.065	0.0156113
744.143	0.0155287
744.221	0.0156658
744.299	0.0156001
744.378	0.0156930
744.456	0.0156853
744.534	0.0156023
744.612	0.0154529
744.690	0.0155294
744.768	0.0154872
744.846	0.0154504
744.924	0.0155943
745.003	0.0155198
745.081	0.0154398
745.159	0.0155553
745.237	0.0154865
745.315	0.0155792
745.393	0.0156149
745.471	0.0154921
745.549	0.0157393
745.628	0.0159378
745.706	0.0156432
745.784	0.0157887
745.862	0.0159853
745.940	0.0158424
746.018	0.0158372
746.096	0.0157533
746.174	0.0160776
746.253	0.0160178
746.331	0.0159966
746.409	0.0159658
746.487	0.0159750
746.565	0.0159012
746.643	0.0159589
746.721	0.0158349
746.799	0.0157598
746.878	0.0158979
746.956	0.0156863
747.034	0.0157234
747.112	0.0156603
747.190	0.0156440
747.268	0.0157102
747.346	0.0158292
747.424	0.0156947
747.503	0.0156387
747.581	0.0157651
747.659	0.0159159
747.737	0.0158377
747.815	0.0158832
747.893	0.0158186
747.971	0.0158778
748.049	0.0160119
748.128	0.0160001
748.206	0.0160617
748.284	0.0159591
748.362	0.0159911
748.440	0.0159279
748.518	0.0159976
748.596	0.0158329
748.674	0.0158760
748.753	0.0158573
748.831	0.0158532
748.909	0.0158163
748.987	0.0157969
749.065	0.0158274
749.143	0.0158819
749.221	0.0159160
749.299	0.0159057
749.378	0.0157665
749.456	0.0159087
749.534	0.0158585
749.612	0.0158949
749.690	0.0158763
749.768	0.0159727
749.846	0.0159264
749.924	0.0158298
750.003	0.0158526
750.081	0.0158266
750.159	0.0158953
750.237	0.0157563
750.315	0.0158636
750.393	0.0157229
750.471	0.0158483
750.549	0.0157615
750.628	0.0155827
750.706	0.0156203
750.784	0.0157169
750.862	0.0156435
750.940	0.0157523
751.018	0.0157551
751.096	0.0156717
751.174	0.0156126
751.253	0.0156016
751.331	0.0156629
751.409	0.0155443
751.487	0.0156343
751.565	0.0157350
751.643	0.0155721
751.721	0.0157934
751.799	0.0156860
751.878	0.0156157
751.956	0.0155772
752.034	0.0156622
752.112	0.0155791
752.190	0.0156351
752.268	0.0155984
752.346	0.0156050
752.424	0.0156435
752.503	0.0156488
752.581	0.0155526
752.659	0.0157251
752.737	0.0158282
752.815	0.0158811
752.893	0.0157259
752.971	0.0158710
753.049	0.0159038
753.128	0.0158419
753.206	0.0159126
753.284	0.0158848
753.362	0.0160341
753.440	0.0160072
753.518	0.0159511
753.596	0.0160689
753.674	0.0160244
753.753	0.0160164
753.831	0.0160419
753.909	0.0160087
753.987	0.0159332
754.065	0.0159386
754.143	0.0160108
754.221	0.0156654
754.299	0.0158839
754.378	0.0157941
754.456	0.0156571
754.534	0.0157201
754.612	0.0156583
754.690	0.0157398
754.768	0.0157780
754.846	0.0158533
754.924	0.0157300
755.003	0.0157291
755.081	0.0160023
755.159	0.0159673
755.237	0.0159275
755.315	0.0159114
755.393	0.0159898
755.471	0.0159688
755.549	0.0160275
755.628	0.0160339
755.706	0.0159609
755.784	0.0160295
755.862	0.0160437
755.940	0.0159729
756.018	0.0159827
756.096	0.0159479
756.174	0.0156812
756.253	0.0157658
756.331	0.0157858
756.409	0.0158852
756.487	0.0158665
756.565	0.0158794
756.643	0.0158524
756.721	0.0156735
756.799	0.0159182
756.878	0.0158571
756.956	0.0157103
757.034	0.0159003
757.112	0.0159029
757.190	0.0158807
757.268	0.0159329
757.346	0.0159206
757.424	0.0158002
757.503	0.0157751
757.581	0.0156425
757.659	0.0158613
757.737	0.0156484
757.815	0.0156323
757.893	0.0155135
757.971	0.0156927
758.049	0.0155713
758.128	0.0156901
758.206	0.0155494
758.284	0.0157830
758.362	0.0156045
758.440	0.0155768
758.518	0.0156870
758.596	0.0156004
758.674	0.0155779
758.753	0.0156939
758.831	0.0157062
758.909	0.0157087
758.987	0.0156987
759.065	0.0156598
759.143	0.0156351
759.221	0.0155715
759.299	0.0157357
759.378	0.0156893
759.456	0.0156654
759.534	0.0156497
759.612	0.0156361
759.690	0.0156671
759.768	0.0156544
759.846	0.0155383
759.924	0.0156551
760.003	0.0156055
760.081	0.0155855
760.159	0.0157835
760.237	0.0157066
760.315	0.0157401
760.393	0.0157085
760.471	0.0157281
760.549	0.0156652
760.628	0.0158120
760.706	0.0158189
760.784	0.0158203
760.862	0.0158726
760.940	0.0157888
761.018	0.0158617
761.096	0.0158233
761.174	0.0159567
761.253	0.0158470
761.331	0.0158463
761.409	0.0157656
761.487	0.0158908
761.565	0.0158933
761.643	0.0157527
761.721	0.0157401
761.799	0.0156646
761.878	0.0157290
761.956	0.0157459
762.034	0.0157670
762.112	0.0157523
762.190	0.0157426
762.268	0.0158136
762.346	0.0157678
762.424	0.0156993
762.503	0.0156664
762.581	0.0159045
762.659	0.0157619
762.737	0.0157451
762.815	0.0158405
762.893	0.0159364
762.971	0.0158585
763.049	0.0158133
763.128	0.0157696
763.206	0.0157424
763.284	0.0158103
763.362	0.0157304
763.440	0.0157661
763.518	0.0158089
763.596	0.0157095
763.674	0.0156931
763.753	0.0157352
763.831	0.0157571
763.909	0.0157156
763.987	0.0158442
764.065	0.0156779
764.143	0.0157861
764.221	0.0158199
764.299	0.0156855
764.378	0.0157568
764.456	0.0156757
764.534	0.0156718
764.612	0.0156692
764.690	0.0156304
764.768	0.0158176
764.846	0.0157469
764.924	0.0158859
765.003	0.0157664
765.081	0.0157763
765.159	0.0158317
765.237	0.0155891
765.315	0.0155658
765.393	0.0156647
765.471	0.0156899
765.549	0.0156353
765.628	0.0154956
765.706	0.0156105
765.784	0.0155125
765.862	0.0155363
765.940	0.0157026
766.018	0.0153884
766.096	0.0156515
766.174	0.0156072
766.253	0.0154575
766.331	0.0156028
766.409	0.0157140
766.487	0.0157960
766.565	0.0155748
766.643	0.0156048
766.721	0.0156995
766.799	0.0155758
766.878	0.0157565
766.956	0.0156373
767.034	0.0156027
767.112	0.0156969
767.190	0.0156701
767.268	0.0156866
767.346	0.0156395
767.424	0.0157793
767.503	0.0157016
767.581	0.0155940
767.659	0.0157478
767.737	0.0157103
767.815	0.0158302
767.893	0.0157241
767.971	0.0157951
768.049	0.0158208
768.128	0.0158562
768.206	0.0158925
768.284	0.0158792
768.362	0.0158379
768.440	0.0157907
768.518	0.0157530
768.596	0.0157389
768.674	0.0156670
768.753	0.0158495
768.831	0.0158280
768.909	0.0158141
768.987	0.0157271
769.065	0.0157922
769.143	0.0157525
769.221	0.0157204
769.299	0.0156636
769.378	0.0157444
769.456	0.0156281
769.534	0.0157265
769.612	0.0157104
769.690	0.0155418
769.768	0.0157231
769.846	0.0157317
769.924	0.0156573
770.003	0.0157217
770.081	0.0157507
770.159	0.0156188
770.237	0.0158128
770.315	0.0157993
770.393	0.0157053
770.471	0.0155999
770.549	0.0156931
770.628	0.0156075
770.706	0.0158673
770.784	0.0157885
770.862	0.0155515
770.940	0.0156435
771.018	0.0157610
771.096	0.0157129
771.174	0.0156230
771.253	0.0156695
771.331	0.0156541
771.409	0.0157894
771.487	0.0157027
771.565	0.0155386
771.643	0.0156348
771.721	0.0156129
771.799	0.0157688
771.878	0.0155929
771.956	0.0157301
772.034	0.0157428
772.112	0.0156713
772.190	0.0156206
772.268	0.0156371
772.346	0.0155330
772.424	0.0156049
772.503	0.0155595
772.581	0.0157042
772.659	0.0155655
772.737	0.0155868
772.815	0.0156439
772.893	0.0157728
772.971	0.0157020
773.049	0.0155548
773.128	0.0155791
773.206	0.0155494
773.284	0.0157220
773.362	0.0156834
773.440	0.0157912
773.518	0.0155953
773.596	0.0156948
773.674	0.0158636
773.753	0.0158123
773.831	0.0156773
773.909	0.0157497
773.987	0.0157990
774.065	0.0157082
774.143	0.0156509
774.221	0.0158069
774.299	0.0157858
774.378	0.0158587
774.456	0.0159112
774.534	0.0157111
774.612	0.0156815
774.690	0.0158393
774.768	0.0158820
774.846	0.0158121
774.924	0.0157840
775.003	0.0158501
775.081	0.0157416
775.159	0.0158611
775.237	0.0158560
775.315	0.0159216
775.393	0.0159383
775.471	0.0159014
775.549	0.0158195
775.628	0.0158708
775.706	0.0159434
775.784	0.0158951
775.862	0.0159329
775.940	0.0159803
776.018	0.0158080
776.096	0.0159023
776.174	0.0158736
776.253	0.0158356
776.331	0.0159343
776.409	0.0160648
776.487	0.0160173
776.565	0.0158716
776.643	0.0158614
776.721	0.0157891
776.799	0.0157982
776.878	0.0158990
776.956	0.0157734
777.034	0.0157946
777.112	0.0158023
777.190	0.0157237
777.268	0.0157056
777.346	0.0156434
777.424	0.0157212
777.503	0.0157259
777.581	0.0157965
777.659	0.0158096
777.737	0.0157250
777.815	0.0157816
777.893	0.0157752
777.971	0.0157489
778.049	0.0156941
778.128	0.0157963
778.206	0.0157951
778.284	0.0157225
778.362	0.0157956
778.440	0.0157062
778.518	0.0156237
778.596	0.0157243
778.674	0.0158200
778.753	0.0158506
778.831	0.0157255
778.909	0.0155581
778.987	0.0156892
779.065	0.0156853
779.143	0.0156750
779.221	0.0157203
779.299	0.0158124
779.378	0.0156998
779.456	0.0156564
779.534	0.0156647
779.612	0.0157788
779.690	0.0157507
779.768	0.0155990
779.846	0.0156660
779.924	0.0157959
780.003	0.0158244
780.081	0.0157418
780.159	0.0157108
780.237	0.0159305
780.315	0.0157037
780.393	0.0156521
780.471	0.0158091
780.549	0.0157211
780.628	0.0158114
780.706	0.0156905
780.784	0.0156671
780.862	0.0158187
780.940	0.0158869
781.018	0.0156393
781.096	0.0157893
781.174	0.0157322
781.253	0.0157292
781.331	0.0157937
781.409	0.0159170
781.487	0.0159520
781.565	0.0158694
781.643	0.0157613
781.721	0.0158245
781.799	0.0158228
781.878	0.0157879
781.956	0.0158440
782.034	0.0158668
782.112	0.0160686
782.190	0.0160416
782.268	0.0157539
782.346	0.0159141
782.424	0.0158985
782.503	0.0159424
782.581	0.0159285
782.659	0.0158163
782.737	0.0157132
782.815	0.0158929
782.893	0.0160560
782.971	0.0159197
783.049	0.0158112
783.128	0.0158196
783.206	0.0157519
783.284	0.0157721
783.362	0.0157805
783.440	0.0158334
783.518	0.0157714
783.596	0.0156108
783.674	0.0156785
783.753	0.0157668
783.831	0.0158237
783.909	0.0157252
783.987	0.0157033
784.065	0.0156515
784.143	0.0156558
784.221	0.0157000
784.299	0.0156919
784.378	0.0157597
784.456	0.0157663
784.534	0.0157031
784.612	0.0158115
784.690	0.0156911
784.768	0.0156597
784.846	0.0156695
784.924	0.0155753
785.003	0.0156033
785.081	0.0156699
785.159	0.0156391
785.237	0.0156374
785.315	0.0155637
785.393	0.0156752
785.471	0.0155889
785.549	0.0156813
785.628	0.0156056
785.706	0.0156457
785.784	0.0155939
785.862	0.0156261
785.940	0.0156567
786.018	0.0156222
786.096	0.0156956
786.174	0.0156714
786.253	0.0157426
786.331	0.0156737
786.409	0.0157745
786.487	0.0157632
786.565	0.0155944
786.643	0.0155634
786.721	0.0156603
786.799	0.0155843
786.878	0.0155591
786.956	0.0155943
787.034	0.0156103
787.112	0.0156256
787.190	0.0156886
787.268	0.0156711
787.346	0.0156126
787.424	0.0156889
787.503	0.0156859
787.581	0.0157368
787.659	0.0157987
787.737	0.0158296
787.815	0.0156041
787.893	0.0156607
787.971	0.0157310
788.049	0.0156641
788.128	0.0154829
788.206	0.0154410
788.284	0.0156158
788.362	0.0156614
788.440	0.0155885
788.518	0.0156994
788.596	0.0156146
788.674	0.0156124
788.753	0.0156876
788.831	0.0157101
788.909	0.0157108
788.987	0.0156661
789.065	0.0157253
789.143	0.0158164
789.221	0.0157639
789.299	0.0158254
789.378	0.0159802
789.456	0.0158174
789.534	0.0158584
789.612	0.0158302
789.690	0.0158300
789.768	0.0158665
789.846	0.0157716
789.924	0.0157115
790.003	0.0158686
790.081	0.0157655
790.159	0.0158379
790.237	0.0158650
790.315	0.0157724
790.393	0.0158297
790.471	0.0158781
790.549	0.0158851
790.628	0.0156359
790.706	0.0158058
790.784	0.0158870
790.862	0.0158453
790.940	0.0158498
791.018	0.0158295
791.096	0.0157380
791.174	0.0158682
791.253	0.0158272
791.331	0.0157512
791.409	0.0157790
791.487	0.0158345
791.565	0.0159081
791.643	0.0156491
791.721	0.0155603
791.799	0.0156718
791.878	0.0156336
791.956	0.0155944
792.034	0.0155464
792.112	0.0156161
792.190	0.0156433
792.268	0.0156002
792.346	0.0155219
792.424	0.0156786
792.503	0.0157615
792.581	0.0157156
792.659	0.0156186
792.737	0.0156490
792.815	0.0156770
792.893	0.0156329
792.971	0.0156267
793.049	0.0154498
793.128	0.0154352
793.206	0.0155528
793.284	0.0155423
793.362	0.0155619
793.440	0.0155232
793.518	0.0155779
793.596	0.0156084
793.674	0.0155718
793.753	0.0156886
793.831	0.0154606
793.909	0.0155713
793.987	0.0155502
794.065	0.0157559
794.143	0.0156199
794.221	0.0155759
794.299	0.0156763
794.378	0.0156104
794.456	0.0156344
794.534	0.0156654
794.612	0.0158119
794.690	0.0157311
794.768	0.0157349
794.846	0.0157161
794.924	0.0158168
795.003	0.0157906
795.081	0.0157835
795.159	0.0157335
795.237	0.0158743
795.315	0.0159367
795.393	0.0159000
795.471	0.0159217
795.549	0.0157765
795.628	0.0158035
795.706	0.0159926
795.784	0.0158846
795.862	0.0159488
795.940	0.0159536
796.018	0.0158831
796.096	0.0158862
796.174	0.0159807
796.253	0.0159767
796.331	0.0158380
796.409	0.0157823
796.487	0.0157478
796.565	0.0160025
796.643	0.0159297
796.721	0.0158015
796.799	0.0157503
796.878	0.0157793
796.956	0.0159009
797.034	0.0159775
797.112	0.0158984
797.190	0.0159016
797.268	0.0160099
797.346	0.0158987
797.424	0.0159560
797.503	0.0158408
797.581	0.0158820
797.659	0.0156130
797.737	0.0158183
797.815	0.0156733
797.893	0.0157230
797.971	0.0157151
798.049	0.0155816
798.128	0.0155745
798.206	0.0155830
798.284	0.0154434
798.362	0.0156208
798.440	0.0155614
798.518	0.0154486
798.596	0.0155260
798.674	0.0157655
798.753	0.0155083
798.831	0.0155204
798.909	0.0156987
798.987	0.0155937
799.065	0.0155515
799.143	0.0157108
799.221	0.0155874
799.299	0.0155665
799.378	0.0157181
799.456	0.0156762
799.534	0.0156697
799.612	0.0156538
799.690	0.0154760
799.768	0.0156828
799.846	0.0156673
799.924	0.0157275
800.003	0.0156698
800.081	0.0157864
800.159	0.0157493
800.237	0.0156543
800.315	0.0156941
800.393	0.0158557
800.471	0.0158194
800.549	0.0157252
800.628	0.0157346
800.706	0.0158060
800.784	0.0158668
800.862	0.0157651
800.940	0.0157590
801.018	0.0157603
801.096	0.0158104
801.174	0.0157873
801.253	0.0157360
801.331	0.0157746
801.409	0.0158966
801.487	0.0156857
801.565	0.0157986
801.643	0.0158487
801.721	0.0158636
801.799	0.0157218
801.878	0.0158318
801.956	0.0158279
802.034	0.0158741
802.112	0.0159602
802.190	0.0159042
802.268	0.0158179
802.346	0.0157726
802.424	0.0158674
802.503	0.0157633
802.581	0.0158573
802.659	0.0159203
802.737	0.0158448
802.815	0.0158691
802.893	0.0157725
802.971	0.0159306
803.049	0.0159713
803.128	0.0159199
803.206	0.0159479
803.284	0.0159129
803.362	0.0159079
803.440	0.0158981
803.518	0.0160159
803.596	0.0158586
803.674	0.0158453
803.753	0.0157531
803.831	0.0158684
803.909	0.0158225
803.987	0.0158746
804.065	0.0157863
804.143	0.0158092
804.221	0.0157581
804.299	0.0157269
804.378	0.0156775
804.456	0.0156370
804.534	0.0156899
804.612	0.0157348
804.690	0.0155883
804.768	0.0155906
804.846	0.0155290
804.924	0.0154675
805.003	0.0156304
805.081	0.0155363
805.159	0.0155571
805.237	0.0156062
805.315	0.0156822
805.393	0.0156210
805.471	0.0155909
805.549	0.0156772
805.628	0.0157224
805.706	0.0153481
805.784	0.0155887
805.862	0.0156046
805.940	0.0155482
806.018	0.0155634
806.096	0.0154903
806.174	0.0155099
806.253	0.0154983
806.331	0.0155320
806.409	0.0154819
806.487	0.0155978
806.565	0.0155316
806.643	0.0154845
806.721	0.0154947
806.799	0.0155199
806.878	0.0156019
806.956	0.0157184
807.034	0.0157734
807.112	0.0156080
807.190	0.0155497
807.268	0.0157157
807.346	0.0156165
807.424	0.0156234
807.503	0.0157986
807.581	0.0158067
807.659	0.0157704
807.737	0.0157626
807.815	0.0157156
807.893	0.0157483
807.971	0.0158094
808.049	0.0158116
808.128	0.0158387
808.206	0.0158681
808.284	0.0158139
808.362	0.0157428
808.440	0.0159142
808.518	0.0158757
808.596	0.0158378
808.674	0.0158364
808.753	0.0158726
808.831	0.0159662
808.909	0.0157629
808.987	0.0158543
809.065	0.0158456
809.143	0.0159399
809.221	0.0159398
809.299	0.0158335
809.378	0.0157622
809.456	0.0157549
809.534	0.0157664
809.612	0.0157634
809.690	0.0157897
809.768	0.0159148
809.846	0.0159347
809.924	0.0157423
810.003	0.0157068
810.081	0.0157315
810.159	0.0157794
810.237	0.0157732
810.315	0.0159260
810.393	0.0158026
810.471	0.0158725
810.549	0.0158411
810.628	0.0159121
810.706	0.0158422
810.784	0.0158959
810.862	0.0159811
810.940	0.0159058
811.018	0.0158266
811.096	0.0158700
811.174	0.0158143
811.253	0.0159188
811.331	0.0157703
811.409	0.0157129
811.487	0.0156505
811.565	0.0157594
811.643	0.0156686
811.721	0.0156874
811.799	0.0157178
811.878	0.0156927
811.956	0.0157157
812.034	0.0157422
812.112	0.0157561
812.190	0.0155797
812.268	0.0156287
812.346	0.0156649
812.424	0.0156898
812.503	0.0158246
812.581	0.0156625
812.659	0.0155925
812.737	0.0156950
812.815	0.0157809
812.893	0.0156689
812.971	0.0155558
813.049	0.0157747
813.128	0.0156340
813.206	0.0156533
813.284	0.0157947
813.362	0.0157130
813.440	0.0156522
813.518	0.0156261
813.596	0.0157432
813.674	0.0157402
813.753	0.0157079
813.831	0.0157755
813.909	0.0155694
813.987	0.0157536
814.065	0.0157281
814.143	0.0155885
814.221	0.0156223
814.299	0.0157394
814.378	0.0157641
814.456	0.0157394
814.534	0.0157599
814.612	0.0157810
814.690	0.0157956
814.768	0.0157111
814.846	0.0156658
814.924	0.0158033
815.003	0.0158202
815.081	0.0158311
815.159	0.0157983
815.237	0.0157908
815.315	0.0158359
815.393	0.0159377
815.471	0.0158308
815.549	0.0158569
815.628	0.0157759
815.706	0.0157346
815.784	0.0159331
815.862	0.0157920
815.940	0.0158590
816.018	0.0158665
816.096	0.0156536
816.174	0.0158439
816.253	0.0159206
816.331	0.0158916
816.409	0.0158900
816.487	0.0158065
816.565	0.0158028
816.643	0.0159603
816.721	0.0159180
816.799	0.0158088
816.878	0.0159922
816.956	0.0159209
817.034	0.0159834
817.112	0.0159198
817.190	0.0158930
817.268	0.0158080
817.346	0.0157882
817.424	0.0158652
817.503	0.0157645
817.581	0.0156585
817.659	0.0157773
817.737	0.0158118
817.815	0.0157543
817.893	0.0156568
817.971	0.0156635
818.049	0.0157499
818.128	0.0156988
818.206	0.0157166
818.284	0.0156487
818.362	0.0156784
818.440	0.0156519
818.518	0.0157570
818.596	0.0157648
818.674	0.0156847
818.753	0.0156555
818.831	0.0157800
818.909	0.0156834
818.987	0.0155393
819.065	0.0157421
819.143	0.0156589
819.221	0.0155802
819.299	0.0157119
819.378	0.0156039
819.456	0.0156211
819.534	0.0156271
819.612	0.0156178
819.690	0.0155640
819.768	0.0155383
819.846	0.0156614
819.924	0.0157027
820.003	0.0156034
820.081	0.0154666
820.159	0.0155685
820.237	0.0156020
820.315	0.0157140
820.393	0.0156399
820.471	0.0156834
820.549	0.0157248
820.628	0.0156326
820.706	0.0157167
820.784	0.0157533
820.862	0.0157578
820.940	0.0157108
821.018	0.0156743
821.096	0.0157373
821.174	0.0159522
821.253	0.0159045
821.331	0.0159034
821.409	0.0158652
821.487	0.0159091
821.565	0.0158591
821.643	0.0158849
821.721	0.0159464
821.799	0.0159378
821.878	0.0158707
821.956	0.0159156
822.034	0.0159603
822.112	0.0157079
822.190	0.0157561
822.268	0.0158028
822.346	0.0158387
822.424	0.0159119
822.503	0.0158942
822.581	0.0157900
822.659	0.0158329
822.737	0.0158500
822.815	0.0158322
822.893	0.0158047
822.971	0.0158182
823.049	0.0158350
823.128	0.0157828
823.206	0.0156507
823.284	0.0157520
823.362	0.0159254
823.440	0.0157845
823.518	0.0156799
823.596	0.0157613
823.674	0.0158521
823.753	0.0157814
823.831	0.0157497
823.909	0.0158459
823.987	0.0157939
824.065	0.0157439
824.143	0.0157776
824.221	0.0157158
824.299	0.0156995
824.378	0.0156844
824.456	0.0157973
824.534	0.0158548
824.612	0.0156934
824.690	0.0156774
824.768	0.0157294
824.846	0.0156980
824.924	0.0155759
825.003	0.0157191
825.081	0.0156754
825.159	0.0157721
825.237	0.0157916
825.315	0.0156557
825.393	0.0155224
825.471	0.0155634
825.549	0.0156930
825.628	0.0156197
825.706	0.0155090
825.784	0.0156457
825.862	0.0156828
825.940	0.0156232
826.018	0.0155450
826.096	0.0156113
826.174	0.0156342
826.253	0.0156932
826.331	0.0157157
826.409	0.0157323
826.487	0.0156683
826.565	0.0156644
826.643	0.0157006
826.721	0.0158485
826.799	0.0156594
826.878	0.0156901
826.956	0.0158498
827.034	0.0157675
827.112	0.0157832
827.190	0.0157823
827.268	0.0156535
827.346	0.0157037
827.424	0.0157916
827.503	0.0157595
827.581	0.0156070
827.659	0.0156869
827.737	0.0157941
827.815	0.0157475
827.893	0.0158350
827.971	0.0158204
828.049	0.0157810
828.128	0.0157859
828.206	0.0158348
828.284	0.0159146
828.362	0.0156921
828.440	0.0159100
828.518	0.0158475
828.596	0.0158141
828.674	0.0159495
828.753	0.0158904
828.831	0.0159129
828.909	0.0159509
828.987	0.0158083
829.065	0.0159296
829.143	0.0159031
829.221	0.0158558
829.299	0.0158369
829.378	0.0158995
829.456	0.0156611
829.534	0.0157281
829.612	0.0158160
829.690	0.0156523
829.768	0.0156696
829.846	0.0157903
829.924	0.0157200
830.003	0.0156628
830.081	0.0158281
830.159	0.0158083
830.237	0.0157066
830.315	0.0158003
830.393	0.0156846
830.471	0.0157781
830.549	0.0157583
830.628	0.0156350
830.706	0.0156928
830.784	0.0157507
830.862	0.0156568
830.940	0.0155902
831.018	0.0156802
831.096	0.0156274
831.174	0.0156340
831.253	0.0156990
831.331	0.0157951
831.409	0.0158511
831.487	0.0158627
831.565	0.0157601
831.643	0.0157746
831.721	0.0156552
831.799	0.0156573
831.878	0.0158301
831.956	0.0157900
832.034	0.0156980
832.112	0.0158702
832.190	0.0158213
832.268	0.0157260
832.346	0.0156976
832.424	0.0156274
832.503	0.0156720
832.581	0.0156417
832.659	0.0156758
832.737	0.0157933
832.815	0.0157948
832.893	0.0158897
832.971	0.0157121
833.049	0.0158604
833.128	0.0157159
833.206	0.0157776
833.284	0.0158385
833.362	0.0158497
833.440	0.0157397
833.518	0.0158234
833.596	0.0157921
833.674	0.0156902
833.753	0.0157658
833.831	0.0156989
833.909	0.0155734
833.987	0.0158315
834.065	0.0158001
834.143	0.0158014
834.221	0.0157257
834.299	0.0157032
834.378	0.0157055
834.456	0.0157727
834.534	0.0157743
834.612	0.0159322
834.690	0.0159393
834.768	0.0158871
834.846	0.0158823
834.924	0.0158843
835.003	0.0159382
835.081	0.0158530
835.159	0.0159509
835.237	0.0158131
835.315	0.0158157
835.393	0.0159998
835.471	0.0157877
835.549	0.0159214
835.628	0.0159368
835.706	0.0159140
835.784	0.0158595
835.862	0.0158599
835.940	0.0158324
836.018	0.0158511
836.096	0.0157088
836.174	0.0157640
836.253	0.0157526
836.331	0.0157571
836.409	0.0158018
836.487	0.0157020
836.565	0.0158247
836.643	0.0157954
836.721	0.0157980
836.799	0.0158838
836.878	0.0157880
836.956	0.0158669
837.034	0.0157330
837.112	0.0157487
837.190	0.0157578
837.268	0.0157893
837.346	0.0157569
837.424	0.0158270
837.503	0.0157445
837.581	0.0156664
837.659	0.0157512
837.737	0.0157815
837.815	0.0157382
837.893	0.0156977
837.971	0.0158571
838.049	0.0157858
838.128	0.0156850
838.206	0.0156506
838.284	0.0156690
838.362	0.0157812
838.440	0.0157298
838.518	0.0157283
838.596	0.0157796
838.674	0.0156635
838.753	0.0156518
838.831	0.0156225
838.909	0.0156416
838.987	0.0157950
839.065	0.0157430
839.143	0.0156100
839.221	0.0157122
839.299	0.0157878
839.378	0.0158733
839.456	0.0158206
839.534	0.0156850
839.612	0.0157375
839.690	0.0158887
839.768	0.0157738
839.846	0.0156996
839.924	0.0157190
840.003	0.0156715
840.081	0.0156712
840.159	0.0158082
840.237	0.0157668
840.315	0.0156922
840.393	0.0157034
840.471	0.0157676
840.549	0.0158220
840.628	0.0156493
840.706	0.0157235
840.784	0.0157350
840.862	0.0158351
840.940	0.0156690
841.018	0.0156580
841.096	0.0156840
841.174	0.0158197
841.253	0.0158133
841.331	0.0157979
841.409	0.0158245
841.487	0.0156948
841.565	0.0157197
841.643	0.0157408
841.721	0.0158378
841.799	0.0156991
841.878	0.0156426
841.956	0.0158457
842.034	0.0157748
842.112	0.0156526
842.190	0.0156721
842.268	0.0156573
842.346	0.0157053
842.424	0.0157696
842.503	0.0157619
842.581	0.0157811
842.659	0.0158157
842.737	0.0156183
842.815	0.0157801
842.893	0.0158253
842.971	0.0158167
843.049	0.0157625
843.128	0.0158194
843.206	0.0157440
843.284	0.0158109
843.362	0.0158434
843.440	0.0156632
843.518	0.0157198
843.596	0.0157859
843.674	0.0156666
843.753	0.0157683
843.831	0.0158022
843.909	0.0158097
843.987	0.0158058
844.065	0.0158844
844.143	0.0157609
844.221	0.0157857
844.299	0.0157592
844.378	0.0158005
844.456	0.0158594
844.534	0.0157405
844.612	0.0156560
844.690	0.0157064
844.768	0.0157278
844.846	0.0157957
844.924	0.0158469
845.003	0.0158707
845.081	0.0157887
845.159	0.0157223
845.237	0.0157365
845.315	0.0157527
845.393	0.0156356
845.471	0.0157289
845.549	0.0157349
845.628	0.0156554
845.706	0.0157410
845.784	0.0156464
845.862	0.0155454
845.940	0.0156970
846.018	0.0157279
846.096	0.0158121
846.174	0.0156721
846.253	0.0156917
846.331	0.0157158
846.409	0.0157507
846.487	0.0156228
846.565	0.0156053
846.643	0.0158402
846.721	0.0156771
846.799	0.0157361
846.878	0.0156322
846.956	0.0156445
847.034	0.0156731
847.112	0.0158375
847.190	0.0156219
847.268	0.0157323
847.346	0.0156810
847.424	0.0157443
847.503	0.0155869
847.581	0.0158440
847.659	0.0159702
847.737	0.0157001
847.815	0.0156679
847.893	0.0158073
847.971	0.0156176
848.049	0.0157649
848.128	0.0158119
848.206	0.0157791
848.284	0.0158444
848.362	0.0158252
848.440	0.0157534
848.518	0.0159217
848.596	0.0157877
848.674	0.0157101
848.753	0.0158645
848.831	0.0157206
848.909	0.0157511
848.987	0.0158891
849.065	0.0159212
849.143	0.0158687
849.221	0.0157596
849.299	0.0158300
849.378	0.0158449
849.456	0.0158723
849.534	0.0157687
849.612	0.0158218
849.690	0.0158599
849.768	0.0158235
849.846	0.0158932
849.924	0.0157332
850.003	0.0157116
850.081	0.0158039
850.159	0.0158323
850.237	0.0157661
850.315	0.0158244
850.393	0.0158485
850.471	0.0158641
850.549	0.0157027
850.628	0.0157777
850.706	0.0157230
850.784	0.0158759
850.862	0.0156969
850.940	0.0158708
851.018	0.0158370
851.096	0.0157577
851.174	0.0158220
851.253	0.0158613
851.331	0.0157225
851.409	0.0157745
851.487	0.0155982
851.565	0.0157365
851.643	0.0157380
851.721	0.0158170
851.799	0.0156676
851.878	0.0157423
851.956	0.0158582
852.034	0.0156491
852.112	0.0155415
852.190	0.0158214
852.268	0.0156127
852.346	0.0156909
852.424	0.0157607
852.503	0.0157108
852.581	0.0156055
852.659	0.0155849
852.737	0.0156505
852.815	0.0156366
852.893	0.0157626
852.971	0.0156631
853.049	0.0156174
853.128	0.0155979
853.206	0.0157353
853.284	0.0154407
853.362	0.0156602
853.440	0.0156507
853.518	0.0158765
853.596	0.0157378
853.674	0.0156321
853.753	0.0156903
853.831	0.0157775
853.909	0.0158598
853.987	0.0157384
854.065	0.0157767
854.143	0.0157391
854.221	0.0156941
854.299	0.0156776
854.378	0.0157163
854.456	0.0157573
854.534	0.0156530
854.612	0.0156104
854.690	0.0156048
854.768	0.0155888
854.846	0.0156053
854.924	0.0156487
855.003	0.0158839
855.081	0.0157215
855.159	0.0158050
855.237	0.0157763
855.315	0.0156682
855.393	0.0156761
855.471	0.0156458
855.549	0.0156768
855.628	0.0156736
855.706	0.0157772
855.784	0.0157260
855.862	0.0158040
855.940	0.0158353
856.018	0.0157636
856.096	0.0158182
856.174	0.0158443
856.253	0.0158943
856.331	0.0158538
856.409	0.0158173
856.487	0.0157318
856.565	0.0157650
856.643	0.0156541
856.721	0.0157613
856.799	0.0158412
856.878	0.0156718
856.956	0.0159166
857.034	0.0159003
857.112	0.0158915
857.190	0.0158652
857.268	0.0157540
857.346	0.0158344
857.424	0.0158047
857.503	0.0158097
857.581	0.0158557
857.659	0.0157881
857.737	0.0157828
857.815	0.0158224
857.893	0.0158461
857.971	0.0158499
858.049	0.0159496
858.128	0.0159695
858.206	0.0158298
858.284	0.0159007
858.362	0.0158409
858.440	0.0158117
858.518	0.0158222
858.596	0.0158797
858.674	0.0159496
858.753	0.0158734
858.831	0.0158363
858.909	0.0158169
858.987	0.0157156
859.065	0.0157410
859.143	0.0157964
859.221	0.0157690
859.299	0.0158562
859.378	0.0157702
859.456	0.0156288
859.534	0.0156641
859.612	0.0156809
859.690	0.0156683
859.768	0.0157185
859.846	0.0155823
859.924	0.0155851
860.003	0.0155771
860.081	0.0156884
860.159	0.0156441
860.237	0.0157440
860.315	0.0157359
860.393	0.0157317
860.471	0.0157592
860.549	0.0157383
860.628	0.0155467
860.706	0.0157591
860.784	0.0157304
860.862	0.0156795
860.940	0.0155957
861.018	0.0158131
861.096	0.0157954
861.174	0.0158234
861.253	0.0157755
861.331	0.0157571
861.409	0.0156547
861.487	0.0156697
861.565	0.0156215
861.643	0.0156595
861.721	0.0157552
861.799	0.0156370
861.878	0.0155759
861.956	0.0155634
862.034	0.0156457
862.112	0.0156377
862.190	0.0155364
862.268	0.0156893
862.346	0.0158241
862.424	0.0156196
862.503	0.0156651
862.581	0.0156718
862.659	0.0156378
862.737	0.0156287
862.815	0.0158134
862.893	0.0158160
862.971	0.0157265
863.049	0.0157664
863.128	0.0157492
863.206	0.0156557
863.284	0.0157413
863.362	0.0158426
863.440	0.0157825
863.518	0.0158344
863.596	0.0158033
863.674	0.0156599
863.753	0.0157211
863.831	0.0157955
863.909	0.0158260
863.987	0.0158194
864.065	0.0158142
864.143	0.0156860
864.221	0.0156383
864.299	0.0156590
864.378	0.0156603
864.456	0.0157837
864.534	0.0158035
864.612	0.0158076
864.690	0.0158114
864.768	0.0158208
864.846	0.0156676
864.924	0.0157243
865.003	0.0157562
865.081	0.0156983
865.159	0.0158363
865.237	0.0157450
865.315	0.0156941
865.393	0.0157956
865.471	0.0155541
865.549	0.0156625
865.628	0.0156457
865.706	0.0156776
865.784	0.0157912
865.862	0.0155716
865.940	0.0155981
866.018	0.0157172
866.096	0.0156567
866.174	0.0154930
866.253	0.0155640
866.331	0.0156162
866.409	0.0155883
866.487	0.0154718
866.565	0.0155102
866.643	0.0154986
866.721	0.0156388
866.799	0.0156308
866.878	0.0155952
866.956	0.0158682
867.034	0.0156881
867.112	0.0156541
867.190	0.0158143
867.268	0.0157755
867.346	0.0155765
867.424	0.0156553
867.503	0.0157101
867.581	0.0155805
867.659	0.0157597
867.737	0.0156219
867.815	0.0157572
867.893	0.0156368
867.971	0.0157027
868.049	0.0157426
868.128	0.0156604
868.206	0.0156436
868.284	0.0157924
868.362	0.0156654
868.440	0.0155856
868.518	0.0156920
868.596	0.0156348
868.674	0.0157392
868.753	0.0156529
868.831	0.0156473
868.909	0.0157251
868.987	0.0156982
869.065	0.0156803
869.143	0.0157797
869.221	0.0157012
869.299	0.0157046
869.378	0.0156517
869.456	0.0157286
869.534	0.0157013
869.612	0.0156826
869.690	0.0156217
869.768	0.0156890
869.846	0.0157525
869.924	0.0157108
870.003	0.0157505
870.081	0.0157769
870.159	0.0157317
870.237	0.0157355
870.315	0.0157361
870.393	0.0157796
870.471	0.0157596
870.549	0.0156680
870.628	0.0157253
870.706	0.0158139
870.784	0.0156428
870.862	0.0155857
870.940	0.0156635
871.018	0.0157629
871.096	0.0158564
871.174	0.0156807
871.253	0.0157533
871.331	0.0157748
871.409	0.0156374
871.487	0.0156983
871.565	0.0157553
871.643	0.0156963
871.721	0.0157101
871.799	0.0156294
871.878	0.0156159
871.956	0.0156113
872.034	0.0156862
872.112	0.0156763
872.190	0.0156841
872.268	0.0157565
872.346	0.0158109
872.424	0.0155798
872.503	0.0155659
872.581	0.0156528
872.659	0.0157571
872.737	0.0156970
872.815	0.0157706
872.893	0.0157909
872.971	0.0158846
873.049	0.0155836
873.128	0.0158282
873.206	0.0157098
873.284	0.0157283
873.362	0.0156514
873.440	0.0157724
873.518	0.0159314
873.596	0.0158697
873.674	0.0156846
873.753	0.0157266
873.831	0.0158911
873.909	0.0158463
873.987	0.0156736
874.065	0.0158567
874.143	0.0157710
874.221	0.0157590
874.299	0.0158407
874.378	0.0160500
874.456	0.0158870
874.534	0.0157011
874.612	0.0159124
874.690	0.0157887
874.768	0.0157621
874.846	0.0157476
874.924	0.0156961
875.003	0.0157145
875.081	0.0156812
875.159	0.0155251
875.237	0.0156910
875.315	0.0156457
875.393	0.0156783
875.471	0.0155725
875.549	0.0157705
875.628	0.0155741
875.706	0.0158109
875.784	0.0156433
875.862	0.0156567
875.940	0.0157249
876.018	0.0158858
876.096	0.0156299
876.174	0.0157480
876.253	0.0157664
876.331	0.0158105
876.409	0.0158698
876.487	0.0156828
876.565	0.0157379
876.643	0.0157648
876.721	0.0156725
876.799	0.0158233
876.878	0.0158153
876.956	0.0157243
877.034	0.0157821
877.112	0.0156702
877.190	0.0157709
877.268	0.0157422
877.346	0.0158103
877.424	0.0157076
877.503	0.0157686
877.581	0.0158923
877.659	0.0157612
877.737	0.0159217
877.815	0.0157977
877.893	0.0157419
877.971	0.0157711
878.049	0.0158266
878.128	0.0157819
878.206	0.0157361
878.284	0.0157711
878.362	0.0158038
878.440	0.0158518
878.518	0.0155430
878.596	0.0157434
878.674	0.0157091
878.753	0.0157027
878.831	0.0159020
878.909	0.0158607
878.987	0.0157440
879.065	0.0158926
879.143	0.0157326
879.221	0.0158054
879.299	0.0158152
879.378	0.0158308
879.456	0.0158984
879.534	0.0158011
879.612	0.0157222
879.690	0.0157542
879.768	0.0158300
879.846	0.0158215
879.924	0.0157779
880.003	0.0158273
880.081	0.0157885
880.159	0.0157053
880.237	0.0157369
880.315	0.0157925
880.393	0.0158665
880.471	0.0157632
880.549	0.0156752
880.628	0.0157261
880.706	0.0157690
880.784	0.0157256
880.862	0.0156847
880.940	0.0158018
881.018	0.0158180
881.096	0.0156297
881.174	0.0157548
881.253	0.0156445
881.331	0.0157064
881.409	0.0158036
881.487	0.0157084
881.565	0.0156610
881.643	0.0157153
881.721	0.0155694
881.799	0.0157059
881.878	0.0158630
881.956	0.0156645
882.034	0.0156428
882.112	0.0157322
882.190	0.0157915
882.268	0.0157431
882.346	0.0156786
882.424	0.0157319
882.503	0.0156857
882.581	0.0155817
882.659	0.0157757
882.737	0.0156327
882.815	0.0156709
882.893	0.0155912
882.971	0.0155742
883.049	0.0155953
883.128	0.0155665
883.206	0.0155823
883.284	0.0156017
883.362	0.0156206
883.440	0.0155648
883.518	0.0155215
883.596	0.0155480
883.674	0.0154666
883.753	0.0157476
883.831	0.0157415
883.909	0.0155760
883.987	0.0155116
884.065	0.0157745
884.143	0.0157575
884.221	0.0156663
884.299	0.0156014
884.378	0.0157198
884.456	0.0158533
884.534	0.0157034
884.612	0.0156463
884.690	0.0157802
884.768	0.0157041
884.846	0.0156889
884.924	0.0155646
885.003	0.0156744
885.081	0.0157204
885.159	0.0156860
885.237	0.0157718
885.315	0.0159010
885.393	0.0159052
885.471	0.0156792
885.549	0.0156728
885.628	0.0156552
885.706	0.0158836
885.784	0.0156671
885.862	0.0155941
885.940	0.0156482
886.018	0.0158378
886.096	0.0155322
886.174	0.0156789
886.253	0.0154716
886.331	0.0156815
886.409	0.0156956
886.487	0.0156497
886.565	0.0157172
886.643	0.0156831
886.721	0.0157368
886.799	0.0156536
886.878	0.0156585
886.956	0.0157689
887.034	0.0155573
887.112	0.0157599
887.190	0.0156271
887.268	0.0158754
887.346	0.0156969
887.424	0.0158241
887.503	0.0157340
887.581	0.0156119
887.659	0.0156195
887.737	0.0155783
887.815	0.0156322
887.893	0.0156464
887.971	0.0156143
888.049	0.0156566
888.128	0.0157212
888.206	0.0157447
888.284	0.0156748
888.362	0.0155634
888.440	0.0156021
888.518	0.0155810
888.596	0.0155701
888.674	0.0157919
888.753	0.0155408
888.831	0.0156815
888.909	0.0155782
888.987	0.0158298
889.065	0.0158507
889.143	0.0158877
889.221	0.0156761
889.299	0.0157905
889.378	0.0157687
889.456	0.0158294
889.534	0.0158407
889.612	0.0157620
889.690	0.0157482
889.768	0.0157368
889.846	0.0157724
889.924	0.0158184
890.003	0.0157381
890.081	0.0158633
890.159	0.0159484
890.237	0.0157806
890.315	0.0157813
890.393	0.0157480
890.471	0.0157905
890.549	0.0158362
890.628	0.0158235
890.706	0.0158066
890.784	0.0157857
890.862	0.0157430
890.940	0.0158746
891.018	0.0158639
891.096	0.0158276
891.174	0.0159065
891.253	0.0159405
891.331	0.0157204
891.409	0.0157634
891.487	0.0157581
891.565	0.0158175
891.643	0.0158398
891.721	0.0157979
891.799	0.0157150
891.878	0.0157160
891.956	0.0156908
892.034	0.0157876
892.112	0.0155830
892.190	0.0157977
892.268	0.0156565
892.346	0.0157449
892.424	0.0157140
892.503	0.0156612
892.581	0.0157571
892.659	0.0156276
892.737	0.0157425
892.815	0.0157141
892.893	0.0157285
892.971	0.0156123
893.049	0.0157244
893.128	0.0158020
893.206	0.0156154
893.284	0.0157540
893.362	0.0156620
893.440	0.0157004
893.518	0.0156613
893.596	0.0157322
893.674	0.0156075
893.753	0.0157597
893.831	0.0158176
893.909	0.0157724
893.987	0.0158401
894.065	0.0157997
894.143	0.0157360
894.221	0.0156444
894.299	0.0157288
894.378	0.0158160
894.456	0.0157385
894.534	0.0156860
894.612	0.0158260
894.690	0.0156339
894.768	0.0158498
894.846	0.0157121
894.924	0.0157912
895.003	0.0157594
895.081	0.0155238
895.159	0.0157115
895.237	0.0156899
895.315	0.0158239
895.393	0.0156879
895.471	0.0156516
895.549	0.0158173
895.628	0.0158548
895.706	0.0158006
895.784	0.0157727
895.862	0.0157623
895.940	0.0157347
896.018	0.0158465
896.096	0.0157694
896.174	0.0157520
896.253	0.0158780
896.331	0.0158067
896.409	0.0158498
896.487	0.0158572
896.565	0.0158559
896.643	0.0158155
896.721	0.0156966
896.799	0.0158462
896.878	0.0158833
896.956	0.0156273
897.034	0.0154843
897.112	0.0157062
897.190	0.0158385
897.268	0.0157418
897.346	0.0157064
897.424	0.0156239
897.503	0.0155744
897.581	0.0157384
897.659	0.0156958
897.737	0.0156865
897.815	0.0156887
897.893	0.0158262
897.971	0.0157259
898.049	0.0158857
898.128	0.0157115
898.206	0.0158427
898.284	0.0157645
898.362	0.0158923
898.440	0.0158778
898.518	0.0158392
898.596	0.0157511
898.674	0.0158955
898.753	0.0158696
898.831	0.0156778
898.909	0.0157597
898.987	0.0159507
899.065	0.0158704
899.143	0.0157543
899.221	0.0156645
899.299	0.0157088
899.378	0.0157222
899.456	0.0157340
899.534	0.0157887
899.612	0.0156262
899.690	0.0158745
899.768	0.0157829
899.846	0.0157161
899.924	0.0158512
900.003	0.0159267
900.081	0.0155576
900.159	0.0158441
900.237	0.0158454
900.315	0.0158331
900.393	0.0157209
900.471	0.0157593
900.549	0.0157703
900.628	0.0156699
900.706	0.0156937
900.784	0.0157919
900.862	0.0158811
900.940	0.0157775
901.018	0.0157841
901.096	0.0158636
901.174	0.0157841
901.253	0.0157345
901.331	0.0157787
901.409	0.0157320
901.487	0.0156541
901.565	0.0157007
901.643	0.0158445
901.721	0.0155804
901.799	0.0157035
901.878	0.0157348
901.956	0.0157003
902.034	0.0156606
902.112	0.0156308
902.190	0.0156213
902.268	0.0156760
902.346	0.0156210
902.424	0.0156972
902.503	0.0156556
902.581	0.0155694
902.659	0.0157310
902.737	0.0156280
902.815	0.0156988
902.893	0.0157368
902.971	0.0157636
903.049	0.0156876
903.128	0.0157905
903.206	0.0158463
903.284	0.0157684
903.362	0.0156258
903.440	0.0157875
903.518	0.0158237
903.596	0.0157528
903.674	0.0159212
903.753	0.0158058
903.831	0.0157822
903.909	0.0158193
903.987	0.0158857
904.065	0.0158225
904.143	0.0158586
904.221	0.0158823
904.299	0.0156523
904.378	0.0157515
904.456	0.0157925
904.534	0.0158329
904.612	0.0158737
904.690	0.0159082
904.768	0.0157290
904.846	0.0158064
904.924	0.0158057
905.003	0.0158474
905.081	0.0157240
905.159	0.0158181
905.237	0.0158188
905.315	0.0157392
905.393	0.0158265
905.471	0.0156886
905.549	0.0158096
905.628	0.0158912
905.706	0.0158578
905.784	0.0157460
905.862	0.0158848
905.940	0.0158755
906.018	0.0157181
906.096	0.0157922
906.174	0.0157581
906.253	0.0157093
906.331	0.0157253
906.409	0.0157966
906.487	0.0157550
906.565	0.0157085
906.643	0.0156603
906.721	0.0157885
906.799	0.0157021
906.878	0.0156364
906.956	0.0157980
907.034	0.0156953
907.112	0.0157069
907.190	0.0157620
907.268	0.0155869
907.346	0.0158178
907.424	0.0157038
907.503	0.0158881
907.581	0.0156716
907.659	0.0156078
907.737	0.0157761
907.815	0.0157751
907.893	0.0157076
907.971	0.0156917
908.049	0.0157388
908.128	0.0156730
908.206	0.0157716
908.284	0.0158083
908.362	0.0156895
908.440	0.0157709
908.518	0.0157037
908.596	0.0156918
908.674	0.0158663
908.753	0.0157252
908.831	0.0156760
908.909	0.0156161
908.987	0.0157176
909.065	0.0156746
909.143	0.0155354
909.221	0.0155378
909.299	0.0156017
909.378	0.0155961
909.456	0.0155881
909.534	0.0153850
909.612	0.0155708
909.690	0.0155959
909.768	0.0155878
909.846	0.0157861
909.924	0.0156878
910.003	0.0157073
910.081	0.0156087
910.159	0.0157400
910.237	0.0155630
910.315	0.0155736
910.393	0.0157270
910.471	0.0158379
910.549	0.0158223
910.628	0.0157790
910.706	0.0158318
910.784	0.0157307
910.862	0.0157881
910.940	0.0158814
911.018	0.0157898
911.096	0.0158062
911.174	0.0157761
911.253	0.0157599
911.331	0.0157697
911.409	0.0158596
911.487	0.0157592
911.565	0.0158051
911.643	0.0158282
911.721	0.0158099
911.799	0.0157848
911.878	0.0156268
911.956	0.0156712
912.034	0.0158195
912.112	0.0157098
912.190	0.0156503
912.268	0.0156336
912.346	0.0157613
912.424	0.0158585
912.503	0.0157159
912.581	0.0157387
912.659	0.0157453
912.737	0.0157919
912.815	0.0159283
912.893	0.0157810
912.971	0.0155657
913.049	0.0157049
913.128	0.0158752
913.206	0.0158900
913.284	0.0158823
913.362	0.0158113
913.440	0.0158765
913.518	0.0158499
913.596	0.0157246
913.674	0.0158357
913.753	0.0158163
913.831	0.0157497
913.909	0.0157716
913.987	0.0156952
914.065	0.0158167
914.143	0.0158125
914.221	0.0158309
914.299	0.0157587
914.378	0.0157597
914.456	0.0157628
914.534	0.0157976
914.612	0.0158490
914.690	0.0157902
914.768	0.0157938
914.846	0.0158136
914.924	0.0158450
915.003	0.0159099
915.081	0.0157430
915.159	0.0157014
915.237	0.0159225
915.315	0.0159124
915.393	0.0159012
915.471	0.0157576
915.549	0.0158569
915.628	0.0157132
915.706	0.0158767
915.784	0.0158299
915.862	0.0158050
915.940	0.0156568
916.018	0.0156839
916.096	0.0156996
916.174	0.0156743
916.253	0.0158305
916.331	0.0157056
916.409	0.0155890
916.487	0.0157052
916.565	0.0155452
916.643	0.0157198
916.721	0.0158228
916.799	0.0156187
916.878	0.0157661
916.956	0.0157378
917.034	0.0157170
917.112	0.0156312
917.190	0.0157664
917.268	0.0158720
917.346	0.0155585
917.424	0.0156670
917.503	0.0154793
917.581	0.0157400
917.659	0.0158350
917.737	0.0157108
917.815	0.0156557
917.893	0.0157796
917.971	0.0158309
918.049	0.0157354
918.128	0.0156551
918.206	0.0157966
918.284	0.0156630
918.362	0.0157135
918.440	0.0159072
918.518	0.0156674
918.596	0.0157079
918.674	0.0156705
918.753	0.0157514
918.831	0.0156711
918.909	0.0157951
918.987	0.0156271
919.065	0.0156126
919.143	0.0157992
919.221	0.0157084
919.299	0.0156182
919.378	0.0157490
919.456	0.0157867
919.534	0.0156736
919.612	0.0157575
919.690	0.0156279
919.768	0.0157800
919.846	0.0158074
919.924	0.0158463
920.003	0.0158158
920.081	0.0159081
920.159	0.0157989
920.237	0.0158566
920.315	0.0159037
920.393	0.0158732
920.471	0.0158015
920.549	0.0156899
920.628	0.0157901
920.706	0.0156442
920.784	0.0158454
920.862	0.0157821
920.940	0.0157637
921.018	0.0158731
921.096	0.0159231
921.174	0.0156113
921.253	0.0157768
921.331	0.0157264
921.409	0.0157414
921.487	0.0158466
921.565	0.0158070
921.643	0.0157687
921.721	0.0157591
921.799	0.0157818
921.878	0.0158767
921.956	0.0157974
922.034	0.0157831
922.112	0.0156039
922.190	0.0157407
922.268	0.0159817
922.346	0.0159233
922.424	0.0158715
922.503	0.0158051
922.581	0.0158186
922.659	0.0158236
922.737	0.0157964
922.815	0.0159205
922.893	0.0158544
922.971	0.0157601
923.049	0.0156742
923.128	0.0158244
923.206	0.0157794
923.284	0.0157522
923.362	0.0156906
923.440	0.0157142
923.518	0.0157421
923.596	0.0156225
923.674	0.0158106
923.753	0.0156937
923.831	0.0156889
923.909	0.0157107
923.987	0.0157745
924.065	0.0157794
924.143	0.0156415
924.221	0.0157780
924.299	0.0158351
924.378	0.0155991
924.456	0.0157764
924.534	0.0157540
924.612	0.0158303
924.690	0.0156280
924.768	0.0159124
924.846	0.0157353
924.924	0.0156165
925.003	0.0155196
925.081	0.0156377
925.159	0.0158898
925.237	0.0157358
925.315	0.0157108
925.393	0.0157858
925.471	0.0157820
925.549	0.0158103
925.628	0.0157378
925.706	0.0156696
925.784	0.0156719
925.862	0.0156683
925.940	0.0156923
926.018	0.0155730
926.096	0.0155444
926.174	0.0156310
926.253	0.0157260
926.331	0.0156281
926.409	0.0155791
926.487	0.0158070
926.565	0.0157446
926.643	0.0158086
926.721	0.0157170
926.799	0.0156435
926.878	0.0156097
926.956	0.0157299
927.034	0.0156851
927.112	0.0157361
927.190	0.0157573
927.268	0.0158358
927.346	0.0157848
927.424	0.0156491
927.503	0.0157269
927.581	0.0156795
927.659	0.0157207
927.737	0.0156637
927.815	0.0157399
927.893	0.0158057
927.971	0.0157512
928.049	0.0157780
928.128	0.0156562
928.206	0.0156467
928.284	0.0157526
928.362	0.0155788
928.440	0.0157882
928.518	0.0158699
928.596	0.0158129
928.674	0.0157431
928.753	0.0156955
928.831	0.0157728
928.909	0.0156405
928.987	0.0157293
929.065	0.0158707
929.143	0.0156705
929.221	0.0156606
929.299	0.0157024
929.378	0.0157052
929.456	0.0156793
929.534	0.0158047
929.612	0.0157053
929.690	0.0157004
929.768	0.0156895
929.846	0.0156635
929.924	0.0156806
930.003	0.0155872
930.081	0.0155545
930.159	0.0157593
930.237	0.0156265
930.315	0.0155842
930.393	0.0156371
930.471	0.0155437
930.549	0.0154646
930.628	0.0156471
930.706	0.0155004
930.784	0.0154865
930.862	0.0156282
930.940	0.0157495
931.018	0.0156174
931.096	0.0155825
931.174	0.0156586
931.253	0.0156958
931.331	0.0156921
931.409	0.0156527
931.487	0.0156296
931.565	0.0156506
931.643	0.0156291
931.721	0.0157132
931.799	0.0158048
931.878	0.0157088
931.956	0.0157503
932.034	0.0157504
932.112	0.0156620
932.190	0.0156619
932.268	0.0157195
932.346	0.0157776
932.424	0.0156040
932.503	0.0158815
932.581	0.0157700
932.659	0.0156757
932.737	0.0157065
932.815	0.0158749
932.893	0.0156682
932.971	0.0157101
933.049	0.0159229
933.128	0.0159087
933.206	0.0158322
933.284	0.0158309
933.362	0.0157837
933.440	0.0158698
933.518	0.0157049
933.596	0.0158208
933.674	0.0157176
933.753	0.0157552
933.831	0.0159044
933.909	0.0157616
933.987	0.0157433
934.065	0.0158274
934.143	0.0159185
934.221	0.0157829
934.299	0.0157299
934.378	0.0158992
934.456	0.0158605
934.534	0.0158054
934.612	0.0158276
934.690	0.0157933
934.768	0.0157553
934.846	0.0156894
934.924	0.0158350
935.003	0.0157815
935.081	0.0157981
935.159	0.0156972
935.237	0.0156060
935.315	0.0157864
935.393	0.0155796
935.471	0.0157418
935.549	0.0158318
935.628	0.0157140
935.706	0.0157526
935.784	0.0156305
935.862	0.0157997
935.940	0.0157282
936.018	0.0156844
936.096	0.0157147
936.174	0.0157423
936.253	0.0157964
936.331	0.0156774
936.409	0.0157216
936.487	0.0158258
936.565	0.0158060
936.643	0.0156724
936.721	0.0157080
936.799	0.0158041
936.878	0.0157977
936.956	0.0156396
937.034	0.0155916
937.112	0.0157661
937.190	0.0157847
937.268	0.0157285
937.346	0.0157366
937.424	0.0157389
937.503	0.0157093
937.581	0.0156102
937.659	0.0157595
937.737	0.0157371
937.815	0.0157286
937.893	0.0156979
937.971	0.0157249
938.049	0.0157584
938.128	0.0158586
938.206	0.0158464
938.284	0.0158489
938.362	0.0157323
938.440	0.0159424
938.518	0.0158395
938.596	0.0159446
938.674	0.0157367
938.753	0.0157083
938.831	0.0159154
938.909	0.0158054
938.987	0.0159588
939.065	0.0159231
939.143	0.0158548
939.221	0.0159187
939.299	0.0157735
939.378	0.0159206
939.456	0.0158621
939.534	0.0157394
939.612	0.0159276
939.690	0.0157275
939.768	0.0157550
939.846	0.0158547
939.924	0.0158088
940.003	0.0160287
940.081	0.0159289
940.159	0.0158179
940.237	0.0157210
940.315	0.0159782
940.393	0.0158077
940.471	0.0159258
940.549	0.0158714
940.628	0.0158575
940.706	0.0157132
940.784	0.0159274
940.862	0.0158853
940.940	0.0156779
941.018	0.0157278
941.096	0.0157854
941.174	0.0157083
941.253	0.0158506
941.331	0.0157889
941.409	0.0157167
941.487	0.0157552
941.565	0.0157005
941.643	0.0157092
941.721	0.0155626
941.799	0.0155836
941.878	0.0156876
941.956	0.0156344
942.034	0.0156193
942.112	0.0156403
942.190	0.0156360
942.268	0.0156752
942.346	0.0157038
942.424	0.0156667
942.503	0.0156862
942.581	0.0157383
942.659	0.0155892
942.737	0.0155970
942.815	0.0155291
942.893	0.0156817
942.971	0.0156635
943.049	0.0156152
943.128	0.0156371
943.206	0.0156404
943.284	0.0156574
943.362	0.0156999
943.440	0.0155814
943.518	0.0157014
943.596	0.0157011
943.674	0.0156575
943.753	0.0156290
943.831	0.0155631
943.909	0.0157778
943.987	0.0156409
944.065	0.0155618
944.143	0.0156348
944.221	0.0156532
944.299	0.0156719
944.378	0.0157262
944.456	0.0157079
944.534	0.0157333
944.612	0.0156924
944.690	0.0157398
944.768	0.0156667
944.846	0.0158471
944.924	0.0157060
945.003	0.0158218
945.081	0.0158396
945.159	0.0156249
945.237	0.0156668
945.315	0.0155798
945.393	0.0159072
945.471	0.0156628
945.549	0.0156869
945.628	0.0157256
945.706	0.0157680
945.784	0.0158228
945.862	0.0159631
945.940	0.0158219
946.018	0.0156458
946.096	0.0158709
946.174	0.0158608
946.253	0.0158143
946.331	0.0157517
946.409	0.0158630
946.487	0.0157434
946.565	0.0158311
946.643	0.0157495
946.721	0.0157253
946.799	0.0159915
946.878	0.0157027
946.956	0.0157509
947.034	0.0157026
947.112	0.0157341
947.190	0.0157574
947.268	0.0158445
947.346	0.0156884
947.424	0.0156738
947.503	0.0157534
947.581	0.0156425
947.659	0.0156705
947.737	0.0158599
947.815	0.0155797
947.893	0.0156280
947.971	0.0157105
948.049	0.0156448
948.128	0.0157239
948.206	0.0156680
948.284	0.0155960
948.362	0.0155164
948.440	0.0156354
948.518	0.0156706
948.596	0.0155791
948.674	0.0156223
948.753	0.0156490
948.831	0.0156323
948.909	0.0155040
948.987	0.0156066
949.065	0.0155505
949.143	0.0156123
949.221	0.0155856
949.299	0.0155195
949.378	0.0155064
949.456	0.0156002
949.534	0.0156535
949.612	0.0155939
949.690	0.0155764
949.768	0.0156615
949.846	0.0156820
949.924	0.0157231
