05/19/2022	00:47:53	Ver.	4.1	UNKNOWN
Optical Delay	630.002507	Delta X		0.078125	Sweeps	1	Scan Rate	0/0
Coordinates	Axis 1	NaN	Axis 2	NaN	Axis 3	NaN	Axis 4	NaN	Axis 5	NaN	Axis 6	0.000000
TX Power	0.000000	RX Power	0.000000

630.003	0.0157914
630.081	0.0158688
630.159	0.0158646
630.237	0.0159061
630.315	0.0158207
630.393	0.0157999
630.471	0.0159119
630.549	0.0158862
630.628	0.0159005
630.706	0.0159290
630.784	0.0158816
630.862	0.0158205
630.940	0.0158743
631.018	0.0158810
631.096	0.0159286
631.174	0.0159135
631.253	0.0158812
631.331	0.0157704
631.409	0.0157323
631.487	0.0158693
631.565	0.0159600
631.643	0.0159735
631.721	0.0157976
631.799	0.0158292
631.878	0.0159361
631.956	0.0159901
632.034	0.0159335
632.112	0.0157286
632.190	0.0159428
632.268	0.0158221
632.346	0.0159532
632.424	0.0159549
632.503	0.0160891
632.581	0.0159213
632.659	0.0158335
632.737	0.0159538
632.815	0.0158134
632.893	0.0158180
632.971	0.0159903
633.049	0.0159888
633.128	0.0158999
633.206	0.0158361
633.284	0.0159161
633.362	0.0158545
633.440	0.0159380
633.518	0.0158740
633.596	0.0158538
633.674	0.0158227
633.753	0.0160110
633.831	0.0159202
633.909	0.0159573
633.987	0.0160115
634.065	0.0159397
634.143	0.0158273
634.221	0.0160135
634.299	0.0160191
634.378	0.0160207
634.456	0.0159719
634.534	0.0159581
634.612	0.0160504
634.690	0.0159612
634.768	0.0158873
634.846	0.0158810
634.924	0.0158696
635.003	0.0160342
635.081	0.0160856
635.159	0.0159372
635.237	0.0159087
635.315	0.0159556
635.393	0.0160574
635.471	0.0160827
635.549	0.0159788
635.628	0.0160084
635.706	0.0158753
635.784	0.0159427
635.862	0.0158906
635.940	0.0160448
636.018	0.0158467
636.096	0.0159889
636.174	0.0160908
636.253	0.0159035
636.331	0.0160423
636.409	0.0160286
636.487	0.0160051
636.565	0.0161271
636.643	0.0160011
636.721	0.0160942
636.799	0.0159712
636.878	0.0159335
636.956	0.0159966
637.034	0.0159730
637.112	0.0160381
637.190	0.0159851
637.268	0.0159781
637.346	0.0160889
637.424	0.0159757
637.503	0.0160751
637.581	0.0160282
637.659	0.0159251
637.737	0.0161545
637.815	0.0160292
637.893	0.0159611
637.971	0.0161074
638.049	0.0160522
638.128	0.0160829
638.206	0.0161192
638.284	0.0159602
638.362	0.0159695
638.440	0.0160160
638.518	0.0160398
638.596	0.0158379
638.674	0.0159614
638.753	0.0160071
638.831	0.0159289
638.909	0.0159909
638.987	0.0159969
639.065	0.0159741
639.143	0.0158633
639.221	0.0158997
639.299	0.0160262
639.378	0.0160388
639.456	0.0159084
639.534	0.0158733
639.612	0.0160218
639.690	0.0159892
639.768	0.0159403
639.846	0.0158492
639.924	0.0159254
640.003	0.0160883
640.081	0.0159008
640.159	0.0158824
640.237	0.0159904
640.315	0.0160250
640.393	0.0161020
640.471	0.0159659
640.549	0.0160040
640.628	0.0159285
640.706	0.0158969
640.784	0.0159586
640.862	0.0159919
640.940	0.0161050
641.018	0.0160129
641.096	0.0159280
641.174	0.0158296
641.253	0.0159415
641.331	0.0159190
641.409	0.0159297
641.487	0.0159495
641.565	0.0159051
641.643	0.0159370
641.721	0.0159503
641.799	0.0159241
641.878	0.0158511
641.956	0.0158870
642.034	0.0160004
642.112	0.0159842
642.190	0.0160574
642.268	0.0160844
642.346	0.0159406
642.424	0.0157858
642.503	0.0159421
642.581	0.0159854
642.659	0.0158608
642.737	0.0158316
642.815	0.0159444
642.893	0.0159344
642.971	0.0158912
643.049	0.0158488
643.128	0.0157774
643.206	0.0158221
643.284	0.0157936
643.362	0.0157732
643.440	0.0159495
643.518	0.0160444
643.596	0.0159711
643.674	0.0158239
643.753	0.0158514
643.831	0.0158527
643.909	0.0159293
643.987	0.0161479
644.065	0.0158184
644.143	0.0157250
644.221	0.0159280
644.299	0.0158542
644.378	0.0157824
644.456	0.0158722
644.534	0.0157137
644.612	0.0159088
644.690	0.0159758
644.768	0.0158096
644.846	0.0158736
644.924	0.0158333
645.003	0.0157560
645.081	0.0158124
645.159	0.0157758
645.237	0.0157522
645.315	0.0157975
645.393	0.0158720
645.471	0.0157584
645.549	0.0158089
645.628	0.0157545
645.706	0.0156931
645.784	0.0157659
645.862	0.0158015
645.940	0.0158109
646.018	0.0158701
646.096	0.0157703
646.174	0.0157832
646.253	0.0159367
646.331	0.0159195
646.409	0.0158399
646.487	0.0158869
646.565	0.0157516
646.643	0.0159057
646.721	0.0158121
646.799	0.0158060
646.878	0.0158127
646.956	0.0158368
647.034	0.0157087
647.112	0.0157678
647.190	0.0156860
647.268	0.0158710
647.346	0.0158578
647.424	0.0157732
647.503	0.0157424
647.581	0.0157725
647.659	0.0157318
647.737	0.0158859
647.815	0.0158153
647.893	0.0158039
647.971	0.0157121
648.049	0.0157331
648.128	0.0157657
648.206	0.0156759
648.284	0.0157687
648.362	0.0157223
648.440	0.0157557
648.518	0.0158303
648.596	0.0158032
648.674	0.0157230
648.753	0.0157125
648.831	0.0157452
648.909	0.0156571
648.987	0.0158453
649.065	0.0158530
649.143	0.0157785
649.221	0.0157412
649.299	0.0157433
649.378	0.0158109
649.456	0.0157826
649.534	0.0156253
649.612	0.0157024
649.690	0.0157491
649.768	0.0158041
649.846	0.0158081
649.924	0.0156590
650.003	0.0157157
650.081	0.0158337
650.159	0.0158158
650.237	0.0156908
650.315	0.0157954
650.393	0.0157687
650.471	0.0161072
650.549	0.0158717
650.628	0.0158365
650.706	0.0157302
650.784	0.0157446
650.862	0.0158395
650.940	0.0158657
651.018	0.0157093
651.096	0.0157311
651.174	0.0158975
651.253	0.0158147
651.331	0.0156845
651.409	0.0158117
651.487	0.0158439
651.565	0.0157343
651.643	0.0156868
651.721	0.0157058
651.799	0.0158249
651.878	0.0158051
651.956	0.0158703
652.034	0.0158812
652.112	0.0159071
652.190	0.0158511
652.268	0.0157755
652.346	0.0157813
652.424	0.0159055
652.503	0.0158060
652.581	0.0158273
652.659	0.0159328
652.737	0.0158178
652.815	0.0157190
652.893	0.0158884
652.971	0.0159332
653.049	0.0157359
653.128	0.0157745
653.206	0.0157585
653.284	0.0157365
653.362	0.0157220
653.440	0.0159224
653.518	0.0158041
653.596	0.0158370
653.674	0.0160107
653.753	0.0157653
653.831	0.0158492
653.909	0.0159039
653.987	0.0159407
654.065	0.0160323
654.143	0.0159909
654.221	0.0159159
654.299	0.0159792
654.378	0.0159447
654.456	0.0159933
654.534	0.0159750
654.612	0.0159081
654.690	0.0158826
654.768	0.0160055
654.846	0.0159308
654.924	0.0158675
655.003	0.0158582
655.081	0.0158543
655.159	0.0158150
655.237	0.0159900
655.315	0.0159129
655.393	0.0158841
655.471	0.0159592
655.549	0.0157819
655.628	0.0158312
655.706	0.0159106
655.784	0.0159660
655.862	0.0160098
655.940	0.0160522
656.018	0.0161600
656.096	0.0159804
656.174	0.0160068
656.253	0.0160847
656.331	0.0159600
656.409	0.0160533
656.487	0.0159946
656.565	0.0159754
656.643	0.0160928
656.721	0.0159151
656.799	0.0159482
656.878	0.0159845
656.956	0.0159847
657.034	0.0160767
657.112	0.0158740
657.190	0.0160126
657.268	0.0159502
657.346	0.0159203
657.424	0.0159629
657.503	0.0159135
657.581	0.0158710
657.659	0.0158894
657.737	0.0158517
657.815	0.0159652
657.893	0.0160564
657.971	0.0159068
658.049	0.0158839
658.128	0.0158788
658.206	0.0160369
658.284	0.0159698
658.362	0.0159252
658.440	0.0159785
658.518	0.0159389
658.596	0.0159893
658.674	0.0158735
658.753	0.0159380
658.831	0.0160345
658.909	0.0159339
658.987	0.0158955
659.065	0.0158916
659.143	0.0157253
659.221	0.0159104
659.299	0.0159205
659.378	0.0157584
659.456	0.0157250
659.534	0.0157114
659.612	0.0158028
659.690	0.0157153
659.768	0.0157703
659.846	0.0157549
659.924	0.0155584
660.003	0.0155045
660.081	0.0155191
660.159	0.0157171
660.237	0.0156392
660.315	0.0156422
660.393	0.0157948
660.471	0.0157630
660.549	0.0158695
660.628	0.0158461
660.706	0.0158915
660.784	0.0158419
660.862	0.0160027
660.940	0.0159000
661.018	0.0160801
661.096	0.0158607
661.174	0.0159373
661.253	0.0159739
661.331	0.0159490
661.409	0.0159515
661.487	0.0158581
661.565	0.0160585
661.643	0.0158743
661.721	0.0158532
661.799	0.0159627
661.878	0.0158588
661.956	0.0159012
662.034	0.0159550
662.112	0.0159322
662.190	0.0159107
662.268	0.0159876
662.346	0.0160435
662.424	0.0159722
662.503	0.0159472
662.581	0.0160014
662.659	0.0160139
662.737	0.0159959
662.815	0.0159358
662.893	0.0159499
662.971	0.0159889
663.049	0.0159811
663.128	0.0159171
663.206	0.0160345
663.284	0.0160490
663.362	0.0161120
663.440	0.0161898
663.518	0.0159566
663.596	0.0160722
663.674	0.0159536
663.753	0.0160390
663.831	0.0160119
663.909	0.0160426
663.987	0.0161198
664.065	0.0160107
664.143	0.0158807
664.221	0.0161379
664.299	0.0160890
664.378	0.0159899
664.456	0.0159097
664.534	0.0159990
664.612	0.0160989
664.690	0.0158981
664.768	0.0159708
664.846	0.0159892
664.924	0.0161165
665.003	0.0159673
665.081	0.0159851
665.159	0.0159449
665.237	0.0158299
665.315	0.0158941
665.393	0.0161418
665.471	0.0160593
665.549	0.0161135
665.628	0.0160133
665.706	0.0160856
665.784	0.0161977
665.862	0.0160686
665.940	0.0160074
666.018	0.0159352
666.096	0.0158939
666.174	0.0160061
666.253	0.0159173
666.331	0.0159012
666.409	0.0158263
666.487	0.0156931
666.565	0.0159308
666.643	0.0156680
666.721	0.0156512
666.799	0.0157403
666.878	0.0157613
666.956	0.0157738
667.034	0.0157694
667.112	0.0158742
667.190	0.0158548
667.268	0.0158482
667.346	0.0158395
667.424	0.0158429
667.503	0.0159315
667.581	0.0159531
667.659	0.0157739
667.737	0.0158939
667.815	0.0159022
667.893	0.0157970
667.971	0.0157855
668.049	0.0158331
668.128	0.0158440
668.206	0.0157741
668.284	0.0157040
668.362	0.0158086
668.440	0.0157639
668.518	0.0156770
668.596	0.0156348
668.674	0.0156348
668.753	0.0156437
668.831	0.0157212
668.909	0.0156853
668.987	0.0156704
669.065	0.0156243
669.143	0.0156365
669.221	0.0157039
669.299	0.0156202
669.378	0.0158828
669.456	0.0158443
669.534	0.0158867
669.612	0.0158041
669.690	0.0158136
669.768	0.0159104
669.846	0.0159400
669.924	0.0160094
670.003	0.0159459
670.081	0.0159673
670.159	0.0160100
670.237	0.0161071
670.315	0.0160310
670.393	0.0159377
670.471	0.0160120
670.549	0.0159311
670.628	0.0160972
670.706	0.0159169
670.784	0.0158566
670.862	0.0157645
670.940	0.0156944
671.018	0.0157813
671.096	0.0157969
671.174	0.0158517
671.253	0.0157363
671.331	0.0156698
671.409	0.0156340
671.487	0.0156501
671.565	0.0157882
671.643	0.0157958
671.721	0.0158451
671.799	0.0158691
671.878	0.0158804
671.956	0.0160435
672.034	0.0158293
672.112	0.0159282
672.190	0.0160203
672.268	0.0160562
672.346	0.0161580
672.424	0.0159932
672.503	0.0160532
672.581	0.0160479
672.659	0.0160361
672.737	0.0161469
672.815	0.0161810
672.893	0.0160658
672.971	0.0160200
673.049	0.0159689
673.128	0.0159074
673.206	0.0160003
673.284	0.0159689
673.362	0.0160328
673.440	0.0158856
673.518	0.0160337
673.596	0.0159858
673.674	0.0160551
673.753	0.0160642
673.831	0.0159814
673.909	0.0159816
673.987	0.0159649
674.065	0.0158275
674.143	0.0158577
674.221	0.0157241
674.299	0.0157896
674.378	0.0157424
674.456	0.0158903
674.534	0.0157220
674.612	0.0157314
674.690	0.0157414
674.768	0.0156908
674.846	0.0157772
674.924	0.0157379
675.003	0.0157284
675.081	0.0158492
675.159	0.0158167
675.237	0.0158943
675.315	0.0159448
675.393	0.0158675
675.471	0.0158781
675.549	0.0158397
675.628	0.0158633
675.706	0.0160029
675.784	0.0158530
675.862	0.0156693
675.940	0.0159869
676.018	0.0159440
676.096	0.0157591
676.174	0.0157822
676.253	0.0159096
676.331	0.0159232
676.409	0.0159514
676.487	0.0158924
676.565	0.0158610
676.643	0.0158855
676.721	0.0160049
676.799	0.0159500
676.878	0.0158398
676.956	0.0159186
677.034	0.0157741
677.112	0.0158017
677.190	0.0157771
677.268	0.0156793
677.346	0.0155692
677.424	0.0157095
677.503	0.0157672
677.581	0.0156563
677.659	0.0156284
677.737	0.0156538
677.815	0.0156769
677.893	0.0156641
677.971	0.0156855
678.049	0.0157251
678.128	0.0157745
678.206	0.0156948
678.284	0.0155771
678.362	0.0156308
678.440	0.0157568
678.518	0.0157243
678.596	0.0156996
678.674	0.0156134
678.753	0.0157388
678.831	0.0158560
678.909	0.0158672
678.987	0.0158313
679.065	0.0157909
679.143	0.0159408
679.221	0.0159174
679.299	0.0159797
679.378	0.0159003
679.456	0.0158418
679.534	0.0158780
679.612	0.0158289
679.690	0.0160085
679.768	0.0161221
679.846	0.0160572
679.924	0.0161742
680.003	0.0160146
680.081	0.0160411
680.159	0.0161640
680.237	0.0161286
680.315	0.0159954
680.393	0.0159528
680.471	0.0160085
680.549	0.0158844
680.628	0.0158377
680.706	0.0156792
680.784	0.0156389
680.862	0.0156763
680.940	0.0155049
681.018	0.0153996
681.096	0.0154143
681.174	0.0155093
681.253	0.0155391
681.331	0.0153882
681.409	0.0155543
681.487	0.0157046
681.565	0.0157279
681.643	0.0155917
681.721	0.0157629
681.799	0.0157578
681.878	0.0158207
681.956	0.0157523
682.034	0.0158755
682.112	0.0160539
682.190	0.0159702
682.268	0.0160832
682.346	0.0161423
682.424	0.0162104
682.503	0.0161365
682.581	0.0162083
682.659	0.0161815
682.737	0.0163179
682.815	0.0162553
682.893	0.0161446
682.971	0.0162080
683.049	0.0162387
683.128	0.0162178
683.206	0.0161845
683.284	0.0159931
683.362	0.0161778
683.440	0.0161699
683.518	0.0161608
683.596	0.0159649
683.674	0.0158399
683.753	0.0159352
683.831	0.0160589
683.909	0.0159573
683.987	0.0158879
684.065	0.0159549
684.143	0.0159544
684.221	0.0158979
684.299	0.0159875
684.378	0.0158711
684.456	0.0157703
684.534	0.0158498
684.612	0.0158939
684.690	0.0158270
684.768	0.0159093
684.846	0.0159215
684.924	0.0158637
685.003	0.0158092
685.081	0.0159359
685.159	0.0159987
685.237	0.0159766
685.315	0.0159613
685.393	0.0159389
685.471	0.0160962
685.549	0.0160326
685.628	0.0160684
685.706	0.0160770
685.784	0.0160889
685.862	0.0160025
685.940	0.0160880
686.018	0.0160901
686.096	0.0160985
686.174	0.0160277
686.253	0.0161058
686.331	0.0159161
686.409	0.0158639
686.487	0.0158441
686.565	0.0159343
686.643	0.0157430
686.721	0.0156922
686.799	0.0157192
686.878	0.0158113
686.956	0.0156358
687.034	0.0157763
687.112	0.0156364
687.190	0.0156467
687.268	0.0158543
687.346	0.0157465
687.424	0.0154775
687.503	0.0157623
687.581	0.0155955
687.659	0.0157174
687.737	0.0156230
687.815	0.0156822
687.893	0.0157086
687.971	0.0157403
688.049	0.0155783
688.128	0.0156421
688.206	0.0156328
688.284	0.0157037
688.362	0.0158492
688.440	0.0158673
688.518	0.0157545
688.596	0.0155753
688.674	0.0156240
688.753	0.0156696
688.831	0.0156642
688.909	0.0156620
688.987	0.0158452
689.065	0.0157312
689.143	0.0156857
689.221	0.0155293
689.299	0.0157458
689.378	0.0157525
689.456	0.0157818
689.534	0.0158225
689.612	0.0158162
689.690	0.0158267
689.768	0.0160843
689.846	0.0160588
689.924	0.0159517
690.003	0.0160547
690.081	0.0162094
690.159	0.0161649
690.237	0.0160814
690.315	0.0161133
690.393	0.0160503
690.471	0.0161927
690.549	0.0161437
690.628	0.0161216
690.706	0.0161702
690.784	0.0160400
690.862	0.0160196
690.940	0.0157726
691.018	0.0158335
691.096	0.0158009
691.174	0.0158082
691.253	0.0156777
691.331	0.0157985
691.409	0.0157137
691.487	0.0156438
691.565	0.0155678
691.643	0.0158038
691.721	0.0158316
691.799	0.0157612
691.878	0.0158012
691.956	0.0159061
692.034	0.0160126
692.112	0.0159925
692.190	0.0160100
692.268	0.0159032
692.346	0.0161477
692.424	0.0160802
692.503	0.0160802
692.581	0.0163228
692.659	0.0161143
692.737	0.0160415
692.815	0.0161093
692.893	0.0160591
692.971	0.0160258
693.049	0.0160880
693.128	0.0159882
693.206	0.0160571
693.284	0.0159000
693.362	0.0159659
693.440	0.0157699
693.518	0.0157813
693.596	0.0156451
693.674	0.0157796
693.753	0.0156718
693.831	0.0157343
693.909	0.0156519
693.987	0.0158165
694.065	0.0157548
694.143	0.0157456
694.221	0.0158759
694.299	0.0157817
694.378	0.0158651
694.456	0.0158611
694.534	0.0158194
694.612	0.0158443
694.690	0.0158050
694.768	0.0156866
694.846	0.0158084
694.924	0.0158801
695.003	0.0158077
695.081	0.0157230
695.159	0.0158859
695.237	0.0157259
695.315	0.0156245
695.393	0.0156087
695.471	0.0157073
695.549	0.0157343
695.628	0.0156540
695.706	0.0156306
695.784	0.0157428
695.862	0.0156568
695.940	0.0156700
696.018	0.0158158
696.096	0.0157550
696.174	0.0157928
696.253	0.0157822
696.331	0.0156827
696.409	0.0158748
696.487	0.0159917
696.565	0.0160973
696.643	0.0161179
696.721	0.0160361
696.799	0.0161935
696.878	0.0161552
696.956	0.0161041
697.034	0.0163828
697.112	0.0163150
697.190	0.0162501
697.268	0.0163041
697.346	0.0162360
697.424	0.0162560
697.503	0.0161803
697.581	0.0162100
697.659	0.0161852
697.737	0.0161287
697.815	0.0161749
697.893	0.0160590
697.971	0.0159640
698.049	0.0158907
698.128	0.0159326
698.206	0.0159257
698.284	0.0158288
698.362	0.0159380
698.440	0.0158080
698.518	0.0158651
698.596	0.0158707
698.674	0.0158643
698.753	0.0159579
698.831	0.0159219
698.909	0.0159792
698.987	0.0160372
699.065	0.0159894
699.143	0.0159334
699.221	0.0159863
699.299	0.0160567
699.378	0.0159743
699.456	0.0159148
699.534	0.0158907
699.612	0.0157613
699.690	0.0157776
699.768	0.0157657
699.846	0.0157018
699.924	0.0157433
700.003	0.0157050
700.081	0.0157043
700.159	0.0156516
700.237	0.0156455
700.315	0.0155505
700.393	0.0155200
700.471	0.0154188
700.549	0.0155682
700.628	0.0155403
700.706	0.0155850
700.784	0.0154482
700.862	0.0154045
700.940	0.0154769
701.018	0.0155894
701.096	0.0155029
701.174	0.0156099
701.253	0.0155983
701.331	0.0154559
701.409	0.0155042
701.487	0.0154327
701.565	0.0154055
701.643	0.0155748
701.721	0.0156168
701.799	0.0156829
701.878	0.0156483
701.956	0.0155474
702.034	0.0156747
702.112	0.0157434
702.190	0.0159299
702.268	0.0158450
702.346	0.0157897
702.424	0.0158298
702.503	0.0159930
702.581	0.0159480
702.659	0.0160551
702.737	0.0160417
702.815	0.0163167
702.893	0.0163918
702.971	0.0164180
703.049	0.0162227
703.128	0.0162914
703.206	0.0166396
703.284	0.0164822
703.362	0.0165742
703.440	0.0165491
703.518	0.0164995
703.596	0.0164368
703.674	0.0164573
703.753	0.0166431
703.831	0.0165371
703.909	0.0163942
703.987	0.0164154
704.065	0.0164587
704.143	0.0163243
704.221	0.0163824
704.299	0.0163876
704.378	0.0162585
704.456	0.0163307
704.534	0.0163156
704.612	0.0161295
704.690	0.0161291
704.768	0.0161017
704.846	0.0160078
704.924	0.0158804
705.003	0.0158593
705.081	0.0158788
705.159	0.0159041
705.237	0.0158916
705.315	0.0158102
705.393	0.0156709
705.471	0.0156148
705.549	0.0157417
705.628	0.0155843
705.706	0.0157728
705.784	0.0156957
705.862	0.0156617
705.940	0.0155971
706.018	0.0154411
706.096	0.0155914
706.174	0.0155918
706.253	0.0155032
706.331	0.0154219
706.409	0.0154018
706.487	0.0155265
706.565	0.0153722
706.643	0.0153770
706.721	0.0153207
706.799	0.0153123
706.878	0.0152743
706.956	0.0153434
707.034	0.0154049
707.112	0.0153033
707.190	0.0152586
707.268	0.0154210
707.346	0.0155060
707.424	0.0155112
707.503	0.0153940
707.581	0.0154324
707.659	0.0154868
707.737	0.0156233
707.815	0.0155214
707.893	0.0156333
707.971	0.0155869
708.049	0.0156635
708.128	0.0155348
708.206	0.0156728
708.284	0.0156966
708.362	0.0158523
708.440	0.0157809
708.518	0.0157890
708.596	0.0159598
708.674	0.0160592
708.753	0.0162070
708.831	0.0161394
708.909	0.0163271
708.987	0.0162413
709.065	0.0162894
709.143	0.0164400
709.221	0.0165768
709.299	0.0166187
709.378	0.0165556
709.456	0.0165028
709.534	0.0166922
709.612	0.0166049
709.690	0.0164291
709.768	0.0164767
709.846	0.0164025
709.924	0.0165083
710.003	0.0164967
710.081	0.0163747
710.159	0.0163657
710.237	0.0161970
710.315	0.0163180
710.393	0.0164312
710.471	0.0164372
710.549	0.0163470
710.628	0.0162577
710.706	0.0162211
710.784	0.0160153
710.862	0.0159732
710.940	0.0161609
711.018	0.0159530
711.096	0.0160217
711.174	0.0159213
711.253	0.0159307
711.331	0.0158726
711.409	0.0159707
711.487	0.0159186
711.565	0.0159849
711.643	0.0158278
711.721	0.0159020
711.799	0.0159195
711.878	0.0158921
711.956	0.0157673
712.034	0.0158845
712.112	0.0157928
712.190	0.0156454
712.268	0.0156611
712.346	0.0155964
712.424	0.0157182
712.503	0.0156556
712.581	0.0153949
712.659	0.0154747
712.737	0.0154092
712.815	0.0155533
712.893	0.0155025
712.971	0.0154198
713.049	0.0154874
713.128	0.0155547
713.206	0.0155561
713.284	0.0155897
713.362	0.0156025
713.440	0.0156698
713.518	0.0157578
713.596	0.0157867
713.674	0.0157891
713.753	0.0158195
713.831	0.0157587
713.909	0.0157295
713.987	0.0157297
714.065	0.0156414
714.143	0.0155543
714.221	0.0156729
714.299	0.0155779
714.378	0.0155757
714.456	0.0155586
714.534	0.0156037
714.612	0.0155746
714.690	0.0154919
714.768	0.0156898
714.846	0.0157006
714.924	0.0156606
715.003	0.0156719
715.081	0.0157980
715.159	0.0156960
715.237	0.0156842
715.315	0.0157018
715.393	0.0158983
715.471	0.0158662
715.549	0.0158270
715.628	0.0159502
715.706	0.0159103
715.784	0.0159831
715.862	0.0161037
715.940	0.0161371
716.018	0.0163046
716.096	0.0163087
716.174	0.0163698
716.253	0.0162540
716.331	0.0163886
716.409	0.0164680
716.487	0.0164208
716.565	0.0164294
716.643	0.0164745
716.721	0.0163232
716.799	0.0163849
716.878	0.0163654
716.956	0.0162587
717.034	0.0161763
717.112	0.0162302
717.190	0.0162373
717.268	0.0161286
717.346	0.0161634
717.424	0.0160770
717.503	0.0158916
717.581	0.0160311
717.659	0.0161329
717.737	0.0159488
717.815	0.0160177
717.893	0.0160709
717.971	0.0160194
718.049	0.0159869
718.128	0.0159077
718.206	0.0158817
718.284	0.0160099
718.362	0.0160905
718.440	0.0157961
718.518	0.0157809
718.596	0.0157918
718.674	0.0159406
718.753	0.0160754
718.831	0.0158025
718.909	0.0158309
718.987	0.0159795
719.065	0.0160306
719.143	0.0159645
719.221	0.0159870
719.299	0.0159203
719.378	0.0159087
719.456	0.0158226
719.534	0.0157769
719.612	0.0156600
719.690	0.0156832
719.768	0.0157228
719.846	0.0155209
719.924	0.0156272
720.003	0.0154095
720.081	0.0155820
720.159	0.0154530
720.237	0.0154126
720.315	0.0153182
720.393	0.0152422
720.471	0.0152267
720.549	0.0151993
720.628	0.0152820
720.706	0.0152952
720.784	0.0153664
720.862	0.0154440
720.940	0.0155199
721.018	0.0154825
721.096	0.0157481
721.174	0.0157217
721.253	0.0155661
721.331	0.0157291
721.409	0.0156278
721.487	0.0155869
721.565	0.0155857
721.643	0.0156621
721.721	0.0156226
721.799	0.0155671
721.878	0.0155959
721.956	0.0157906
722.034	0.0158080
722.112	0.0158832
722.190	0.0158027
722.268	0.0159320
722.346	0.0160769
722.424	0.0160636
722.503	0.0162289
722.581	0.0162283
722.659	0.0162143
722.737	0.0161723
722.815	0.0163232
722.893	0.0163412
722.971	0.0161606
723.049	0.0164266
723.128	0.0164539
723.206	0.0164644
723.284	0.0165223
723.362	0.0164360
723.440	0.0164939
723.518	0.0163841
723.596	0.0163433
723.674	0.0164793
723.753	0.0163929
723.831	0.0163289
723.909	0.0163516
723.987	0.0164272
724.065	0.0162910
724.143	0.0161906
724.221	0.0162952
724.299	0.0162914
724.378	0.0161480
724.456	0.0162055
724.534	0.0162276
724.612	0.0162531
724.690	0.0160592
724.768	0.0160387
724.846	0.0159278
724.924	0.0159711
725.003	0.0159457
725.081	0.0159547
725.159	0.0159647
725.237	0.0158423
725.315	0.0160229
725.393	0.0157655
725.471	0.0158810
725.549	0.0157967
725.628	0.0158579
725.706	0.0158990
725.784	0.0159932
725.862	0.0158006
725.940	0.0156927
726.018	0.0157402
726.096	0.0157851
726.174	0.0158755
726.253	0.0159696
726.331	0.0158469
726.409	0.0156377
726.487	0.0156788
726.565	0.0157623
726.643	0.0156901
726.721	0.0156274
726.799	0.0155495
726.878	0.0154755
726.956	0.0154990
727.034	0.0154709
727.112	0.0154266
727.190	0.0153058
727.268	0.0152711
727.346	0.0152457
727.424	0.0153194
727.503	0.0152818
727.581	0.0151937
727.659	0.0151098
727.737	0.0152116
727.815	0.0151054
727.893	0.0151722
727.971	0.0152402
728.049	0.0153266
728.128	0.0153519
728.206	0.0153797
728.284	0.0155910
728.362	0.0156976
728.440	0.0156805
728.518	0.0157380
728.596	0.0159365
728.674	0.0160770
728.753	0.0160808
728.831	0.0160049
728.909	0.0160148
728.987	0.0160612
729.065	0.0159726
729.143	0.0160131
729.221	0.0160841
729.299	0.0159658
729.378	0.0159828
729.456	0.0160091
729.534	0.0160403
729.612	0.0161063
729.690	0.0161380
729.768	0.0160869
729.846	0.0160192
729.924	0.0162358
730.003	0.0160861
730.081	0.0161421
730.159	0.0162113
730.237	0.0162047
730.315	0.0163168
730.393	0.0164870
730.471	0.0162437
730.549	0.0162888
730.628	0.0162910
730.706	0.0164058
730.784	0.0163583
730.862	0.0162498
730.940	0.0163786
731.018	0.0164374
731.096	0.0163248
731.174	0.0162544
731.253	0.0161537
731.331	0.0162102
731.409	0.0161907
731.487	0.0160845
731.565	0.0161526
731.643	0.0162469
731.721	0.0161407
731.799	0.0161109
731.878	0.0160341
731.956	0.0160822
732.034	0.0160281
732.112	0.0160205
732.190	0.0158706
732.268	0.0158488
732.346	0.0159256
732.424	0.0158525
732.503	0.0157613
732.581	0.0159431
732.659	0.0157742
732.737	0.0157333
732.815	0.0157265
732.893	0.0156921
732.971	0.0156075
733.049	0.0156982
733.128	0.0156522
733.206	0.0156147
733.284	0.0157081
733.362	0.0157010
733.440	0.0156947
733.518	0.0155598
733.596	0.0154866
733.674	0.0154707
733.753	0.0155614
733.831	0.0155439
733.909	0.0154495
733.987	0.0154044
734.065	0.0155027
734.143	0.0155540
734.221	0.0156156
734.299	0.0155365
734.378	0.0155117
734.456	0.0155384
734.534	0.0155063
734.612	0.0155024
734.690	0.0155290
734.768	0.0154568
734.846	0.0155675
734.924	0.0157157
735.003	0.0156195
735.081	0.0155160
735.159	0.0156687
735.237	0.0157401
735.315	0.0156432
735.393	0.0156892
735.471	0.0156798
735.549	0.0157552
735.628	0.0156979
735.706	0.0159095
735.784	0.0159528
735.862	0.0160392
735.940	0.0160017
736.018	0.0160833
736.096	0.0160851
736.174	0.0161166
736.253	0.0162211
736.331	0.0161369
736.409	0.0163057
736.487	0.0163389
736.565	0.0163610
736.643	0.0162748
736.721	0.0162217
736.799	0.0162335
736.878	0.0162780
736.956	0.0162019
737.034	0.0162004
737.112	0.0161063
737.190	0.0159941
737.268	0.0160695
737.346	0.0159603
737.424	0.0160728
737.503	0.0162188
737.581	0.0161719
737.659	0.0161066
737.737	0.0161670
737.815	0.0160383
737.893	0.0160600
737.971	0.0160634
738.049	0.0162077
738.128	0.0162698
738.206	0.0162416
738.284	0.0161790
738.362	0.0159785
738.440	0.0160754
738.518	0.0159944
738.596	0.0161051
738.674	0.0161043
738.753	0.0160564
738.831	0.0160081
738.909	0.0159893
738.987	0.0159162
739.065	0.0160084
739.143	0.0159023
739.221	0.0161385
739.299	0.0159946
739.378	0.0159008
739.456	0.0160781
739.534	0.0160349
739.612	0.0159306
739.690	0.0159834
739.768	0.0160407
739.846	0.0159254
739.924	0.0159526
740.003	0.0159606
740.081	0.0157957
740.159	0.0157944
740.237	0.0157415
740.315	0.0158124
740.393	0.0158517
740.471	0.0156883
740.549	0.0157604
740.628	0.0157430
740.706	0.0156772
740.784	0.0156324
740.862	0.0157419
740.940	0.0156519
741.018	0.0155766
741.096	0.0157643
741.174	0.0158440
741.253	0.0156063
741.331	0.0156618
741.409	0.0154584
741.487	0.0156736
741.565	0.0157523
741.643	0.0155689
741.721	0.0156491
741.799	0.0155775
741.878	0.0155861
741.956	0.0155336
742.034	0.0154617
742.112	0.0156712
742.190	0.0156472
742.268	0.0154948
742.346	0.0154914
742.424	0.0157409
742.503	0.0157748
742.581	0.0156782
742.659	0.0156294
742.737	0.0157152
742.815	0.0156387
742.893	0.0156667
742.971	0.0157566
743.049	0.0158650
743.128	0.0157338
743.206	0.0157220
743.284	0.0159445
743.362	0.0159122
743.440	0.0159311
743.518	0.0159868
743.596	0.0159305
743.674	0.0159175
743.753	0.0160677
743.831	0.0160836
743.909	0.0161102
743.987	0.0160125
744.065	0.0161057
744.143	0.0159664
744.221	0.0161586
744.299	0.0159669
744.378	0.0160818
744.456	0.0159782
744.534	0.0159466
744.612	0.0159719
744.690	0.0158585
744.768	0.0159415
744.846	0.0157681
744.924	0.0158605
745.003	0.0159513
745.081	0.0159687
745.159	0.0159412
745.237	0.0160107
745.315	0.0160913
745.393	0.0159502
745.471	0.0161168
745.549	0.0160539
745.628	0.0160988
745.706	0.0161307
745.784	0.0162638
745.862	0.0161364
745.940	0.0162144
746.018	0.0161039
746.096	0.0161079
746.174	0.0159766
746.253	0.0160480
746.331	0.0160504
746.409	0.0159385
746.487	0.0158105
746.565	0.0159411
746.643	0.0159871
746.721	0.0158791
746.799	0.0160466
746.878	0.0159479
746.956	0.0159033
747.034	0.0161172
747.112	0.0161180
747.190	0.0160625
747.268	0.0161170
747.346	0.0160738
747.424	0.0160108
747.503	0.0159471
747.581	0.0158509
747.659	0.0159869
747.737	0.0158961
747.815	0.0158637
747.893	0.0158743
747.971	0.0157159
748.049	0.0156741
748.128	0.0157465
748.206	0.0156629
748.284	0.0156216
748.362	0.0157313
748.440	0.0156654
748.518	0.0155408
748.596	0.0155831
748.674	0.0157703
748.753	0.0156065
748.831	0.0155135
748.909	0.0156456
748.987	0.0157276
749.065	0.0154539
749.143	0.0155328
749.221	0.0155627
749.299	0.0153863
749.378	0.0154472
749.456	0.0155224
749.534	0.0155087
749.612	0.0154563
749.690	0.0155797
749.768	0.0153996
749.846	0.0154508
749.924	0.0155597
750.003	0.0155629
750.081	0.0158051
750.159	0.0156511
750.237	0.0157090
750.315	0.0157609
750.393	0.0156438
750.471	0.0157576
750.549	0.0158041
750.628	0.0159075
750.706	0.0157662
750.784	0.0156933
750.862	0.0157661
750.940	0.0158947
751.018	0.0159589
751.096	0.0157806
751.174	0.0156889
751.253	0.0158988
751.331	0.0158397
751.409	0.0159258
751.487	0.0158488
751.565	0.0160207
751.643	0.0159927
751.721	0.0159145
751.799	0.0159245
751.878	0.0160851
751.956	0.0159464
752.034	0.0160649
752.112	0.0160373
752.190	0.0159772
752.268	0.0161043
752.346	0.0160830
752.424	0.0159659
752.503	0.0159061
752.581	0.0159007
752.659	0.0160103
752.737	0.0159679
752.815	0.0160740
752.893	0.0161900
752.971	0.0161027
753.049	0.0159536
753.128	0.0159628
753.206	0.0160351
753.284	0.0160268
753.362	0.0161096
753.440	0.0160265
753.518	0.0159534
753.596	0.0160150
753.674	0.0161156
753.753	0.0160098
753.831	0.0160152
753.909	0.0159268
753.987	0.0159473
754.065	0.0158421
754.143	0.0158008
754.221	0.0156759
754.299	0.0158775
754.378	0.0159638
754.456	0.0158050
754.534	0.0157390
754.612	0.0159442
754.690	0.0159674
754.768	0.0158781
754.846	0.0159196
754.924	0.0158788
755.003	0.0159839
755.081	0.0159461
755.159	0.0160635
755.237	0.0157896
755.315	0.0156757
755.393	0.0157809
755.471	0.0157267
755.549	0.0157845
755.628	0.0156236
755.706	0.0156758
755.784	0.0156663
755.862	0.0155674
755.940	0.0155367
756.018	0.0154800
756.096	0.0154434
756.174	0.0155720
756.253	0.0154557
756.331	0.0156121
756.409	0.0156106
756.487	0.0155688
756.565	0.0155728
756.643	0.0156599
756.721	0.0156325
756.799	0.0156983
756.878	0.0155542
756.956	0.0155147
757.034	0.0155290
757.112	0.0154778
757.190	0.0157222
757.268	0.0155399
757.346	0.0155202
757.424	0.0155867
757.503	0.0156812
757.581	0.0157266
757.659	0.0157725
757.737	0.0156940
757.815	0.0158927
757.893	0.0159566
757.971	0.0159846
758.049	0.0158874
758.128	0.0158852
758.206	0.0159461
758.284	0.0159209
758.362	0.0159951
758.440	0.0160303
758.518	0.0160889
758.596	0.0158730
758.674	0.0159667
758.753	0.0159777
758.831	0.0160743
758.909	0.0160529
758.987	0.0158665
759.065	0.0160403
759.143	0.0159905
759.221	0.0159954
759.299	0.0161993
759.378	0.0160914
759.456	0.0162007
759.534	0.0160303
759.612	0.0161304
759.690	0.0160946
759.768	0.0162026
759.846	0.0162327
759.924	0.0161696
760.003	0.0161906
760.081	0.0162244
760.159	0.0161316
760.237	0.0161678
760.315	0.0160612
760.393	0.0161043
760.471	0.0158919
760.549	0.0160066
760.628	0.0159215
760.706	0.0159601
760.784	0.0159726
760.862	0.0159716
760.940	0.0161123
761.018	0.0158763
761.096	0.0158996
761.174	0.0159842
761.253	0.0159206
761.331	0.0160078
761.409	0.0160159
761.487	0.0158528
761.565	0.0158561
761.643	0.0158161
761.721	0.0159348
761.799	0.0158597
761.878	0.0159666
761.956	0.0157417
762.034	0.0158490
762.112	0.0157445
762.190	0.0158069
762.268	0.0158758
762.346	0.0159320
762.424	0.0158173
762.503	0.0158789
762.581	0.0161040
762.659	0.0159081
762.737	0.0159965
762.815	0.0159554
762.893	0.0159419
762.971	0.0160054
763.049	0.0158901
763.128	0.0157515
763.206	0.0157381
763.284	0.0157390
763.362	0.0157709
763.440	0.0157121
763.518	0.0156960
763.596	0.0156740
763.674	0.0156836
763.753	0.0156984
763.831	0.0156156
763.909	0.0156107
763.987	0.0156976
764.065	0.0156561
764.143	0.0157466
764.221	0.0157275
764.299	0.0157500
764.378	0.0158282
764.456	0.0159753
764.534	0.0156765
764.612	0.0157880
764.690	0.0159203
764.768	0.0158406
764.846	0.0157423
764.924	0.0158365
765.003	0.0156887
765.081	0.0157236
765.159	0.0156931
765.237	0.0158112
765.315	0.0158748
765.393	0.0157292
765.471	0.0157083
765.549	0.0158071
765.628	0.0158783
765.706	0.0158573
765.784	0.0159032
765.862	0.0159127
765.940	0.0159098
766.018	0.0160062
766.096	0.0159506
766.174	0.0158936
766.253	0.0160290
766.331	0.0159722
766.409	0.0159422
766.487	0.0160685
766.565	0.0160676
766.643	0.0160463
766.721	0.0160257
766.799	0.0160490
766.878	0.0160037
766.956	0.0159933
767.034	0.0160451
767.112	0.0161137
767.190	0.0159499
767.268	0.0159917
767.346	0.0159953
767.424	0.0159905
767.503	0.0159832
767.581	0.0160927
767.659	0.0160254
767.737	0.0159882
767.815	0.0159103
767.893	0.0158978
767.971	0.0159653
768.049	0.0159766
768.128	0.0158530
768.206	0.0158458
768.284	0.0158992
768.362	0.0159181
768.440	0.0158048
768.518	0.0157845
768.596	0.0158517
768.674	0.0158213
768.753	0.0157502
768.831	0.0159216
768.909	0.0158973
768.987	0.0159099
769.065	0.0157246
769.143	0.0158784
769.221	0.0158344
769.299	0.0158095
769.378	0.0156479
769.456	0.0158483
769.534	0.0158387
769.612	0.0158125
769.690	0.0156942
769.768	0.0157288
769.846	0.0157870
769.924	0.0158733
770.003	0.0157653
770.081	0.0157225
770.159	0.0157854
770.237	0.0158379
770.315	0.0157653
770.393	0.0157348
770.471	0.0157738
770.549	0.0156922
770.628	0.0158105
770.706	0.0157507
770.784	0.0158905
770.862	0.0158539
770.940	0.0156769
771.018	0.0158380
771.096	0.0157941
771.174	0.0158085
771.253	0.0157616
771.331	0.0158122
771.409	0.0158478
771.487	0.0158454
771.565	0.0158363
771.643	0.0158823
771.721	0.0158024
771.799	0.0157288
771.878	0.0158862
771.956	0.0159067
772.034	0.0159225
772.112	0.0158220
772.190	0.0158982
772.268	0.0158788
772.346	0.0158884
772.424	0.0158144
772.503	0.0159624
772.581	0.0157924
772.659	0.0158206
772.737	0.0157580
772.815	0.0158659
772.893	0.0157460
772.971	0.0157316
773.049	0.0158580
773.128	0.0157175
773.206	0.0157477
773.284	0.0158273
773.362	0.0157392
773.440	0.0156689
773.518	0.0157902
773.596	0.0157262
773.674	0.0158681
773.753	0.0157246
773.831	0.0158675
773.909	0.0158549
773.987	0.0158867
774.065	0.0158378
774.143	0.0159554
774.221	0.0160845
774.299	0.0159228
774.378	0.0161168
774.456	0.0160542
774.534	0.0158707
774.612	0.0160782
774.690	0.0159905
774.768	0.0158685
774.846	0.0160391
774.924	0.0159035
775.003	0.0159706
775.081	0.0157841
775.159	0.0158722
775.237	0.0159077
775.315	0.0159001
775.393	0.0158346
775.471	0.0159399
775.549	0.0159615
775.628	0.0157965
775.706	0.0158145
775.784	0.0157444
775.862	0.0158762
775.940	0.0158715
776.018	0.0159153
776.096	0.0158817
776.174	0.0158642
776.253	0.0158224
776.331	0.0158589
776.409	0.0157320
776.487	0.0158576
776.565	0.0158842
776.643	0.0158525
776.721	0.0159405
776.799	0.0158221
776.878	0.0159071
776.956	0.0159467
777.034	0.0158847
777.112	0.0158566
777.190	0.0159309
777.268	0.0158987
777.346	0.0158762
777.424	0.0158615
777.503	0.0159265
777.581	0.0159579
777.659	0.0158966
777.737	0.0158743
777.815	0.0158395
777.893	0.0157904
777.971	0.0159957
778.049	0.0159655
778.128	0.0158768
778.206	0.0159180
778.284	0.0160036
778.362	0.0159486
778.440	0.0159940
778.518	0.0159923
778.596	0.0158750
778.674	0.0159863
778.753	0.0158414
778.831	0.0157537
778.909	0.0158608
778.987	0.0158952
779.065	0.0159365
779.143	0.0158892
779.221	0.0157303
779.299	0.0157767
779.378	0.0158027
779.456	0.0158659
779.534	0.0158000
779.612	0.0158039
779.690	0.0155867
779.768	0.0157373
779.846	0.0156479
779.924	0.0157036
780.003	0.0157439
780.081	0.0157832
780.159	0.0156830
780.237	0.0158199
780.315	0.0157250
780.393	0.0156184
780.471	0.0156833
780.549	0.0156660
780.628	0.0158288
780.706	0.0157272
780.784	0.0158117
780.862	0.0158438
780.940	0.0157373
781.018	0.0158479
781.096	0.0158350
781.174	0.0158901
781.253	0.0159755
781.331	0.0159253
781.409	0.0159988
781.487	0.0158965
781.565	0.0158823
781.643	0.0160104
781.721	0.0159925
781.799	0.0159615
781.878	0.0159770
781.956	0.0160374
782.034	0.0160374
782.112	0.0159993
782.190	0.0160295
782.268	0.0159158
782.346	0.0160092
782.424	0.0159377
782.503	0.0159372
782.581	0.0159768
782.659	0.0159827
782.737	0.0159938
782.815	0.0159647
782.893	0.0158972
782.971	0.0159528
783.049	0.0157930
783.128	0.0158500
783.206	0.0158433
783.284	0.0160263
783.362	0.0159153
783.440	0.0158348
783.518	0.0159347
783.596	0.0160282
783.674	0.0159734
783.753	0.0159998
783.831	0.0159130
783.909	0.0159361
783.987	0.0160265
784.065	0.0158855
784.143	0.0159948
784.221	0.0158661
784.299	0.0158533
784.378	0.0157950
784.456	0.0159044
784.534	0.0157574
784.612	0.0157066
784.690	0.0158725
784.768	0.0158141
784.846	0.0157446
784.924	0.0158540
785.003	0.0158113
785.081	0.0157538
785.159	0.0158608
785.237	0.0157441
785.315	0.0157837
785.393	0.0158051
785.471	0.0159137
785.549	0.0157834
785.628	0.0156654
785.706	0.0158120
785.784	0.0158472
785.862	0.0158751
785.940	0.0158723
786.018	0.0157262
786.096	0.0157332
786.174	0.0158178
786.253	0.0157455
786.331	0.0158775
786.409	0.0159190
786.487	0.0157937
786.565	0.0157832
786.643	0.0159155
786.721	0.0158327
786.799	0.0159505
786.878	0.0157937
786.956	0.0158039
787.034	0.0158965
787.112	0.0158586
787.190	0.0158862
787.268	0.0159639
787.346	0.0158421
787.424	0.0159383
787.503	0.0160317
787.581	0.0159272
787.659	0.0158267
787.737	0.0159305
787.815	0.0160170
787.893	0.0158804
787.971	0.0158743
788.049	0.0158475
788.128	0.0159789
788.206	0.0160355
788.284	0.0159383
788.362	0.0159963
788.440	0.0159933
788.518	0.0159737
788.596	0.0158932
788.674	0.0160252
788.753	0.0159942
788.831	0.0160365
788.909	0.0159915
788.987	0.0160088
789.065	0.0160268
789.143	0.0160802
789.221	0.0160195
789.299	0.0159100
789.378	0.0159164
789.456	0.0159049
789.534	0.0158473
789.612	0.0159103
789.690	0.0159579
789.768	0.0158791
789.846	0.0159711
789.924	0.0159185
790.003	0.0158617
790.081	0.0159622
790.159	0.0158591
790.237	0.0157909
790.315	0.0158488
790.393	0.0156851
790.471	0.0157999
790.549	0.0159029
790.628	0.0156620
790.706	0.0156457
790.784	0.0157663
790.862	0.0157638
790.940	0.0157905
791.018	0.0157011
791.096	0.0157977
791.174	0.0158164
791.253	0.0157604
791.331	0.0158030
791.409	0.0157251
791.487	0.0157588
791.565	0.0158363
791.643	0.0158044
791.721	0.0158565
791.799	0.0158900
791.878	0.0158257
791.956	0.0157932
792.034	0.0160107
792.112	0.0158843
792.190	0.0157058
792.268	0.0158413
792.346	0.0158138
792.424	0.0158727
792.503	0.0158218
792.581	0.0158485
792.659	0.0158866
792.737	0.0159699
792.815	0.0159479
792.893	0.0158954
792.971	0.0158866
793.049	0.0159483
793.128	0.0158594
793.206	0.0160050
793.284	0.0159882
793.362	0.0160475
793.440	0.0159939
793.518	0.0160224
793.596	0.0162163
793.674	0.0161427
793.753	0.0160735
793.831	0.0160259
793.909	0.0159947
793.987	0.0160168
794.065	0.0162112
794.143	0.0160477
794.221	0.0158575
794.299	0.0159413
794.378	0.0159373
794.456	0.0160548
794.534	0.0160660
794.612	0.0160477
794.690	0.0160553
794.768	0.0161319
794.846	0.0158663
794.924	0.0159789
795.003	0.0159767
795.081	0.0160587
795.159	0.0160638
795.237	0.0158745
795.315	0.0161425
795.393	0.0160499
795.471	0.0158855
795.549	0.0160325
795.628	0.0160460
795.706	0.0159315
795.784	0.0160302
795.862	0.0160600
795.940	0.0159945
796.018	0.0159597
796.096	0.0159093
796.174	0.0160168
796.253	0.0159225
796.331	0.0157486
796.409	0.0158366
796.487	0.0159297
796.565	0.0158884
796.643	0.0158425
796.721	0.0158214
796.799	0.0159694
796.878	0.0160774
796.956	0.0160085
797.034	0.0159228
797.112	0.0158447
797.190	0.0159316
797.268	0.0160231
797.346	0.0158090
797.424	0.0156274
797.503	0.0158471
797.581	0.0158874
797.659	0.0157661
797.737	0.0157784
797.815	0.0157436
797.893	0.0157186
797.971	0.0158983
798.049	0.0158547
798.128	0.0158706
798.206	0.0159217
798.284	0.0157957
798.362	0.0158987
798.440	0.0159005
798.518	0.0159560
798.596	0.0158209
798.674	0.0159615
798.753	0.0160367
798.831	0.0159092
798.909	0.0159398
798.987	0.0160556
799.065	0.0159695
799.143	0.0159943
799.221	0.0158878
799.299	0.0159133
799.378	0.0159346
799.456	0.0161044
799.534	0.0161620
799.612	0.0160983
799.690	0.0161591
799.768	0.0161567
799.846	0.0161279
799.924	0.0159583
800.003	0.0160429
800.081	0.0161695
800.159	0.0161730
800.237	0.0161398
800.315	0.0161269
800.393	0.0160256
800.471	0.0161323
800.549	0.0159701
800.628	0.0159368
800.706	0.0159520
800.784	0.0159922
800.862	0.0160607
800.940	0.0158984
801.018	0.0158602
801.096	0.0160353
801.174	0.0159382
801.253	0.0159911
801.331	0.0159642
801.409	0.0161802
801.487	0.0163410
801.565	0.0159843
801.643	0.0158982
801.721	0.0160047
801.799	0.0161788
801.878	0.0161347
801.956	0.0161214
802.034	0.0159962
802.112	0.0161136
802.190	0.0159167
802.268	0.0158930
802.346	0.0160985
802.424	0.0159439
802.503	0.0158246
802.581	0.0157433
802.659	0.0157741
802.737	0.0158883
802.815	0.0159357
802.893	0.0157330
802.971	0.0158593
803.049	0.0158491
803.128	0.0158971
803.206	0.0157253
803.284	0.0158337
803.362	0.0159135
803.440	0.0158962
803.518	0.0157511
803.596	0.0157531
803.674	0.0159197
803.753	0.0159791
803.831	0.0159446
803.909	0.0158971
803.987	0.0158076
804.065	0.0157308
804.143	0.0156647
804.221	0.0157697
804.299	0.0157996
804.378	0.0158344
804.456	0.0158639
804.534	0.0157433
804.612	0.0156498
804.690	0.0157719
804.768	0.0158195
804.846	0.0158143
804.924	0.0158265
805.003	0.0157529
805.081	0.0158961
805.159	0.0157637
805.237	0.0158838
805.315	0.0158460
805.393	0.0158115
805.471	0.0159353
805.549	0.0160449
805.628	0.0158917
805.706	0.0158656
805.784	0.0161797
805.862	0.0160070
805.940	0.0160278
806.018	0.0161765
806.096	0.0160222
806.174	0.0160277
806.253	0.0159136
806.331	0.0160284
806.409	0.0161770
806.487	0.0160606
806.565	0.0158361
806.643	0.0159410
806.721	0.0159015
806.799	0.0160160
806.878	0.0159161
806.956	0.0159400
807.034	0.0158953
807.112	0.0159711
807.190	0.0159402
807.268	0.0158803
807.346	0.0159613
807.424	0.0158361
807.503	0.0159238
807.581	0.0160263
807.659	0.0158859
807.737	0.0160054
807.815	0.0160378
807.893	0.0159874
807.971	0.0159911
808.049	0.0158747
808.128	0.0160069
808.206	0.0159134
808.284	0.0159225
808.362	0.0158683
808.440	0.0160220
808.518	0.0159846
808.596	0.0158636
808.674	0.0159892
808.753	0.0159156
808.831	0.0157962
808.909	0.0158056
808.987	0.0159949
809.065	0.0158485
809.143	0.0157912
809.221	0.0158311
809.299	0.0158514
809.378	0.0159566
809.456	0.0159949
809.534	0.0158723
809.612	0.0158766
809.690	0.0158389
809.768	0.0158508
809.846	0.0158714
809.924	0.0158828
810.003	0.0159343
810.081	0.0158142
810.159	0.0158025
810.237	0.0157774
810.315	0.0157445
810.393	0.0159022
810.471	0.0157850
810.549	0.0157893
810.628	0.0156952
810.706	0.0156787
810.784	0.0156308
810.862	0.0157584
810.940	0.0157729
811.018	0.0157336
811.096	0.0157050
811.174	0.0158945
811.253	0.0156757
811.331	0.0156596
811.409	0.0157533
811.487	0.0158439
811.565	0.0158797
811.643	0.0159209
811.721	0.0158551
811.799	0.0159149
811.878	0.0159500
811.956	0.0157716
812.034	0.0157558
812.112	0.0158002
812.190	0.0157495
812.268	0.0159161
812.346	0.0158180
812.424	0.0158457
812.503	0.0159971
812.581	0.0158049
812.659	0.0157603
812.737	0.0158105
812.815	0.0158411
812.893	0.0159440
812.971	0.0159156
813.049	0.0159222
813.128	0.0158858
813.206	0.0159579
813.284	0.0158768
813.362	0.0159612
813.440	0.0160036
813.518	0.0158609
813.596	0.0159373
813.674	0.0160459
813.753	0.0161437
813.831	0.0159513
813.909	0.0159806
813.987	0.0159962
814.065	0.0158898
814.143	0.0158852
814.221	0.0159042
814.299	0.0158478
814.378	0.0158939
814.456	0.0160113
814.534	0.0160721
814.612	0.0160243
814.690	0.0158773
814.768	0.0159573
814.846	0.0159251
814.924	0.0159657
815.003	0.0159663
815.081	0.0159766
815.159	0.0159853
815.237	0.0158451
815.315	0.0157706
815.393	0.0158810
815.471	0.0158353
815.549	0.0159357
815.628	0.0159533
815.706	0.0157336
815.784	0.0158569
815.862	0.0158977
815.940	0.0159827
816.018	0.0160387
816.096	0.0157903
816.174	0.0159678
816.253	0.0159370
816.331	0.0158205
816.409	0.0158700
816.487	0.0157862
816.565	0.0158405
816.643	0.0159431
816.721	0.0160078
816.799	0.0160305
816.878	0.0159471
816.956	0.0158237
817.034	0.0157883
817.112	0.0158322
817.190	0.0158815
817.268	0.0159289
817.346	0.0159225
817.424	0.0157760
817.503	0.0158789
817.581	0.0159163
817.659	0.0159228
817.737	0.0159215
817.815	0.0157587
817.893	0.0159502
817.971	0.0160157
818.049	0.0159013
818.128	0.0158308
818.206	0.0160059
818.284	0.0158412
818.362	0.0158024
818.440	0.0158289
818.518	0.0158094
818.596	0.0160709
818.674	0.0159086
818.753	0.0159484
818.831	0.0159023
818.909	0.0158926
818.987	0.0159380
819.065	0.0159361
819.143	0.0158405
819.221	0.0160489
819.299	0.0159196
819.378	0.0160201
819.456	0.0159309
819.534	0.0159534
819.612	0.0160469
819.690	0.0159472
819.768	0.0159163
819.846	0.0159874
819.924	0.0159906
820.003	0.0159581
820.081	0.0158685
820.159	0.0158629
820.237	0.0160307
820.315	0.0161301
820.393	0.0159929
820.471	0.0159776
820.549	0.0159328
820.628	0.0159100
820.706	0.0160368
820.784	0.0160046
820.862	0.0159332
820.940	0.0159264
821.018	0.0159970
821.096	0.0159553
821.174	0.0159305
821.253	0.0159933
821.331	0.0159276
821.409	0.0160661
821.487	0.0159113
821.565	0.0159393
821.643	0.0158418
821.721	0.0158263
821.799	0.0159578
821.878	0.0158798
821.956	0.0158288
822.034	0.0159422
822.112	0.0158853
822.190	0.0159318
822.268	0.0159376
822.346	0.0158855
822.424	0.0159150
822.503	0.0160181
822.581	0.0159992
822.659	0.0159082
822.737	0.0159453
822.815	0.0159942
822.893	0.0160262
822.971	0.0160310
823.049	0.0159345
823.128	0.0159424
823.206	0.0157716
823.284	0.0159457
823.362	0.0158946
823.440	0.0158327
823.518	0.0157778
823.596	0.0158319
823.674	0.0159062
823.753	0.0159066
823.831	0.0158289
823.909	0.0158002
823.987	0.0158987
824.065	0.0159096
824.143	0.0159125
824.221	0.0157420
824.299	0.0158797
824.378	0.0158176
824.456	0.0157862
824.534	0.0157640
824.612	0.0158508
824.690	0.0157568
824.768	0.0158928
824.846	0.0159325
824.924	0.0157841
825.003	0.0157526
825.081	0.0158874
825.159	0.0159007
825.237	0.0158920
825.315	0.0159129
825.393	0.0159415
825.471	0.0158945
825.549	0.0159406
825.628	0.0158913
825.706	0.0158086
825.784	0.0160754
825.862	0.0159296
825.940	0.0159777
826.018	0.0158739
826.096	0.0158360
826.174	0.0158559
826.253	0.0158598
826.331	0.0157136
826.409	0.0158685
826.487	0.0158633
826.565	0.0158784
826.643	0.0158097
826.721	0.0158228
826.799	0.0159150
826.878	0.0157886
826.956	0.0158947
827.034	0.0160086
827.112	0.0159212
827.190	0.0159149
827.268	0.0159811
827.346	0.0160548
827.424	0.0159618
827.503	0.0159645
827.581	0.0160585
827.659	0.0160970
827.737	0.0160377
827.815	0.0159873
827.893	0.0159984
827.971	0.0159429
828.049	0.0159127
828.128	0.0160384
828.206	0.0159389
828.284	0.0159370
828.362	0.0160400
828.440	0.0157687
828.518	0.0158351
828.596	0.0158919
828.674	0.0159572
828.753	0.0159033
828.831	0.0158498
828.909	0.0158727
828.987	0.0158489
829.065	0.0159104
829.143	0.0158705
829.221	0.0159241
829.299	0.0158092
829.378	0.0160549
829.456	0.0160072
829.534	0.0158974
829.612	0.0160234
829.690	0.0160342
829.768	0.0160002
829.846	0.0159398
829.924	0.0158844
830.003	0.0159232
830.081	0.0159495
830.159	0.0160147
830.237	0.0159280
830.315	0.0159466
830.393	0.0157410
830.471	0.0158133
830.549	0.0158270
830.628	0.0157776
830.706	0.0158933
830.784	0.0157800
830.862	0.0159146
830.940	0.0157787
831.018	0.0156797
831.096	0.0157185
831.174	0.0157724
831.253	0.0156500
831.331	0.0157792
831.409	0.0157851
831.487	0.0158430
831.565	0.0157198
831.643	0.0157707
831.721	0.0157600
831.799	0.0157714
831.878	0.0158002
831.956	0.0158266
832.034	0.0158681
832.112	0.0159861
832.190	0.0158683
832.268	0.0158932
832.346	0.0159612
832.424	0.0157912
832.503	0.0158770
832.581	0.0158375
832.659	0.0160191
832.737	0.0159800
832.815	0.0158275
832.893	0.0159748
832.971	0.0160226
833.049	0.0158653
833.128	0.0159590
833.206	0.0158244
833.284	0.0158391
833.362	0.0159728
833.440	0.0160843
833.518	0.0159251
833.596	0.0158545
833.674	0.0159566
833.753	0.0158730
833.831	0.0159216
833.909	0.0160328
833.987	0.0160625
834.065	0.0159904
834.143	0.0161095
834.221	0.0159393
834.299	0.0159819
834.378	0.0159839
834.456	0.0159345
834.534	0.0159222
834.612	0.0158968
834.690	0.0159521
834.768	0.0159719
834.846	0.0160216
834.924	0.0158950
835.003	0.0158901
835.081	0.0159370
835.159	0.0159937
835.237	0.0159026
835.315	0.0159595
835.393	0.0160976
835.471	0.0161124
835.549	0.0159608
835.628	0.0157837
835.706	0.0158040
835.784	0.0158481
835.862	0.0157856
835.940	0.0158485
836.018	0.0158974
836.096	0.0157918
836.174	0.0158014
836.253	0.0158469
836.331	0.0157482
836.409	0.0157150
836.487	0.0156448
836.565	0.0158287
836.643	0.0158198
836.721	0.0158705
836.799	0.0157918
836.878	0.0157233
836.956	0.0158276
837.034	0.0158352
837.112	0.0157503
837.190	0.0157138
837.268	0.0157693
837.346	0.0157555
837.424	0.0158621
837.503	0.0157072
837.581	0.0156606
837.659	0.0158439
837.737	0.0157655
837.815	0.0157028
837.893	0.0159567
837.971	0.0158105
838.049	0.0157420
838.128	0.0158144
838.206	0.0158675
838.284	0.0157843
838.362	0.0157816
838.440	0.0158107
838.518	0.0158374
838.596	0.0159576
838.674	0.0157513
838.753	0.0158240
838.831	0.0157850
838.909	0.0158261
838.987	0.0158567
839.065	0.0158991
839.143	0.0158362
839.221	0.0159396
839.299	0.0158639
839.378	0.0158611
839.456	0.0158659
839.534	0.0158939
839.612	0.0158278
839.690	0.0159985
839.768	0.0160745
839.846	0.0158595
839.924	0.0160172
840.003	0.0159896
840.081	0.0160848
840.159	0.0160727
840.237	0.0160941
840.315	0.0159229
840.393	0.0158677
840.471	0.0159911
840.549	0.0159722
840.628	0.0158913
840.706	0.0159042
840.784	0.0158634
840.862	0.0158019
840.940	0.0159193
841.018	0.0159521
841.096	0.0159377
841.174	0.0157703
841.253	0.0160056
841.331	0.0159228
841.409	0.0159367
841.487	0.0159793
841.565	0.0159327
841.643	0.0158829
841.721	0.0159283
841.799	0.0160204
841.878	0.0160284
841.956	0.0158278
842.034	0.0157513
842.112	0.0159012
842.190	0.0158975
842.268	0.0158791
842.346	0.0158930
842.424	0.0157803
842.503	0.0157919
842.581	0.0157413
842.659	0.0159013
842.737	0.0158270
842.815	0.0158471
842.893	0.0158822
842.971	0.0158885
843.049	0.0158469
843.128	0.0158756
843.206	0.0157184
843.284	0.0156738
843.362	0.0158241
843.440	0.0158032
843.518	0.0157837
843.596	0.0158109
843.674	0.0159001
843.753	0.0158095
843.831	0.0157875
843.909	0.0158987
843.987	0.0158083
844.065	0.0157574
844.143	0.0158338
844.221	0.0158379
844.299	0.0156828
844.378	0.0158677
844.456	0.0158220
844.534	0.0158877
844.612	0.0158125
844.690	0.0158290
844.768	0.0158432
844.846	0.0157486
844.924	0.0157858
845.003	0.0159080
845.081	0.0157812
845.159	0.0158271
845.237	0.0158589
845.315	0.0158033
845.393	0.0158080
845.471	0.0158152
845.549	0.0158890
845.628	0.0158578
845.706	0.0157834
845.784	0.0158544
845.862	0.0158924
845.940	0.0159178
846.018	0.0159616
846.096	0.0158482
846.174	0.0159355
846.253	0.0159332
846.331	0.0160522
846.409	0.0158566
846.487	0.0158711
846.565	0.0158971
846.643	0.0160035
846.721	0.0159945
846.799	0.0159670
846.878	0.0159235
846.956	0.0158775
847.034	0.0158537
847.112	0.0157780
847.190	0.0159814
847.268	0.0160447
847.346	0.0159416
847.424	0.0157912
847.503	0.0159179
847.581	0.0158539
847.659	0.0158245
847.737	0.0159504
847.815	0.0158936
847.893	0.0159335
847.971	0.0158290
848.049	0.0157932
848.128	0.0157702
848.206	0.0159703
848.284	0.0158263
848.362	0.0159249
848.440	0.0158475
848.518	0.0158879
848.596	0.0159309
848.674	0.0159003
848.753	0.0157947
848.831	0.0158734
848.909	0.0159663
848.987	0.0159548
849.065	0.0159380
849.143	0.0161023
849.221	0.0158635
849.299	0.0159488
849.378	0.0158657
849.456	0.0158072
849.534	0.0159712
849.612	0.0158929
849.690	0.0158421
849.768	0.0158392
849.846	0.0158418
849.924	0.0160368
850.003	0.0159462
850.081	0.0157814
850.159	0.0158875
850.237	0.0158002
850.315	0.0158264
850.393	0.0157875
850.471	0.0158851
850.549	0.0158727
850.628	0.0158480
850.706	0.0157378
850.784	0.0158066
850.862	0.0158979
850.940	0.0158701
851.018	0.0160336
851.096	0.0159208
851.174	0.0158772
851.253	0.0159103
851.331	0.0156932
851.409	0.0159538
851.487	0.0159196
851.565	0.0159544
851.643	0.0158692
851.721	0.0159464
851.799	0.0159377
851.878	0.0159193
851.956	0.0157142
852.034	0.0157784
852.112	0.0158559
852.190	0.0158257
852.268	0.0158226
852.346	0.0158392
852.424	0.0157599
852.503	0.0157694
852.581	0.0158226
852.659	0.0157666
852.737	0.0158100
852.815	0.0157425
852.893	0.0158119
852.971	0.0157623
853.049	0.0158725
853.128	0.0157735
853.206	0.0158647
853.284	0.0159160
853.362	0.0158464
853.440	0.0158823
853.518	0.0157936
853.596	0.0158209
853.674	0.0157183
853.753	0.0157153
853.831	0.0157832
853.909	0.0157377
853.987	0.0157715
854.065	0.0158303
854.143	0.0157820
854.221	0.0158630
854.299	0.0156836
854.378	0.0157387
854.456	0.0158564
854.534	0.0158458
854.612	0.0158245
854.690	0.0158013
854.768	0.0157663
854.846	0.0158228
854.924	0.0159274
855.003	0.0157729
855.081	0.0159855
855.159	0.0159462
855.237	0.0158484
855.315	0.0157883
855.393	0.0158737
855.471	0.0159303
855.549	0.0160723
855.628	0.0159965
855.706	0.0158270
855.784	0.0159043
855.862	0.0158534
855.940	0.0159899
856.018	0.0160336
856.096	0.0160060
856.174	0.0158736
856.253	0.0159889
856.331	0.0159831
856.409	0.0158562
856.487	0.0159141
856.565	0.0159375
856.643	0.0158441
856.721	0.0159749
856.799	0.0159887
856.878	0.0159515
856.956	0.0158630
857.034	0.0159165
857.112	0.0159280
857.190	0.0159667
857.268	0.0159462
857.346	0.0158528
857.424	0.0160051
857.503	0.0159524
857.581	0.0157513
857.659	0.0158148
857.737	0.0158495
857.815	0.0157019
857.893	0.0158324
857.971	0.0157961
858.049	0.0158561
858.128	0.0159157
858.206	0.0158364
858.284	0.0157894
858.362	0.0158951
858.440	0.0158323
858.518	0.0158945
858.596	0.0159129
858.674	0.0157700
858.753	0.0157950
858.831	0.0157346
858.909	0.0159049
858.987	0.0159261
859.065	0.0158714
859.143	0.0159293
859.221	0.0158971
859.299	0.0159653
859.378	0.0158971
859.456	0.0159006
859.534	0.0159727
859.612	0.0159879
859.690	0.0159686
859.768	0.0158357
859.846	0.0157697
859.924	0.0160054
860.003	0.0158477
860.081	0.0159023
860.159	0.0159383
860.237	0.0156793
860.315	0.0157645
860.393	0.0157786
860.471	0.0157894
860.549	0.0157192
860.628	0.0157520
860.706	0.0157558
860.784	0.0157290
860.862	0.0157668
860.940	0.0159017
861.018	0.0158352
861.096	0.0160239
861.174	0.0158389
861.253	0.0159011
861.331	0.0159692
861.409	0.0159242
861.487	0.0157773
861.565	0.0159560
861.643	0.0159209
861.721	0.0159933
861.799	0.0159543
861.878	0.0159564
861.956	0.0159347
862.034	0.0159420
862.112	0.0158012
862.190	0.0158421
862.268	0.0158818
862.346	0.0159440
862.424	0.0158750
862.503	0.0159386
862.581	0.0158433
862.659	0.0160914
862.737	0.0158340
862.815	0.0159711
862.893	0.0159061
862.971	0.0159209
863.049	0.0158354
863.128	0.0159512
863.206	0.0159505
863.284	0.0160773
863.362	0.0161279
863.440	0.0159722
863.518	0.0158987
863.596	0.0160114
863.674	0.0161257
863.753	0.0160159
863.831	0.0160332
863.909	0.0160161
863.987	0.0160187
864.065	0.0159622
864.143	0.0160646
864.221	0.0159863
864.299	0.0158639
864.378	0.0158508
864.456	0.0159718
864.534	0.0158794
864.612	0.0159262
864.690	0.0158880
864.768	0.0157539
864.846	0.0157986
864.924	0.0159599
865.003	0.0157618
865.081	0.0158772
865.159	0.0158547
865.237	0.0159340
865.315	0.0158784
865.393	0.0159077
865.471	0.0159093
865.549	0.0158884
865.628	0.0158945
865.706	0.0159799
865.784	0.0158839
865.862	0.0160023
865.940	0.0159067
866.018	0.0160740
866.096	0.0159113
866.174	0.0159393
866.253	0.0158392
866.331	0.0158844
866.409	0.0158458
866.487	0.0158752
866.565	0.0157533
866.643	0.0159431
866.721	0.0159199
866.799	0.0157088
866.878	0.0156624
866.956	0.0157256
867.034	0.0156680
867.112	0.0157241
867.190	0.0156482
867.268	0.0158272
867.346	0.0158104
867.424	0.0157018
867.503	0.0158344
867.581	0.0157238
867.659	0.0157669
867.737	0.0158366
867.815	0.0156669
867.893	0.0157138
867.971	0.0157266
868.049	0.0158025
868.128	0.0158099
868.206	0.0156818
868.284	0.0157248
868.362	0.0158277
868.440	0.0158031
868.518	0.0158693
868.596	0.0158066
868.674	0.0158749
868.753	0.0157082
868.831	0.0157845
868.909	0.0157697
868.987	0.0159310
869.065	0.0158996
869.143	0.0159702
869.221	0.0157904
869.299	0.0158270
869.378	0.0160249
869.456	0.0159849
869.534	0.0158507
869.612	0.0158679
869.690	0.0158592
869.768	0.0159461
869.846	0.0158662
869.924	0.0157693
870.003	0.0159203
870.081	0.0158208
870.159	0.0159507
870.237	0.0159082
870.315	0.0158515
870.393	0.0158568
870.471	0.0158475
870.549	0.0157872
870.628	0.0158322
870.706	0.0159210
870.784	0.0159042
870.862	0.0159824
870.940	0.0157642
871.018	0.0158971
871.096	0.0159854
871.174	0.0156389
871.253	0.0158472
871.331	0.0158051
871.409	0.0157907
871.487	0.0156556
871.565	0.0159285
871.643	0.0158509
871.721	0.0157967
871.799	0.0157974
871.878	0.0158781
871.956	0.0159450
872.034	0.0158941
872.112	0.0158316
872.190	0.0159712
872.268	0.0159966
872.346	0.0160313
872.424	0.0160535
872.503	0.0160880
872.581	0.0159994
872.659	0.0162347
872.737	0.0158801
872.815	0.0159216
872.893	0.0160692
872.971	0.0159904
873.049	0.0158953
873.128	0.0160606
873.206	0.0159328
873.284	0.0158447
873.362	0.0158385
873.440	0.0159007
873.518	0.0157677
873.596	0.0160110
873.674	0.0158891
873.753	0.0157986
873.831	0.0159661
873.909	0.0159306
873.987	0.0159045
874.065	0.0160049
874.143	0.0159529
874.221	0.0159685
874.299	0.0158433
874.378	0.0158676
874.456	0.0159952
874.534	0.0160144
874.612	0.0159143
874.690	0.0159515
874.768	0.0157861
874.846	0.0158260
874.924	0.0159027
875.003	0.0159180
875.081	0.0158025
875.159	0.0158192
875.237	0.0158575
875.315	0.0159637
875.393	0.0159244
875.471	0.0158823
875.549	0.0157687
875.628	0.0158660
875.706	0.0159013
875.784	0.0156361
875.862	0.0158089
875.940	0.0157816
876.018	0.0157553
876.096	0.0159560
876.174	0.0159927
876.253	0.0158678
876.331	0.0159265
876.409	0.0158405
876.487	0.0158195
876.565	0.0156358
876.643	0.0159160
876.721	0.0157615
876.799	0.0157246
876.878	0.0157741
876.956	0.0158790
877.034	0.0158879
877.112	0.0158754
877.190	0.0158416
877.268	0.0158282
877.346	0.0158890
877.424	0.0157964
877.503	0.0158333
877.581	0.0159081
877.659	0.0159369
877.737	0.0157420
877.815	0.0159050
877.893	0.0159517
877.971	0.0158560
878.049	0.0159798
878.128	0.0158480
878.206	0.0157037
878.284	0.0158495
878.362	0.0157507
878.440	0.0158537
878.518	0.0159248
878.596	0.0159457
878.674	0.0158203
878.753	0.0159029
878.831	0.0158398
878.909	0.0159743
878.987	0.0158749
879.065	0.0159025
879.143	0.0159309
879.221	0.0158015
879.299	0.0158340
879.378	0.0158627
879.456	0.0158665
879.534	0.0159151
879.612	0.0157829
879.690	0.0158561
879.768	0.0160208
879.846	0.0159081
879.924	0.0158150
880.003	0.0158454
880.081	0.0158076
880.159	0.0158495
880.237	0.0158080
880.315	0.0156799
880.393	0.0159024
880.471	0.0158544
880.549	0.0158482
880.628	0.0156949
880.706	0.0158805
880.784	0.0158202
880.862	0.0158100
880.940	0.0159516
881.018	0.0158266
881.096	0.0158163
881.174	0.0157401
881.253	0.0159515
881.331	0.0160247
881.409	0.0159067
881.487	0.0160115
881.565	0.0160548
881.643	0.0160432
881.721	0.0159827
881.799	0.0159289
881.878	0.0160457
881.956	0.0160562
882.034	0.0159020
882.112	0.0160022
882.190	0.0160595
882.268	0.0159472
882.346	0.0159106
882.424	0.0158944
882.503	0.0157672
882.581	0.0157801
882.659	0.0158012
882.737	0.0157651
882.815	0.0158536
882.893	0.0158907
882.971	0.0159480
883.049	0.0159092
883.128	0.0159811
883.206	0.0158299
883.284	0.0159007
883.362	0.0158548
883.440	0.0158128
883.518	0.0157868
883.596	0.0158836
883.674	0.0160370
883.753	0.0161259
883.831	0.0158929
883.909	0.0158195
883.987	0.0159297
884.065	0.0160415
884.143	0.0158833
884.221	0.0158127
884.299	0.0160758
884.378	0.0159424
884.456	0.0157804
884.534	0.0159760
884.612	0.0158527
884.690	0.0159313
884.768	0.0158838
884.846	0.0158703
884.924	0.0158878
885.003	0.0157877
885.081	0.0157611
885.159	0.0158218
885.237	0.0157915
885.315	0.0159032
885.393	0.0158796
885.471	0.0160066
885.549	0.0158543
885.628	0.0159401
885.706	0.0159110
885.784	0.0159763
885.862	0.0159637
885.940	0.0158832
886.018	0.0159510
886.096	0.0159335
886.174	0.0159772
886.253	0.0159902
886.331	0.0158728
886.409	0.0158744
886.487	0.0159492
886.565	0.0159617
886.643	0.0159639
886.721	0.0160156
886.799	0.0158720
886.878	0.0159526
886.956	0.0159151
887.034	0.0158741
887.112	0.0159098
887.190	0.0159101
887.268	0.0159969
887.346	0.0158574
887.424	0.0158808
887.503	0.0158930
887.581	0.0158635
887.659	0.0158823
887.737	0.0159837
887.815	0.0158900
887.893	0.0158754
887.971	0.0158865
888.049	0.0160070
888.128	0.0159706
888.206	0.0160363
888.284	0.0161205
888.362	0.0159768
888.440	0.0159254
888.518	0.0160136
888.596	0.0161078
888.674	0.0159715
888.753	0.0160645
888.831	0.0160074
888.909	0.0158236
888.987	0.0159904
889.065	0.0160002
889.143	0.0159768
889.221	0.0159792
889.299	0.0157026
889.378	0.0159739
889.456	0.0159415
889.534	0.0158117
889.612	0.0157796
889.690	0.0156722
889.768	0.0156425
889.846	0.0159055
889.924	0.0157962
890.003	0.0158073
890.081	0.0158231
890.159	0.0158365
890.237	0.0159203
890.315	0.0157280
890.393	0.0158235
890.471	0.0158483
890.549	0.0157649
890.628	0.0156931
890.706	0.0158194
890.784	0.0158506
890.862	0.0157868
890.940	0.0158682
891.018	0.0159400
891.096	0.0157955
891.174	0.0158119
891.253	0.0157812
891.331	0.0157019
891.409	0.0158364
891.487	0.0157863
891.565	0.0159696
891.643	0.0158744
891.721	0.0157785
891.799	0.0157719
891.878	0.0158996
891.956	0.0157375
892.034	0.0157846
892.112	0.0158388
892.190	0.0157781
892.268	0.0159114
892.346	0.0159767
892.424	0.0159382
892.503	0.0159756
892.581	0.0159449
892.659	0.0159825
892.737	0.0159055
892.815	0.0158567
892.893	0.0158785
892.971	0.0159396
893.049	0.0158804
893.128	0.0159108
893.206	0.0158817
893.284	0.0158857
893.362	0.0157575
893.440	0.0158318
893.518	0.0158919
893.596	0.0158540
893.674	0.0157909
893.753	0.0158011
893.831	0.0159062
893.909	0.0158183
893.987	0.0157365
894.065	0.0158053
894.143	0.0159648
894.221	0.0157938
894.299	0.0158859
894.378	0.0159557
894.456	0.0158589
894.534	0.0159893
894.612	0.0159415
894.690	0.0159058
894.768	0.0159537
894.846	0.0159351
894.924	0.0160154
895.003	0.0159925
895.081	0.0159893
895.159	0.0159074
895.237	0.0160134
895.315	0.0158678
895.393	0.0159758
895.471	0.0158234
895.549	0.0158627
895.628	0.0161142
895.706	0.0161123
895.784	0.0159880
895.862	0.0159470
895.940	0.0160077
896.018	0.0158997
896.096	0.0159018
896.174	0.0158028
896.253	0.0161626
896.331	0.0160275
896.409	0.0159354
896.487	0.0159502
896.565	0.0159016
896.643	0.0158782
896.721	0.0159504
896.799	0.0158833
896.878	0.0157657
896.956	0.0156441
897.034	0.0159272
897.112	0.0158698
897.190	0.0157439
897.268	0.0158416
897.346	0.0157317
897.424	0.0156830
897.503	0.0156589
897.581	0.0155847
897.659	0.0158627
897.737	0.0157928
897.815	0.0158028
897.893	0.0158162
897.971	0.0157020
898.049	0.0157790
898.128	0.0157711
898.206	0.0158443
898.284	0.0159019
898.362	0.0158370
898.440	0.0158086
898.518	0.0158385
898.596	0.0158581
898.674	0.0158125
898.753	0.0158823
898.831	0.0158243
898.909	0.0158955
898.987	0.0160321
899.065	0.0159109
899.143	0.0158975
899.221	0.0158985
899.299	0.0160036
899.378	0.0158471
899.456	0.0159174
899.534	0.0159068
899.612	0.0159511
899.690	0.0158187
899.768	0.0157171
899.846	0.0157919
899.924	0.0159993
900.003	0.0158633
900.081	0.0157415
900.159	0.0158232
900.237	0.0157247
900.315	0.0158269
900.393	0.0158190
900.471	0.0158707
900.549	0.0159713
900.628	0.0158114
900.706	0.0158437
900.784	0.0156799
900.862	0.0159821
900.940	0.0159237
901.018	0.0160089
901.096	0.0159203
901.174	0.0158738
901.253	0.0158408
901.331	0.0159477
901.409	0.0160076
901.487	0.0159595
901.565	0.0157608
901.643	0.0160714
901.721	0.0159261
901.799	0.0159276
901.878	0.0159371
901.956	0.0158405
902.034	0.0160154
902.112	0.0159477
902.190	0.0160236
902.268	0.0160173
902.346	0.0159634
902.424	0.0159918
902.503	0.0161189
902.581	0.0159702
902.659	0.0160637
902.737	0.0159784
902.815	0.0160135
902.893	0.0159251
902.971	0.0159884
903.049	0.0159589
903.128	0.0160899
903.206	0.0160575
903.284	0.0160750
903.362	0.0159415
903.440	0.0159721
903.518	0.0159945
903.596	0.0159132
903.674	0.0159615
903.753	0.0160002
903.831	0.0159971
903.909	0.0159885
903.987	0.0160176
904.065	0.0159728
904.143	0.0159805
904.221	0.0158839
904.299	0.0159262
904.378	0.0158978
904.456	0.0160037
904.534	0.0159241
904.612	0.0158533
904.690	0.0157967
904.768	0.0157693
904.846	0.0158222
904.924	0.0158247
905.003	0.0158852
905.081	0.0157778
905.159	0.0157050
905.237	0.0158121
905.315	0.0158594
905.393	0.0158381
905.471	0.0159328
905.549	0.0158334
905.628	0.0157851
905.706	0.0158538
905.784	0.0159391
905.862	0.0157004
905.940	0.0158006
906.018	0.0158437
906.096	0.0157534
906.174	0.0157558
906.253	0.0158587
906.331	0.0158493
906.409	0.0157519
906.487	0.0158003
906.565	0.0157750
906.643	0.0158527
906.721	0.0158272
906.799	0.0157380
906.878	0.0159751
906.956	0.0157767
907.034	0.0159291
907.112	0.0159241
907.190	0.0158511
907.268	0.0159110
907.346	0.0158871
907.424	0.0159332
907.503	0.0159742
907.581	0.0159628
907.659	0.0157870
907.737	0.0159554
907.815	0.0160022
907.893	0.0160101
907.971	0.0159970
908.049	0.0160421
908.128	0.0159323
908.206	0.0158892
908.284	0.0158801
908.362	0.0158109
908.440	0.0159095
908.518	0.0159112
908.596	0.0159593
908.674	0.0157638
908.753	0.0158759
908.831	0.0159869
908.909	0.0158868
908.987	0.0160327
909.065	0.0158759
909.143	0.0159803
909.221	0.0158294
909.299	0.0159637
909.378	0.0159509
909.456	0.0158513
909.534	0.0158080
909.612	0.0159321
909.690	0.0159429
909.768	0.0158082
909.846	0.0158097
909.924	0.0159280
910.003	0.0159513
910.081	0.0159409
910.159	0.0156950
910.237	0.0158919
910.315	0.0158978
910.393	0.0158105
910.471	0.0158353
910.549	0.0159297
910.628	0.0157399
910.706	0.0158714
910.784	0.0157731
910.862	0.0158316
910.940	0.0157487
911.018	0.0159210
911.096	0.0157860
911.174	0.0158553
911.253	0.0159088
911.331	0.0158614
911.409	0.0159020
911.487	0.0158340
911.565	0.0159166
911.643	0.0157385
911.721	0.0158632
911.799	0.0158515
911.878	0.0158090
911.956	0.0158643
912.034	0.0157529
912.112	0.0157808
912.190	0.0157479
912.268	0.0158381
912.346	0.0158620
912.424	0.0158318
912.503	0.0157320
912.581	0.0157640
912.659	0.0158212
912.737	0.0159007
912.815	0.0158710
912.893	0.0157222
912.971	0.0157325
913.049	0.0156692
913.128	0.0157755
913.206	0.0157861
913.284	0.0156120
913.362	0.0158362
913.440	0.0157660
913.518	0.0158057
913.596	0.0155936
913.674	0.0157719
913.753	0.0156892
913.831	0.0158184
913.909	0.0157784
913.987	0.0157959
914.065	0.0156984
914.143	0.0158432
914.221	0.0157838
914.299	0.0157365
914.378	0.0157896
914.456	0.0158028
914.534	0.0158031
914.612	0.0158468
914.690	0.0158145
914.768	0.0158076
914.846	0.0158604
914.924	0.0157203
915.003	0.0157800
915.081	0.0157727
915.159	0.0159432
915.237	0.0159078
915.315	0.0158309
915.393	0.0158466
915.471	0.0157861
915.549	0.0158488
915.628	0.0157760
915.706	0.0158790
915.784	0.0158916
915.862	0.0158616
915.940	0.0156402
916.018	0.0158044
916.096	0.0159426
916.174	0.0158525
916.253	0.0158415
916.331	0.0159065
916.409	0.0159067
916.487	0.0158716
916.565	0.0157413
916.643	0.0157962
916.721	0.0158968
916.799	0.0156713
916.878	0.0158575
916.956	0.0158518
917.034	0.0158759
917.112	0.0158940
917.190	0.0156831
917.268	0.0158015
917.346	0.0158744
917.424	0.0158487
917.503	0.0158851
917.581	0.0158271
917.659	0.0159702
917.737	0.0158918
917.815	0.0158246
917.893	0.0159538
917.971	0.0158957
918.049	0.0157474
918.128	0.0158645
918.206	0.0160141
918.284	0.0160285
918.362	0.0159140
918.440	0.0158392
918.518	0.0157772
918.596	0.0160553
918.674	0.0158388
918.753	0.0159093
918.831	0.0159122
918.909	0.0158401
918.987	0.0159431
919.065	0.0158533
919.143	0.0159144
919.221	0.0158212
919.299	0.0158897
919.378	0.0158775
919.456	0.0159178
919.534	0.0158739
919.612	0.0158753
919.690	0.0158804
919.768	0.0160113
919.846	0.0158402
919.924	0.0156940
920.003	0.0158759
920.081	0.0157983
920.159	0.0158534
920.237	0.0157471
920.315	0.0158115
920.393	0.0158904
920.471	0.0158416
920.549	0.0159445
920.628	0.0159309
920.706	0.0158501
920.784	0.0159033
920.862	0.0159366
920.940	0.0159766
921.018	0.0159145
921.096	0.0159236
921.174	0.0159124
921.253	0.0158307
921.331	0.0159790
921.409	0.0159354
921.487	0.0160980
921.565	0.0159587
921.643	0.0158097
921.721	0.0159058
921.799	0.0159927
921.878	0.0159262
921.956	0.0159099
922.034	0.0158765
922.112	0.0159222
922.190	0.0159327
922.268	0.0158602
922.346	0.0159614
922.424	0.0159709
922.503	0.0157653
922.581	0.0158575
922.659	0.0157790
922.737	0.0159918
922.815	0.0158386
922.893	0.0159565
922.971	0.0159165
923.049	0.0160847
923.128	0.0159755
923.206	0.0158109
923.284	0.0158642
923.362	0.0160031
923.440	0.0158611
923.518	0.0159247
923.596	0.0158211
923.674	0.0159012
923.753	0.0159455
923.831	0.0158202
923.909	0.0159199
923.987	0.0159122
924.065	0.0158536
924.143	0.0157719
924.221	0.0158914
924.299	0.0160793
924.378	0.0159409
924.456	0.0159066
924.534	0.0159776
924.612	0.0158425
924.690	0.0158640
924.768	0.0157867
924.846	0.0159715
924.924	0.0158868
925.003	0.0159141
925.081	0.0158997
925.159	0.0158176
925.237	0.0158230
925.315	0.0159966
925.393	0.0159260
925.471	0.0159550
925.549	0.0158659
925.628	0.0158636
925.706	0.0158348
925.784	0.0158414
925.862	0.0158084
925.940	0.0158480
926.018	0.0159975
926.096	0.0159323
926.174	0.0158925
926.253	0.0159332
926.331	0.0159622
926.409	0.0158917
926.487	0.0158651
926.565	0.0157777
926.643	0.0157829
926.721	0.0158868
926.799	0.0159457
926.878	0.0158228
926.956	0.0159048
927.034	0.0158614
927.112	0.0158845
927.190	0.0157079
927.268	0.0158940
927.346	0.0158420
927.424	0.0157690
927.503	0.0158095
927.581	0.0158566
927.659	0.0157316
927.737	0.0157713
927.815	0.0158634
927.893	0.0158078
927.971	0.0157587
928.049	0.0158507
928.128	0.0157698
928.206	0.0157977
928.284	0.0158823
928.362	0.0157502
928.440	0.0157631
928.518	0.0158385
928.596	0.0159354
928.674	0.0157314
928.753	0.0157011
928.831	0.0158323
928.909	0.0157288
928.987	0.0158831
929.065	0.0157655
929.143	0.0158376
929.221	0.0158899
929.299	0.0157999
929.378	0.0158768
929.456	0.0158046
929.534	0.0158408
929.612	0.0158158
929.690	0.0159155
929.768	0.0157957
929.846	0.0158730
929.924	0.0158772
930.003	0.0158054
930.081	0.0157439
930.159	0.0159246
930.237	0.0158009
930.315	0.0157477
930.393	0.0157423
930.471	0.0158400
930.549	0.0160163
930.628	0.0158879
930.706	0.0159096
930.784	0.0157576
930.862	0.0158814
930.940	0.0158837
931.018	0.0157706
931.096	0.0158201
931.174	0.0159982
931.253	0.0159280
931.331	0.0157391
931.409	0.0157970
931.487	0.0157346
931.565	0.0158316
931.643	0.0158012
931.721	0.0157362
931.799	0.0157459
931.878	0.0160387
931.956	0.0158116
932.034	0.0158363
932.112	0.0158613
932.190	0.0158961
932.268	0.0158732
932.346	0.0158877
932.424	0.0158559
932.503	0.0158500
932.581	0.0158807
932.659	0.0159669
932.737	0.0159701
932.815	0.0157983
932.893	0.0157957
932.971	0.0158967
933.049	0.0158189
933.128	0.0159393
933.206	0.0158224
933.284	0.0158916
933.362	0.0158209
933.440	0.0158072
933.518	0.0158344
933.596	0.0158436
933.674	0.0157995
933.753	0.0158139
933.831	0.0158999
933.909	0.0158474
933.987	0.0160640
934.065	0.0158967
934.143	0.0156895
934.221	0.0157765
934.299	0.0159200
934.378	0.0159644
934.456	0.0158878
934.534	0.0158260
934.612	0.0159982
934.690	0.0157624
934.768	0.0157748
934.846	0.0159416
934.924	0.0158360
935.003	0.0159095
935.081	0.0158544
935.159	0.0159431
935.237	0.0157877
935.315	0.0159189
935.393	0.0157862
935.471	0.0157771
935.549	0.0157567
935.628	0.0159014
935.706	0.0158931
935.784	0.0159864
935.862	0.0159280
935.940	0.0157422
936.018	0.0157093
936.096	0.0158772
936.174	0.0157296
936.253	0.0158200
936.331	0.0157887
936.409	0.0158846
936.487	0.0158311
936.565	0.0157916
936.643	0.0160170
936.721	0.0158871
936.799	0.0158527
936.878	0.0158907
936.956	0.0157746
937.034	0.0158456
937.112	0.0159250
937.190	0.0158937
937.268	0.0157787
937.346	0.0158675
937.424	0.0157816
937.503	0.0159657
937.581	0.0157549
937.659	0.0158588
937.737	0.0159552
937.815	0.0160066
937.893	0.0158765
937.971	0.0159624
938.049	0.0157955
938.128	0.0157968
938.206	0.0158149
938.284	0.0158550
938.362	0.0157599
938.440	0.0158878
938.518	0.0158673
938.596	0.0158730
938.674	0.0158845
938.753	0.0157480
938.831	0.0157991
938.909	0.0159499
938.987	0.0158820
939.065	0.0158700
939.143	0.0159354
939.221	0.0158755
939.299	0.0158798
939.378	0.0159522
939.456	0.0157587
939.534	0.0158832
939.612	0.0158051
939.690	0.0157677
939.768	0.0158986
939.846	0.0158893
939.924	0.0157281
940.003	0.0156546
940.081	0.0157251
940.159	0.0157503
940.237	0.0156825
940.315	0.0157171
940.393	0.0157012
940.471	0.0157639
940.549	0.0156390
940.628	0.0156798
940.706	0.0158366
940.784	0.0158024
940.862	0.0156664
940.940	0.0157568
941.018	0.0157300
941.096	0.0157234
941.174	0.0157496
941.253	0.0158509
941.331	0.0157593
941.409	0.0156870
941.487	0.0158025
941.565	0.0157856
941.643	0.0158463
941.721	0.0157677
941.799	0.0157552
941.878	0.0157777
941.956	0.0157673
942.034	0.0158965
942.112	0.0159563
942.190	0.0158219
942.268	0.0157635
942.346	0.0158194
942.424	0.0157870
942.503	0.0158466
942.581	0.0159164
942.659	0.0159052
942.737	0.0158405
942.815	0.0158669
942.893	0.0159047
942.971	0.0159503
943.049	0.0158734
943.128	0.0158362
943.206	0.0158982
943.284	0.0158547
943.362	0.0158075
943.440	0.0159530
943.518	0.0159782
943.596	0.0157797
943.674	0.0159182
943.753	0.0158880
943.831	0.0158351
943.909	0.0158963
943.987	0.0158426
944.065	0.0158727
944.143	0.0159379
944.221	0.0159358
944.299	0.0159707
944.378	0.0159299
944.456	0.0159353
944.534	0.0159556
944.612	0.0160179
944.690	0.0160251
944.768	0.0159628
944.846	0.0159674
944.924	0.0160870
945.003	0.0160038
945.081	0.0160340
945.159	0.0159899
945.237	0.0159129
945.315	0.0159961
945.393	0.0159149
945.471	0.0159953
945.549	0.0159029
945.628	0.0159389
945.706	0.0157761
945.784	0.0158847
945.862	0.0159111
945.940	0.0158576
946.018	0.0158206
946.096	0.0158768
946.174	0.0157717
946.253	0.0157986
946.331	0.0157391
946.409	0.0157423
946.487	0.0157478
946.565	0.0158091
946.643	0.0156580
946.721	0.0156708
946.799	0.0158989
946.878	0.0157177
946.956	0.0156296
947.034	0.0157620
947.112	0.0157824
947.190	0.0157002
947.268	0.0158252
947.346	0.0157547
947.424	0.0158822
947.503	0.0157918
947.581	0.0157816
947.659	0.0157834
947.737	0.0157072
947.815	0.0156393
947.893	0.0158686
947.971	0.0157760
948.049	0.0156550
948.128	0.0157990
948.206	0.0158846
948.284	0.0159913
948.362	0.0158289
948.440	0.0158318
948.518	0.0158136
948.596	0.0159464
948.674	0.0159082
948.753	0.0158351
948.831	0.0158955
948.909	0.0158311
948.987	0.0158236
949.065	0.0158939
949.143	0.0158128
949.221	0.0160679
949.299	0.0159696
949.378	0.0158811
949.456	0.0159988
949.534	0.0159251
949.612	0.0160956
949.690	0.0159814
949.768	0.0159449
949.846	0.0159387
949.924	0.0157424
