05/19/2022	00:48:13	Ver.	4.1	UNKNOWN
Optical Delay	630.002507	Delta X		0.078125	Sweeps	1	Scan Rate	0/0
Coordinates	Axis 1	NaN	Axis 2	NaN	Axis 3	NaN	Axis 4	NaN	Axis 5	NaN	Axis 6	0.000000
TX Power	0.000000	RX Power	0.000000

630.003	0.0167307
630.081	0.0167637
630.159	0.0166750
630.237	0.0167461
630.315	0.0167381
630.393	0.0167934
630.471	0.0168640
630.549	0.0167490
630.628	0.0167395
630.706	0.0167435
630.784	0.0167221
630.862	0.0168140
630.940	0.0169263
631.018	0.0167711
631.096	0.0166814
631.174	0.0166624
631.253	0.0167621
631.331	0.0167456
631.409	0.0168608
631.487	0.0168779
631.565	0.0168396
631.643	0.0167726
631.721	0.0167628
631.799	0.0166563
631.878	0.0166577
631.956	0.0167291
632.034	0.0168024
632.112	0.0167540
632.190	0.0168069
632.268	0.0168224
632.346	0.0166676
632.424	0.0167937
632.503	0.0167720
632.581	0.0167491
632.659	0.0166990
632.737	0.0168130
632.815	0.0168443
632.893	0.0167175
632.971	0.0167236
633.049	0.0168415
633.128	0.0168658
633.206	0.0167976
633.284	0.0167213
633.362	0.0168179
633.440	0.0167346
633.518	0.0167437
633.596	0.0167963
633.674	0.0167784
633.753	0.0167139
633.831	0.0169002
633.909	0.0169142
633.987	0.0168729
634.065	0.0168973
634.143	0.0167899
634.221	0.0167657
634.299	0.0166830
634.378	0.0167664
634.456	0.0167226
634.534	0.0166528
634.612	0.0166809
634.690	0.0168353
634.768	0.0168456
634.846	0.0168160
634.924	0.0168591
635.003	0.0167059
635.081	0.0166274
635.159	0.0167715
635.237	0.0168643
635.315	0.0168684
635.393	0.0166621
635.471	0.0167522
635.549	0.0167302
635.628	0.0166103
635.706	0.0167651
635.784	0.0166943
635.862	0.0167656
635.940	0.0168520
636.018	0.0168160
636.096	0.0167510
636.174	0.0167574
636.253	0.0167918
636.331	0.0166888
636.409	0.0167126
636.487	0.0167686
636.565	0.0167559
636.643	0.0167258
636.721	0.0165921
636.799	0.0167053
636.878	0.0169039
636.956	0.0166888
637.034	0.0167706
637.112	0.0166617
637.190	0.0167259
637.268	0.0167093
637.346	0.0167114
637.424	0.0167570
637.503	0.0167156
637.581	0.0167309
637.659	0.0166535
637.737	0.0167308
637.815	0.0167055
637.893	0.0167738
637.971	0.0166722
638.049	0.0165449
638.128	0.0167110
638.206	0.0167124
638.284	0.0167387
638.362	0.0166342
638.440	0.0165047
638.518	0.0167008
638.596	0.0167743
638.674	0.0165665
638.753	0.0167184
638.831	0.0166457
638.909	0.0166734
638.987	0.0165616
639.065	0.0165787
639.143	0.0168035
639.221	0.0167742
639.299	0.0165560
639.378	0.0166676
639.456	0.0165764
639.534	0.0166232
639.612	0.0165934
639.690	0.0165041
639.768	0.0166053
639.846	0.0166831
639.924	0.0166016
640.003	0.0166702
640.081	0.0165553
640.159	0.0166203
640.237	0.0166035
640.315	0.0167561
640.393	0.0166333
640.471	0.0167027
640.549	0.0166118
640.628	0.0167493
640.706	0.0165363
640.784	0.0166267
640.862	0.0166661
640.940	0.0166035
641.018	0.0165978
641.096	0.0165154
641.174	0.0165997
641.253	0.0165618
641.331	0.0167175
641.409	0.0166883
641.487	0.0164433
641.565	0.0165387
641.643	0.0167054
641.721	0.0165522
641.799	0.0165932
641.878	0.0165406
641.956	0.0164311
642.034	0.0167650
642.112	0.0167527
642.190	0.0165495
642.268	0.0165858
642.346	0.0165781
642.424	0.0165946
642.503	0.0165275
642.581	0.0164986
642.659	0.0166414
642.737	0.0165022
642.815	0.0167921
642.893	0.0165508
642.971	0.0166376
643.049	0.0167006
643.128	0.0165664
643.206	0.0165744
643.284	0.0165599
643.362	0.0166375
643.440	0.0166074
643.518	0.0165427
643.596	0.0165124
643.674	0.0165842
643.753	0.0165755
643.831	0.0166231
643.909	0.0166329
643.987	0.0165646
644.065	0.0165264
644.143	0.0165741
644.221	0.0165723
644.299	0.0165545
644.378	0.0164442
644.456	0.0164697
644.534	0.0164993
644.612	0.0165364
644.690	0.0164478
644.768	0.0164986
644.846	0.0165778
644.924	0.0165431
645.003	0.0167093
645.081	0.0166553
645.159	0.0165978
645.237	0.0166404
645.315	0.0166617
645.393	0.0164273
645.471	0.0165478
645.549	0.0166605
645.628	0.0165493
645.706	0.0165022
645.784	0.0166425
645.862	0.0165987
645.940	0.0164020
646.018	0.0165964
646.096	0.0166918
646.174	0.0165201
646.253	0.0166078
646.331	0.0165687
646.409	0.0166086
646.487	0.0166411
646.565	0.0167371
646.643	0.0164793
646.721	0.0165836
646.799	0.0165828
646.878	0.0164914
646.956	0.0165031
647.034	0.0166518
647.112	0.0166056
647.190	0.0165132
647.268	0.0166314
647.346	0.0166113
647.424	0.0165543
647.503	0.0166277
647.581	0.0166948
647.659	0.0166649
647.737	0.0165942
647.815	0.0166798
647.893	0.0164887
647.971	0.0166099
648.049	0.0166233
648.128	0.0165297
648.206	0.0164460
648.284	0.0165855
648.362	0.0166342
648.440	0.0165800
648.518	0.0167054
648.596	0.0165312
648.674	0.0164856
648.753	0.0165662
648.831	0.0165823
648.909	0.0167023
648.987	0.0166196
649.065	0.0167690
649.143	0.0166637
649.221	0.0165015
649.299	0.0167439
649.378	0.0168889
649.456	0.0166593
649.534	0.0167384
649.612	0.0166912
649.690	0.0166383
649.768	0.0164922
649.846	0.0166730
649.924	0.0167838
650.003	0.0167297
650.081	0.0165789
650.159	0.0165651
650.237	0.0167048
650.315	0.0166634
650.393	0.0165948
650.471	0.0167452
650.549	0.0167090
650.628	0.0167265
650.706	0.0167553
650.784	0.0167693
650.862	0.0167322
650.940	0.0166502
651.018	0.0165955
651.096	0.0168622
651.174	0.0167522
651.253	0.0166316
651.331	0.0167055
651.409	0.0167683
651.487	0.0168787
651.565	0.0166040
651.643	0.0167028
651.721	0.0167905
651.799	0.0166485
651.878	0.0165922
651.956	0.0165316
652.034	0.0167337
652.112	0.0166766
652.190	0.0167126
652.268	0.0167301
652.346	0.0166860
652.424	0.0166580
652.503	0.0167427
652.581	0.0166323
652.659	0.0167735
652.737	0.0167447
652.815	0.0167001
652.893	0.0167767
652.971	0.0168134
653.049	0.0167869
653.128	0.0167461
653.206	0.0168127
653.284	0.0168661
653.362	0.0167760
653.440	0.0167281
653.518	0.0166799
653.596	0.0166824
653.674	0.0167796
653.753	0.0168243
653.831	0.0168343
653.909	0.0167443
653.987	0.0167742
654.065	0.0168070
654.143	0.0167933
654.221	0.0166452
654.299	0.0165658
654.378	0.0167766
654.456	0.0166916
654.534	0.0167947
654.612	0.0167538
654.690	0.0168366
654.768	0.0168521
654.846	0.0166373
654.924	0.0167572
655.003	0.0167139
655.081	0.0168134
655.159	0.0166105
655.237	0.0168632
655.315	0.0167036
655.393	0.0167253
655.471	0.0168507
655.549	0.0168275
655.628	0.0167055
655.706	0.0165562
655.784	0.0166160
655.862	0.0167638
655.940	0.0166216
656.018	0.0167112
656.096	0.0167046
656.174	0.0168136
656.253	0.0166341
656.331	0.0167237
656.409	0.0168176
656.487	0.0166846
656.565	0.0166602
656.643	0.0166611
656.721	0.0166674
656.799	0.0167776
656.878	0.0166389
656.956	0.0165680
657.034	0.0166557
657.112	0.0166470
657.190	0.0167474
657.268	0.0167173
657.346	0.0166171
657.424	0.0166543
657.503	0.0167267
657.581	0.0166625
657.659	0.0165686
657.737	0.0166655
657.815	0.0166679
657.893	0.0166360
657.971	0.0166841
658.049	0.0166667
658.128	0.0165480
658.206	0.0164552
658.284	0.0165626
658.362	0.0165807
658.440	0.0165058
658.518	0.0164259
658.596	0.0164311
658.674	0.0163453
658.753	0.0164487
658.831	0.0163990
658.909	0.0165307
658.987	0.0164906
659.065	0.0163827
659.143	0.0164840
659.221	0.0164606
659.299	0.0165074
659.378	0.0165863
659.456	0.0166333
659.534	0.0166274
659.612	0.0166312
659.690	0.0166278
659.768	0.0166370
659.846	0.0166563
659.924	0.0165491
660.003	0.0165781
660.081	0.0165877
660.159	0.0166610
660.237	0.0166238
660.315	0.0167461
660.393	0.0167036
660.471	0.0166214
660.549	0.0166611
660.628	0.0166328
660.706	0.0165492
660.784	0.0166177
660.862	0.0167332
660.940	0.0166718
661.018	0.0167383
661.096	0.0166357
661.174	0.0167886
661.253	0.0166817
661.331	0.0167381
661.409	0.0168042
661.487	0.0166869
661.565	0.0168031
661.643	0.0167622
661.721	0.0168096
661.799	0.0168562
661.878	0.0167142
661.956	0.0168093
662.034	0.0167685
662.112	0.0167510
662.190	0.0167484
662.268	0.0168200
662.346	0.0167946
662.424	0.0166478
662.503	0.0167345
662.581	0.0167462
662.659	0.0166759
662.737	0.0166508
662.815	0.0164478
662.893	0.0167764
662.971	0.0167033
663.049	0.0165688
663.128	0.0165983
663.206	0.0168684
663.284	0.0167957
663.362	0.0167533
663.440	0.0167548
663.518	0.0167534
663.596	0.0166988
663.674	0.0168464
663.753	0.0168903
663.831	0.0167745
663.909	0.0167188
663.987	0.0167050
664.065	0.0168082
664.143	0.0168786
664.221	0.0167306
664.299	0.0169139
664.378	0.0169367
664.456	0.0167258
664.534	0.0167098
664.612	0.0168014
664.690	0.0168212
664.768	0.0167304
664.846	0.0167842
664.924	0.0167652
665.003	0.0165292
665.081	0.0166442
665.159	0.0165601
665.237	0.0165217
665.315	0.0166525
665.393	0.0165786
665.471	0.0164530
665.549	0.0164088
665.628	0.0164265
665.706	0.0165453
665.784	0.0164272
665.862	0.0164733
665.940	0.0164433
666.018	0.0163742
666.096	0.0166048
666.174	0.0164643
666.253	0.0164375
666.331	0.0164460
666.409	0.0165578
666.487	0.0165957
666.565	0.0165296
666.643	0.0165249
666.721	0.0166381
666.799	0.0167072
666.878	0.0165141
666.956	0.0165154
667.034	0.0166198
667.112	0.0166477
667.190	0.0165606
667.268	0.0164560
667.346	0.0164941
667.424	0.0164043
667.503	0.0164819
667.581	0.0165546
667.659	0.0164611
667.737	0.0162633
667.815	0.0164980
667.893	0.0164603
667.971	0.0164463
668.049	0.0163396
668.128	0.0163822
668.206	0.0166273
668.284	0.0165105
668.362	0.0163245
668.440	0.0163210
668.518	0.0164370
668.596	0.0165495
668.674	0.0164996
668.753	0.0165599
668.831	0.0164452
668.909	0.0165030
668.987	0.0166399
669.065	0.0165336
669.143	0.0164993
669.221	0.0166496
669.299	0.0166531
669.378	0.0165715
669.456	0.0166410
669.534	0.0165603
669.612	0.0166269
669.690	0.0167237
669.768	0.0165614
669.846	0.0166125
669.924	0.0166190
670.003	0.0167052
670.081	0.0166648
670.159	0.0166744
670.237	0.0166247
670.315	0.0166111
670.393	0.0167044
670.471	0.0166788
670.549	0.0165559
670.628	0.0166171
670.706	0.0165729
670.784	0.0165149
670.862	0.0165230
670.940	0.0165926
671.018	0.0166022
671.096	0.0164697
671.174	0.0164956
671.253	0.0166526
671.331	0.0164928
671.409	0.0166566
671.487	0.0166891
671.565	0.0168169
671.643	0.0167101
671.721	0.0168129
671.799	0.0169572
671.878	0.0167605
671.956	0.0168171
672.034	0.0169167
672.112	0.0168179
672.190	0.0167722
672.268	0.0167593
672.346	0.0167379
672.424	0.0166996
672.503	0.0166412
672.581	0.0167809
672.659	0.0166885
672.737	0.0164406
672.815	0.0166711
672.893	0.0166019
672.971	0.0166395
673.049	0.0168266
673.128	0.0168727
673.206	0.0168730
673.284	0.0168530
673.362	0.0167654
673.440	0.0168918
673.518	0.0167701
673.596	0.0168887
673.674	0.0168349
673.753	0.0167587
673.831	0.0166585
673.909	0.0166497
673.987	0.0166196
674.065	0.0166251
674.143	0.0164146
674.221	0.0163448
674.299	0.0164632
674.378	0.0164066
674.456	0.0164342
674.534	0.0163403
674.612	0.0164404
674.690	0.0164366
674.768	0.0164381
674.846	0.0165157
674.924	0.0164742
675.003	0.0165211
675.081	0.0165415
675.159	0.0165689
675.237	0.0166074
675.315	0.0166395
675.393	0.0166858
675.471	0.0166600
675.549	0.0166084
675.628	0.0166698
675.706	0.0166929
675.784	0.0166891
675.862	0.0168362
675.940	0.0167782
676.018	0.0168865
676.096	0.0168152
676.174	0.0168091
676.253	0.0168714
676.331	0.0168790
676.409	0.0167966
676.487	0.0169044
676.565	0.0168608
676.643	0.0168158
676.721	0.0166250
676.799	0.0166508
676.878	0.0166232
676.956	0.0166884
677.034	0.0164838
677.112	0.0165662
677.190	0.0165004
677.268	0.0165707
677.346	0.0165347
677.424	0.0166552
677.503	0.0166187
677.581	0.0165561
677.659	0.0164933
677.737	0.0164401
677.815	0.0164316
677.893	0.0165928
677.971	0.0165960
678.049	0.0164449
678.128	0.0165200
678.206	0.0165347
678.284	0.0166076
678.362	0.0165896
678.440	0.0165574
678.518	0.0165252
678.596	0.0166683
678.674	0.0166602
678.753	0.0166167
678.831	0.0167099
678.909	0.0166613
678.987	0.0167008
679.065	0.0167121
679.143	0.0166839
679.221	0.0168322
679.299	0.0168678
679.378	0.0167867
679.456	0.0167043
679.534	0.0168839
679.612	0.0168216
679.690	0.0169083
679.768	0.0167427
679.846	0.0168289
679.924	0.0169659
680.003	0.0168842
680.081	0.0166997
680.159	0.0168258
680.237	0.0167497
680.315	0.0166754
680.393	0.0166705
680.471	0.0165871
680.549	0.0166714
680.628	0.0165135
680.706	0.0165098
680.784	0.0163670
680.862	0.0163023
680.940	0.0163305
681.018	0.0163215
681.096	0.0163905
681.174	0.0164275
681.253	0.0164861
681.331	0.0165891
681.409	0.0165233
681.487	0.0164433
681.565	0.0165284
681.643	0.0166225
681.721	0.0167800
681.799	0.0167654
681.878	0.0166749
681.956	0.0168123
682.034	0.0168369
682.112	0.0167086
682.190	0.0168889
682.268	0.0168351
682.346	0.0168447
682.424	0.0168048
682.503	0.0169039
682.581	0.0168295
682.659	0.0169157
682.737	0.0169234
682.815	0.0170727
682.893	0.0168606
682.971	0.0168046
683.049	0.0170488
683.128	0.0169748
683.206	0.0170609
683.284	0.0168606
683.362	0.0170715
683.440	0.0169914
683.518	0.0169094
683.596	0.0168742
683.674	0.0168333
683.753	0.0169022
683.831	0.0167111
683.909	0.0167577
683.987	0.0167844
684.065	0.0167767
684.143	0.0169107
684.221	0.0165990
684.299	0.0165683
684.378	0.0164850
684.456	0.0165375
684.534	0.0164275
684.612	0.0163626
684.690	0.0163531
684.768	0.0164897
684.846	0.0163745
684.924	0.0163896
685.003	0.0163843
685.081	0.0163958
685.159	0.0162634
685.237	0.0163990
685.315	0.0163828
685.393	0.0165381
685.471	0.0166688
685.549	0.0166370
685.628	0.0166671
685.706	0.0168063
685.784	0.0168663
685.862	0.0168348
685.940	0.0167391
686.018	0.0167240
686.096	0.0166047
686.174	0.0165363
686.253	0.0166006
686.331	0.0165214
686.409	0.0164579
686.487	0.0166366
686.565	0.0164811
686.643	0.0164381
686.721	0.0164659
686.799	0.0164199
686.878	0.0165958
686.956	0.0164729
687.034	0.0164696
687.112	0.0165139
687.190	0.0165419
687.268	0.0164911
687.346	0.0164717
687.424	0.0165821
687.503	0.0165736
687.581	0.0164788
687.659	0.0163739
687.737	0.0164063
687.815	0.0163995
687.893	0.0162666
687.971	0.0164006
688.049	0.0162736
688.128	0.0162297
688.206	0.0159907
688.284	0.0162008
688.362	0.0161378
688.440	0.0161194
688.518	0.0161974
688.596	0.0162965
688.674	0.0163223
688.753	0.0163816
688.831	0.0165781
688.909	0.0165227
688.987	0.0165501
689.065	0.0167435
689.143	0.0167599
689.221	0.0167545
689.299	0.0169300
689.378	0.0168580
689.456	0.0168244
689.534	0.0168324
689.612	0.0167804
689.690	0.0169185
689.768	0.0168714
689.846	0.0166911
689.924	0.0167462
690.003	0.0168157
690.081	0.0168195
690.159	0.0168781
690.237	0.0168061
690.315	0.0168166
690.393	0.0168594
690.471	0.0168898
690.549	0.0170110
690.628	0.0169337
690.706	0.0168774
690.784	0.0170521
690.862	0.0169657
690.940	0.0167712
691.018	0.0169444
691.096	0.0165777
691.174	0.0165962
691.253	0.0167683
691.331	0.0166030
691.409	0.0165308
691.487	0.0164127
691.565	0.0164100
691.643	0.0165165
691.721	0.0162832
691.799	0.0163166
691.878	0.0162823
691.956	0.0164395
692.034	0.0165608
692.112	0.0166206
692.190	0.0166479
692.268	0.0166070
692.346	0.0166714
692.424	0.0165556
692.503	0.0165845
692.581	0.0165480
692.659	0.0166345
692.737	0.0166396
692.815	0.0167182
692.893	0.0167908
692.971	0.0167429
693.049	0.0168905
693.128	0.0169204
693.206	0.0169125
693.284	0.0168303
693.362	0.0168436
693.440	0.0168044
693.518	0.0167999
693.596	0.0167750
693.674	0.0168620
693.753	0.0167568
693.831	0.0165518
693.909	0.0167428
693.987	0.0167606
694.065	0.0167319
694.143	0.0166779
694.221	0.0167044
694.299	0.0166080
694.378	0.0164902
694.456	0.0165929
694.534	0.0165514
694.612	0.0166463
694.690	0.0164545
694.768	0.0165175
694.846	0.0164790
694.924	0.0163555
695.003	0.0162953
695.081	0.0164184
695.159	0.0165690
695.237	0.0164666
695.315	0.0164053
695.393	0.0164597
695.471	0.0164422
695.549	0.0165295
695.628	0.0167139
695.706	0.0165255
695.784	0.0165044
695.862	0.0165477
695.940	0.0166232
696.018	0.0166514
696.096	0.0165701
696.174	0.0164794
696.253	0.0167120
696.331	0.0167218
696.409	0.0167683
696.487	0.0167516
696.565	0.0169131
696.643	0.0168404
696.721	0.0168748
696.799	0.0168764
696.878	0.0169044
696.956	0.0169820
697.034	0.0170062
697.112	0.0170804
697.190	0.0168583
697.268	0.0169272
697.346	0.0169695
697.424	0.0169283
697.503	0.0168300
697.581	0.0167686
697.659	0.0167282
697.737	0.0167801
697.815	0.0167425
697.893	0.0166425
697.971	0.0167019
698.049	0.0165451
698.128	0.0167210
698.206	0.0165282
698.284	0.0166290
698.362	0.0167607
698.440	0.0165723
698.518	0.0165053
698.596	0.0166531
698.674	0.0165771
698.753	0.0166167
698.831	0.0166451
698.909	0.0166788
698.987	0.0166578
699.065	0.0165953
699.143	0.0165245
699.221	0.0166394
699.299	0.0167705
699.378	0.0166331
699.456	0.0166007
699.534	0.0166827
699.612	0.0166293
699.690	0.0165812
699.768	0.0166228
699.846	0.0164516
699.924	0.0165055
700.003	0.0165154
700.081	0.0162773
700.159	0.0164148
700.237	0.0164780
700.315	0.0163490
700.393	0.0164626
700.471	0.0164069
700.549	0.0164874
700.628	0.0164332
700.706	0.0165708
700.784	0.0164600
700.862	0.0164656
700.940	0.0163526
701.018	0.0165824
701.096	0.0166538
701.174	0.0165324
701.253	0.0164342
701.331	0.0166008
701.409	0.0164649
701.487	0.0163931
701.565	0.0165849
701.643	0.0164391
701.721	0.0164133
701.799	0.0163839
701.878	0.0162254
701.956	0.0164842
702.034	0.0165750
702.112	0.0165519
702.190	0.0164676
702.268	0.0166282
702.346	0.0166758
702.424	0.0166718
702.503	0.0169665
702.581	0.0168835
702.659	0.0169350
702.737	0.0171201
702.815	0.0171367
702.893	0.0169885
702.971	0.0170845
703.049	0.0172349
703.128	0.0171116
703.206	0.0170624
703.284	0.0170068
703.362	0.0171254
703.440	0.0171014
703.518	0.0169807
703.596	0.0170058
703.674	0.0171519
703.753	0.0171362
703.831	0.0171822
703.909	0.0171673
703.987	0.0172352
704.065	0.0172429
704.143	0.0173099
704.221	0.0172699
704.299	0.0172146
704.378	0.0172671
704.456	0.0170324
704.534	0.0169472
704.612	0.0167961
704.690	0.0167802
704.768	0.0167578
704.846	0.0166760
704.924	0.0165797
705.003	0.0166115
705.081	0.0167009
705.159	0.0164245
705.237	0.0164972
705.315	0.0164649
705.393	0.0164691
705.471	0.0165112
705.549	0.0164883
705.628	0.0165166
705.706	0.0164352
705.784	0.0163879
705.862	0.0163510
705.940	0.0165176
706.018	0.0164290
706.096	0.0163979
706.174	0.0163071
706.253	0.0162766
706.331	0.0162542
706.409	0.0162927
706.487	0.0161617
706.565	0.0161430
706.643	0.0161454
706.721	0.0161449
706.799	0.0160383
706.878	0.0160433
706.956	0.0161011
707.034	0.0162891
707.112	0.0162423
707.190	0.0162794
707.268	0.0163406
707.346	0.0162667
707.424	0.0162418
707.503	0.0163143
707.581	0.0162214
707.659	0.0162090
707.737	0.0163194
707.815	0.0162990
707.893	0.0165389
707.971	0.0165850
708.049	0.0165659
708.128	0.0167064
708.206	0.0167467
708.284	0.0167791
708.362	0.0168679
708.440	0.0169918
708.518	0.0168939
708.596	0.0171162
708.674	0.0170098
708.753	0.0173021
708.831	0.0172361
708.909	0.0172052
708.987	0.0172231
709.065	0.0172879
709.143	0.0172802
709.221	0.0173553
709.299	0.0173660
709.378	0.0173077
709.456	0.0171776
709.534	0.0171633
709.612	0.0171167
709.690	0.0171960
709.768	0.0170450
709.846	0.0171292
709.924	0.0170911
710.003	0.0171714
710.081	0.0170653
710.159	0.0169669
710.237	0.0168968
710.315	0.0170071
710.393	0.0170587
710.471	0.0171578
710.549	0.0170798
710.628	0.0170233
710.706	0.0170335
710.784	0.0169587
710.862	0.0168935
710.940	0.0168027
711.018	0.0168271
711.096	0.0168122
711.174	0.0167980
711.253	0.0165630
711.331	0.0166030
711.409	0.0165321
711.487	0.0164510
711.565	0.0164163
711.643	0.0164503
711.721	0.0163589
711.799	0.0164143
711.878	0.0162580
711.956	0.0162085
712.034	0.0163768
712.112	0.0162338
712.190	0.0162634
712.268	0.0162781
712.346	0.0162252
712.424	0.0163759
712.503	0.0162281
712.581	0.0163837
712.659	0.0163780
712.737	0.0162732
712.815	0.0164729
712.893	0.0164064
712.971	0.0164176
713.049	0.0164627
713.128	0.0165054
713.206	0.0164558
713.284	0.0164381
713.362	0.0165541
713.440	0.0164927
713.518	0.0165155
713.596	0.0164687
713.674	0.0163757
713.753	0.0164189
713.831	0.0165288
713.909	0.0164684
713.987	0.0163726
714.065	0.0164787
714.143	0.0164345
714.221	0.0165377
714.299	0.0164267
714.378	0.0164635
714.456	0.0164445
714.534	0.0165811
714.612	0.0165717
714.690	0.0166394
714.768	0.0166283
714.846	0.0167020
714.924	0.0166586
715.003	0.0166235
715.081	0.0168703
715.159	0.0167522
715.237	0.0165791
715.315	0.0168026
715.393	0.0169050
715.471	0.0168359
715.549	0.0168138
715.628	0.0168244
715.706	0.0169758
715.784	0.0171391
715.862	0.0170695
715.940	0.0170026
716.018	0.0170170
716.096	0.0171866
716.174	0.0172136
716.253	0.0172311
716.331	0.0172008
716.409	0.0172935
716.487	0.0172266
716.565	0.0171136
716.643	0.0172459
716.721	0.0172451
716.799	0.0170892
716.878	0.0170110
716.956	0.0169755
717.034	0.0169152
717.112	0.0169885
717.190	0.0169224
717.268	0.0170262
717.346	0.0168917
717.424	0.0168383
717.503	0.0168493
717.581	0.0168394
717.659	0.0167568
717.737	0.0169063
717.815	0.0168315
717.893	0.0167467
717.971	0.0166840
718.049	0.0166073
718.128	0.0168539
718.206	0.0167743
718.284	0.0165287
718.362	0.0166245
718.440	0.0165362
718.518	0.0165741
718.596	0.0164832
718.674	0.0164372
718.753	0.0165221
718.831	0.0164624
718.909	0.0164877
718.987	0.0164559
719.065	0.0164362
719.143	0.0163493
719.221	0.0164610
719.299	0.0165178
719.378	0.0163742
719.456	0.0164327
719.534	0.0164402
719.612	0.0163747
719.690	0.0162727
719.768	0.0163553
719.846	0.0163853
719.924	0.0161787
720.003	0.0163300
720.081	0.0163052
720.159	0.0162326
720.237	0.0162442
720.315	0.0160804
720.393	0.0163364
720.471	0.0162890
720.549	0.0163681
720.628	0.0163522
720.706	0.0164202
720.784	0.0164265
720.862	0.0165250
720.940	0.0164661
721.018	0.0162165
721.096	0.0163932
721.174	0.0163641
721.253	0.0161207
721.331	0.0163267
721.409	0.0162735
721.487	0.0163177
721.565	0.0164690
721.643	0.0163221
721.721	0.0162510
721.799	0.0163432
721.878	0.0166123
721.956	0.0166869
722.034	0.0167484
722.112	0.0166745
722.190	0.0169076
722.268	0.0167567
722.346	0.0169925
722.424	0.0168345
722.503	0.0169530
722.581	0.0169742
722.659	0.0171642
722.737	0.0171001
722.815	0.0171700
722.893	0.0171266
722.971	0.0172397
723.049	0.0171607
723.128	0.0170497
723.206	0.0170712
723.284	0.0171160
723.362	0.0171657
723.440	0.0170519
723.518	0.0171881
723.596	0.0172068
723.674	0.0172142
723.753	0.0173003
723.831	0.0171577
723.909	0.0171832
723.987	0.0171100
724.065	0.0170225
724.143	0.0170483
724.221	0.0169682
724.299	0.0169939
724.378	0.0168637
724.456	0.0167794
724.534	0.0167819
724.612	0.0166750
724.690	0.0165913
724.768	0.0166253
724.846	0.0166573
724.924	0.0166555
725.003	0.0166273
725.081	0.0166422
725.159	0.0164459
725.237	0.0164830
725.315	0.0164925
725.393	0.0165579
725.471	0.0164694
725.549	0.0165305
725.628	0.0166264
725.706	0.0166701
725.784	0.0166508
725.862	0.0166410
725.940	0.0165004
726.018	0.0167198
726.096	0.0166466
726.174	0.0164790
726.253	0.0165588
726.331	0.0165177
726.409	0.0163689
726.487	0.0164519
726.565	0.0165302
726.643	0.0163824
726.721	0.0163813
726.799	0.0162220
726.878	0.0163020
726.956	0.0162783
727.034	0.0161556
727.112	0.0160824
727.190	0.0161040
727.268	0.0161002
727.346	0.0159308
727.424	0.0161615
727.503	0.0160873
727.581	0.0159638
727.659	0.0161714
727.737	0.0161538
727.815	0.0160825
727.893	0.0163252
727.971	0.0162752
728.049	0.0164079
728.128	0.0164432
728.206	0.0164478
728.284	0.0166609
728.362	0.0165072
728.440	0.0167190
728.518	0.0166601
728.596	0.0167028
728.674	0.0167905
728.753	0.0167166
728.831	0.0168455
728.909	0.0168378
728.987	0.0169096
729.065	0.0168482
729.143	0.0168671
729.221	0.0169157
729.299	0.0170237
729.378	0.0168632
729.456	0.0168661
729.534	0.0169956
729.612	0.0170082
729.690	0.0170222
729.768	0.0170190
729.846	0.0170311
729.924	0.0171997
730.003	0.0170462
730.081	0.0171499
730.159	0.0172888
730.237	0.0171452
730.315	0.0171095
730.393	0.0172327
730.471	0.0171931
730.549	0.0170179
730.628	0.0170609
730.706	0.0171056
730.784	0.0171294
730.862	0.0169071
730.940	0.0170430
731.018	0.0171444
731.096	0.0170795
731.174	0.0169918
731.253	0.0171902
731.331	0.0171507
731.409	0.0169722
731.487	0.0169504
731.565	0.0168528
731.643	0.0170676
731.721	0.0170225
731.799	0.0169437
731.878	0.0169141
731.956	0.0167148
732.034	0.0166767
732.112	0.0167440
732.190	0.0166778
732.268	0.0165659
732.346	0.0165723
732.424	0.0165213
732.503	0.0165723
732.581	0.0165405
732.659	0.0165249
732.737	0.0163935
732.815	0.0164162
732.893	0.0165073
732.971	0.0163351
733.049	0.0163248
733.128	0.0163296
733.206	0.0162382
733.284	0.0162844
733.362	0.0162648
733.440	0.0161644
733.518	0.0162753
733.596	0.0162747
733.674	0.0161742
733.753	0.0163216
733.831	0.0162825
733.909	0.0162382
733.987	0.0162554
734.065	0.0163382
734.143	0.0162317
734.221	0.0162435
734.299	0.0164031
734.378	0.0162914
734.456	0.0162684
734.534	0.0162623
734.612	0.0163400
734.690	0.0163651
734.768	0.0163898
734.846	0.0164412
734.924	0.0163637
735.003	0.0166315
735.081	0.0164712
735.159	0.0163858
735.237	0.0166610
735.315	0.0167639
735.393	0.0167225
735.471	0.0166241
735.549	0.0167223
735.628	0.0168976
735.706	0.0168986
735.784	0.0169090
735.862	0.0169546
735.940	0.0169732
736.018	0.0170428
736.096	0.0170973
736.174	0.0170171
736.253	0.0170304
736.331	0.0168971
736.409	0.0170646
736.487	0.0170139
736.565	0.0169080
736.643	0.0168268
736.721	0.0168389
736.799	0.0168060
736.878	0.0167683
736.956	0.0166869
737.034	0.0168173
737.112	0.0168909
737.190	0.0168212
737.268	0.0168368
737.346	0.0168931
737.424	0.0168182
737.503	0.0169086
737.581	0.0170344
737.659	0.0169056
737.737	0.0167635
737.815	0.0170410
737.893	0.0167992
737.971	0.0168895
738.049	0.0168710
738.128	0.0167770
738.206	0.0167147
738.284	0.0166204
738.362	0.0166460
738.440	0.0167661
738.518	0.0167144
738.596	0.0165942
738.674	0.0166537
738.753	0.0168216
738.831	0.0166695
738.909	0.0165654
738.987	0.0167799
739.065	0.0168773
739.143	0.0166541
739.221	0.0167850
739.299	0.0167086
739.378	0.0166142
739.456	0.0166128
739.534	0.0166134
739.612	0.0165392
739.690	0.0163885
739.768	0.0165227
739.846	0.0164132
739.924	0.0164752
740.003	0.0163586
740.081	0.0164173
740.159	0.0163626
740.237	0.0164590
740.315	0.0165905
740.393	0.0163831
740.471	0.0163298
740.549	0.0164719
740.628	0.0164732
740.706	0.0163628
740.784	0.0163527
740.862	0.0163431
740.940	0.0163680
741.018	0.0163300
741.096	0.0164219
741.174	0.0163757
741.253	0.0163056
741.331	0.0162832
741.409	0.0163035
741.487	0.0163607
741.565	0.0161375
741.643	0.0162019
741.721	0.0162914
741.799	0.0162880
741.878	0.0164761
741.956	0.0163078
742.034	0.0162811
742.112	0.0164561
742.190	0.0162700
742.268	0.0164801
742.346	0.0164005
742.424	0.0164858
742.503	0.0165046
742.581	0.0162885
742.659	0.0165063
742.737	0.0165195
742.815	0.0165344
742.893	0.0164957
742.971	0.0164658
743.049	0.0166140
743.128	0.0166772
743.206	0.0167384
743.284	0.0168592
743.362	0.0167651
743.440	0.0168447
743.518	0.0168473
743.596	0.0167838
743.674	0.0169404
743.753	0.0168584
743.831	0.0169508
743.909	0.0168836
743.987	0.0168768
744.065	0.0168951
744.143	0.0168048
744.221	0.0166337
744.299	0.0168532
744.378	0.0167204
744.456	0.0165866
744.534	0.0166315
744.612	0.0164192
744.690	0.0166930
744.768	0.0167309
744.846	0.0167537
744.924	0.0167575
745.003	0.0166781
745.081	0.0168065
745.159	0.0166914
745.237	0.0168552
745.315	0.0169656
745.393	0.0169498
745.471	0.0169941
745.549	0.0170730
745.628	0.0168655
745.706	0.0167373
745.784	0.0168474
745.862	0.0167374
745.940	0.0166786
746.018	0.0167906
746.096	0.0166350
746.174	0.0165617
746.253	0.0166545
746.331	0.0165668
746.409	0.0167626
746.487	0.0166049
746.565	0.0166332
746.643	0.0168110
746.721	0.0168952
746.799	0.0167212
746.878	0.0167537
746.956	0.0168752
747.034	0.0168240
747.112	0.0166641
747.190	0.0166030
747.268	0.0166481
747.346	0.0166524
747.424	0.0167411
747.503	0.0164803
747.581	0.0164675
747.659	0.0164490
747.737	0.0163568
747.815	0.0164680
747.893	0.0164040
747.971	0.0164147
748.049	0.0164420
748.128	0.0163395
748.206	0.0164520
748.284	0.0164600
748.362	0.0164378
748.440	0.0163743
748.518	0.0164757
748.596	0.0163650
748.674	0.0163875
748.753	0.0164045
748.831	0.0163048
748.909	0.0163324
748.987	0.0163200
749.065	0.0162437
749.143	0.0163326
749.221	0.0163403
749.299	0.0162263
749.378	0.0162142
749.456	0.0162999
749.534	0.0161867
749.612	0.0162379
749.690	0.0162714
749.768	0.0164021
749.846	0.0165411
749.924	0.0165098
750.003	0.0165584
750.081	0.0165709
750.159	0.0166582
750.237	0.0167719
750.315	0.0165942
750.393	0.0166469
750.471	0.0164974
750.549	0.0165348
750.628	0.0166888
750.706	0.0167020
750.784	0.0167086
750.862	0.0166714
750.940	0.0167107
751.018	0.0166608
751.096	0.0166956
751.174	0.0166171
751.253	0.0166495
751.331	0.0167242
751.409	0.0165754
751.487	0.0167738
751.565	0.0168209
751.643	0.0166345
751.721	0.0168082
751.799	0.0167568
751.878	0.0167626
751.956	0.0168853
752.034	0.0167455
752.112	0.0167481
752.190	0.0166776
752.268	0.0165633
752.346	0.0167950
752.424	0.0167209
752.503	0.0167535
752.581	0.0167619
752.659	0.0167683
752.737	0.0168829
752.815	0.0169209
752.893	0.0170065
752.971	0.0169390
753.049	0.0168868
753.128	0.0168496
753.206	0.0169101
753.284	0.0168998
753.362	0.0170860
753.440	0.0168977
753.518	0.0169261
753.596	0.0167548
753.674	0.0166894
753.753	0.0166994
753.831	0.0166592
753.909	0.0166290
753.987	0.0166116
754.065	0.0166611
754.143	0.0166311
754.221	0.0166096
754.299	0.0166392
754.378	0.0165733
754.456	0.0166000
754.534	0.0167234
754.612	0.0165942
754.690	0.0166254
754.768	0.0166818
754.846	0.0165828
754.924	0.0165913
755.003	0.0166127
755.081	0.0165072
755.159	0.0165247
755.237	0.0164706
755.315	0.0164980
755.393	0.0165748
755.471	0.0163374
755.549	0.0163154
755.628	0.0164994
755.706	0.0163533
755.784	0.0163174
755.862	0.0164487
755.940	0.0163364
756.018	0.0164553
756.096	0.0164949
756.174	0.0165511
756.253	0.0164435
756.331	0.0164369
756.409	0.0164841
756.487	0.0165578
756.565	0.0164651
756.643	0.0163860
756.721	0.0164931
756.799	0.0164224
756.878	0.0163885
756.956	0.0163173
757.034	0.0163194
757.112	0.0163953
757.190	0.0164922
757.268	0.0163734
757.346	0.0164166
757.424	0.0165238
757.503	0.0165276
757.581	0.0164890
757.659	0.0167265
757.737	0.0167213
757.815	0.0167245
757.893	0.0167420
757.971	0.0167902
758.049	0.0167882
758.128	0.0168405
758.206	0.0168281
758.284	0.0167336
758.362	0.0168770
758.440	0.0167951
758.518	0.0167198
758.596	0.0169240
758.674	0.0168681
758.753	0.0168160
758.831	0.0168203
758.909	0.0168443
758.987	0.0169029
759.065	0.0168805
759.143	0.0168011
759.221	0.0168409
759.299	0.0169131
759.378	0.0169324
759.456	0.0169150
759.534	0.0169839
759.612	0.0169846
759.690	0.0169601
759.768	0.0168664
759.846	0.0166944
759.924	0.0169053
760.003	0.0168874
760.081	0.0167719
760.159	0.0168082
760.237	0.0167924
760.315	0.0166617
760.393	0.0166988
760.471	0.0167795
760.549	0.0167686
760.628	0.0167673
760.706	0.0168855
760.784	0.0168331
760.862	0.0167548
760.940	0.0168253
761.018	0.0167299
761.096	0.0166206
761.174	0.0168158
761.253	0.0166735
761.331	0.0168079
761.409	0.0166451
761.487	0.0166405
761.565	0.0167334
761.643	0.0166438
761.721	0.0165868
761.799	0.0166483
761.878	0.0165566
761.956	0.0164677
762.034	0.0165257
762.112	0.0166160
762.190	0.0164909
762.268	0.0166737
762.346	0.0166516
762.424	0.0165827
762.503	0.0165392
762.581	0.0168029
762.659	0.0166006
762.737	0.0165195
762.815	0.0165535
762.893	0.0165065
762.971	0.0164800
763.049	0.0165808
763.128	0.0164928
763.206	0.0164332
763.284	0.0164536
763.362	0.0162317
763.440	0.0165110
763.518	0.0164382
763.596	0.0163380
763.674	0.0163441
763.753	0.0162607
763.831	0.0163763
763.909	0.0163373
763.987	0.0163479
764.065	0.0163022
764.143	0.0163935
764.221	0.0163917
764.299	0.0164075
764.378	0.0164510
764.456	0.0164117
764.534	0.0165730
764.612	0.0163725
764.690	0.0164114
764.768	0.0165562
764.846	0.0164979
764.924	0.0164779
765.003	0.0165002
765.081	0.0164812
765.159	0.0165475
765.237	0.0164333
765.315	0.0166074
765.393	0.0164486
765.471	0.0165839
765.549	0.0166794
765.628	0.0165593
765.706	0.0166189
765.784	0.0166080
765.862	0.0167008
765.940	0.0167361
766.018	0.0166828
766.096	0.0165949
766.174	0.0167505
766.253	0.0167601
766.331	0.0166673
766.409	0.0166740
766.487	0.0167171
766.565	0.0166301
766.643	0.0166031
766.721	0.0165922
766.799	0.0167628
766.878	0.0167455
766.956	0.0167326
767.034	0.0166543
767.112	0.0166981
767.190	0.0166810
767.268	0.0168582
767.346	0.0168353
767.424	0.0166547
767.503	0.0166106
767.581	0.0166640
767.659	0.0168618
767.737	0.0167245
767.815	0.0167329
767.893	0.0168141
767.971	0.0166198
768.049	0.0166999
768.128	0.0166766
768.206	0.0166362
768.284	0.0166087
768.362	0.0166265
768.440	0.0166108
768.518	0.0166592
768.596	0.0166043
768.674	0.0166762
768.753	0.0166151
768.831	0.0166335
768.909	0.0165572
768.987	0.0165335
769.065	0.0165122
769.143	0.0165521
769.221	0.0165562
769.299	0.0166332
769.378	0.0166032
769.456	0.0166167
769.534	0.0165582
769.612	0.0165222
769.690	0.0166255
769.768	0.0167017
769.846	0.0165987
769.924	0.0165368
770.003	0.0166131
770.081	0.0165092
770.159	0.0165681
770.237	0.0164451
770.315	0.0166677
770.393	0.0166225
770.471	0.0165775
770.549	0.0166431
770.628	0.0165604
770.706	0.0165123
770.784	0.0163528
770.862	0.0164695
770.940	0.0165166
771.018	0.0166209
771.096	0.0167413
771.174	0.0166482
771.253	0.0165196
771.331	0.0165458
771.409	0.0164980
771.487	0.0165753
771.565	0.0165043
771.643	0.0165463
771.721	0.0165039
771.799	0.0165280
771.878	0.0166124
771.956	0.0166689
772.034	0.0164485
772.112	0.0166579
772.190	0.0166252
772.268	0.0166066
772.346	0.0165359
772.424	0.0166076
772.503	0.0165777
772.581	0.0165865
772.659	0.0165090
772.737	0.0166061
772.815	0.0164503
772.893	0.0165955
772.971	0.0165563
773.049	0.0166580
773.128	0.0165764
773.206	0.0165792
773.284	0.0164910
773.362	0.0166019
773.440	0.0166823
773.518	0.0166107
773.596	0.0166563
773.674	0.0165376
773.753	0.0166065
773.831	0.0168133
773.909	0.0166421
773.987	0.0166520
774.065	0.0166114
774.143	0.0167757
774.221	0.0166646
774.299	0.0166480
774.378	0.0166679
774.456	0.0167148
774.534	0.0166040
774.612	0.0166451
774.690	0.0167885
774.768	0.0165329
774.846	0.0165439
774.924	0.0166042
775.003	0.0165421
775.081	0.0165662
775.159	0.0167730
775.237	0.0168002
775.315	0.0167809
775.393	0.0165977
775.471	0.0167040
775.549	0.0167516
775.628	0.0166805
775.706	0.0168129
775.784	0.0167734
775.862	0.0168600
775.940	0.0167101
776.018	0.0167365
776.096	0.0167243
776.174	0.0166656
776.253	0.0166867
776.331	0.0166247
776.409	0.0164325
776.487	0.0164393
776.565	0.0166422
776.643	0.0166309
776.721	0.0165939
776.799	0.0165290
776.878	0.0166380
776.956	0.0166672
777.034	0.0165582
777.112	0.0166905
777.190	0.0166895
777.268	0.0168375
777.346	0.0167928
777.424	0.0167435
777.503	0.0168183
777.581	0.0168132
777.659	0.0168441
777.737	0.0166814
777.815	0.0166680
777.893	0.0168201
777.971	0.0166742
778.049	0.0166256
778.128	0.0165762
778.206	0.0165963
778.284	0.0165365
778.362	0.0164280
778.440	0.0165083
778.518	0.0166619
778.596	0.0166206
778.674	0.0165012
778.753	0.0166808
778.831	0.0165251
778.909	0.0165832
778.987	0.0164873
779.065	0.0164837
779.143	0.0165034
779.221	0.0164722
779.299	0.0165427
779.378	0.0165133
779.456	0.0164487
779.534	0.0165173
779.612	0.0164948
779.690	0.0165733
779.768	0.0164276
779.846	0.0165361
779.924	0.0167482
780.003	0.0165459
780.081	0.0164096
780.159	0.0166209
780.237	0.0165034
780.315	0.0164372
780.393	0.0167213
780.471	0.0165591
780.549	0.0166438
780.628	0.0165073
780.706	0.0166587
780.784	0.0165137
780.862	0.0166677
780.940	0.0166421
781.018	0.0165041
781.096	0.0164697
781.174	0.0165520
781.253	0.0165878
781.331	0.0166318
781.409	0.0165347
781.487	0.0166069
781.565	0.0166409
781.643	0.0165163
781.721	0.0166084
781.799	0.0165893
781.878	0.0167178
781.956	0.0167651
782.034	0.0166943
782.112	0.0166747
782.190	0.0167944
782.268	0.0168397
782.346	0.0166793
782.424	0.0166904
782.503	0.0166667
782.581	0.0166780
782.659	0.0167053
782.737	0.0166762
782.815	0.0165388
782.893	0.0167682
782.971	0.0165694
783.049	0.0165106
783.128	0.0167987
783.206	0.0167052
783.284	0.0167005
783.362	0.0165657
783.440	0.0166431
783.518	0.0166637
783.596	0.0167602
783.674	0.0168225
783.753	0.0166983
783.831	0.0168103
783.909	0.0168322
783.987	0.0167617
784.065	0.0167303
784.143	0.0166833
784.221	0.0166807
784.299	0.0166845
784.378	0.0165493
784.456	0.0164780
784.534	0.0165731
784.612	0.0166964
784.690	0.0166375
784.768	0.0165829
784.846	0.0166151
784.924	0.0165275
785.003	0.0165507
785.081	0.0166012
785.159	0.0164539
785.237	0.0164616
785.315	0.0165459
785.393	0.0166065
785.471	0.0166112
785.549	0.0165961
785.628	0.0165245
785.706	0.0165183
785.784	0.0165089
785.862	0.0163931
785.940	0.0165053
786.018	0.0165530
786.096	0.0163541
786.174	0.0163812
786.253	0.0165926
786.331	0.0164897
786.409	0.0164665
786.487	0.0164653
786.565	0.0165153
786.643	0.0165118
786.721	0.0165894
786.799	0.0166409
786.878	0.0164987
786.956	0.0165195
787.034	0.0164832
787.112	0.0165920
787.190	0.0166740
787.268	0.0166286
787.346	0.0165873
787.424	0.0166920
787.503	0.0166534
787.581	0.0166992
787.659	0.0165554
787.737	0.0164841
787.815	0.0166187
787.893	0.0166374
787.971	0.0166196
788.049	0.0165934
788.128	0.0165262
788.206	0.0166524
788.284	0.0167652
788.362	0.0167188
788.440	0.0166251
788.518	0.0167195
788.596	0.0167722
788.674	0.0166333
788.753	0.0166093
788.831	0.0166965
788.909	0.0168092
788.987	0.0166885
789.065	0.0165463
789.143	0.0166427
789.221	0.0168082
789.299	0.0168066
789.378	0.0167099
789.456	0.0167091
789.534	0.0166847
789.612	0.0167156
789.690	0.0167677
789.768	0.0165328
789.846	0.0165582
789.924	0.0165980
790.003	0.0166134
790.081	0.0166726
790.159	0.0166685
790.237	0.0165701
790.315	0.0165926
790.393	0.0165933
790.471	0.0166224
790.549	0.0165249
790.628	0.0163628
790.706	0.0165615
790.784	0.0165511
790.862	0.0164001
790.940	0.0165638
791.018	0.0165461
791.096	0.0165201
791.174	0.0164483
791.253	0.0164821
791.331	0.0165413
791.409	0.0166174
791.487	0.0166305
791.565	0.0167189
791.643	0.0167647
791.721	0.0166071
791.799	0.0166808
791.878	0.0166548
791.956	0.0166198
792.034	0.0165954
792.112	0.0167695
792.190	0.0167245
792.268	0.0165948
792.346	0.0166644
792.424	0.0165715
792.503	0.0165688
792.581	0.0167290
792.659	0.0165575
792.737	0.0166496
792.815	0.0166487
792.893	0.0167698
792.971	0.0166840
793.049	0.0166771
793.128	0.0167786
793.206	0.0168678
793.284	0.0167174
793.362	0.0168715
793.440	0.0167584
793.518	0.0168078
793.596	0.0168875
793.674	0.0168223
793.753	0.0167921
793.831	0.0167540
793.909	0.0168407
793.987	0.0166659
794.065	0.0169598
794.143	0.0168224
794.221	0.0167136
794.299	0.0168514
794.378	0.0167486
794.456	0.0167076
794.534	0.0167245
794.612	0.0166785
794.690	0.0165320
794.768	0.0167462
794.846	0.0166695
794.924	0.0166682
795.003	0.0166531
795.081	0.0165589
795.159	0.0166737
795.237	0.0165770
795.315	0.0167079
795.393	0.0168031
795.471	0.0167300
795.549	0.0167501
795.628	0.0165729
795.706	0.0166477
795.784	0.0166848
795.862	0.0167387
795.940	0.0165662
796.018	0.0167082
796.096	0.0167973
796.174	0.0166431
796.253	0.0166232
796.331	0.0166613
796.409	0.0166572
796.487	0.0167556
796.565	0.0166216
796.643	0.0165587
796.721	0.0168169
796.799	0.0167120
796.878	0.0166018
796.956	0.0166290
797.034	0.0166833
797.112	0.0166502
797.190	0.0166867
797.268	0.0165363
797.346	0.0165963
797.424	0.0165826
797.503	0.0165637
797.581	0.0166536
797.659	0.0165707
797.737	0.0165744
797.815	0.0165939
797.893	0.0164515
797.971	0.0165359
798.049	0.0165618
798.128	0.0165082
798.206	0.0163920
798.284	0.0166030
798.362	0.0165546
798.440	0.0165916
798.518	0.0165294
798.596	0.0164487
798.674	0.0165668
798.753	0.0165588
798.831	0.0166730
798.909	0.0165166
798.987	0.0165401
799.065	0.0166518
799.143	0.0166337
799.221	0.0165369
799.299	0.0165820
799.378	0.0166641
799.456	0.0165591
799.534	0.0166866
799.612	0.0165708
799.690	0.0166128
799.768	0.0166435
799.846	0.0166173
799.924	0.0166879
800.003	0.0168275
800.081	0.0166724
800.159	0.0166403
800.237	0.0164935
800.315	0.0167175
800.393	0.0167870
800.471	0.0166132
800.549	0.0166205
800.628	0.0165613
800.706	0.0166772
800.784	0.0165002
800.862	0.0166393
800.940	0.0166637
801.018	0.0166460
801.096	0.0167172
801.174	0.0167428
801.253	0.0167857
801.331	0.0167730
801.409	0.0168530
801.487	0.0167369
801.565	0.0166833
801.643	0.0168140
801.721	0.0167522
801.799	0.0168071
801.878	0.0168015
801.956	0.0167838
802.034	0.0166839
802.112	0.0167547
802.190	0.0166424
802.268	0.0166618
802.346	0.0166291
802.424	0.0166145
802.503	0.0166277
802.581	0.0167514
802.659	0.0165217
802.737	0.0166222
802.815	0.0165024
802.893	0.0164664
802.971	0.0164862
803.049	0.0165388
803.128	0.0165266
803.206	0.0164912
803.284	0.0165086
803.362	0.0164907
803.440	0.0165917
803.518	0.0165696
803.596	0.0165350
803.674	0.0165960
803.753	0.0166154
803.831	0.0165257
803.909	0.0165105
803.987	0.0165438
804.065	0.0164438
804.143	0.0165866
804.221	0.0165640
804.299	0.0165879
804.378	0.0165073
804.456	0.0166055
804.534	0.0165924
804.612	0.0165307
804.690	0.0167088
804.768	0.0167404
804.846	0.0165146
804.924	0.0167552
805.003	0.0166148
805.081	0.0165374
805.159	0.0166233
805.237	0.0167955
805.315	0.0164735
805.393	0.0165216
805.471	0.0168709
805.549	0.0165275
805.628	0.0165386
805.706	0.0166154
805.784	0.0165843
805.862	0.0167097
805.940	0.0167053
806.018	0.0166670
806.096	0.0165470
806.174	0.0166728
806.253	0.0166598
806.331	0.0166611
806.409	0.0166840
806.487	0.0167531
806.565	0.0166326
806.643	0.0166676
806.721	0.0168414
806.799	0.0167877
806.878	0.0165655
806.956	0.0166074
807.034	0.0166982
807.112	0.0166286
807.190	0.0167351
807.268	0.0167303
807.346	0.0167056
807.424	0.0166087
807.503	0.0166763
807.581	0.0166058
807.659	0.0167253
807.737	0.0166370
807.815	0.0165704
807.893	0.0167253
807.971	0.0166297
808.049	0.0164916
808.128	0.0166489
808.206	0.0166648
808.284	0.0165240
808.362	0.0165530
808.440	0.0165907
808.518	0.0166152
808.596	0.0165887
808.674	0.0166279
808.753	0.0165765
808.831	0.0166042
808.909	0.0165392
808.987	0.0164185
809.065	0.0166128
809.143	0.0165788
809.221	0.0166158
809.299	0.0166763
809.378	0.0168103
809.456	0.0166650
809.534	0.0165553
809.612	0.0164730
809.690	0.0166782
809.768	0.0164996
809.846	0.0164096
809.924	0.0166422
810.003	0.0165170
810.081	0.0166114
810.159	0.0165717
810.237	0.0163583
810.315	0.0164088
810.393	0.0164575
810.471	0.0163073
810.549	0.0165018
810.628	0.0165119
810.706	0.0164539
810.784	0.0165575
810.862	0.0165044
810.940	0.0167300
811.018	0.0165181
811.096	0.0164081
811.174	0.0164687
811.253	0.0165862
811.331	0.0167049
811.409	0.0167307
811.487	0.0167284
811.565	0.0165993
811.643	0.0166690
811.721	0.0166134
811.799	0.0166290
811.878	0.0167492
811.956	0.0167110
812.034	0.0167113
812.112	0.0167645
812.190	0.0167423
812.268	0.0166528
812.346	0.0166428
812.424	0.0167390
812.503	0.0165340
812.581	0.0166612
812.659	0.0167651
812.737	0.0167112
812.815	0.0166499
812.893	0.0168482
812.971	0.0167507
813.049	0.0167284
813.128	0.0167152
813.206	0.0167152
813.284	0.0168321
813.362	0.0166650
813.440	0.0165648
813.518	0.0167784
813.596	0.0166373
813.674	0.0167274
813.753	0.0165808
813.831	0.0166735
813.909	0.0167104
813.987	0.0168071
814.065	0.0168024
814.143	0.0167838
814.221	0.0166718
814.299	0.0167388
814.378	0.0167780
814.456	0.0167976
814.534	0.0168779
814.612	0.0167274
814.690	0.0167061
814.768	0.0166216
814.846	0.0167181
814.924	0.0167386
815.003	0.0166691
815.081	0.0166282
815.159	0.0166087
815.237	0.0165878
815.315	0.0166756
815.393	0.0166547
815.471	0.0165977
815.549	0.0165700
815.628	0.0166787
815.706	0.0165538
815.784	0.0166707
815.862	0.0166788
815.940	0.0166468
816.018	0.0165910
816.096	0.0166740
816.174	0.0165743
816.253	0.0166683
816.331	0.0166859
816.409	0.0166589
816.487	0.0167351
816.565	0.0165948
816.643	0.0167372
816.721	0.0165910
816.799	0.0165765
816.878	0.0166731
816.956	0.0166918
817.034	0.0165414
817.112	0.0166692
817.190	0.0165887
817.268	0.0166002
817.346	0.0165683
817.424	0.0166679
817.503	0.0165741
817.581	0.0164877
817.659	0.0166159
817.737	0.0166315
817.815	0.0165170
817.893	0.0165271
817.971	0.0166062
818.049	0.0165977
818.128	0.0164854
818.206	0.0165734
818.284	0.0166439
818.362	0.0165928
818.440	0.0164495
818.518	0.0166422
818.596	0.0167305
818.674	0.0166205
818.753	0.0166862
818.831	0.0167103
818.909	0.0167924
818.987	0.0167017
819.065	0.0165949
819.143	0.0166183
819.221	0.0168388
819.299	0.0167960
819.378	0.0166553
819.456	0.0166707
819.534	0.0168036
819.612	0.0167768
819.690	0.0167381
819.768	0.0167423
819.846	0.0167372
819.924	0.0166827
820.003	0.0167790
820.081	0.0167049
820.159	0.0167294
820.237	0.0167313
820.315	0.0167620
820.393	0.0167314
820.471	0.0167091
820.549	0.0167340
820.628	0.0166125
820.706	0.0165351
820.784	0.0166084
820.862	0.0166281
820.940	0.0166849
821.018	0.0167551
821.096	0.0166995
821.174	0.0166323
821.253	0.0166917
821.331	0.0166367
821.409	0.0167049
821.487	0.0165974
821.565	0.0166315
821.643	0.0166805
821.721	0.0165960
821.799	0.0167955
821.878	0.0166747
821.956	0.0165151
822.034	0.0165385
822.112	0.0165443
822.190	0.0165988
822.268	0.0166792
822.346	0.0165730
822.424	0.0165625
822.503	0.0165211
822.581	0.0166846
822.659	0.0165863
822.737	0.0166960
822.815	0.0166418
822.893	0.0166468
822.971	0.0165016
823.049	0.0165695
823.128	0.0167154
823.206	0.0166138
823.284	0.0164853
823.362	0.0166610
823.440	0.0166006
823.518	0.0164499
823.596	0.0166085
823.674	0.0165186
823.753	0.0166579
823.831	0.0166779
823.909	0.0164364
823.987	0.0165916
824.065	0.0165645
824.143	0.0166020
824.221	0.0165452
824.299	0.0166103
824.378	0.0165971
824.456	0.0167319
824.534	0.0165580
824.612	0.0165896
824.690	0.0165117
824.768	0.0165044
824.846	0.0165737
824.924	0.0166214
825.003	0.0166602
825.081	0.0166297
825.159	0.0166110
825.237	0.0166067
825.315	0.0166795
825.393	0.0167014
825.471	0.0167329
825.549	0.0167708
825.628	0.0166773
825.706	0.0164973
825.784	0.0166270
825.862	0.0166852
825.940	0.0165781
826.018	0.0167543
826.096	0.0167730
826.174	0.0166912
826.253	0.0167119
826.331	0.0166934
826.409	0.0165859
826.487	0.0167274
826.565	0.0167532
826.643	0.0167082
826.721	0.0167592
826.799	0.0168076
826.878	0.0167986
826.956	0.0167152
827.034	0.0167990
827.112	0.0167393
827.190	0.0167667
827.268	0.0167373
827.346	0.0168852
827.424	0.0167294
827.503	0.0167374
827.581	0.0166853
827.659	0.0166949
827.737	0.0167390
827.815	0.0167156
827.893	0.0167075
827.971	0.0168018
828.049	0.0168871
828.128	0.0166982
828.206	0.0165731
828.284	0.0167470
828.362	0.0167049
828.440	0.0166637
828.518	0.0166965
828.596	0.0167336
828.674	0.0167402
828.753	0.0166582
828.831	0.0166531
828.909	0.0165961
828.987	0.0165269
829.065	0.0166577
829.143	0.0166422
829.221	0.0165870
829.299	0.0165685
829.378	0.0165645
829.456	0.0166814
829.534	0.0165691
829.612	0.0166013
829.690	0.0165401
829.768	0.0167124
829.846	0.0167083
829.924	0.0165433
830.003	0.0165195
830.081	0.0165711
830.159	0.0167225
830.237	0.0165639
830.315	0.0165463
830.393	0.0164817
830.471	0.0165446
830.549	0.0164713
830.628	0.0165258
830.706	0.0166462
830.784	0.0165913
830.862	0.0165535
830.940	0.0165135
831.018	0.0166164
831.096	0.0166108
831.174	0.0164436
831.253	0.0163661
831.331	0.0165528
831.409	0.0165600
831.487	0.0165435
831.565	0.0164791
831.643	0.0165070
831.721	0.0165152
831.799	0.0165021
831.878	0.0166524
831.956	0.0166146
832.034	0.0165685
832.112	0.0166074
832.190	0.0165597
832.268	0.0167522
832.346	0.0166042
832.424	0.0166237
832.503	0.0166478
832.581	0.0167026
832.659	0.0165856
832.737	0.0166916
832.815	0.0167725
832.893	0.0167602
832.971	0.0166982
833.049	0.0167593
833.128	0.0166718
833.206	0.0167299
833.284	0.0167116
833.362	0.0166243
833.440	0.0166267
833.518	0.0165693
833.596	0.0166809
833.674	0.0167542
833.753	0.0166318
833.831	0.0167781
833.909	0.0167335
833.987	0.0168420
834.065	0.0166426
834.143	0.0165941
834.221	0.0166312
834.299	0.0166346
834.378	0.0166618
834.456	0.0166426
834.534	0.0165386
834.612	0.0165121
834.690	0.0167761
834.768	0.0167119
834.846	0.0165773
834.924	0.0165926
835.003	0.0167042
835.081	0.0166566
835.159	0.0166454
835.237	0.0167550
835.315	0.0165600
835.393	0.0166159
835.471	0.0166238
835.549	0.0165982
835.628	0.0164489
835.706	0.0167097
835.784	0.0166399
835.862	0.0167307
835.940	0.0167600
836.018	0.0165477
836.096	0.0164990
836.174	0.0166097
836.253	0.0165327
836.331	0.0165941
836.409	0.0164239
836.487	0.0166923
836.565	0.0165226
836.643	0.0166044
836.721	0.0165038
836.799	0.0163523
836.878	0.0164105
836.956	0.0165082
837.034	0.0163499
837.112	0.0165329
837.190	0.0164668
837.268	0.0163644
837.346	0.0164476
837.424	0.0166012
837.503	0.0165380
837.581	0.0164622
837.659	0.0167745
837.737	0.0165527
837.815	0.0165086
837.893	0.0166502
837.971	0.0164886
838.049	0.0165869
838.128	0.0166427
838.206	0.0165314
838.284	0.0166656
838.362	0.0167635
838.440	0.0165858
838.518	0.0167776
838.596	0.0166082
838.674	0.0165855
838.753	0.0166689
838.831	0.0166645
838.909	0.0167211
838.987	0.0167615
839.065	0.0166975
839.143	0.0168224
839.221	0.0167518
839.299	0.0167256
839.378	0.0167269
839.456	0.0167274
839.534	0.0167653
839.612	0.0167616
839.690	0.0166676
839.768	0.0166578
839.846	0.0167275
839.924	0.0166380
840.003	0.0166242
840.081	0.0166290
840.159	0.0165018
840.237	0.0165410
840.315	0.0165446
840.393	0.0166310
840.471	0.0166311
840.549	0.0165992
840.628	0.0166316
840.706	0.0166174
840.784	0.0166566
840.862	0.0165131
840.940	0.0166046
841.018	0.0166164
841.096	0.0166713
841.174	0.0166702
841.253	0.0166851
841.331	0.0165762
841.409	0.0166127
841.487	0.0165853
841.565	0.0167271
841.643	0.0166232
841.721	0.0166795
841.799	0.0166794
841.878	0.0166991
841.956	0.0166204
842.034	0.0166913
842.112	0.0166966
842.190	0.0165395
842.268	0.0166357
842.346	0.0166481
842.424	0.0165237
842.503	0.0166997
842.581	0.0164675
842.659	0.0165829
842.737	0.0167168
842.815	0.0164606
842.893	0.0166003
842.971	0.0166109
843.049	0.0166117
843.128	0.0165688
843.206	0.0165518
843.284	0.0164657
843.362	0.0166381
843.440	0.0165349
843.518	0.0165609
843.596	0.0164854
843.674	0.0165563
843.753	0.0165636
843.831	0.0165184
843.909	0.0166158
843.987	0.0165564
844.065	0.0165075
844.143	0.0166207
844.221	0.0166041
844.299	0.0164758
844.378	0.0165543
844.456	0.0164902
844.534	0.0164808
844.612	0.0166024
844.690	0.0166216
844.768	0.0165202
844.846	0.0165530
844.924	0.0166394
845.003	0.0165887
845.081	0.0164281
845.159	0.0165092
845.237	0.0166203
845.315	0.0166546
845.393	0.0166692
845.471	0.0166239
845.549	0.0166477
845.628	0.0167003
845.706	0.0164960
845.784	0.0165184
845.862	0.0166610
845.940	0.0167383
846.018	0.0167609
846.096	0.0165074
846.174	0.0166838
846.253	0.0167377
846.331	0.0165174
846.409	0.0165913
846.487	0.0164830
846.565	0.0166260
846.643	0.0165974
846.721	0.0166502
846.799	0.0165195
846.878	0.0166383
846.956	0.0167400
847.034	0.0166595
847.112	0.0165699
847.190	0.0167319
847.268	0.0166985
847.346	0.0167442
847.424	0.0166847
847.503	0.0168310
847.581	0.0165961
847.659	0.0165885
847.737	0.0166964
847.815	0.0165876
847.893	0.0167410
847.971	0.0166809
848.049	0.0167026
848.128	0.0166785
848.206	0.0166257
848.284	0.0166426
848.362	0.0166152
848.440	0.0166658
848.518	0.0166752
848.596	0.0165791
848.674	0.0165897
848.753	0.0166550
848.831	0.0167892
848.909	0.0167088
848.987	0.0165582
849.065	0.0167296
849.143	0.0167235
849.221	0.0166592
849.299	0.0165350
849.378	0.0166200
849.456	0.0166774
849.534	0.0166960
849.612	0.0166033
849.690	0.0166306
849.768	0.0166335
849.846	0.0165751
849.924	0.0166441
850.003	0.0165807
850.081	0.0165800
850.159	0.0168381
850.237	0.0165740
850.315	0.0165335
850.393	0.0165208
850.471	0.0166403
850.549	0.0165796
850.628	0.0166307
850.706	0.0165570
850.784	0.0167306
850.862	0.0165433
850.940	0.0167251
851.018	0.0165942
851.096	0.0165085
851.174	0.0165321
851.253	0.0166411
851.331	0.0165507
851.409	0.0165136
851.487	0.0167346
851.565	0.0166844
851.643	0.0165669
851.721	0.0167199
851.799	0.0166001
851.878	0.0165858
851.956	0.0166537
852.034	0.0166733
852.112	0.0166415
852.190	0.0164445
852.268	0.0166711
852.346	0.0166898
852.424	0.0166242
852.503	0.0166016
852.581	0.0165887
852.659	0.0167262
852.737	0.0166809
852.815	0.0166684
852.893	0.0166329
852.971	0.0165352
853.049	0.0165585
853.128	0.0165251
853.206	0.0167088
853.284	0.0166921
853.362	0.0166898
853.440	0.0166224
853.518	0.0166975
853.596	0.0165228
853.674	0.0166542
853.753	0.0165856
853.831	0.0166447
853.909	0.0168172
853.987	0.0166393
854.065	0.0165769
854.143	0.0165806
854.221	0.0167599
854.299	0.0166538
854.378	0.0164265
854.456	0.0165099
854.534	0.0165727
854.612	0.0165836
854.690	0.0166544
854.768	0.0166225
854.846	0.0165578
854.924	0.0167055
855.003	0.0166610
855.081	0.0165497
855.159	0.0166396
855.237	0.0167028
855.315	0.0166940
855.393	0.0167491
855.471	0.0166058
855.549	0.0165470
855.628	0.0165688
855.706	0.0166499
855.784	0.0165836
855.862	0.0165968
855.940	0.0166156
856.018	0.0166125
856.096	0.0166954
856.174	0.0167319
856.253	0.0167371
856.331	0.0166872
856.409	0.0165964
856.487	0.0167501
856.565	0.0166289
856.643	0.0165753
856.721	0.0166525
856.799	0.0165552
856.878	0.0165930
856.956	0.0165730
857.034	0.0165631
857.112	0.0166241
857.190	0.0165560
857.268	0.0167106
857.346	0.0167112
857.424	0.0166450
857.503	0.0164938
857.581	0.0167410
857.659	0.0168085
857.737	0.0168251
857.815	0.0168221
857.893	0.0167181
857.971	0.0167712
858.049	0.0167347
858.128	0.0167062
858.206	0.0167123
858.284	0.0166475
858.362	0.0167212
858.440	0.0167934
858.518	0.0166953
858.596	0.0166738
858.674	0.0166425
858.753	0.0166435
858.831	0.0168343
858.909	0.0166110
858.987	0.0165041
859.065	0.0166299
859.143	0.0166821
859.221	0.0165958
859.299	0.0167112
859.378	0.0167236
859.456	0.0166697
859.534	0.0165529
859.612	0.0165845
859.690	0.0165250
859.768	0.0164870
859.846	0.0167259
859.924	0.0166116
860.003	0.0166479
860.081	0.0166094
860.159	0.0164632
860.237	0.0166295
860.315	0.0165145
860.393	0.0165735
860.471	0.0165174
860.549	0.0164822
860.628	0.0164483
860.706	0.0165953
860.784	0.0164721
860.862	0.0166356
860.940	0.0164436
861.018	0.0165876
861.096	0.0165117
861.174	0.0164204
861.253	0.0164967
861.331	0.0166467
861.409	0.0165100
861.487	0.0164401
861.565	0.0165054
861.643	0.0165376
861.721	0.0165323
861.799	0.0166897
861.878	0.0164407
861.956	0.0164337
862.034	0.0165207
862.112	0.0165593
862.190	0.0165804
862.268	0.0164913
862.346	0.0165308
862.424	0.0165952
862.503	0.0165982
862.581	0.0165991
862.659	0.0165783
862.737	0.0166160
862.815	0.0166107
862.893	0.0166652
862.971	0.0166700
863.049	0.0167077
863.128	0.0167384
863.206	0.0166977
863.284	0.0167021
863.362	0.0165510
863.440	0.0166701
863.518	0.0166085
863.596	0.0166101
863.674	0.0166163
863.753	0.0165977
863.831	0.0167211
863.909	0.0166756
863.987	0.0166914
864.065	0.0165426
864.143	0.0165342
864.221	0.0166779
864.299	0.0168000
864.378	0.0167289
864.456	0.0166437
864.534	0.0167271
864.612	0.0167469
864.690	0.0166094
864.768	0.0166118
864.846	0.0167645
864.924	0.0167967
865.003	0.0166603
865.081	0.0166167
865.159	0.0167214
865.237	0.0167008
865.315	0.0166310
865.393	0.0166519
865.471	0.0167365
865.549	0.0165364
865.628	0.0165660
865.706	0.0166283
865.784	0.0165264
865.862	0.0165829
865.940	0.0166113
866.018	0.0166071
866.096	0.0166218
866.174	0.0164703
866.253	0.0165691
866.331	0.0166317
866.409	0.0165728
866.487	0.0165073
866.565	0.0164961
866.643	0.0164618
866.721	0.0165820
866.799	0.0166720
866.878	0.0165879
866.956	0.0165318
867.034	0.0165916
867.112	0.0165707
867.190	0.0165079
867.268	0.0166357
867.346	0.0167937
867.424	0.0167255
867.503	0.0167507
867.581	0.0168694
867.659	0.0166981
867.737	0.0166979
867.815	0.0166261
867.893	0.0166424
867.971	0.0165356
868.049	0.0165422
868.128	0.0165589
868.206	0.0164392
868.284	0.0165446
868.362	0.0165686
868.440	0.0164952
868.518	0.0164878
868.596	0.0165010
868.674	0.0166369
868.753	0.0165794
868.831	0.0165169
868.909	0.0166544
868.987	0.0168147
869.065	0.0167463
869.143	0.0167390
869.221	0.0166903
869.299	0.0167121
869.378	0.0165874
869.456	0.0167103
869.534	0.0166888
869.612	0.0166405
869.690	0.0165730
869.768	0.0166057
869.846	0.0166915
869.924	0.0166888
870.003	0.0165593
870.081	0.0166512
870.159	0.0166642
870.237	0.0165647
870.315	0.0165164
870.393	0.0165789
870.471	0.0167014
870.549	0.0165154
870.628	0.0165047
870.706	0.0166610
870.784	0.0167092
870.862	0.0167543
870.940	0.0166829
871.018	0.0166649
871.096	0.0167715
871.174	0.0167291
871.253	0.0167060
871.331	0.0169286
871.409	0.0167934
871.487	0.0167702
871.565	0.0169069
871.643	0.0169284
871.721	0.0167891
871.799	0.0168188
871.878	0.0167590
871.956	0.0166999
872.034	0.0167315
872.112	0.0167377
872.190	0.0166302
872.268	0.0165655
872.346	0.0167899
872.424	0.0167648
872.503	0.0167751
872.581	0.0166761
872.659	0.0167649
872.737	0.0168682
872.815	0.0167246
872.893	0.0167292
872.971	0.0167744
873.049	0.0168309
873.128	0.0168242
873.206	0.0166830
873.284	0.0168884
873.362	0.0167225
873.440	0.0169135
873.518	0.0167355
873.596	0.0167506
873.674	0.0167619
873.753	0.0167860
873.831	0.0166806
873.909	0.0165096
873.987	0.0168459
874.065	0.0167529
874.143	0.0166374
874.221	0.0167834
874.299	0.0166586
874.378	0.0167216
874.456	0.0166025
874.534	0.0165955
874.612	0.0168175
874.690	0.0166704
874.768	0.0165618
874.846	0.0165585
874.924	0.0165815
875.003	0.0166816
875.081	0.0168465
875.159	0.0166089
875.237	0.0165884
875.315	0.0166392
875.393	0.0166008
875.471	0.0166988
875.549	0.0166873
875.628	0.0166629
875.706	0.0166032
875.784	0.0166376
875.862	0.0166113
875.940	0.0166338
876.018	0.0165685
876.096	0.0166466
876.174	0.0166161
876.253	0.0165697
876.331	0.0165351
876.409	0.0165575
876.487	0.0164549
876.565	0.0166019
876.643	0.0165649
876.721	0.0165267
876.799	0.0164719
876.878	0.0166090
876.956	0.0166512
877.034	0.0165427
877.112	0.0165372
877.190	0.0165005
877.268	0.0165778
877.346	0.0164230
877.424	0.0165556
877.503	0.0165932
877.581	0.0165011
877.659	0.0166026
877.737	0.0166171
877.815	0.0166821
877.893	0.0166228
877.971	0.0165852
878.049	0.0167681
878.128	0.0167209
878.206	0.0165894
878.284	0.0165969
878.362	0.0166371
878.440	0.0166662
878.518	0.0166141
878.596	0.0168008
878.674	0.0167646
878.753	0.0165559
878.831	0.0166083
878.909	0.0165732
878.987	0.0166725
879.065	0.0167365
879.143	0.0167341
879.221	0.0166891
879.299	0.0166714
879.378	0.0167431
879.456	0.0166405
879.534	0.0167085
879.612	0.0166354
879.690	0.0165573
879.768	0.0166451
879.846	0.0167053
879.924	0.0165642
880.003	0.0166196
880.081	0.0166045
880.159	0.0167615
880.237	0.0165998
880.315	0.0167103
880.393	0.0166531
880.471	0.0168140
880.549	0.0167638
880.628	0.0168083
880.706	0.0167915
880.784	0.0166585
880.862	0.0166013
880.940	0.0168438
881.018	0.0166069
881.096	0.0166617
881.174	0.0167341
881.253	0.0166799
881.331	0.0167338
881.409	0.0166177
881.487	0.0166539
881.565	0.0166112
881.643	0.0167636
881.721	0.0166649
881.799	0.0166048
881.878	0.0166705
881.956	0.0166438
882.034	0.0165812
882.112	0.0166670
882.190	0.0166457
882.268	0.0165846
882.346	0.0166357
882.424	0.0167818
882.503	0.0165734
882.581	0.0167567
882.659	0.0166702
882.737	0.0165419
882.815	0.0165479
882.893	0.0166953
882.971	0.0166578
883.049	0.0166460
883.128	0.0166405
883.206	0.0164893
883.284	0.0165840
883.362	0.0166834
883.440	0.0166355
883.518	0.0166788
883.596	0.0165878
883.674	0.0165993
883.753	0.0165926
883.831	0.0165925
883.909	0.0165854
883.987	0.0166595
884.065	0.0168031
884.143	0.0165662
884.221	0.0166479
884.299	0.0166725
884.378	0.0166037
884.456	0.0166656
884.534	0.0167387
884.612	0.0166929
884.690	0.0167348
884.768	0.0165439
884.846	0.0165783
884.924	0.0165221
885.003	0.0168255
885.081	0.0166640
885.159	0.0167228
885.237	0.0167137
885.315	0.0165376
885.393	0.0166699
885.471	0.0166667
885.549	0.0165747
885.628	0.0166556
885.706	0.0166534
885.784	0.0165421
885.862	0.0166653
885.940	0.0166302
886.018	0.0167159
886.096	0.0164467
886.174	0.0165271
886.253	0.0165292
886.331	0.0167136
886.409	0.0166238
886.487	0.0165824
886.565	0.0166783
886.643	0.0166456
886.721	0.0166663
886.799	0.0167609
886.878	0.0167500
886.956	0.0167231
887.034	0.0166404
887.112	0.0165802
887.190	0.0166754
887.268	0.0167446
887.346	0.0167552
887.424	0.0167424
887.503	0.0167478
887.581	0.0167039
887.659	0.0166960
887.737	0.0165923
887.815	0.0167212
887.893	0.0167979
887.971	0.0167560
888.049	0.0167662
888.128	0.0166159
888.206	0.0166935
888.284	0.0166314
888.362	0.0166959
888.440	0.0166238
888.518	0.0165993
888.596	0.0166911
888.674	0.0167546
888.753	0.0167636
888.831	0.0167736
888.909	0.0166521
888.987	0.0165913
889.065	0.0167427
889.143	0.0166874
889.221	0.0166275
889.299	0.0166323
889.378	0.0166052
889.456	0.0165337
889.534	0.0165476
889.612	0.0166265
889.690	0.0165649
889.768	0.0165277
889.846	0.0164832
889.924	0.0164637
890.003	0.0165421
890.081	0.0165900
890.159	0.0166418
890.237	0.0166638
890.315	0.0165672
890.393	0.0165676
890.471	0.0165833
890.549	0.0164142
890.628	0.0167574
890.706	0.0166324
890.784	0.0164684
890.862	0.0165599
890.940	0.0167438
891.018	0.0166225
891.096	0.0167010
891.174	0.0167708
891.253	0.0167151
891.331	0.0167574
891.409	0.0166691
891.487	0.0166841
891.565	0.0167696
891.643	0.0168492
891.721	0.0167196
891.799	0.0165755
891.878	0.0165258
891.956	0.0167660
892.034	0.0167079
892.112	0.0166132
892.190	0.0166105
892.268	0.0166634
892.346	0.0167047
892.424	0.0166010
892.503	0.0166928
892.581	0.0166580
892.659	0.0166833
892.737	0.0166510
892.815	0.0166389
892.893	0.0165662
892.971	0.0168065
893.049	0.0167696
893.128	0.0167007
893.206	0.0168075
893.284	0.0167780
893.362	0.0166503
893.440	0.0166110
893.518	0.0165284
893.596	0.0166602
893.674	0.0166874
893.753	0.0166142
893.831	0.0167120
893.909	0.0166995
893.987	0.0167042
894.065	0.0165316
894.143	0.0166958
894.221	0.0168736
894.299	0.0166911
894.378	0.0166922
894.456	0.0168018
894.534	0.0165666
894.612	0.0166344
894.690	0.0167590
894.768	0.0167855
894.846	0.0167224
894.924	0.0167197
895.003	0.0167270
895.081	0.0167727
895.159	0.0167928
895.237	0.0168292
895.315	0.0167405
895.393	0.0169011
895.471	0.0168504
895.549	0.0167229
895.628	0.0168382
895.706	0.0167436
895.784	0.0166494
895.862	0.0167294
895.940	0.0168566
896.018	0.0166348
896.096	0.0167178
896.174	0.0167469
896.253	0.0168331
896.331	0.0165259
896.409	0.0166831
896.487	0.0166448
896.565	0.0165533
896.643	0.0166393
896.721	0.0166608
896.799	0.0167393
896.878	0.0167355
896.956	0.0166355
897.034	0.0165981
897.112	0.0166743
897.190	0.0166386
897.268	0.0166429
897.346	0.0165953
897.424	0.0165479
897.503	0.0164875
897.581	0.0166116
897.659	0.0164945
897.737	0.0165837
897.815	0.0164670
897.893	0.0167168
897.971	0.0166287
898.049	0.0166299
898.128	0.0166541
898.206	0.0166064
898.284	0.0166106
898.362	0.0165924
898.440	0.0167046
898.518	0.0166046
898.596	0.0166863
898.674	0.0166645
898.753	0.0165945
898.831	0.0167767
898.909	0.0167751
898.987	0.0166984
899.065	0.0167049
899.143	0.0167932
899.221	0.0166936
899.299	0.0166840
899.378	0.0168107
899.456	0.0167473
899.534	0.0167455
899.612	0.0166668
899.690	0.0166058
899.768	0.0166991
899.846	0.0167046
899.924	0.0167621
900.003	0.0167008
900.081	0.0167207
900.159	0.0167820
900.237	0.0167756
900.315	0.0167451
900.393	0.0166528
900.471	0.0166725
900.549	0.0166890
900.628	0.0166283
900.706	0.0167258
900.784	0.0167171
900.862	0.0167062
900.940	0.0165995
901.018	0.0167100
901.096	0.0166057
901.174	0.0167832
901.253	0.0166586
901.331	0.0165807
901.409	0.0166515
901.487	0.0167995
901.565	0.0168707
901.643	0.0168093
901.721	0.0166797
901.799	0.0168374
901.878	0.0167744
901.956	0.0167255
902.034	0.0167255
902.112	0.0169485
902.190	0.0168149
902.268	0.0167210
902.346	0.0167535
902.424	0.0167663
902.503	0.0167574
902.581	0.0168031
902.659	0.0167720
902.737	0.0167299
902.815	0.0168649
902.893	0.0168468
902.971	0.0168222
903.049	0.0167673
903.128	0.0166890
903.206	0.0166990
903.284	0.0167728
903.362	0.0166624
903.440	0.0167345
903.518	0.0166440
903.596	0.0167390
903.674	0.0168150
903.753	0.0167381
903.831	0.0167393
903.909	0.0166591
903.987	0.0166595
904.065	0.0166121
904.143	0.0166608
904.221	0.0167743
904.299	0.0165946
904.378	0.0166076
904.456	0.0166030
904.534	0.0165411
904.612	0.0164703
904.690	0.0165085
904.768	0.0167248
904.846	0.0166642
904.924	0.0164690
905.003	0.0164220
905.081	0.0165124
905.159	0.0164749
905.237	0.0166116
905.315	0.0166101
905.393	0.0165012
905.471	0.0164282
905.549	0.0164965
905.628	0.0164260
905.706	0.0165398
905.784	0.0166368
905.862	0.0164134
905.940	0.0164935
906.018	0.0165739
906.096	0.0164701
906.174	0.0165547
906.253	0.0165706
906.331	0.0165168
906.409	0.0166904
906.487	0.0165538
906.565	0.0165845
906.643	0.0165701
906.721	0.0164904
906.799	0.0166804
906.878	0.0167082
906.956	0.0166375
907.034	0.0166622
907.112	0.0167010
907.190	0.0165805
907.268	0.0166512
907.346	0.0166933
907.424	0.0166926
907.503	0.0165531
907.581	0.0167365
907.659	0.0168363
907.737	0.0167574
907.815	0.0167306
907.893	0.0168108
907.971	0.0167555
908.049	0.0167604
908.128	0.0166517
908.206	0.0166972
908.284	0.0167118
908.362	0.0167021
908.440	0.0165862
908.518	0.0165227
908.596	0.0167370
908.674	0.0166895
908.753	0.0166079
908.831	0.0167287
908.909	0.0166279
908.987	0.0166408
909.065	0.0165920
909.143	0.0165829
909.221	0.0166271
909.299	0.0166505
909.378	0.0166325
909.456	0.0166436
909.534	0.0165713
909.612	0.0167154
909.690	0.0166309
909.768	0.0167140
909.846	0.0166650
909.924	0.0166775
910.003	0.0166835
910.081	0.0168407
910.159	0.0167500
910.237	0.0167189
910.315	0.0166607
910.393	0.0166268
910.471	0.0167149
910.549	0.0168135
910.628	0.0165710
910.706	0.0167175
910.784	0.0167339
910.862	0.0165761
910.940	0.0167609
911.018	0.0166056
911.096	0.0167545
911.174	0.0167479
911.253	0.0167022
911.331	0.0166912
911.409	0.0165546
911.487	0.0166942
911.565	0.0167153
911.643	0.0168623
911.721	0.0167257
911.799	0.0166412
911.878	0.0167529
911.956	0.0166624
912.034	0.0166204
912.112	0.0167090
912.190	0.0167686
912.268	0.0166647
912.346	0.0166808
912.424	0.0166731
912.503	0.0167537
912.581	0.0168378
912.659	0.0166545
912.737	0.0165272
912.815	0.0165911
912.893	0.0165633
912.971	0.0166054
913.049	0.0166231
913.128	0.0165762
913.206	0.0165616
913.284	0.0166397
913.362	0.0166671
913.440	0.0166353
913.518	0.0167395
913.596	0.0166141
913.674	0.0165455
913.753	0.0166517
913.831	0.0165915
913.909	0.0167649
913.987	0.0165839
914.065	0.0166833
914.143	0.0167457
914.221	0.0167023
914.299	0.0166796
914.378	0.0167893
914.456	0.0167236
914.534	0.0168350
914.612	0.0166730
914.690	0.0166109
914.768	0.0165590
914.846	0.0167750
914.924	0.0168094
915.003	0.0166116
915.081	0.0167293
915.159	0.0165730
915.237	0.0167708
915.315	0.0167286
915.393	0.0168056
915.471	0.0167561
915.549	0.0167252
915.628	0.0167204
915.706	0.0167015
915.784	0.0167177
915.862	0.0168504
915.940	0.0168097
916.018	0.0166866
916.096	0.0167168
916.174	0.0167396
916.253	0.0167341
916.331	0.0168231
916.409	0.0167087
916.487	0.0167444
916.565	0.0165936
916.643	0.0167213
916.721	0.0166821
916.799	0.0167341
916.878	0.0166724
916.956	0.0168378
917.034	0.0166989
917.112	0.0166599
917.190	0.0166579
917.268	0.0166815
917.346	0.0168445
917.424	0.0168986
917.503	0.0169265
917.581	0.0167163
917.659	0.0166602
917.737	0.0167992
917.815	0.0167676
917.893	0.0168400
917.971	0.0168404
918.049	0.0168423
918.128	0.0167844
918.206	0.0167584
918.284	0.0167422
918.362	0.0167642
918.440	0.0167007
918.518	0.0167003
918.596	0.0166077
918.674	0.0166088
918.753	0.0167036
918.831	0.0167292
918.909	0.0165734
918.987	0.0166624
919.065	0.0166690
919.143	0.0165926
919.221	0.0165317
919.299	0.0165350
919.378	0.0167528
919.456	0.0167473
919.534	0.0167355
919.612	0.0166579
919.690	0.0165225
919.768	0.0165935
919.846	0.0166343
919.924	0.0166496
920.003	0.0165305
920.081	0.0165509
920.159	0.0165407
920.237	0.0166757
920.315	0.0167048
920.393	0.0166775
920.471	0.0166177
920.549	0.0165880
920.628	0.0167355
920.706	0.0165469
920.784	0.0166708
920.862	0.0167153
920.940	0.0167307
921.018	0.0165820
921.096	0.0166309
921.174	0.0167574
921.253	0.0166273
921.331	0.0165739
921.409	0.0166460
921.487	0.0167325
921.565	0.0165757
921.643	0.0166557
921.721	0.0166721
921.799	0.0165783
921.878	0.0166235
921.956	0.0166037
922.034	0.0166479
922.112	0.0166457
922.190	0.0166645
922.268	0.0166333
922.346	0.0167856
922.424	0.0167054
922.503	0.0167255
922.581	0.0165140
922.659	0.0165731
922.737	0.0167716
922.815	0.0165289
922.893	0.0165334
922.971	0.0166698
923.049	0.0165744
923.128	0.0165743
923.206	0.0167123
923.284	0.0164501
923.362	0.0165417
923.440	0.0166445
923.518	0.0166579
923.596	0.0165796
923.674	0.0167028
923.753	0.0166831
923.831	0.0166169
923.909	0.0166443
923.987	0.0166270
924.065	0.0167654
924.143	0.0166204
924.221	0.0165817
924.299	0.0166053
924.378	0.0168505
924.456	0.0167183
924.534	0.0167098
924.612	0.0167185
924.690	0.0166930
924.768	0.0165804
924.846	0.0166508
924.924	0.0166552
925.003	0.0166314
925.081	0.0166728
925.159	0.0166389
925.237	0.0165672
925.315	0.0166039
925.393	0.0166069
925.471	0.0166426
925.549	0.0166314
925.628	0.0166807
925.706	0.0166584
925.784	0.0166209
925.862	0.0167637
925.940	0.0166698
926.018	0.0166567
926.096	0.0166646
926.174	0.0165926
926.253	0.0167191
926.331	0.0167569
926.409	0.0165654
926.487	0.0165325
926.565	0.0166743
926.643	0.0166832
926.721	0.0167538
926.799	0.0164572
926.878	0.0166191
926.956	0.0165407
927.034	0.0166306
927.112	0.0166941
927.190	0.0166678
927.268	0.0165992
927.346	0.0165414
927.424	0.0165656
927.503	0.0166467
927.581	0.0166314
927.659	0.0166056
927.737	0.0164156
927.815	0.0165060
927.893	0.0164868
927.971	0.0164524
928.049	0.0166662
928.128	0.0166354
928.206	0.0165858
928.284	0.0166166
928.362	0.0166383
928.440	0.0167332
928.518	0.0164973
928.596	0.0166014
928.674	0.0165105
928.753	0.0166040
928.831	0.0167076
928.909	0.0165704
928.987	0.0165125
929.065	0.0167130
929.143	0.0165649
929.221	0.0164606
929.299	0.0166340
929.378	0.0165453
929.456	0.0165392
929.534	0.0165723
929.612	0.0164247
929.690	0.0165106
929.768	0.0166409
929.846	0.0165881
929.924	0.0165569
930.003	0.0166763
930.081	0.0165409
930.159	0.0166375
930.237	0.0166313
930.315	0.0166927
930.393	0.0166026
930.471	0.0166320
930.549	0.0167654
930.628	0.0166459
930.706	0.0166167
930.784	0.0167188
930.862	0.0166727
930.940	0.0167419
931.018	0.0166775
931.096	0.0167568
931.174	0.0167358
931.253	0.0167156
931.331	0.0166727
931.409	0.0166919
931.487	0.0166677
931.565	0.0166399
931.643	0.0165707
931.721	0.0166921
931.799	0.0167798
931.878	0.0167347
931.956	0.0167485
932.034	0.0167081
932.112	0.0166743
932.190	0.0165969
932.268	0.0166727
932.346	0.0166359
932.424	0.0167802
932.503	0.0165244
932.581	0.0166540
932.659	0.0165895
932.737	0.0166540
932.815	0.0167451
932.893	0.0167104
932.971	0.0167461
933.049	0.0167243
933.128	0.0167030
933.206	0.0165888
933.284	0.0167291
933.362	0.0166908
933.440	0.0166175
933.518	0.0166742
933.596	0.0166800
933.674	0.0167773
933.753	0.0168130
933.831	0.0167542
933.909	0.0167263
933.987	0.0166237
934.065	0.0166337
934.143	0.0166201
934.221	0.0167680
934.299	0.0168750
934.378	0.0167831
934.456	0.0166766
934.534	0.0166080
934.612	0.0166447
934.690	0.0167123
934.768	0.0166389
934.846	0.0165587
934.924	0.0167089
935.003	0.0166133
935.081	0.0166451
935.159	0.0165044
935.237	0.0165275
935.315	0.0168182
935.393	0.0165928
935.471	0.0165019
935.549	0.0167169
935.628	0.0166477
935.706	0.0167516
935.784	0.0166833
935.862	0.0165808
935.940	0.0166721
936.018	0.0164382
936.096	0.0164596
936.174	0.0166139
936.253	0.0166103
936.331	0.0167347
936.409	0.0167323
936.487	0.0165627
936.565	0.0167570
936.643	0.0166371
936.721	0.0166074
936.799	0.0166573
936.878	0.0167125
936.956	0.0167516
937.034	0.0167419
937.112	0.0167797
937.190	0.0167338
937.268	0.0166183
937.346	0.0166682
937.424	0.0166197
937.503	0.0167547
937.581	0.0165967
937.659	0.0167326
937.737	0.0167102
937.815	0.0166830
937.893	0.0167085
937.971	0.0166586
938.049	0.0167452
938.128	0.0167084
938.206	0.0167211
938.284	0.0166412
938.362	0.0166448
938.440	0.0165863
938.518	0.0166586
938.596	0.0167181
938.674	0.0167165
938.753	0.0166380
938.831	0.0165771
938.909	0.0168310
938.987	0.0166921
939.065	0.0167293
939.143	0.0165647
939.221	0.0166436
939.299	0.0167936
939.378	0.0166357
939.456	0.0165313
939.534	0.0166280
939.612	0.0165219
939.690	0.0167047
939.768	0.0166724
939.846	0.0166691
939.924	0.0166938
940.003	0.0166929
940.081	0.0167605
940.159	0.0165369
940.237	0.0166514
940.315	0.0165816
940.393	0.0165746
940.471	0.0165311
940.549	0.0166347
940.628	0.0165074
940.706	0.0164928
940.784	0.0164807
940.862	0.0165926
940.940	0.0165198
941.018	0.0166145
941.096	0.0165543
941.174	0.0164915
941.253	0.0166071
941.331	0.0165105
941.409	0.0166448
941.487	0.0165847
941.565	0.0166041
941.643	0.0166145
941.721	0.0166010
941.799	0.0167152
941.878	0.0166648
941.956	0.0165626
942.034	0.0165592
942.112	0.0167268
942.190	0.0166177
942.268	0.0165957
942.346	0.0167042
942.424	0.0165295
942.503	0.0165361
942.581	0.0166865
942.659	0.0165574
942.737	0.0166388
942.815	0.0166803
942.893	0.0165886
942.971	0.0165039
943.049	0.0167193
943.128	0.0166603
943.206	0.0166530
943.284	0.0166850
943.362	0.0167482
943.440	0.0166162
943.518	0.0166867
943.596	0.0166517
943.674	0.0168279
943.753	0.0167034
943.831	0.0167221
943.909	0.0166875
943.987	0.0167967
944.065	0.0166454
944.143	0.0168076
944.221	0.0168338
944.299	0.0166733
944.378	0.0167667
944.456	0.0167422
944.534	0.0166665
944.612	0.0166631
944.690	0.0166985
944.768	0.0167871
944.846	0.0167207
944.924	0.0166651
945.003	0.0167111
945.081	0.0165808
945.159	0.0165328
945.237	0.0166260
945.315	0.0166417
945.393	0.0164784
945.471	0.0167596
945.549	0.0166008
945.628	0.0165427
945.706	0.0165933
945.784	0.0165783
945.862	0.0165933
945.940	0.0166536
946.018	0.0165271
946.096	0.0166312
946.174	0.0165438
946.253	0.0166913
946.331	0.0165350
946.409	0.0165633
946.487	0.0165225
946.565	0.0166670
946.643	0.0165160
946.721	0.0163174
946.799	0.0165164
946.878	0.0165714
946.956	0.0165797
947.034	0.0165556
947.112	0.0165837
947.190	0.0165236
947.268	0.0166656
947.346	0.0166885
947.424	0.0164900
947.503	0.0165600
947.581	0.0166312
947.659	0.0166257
947.737	0.0166938
947.815	0.0166537
947.893	0.0166593
947.971	0.0167950
948.049	0.0167377
948.128	0.0165966
948.206	0.0166998
948.284	0.0167245
948.362	0.0167226
948.440	0.0167281
948.518	0.0167194
948.596	0.0167379
948.674	0.0166660
948.753	0.0166915
948.831	0.0168732
948.909	0.0168169
948.987	0.0166515
949.065	0.0167274
949.143	0.0167885
949.221	0.0167277
949.299	0.0166084
949.378	0.0167682
949.456	0.0167524
949.534	0.0167065
949.612	0.0166146
949.690	0.0168443
949.768	0.0167233
949.846	0.0167313
949.924	0.0166283
