05/19/2022	00:34:18	Ver.	4.1	UNKNOWN
Optical Delay	630.009178	Delta X		0.078125	Sweeps	1	Scan Rate	0/0
Coordinates	Axis 1	NaN	Axis 2	NaN	Axis 3	NaN	Axis 4	NaN	Axis 5	NaN	Axis 6	0.000000
TX Power	0.000000	RX Power	0.000000

630.009	0.0152032
630.087	0.0152230
630.165	0.0151595
630.244	0.0152564
630.322	0.0151165
630.400	0.0150940
630.478	0.0151841
630.556	0.0151762
630.634	0.0151939
630.712	0.0152016
630.790	0.0153049
630.869	0.0153146
630.947	0.0151947
631.025	0.0151409
631.103	0.0151747
631.181	0.0152547
631.259	0.0152838
631.337	0.0151796
631.415	0.0152905
631.494	0.0152628
631.572	0.0152089
631.650	0.0152299
631.728	0.0152292
631.806	0.0151363
631.884	0.0152921
631.962	0.0153664
632.040	0.0151955
632.119	0.0152396
632.197	0.0152046
632.275	0.0152338
632.353	0.0153523
632.431	0.0151305
632.509	0.0151423
632.587	0.0152293
632.665	0.0152897
632.744	0.0151561
632.822	0.0151555
632.900	0.0152877
632.978	0.0150869
633.056	0.0152034
633.134	0.0152234
633.212	0.0153335
633.290	0.0151826
633.369	0.0150908
633.447	0.0152081
633.525	0.0152185
633.603	0.0150933
633.681	0.0151048
633.759	0.0153417
633.837	0.0151567
633.915	0.0152103
633.994	0.0150751
634.072	0.0150562
634.150	0.0152776
634.228	0.0151768
634.306	0.0150873
634.384	0.0152354
634.462	0.0152864
634.540	0.0151149
634.619	0.0152512
634.697	0.0152463
634.775	0.0152174
634.853	0.0152383
634.931	0.0150999
635.009	0.0151362
635.087	0.0152366
635.165	0.0152761
635.244	0.0151691
635.322	0.0151080
635.400	0.0151778
635.478	0.0152357
635.556	0.0151847
635.634	0.0152331
635.712	0.0153458
635.790	0.0151551
635.869	0.0151801
635.947	0.0152769
636.025	0.0152595
636.103	0.0152174
636.181	0.0151585
636.259	0.0152203
636.337	0.0152101
636.415	0.0153419
636.494	0.0151667
636.572	0.0152457
636.650	0.0152340
636.728	0.0151936
636.806	0.0151147
636.884	0.0151830
636.962	0.0152749
637.040	0.0151512
637.119	0.0152425
637.197	0.0151871
637.275	0.0152242
637.353	0.0153049
637.431	0.0151457
637.509	0.0152393
637.587	0.0153179
637.665	0.0151681
637.744	0.0151864
637.822	0.0152814
637.900	0.0151821
637.978	0.0151913
638.056	0.0152998
638.134	0.0153185
638.212	0.0150738
638.290	0.0150964
638.369	0.0152717
638.447	0.0151781
638.525	0.0151912
638.603	0.0150983
638.681	0.0150684
638.759	0.0152762
638.837	0.0151239
638.915	0.0151244
638.994	0.0152048
639.072	0.0152077
639.150	0.0150891
639.228	0.0152478
639.306	0.0152468
639.384	0.0151836
639.462	0.0152090
639.540	0.0152409
639.619	0.0151794
639.697	0.0151992
639.775	0.0152255
639.853	0.0151019
639.931	0.0153054
640.009	0.0152773
640.087	0.0151328
640.165	0.0150079
640.244	0.0152591
640.322	0.0152998
640.400	0.0152409
640.478	0.0152657
640.556	0.0153349
640.634	0.0151462
640.712	0.0152299
640.790	0.0150761
640.869	0.0151394
640.947	0.0151619
641.025	0.0152483
641.103	0.0150749
641.181	0.0152391
641.259	0.0152573
641.337	0.0152061
641.415	0.0152602
641.494	0.0151324
641.572	0.0151561
641.650	0.0152090
641.728	0.0151865
641.806	0.0152003
641.884	0.0152074
641.962	0.0152725
642.040	0.0153103
642.119	0.0153027
642.197	0.0153785
642.275	0.0152099
642.353	0.0152142
642.431	0.0153011
642.509	0.0150625
642.587	0.0151129
642.665	0.0151933
642.744	0.0151752
642.822	0.0151176
642.900	0.0153227
642.978	0.0151801
643.056	0.0151833
643.134	0.0151605
643.212	0.0151960
643.290	0.0152322
643.369	0.0152663
643.447	0.0151231
643.525	0.0152847
643.603	0.0153009
643.681	0.0150835
643.759	0.0152258
643.837	0.0152389
643.915	0.0153958
643.994	0.0152434
644.072	0.0151048
644.150	0.0152304
644.228	0.0151979
644.306	0.0151535
644.384	0.0151575
644.462	0.0153209
644.540	0.0151949
644.619	0.0151971
644.697	0.0152440
644.775	0.0153095
644.853	0.0152776
644.931	0.0152334
645.009	0.0152814
645.087	0.0151989
645.165	0.0152940
645.244	0.0152402
645.322	0.0153084
645.400	0.0151840
645.478	0.0151536
645.556	0.0152060
645.634	0.0151598
645.712	0.0152485
645.790	0.0152608
645.869	0.0151571
645.947	0.0153005
646.025	0.0151671
646.103	0.0151726
646.181	0.0153020
646.259	0.0151608
646.337	0.0151687
646.415	0.0151957
646.494	0.0152460
646.572	0.0152634
646.650	0.0150067
646.728	0.0152159
646.806	0.0153978
646.884	0.0153001
646.962	0.0151231
647.040	0.0151952
647.119	0.0152985
647.197	0.0152342
647.275	0.0152026
647.353	0.0152193
647.431	0.0151991
647.509	0.0153465
647.587	0.0151942
647.665	0.0153056
647.744	0.0153954
647.822	0.0152847
647.900	0.0152233
647.978	0.0152325
648.056	0.0153089
648.134	0.0153068
648.212	0.0151061
648.290	0.0151444
648.369	0.0152837
648.447	0.0151046
648.525	0.0151156
648.603	0.0151295
648.681	0.0151758
648.759	0.0152834
648.837	0.0152372
648.915	0.0151484
648.994	0.0153599
649.072	0.0152891
649.150	0.0151971
649.228	0.0151545
649.306	0.0152611
649.384	0.0151288
649.462	0.0150357
649.540	0.0151435
649.619	0.0151565
649.697	0.0153272
649.775	0.0152602
649.853	0.0152460
649.931	0.0151714
650.009	0.0151352
650.087	0.0150838
650.165	0.0153126
650.244	0.0152789
650.322	0.0152387
650.400	0.0151012
650.478	0.0152208
650.556	0.0152032
650.634	0.0151258
650.712	0.0152605
650.790	0.0152110
650.869	0.0152299
650.947	0.0152178
651.025	0.0152602
651.103	0.0153001
651.181	0.0152968
651.259	0.0151714
651.337	0.0151624
651.415	0.0152700
651.494	0.0151649
651.572	0.0151860
651.650	0.0152960
651.728	0.0153471
651.806	0.0152668
651.884	0.0151189
651.962	0.0151704
652.040	0.0151368
652.119	0.0153310
652.197	0.0152129
652.275	0.0154329
652.353	0.0152355
652.431	0.0151167
652.509	0.0151615
652.587	0.0152306
652.665	0.0152893
652.744	0.0152734
652.822	0.0152598
652.900	0.0151350
652.978	0.0151048
653.056	0.0152646
653.134	0.0151754
653.212	0.0151588
653.290	0.0152261
653.369	0.0152323
653.447	0.0152421
653.525	0.0152253
653.603	0.0151481
653.681	0.0152711
653.759	0.0152464
653.837	0.0152146
653.915	0.0151670
653.994	0.0150742
654.072	0.0150612
654.150	0.0152768
654.228	0.0153468
654.306	0.0150629
654.384	0.0151938
654.462	0.0152793
654.540	0.0151747
654.619	0.0152802
654.697	0.0151015
654.775	0.0152101
654.853	0.0152184
654.931	0.0151452
655.009	0.0152325
655.087	0.0153400
655.165	0.0152387
655.244	0.0151698
655.322	0.0151891
655.400	0.0152324
655.478	0.0152228
655.556	0.0152002
655.634	0.0150869
655.712	0.0151591
655.790	0.0152744
655.869	0.0152006
655.947	0.0151160
656.025	0.0152573
656.103	0.0151285
656.181	0.0150564
656.259	0.0152509
656.337	0.0152986
656.415	0.0152425
656.494	0.0152506
656.572	0.0152233
656.650	0.0152962
656.728	0.0151904
656.806	0.0153566
656.884	0.0151775
656.962	0.0153641
657.040	0.0152637
657.119	0.0153532
657.197	0.0151393
657.275	0.0152694
657.353	0.0152045
657.431	0.0152490
657.509	0.0152988
657.587	0.0151704
657.665	0.0152271
657.744	0.0152614
657.822	0.0152453
657.900	0.0151781
657.978	0.0151701
658.056	0.0151690
658.134	0.0153111
658.212	0.0151983
658.290	0.0152567
658.369	0.0152828
658.447	0.0153676
658.525	0.0152696
658.603	0.0152634
658.681	0.0152266
658.759	0.0152392
658.837	0.0152156
658.915	0.0150986
658.994	0.0152776
659.072	0.0153785
659.150	0.0153643
659.228	0.0151437
659.306	0.0151387
659.384	0.0151532
659.462	0.0152730
659.540	0.0151532
659.619	0.0152247
659.697	0.0151208
659.775	0.0152384
659.853	0.0153089
659.931	0.0152689
660.009	0.0153025
660.087	0.0153570
660.165	0.0151628
660.244	0.0152895
660.322	0.0152332
660.400	0.0152148
660.478	0.0152528
660.556	0.0152480
660.634	0.0152950
660.712	0.0152656
660.790	0.0150801
660.869	0.0151099
660.947	0.0151848
661.025	0.0152450
661.103	0.0152484
661.181	0.0151650
661.259	0.0151117
661.337	0.0150523
661.415	0.0152393
661.494	0.0151836
661.572	0.0151061
661.650	0.0151249
661.728	0.0152432
661.806	0.0151147
661.884	0.0151731
661.962	0.0152049
662.040	0.0151516
662.119	0.0151476
662.197	0.0152209
662.275	0.0153016
662.353	0.0152866
662.431	0.0151482
662.509	0.0152136
662.587	0.0152566
662.665	0.0152068
662.744	0.0150420
662.822	0.0151400
662.900	0.0152667
662.978	0.0152803
663.056	0.0153632
663.134	0.0153602
663.212	0.0151315
663.290	0.0152451
663.369	0.0152502
663.447	0.0152440
663.525	0.0152994
663.603	0.0151793
663.681	0.0152197
663.759	0.0151883
663.837	0.0152880
663.915	0.0152944
663.994	0.0153053
664.072	0.0152910
664.150	0.0151158
664.228	0.0151898
664.306	0.0151290
664.384	0.0151999
664.462	0.0153415
664.540	0.0152477
664.619	0.0152412
664.697	0.0151496
664.775	0.0151801
664.853	0.0152423
664.931	0.0152500
665.009	0.0152905
665.087	0.0151607
665.165	0.0151643
665.244	0.0151884
665.322	0.0152917
665.400	0.0153032
665.478	0.0152634
665.556	0.0152374
665.634	0.0151314
665.712	0.0152567
665.790	0.0151851
665.869	0.0152560
665.947	0.0153053
666.025	0.0151016
666.103	0.0151763
666.181	0.0152805
666.259	0.0151747
666.337	0.0152352
666.415	0.0152922
666.494	0.0152043
666.572	0.0153075
666.650	0.0151627
666.728	0.0150434
666.806	0.0150829
666.884	0.0152071
666.962	0.0153591
667.040	0.0151761
667.119	0.0152084
667.197	0.0151652
667.275	0.0152010
667.353	0.0152017
667.431	0.0152309
667.509	0.0152732
667.587	0.0151394
667.665	0.0151338
667.744	0.0152568
667.822	0.0151148
667.900	0.0152152
667.978	0.0151447
668.056	0.0152456
668.134	0.0150546
668.212	0.0151477
668.290	0.0151088
668.369	0.0150533
668.447	0.0151565
668.525	0.0151495
668.603	0.0152807
668.681	0.0151073
668.759	0.0151426
668.837	0.0150887
668.915	0.0149648
668.994	0.0150883
669.072	0.0150196
669.150	0.0152008
669.228	0.0150739
669.306	0.0149914
669.384	0.0151037
669.462	0.0151163
669.540	0.0151409
669.619	0.0150313
669.697	0.0150723
669.775	0.0150601
669.853	0.0151374
669.931	0.0150085
670.009	0.0150887
670.087	0.0149720
670.165	0.0150465
670.244	0.0151596
670.322	0.0149815
670.400	0.0150850
670.478	0.0151705
670.556	0.0150974
670.634	0.0151175
670.712	0.0151370
670.790	0.0149959
670.869	0.0151179
670.947	0.0149215
671.025	0.0151061
671.103	0.0152071
671.181	0.0151282
671.259	0.0149224
671.337	0.0149613
671.415	0.0150702
671.494	0.0151277
671.572	0.0150396
671.650	0.0152147
671.728	0.0150412
671.806	0.0151678
671.884	0.0150596
671.962	0.0150951
672.040	0.0151028
672.119	0.0151383
672.197	0.0151189
672.275	0.0150263
672.353	0.0150271
672.431	0.0151786
672.509	0.0150829
672.587	0.0151657
672.665	0.0150853
672.744	0.0152473
672.822	0.0151122
672.900	0.0152074
672.978	0.0152150
673.056	0.0152524
673.134	0.0151918
673.212	0.0151485
673.290	0.0151926
673.369	0.0151339
673.447	0.0151542
673.525	0.0151839
673.603	0.0152755
673.681	0.0152303
673.759	0.0152085
673.837	0.0152583
673.915	0.0153955
673.994	0.0153004
674.072	0.0151649
674.150	0.0152654
674.228	0.0152833
674.306	0.0152910
674.384	0.0153073
674.462	0.0152717
674.540	0.0152142
674.619	0.0153622
674.697	0.0153348
674.775	0.0153391
674.853	0.0152568
674.931	0.0153880
675.009	0.0154104
675.087	0.0153694
675.165	0.0153161
675.244	0.0151669
675.322	0.0154200
675.400	0.0152239
675.478	0.0153644
675.556	0.0152045
675.634	0.0152426
675.712	0.0152737
675.790	0.0153431
675.869	0.0153374
675.947	0.0152601
676.025	0.0152585
676.103	0.0152602
676.181	0.0152873
676.259	0.0151488
676.337	0.0152591
676.415	0.0152967
676.494	0.0152430
676.572	0.0153236
676.650	0.0153111
676.728	0.0153185
676.806	0.0151794
676.884	0.0153984
676.962	0.0153865
677.040	0.0152090
677.119	0.0152842
677.197	0.0154572
677.275	0.0153259
677.353	0.0152867
677.431	0.0152815
677.509	0.0152983
677.587	0.0153625
677.665	0.0153107
677.744	0.0153008
677.822	0.0152826
677.900	0.0151559
677.978	0.0152856
678.056	0.0153194
678.134	0.0153534
678.212	0.0153794
678.290	0.0151206
678.369	0.0152886
678.447	0.0152783
678.525	0.0152274
678.603	0.0153402
678.681	0.0152731
678.759	0.0153033
678.837	0.0151845
678.915	0.0152596
678.994	0.0153294
679.072	0.0152316
679.150	0.0152468
679.228	0.0151794
679.306	0.0151368
679.384	0.0151734
679.462	0.0150806
679.540	0.0151533
679.619	0.0151366
679.697	0.0150372
679.775	0.0151346
679.853	0.0151522
679.931	0.0151898
680.009	0.0151581
680.087	0.0151940
680.165	0.0153100
680.244	0.0152038
680.322	0.0151505
680.400	0.0151806
680.478	0.0152301
680.556	0.0152129
680.634	0.0152782
680.712	0.0151707
680.790	0.0152205
680.869	0.0151443
680.947	0.0150825
681.025	0.0151881
681.103	0.0151828
681.181	0.0151076
681.259	0.0152634
681.337	0.0153286
681.415	0.0152106
681.494	0.0151218
681.572	0.0152279
681.650	0.0152615
681.728	0.0152389
681.806	0.0152944
681.884	0.0152937
681.962	0.0151411
682.040	0.0151875
682.119	0.0152711
682.197	0.0151869
682.275	0.0151360
682.353	0.0152393
682.431	0.0151788
682.509	0.0152556
682.587	0.0151994
682.665	0.0152745
682.744	0.0151492
682.822	0.0151431
682.900	0.0151283
682.978	0.0152129
683.056	0.0151751
683.134	0.0151997
683.212	0.0151919
683.290	0.0153079
683.369	0.0153423
683.447	0.0152083
683.525	0.0150681
683.603	0.0152112
683.681	0.0152220
683.759	0.0153025
683.837	0.0153925
683.915	0.0152326
683.994	0.0151797
684.072	0.0150797
684.150	0.0150764
684.228	0.0151435
684.306	0.0151180
684.384	0.0151900
684.462	0.0151147
684.540	0.0152065
684.619	0.0153682
684.697	0.0152833
684.775	0.0152702
684.853	0.0152573
684.931	0.0152429
685.009	0.0151784
685.087	0.0152615
685.165	0.0153350
685.244	0.0152821
685.322	0.0152758
685.400	0.0153155
685.478	0.0152706
685.556	0.0151907
685.634	0.0151482
685.712	0.0153982
685.790	0.0151624
685.869	0.0150799
685.947	0.0151820
686.025	0.0152760
686.103	0.0152242
686.181	0.0150264
686.259	0.0151309
686.337	0.0151019
686.415	0.0152073
686.494	0.0150255
686.572	0.0151689
686.650	0.0152499
686.728	0.0152557
686.806	0.0152109
686.884	0.0152875
686.962	0.0154524
687.040	0.0153665
687.119	0.0155073
687.197	0.0153850
687.275	0.0155072
687.353	0.0155511
687.431	0.0154852
687.509	0.0154075
687.587	0.0154218
687.665	0.0153816
687.744	0.0154008
687.822	0.0153040
687.900	0.0154745
687.978	0.0151323
688.056	0.0152901
688.134	0.0152446
688.212	0.0153361
688.290	0.0153917
688.369	0.0153129
688.447	0.0152538
688.525	0.0152796
688.603	0.0152219
688.681	0.0152180
688.759	0.0151758
688.837	0.0151936
688.915	0.0153943
688.994	0.0152465
689.072	0.0152241
689.150	0.0152570
689.228	0.0151383
689.306	0.0152425
689.384	0.0151841
689.462	0.0150807
689.540	0.0151891
689.619	0.0151910
689.697	0.0152847
689.775	0.0152970
689.853	0.0152151
689.931	0.0153017
690.009	0.0151735
690.087	0.0152641
690.165	0.0151302
690.244	0.0152089
690.322	0.0151253
690.400	0.0151944
690.478	0.0150587
690.556	0.0151401
690.634	0.0151416
690.712	0.0151195
690.790	0.0152276
690.869	0.0150372
690.947	0.0149203
691.025	0.0152145
691.103	0.0151987
691.181	0.0151566
691.259	0.0150712
691.337	0.0150848
691.415	0.0150319
691.494	0.0150334
691.572	0.0150156
691.650	0.0151048
691.728	0.0151527
691.806	0.0150195
691.884	0.0150365
691.962	0.0152155
692.040	0.0153231
692.119	0.0151021
692.197	0.0151065
692.275	0.0151003
692.353	0.0151570
692.431	0.0152187
692.509	0.0150359
692.587	0.0151888
692.665	0.0151294
692.744	0.0151940
692.822	0.0150765
692.900	0.0152335
692.978	0.0152818
693.056	0.0152334
693.134	0.0153361
693.212	0.0151825
693.290	0.0152937
693.369	0.0154636
693.447	0.0152364
693.525	0.0153327
693.603	0.0154330
693.681	0.0154565
693.759	0.0154850
693.837	0.0155363
693.915	0.0153202
693.994	0.0154286
694.072	0.0154049
694.150	0.0153632
694.228	0.0153023
694.306	0.0153303
694.384	0.0151926
694.462	0.0153316
694.540	0.0151478
694.619	0.0151923
694.697	0.0151933
694.775	0.0151381
694.853	0.0151920
694.931	0.0150813
695.009	0.0150941
695.087	0.0151881
695.165	0.0151529
695.244	0.0150833
695.322	0.0149820
695.400	0.0151278
695.478	0.0151894
695.556	0.0152132
695.634	0.0151102
695.712	0.0151218
695.790	0.0151245
695.869	0.0151865
695.947	0.0151888
696.025	0.0152013
696.103	0.0151675
696.181	0.0153095
696.259	0.0152689
696.337	0.0151706
696.415	0.0150822
696.494	0.0151801
696.572	0.0153159
696.650	0.0151156
696.728	0.0151667
696.806	0.0152625
696.884	0.0152306
696.962	0.0150909
697.040	0.0152601
697.119	0.0153261
697.197	0.0152364
697.275	0.0151965
697.353	0.0152585
697.431	0.0152216
697.509	0.0152490
697.587	0.0151453
697.665	0.0151691
697.744	0.0153522
697.822	0.0152106
697.900	0.0152172
697.978	0.0151643
698.056	0.0153368
698.134	0.0152691
698.212	0.0153714
698.290	0.0153247
698.369	0.0155236
698.447	0.0152946
698.525	0.0153431
698.603	0.0154079
698.681	0.0154065
698.759	0.0153629
698.837	0.0151689
698.915	0.0153263
698.994	0.0154022
699.072	0.0152109
699.150	0.0152933
699.228	0.0152051
699.306	0.0152539
699.384	0.0153116
699.462	0.0153334
699.540	0.0151774
699.619	0.0153423
699.697	0.0152160
699.775	0.0152676
699.853	0.0152103
699.931	0.0152218
700.009	0.0151868
700.087	0.0151611
700.165	0.0152645
700.244	0.0152917
700.322	0.0153014
700.400	0.0152444
700.478	0.0152446
700.556	0.0151844
700.634	0.0152149
700.712	0.0153696
700.790	0.0152119
700.869	0.0152403
700.947	0.0151168
701.025	0.0152515
701.103	0.0152916
701.181	0.0152027
701.259	0.0153885
701.337	0.0153523
701.415	0.0152815
701.494	0.0153209
701.572	0.0152782
701.650	0.0153674
701.728	0.0154759
701.806	0.0153697
701.884	0.0153835
701.962	0.0155102
702.040	0.0154478
702.119	0.0152409
702.197	0.0153442
702.275	0.0153368
702.353	0.0152389
702.431	0.0152512
702.509	0.0152578
702.587	0.0150800
702.665	0.0151874
702.744	0.0150830
702.822	0.0150908
702.900	0.0150524
702.978	0.0150487
703.056	0.0149922
703.134	0.0150262
703.212	0.0150758
703.290	0.0149422
703.369	0.0149629
703.447	0.0149921
703.525	0.0150644
703.603	0.0150655
703.681	0.0150340
703.759	0.0151457
703.837	0.0151139
703.915	0.0150958
703.994	0.0153336
704.072	0.0152721
704.150	0.0151263
704.228	0.0152768
704.306	0.0152305
704.384	0.0152253
704.462	0.0152267
704.540	0.0152089
704.619	0.0152510
704.697	0.0152229
704.775	0.0152003
704.853	0.0150878
704.931	0.0151445
705.009	0.0152285
705.087	0.0151411
705.165	0.0151004
705.244	0.0151450
705.322	0.0151386
705.400	0.0151086
705.478	0.0150973
705.556	0.0152679
705.634	0.0153242
705.712	0.0153059
705.790	0.0153624
705.869	0.0153732
705.947	0.0154439
706.025	0.0153902
706.103	0.0155663
706.181	0.0155772
706.259	0.0154855
706.337	0.0153596
706.415	0.0154615
706.494	0.0156005
706.572	0.0154543
706.650	0.0155159
706.728	0.0154274
706.806	0.0152701
706.884	0.0152608
706.962	0.0152753
707.040	0.0152737
707.119	0.0151170
707.197	0.0150816
707.275	0.0151196
707.353	0.0150688
707.431	0.0150394
707.509	0.0150157
707.587	0.0150600
707.665	0.0151835
707.744	0.0152275
707.822	0.0152798
707.900	0.0153081
707.978	0.0152934
708.056	0.0153185
708.134	0.0153619
708.212	0.0154450
708.290	0.0155350
708.369	0.0153336
708.447	0.0153442
708.525	0.0153959
708.603	0.0154667
708.681	0.0155230
708.759	0.0153894
708.837	0.0153740
708.915	0.0154871
708.994	0.0154009
709.072	0.0152722
709.150	0.0152235
709.228	0.0152144
709.306	0.0151756
709.384	0.0151301
709.462	0.0149435
709.540	0.0149950
709.619	0.0150204
709.697	0.0148697
709.775	0.0149094
709.853	0.0149658
709.931	0.0150509
710.009	0.0150101
710.087	0.0150194
710.165	0.0150860
710.244	0.0150745
710.322	0.0151920
710.400	0.0152116
710.478	0.0152596
710.556	0.0153101
710.634	0.0152704
710.712	0.0152928
710.790	0.0153308
710.869	0.0153745
710.947	0.0154261
711.025	0.0154153
711.103	0.0153645
711.181	0.0153659
711.259	0.0151077
711.337	0.0153326
711.415	0.0151623
711.494	0.0152593
711.572	0.0151816
711.650	0.0150794
711.728	0.0151073
711.806	0.0151926
711.884	0.0150905
711.962	0.0149979
712.040	0.0149889
712.119	0.0150945
712.197	0.0151680
712.275	0.0152730
712.353	0.0152282
712.431	0.0154164
712.509	0.0152267
712.587	0.0153023
712.665	0.0152447
712.744	0.0154890
712.822	0.0153880
712.900	0.0153094
712.978	0.0155534
713.056	0.0154745
713.134	0.0154759
713.212	0.0154144
713.290	0.0155206
713.369	0.0153342
713.447	0.0153149
713.525	0.0152463
713.603	0.0152348
713.681	0.0151965
713.759	0.0153009
713.837	0.0152667
713.915	0.0150893
713.994	0.0150068
714.072	0.0150854
714.150	0.0151437
714.228	0.0150777
714.306	0.0150548
714.384	0.0151560
714.462	0.0150430
714.540	0.0150523
714.619	0.0150322
714.697	0.0152417
714.775	0.0152074
714.853	0.0151823
714.931	0.0150713
715.009	0.0152567
715.087	0.0152536
715.165	0.0152013
715.244	0.0153273
715.322	0.0153643
715.400	0.0151907
715.478	0.0153523
715.556	0.0152760
715.634	0.0153333
715.712	0.0153124
715.790	0.0152773
715.869	0.0153277
715.947	0.0150780
716.025	0.0151698
716.103	0.0151849
716.181	0.0151189
716.259	0.0152531
716.337	0.0151919
716.415	0.0151372
716.494	0.0150780
716.572	0.0152648
716.650	0.0151167
716.728	0.0151820
716.806	0.0152439
716.884	0.0151659
716.962	0.0151665
717.040	0.0154478
717.119	0.0152924
717.197	0.0153388
717.275	0.0153284
717.353	0.0153905
717.431	0.0152789
717.509	0.0154135
717.587	0.0154243
717.665	0.0153111
717.744	0.0154491
717.822	0.0154180
717.900	0.0154755
717.978	0.0154504
718.056	0.0153323
718.134	0.0153516
718.212	0.0153577
718.290	0.0152827
718.369	0.0153558
718.447	0.0151975
718.525	0.0152376
718.603	0.0152045
718.681	0.0151317
718.759	0.0151614
718.837	0.0152062
718.915	0.0152055
718.994	0.0150807
719.072	0.0151772
719.150	0.0150927
719.228	0.0151169
719.306	0.0151732
719.384	0.0150544
719.462	0.0151847
719.540	0.0152608
719.619	0.0152385
719.697	0.0152650
719.775	0.0153132
719.853	0.0153121
719.931	0.0152879
720.009	0.0151938
720.087	0.0152734
720.165	0.0152544
720.244	0.0152151
720.322	0.0152892
720.400	0.0152099
720.478	0.0149868
720.556	0.0149673
720.634	0.0151189
720.712	0.0151304
720.790	0.0151017
720.869	0.0149451
720.947	0.0149107
721.025	0.0149471
721.103	0.0151007
721.181	0.0150428
721.259	0.0150266
721.337	0.0151736
721.415	0.0150716
721.494	0.0151011
721.572	0.0152651
721.650	0.0152408
721.728	0.0151562
721.806	0.0151105
721.884	0.0152847
721.962	0.0152663
722.040	0.0151884
722.119	0.0151778
722.197	0.0151119
722.275	0.0152144
722.353	0.0150425
722.431	0.0149400
722.509	0.0150959
722.587	0.0150706
722.665	0.0150217
722.744	0.0150878
722.822	0.0151260
722.900	0.0152685
722.978	0.0152869
723.056	0.0153885
723.134	0.0151735
723.212	0.0152213
723.290	0.0152930
723.369	0.0153548
723.447	0.0153166
723.525	0.0152936
723.603	0.0150889
723.681	0.0151891
723.759	0.0151448
723.837	0.0151991
723.915	0.0152224
723.994	0.0152798
724.072	0.0152356
724.150	0.0152107
724.228	0.0150604
724.306	0.0152133
724.384	0.0152878
724.462	0.0153139
724.540	0.0152054
724.619	0.0153724
724.697	0.0152248
724.775	0.0152652
724.853	0.0155125
724.931	0.0154707
725.009	0.0154604
725.087	0.0154052
725.165	0.0153179
725.244	0.0151636
725.322	0.0153418
725.400	0.0153223
725.478	0.0154190
725.556	0.0153847
725.634	0.0153561
725.712	0.0152753
725.790	0.0153067
725.869	0.0153638
725.947	0.0152901
726.025	0.0153171
726.103	0.0153831
726.181	0.0152898
726.259	0.0153719
726.337	0.0153861
726.415	0.0152708
726.494	0.0153471
726.572	0.0153242
726.650	0.0152993
726.728	0.0153097
726.806	0.0152028
726.884	0.0152161
726.962	0.0152427
727.040	0.0152427
727.119	0.0153550
727.197	0.0152594
727.275	0.0150892
727.353	0.0152431
727.431	0.0152021
727.509	0.0152935
727.587	0.0153695
727.665	0.0153049
727.744	0.0153185
727.822	0.0154144
727.900	0.0152981
727.978	0.0152055
728.056	0.0151764
728.134	0.0153370
728.212	0.0152621
728.290	0.0151103
728.369	0.0151077
728.447	0.0150323
728.525	0.0151449
728.603	0.0150672
728.681	0.0150660
728.759	0.0150845
728.837	0.0150626
728.915	0.0149598
728.994	0.0151673
729.072	0.0151656
729.150	0.0151518
729.228	0.0152148
729.306	0.0152131
729.384	0.0152554
729.462	0.0153983
729.540	0.0153558
729.619	0.0154280
729.697	0.0155499
729.775	0.0153790
729.853	0.0153239
729.931	0.0152673
730.009	0.0153349
730.087	0.0153662
730.165	0.0153930
730.244	0.0153432
730.322	0.0151738
730.400	0.0151531
730.478	0.0153139
730.556	0.0152000
730.634	0.0151008
730.712	0.0150631
730.790	0.0150621
730.869	0.0149934
730.947	0.0151295
731.025	0.0152941
731.103	0.0152290
731.181	0.0152050
731.259	0.0152561
731.337	0.0152248
731.415	0.0152205
731.494	0.0150725
731.572	0.0151146
731.650	0.0152023
731.728	0.0151414
731.806	0.0151824
731.884	0.0151170
731.962	0.0152847
732.040	0.0152207
732.119	0.0150674
732.197	0.0150838
732.275	0.0150472
732.353	0.0151617
732.431	0.0152565
732.509	0.0152113
732.587	0.0151450
732.665	0.0152468
732.744	0.0151585
732.822	0.0152025
732.900	0.0151953
732.978	0.0152039
733.056	0.0152898
733.134	0.0152634
733.212	0.0152110
733.290	0.0152554
733.369	0.0153099
733.447	0.0153830
733.525	0.0153283
733.603	0.0152953
733.681	0.0152981
733.759	0.0152557
733.837	0.0151960
733.915	0.0150881
733.994	0.0151533
734.072	0.0151800
734.150	0.0152721
734.228	0.0152747
734.306	0.0152541
734.384	0.0153294
734.462	0.0151509
734.540	0.0152529
734.619	0.0152866
734.697	0.0152785
734.775	0.0150927
734.853	0.0151266
734.931	0.0151949
735.009	0.0152312
735.087	0.0151873
735.165	0.0153468
735.244	0.0152183
735.322	0.0153472
735.400	0.0153050
735.478	0.0152043
735.556	0.0153590
735.634	0.0152823
735.712	0.0152014
735.790	0.0151104
735.869	0.0152184
735.947	0.0152063
736.025	0.0150942
736.103	0.0152417
736.181	0.0151664
736.259	0.0151869
736.337	0.0152193
736.415	0.0151532
736.494	0.0152171
736.572	0.0151975
736.650	0.0152286
736.728	0.0152567
736.806	0.0153460
736.884	0.0152519
736.962	0.0152921
737.040	0.0152295
737.119	0.0152875
737.197	0.0151683
737.275	0.0152109
737.353	0.0153281
737.431	0.0153311
737.509	0.0153045
737.587	0.0152364
737.665	0.0152453
737.744	0.0153236
737.822	0.0152149
737.900	0.0151558
737.978	0.0153194
738.056	0.0152397
738.134	0.0152452
738.212	0.0152699
738.290	0.0151685
738.369	0.0151931
738.447	0.0151910
738.525	0.0151107
738.603	0.0151490
738.681	0.0151167
738.759	0.0150767
738.837	0.0152840
738.915	0.0151866
738.994	0.0151405
739.072	0.0153118
739.150	0.0153391
739.228	0.0150468
739.306	0.0152889
739.384	0.0152752
739.462	0.0153022
739.540	0.0152829
739.619	0.0152056
739.697	0.0152693
739.775	0.0153005
739.853	0.0151813
739.931	0.0153061
740.009	0.0153551
740.087	0.0151596
740.165	0.0151825
740.244	0.0151945
740.322	0.0151617
740.400	0.0151175
740.478	0.0150954
740.556	0.0151489
740.634	0.0151911
740.712	0.0151597
740.790	0.0151096
740.869	0.0151258
740.947	0.0152560
741.025	0.0150900
741.103	0.0152376
741.181	0.0154002
741.259	0.0151817
741.337	0.0151119
741.415	0.0151575
741.494	0.0150983
741.572	0.0153819
741.650	0.0152042
741.728	0.0152358
741.806	0.0152397
741.884	0.0151311
741.962	0.0151684
742.040	0.0151875
742.119	0.0153310
742.197	0.0151421
742.275	0.0152049
742.353	0.0151768
742.431	0.0152598
742.509	0.0151853
742.587	0.0152219
742.665	0.0152396
742.744	0.0150465
742.822	0.0151918
742.900	0.0151994
742.978	0.0149858
743.056	0.0151754
743.134	0.0151798
743.212	0.0151795
743.290	0.0151706
743.369	0.0151667
743.447	0.0153059
743.525	0.0152199
743.603	0.0150490
743.681	0.0151804
743.759	0.0152276
743.837	0.0151772
743.915	0.0151771
743.994	0.0153132
744.072	0.0151279
744.150	0.0150243
744.228	0.0151646
744.306	0.0152164
744.384	0.0151490
744.462	0.0150112
744.540	0.0153292
744.619	0.0151965
744.697	0.0149822
744.775	0.0150603
744.853	0.0151433
744.931	0.0151997
745.009	0.0151872
745.087	0.0151601
745.165	0.0153339
745.244	0.0153097
745.322	0.0153588
745.400	0.0151408
745.478	0.0150932
745.556	0.0151413
745.634	0.0151840
745.712	0.0151642
745.790	0.0152306
745.869	0.0152230
745.947	0.0151469
746.025	0.0150718
746.103	0.0150666
746.181	0.0150983
746.259	0.0152225
746.337	0.0152306
746.415	0.0152181
746.494	0.0152078
746.572	0.0151476
746.650	0.0152021
746.728	0.0150471
746.806	0.0151442
746.884	0.0152637
746.962	0.0152636
747.040	0.0151894
747.119	0.0151005
747.197	0.0152012
747.275	0.0152213
747.353	0.0152893
747.431	0.0153018
747.509	0.0151763
747.587	0.0152900
747.665	0.0152884
747.744	0.0153518
747.822	0.0151818
747.900	0.0152166
747.978	0.0151240
748.056	0.0151435
748.134	0.0153083
748.212	0.0152406
748.290	0.0152306
748.369	0.0151741
748.447	0.0152242
748.525	0.0153397
748.603	0.0152354
748.681	0.0152258
748.759	0.0152139
748.837	0.0152474
748.915	0.0152618
748.994	0.0153214
749.072	0.0152593
749.150	0.0152744
749.228	0.0152486
749.306	0.0152714
749.384	0.0152013
749.462	0.0154166
749.540	0.0153852
749.619	0.0152718
749.697	0.0154395
749.775	0.0152530
749.853	0.0151798
749.931	0.0152201
750.009	0.0152891
750.087	0.0154122
750.165	0.0152839
750.244	0.0152016
750.322	0.0152234
750.400	0.0151221
750.478	0.0152981
750.556	0.0153461
750.634	0.0150521
750.712	0.0151254
750.790	0.0152293
750.869	0.0153075
750.947	0.0151294
751.025	0.0152248
751.103	0.0152130
751.181	0.0153961
751.259	0.0153693
751.337	0.0153409
751.415	0.0152351
751.494	0.0152399
751.572	0.0152973
751.650	0.0152320
751.728	0.0153336
751.806	0.0151872
751.884	0.0152850
751.962	0.0153259
752.040	0.0153764
752.119	0.0152747
752.197	0.0153172
752.275	0.0152956
752.353	0.0153497
752.431	0.0152737
752.509	0.0152784
752.587	0.0152178
752.665	0.0150429
752.744	0.0153580
752.822	0.0152337
752.900	0.0150784
752.978	0.0152257
753.056	0.0151771
753.134	0.0152128
753.212	0.0153247
753.290	0.0152029
753.369	0.0154119
753.447	0.0152464
753.525	0.0152328
753.603	0.0152673
753.681	0.0152464
753.759	0.0152337
753.837	0.0153365
753.915	0.0151656
753.994	0.0153316
754.072	0.0152546
754.150	0.0152315
754.228	0.0151524
754.306	0.0152493
754.384	0.0152000
754.462	0.0152812
754.540	0.0151638
754.619	0.0151054
754.697	0.0152484
754.775	0.0152122
754.853	0.0152201
754.931	0.0152061
755.009	0.0151762
755.087	0.0151006
755.165	0.0151998
755.244	0.0152962
755.322	0.0150536
755.400	0.0151305
755.478	0.0152763
755.556	0.0150599
755.634	0.0150008
755.712	0.0151529
755.790	0.0150286
755.869	0.0151223
755.947	0.0150494
756.025	0.0150337
756.103	0.0151086
756.181	0.0150789
756.259	0.0151085
756.337	0.0151263
756.415	0.0151026
756.494	0.0151411
756.572	0.0151649
756.650	0.0152141
756.728	0.0150992
756.806	0.0151302
756.884	0.0152751
756.962	0.0151141
757.040	0.0151135
757.119	0.0150785
757.197	0.0152394
757.275	0.0150269
757.353	0.0151109
757.431	0.0152235
757.509	0.0152156
757.587	0.0151025
757.665	0.0151216
757.744	0.0152050
757.822	0.0152112
757.900	0.0150670
757.978	0.0150848
758.056	0.0150850
758.134	0.0151926
758.212	0.0151276
758.290	0.0151974
758.369	0.0153176
758.447	0.0153226
758.525	0.0150941
758.603	0.0151554
758.681	0.0152198
758.759	0.0152334
758.837	0.0152335
758.915	0.0152796
758.994	0.0152428
759.072	0.0151900
759.150	0.0153686
759.228	0.0152380
759.306	0.0153137
759.384	0.0153329
759.462	0.0153098
759.540	0.0151357
759.619	0.0152390
759.697	0.0152874
759.775	0.0152853
759.853	0.0153737
759.931	0.0152077
760.009	0.0151158
760.087	0.0151772
760.165	0.0151071
760.244	0.0151924
760.322	0.0152041
760.400	0.0150806
760.478	0.0152161
760.556	0.0152474
760.634	0.0151242
760.712	0.0151718
760.790	0.0152199
760.869	0.0151900
760.947	0.0152641
761.025	0.0151867
761.103	0.0152490
761.181	0.0152307
761.259	0.0152753
761.337	0.0151382
761.415	0.0151218
761.494	0.0151283
761.572	0.0152455
761.650	0.0151581
761.728	0.0152425
761.806	0.0151554
761.884	0.0152779
761.962	0.0151642
762.040	0.0151435
762.119	0.0151916
762.197	0.0151363
762.275	0.0152678
762.353	0.0152857
762.431	0.0150474
762.509	0.0150325
762.587	0.0150977
762.665	0.0150963
762.744	0.0152077
762.822	0.0151592
762.900	0.0149664
762.978	0.0152767
763.056	0.0152223
763.134	0.0151414
763.212	0.0153143
763.290	0.0151893
763.369	0.0152676
763.447	0.0153980
763.525	0.0153461
763.603	0.0152376
763.681	0.0151994
763.759	0.0152105
763.837	0.0153033
763.915	0.0151495
763.994	0.0152452
764.072	0.0153271
764.150	0.0152627
764.228	0.0152856
764.306	0.0152403
764.384	0.0152588
764.462	0.0152679
764.540	0.0151164
764.619	0.0151642
764.697	0.0150929
764.775	0.0152755
764.853	0.0152223
764.931	0.0151229
765.009	0.0152427
765.087	0.0150859
765.165	0.0151445
765.244	0.0152571
765.322	0.0151796
765.400	0.0150739
765.478	0.0151595
765.556	0.0153220
765.634	0.0151279
765.712	0.0151762
765.790	0.0151636
765.869	0.0152200
765.947	0.0152529
766.025	0.0152176
766.103	0.0151331
766.181	0.0153210
766.259	0.0152912
766.337	0.0152345
766.415	0.0152558
766.494	0.0152608
766.572	0.0151605
766.650	0.0151228
766.728	0.0151466
766.806	0.0152546
766.884	0.0152207
766.962	0.0152897
767.040	0.0152483
767.119	0.0150275
767.197	0.0151469
767.275	0.0151701
767.353	0.0150321
767.431	0.0151222
767.509	0.0151462
767.587	0.0152447
767.665	0.0150929
767.744	0.0150235
767.822	0.0150326
767.900	0.0152472
767.978	0.0152364
768.056	0.0151763
768.134	0.0150807
768.212	0.0151814
768.290	0.0152292
768.369	0.0152367
768.447	0.0152521
768.525	0.0154249
768.603	0.0153337
768.681	0.0150986
768.759	0.0152042
768.837	0.0153776
768.915	0.0151994
768.994	0.0152668
769.072	0.0153210
769.150	0.0152590
769.228	0.0153012
769.306	0.0152029
769.384	0.0151382
769.462	0.0151275
769.540	0.0152578
769.619	0.0151915
769.697	0.0150688
769.775	0.0150385
769.853	0.0152194
769.931	0.0152033
770.009	0.0152651
770.087	0.0150358
770.165	0.0151003
770.244	0.0151881
770.322	0.0151857
770.400	0.0151580
770.478	0.0150829
770.556	0.0151147
770.634	0.0151580
770.712	0.0152842
770.790	0.0152997
770.869	0.0151897
770.947	0.0152998
771.025	0.0152963
771.103	0.0152448
771.181	0.0152319
771.259	0.0153967
771.337	0.0152649
771.415	0.0151297
771.494	0.0149787
771.572	0.0151771
771.650	0.0152864
771.728	0.0152804
771.806	0.0152603
771.884	0.0152541
771.962	0.0153440
772.040	0.0152207
772.119	0.0150979
772.197	0.0152012
772.275	0.0153854
772.353	0.0153302
772.431	0.0152790
772.509	0.0152729
772.587	0.0152289
772.665	0.0152692
772.744	0.0151813
772.822	0.0152517
772.900	0.0153670
772.978	0.0152452
773.056	0.0152402
773.134	0.0154352
773.212	0.0152693
773.290	0.0152734
773.369	0.0154021
773.447	0.0152111
773.525	0.0152389
773.603	0.0154271
773.681	0.0152989
773.759	0.0153642
773.837	0.0153226
773.915	0.0152792
773.994	0.0152663
774.072	0.0153946
774.150	0.0152483
774.228	0.0153246
774.306	0.0154279
774.384	0.0152694
774.462	0.0152777
774.540	0.0151421
774.619	0.0152399
774.697	0.0153033
774.775	0.0152054
774.853	0.0152375
774.931	0.0153222
775.009	0.0153461
775.087	0.0152187
775.165	0.0153231
775.244	0.0152248
775.322	0.0152178
775.400	0.0152318
775.478	0.0151840
775.556	0.0153365
775.634	0.0152666
775.712	0.0151711
775.790	0.0152026
775.869	0.0153076
775.947	0.0153753
776.025	0.0152713
776.103	0.0153426
776.181	0.0151935
776.259	0.0153230
776.337	0.0154573
776.415	0.0152514
776.494	0.0151425
776.572	0.0151941
776.650	0.0153573
776.728	0.0152714
776.806	0.0151865
776.884	0.0152471
776.962	0.0151546
777.040	0.0152366
777.119	0.0153294
777.197	0.0150969
777.275	0.0151729
777.353	0.0152121
777.431	0.0152534
777.509	0.0151460
777.587	0.0151238
777.665	0.0152668
777.744	0.0151897
777.822	0.0151105
777.900	0.0152394
777.978	0.0152853
778.056	0.0152130
778.134	0.0152150
778.212	0.0152903
778.290	0.0152301
778.369	0.0150895
778.447	0.0152663
778.525	0.0152100
778.603	0.0152341
778.681	0.0152299
778.759	0.0151919
778.837	0.0151276
778.915	0.0151346
778.994	0.0151398
779.072	0.0153188
779.150	0.0152280
779.228	0.0152376
779.306	0.0152312
779.384	0.0152691
779.462	0.0151933
779.540	0.0150845
779.619	0.0153027
779.697	0.0152659
779.775	0.0151823
779.853	0.0151453
779.931	0.0152768
780.009	0.0152370
780.087	0.0152014
780.165	0.0151554
780.244	0.0152233
780.322	0.0152670
780.400	0.0153504
780.478	0.0152289
780.556	0.0150535
780.634	0.0151725
780.712	0.0151311
780.790	0.0154134
780.869	0.0151878
780.947	0.0151559
781.025	0.0152605
781.103	0.0152429
781.181	0.0150626
781.259	0.0151906
781.337	0.0153314
781.415	0.0151490
781.494	0.0152197
781.572	0.0153391
781.650	0.0152596
781.728	0.0152351
781.806	0.0153002
781.884	0.0152650
781.962	0.0152862
782.040	0.0153351
782.119	0.0152766
782.197	0.0151717
782.275	0.0151672
782.353	0.0152134
782.431	0.0152394
782.509	0.0153307
782.587	0.0151327
782.665	0.0152605
782.744	0.0152354
782.822	0.0152896
782.900	0.0151936
782.978	0.0151903
783.056	0.0152039
783.134	0.0153865
783.212	0.0152179
783.290	0.0152813
783.369	0.0152143
783.447	0.0152165
783.525	0.0151749
783.603	0.0152576
783.681	0.0151872
783.759	0.0153146
783.837	0.0152129
783.915	0.0153187
783.994	0.0153374
784.072	0.0152534
784.150	0.0152990
784.228	0.0151903
784.306	0.0151569
784.384	0.0151971
784.462	0.0152435
784.540	0.0154673
784.619	0.0152641
784.697	0.0151700
784.775	0.0153775
784.853	0.0153787
784.931	0.0152988
785.009	0.0153875
785.087	0.0153371
785.165	0.0152705
785.244	0.0151594
785.322	0.0153084
785.400	0.0154474
785.478	0.0151875
785.556	0.0152779
785.634	0.0153231
785.712	0.0154289
785.790	0.0152338
785.869	0.0151948
785.947	0.0151870
786.025	0.0152979
786.103	0.0151051
786.181	0.0150526
786.259	0.0151621
786.337	0.0153870
786.415	0.0151938
786.494	0.0149996
786.572	0.0152435
786.650	0.0151007
786.728	0.0151164
786.806	0.0151630
786.884	0.0150748
786.962	0.0152156
787.040	0.0152699
787.119	0.0153543
787.197	0.0152553
787.275	0.0151027
787.353	0.0153127
787.431	0.0152091
787.509	0.0153842
787.587	0.0152810
787.665	0.0152325
787.744	0.0152253
787.822	0.0152549
787.900	0.0153636
787.978	0.0151618
788.056	0.0151999
788.134	0.0152746
788.212	0.0152456
788.290	0.0152062
788.369	0.0152115
788.447	0.0150313
788.525	0.0151762
788.603	0.0153126
788.681	0.0151899
788.759	0.0151701
788.837	0.0151136
788.915	0.0152486
788.994	0.0151852
789.072	0.0150915
789.150	0.0152904
789.228	0.0152085
789.306	0.0151333
789.384	0.0152969
789.462	0.0153027
789.540	0.0152721
789.619	0.0153246
789.697	0.0151863
789.775	0.0152479
789.853	0.0152048
789.931	0.0153353
790.009	0.0153315
790.087	0.0152692
790.165	0.0151418
790.244	0.0150837
790.322	0.0153461
790.400	0.0152370
790.478	0.0152763
790.556	0.0152424
790.634	0.0152409
790.712	0.0151554
790.790	0.0152271
790.869	0.0151381
790.947	0.0151833
791.025	0.0151264
791.103	0.0150297
791.181	0.0152467
791.259	0.0151049
791.337	0.0151086
791.415	0.0153431
791.494	0.0151772
791.572	0.0152558
791.650	0.0151844
791.728	0.0152519
791.806	0.0151913
791.884	0.0152133
791.962	0.0152244
792.040	0.0150282
792.119	0.0151279
792.197	0.0152075
792.275	0.0153018
792.353	0.0151024
792.431	0.0152229
792.509	0.0152943
792.587	0.0151660
792.665	0.0150909
792.744	0.0151894
792.822	0.0152076
792.900	0.0151888
792.978	0.0151809
793.056	0.0151984
793.134	0.0152946
793.212	0.0152007
793.290	0.0152576
793.369	0.0152448
793.447	0.0151810
793.525	0.0150819
793.603	0.0152005
793.681	0.0152883
793.759	0.0152626
793.837	0.0152851
793.915	0.0152089
793.994	0.0152567
794.072	0.0152930
794.150	0.0152943
794.228	0.0152578
794.306	0.0152279
794.384	0.0153521
794.462	0.0151034
794.540	0.0152018
794.619	0.0152042
794.697	0.0150896
794.775	0.0152685
794.853	0.0153145
794.931	0.0152595
795.009	0.0152176
795.087	0.0152362
795.165	0.0151985
795.244	0.0151944
795.322	0.0153049
795.400	0.0152271
795.478	0.0154633
795.556	0.0152172
795.634	0.0152917
795.712	0.0150507
795.790	0.0152032
795.869	0.0154433
795.947	0.0152695
796.025	0.0152120
796.103	0.0151649
796.181	0.0152310
796.259	0.0152761
796.337	0.0152805
796.415	0.0153375
796.494	0.0152281
796.572	0.0151904
796.650	0.0153116
796.728	0.0151704
796.806	0.0152026
796.884	0.0153695
796.962	0.0152677
797.040	0.0152973
797.119	0.0151595
797.197	0.0152033
797.275	0.0152826
797.353	0.0150522
797.431	0.0152470
797.509	0.0152365
797.587	0.0153624
797.665	0.0153416
797.744	0.0152439
797.822	0.0150764
797.900	0.0152628
797.978	0.0152202
798.056	0.0152167
798.134	0.0153691
798.212	0.0153821
798.290	0.0152586
798.369	0.0151934
798.447	0.0152866
798.525	0.0152212
798.603	0.0152893
798.681	0.0150995
798.759	0.0152876
798.837	0.0152139
798.915	0.0151846
798.994	0.0151499
799.072	0.0152505
799.150	0.0152630
799.228	0.0153741
799.306	0.0152314
799.384	0.0151698
799.462	0.0152600
799.540	0.0151414
799.619	0.0151745
799.697	0.0151844
799.775	0.0152465
799.853	0.0152395
799.931	0.0152307
800.009	0.0151534
800.087	0.0151760
800.165	0.0152679
800.244	0.0153689
800.322	0.0152621
800.400	0.0150732
800.478	0.0151385
800.556	0.0151178
800.634	0.0152076
800.712	0.0152567
800.790	0.0152007
800.869	0.0152096
800.947	0.0152158
801.025	0.0152950
801.103	0.0152878
801.181	0.0152280
801.259	0.0152502
801.337	0.0152570
801.415	0.0151355
801.494	0.0152481
801.572	0.0152560
801.650	0.0151557
801.728	0.0152275
801.806	0.0153865
801.884	0.0151400
801.962	0.0152320
802.040	0.0152721
802.119	0.0153038
802.197	0.0152028
802.275	0.0151999
802.353	0.0153173
802.431	0.0152413
802.509	0.0152351
802.587	0.0152518
802.665	0.0152865
802.744	0.0153076
802.822	0.0152314
802.900	0.0151403
802.978	0.0152132
803.056	0.0153103
803.134	0.0152529
803.212	0.0151430
803.290	0.0152911
803.369	0.0151964
803.447	0.0151594
803.525	0.0151997
803.603	0.0152043
803.681	0.0151152
803.759	0.0151537
803.837	0.0152641
803.915	0.0152119
803.994	0.0152203
804.072	0.0152187
804.150	0.0152031
804.228	0.0152326
804.306	0.0151672
804.384	0.0152655
804.462	0.0152509
804.540	0.0152552
804.619	0.0153943
804.697	0.0153341
804.775	0.0151501
804.853	0.0151498
804.931	0.0151949
805.009	0.0154264
805.087	0.0153263
805.165	0.0152673
805.244	0.0152530
805.322	0.0152003
805.400	0.0151858
805.478	0.0151784
805.556	0.0153075
805.634	0.0151795
805.712	0.0152290
805.790	0.0151120
805.869	0.0151270
805.947	0.0153399
806.025	0.0150973
806.103	0.0151524
806.181	0.0151855
806.259	0.0152415
806.337	0.0152533
806.415	0.0150842
806.494	0.0151382
806.572	0.0150900
806.650	0.0152612
806.728	0.0152177
806.806	0.0151638
806.884	0.0150919
806.962	0.0151571
807.040	0.0151408
807.119	0.0151196
807.197	0.0152190
807.275	0.0151286
807.353	0.0151135
807.431	0.0151714
807.509	0.0151637
807.587	0.0151809
807.665	0.0151298
807.744	0.0151487
807.822	0.0151698
807.900	0.0151549
807.978	0.0152254
808.056	0.0151314
808.134	0.0151167
808.212	0.0150482
808.290	0.0152139
808.369	0.0151812
808.447	0.0151416
808.525	0.0151022
808.603	0.0151000
808.681	0.0152091
808.759	0.0151398
808.837	0.0151414
808.915	0.0152651
808.994	0.0150858
809.072	0.0152230
809.150	0.0152503
809.228	0.0151904
809.306	0.0152406
809.384	0.0152122
809.462	0.0152681
809.540	0.0152612
809.619	0.0151643
809.697	0.0151994
809.775	0.0151808
809.853	0.0153010
809.931	0.0152364
810.009	0.0152799
810.087	0.0151954
810.165	0.0152048
810.244	0.0151095
810.322	0.0152193
810.400	0.0152812
810.478	0.0151562
810.556	0.0151799
810.634	0.0152927
810.712	0.0152119
810.790	0.0151740
810.869	0.0151446
810.947	0.0151067
811.025	0.0152117
811.103	0.0153288
811.181	0.0152073
811.259	0.0152779
811.337	0.0151624
811.415	0.0151687
811.494	0.0152424
811.572	0.0152274
811.650	0.0152197
811.728	0.0152871
811.806	0.0152044
811.884	0.0152258
811.962	0.0152709
812.040	0.0152165
812.119	0.0151875
812.197	0.0151769
812.275	0.0152650
812.353	0.0152008
812.431	0.0151205
812.509	0.0151820
812.587	0.0151542
812.665	0.0150665
812.744	0.0150986
812.822	0.0152297
812.900	0.0150945
812.978	0.0150324
813.056	0.0151656
813.134	0.0152400
813.212	0.0150733
813.290	0.0150812
813.369	0.0150510
813.447	0.0152133
813.525	0.0152473
813.603	0.0151415
813.681	0.0152037
813.759	0.0153001
813.837	0.0152044
813.915	0.0150676
813.994	0.0152150
814.072	0.0151437
814.150	0.0152232
814.228	0.0151051
814.306	0.0152187
814.384	0.0151725
814.462	0.0150732
814.540	0.0151096
814.619	0.0150857
814.697	0.0152110
814.775	0.0151952
814.853	0.0151427
814.931	0.0151829
815.009	0.0151214
815.087	0.0151172
815.165	0.0151453
815.244	0.0153263
815.322	0.0151304
815.400	0.0151391
815.478	0.0152603
815.556	0.0152772
815.634	0.0151592
815.712	0.0151835
815.790	0.0151497
815.869	0.0152349
815.947	0.0152251
816.025	0.0151986
816.103	0.0152630
816.181	0.0151810
816.259	0.0151189
816.337	0.0152645
816.415	0.0152894
816.494	0.0152794
816.572	0.0151924
816.650	0.0151703
816.728	0.0151084
816.806	0.0152276
816.884	0.0151315
816.962	0.0150827
817.040	0.0152214
817.119	0.0152779
817.197	0.0152059
817.275	0.0151032
817.353	0.0151678
817.431	0.0152002
817.509	0.0153566
817.587	0.0152605
817.665	0.0151802
817.744	0.0152219
817.822	0.0151397
817.900	0.0153143
817.978	0.0153160
818.056	0.0152171
818.134	0.0152664
818.212	0.0150220
818.290	0.0152400
818.369	0.0151271
818.447	0.0151965
818.525	0.0151099
818.603	0.0151274
818.681	0.0153878
818.759	0.0151844
818.837	0.0151452
818.915	0.0153198
818.994	0.0151768
819.072	0.0152360
819.150	0.0152013
819.228	0.0152716
819.306	0.0151911
819.384	0.0151718
819.462	0.0152146
819.540	0.0152630
819.619	0.0152182
819.697	0.0151846
819.775	0.0150611
819.853	0.0151439
819.931	0.0152427
820.009	0.0152164
820.087	0.0152776
820.165	0.0150020
820.244	0.0151586
820.322	0.0151830
820.400	0.0152519
820.478	0.0151855
820.556	0.0151471
820.634	0.0151488
820.712	0.0152287
820.790	0.0152602
820.869	0.0152040
820.947	0.0151987
821.025	0.0152613
821.103	0.0152448
821.181	0.0151756
821.259	0.0153307
821.337	0.0152077
821.415	0.0152086
821.494	0.0152018
821.572	0.0152197
821.650	0.0151467
821.728	0.0152330
821.806	0.0151704
821.884	0.0150368
821.962	0.0152911
822.040	0.0151028
822.119	0.0150710
822.197	0.0152001
822.275	0.0151997
822.353	0.0151311
822.431	0.0150606
822.509	0.0151351
822.587	0.0151338
822.665	0.0151891
822.744	0.0151009
822.822	0.0151102
822.900	0.0153678
822.978	0.0151846
823.056	0.0152322
823.134	0.0151591
823.212	0.0151586
823.290	0.0150835
823.369	0.0151058
823.447	0.0152590
823.525	0.0152471
823.603	0.0152796
823.681	0.0151784
823.759	0.0151476
823.837	0.0151270
823.915	0.0152018
823.994	0.0152387
824.072	0.0152461
824.150	0.0151798
824.228	0.0150719
824.306	0.0151587
824.384	0.0152245
824.462	0.0152547
824.540	0.0152577
824.619	0.0151890
824.697	0.0151224
824.775	0.0151580
824.853	0.0152259
824.931	0.0152162
825.009	0.0152975
825.087	0.0152132
825.165	0.0151330
825.244	0.0152935
825.322	0.0151239
825.400	0.0152072
825.478	0.0151504
825.556	0.0152406
825.634	0.0152594
825.712	0.0151951
825.790	0.0150608
825.869	0.0151183
825.947	0.0151910
826.025	0.0151820
826.103	0.0151686
826.181	0.0150313
826.259	0.0151352
826.337	0.0152802
826.415	0.0151035
826.494	0.0151754
826.572	0.0152139
826.650	0.0151608
826.728	0.0152850
826.806	0.0151991
826.884	0.0153896
826.962	0.0151994
827.040	0.0150791
827.119	0.0152660
827.197	0.0152648
827.275	0.0152203
827.353	0.0152223
827.431	0.0152702
827.509	0.0152554
827.587	0.0152357
827.665	0.0151250
827.744	0.0150713
827.822	0.0152272
827.900	0.0151025
827.978	0.0151330
828.056	0.0151737
828.134	0.0152271
828.212	0.0152098
828.290	0.0151953
828.369	0.0152330
828.447	0.0152055
828.525	0.0150906
828.603	0.0152023
828.681	0.0151408
828.759	0.0152061
828.837	0.0151130
828.915	0.0152495
828.994	0.0152984
829.072	0.0152350
829.150	0.0153800
829.228	0.0152207
829.306	0.0150941
829.384	0.0153313
829.462	0.0151184
829.540	0.0151938
829.619	0.0152117
829.697	0.0151243
829.775	0.0152522
829.853	0.0153064
829.931	0.0151352
830.009	0.0151524
830.087	0.0150777
830.165	0.0152003
830.244	0.0151880
830.322	0.0150973
830.400	0.0152543
830.478	0.0151453
830.556	0.0150716
830.634	0.0151434
830.712	0.0151871
830.790	0.0150099
830.869	0.0151329
830.947	0.0152048
831.025	0.0151505
831.103	0.0151208
831.181	0.0150674
831.259	0.0151539
831.337	0.0152567
831.415	0.0151048
831.494	0.0150320
831.572	0.0152831
831.650	0.0153615
831.728	0.0151170
831.806	0.0152614
831.884	0.0152242
831.962	0.0151855
832.040	0.0153065
832.119	0.0151203
832.197	0.0151405
832.275	0.0153374
832.353	0.0151019
832.431	0.0151917
832.509	0.0152913
832.587	0.0152972
832.665	0.0152663
832.744	0.0151921
832.822	0.0150553
832.900	0.0152744
832.978	0.0152529
833.056	0.0152657
833.134	0.0151858
833.212	0.0151528
833.290	0.0152612
833.369	0.0153578
833.447	0.0152470
833.525	0.0153421
833.603	0.0152544
833.681	0.0152396
833.759	0.0151114
833.837	0.0152433
833.915	0.0151684
833.994	0.0151926
834.072	0.0151134
834.150	0.0151354
834.228	0.0154256
834.306	0.0153295
834.384	0.0153417
834.462	0.0151351
834.540	0.0151733
834.619	0.0153937
834.697	0.0152290
834.775	0.0151257
834.853	0.0152592
834.931	0.0152385
835.009	0.0152341
835.087	0.0152148
835.165	0.0152734
835.244	0.0152492
835.322	0.0151884
835.400	0.0152489
835.478	0.0151835
835.556	0.0151630
835.634	0.0151019
835.712	0.0151856
835.790	0.0152651
835.869	0.0152840
835.947	0.0151297
836.025	0.0151949
836.103	0.0150790
836.181	0.0153279
836.259	0.0151264
836.337	0.0153040
836.415	0.0152672
836.494	0.0151793
836.572	0.0152569
836.650	0.0152773
836.728	0.0152573
836.806	0.0152320
836.884	0.0152119
836.962	0.0152951
837.040	0.0153658
837.119	0.0152837
837.197	0.0151424
837.275	0.0152429
837.353	0.0152441
837.431	0.0151500
837.509	0.0153457
837.587	0.0153225
837.665	0.0152864
837.744	0.0151656
837.822	0.0152103
837.900	0.0151637
837.978	0.0153125
838.056	0.0152983
838.134	0.0152216
838.212	0.0152921
838.290	0.0153338
838.369	0.0152935
838.447	0.0152437
838.525	0.0152953
838.603	0.0152095
838.681	0.0151957
838.759	0.0153149
838.837	0.0152810
838.915	0.0152291
838.994	0.0152350
839.072	0.0152665
839.150	0.0152516
839.228	0.0151736
839.306	0.0153128
839.384	0.0153997
839.462	0.0152728
839.540	0.0151331
839.619	0.0151273
839.697	0.0151808
839.775	0.0151921
839.853	0.0151861
839.931	0.0152303
840.009	0.0150876
840.087	0.0152498
840.165	0.0152037
840.244	0.0152517
840.322	0.0151867
840.400	0.0152406
840.478	0.0152692
840.556	0.0152544
840.634	0.0152786
840.712	0.0151353
840.790	0.0151837
840.869	0.0150990
840.947	0.0151556
841.025	0.0152858
841.103	0.0152596
841.181	0.0152258
841.259	0.0151672
841.337	0.0152760
841.415	0.0151509
841.494	0.0149794
841.572	0.0152714
841.650	0.0152636
841.728	0.0151810
841.806	0.0153600
841.884	0.0152700
841.962	0.0152665
842.040	0.0152888
842.119	0.0151952
842.197	0.0152471
842.275	0.0151440
842.353	0.0152584
842.431	0.0151312
842.509	0.0151648
842.587	0.0152869
842.665	0.0152215
842.744	0.0151778
842.822	0.0152551
842.900	0.0151936
842.978	0.0152674
843.056	0.0151683
843.134	0.0150801
843.212	0.0152197
843.290	0.0153241
843.369	0.0153286
843.447	0.0153101
843.525	0.0151912
843.603	0.0151398
843.681	0.0152129
843.759	0.0152137
843.837	0.0153496
843.915	0.0152752
843.994	0.0151058
844.072	0.0151654
844.150	0.0153223
844.228	0.0152814
844.306	0.0152610
844.384	0.0152383
844.462	0.0152250
844.540	0.0152795
844.619	0.0153207
844.697	0.0152669
844.775	0.0150840
844.853	0.0151804
844.931	0.0152662
845.009	0.0152382
845.087	0.0154239
845.165	0.0152731
845.244	0.0151926
845.322	0.0152207
845.400	0.0151923
845.478	0.0153156
845.556	0.0151655
845.634	0.0151240
845.712	0.0152048
845.790	0.0151833
845.869	0.0151579
845.947	0.0152973
846.025	0.0152247
846.103	0.0151479
846.181	0.0150710
846.259	0.0151495
846.337	0.0150593
846.415	0.0152604
846.494	0.0151384
846.572	0.0152189
846.650	0.0151437
846.728	0.0151534
846.806	0.0151731
846.884	0.0153368
846.962	0.0152393
847.040	0.0151391
847.119	0.0152740
847.197	0.0150458
847.275	0.0152679
847.353	0.0152840
847.431	0.0152271
847.509	0.0152063
847.587	0.0152120
847.665	0.0152225
847.744	0.0151797
847.822	0.0151772
847.900	0.0151141
847.978	0.0150687
848.056	0.0152086
848.134	0.0152714
848.212	0.0152676
848.290	0.0150212
848.369	0.0150957
848.447	0.0152007
848.525	0.0151898
848.603	0.0151366
848.681	0.0150805
848.759	0.0152144
848.837	0.0151548
848.915	0.0150970
848.994	0.0151430
849.072	0.0151740
849.150	0.0151186
849.228	0.0152086
849.306	0.0152171
849.384	0.0152188
849.462	0.0152023
849.540	0.0152396
849.619	0.0152869
849.697	0.0151244
849.775	0.0154320
849.853	0.0151374
849.931	0.0151361
850.009	0.0151144
850.087	0.0151858
850.165	0.0153586
850.244	0.0151468
850.322	0.0151582
850.400	0.0152219
850.478	0.0152152
850.556	0.0151636
850.634	0.0152448
850.712	0.0152737
850.790	0.0152966
850.869	0.0149318
850.947	0.0151868
851.025	0.0154077
851.103	0.0151878
851.181	0.0151648
851.259	0.0151785
851.337	0.0152367
851.415	0.0153089
851.494	0.0151811
851.572	0.0152334
851.650	0.0152546
851.728	0.0152592
851.806	0.0151357
851.884	0.0151596
851.962	0.0152330
852.040	0.0152440
852.119	0.0152225
852.197	0.0151908
852.275	0.0152641
852.353	0.0152383
852.431	0.0152513
852.509	0.0152487
852.587	0.0152797
852.665	0.0152686
852.744	0.0153593
852.822	0.0153606
852.900	0.0152341
852.978	0.0151700
853.056	0.0151904
853.134	0.0152631
853.212	0.0152082
853.290	0.0151470
853.369	0.0152496
853.447	0.0152159
853.525	0.0152032
853.603	0.0152604
853.681	0.0150758
853.759	0.0152543
853.837	0.0150697
853.915	0.0152734
853.994	0.0151862
854.072	0.0152174
854.150	0.0152531
854.228	0.0152883
854.306	0.0151452
854.384	0.0153357
854.462	0.0152979
854.540	0.0154053
854.619	0.0152478
854.697	0.0151438
854.775	0.0152230
854.853	0.0151790
854.931	0.0151704
855.009	0.0152220
855.087	0.0152792
855.165	0.0152174
855.244	0.0151747
855.322	0.0152381
855.400	0.0154053
855.478	0.0151709
855.556	0.0152148
855.634	0.0153582
855.712	0.0154012
855.790	0.0152525
855.869	0.0152205
855.947	0.0151625
856.025	0.0152592
856.103	0.0152188
856.181	0.0151520
856.259	0.0153753
856.337	0.0153096
856.415	0.0153290
856.494	0.0151688
856.572	0.0150995
856.650	0.0151733
856.728	0.0152239
856.806	0.0152624
856.884	0.0151822
856.962	0.0151762
857.040	0.0152576
857.119	0.0151649
857.197	0.0151982
857.275	0.0152794
857.353	0.0152634
857.431	0.0152174
857.509	0.0150985
857.587	0.0151206
857.665	0.0152098
857.744	0.0152225
857.822	0.0151514
857.900	0.0151256
857.978	0.0152606
858.056	0.0151876
858.134	0.0152491
858.212	0.0151473
858.290	0.0152166
858.369	0.0152681
858.447	0.0153032
858.525	0.0152063
858.603	0.0152248
858.681	0.0151718
858.759	0.0151836
858.837	0.0152298
858.915	0.0153603
858.994	0.0151686
859.072	0.0152229
859.150	0.0152259
859.228	0.0152036
859.306	0.0150986
859.384	0.0151577
859.462	0.0151791
859.540	0.0151037
859.619	0.0151612
859.697	0.0152719
859.775	0.0151558
859.853	0.0151141
859.931	0.0151184
860.009	0.0151390
860.087	0.0152103
860.165	0.0149997
860.244	0.0149742
860.322	0.0152862
860.400	0.0151222
860.478	0.0150734
860.556	0.0150385
860.634	0.0150117
860.712	0.0150498
860.790	0.0152973
860.869	0.0149364
860.947	0.0149458
861.025	0.0152522
861.103	0.0152194
861.181	0.0151727
861.259	0.0149926
861.337	0.0150652
861.415	0.0150974
861.494	0.0151843
861.572	0.0151276
861.650	0.0151143
861.728	0.0150841
861.806	0.0152603
861.884	0.0152286
861.962	0.0152278
862.040	0.0152010
862.119	0.0152316
862.197	0.0151165
862.275	0.0151452
862.353	0.0152331
862.431	0.0151215
862.509	0.0150713
862.587	0.0152515
862.665	0.0153735
862.744	0.0152239
862.822	0.0152328
862.900	0.0152416
862.978	0.0152963
863.056	0.0153050
863.134	0.0151716
863.212	0.0150447
863.290	0.0151211
863.369	0.0152586
863.447	0.0152454
863.525	0.0153283
863.603	0.0152758
863.681	0.0153219
863.759	0.0152428
863.837	0.0151181
863.915	0.0151514
863.994	0.0151852
864.072	0.0153555
864.150	0.0153016
864.228	0.0150851
864.306	0.0151616
864.384	0.0152435
864.462	0.0151107
864.540	0.0151876
864.619	0.0151823
864.697	0.0152060
864.775	0.0152994
864.853	0.0153165
864.931	0.0153181
865.009	0.0153174
865.087	0.0151305
865.165	0.0152042
865.244	0.0152347
865.322	0.0151910
865.400	0.0152291
865.478	0.0152859
865.556	0.0151379
865.634	0.0151327
865.712	0.0152261
865.790	0.0151921
865.869	0.0152328
865.947	0.0150895
866.025	0.0153214
866.103	0.0151837
866.181	0.0152156
866.259	0.0151320
866.337	0.0152239
866.415	0.0152805
866.494	0.0154018
866.572	0.0152794
866.650	0.0151109
866.728	0.0152677
866.806	0.0153956
866.884	0.0152721
866.962	0.0152000
867.040	0.0151640
867.119	0.0153399
867.197	0.0152624
867.275	0.0152769
867.353	0.0153249
867.431	0.0152212
867.509	0.0153181
867.587	0.0153059
867.665	0.0151624
867.744	0.0152686
867.822	0.0152935
867.900	0.0154114
867.978	0.0152720
868.056	0.0152342
868.134	0.0153548
868.212	0.0153168
868.290	0.0153239
868.369	0.0152147
868.447	0.0151823
868.525	0.0151078
868.603	0.0152431
868.681	0.0153140
868.759	0.0153386
868.837	0.0153563
868.915	0.0153292
868.994	0.0152462
869.072	0.0152302
869.150	0.0152338
869.228	0.0153761
869.306	0.0153181
869.384	0.0151272
869.462	0.0153224
869.540	0.0153432
869.619	0.0152273
869.697	0.0152789
869.775	0.0152211
869.853	0.0152415
869.931	0.0152760
870.009	0.0153176
870.087	0.0152720
870.165	0.0152739
870.244	0.0152627
870.322	0.0152087
870.400	0.0152913
870.478	0.0153983
870.556	0.0152199
870.634	0.0151611
870.712	0.0154282
870.790	0.0152693
870.869	0.0152417
870.947	0.0152344
871.025	0.0152791
871.103	0.0152803
871.181	0.0152132
871.259	0.0152453
871.337	0.0153893
871.415	0.0153280
871.494	0.0153669
871.572	0.0153889
871.650	0.0151922
871.728	0.0152620
871.806	0.0151683
871.884	0.0152531
871.962	0.0153185
872.040	0.0154411
872.119	0.0152686
872.197	0.0152740
872.275	0.0153278
872.353	0.0152815
872.431	0.0151845
872.509	0.0153117
872.587	0.0153143
872.665	0.0152602
872.744	0.0153498
872.822	0.0151931
872.900	0.0152400
872.978	0.0153306
873.056	0.0154100
873.134	0.0152035
873.212	0.0152010
873.290	0.0151900
873.369	0.0152872
873.447	0.0153515
873.525	0.0152962
873.603	0.0153094
873.681	0.0152293
873.759	0.0151785
873.837	0.0151340
873.915	0.0152051
873.994	0.0151980
874.072	0.0150917
874.150	0.0151517
874.228	0.0152761
874.306	0.0151678
874.384	0.0151852
874.462	0.0151702
874.540	0.0152930
874.619	0.0153482
874.697	0.0151874
874.775	0.0151383
874.853	0.0151722
874.931	0.0151661
875.009	0.0152264
875.087	0.0152240
875.165	0.0152171
875.244	0.0151598
875.322	0.0152654
875.400	0.0151202
875.478	0.0151260
875.556	0.0151992
875.634	0.0153560
875.712	0.0151447
875.790	0.0152328
875.869	0.0151822
875.947	0.0152756
876.025	0.0152857
876.103	0.0152213
876.181	0.0152285
876.259	0.0152930
876.337	0.0152339
876.415	0.0151411
876.494	0.0151998
876.572	0.0152341
876.650	0.0152706
876.728	0.0152730
876.806	0.0151934
876.884	0.0151788
876.962	0.0153002
877.040	0.0153634
877.119	0.0152486
877.197	0.0152776
877.275	0.0152795
877.353	0.0152165
877.431	0.0151369
877.509	0.0152094
877.587	0.0152070
877.665	0.0152934
877.744	0.0152116
877.822	0.0152245
877.900	0.0150728
877.978	0.0151512
878.056	0.0151002
878.134	0.0151521
878.212	0.0151415
878.290	0.0151173
878.369	0.0150117
878.447	0.0152637
878.525	0.0151620
878.603	0.0151025
878.681	0.0150999
878.759	0.0152116
878.837	0.0153207
878.915	0.0152264
878.994	0.0152961
879.072	0.0152339
879.150	0.0152935
879.228	0.0153565
879.306	0.0152127
879.384	0.0151533
879.462	0.0152930
879.540	0.0151881
879.619	0.0151933
879.697	0.0151562
879.775	0.0151903
879.853	0.0152151
879.931	0.0150720
880.009	0.0151890
880.087	0.0151794
880.165	0.0150873
880.244	0.0151542
880.322	0.0151517
880.400	0.0150294
880.478	0.0151678
880.556	0.0151219
880.634	0.0152399
880.712	0.0150880
880.790	0.0150236
880.869	0.0151308
880.947	0.0150918
881.025	0.0149770
881.103	0.0151627
881.181	0.0151697
881.259	0.0151490
881.337	0.0149205
881.415	0.0151551
881.494	0.0151093
881.572	0.0151567
881.650	0.0151682
881.728	0.0151778
881.806	0.0152137
881.884	0.0150983
881.962	0.0151828
882.040	0.0151833
882.119	0.0151170
882.197	0.0152534
882.275	0.0150394
882.353	0.0152716
882.431	0.0151945
882.509	0.0152125
882.587	0.0151413
882.665	0.0151109
882.744	0.0151829
882.822	0.0152526
882.900	0.0152022
882.978	0.0152107
883.056	0.0151470
883.134	0.0153577
883.212	0.0151926
883.290	0.0151331
883.369	0.0151092
883.447	0.0152393
883.525	0.0152295
883.603	0.0152803
883.681	0.0151964
883.759	0.0153754
883.837	0.0151096
883.915	0.0152273
883.994	0.0153725
884.072	0.0152438
884.150	0.0150925
884.228	0.0152258
884.306	0.0151802
884.384	0.0151641
884.462	0.0151950
884.540	0.0152840
884.619	0.0152082
884.697	0.0151437
884.775	0.0152429
884.853	0.0150101
884.931	0.0150414
885.009	0.0152982
885.087	0.0153053
885.165	0.0152856
885.244	0.0152235
885.322	0.0152763
885.400	0.0153001
885.478	0.0151005
885.556	0.0152239
885.634	0.0152754
885.712	0.0152688
885.790	0.0151836
885.869	0.0151834
885.947	0.0152335
886.025	0.0151343
886.103	0.0152874
886.181	0.0152818
886.259	0.0152071
886.337	0.0152180
886.415	0.0150634
886.494	0.0151922
886.572	0.0153152
886.650	0.0153027
886.728	0.0151341
886.806	0.0152662
886.884	0.0152807
886.962	0.0153014
887.040	0.0153181
887.119	0.0151623
887.197	0.0152137
887.275	0.0152877
887.353	0.0152599
887.431	0.0153166
887.509	0.0153056
887.587	0.0151769
887.665	0.0151963
887.744	0.0152895
887.822	0.0152990
887.900	0.0153377
887.978	0.0151350
888.056	0.0152891
888.134	0.0153932
888.212	0.0152472
888.290	0.0153759
888.369	0.0152980
888.447	0.0153676
888.525	0.0152145
888.603	0.0153238
888.681	0.0151840
888.759	0.0151788
888.837	0.0151613
888.915	0.0152127
888.994	0.0152510
889.072	0.0153148
889.150	0.0154047
889.228	0.0153920
889.306	0.0152803
889.384	0.0152589
889.462	0.0151952
889.540	0.0153101
889.619	0.0154851
889.697	0.0153107
889.775	0.0152461
889.853	0.0154117
889.931	0.0154465
890.009	0.0153308
890.087	0.0152341
890.165	0.0153075
890.244	0.0152050
890.322	0.0152202
890.400	0.0152193
890.478	0.0153526
890.556	0.0151779
890.634	0.0152108
890.712	0.0153170
890.790	0.0152260
890.869	0.0151837
890.947	0.0153544
891.025	0.0152318
891.103	0.0151686
891.181	0.0151694
891.259	0.0153164
891.337	0.0152113
891.415	0.0151128
891.494	0.0152467
891.572	0.0151968
891.650	0.0153026
891.728	0.0151398
891.806	0.0151662
891.884	0.0152360
891.962	0.0151645
892.040	0.0152177
892.119	0.0152024
892.197	0.0152879
892.275	0.0153238
892.353	0.0152580
892.431	0.0152811
892.509	0.0151923
892.587	0.0151620
892.665	0.0152636
892.744	0.0153115
892.822	0.0152190
892.900	0.0151328
892.978	0.0152774
893.056	0.0152792
893.134	0.0152604
893.212	0.0153146
893.290	0.0151208
893.369	0.0152046
893.447	0.0152882
893.525	0.0152379
893.603	0.0153026
893.681	0.0152262
893.759	0.0151207
893.837	0.0152668
893.915	0.0154182
893.994	0.0152830
894.072	0.0153497
894.150	0.0152898
894.228	0.0152586
894.306	0.0153283
894.384	0.0152086
894.462	0.0151811
894.540	0.0153458
894.619	0.0152519
894.697	0.0152837
894.775	0.0152900
894.853	0.0152444
894.931	0.0153665
895.009	0.0152962
895.087	0.0153178
895.165	0.0153416
895.244	0.0152215
895.322	0.0152810
895.400	0.0153552
895.478	0.0152812
895.556	0.0152174
895.634	0.0153595
895.712	0.0152605
895.790	0.0154051
895.869	0.0153883
895.947	0.0151922
896.025	0.0152351
896.103	0.0152444
896.181	0.0152350
896.259	0.0152300
896.337	0.0152820
896.415	0.0153009
896.494	0.0151788
896.572	0.0152273
896.650	0.0152004
896.728	0.0150900
896.806	0.0152686
896.884	0.0151893
896.962	0.0151553
897.040	0.0152482
897.119	0.0153231
897.197	0.0152374
897.275	0.0150922
897.353	0.0152405
897.431	0.0152480
897.509	0.0152476
897.587	0.0151766
897.665	0.0151521
897.744	0.0152600
897.822	0.0151475
897.900	0.0151996
897.978	0.0153694
898.056	0.0150264
898.134	0.0152112
898.212	0.0153441
898.290	0.0151894
898.369	0.0152697
898.447	0.0152657
898.525	0.0151548
898.603	0.0151141
898.681	0.0151651
898.759	0.0150794
898.837	0.0151264
898.915	0.0150651
898.994	0.0151603
899.072	0.0153195
899.150	0.0152448
899.228	0.0152782
899.306	0.0152486
899.384	0.0151711
899.462	0.0151456
899.540	0.0151958
899.619	0.0152367
899.697	0.0151145
899.775	0.0152734
899.853	0.0152826
899.931	0.0151971
900.009	0.0151440
900.087	0.0151406
900.165	0.0151839
900.244	0.0152366
900.322	0.0152049
900.400	0.0151217
900.478	0.0151897
900.556	0.0151855
900.634	0.0151832
900.712	0.0151788
900.790	0.0151052
900.869	0.0151292
900.947	0.0152898
901.025	0.0152345
901.103	0.0152282
901.181	0.0152993
901.259	0.0151689
901.337	0.0150710
901.415	0.0152008
901.494	0.0152141
901.572	0.0153233
901.650	0.0152053
901.728	0.0152840
901.806	0.0151484
901.884	0.0152307
901.962	0.0151979
902.040	0.0152200
902.119	0.0152341
902.197	0.0152382
902.275	0.0152793
902.353	0.0153201
902.431	0.0153626
902.509	0.0151833
902.587	0.0151797
902.665	0.0153389
902.744	0.0152810
902.822	0.0152276
902.900	0.0152328
902.978	0.0151618
903.056	0.0151137
903.134	0.0150677
903.212	0.0152565
903.290	0.0151221
903.369	0.0151718
903.447	0.0151232
903.525	0.0151411
903.603	0.0151388
903.681	0.0151369
903.759	0.0151585
903.837	0.0152870
903.915	0.0150890
903.994	0.0151140
904.072	0.0151055
904.150	0.0152033
904.228	0.0152191
904.306	0.0150702
904.384	0.0152381
904.462	0.0150921
904.540	0.0152193
904.619	0.0152184
904.697	0.0152579
904.775	0.0151357
904.853	0.0152502
904.931	0.0151809
905.009	0.0153521
905.087	0.0151904
905.165	0.0152191
905.244	0.0153348
905.322	0.0152499
905.400	0.0151797
905.478	0.0151873
905.556	0.0149868
905.634	0.0152561
905.712	0.0153162
905.790	0.0152847
905.869	0.0151785
905.947	0.0152515
906.025	0.0152820
906.103	0.0152270
906.181	0.0152503
906.259	0.0151891
906.337	0.0150748
906.415	0.0152037
906.494	0.0151414
906.572	0.0152393
906.650	0.0151550
906.728	0.0151289
906.806	0.0152805
906.884	0.0152410
906.962	0.0151665
907.040	0.0151424
907.119	0.0151255
907.197	0.0153320
907.275	0.0153193
907.353	0.0152184
907.431	0.0151776
907.509	0.0151500
907.587	0.0151841
907.665	0.0152294
907.744	0.0151215
907.822	0.0151795
907.900	0.0152604
907.978	0.0150751
908.056	0.0150121
908.134	0.0152233
908.212	0.0152493
908.290	0.0151459
908.369	0.0151122
908.447	0.0150940
908.525	0.0152190
908.603	0.0151864
908.681	0.0151371
908.759	0.0153080
908.837	0.0152150
908.915	0.0153724
908.994	0.0152362
909.072	0.0151948
909.150	0.0151438
909.228	0.0153192
909.306	0.0153451
909.384	0.0152026
909.462	0.0150972
909.540	0.0152279
909.619	0.0152206
909.697	0.0152364
909.775	0.0152559
909.853	0.0153465
909.931	0.0151782
910.009	0.0152402
910.087	0.0152879
910.165	0.0152236
910.244	0.0153236
910.322	0.0152583
910.400	0.0151711
910.478	0.0151832
910.556	0.0152122
910.634	0.0152721
910.712	0.0153490
910.790	0.0152863
910.869	0.0151646
910.947	0.0153402
911.025	0.0151488
911.103	0.0150783
911.181	0.0152118
911.259	0.0153986
911.337	0.0152316
911.415	0.0152301
911.494	0.0151619
911.572	0.0152295
911.650	0.0151801
911.728	0.0152266
911.806	0.0150018
911.884	0.0151713
911.962	0.0151983
912.040	0.0151669
912.119	0.0151624
912.197	0.0151500
912.275	0.0151566
912.353	0.0151484
912.431	0.0151428
912.509	0.0152046
912.587	0.0152393
912.665	0.0151020
912.744	0.0152208
912.822	0.0151069
912.900	0.0152719
912.978	0.0152162
913.056	0.0151934
913.134	0.0151727
913.212	0.0151553
913.290	0.0151035
913.369	0.0152287
913.447	0.0152313
913.525	0.0152877
913.603	0.0152722
913.681	0.0152840
913.759	0.0150316
913.837	0.0151445
913.915	0.0152835
913.994	0.0152660
914.072	0.0152258
914.150	0.0151330
914.228	0.0153246
914.306	0.0151739
914.384	0.0153034
914.462	0.0151771
914.540	0.0151788
914.619	0.0153932
914.697	0.0151588
914.775	0.0150780
914.853	0.0152737
914.931	0.0152349
915.009	0.0151363
915.087	0.0151192
915.165	0.0152740
915.244	0.0153774
915.322	0.0153248
915.400	0.0153123
915.478	0.0153017
915.556	0.0152393
915.634	0.0152041
915.712	0.0151690
915.790	0.0151853
915.869	0.0151318
915.947	0.0153654
916.025	0.0150900
916.103	0.0151575
916.181	0.0152140
916.259	0.0152404
916.337	0.0152222
916.415	0.0152111
916.494	0.0153033
916.572	0.0151716
916.650	0.0152888
916.728	0.0153683
916.806	0.0153266
916.884	0.0152870
916.962	0.0152019
917.040	0.0151647
917.119	0.0151156
917.197	0.0152888
917.275	0.0152573
917.353	0.0152168
917.431	0.0152663
917.509	0.0152229
917.587	0.0151267
917.665	0.0151820
917.744	0.0152170
917.822	0.0152356
917.900	0.0150664
917.978	0.0152765
918.056	0.0151001
918.134	0.0152108
918.212	0.0152175
918.290	0.0151268
918.369	0.0152168
918.447	0.0152319
918.525	0.0151088
918.603	0.0153410
918.681	0.0152609
918.759	0.0152093
918.837	0.0152718
918.915	0.0152562
918.994	0.0153091
919.072	0.0151148
919.150	0.0151997
919.228	0.0152974
919.306	0.0152372
919.384	0.0153142
919.462	0.0153205
919.540	0.0153598
919.619	0.0153349
919.697	0.0153680
919.775	0.0152905
919.853	0.0152814
919.931	0.0153475
920.009	0.0151988
920.087	0.0153249
920.165	0.0152570
920.244	0.0152493
920.322	0.0153360
920.400	0.0153075
920.478	0.0151899
920.556	0.0152813
920.634	0.0152358
920.712	0.0154208
920.790	0.0151637
920.869	0.0153143
920.947	0.0153011
921.025	0.0152248
921.103	0.0152423
921.181	0.0151891
921.259	0.0152595
921.337	0.0152045
921.415	0.0153839
921.494	0.0152817
921.572	0.0152429
921.650	0.0153024
921.728	0.0152727
921.806	0.0152978
921.884	0.0151623
921.962	0.0151524
922.040	0.0152022
922.119	0.0152118
922.197	0.0151443
922.275	0.0151287
922.353	0.0152467
922.431	0.0151248
922.509	0.0152317
922.587	0.0151593
922.665	0.0151874
922.744	0.0152322
922.822	0.0152834
922.900	0.0151974
922.978	0.0152830
923.056	0.0151720
923.134	0.0151948
923.212	0.0153580
923.290	0.0151480
923.369	0.0152911
923.447	0.0151204
923.525	0.0151445
923.603	0.0150921
923.681	0.0151121
923.759	0.0153424
923.837	0.0151867
923.915	0.0151234
923.994	0.0151849
924.072	0.0153397
924.150	0.0150535
924.228	0.0151699
924.306	0.0150367
924.384	0.0151173
924.462	0.0151737
924.540	0.0151379
924.619	0.0151268
924.697	0.0152218
924.775	0.0152575
924.853	0.0151832
924.931	0.0151774
925.009	0.0151850
925.087	0.0150932
925.165	0.0150985
925.244	0.0152383
925.322	0.0152374
925.400	0.0150183
925.478	0.0151850
925.556	0.0151235
925.634	0.0151328
925.712	0.0153297
925.790	0.0152065
925.869	0.0151829
925.947	0.0151279
926.025	0.0152644
926.103	0.0152727
926.181	0.0151216
926.259	0.0151896
926.337	0.0152102
926.415	0.0150671
926.494	0.0151684
926.572	0.0151366
926.650	0.0153179
926.728	0.0152650
926.806	0.0151980
926.884	0.0151492
926.962	0.0151340
927.040	0.0152302
927.119	0.0152698
927.197	0.0153053
927.275	0.0151482
927.353	0.0150771
927.431	0.0151631
927.509	0.0151331
927.587	0.0150883
927.665	0.0150700
927.744	0.0152313
927.822	0.0152650
927.900	0.0151591
927.978	0.0151226
928.056	0.0151811
928.134	0.0152676
928.212	0.0152319
928.290	0.0151891
928.369	0.0151899
928.447	0.0152515
928.525	0.0150978
928.603	0.0150900
928.681	0.0151028
928.759	0.0152172
928.837	0.0152128
928.915	0.0152224
928.994	0.0151984
929.072	0.0152467
929.150	0.0151513
929.228	0.0152048
929.306	0.0151115
929.384	0.0152540
929.462	0.0151912
929.540	0.0151821
929.619	0.0151872
929.697	0.0151965
929.775	0.0152513
929.853	0.0151691
929.931	0.0151622
930.009	0.0151568
930.087	0.0152058
930.165	0.0152484
930.244	0.0152119
930.322	0.0151007
930.400	0.0150598
930.478	0.0151923
930.556	0.0151379
930.634	0.0151192
930.712	0.0150981
930.790	0.0152502
930.869	0.0150647
930.947	0.0150477
931.025	0.0151402
931.103	0.0152148
931.181	0.0151887
931.259	0.0152133
931.337	0.0154483
931.415	0.0152059
931.494	0.0151329
931.572	0.0151318
931.650	0.0152042
931.728	0.0151929
931.806	0.0152122
931.884	0.0150378
931.962	0.0151869
932.040	0.0150793
932.119	0.0152291
932.197	0.0151271
932.275	0.0152572
932.353	0.0151543
932.431	0.0151274
932.509	0.0150533
932.587	0.0152981
932.665	0.0152094
932.744	0.0152247
932.822	0.0152219
932.900	0.0151715
932.978	0.0151628
933.056	0.0151838
933.134	0.0149657
933.212	0.0151794
933.290	0.0151517
933.369	0.0152272
933.447	0.0152077
933.525	0.0152155
933.603	0.0153603
933.681	0.0153276
933.759	0.0152415
933.837	0.0152895
933.915	0.0151355
933.994	0.0153100
934.072	0.0152396
934.150	0.0153027
934.228	0.0152625
934.306	0.0152242
934.384	0.0153035
934.462	0.0151604
934.540	0.0152840
934.619	0.0153017
934.697	0.0150797
934.775	0.0152491
934.853	0.0152141
934.931	0.0152901
935.009	0.0153920
935.087	0.0151196
935.165	0.0152789
935.244	0.0151866
935.322	0.0152114
935.400	0.0154213
935.478	0.0152522
935.556	0.0151849
935.634	0.0152122
935.712	0.0152859
935.790	0.0152061
935.869	0.0151994
935.947	0.0154123
936.025	0.0153143
936.103	0.0152009
936.181	0.0153469
936.259	0.0153979
936.337	0.0151966
936.415	0.0152379
936.494	0.0151565
936.572	0.0152833
936.650	0.0152074
936.728	0.0152574
936.806	0.0153008
936.884	0.0152539
936.962	0.0153117
937.040	0.0151488
937.119	0.0152446
937.197	0.0152140
937.275	0.0153048
937.353	0.0152831
937.431	0.0153429
937.509	0.0152689
937.587	0.0153076
937.665	0.0154236
937.744	0.0152699
937.822	0.0152574
937.900	0.0152861
937.978	0.0154080
938.056	0.0153793
938.134	0.0152621
938.212	0.0152573
938.290	0.0153139
938.369	0.0152870
938.447	0.0153557
938.525	0.0152070
938.603	0.0154159
938.681	0.0153435
938.759	0.0152048
938.837	0.0153399
938.915	0.0153255
938.994	0.0153474
939.072	0.0153052
939.150	0.0151202
939.228	0.0151803
939.306	0.0152032
939.384	0.0153029
939.462	0.0151654
939.540	0.0153046
939.619	0.0152190
939.697	0.0152032
939.775	0.0151150
939.853	0.0153117
939.931	0.0152193
940.009	0.0152691
940.087	0.0152373
940.165	0.0152287
940.244	0.0152335
940.322	0.0152560
940.400	0.0151838
940.478	0.0152576
940.556	0.0152155
940.634	0.0152235
940.712	0.0152252
940.790	0.0153065
940.869	0.0153113
940.947	0.0153192
941.025	0.0150406
941.103	0.0152747
941.181	0.0151835
941.259	0.0153030
941.337	0.0152608
941.415	0.0152789
941.494	0.0152771
941.572	0.0153248
941.650	0.0153577
941.728	0.0152972
941.806	0.0152598
941.884	0.0151943
941.962	0.0152915
942.040	0.0152819
942.119	0.0151785
942.197	0.0151208
942.275	0.0153250
942.353	0.0151287
942.431	0.0151480
942.509	0.0152697
942.587	0.0153526
942.665	0.0151849
942.744	0.0152767
942.822	0.0150974
942.900	0.0152071
942.978	0.0151717
943.056	0.0152499
943.134	0.0151992
943.212	0.0151540
943.290	0.0152280
943.369	0.0151748
943.447	0.0151342
943.525	0.0152431
943.603	0.0151488
943.681	0.0152125
943.759	0.0151040
943.837	0.0152654
943.915	0.0152392
943.994	0.0151677
944.072	0.0152702
944.150	0.0151572
944.228	0.0152584
944.306	0.0151947
944.384	0.0152328
944.462	0.0151767
944.540	0.0154315
944.619	0.0153291
944.697	0.0151825
944.775	0.0152042
944.853	0.0152474
944.931	0.0152628
945.009	0.0152899
945.087	0.0152207
945.165	0.0152236
945.244	0.0153752
945.322	0.0153061
945.400	0.0152629
945.478	0.0151646
945.556	0.0152505
945.634	0.0152830
945.712	0.0152223
945.790	0.0152555
945.869	0.0151876
945.947	0.0153598
946.025	0.0151890
946.103	0.0152431
946.181	0.0153498
946.259	0.0152005
946.337	0.0152840
946.415	0.0153669
946.494	0.0152715
946.572	0.0151786
946.650	0.0152962
946.728	0.0154023
946.806	0.0153279
946.884	0.0153407
946.962	0.0152406
947.040	0.0153009
947.119	0.0152746
947.197	0.0152971
947.275	0.0153049
947.353	0.0152528
947.431	0.0153410
947.509	0.0153880
947.587	0.0152389
947.665	0.0152317
947.744	0.0152979
947.822	0.0153860
947.900	0.0153275
947.978	0.0153779
948.056	0.0153503
948.134	0.0153686
948.212	0.0152579
948.290	0.0152483
948.369	0.0153144
948.447	0.0153194
948.525	0.0153291
948.603	0.0151897
948.681	0.0153416
948.759	0.0153951
948.837	0.0152429
948.915	0.0152035
948.994	0.0151541
949.072	0.0152768
949.150	0.0153955
949.228	0.0153825
949.306	0.0153597
949.384	0.0153010
949.462	0.0151980
949.540	0.0152442
949.619	0.0152174
949.697	0.0151931
949.775	0.0153146
949.853	0.0152718
949.931	0.0152087
