05/19/2022	00:49:48	Ver.	4.1	UNKNOWN
Optical Delay	630.002507	Delta X		0.078125	Sweeps	1	Scan Rate	0/0
Coordinates	Axis 1	NaN	Axis 2	NaN	Axis 3	NaN	Axis 4	NaN	Axis 5	NaN	Axis 6	0.000000
TX Power	0.000000	RX Power	0.000000

630.003	0.0159283
630.081	0.0160334
630.159	0.0159356
630.237	0.0158408
630.315	0.0158952
630.393	0.0159736
630.471	0.0159003
630.549	0.0158952
630.628	0.0161008
630.706	0.0159782
630.784	0.0158879
630.862	0.0158368
630.940	0.0158527
631.018	0.0158540
631.096	0.0159104
631.174	0.0159983
631.253	0.0159380
631.331	0.0157643
631.409	0.0159018
631.487	0.0160310
631.565	0.0160800
631.643	0.0158750
631.721	0.0159670
631.799	0.0158057
631.878	0.0159415
631.956	0.0159897
632.034	0.0158448
632.112	0.0160131
632.190	0.0159547
632.268	0.0158676
632.346	0.0159628
632.424	0.0158865
632.503	0.0159181
632.581	0.0160627
632.659	0.0159687
632.737	0.0159132
632.815	0.0159282
632.893	0.0159289
632.971	0.0158340
633.049	0.0159256
633.128	0.0159282
633.206	0.0160392
633.284	0.0159258
633.362	0.0157891
633.440	0.0159898
633.518	0.0158937
633.596	0.0159203
633.674	0.0158154
633.753	0.0159540
633.831	0.0158648
633.909	0.0160876
633.987	0.0159646
634.065	0.0159566
634.143	0.0158778
634.221	0.0159483
634.299	0.0159344
634.378	0.0159840
634.456	0.0159777
634.534	0.0159074
634.612	0.0158894
634.690	0.0160428
634.768	0.0159527
634.846	0.0157963
634.924	0.0158249
635.003	0.0159403
635.081	0.0159405
635.159	0.0158826
635.237	0.0159759
635.315	0.0157970
635.393	0.0159053
635.471	0.0158469
635.549	0.0160296
635.628	0.0159217
635.706	0.0160748
635.784	0.0160118
635.862	0.0158418
635.940	0.0159816
636.018	0.0159782
636.096	0.0158886
636.174	0.0158887
636.253	0.0158590
636.331	0.0158360
636.409	0.0160266
636.487	0.0159125
636.565	0.0160303
636.643	0.0158862
636.721	0.0159715
636.799	0.0159283
636.878	0.0158435
636.956	0.0159370
637.034	0.0157867
637.112	0.0157859
637.190	0.0159148
637.268	0.0160033
637.346	0.0159174
637.424	0.0157352
637.503	0.0156992
637.581	0.0158788
637.659	0.0158090
637.737	0.0159209
637.815	0.0158352
637.893	0.0157450
637.971	0.0158474
638.049	0.0157511
638.128	0.0158012
638.206	0.0157993
638.284	0.0158978
638.362	0.0157904
638.440	0.0159292
638.518	0.0158335
638.596	0.0157435
638.674	0.0158447
638.753	0.0158788
638.831	0.0159927
638.909	0.0158669
638.987	0.0158239
639.065	0.0157007
639.143	0.0158193
639.221	0.0158136
639.299	0.0158698
639.378	0.0158945
639.456	0.0158216
639.534	0.0158833
639.612	0.0158686
639.690	0.0158944
639.768	0.0157852
639.846	0.0158736
639.924	0.0158215
640.003	0.0158070
640.081	0.0159214
640.159	0.0159309
640.237	0.0159110
640.315	0.0158366
640.393	0.0158745
640.471	0.0157973
640.549	0.0159249
640.628	0.0158214
640.706	0.0157464
640.784	0.0157861
640.862	0.0157425
640.940	0.0158161
641.018	0.0158547
641.096	0.0158036
641.174	0.0157657
641.253	0.0158574
641.331	0.0156284
641.409	0.0157496
641.487	0.0157117
641.565	0.0158416
641.643	0.0159303
641.721	0.0158755
641.799	0.0158831
641.878	0.0158388
641.956	0.0156995
642.034	0.0158905
642.112	0.0157949
642.190	0.0158079
642.268	0.0157182
642.346	0.0157936
642.424	0.0157330
642.503	0.0158828
642.581	0.0157828
642.659	0.0158018
642.737	0.0157914
642.815	0.0155959
642.893	0.0157871
642.971	0.0157964
643.049	0.0156667
643.128	0.0158588
643.206	0.0158388
643.284	0.0157643
643.362	0.0158075
643.440	0.0158589
643.518	0.0158363
643.596	0.0157783
643.674	0.0157886
643.753	0.0157251
643.831	0.0158598
643.909	0.0157937
643.987	0.0158889
644.065	0.0158862
644.143	0.0158466
644.221	0.0157853
644.299	0.0158086
644.378	0.0157448
644.456	0.0158257
644.534	0.0157171
644.612	0.0159109
644.690	0.0157122
644.768	0.0157398
644.846	0.0157657
644.924	0.0157842
645.003	0.0159261
645.081	0.0158079
645.159	0.0157629
645.237	0.0158869
645.315	0.0159693
645.393	0.0159603
645.471	0.0159341
645.549	0.0158389
645.628	0.0159310
645.706	0.0158974
645.784	0.0159847
645.862	0.0159737
645.940	0.0160078
646.018	0.0159844
646.096	0.0160555
646.174	0.0160849
646.253	0.0160307
646.331	0.0157915
646.409	0.0159148
646.487	0.0159014
646.565	0.0158765
646.643	0.0159105
646.721	0.0159251
646.799	0.0159187
646.878	0.0158865
646.956	0.0159604
647.034	0.0159719
647.112	0.0158376
647.190	0.0157399
647.268	0.0158841
647.346	0.0160118
647.424	0.0158677
647.503	0.0158886
647.581	0.0158953
647.659	0.0159607
647.737	0.0158923
647.815	0.0158535
647.893	0.0157960
647.971	0.0159521
648.049	0.0158339
648.128	0.0158666
648.206	0.0159583
648.284	0.0159856
648.362	0.0159991
648.440	0.0159440
648.518	0.0159928
648.596	0.0160035
648.674	0.0160049
648.753	0.0159746
648.831	0.0160368
648.909	0.0160166
648.987	0.0159824
649.065	0.0160085
649.143	0.0159353
649.221	0.0159076
649.299	0.0159010
649.378	0.0158476
649.456	0.0157973
649.534	0.0157338
649.612	0.0158224
649.690	0.0158131
649.768	0.0157950
649.846	0.0156320
649.924	0.0158492
650.003	0.0158784
650.081	0.0158849
650.159	0.0157928
650.237	0.0159158
650.315	0.0159402
650.393	0.0159280
650.471	0.0158540
650.549	0.0159385
650.628	0.0159355
650.706	0.0157512
650.784	0.0159027
650.862	0.0160595
650.940	0.0159218
651.018	0.0157172
651.096	0.0157965
651.174	0.0157730
651.253	0.0158023
651.331	0.0158024
651.409	0.0159029
651.487	0.0157108
651.565	0.0155687
651.643	0.0156414
651.721	0.0157473
651.799	0.0156181
651.878	0.0157722
651.956	0.0159549
652.034	0.0158307
652.112	0.0157251
652.190	0.0158267
652.268	0.0159587
652.346	0.0159468
652.424	0.0159023
652.503	0.0159099
652.581	0.0159050
652.659	0.0159447
652.737	0.0159618
652.815	0.0158112
652.893	0.0160921
652.971	0.0159261
653.049	0.0158700
653.128	0.0159606
653.206	0.0159983
653.284	0.0158627
653.362	0.0158460
653.440	0.0158509
653.518	0.0157438
653.596	0.0159139
653.674	0.0159802
653.753	0.0159750
653.831	0.0159210
653.909	0.0160198
653.987	0.0159055
654.065	0.0159174
654.143	0.0160072
654.221	0.0159325
654.299	0.0160535
654.378	0.0159834
654.456	0.0158319
654.534	0.0159081
654.612	0.0160431
654.690	0.0159538
654.768	0.0159398
654.846	0.0159464
654.924	0.0159570
655.003	0.0160601
655.081	0.0160542
655.159	0.0160775
655.237	0.0161142
655.315	0.0159935
655.393	0.0160973
655.471	0.0160929
655.549	0.0159538
655.628	0.0159572
655.706	0.0161616
655.784	0.0159364
655.862	0.0160020
655.940	0.0160140
656.018	0.0159579
656.096	0.0159370
656.174	0.0158992
656.253	0.0160546
656.331	0.0159940
656.409	0.0159807
656.487	0.0160154
656.565	0.0160081
656.643	0.0159716
656.721	0.0160172
656.799	0.0160423
656.878	0.0161249
656.956	0.0160174
657.034	0.0160799
657.112	0.0160944
657.190	0.0161124
657.268	0.0160873
657.346	0.0159267
657.424	0.0160074
657.503	0.0161316
657.581	0.0159370
657.659	0.0159834
657.737	0.0158687
657.815	0.0159418
657.893	0.0158876
657.971	0.0159401
658.049	0.0157848
658.128	0.0158584
658.206	0.0158262
658.284	0.0157288
658.362	0.0157478
658.440	0.0157299
658.518	0.0156711
658.596	0.0156754
658.674	0.0156828
658.753	0.0156868
658.831	0.0155915
658.909	0.0156899
658.987	0.0157030
659.065	0.0157030
659.143	0.0156163
659.221	0.0156678
659.299	0.0158217
659.378	0.0156915
659.456	0.0157795
659.534	0.0158691
659.612	0.0158022
659.690	0.0158527
659.768	0.0158604
659.846	0.0158261
659.924	0.0158237
660.003	0.0158353
660.081	0.0157346
660.159	0.0157960
660.237	0.0156116
660.315	0.0156570
660.393	0.0155967
660.471	0.0157301
660.549	0.0154933
660.628	0.0155334
660.706	0.0155595
660.784	0.0156712
660.862	0.0155811
660.940	0.0157256
661.018	0.0155893
661.096	0.0158157
661.174	0.0157863
661.253	0.0158387
661.331	0.0158476
661.409	0.0158076
661.487	0.0157951
661.565	0.0158804
661.643	0.0160071
661.721	0.0158951
661.799	0.0159618
661.878	0.0159941
661.956	0.0158926
662.034	0.0158580
662.112	0.0158402
662.190	0.0157773
662.268	0.0158583
662.346	0.0159503
662.424	0.0159321
662.503	0.0158636
662.581	0.0158003
662.659	0.0157645
662.737	0.0158396
662.815	0.0158681
662.893	0.0159169
662.971	0.0159402
663.049	0.0159235
663.128	0.0158826
663.206	0.0159622
663.284	0.0158808
663.362	0.0158545
663.440	0.0159013
663.518	0.0159555
663.596	0.0157748
663.674	0.0158042
663.753	0.0159800
663.831	0.0159029
663.909	0.0158862
663.987	0.0159894
664.065	0.0161127
664.143	0.0159833
664.221	0.0160180
664.299	0.0160056
664.378	0.0160908
664.456	0.0160694
664.534	0.0158849
664.612	0.0159028
664.690	0.0157896
664.768	0.0158140
664.846	0.0158876
664.924	0.0159795
665.003	0.0159100
665.081	0.0157557
665.159	0.0157504
665.237	0.0158472
665.315	0.0158293
665.393	0.0157505
665.471	0.0159541
665.549	0.0159286
665.628	0.0157197
665.706	0.0159187
665.784	0.0159148
665.862	0.0158972
665.940	0.0158533
666.018	0.0158573
666.096	0.0159377
666.174	0.0158730
666.253	0.0159344
666.331	0.0159881
666.409	0.0159013
666.487	0.0159679
666.565	0.0160812
666.643	0.0161931
666.721	0.0160450
666.799	0.0159781
666.878	0.0160891
666.956	0.0161083
667.034	0.0160725
667.112	0.0160218
667.190	0.0160705
667.268	0.0161222
667.346	0.0159492
667.424	0.0158395
667.503	0.0158208
667.581	0.0158263
667.659	0.0158473
667.737	0.0157971
667.815	0.0159597
667.893	0.0156976
667.971	0.0157788
668.049	0.0157381
668.128	0.0158284
668.206	0.0157073
668.284	0.0157614
668.362	0.0156983
668.440	0.0158224
668.518	0.0158591
668.596	0.0157652
668.674	0.0158373
668.753	0.0158733
668.831	0.0159633
668.909	0.0158783
668.987	0.0159387
669.065	0.0159705
669.143	0.0160196
669.221	0.0159322
669.299	0.0160258
669.378	0.0160126
669.456	0.0159421
669.534	0.0161034
669.612	0.0160949
669.690	0.0160412
669.768	0.0160781
669.846	0.0160040
669.924	0.0160133
670.003	0.0158448
670.081	0.0160425
670.159	0.0158933
670.237	0.0159018
670.315	0.0158305
670.393	0.0158329
670.471	0.0158926
670.549	0.0157991
670.628	0.0158223
670.706	0.0156827
670.784	0.0157171
670.862	0.0157176
670.940	0.0156427
671.018	0.0154870
671.096	0.0156032
671.174	0.0156399
671.253	0.0155036
671.331	0.0156756
671.409	0.0155926
671.487	0.0156641
671.565	0.0158392
671.643	0.0158633
671.721	0.0158997
671.799	0.0159068
671.878	0.0159167
671.956	0.0157941
672.034	0.0160149
672.112	0.0160364
672.190	0.0159695
672.268	0.0160016
672.346	0.0160516
672.424	0.0159192
672.503	0.0159925
672.581	0.0159091
672.659	0.0159493
672.737	0.0159358
672.815	0.0157569
672.893	0.0157852
672.971	0.0158653
673.049	0.0159278
673.128	0.0159419
673.206	0.0160928
673.284	0.0159444
673.362	0.0159405
673.440	0.0160359
673.518	0.0160235
673.596	0.0159288
673.674	0.0160800
673.753	0.0159828
673.831	0.0160322
673.909	0.0161061
673.987	0.0160766
674.065	0.0160141
674.143	0.0160032
674.221	0.0158643
674.299	0.0158826
674.378	0.0160355
674.456	0.0157622
674.534	0.0157850
674.612	0.0156751
674.690	0.0157576
674.768	0.0157378
674.846	0.0157838
674.924	0.0157434
675.003	0.0157502
675.081	0.0155444
675.159	0.0155862
675.237	0.0156361
675.315	0.0156256
675.393	0.0156052
675.471	0.0155690
675.549	0.0156882
675.628	0.0155835
675.706	0.0157479
675.784	0.0158100
675.862	0.0158256
675.940	0.0159327
676.018	0.0158184
676.096	0.0160863
676.174	0.0160783
676.253	0.0159451
676.331	0.0160252
676.409	0.0159223
676.487	0.0161441
676.565	0.0162263
676.643	0.0161754
676.721	0.0161764
676.799	0.0162694
676.878	0.0163630
676.956	0.0162575
677.034	0.0161993
677.112	0.0162169
677.190	0.0162082
677.268	0.0161954
677.346	0.0161310
677.424	0.0161499
677.503	0.0159406
677.581	0.0160375
677.659	0.0160090
677.737	0.0158841
677.815	0.0157969
677.893	0.0157886
677.971	0.0157939
678.049	0.0157995
678.128	0.0155886
678.206	0.0156705
678.284	0.0156785
678.362	0.0156265
678.440	0.0156551
678.518	0.0157526
678.596	0.0158671
678.674	0.0157117
678.753	0.0156403
678.831	0.0157874
678.909	0.0156461
678.987	0.0158450
679.065	0.0157384
679.143	0.0156541
679.221	0.0156310
679.299	0.0158550
679.378	0.0158393
679.456	0.0157650
679.534	0.0157642
679.612	0.0156568
679.690	0.0157063
679.768	0.0157738
679.846	0.0157117
679.924	0.0156723
680.003	0.0158659
680.081	0.0158795
680.159	0.0157206
680.237	0.0158453
680.315	0.0159722
680.393	0.0159301
680.471	0.0158755
680.549	0.0157361
680.628	0.0159647
680.706	0.0160270
680.784	0.0159578
680.862	0.0161154
680.940	0.0160672
681.018	0.0161251
681.096	0.0161189
681.174	0.0161077
681.253	0.0161359
681.331	0.0162293
681.409	0.0160716
681.487	0.0160724
681.565	0.0159906
681.643	0.0159732
681.721	0.0159154
681.799	0.0158788
681.878	0.0158726
681.956	0.0157659
682.034	0.0157031
682.112	0.0156237
682.190	0.0156924
682.268	0.0156149
682.346	0.0156413
682.424	0.0154922
682.503	0.0157423
682.581	0.0156468
682.659	0.0156930
682.737	0.0157813
682.815	0.0157785
682.893	0.0157581
682.971	0.0158164
683.049	0.0159283
683.128	0.0158073
683.206	0.0157758
683.284	0.0159100
683.362	0.0158644
683.440	0.0158543
683.518	0.0158430
683.596	0.0157925
683.674	0.0158727
683.753	0.0158119
683.831	0.0159177
683.909	0.0158450
683.987	0.0156594
684.065	0.0159200
684.143	0.0157071
684.221	0.0158481
684.299	0.0157996
684.378	0.0159351
684.456	0.0160162
684.534	0.0160365
684.612	0.0160506
684.690	0.0160944
684.768	0.0162347
684.846	0.0161456
684.924	0.0162553
685.003	0.0161417
685.081	0.0161369
685.159	0.0161327
685.237	0.0161134
685.315	0.0163689
685.393	0.0163393
685.471	0.0160372
685.549	0.0161735
685.628	0.0162013
685.706	0.0160976
685.784	0.0160689
685.862	0.0160782
685.940	0.0159446
686.018	0.0159147
686.096	0.0156905
686.174	0.0156866
686.253	0.0156990
686.331	0.0156670
686.409	0.0157144
686.487	0.0157378
686.565	0.0157774
686.643	0.0157387
686.721	0.0157942
686.799	0.0158945
686.878	0.0158133
686.956	0.0158880
687.034	0.0158784
687.112	0.0159833
687.190	0.0159192
687.268	0.0158851
687.346	0.0159204
687.424	0.0159303
687.503	0.0159973
687.581	0.0159843
687.659	0.0161186
687.737	0.0159044
687.815	0.0158823
687.893	0.0160052
687.971	0.0160355
688.049	0.0159946
688.128	0.0158915
688.206	0.0159395
688.284	0.0160406
688.362	0.0158718
688.440	0.0159140
688.518	0.0159917
688.596	0.0159170
688.674	0.0159715
688.753	0.0158494
688.831	0.0159895
688.909	0.0159418
688.987	0.0159135
689.065	0.0159093
689.143	0.0158048
689.221	0.0157864
689.299	0.0157381
689.378	0.0158588
689.456	0.0157146
689.534	0.0156654
689.612	0.0158311
689.690	0.0157011
689.768	0.0157246
689.846	0.0157580
689.924	0.0158595
690.003	0.0157920
690.081	0.0157864
690.159	0.0159274
690.237	0.0159995
690.315	0.0159079
690.393	0.0158911
690.471	0.0160545
690.549	0.0160490
690.628	0.0160264
690.706	0.0161010
690.784	0.0159621
690.862	0.0161347
690.940	0.0160586
691.018	0.0161112
691.096	0.0161210
691.174	0.0161813
691.253	0.0160577
691.331	0.0161178
691.409	0.0159541
691.487	0.0159861
691.565	0.0159640
691.643	0.0159903
691.721	0.0159033
691.799	0.0158630
691.878	0.0158324
691.956	0.0158293
692.034	0.0159792
692.112	0.0159439
692.190	0.0158353
692.268	0.0159388
692.346	0.0158708
692.424	0.0158635
692.503	0.0159457
692.581	0.0158665
692.659	0.0160455
692.737	0.0160365
692.815	0.0160852
692.893	0.0161026
692.971	0.0160615
693.049	0.0160917
693.128	0.0160561
693.206	0.0161505
693.284	0.0161720
693.362	0.0162108
693.440	0.0160901
693.518	0.0160805
693.596	0.0161004
693.674	0.0160559
693.753	0.0160870
693.831	0.0158001
693.909	0.0158023
693.987	0.0158120
694.065	0.0157031
694.143	0.0155631
694.221	0.0155847
694.299	0.0155986
694.378	0.0155653
694.456	0.0155448
694.534	0.0155618
694.612	0.0158064
694.690	0.0155122
694.768	0.0155612
694.846	0.0157496
694.924	0.0155988
695.003	0.0155578
695.081	0.0156999
695.159	0.0156217
695.237	0.0156110
695.315	0.0157549
695.393	0.0156734
695.471	0.0158224
695.549	0.0158143
695.628	0.0158599
695.706	0.0157729
695.784	0.0158597
695.862	0.0159991
695.940	0.0159190
696.018	0.0160378
696.096	0.0159867
696.174	0.0160401
696.253	0.0162251
696.331	0.0161776
696.409	0.0162051
696.487	0.0162049
696.565	0.0162754
696.643	0.0161259
696.721	0.0162859
696.799	0.0162450
696.878	0.0162148
696.956	0.0161675
697.034	0.0160385
697.112	0.0160073
697.190	0.0159113
697.268	0.0159469
697.346	0.0159452
697.424	0.0158352
697.503	0.0158529
697.581	0.0157279
697.659	0.0156581
697.737	0.0156564
697.815	0.0156785
697.893	0.0155717
697.971	0.0154972
698.049	0.0155798
698.128	0.0157262
698.206	0.0157629
698.284	0.0156327
698.362	0.0156277
698.440	0.0155847
698.518	0.0156651
698.596	0.0156492
698.674	0.0156052
698.753	0.0157794
698.831	0.0157172
698.909	0.0157071
698.987	0.0157631
699.065	0.0157811
699.143	0.0159338
699.221	0.0159319
699.299	0.0159242
699.378	0.0160226
699.456	0.0160940
699.534	0.0161363
699.612	0.0160710
699.690	0.0161637
699.768	0.0162019
699.846	0.0161829
699.924	0.0160612
700.003	0.0158167
700.081	0.0158535
700.159	0.0158968
700.237	0.0158276
700.315	0.0158492
700.393	0.0158491
700.471	0.0157757
700.549	0.0158418
700.628	0.0158133
700.706	0.0158312
700.784	0.0159293
700.862	0.0159129
700.940	0.0159830
701.018	0.0159801
701.096	0.0159591
701.174	0.0160323
701.253	0.0159885
701.331	0.0161065
701.409	0.0160536
701.487	0.0159089
701.565	0.0158479
701.643	0.0158554
701.721	0.0159444
701.799	0.0158123
701.878	0.0157777
701.956	0.0155348
702.034	0.0156507
702.112	0.0156468
702.190	0.0156110
702.268	0.0155698
702.346	0.0155775
702.424	0.0155602
702.503	0.0155552
702.581	0.0156767
702.659	0.0156265
702.737	0.0156242
702.815	0.0156084
702.893	0.0156050
702.971	0.0158369
703.049	0.0159956
703.128	0.0160529
703.206	0.0160757
703.284	0.0160516
703.362	0.0160105
703.440	0.0160764
703.518	0.0159759
703.596	0.0159772
703.674	0.0159912
703.753	0.0159824
703.831	0.0159384
703.909	0.0160295
703.987	0.0158820
704.065	0.0158139
704.143	0.0159495
704.221	0.0160632
704.299	0.0160123
704.378	0.0159020
704.456	0.0160628
704.534	0.0160259
704.612	0.0160771
704.690	0.0157732
704.768	0.0158656
704.846	0.0159160
704.924	0.0159282
705.003	0.0158650
705.081	0.0158984
705.159	0.0158355
705.237	0.0160078
705.315	0.0158976
705.393	0.0158465
705.471	0.0159070
705.549	0.0159815
705.628	0.0160107
705.706	0.0159772
705.784	0.0158613
705.862	0.0156956
705.940	0.0158897
706.018	0.0157823
706.096	0.0158635
706.174	0.0157289
706.253	0.0156675
706.331	0.0156896
706.409	0.0156935
706.487	0.0156354
706.565	0.0158704
706.643	0.0158755
706.721	0.0158996
706.799	0.0159081
706.878	0.0160063
706.956	0.0159705
707.034	0.0160592
707.112	0.0158979
707.190	0.0162440
707.268	0.0162669
707.346	0.0161765
707.424	0.0162225
707.503	0.0160958
707.581	0.0161550
707.659	0.0160056
707.737	0.0161349
707.815	0.0162391
707.893	0.0160936
707.971	0.0161797
708.049	0.0159963
708.128	0.0160510
708.206	0.0161267
708.284	0.0161491
708.362	0.0159464
708.440	0.0159882
708.518	0.0162312
708.596	0.0161573
708.674	0.0161295
708.753	0.0160007
708.831	0.0159212
708.909	0.0160494
708.987	0.0160923
709.065	0.0159591
709.143	0.0159337
709.221	0.0158526
709.299	0.0159280
709.378	0.0157586
709.456	0.0157066
709.534	0.0155916
709.612	0.0155991
709.690	0.0155859
709.768	0.0156849
709.846	0.0155348
709.924	0.0155057
710.003	0.0155252
710.081	0.0155185
710.159	0.0154353
710.237	0.0155282
710.315	0.0155045
710.393	0.0156083
710.471	0.0154108
710.549	0.0154511
710.628	0.0155715
710.706	0.0155565
710.784	0.0156390
710.862	0.0155587
710.940	0.0156165
711.018	0.0155762
711.096	0.0156311
711.174	0.0157309
711.253	0.0158096
711.331	0.0158258
711.409	0.0157443
711.487	0.0158627
711.565	0.0157434
711.643	0.0156760
711.721	0.0158340
711.799	0.0159066
711.878	0.0159223
711.956	0.0159013
712.034	0.0159053
712.112	0.0159969
712.190	0.0159486
712.268	0.0159539
712.346	0.0160352
712.424	0.0161283
712.503	0.0161327
712.581	0.0160588
712.659	0.0160851
712.737	0.0161446
712.815	0.0160458
712.893	0.0161746
712.971	0.0162740
713.049	0.0162132
713.128	0.0162388
713.206	0.0162663
713.284	0.0162874
713.362	0.0161448
713.440	0.0161895
713.518	0.0161168
713.596	0.0159882
713.674	0.0161246
713.753	0.0160858
713.831	0.0160152
713.909	0.0161069
713.987	0.0161171
714.065	0.0160714
714.143	0.0160261
714.221	0.0161481
714.299	0.0160936
714.378	0.0159555
714.456	0.0161413
714.534	0.0160751
714.612	0.0160529
714.690	0.0161176
714.768	0.0159983
714.846	0.0158623
714.924	0.0159359
715.003	0.0156458
715.081	0.0156715
715.159	0.0157999
715.237	0.0156513
715.315	0.0156618
715.393	0.0155340
715.471	0.0155944
715.549	0.0155460
715.628	0.0155924
715.706	0.0155289
715.784	0.0156292
715.862	0.0155476
715.940	0.0155089
716.018	0.0155405
716.096	0.0154762
716.174	0.0153547
716.253	0.0155727
716.331	0.0153073
716.409	0.0153329
716.487	0.0155952
716.565	0.0156122
716.643	0.0154438
716.721	0.0154944
716.799	0.0155544
716.878	0.0155061
716.956	0.0154801
717.034	0.0154646
717.112	0.0154553
717.190	0.0154089
717.268	0.0155919
717.346	0.0155588
717.424	0.0156022
717.503	0.0156873
717.581	0.0156610
717.659	0.0156231
717.737	0.0158261
717.815	0.0159299
717.893	0.0157671
717.971	0.0158365
718.049	0.0159565
718.128	0.0159875
718.206	0.0160416
718.284	0.0160741
718.362	0.0160512
718.440	0.0160444
718.518	0.0160130
718.596	0.0159551
718.674	0.0161749
718.753	0.0161392
718.831	0.0160735
718.909	0.0161688
718.987	0.0160535
719.065	0.0160687
719.143	0.0160429
719.221	0.0160168
719.299	0.0160049
719.378	0.0161949
719.456	0.0162398
719.534	0.0160545
719.612	0.0159229
719.690	0.0161562
719.768	0.0160813
719.846	0.0160711
719.924	0.0160601
720.003	0.0159750
720.081	0.0161378
720.159	0.0159896
720.237	0.0159325
720.315	0.0160342
720.393	0.0159973
720.471	0.0159798
720.549	0.0159117
720.628	0.0158206
720.706	0.0158257
720.784	0.0159359
720.862	0.0159685
720.940	0.0159396
721.018	0.0159115
721.096	0.0157727
721.174	0.0157001
721.253	0.0157255
721.331	0.0158089
721.409	0.0158477
721.487	0.0157401
721.565	0.0157813
721.643	0.0158662
721.721	0.0158689
721.799	0.0157793
721.878	0.0156764
721.956	0.0157132
722.034	0.0157710
722.112	0.0157192
722.190	0.0158327
722.268	0.0156540
722.346	0.0157405
722.424	0.0157660
722.503	0.0156866
722.581	0.0157058
722.659	0.0157433
722.737	0.0157764
722.815	0.0157095
722.893	0.0157927
722.971	0.0155734
723.049	0.0156229
723.128	0.0157127
723.206	0.0156599
723.284	0.0155368
723.362	0.0156250
723.440	0.0156781
723.518	0.0156813
723.596	0.0156203
723.674	0.0155829
723.753	0.0154673
723.831	0.0157212
723.909	0.0156577
723.987	0.0155309
724.065	0.0155661
724.143	0.0156857
724.221	0.0156374
724.299	0.0155742
724.378	0.0155318
724.456	0.0155203
724.534	0.0154365
724.612	0.0155157
724.690	0.0157204
724.768	0.0156696
724.846	0.0155895
724.924	0.0157331
725.003	0.0158646
725.081	0.0158642
725.159	0.0160278
725.237	0.0159571
725.315	0.0159402
725.393	0.0160884
725.471	0.0162042
725.549	0.0161434
725.628	0.0161526
725.706	0.0161790
725.784	0.0161115
725.862	0.0162187
725.940	0.0162678
726.018	0.0161632
726.096	0.0162904
726.174	0.0161319
726.253	0.0162746
726.331	0.0161981
726.409	0.0162187
726.487	0.0162256
726.565	0.0163374
726.643	0.0160824
726.721	0.0161777
726.799	0.0163933
726.878	0.0164379
726.956	0.0163155
727.034	0.0164574
727.112	0.0163256
727.190	0.0163883
727.268	0.0163182
727.346	0.0162829
727.424	0.0162620
727.503	0.0162599
727.581	0.0163165
727.659	0.0161256
727.737	0.0161073
727.815	0.0161382
727.893	0.0159765
727.971	0.0159697
728.049	0.0158827
728.128	0.0157529
728.206	0.0157448
728.284	0.0157524
728.362	0.0159045
728.440	0.0157764
728.518	0.0157186
728.596	0.0157022
728.674	0.0157834
728.753	0.0155950
728.831	0.0158145
728.909	0.0158028
728.987	0.0155889
729.065	0.0155351
729.143	0.0157095
729.221	0.0155645
729.299	0.0156938
729.378	0.0156259
729.456	0.0155749
729.534	0.0155931
729.612	0.0155571
729.690	0.0155876
729.768	0.0156962
729.846	0.0156264
729.924	0.0155891
730.003	0.0156971
730.081	0.0156199
730.159	0.0156394
730.237	0.0157256
730.315	0.0158057
730.393	0.0157893
730.471	0.0158118
730.549	0.0155814
730.628	0.0158575
730.706	0.0156778
730.784	0.0157800
730.862	0.0155941
730.940	0.0155808
731.018	0.0156522
731.096	0.0156492
731.174	0.0156530
731.253	0.0158102
731.331	0.0157438
731.409	0.0156375
731.487	0.0157469
731.565	0.0157366
731.643	0.0157790
731.721	0.0158318
731.799	0.0158134
731.878	0.0159901
731.956	0.0158391
732.034	0.0158682
732.112	0.0158995
732.190	0.0159174
732.268	0.0159511
732.346	0.0159843
732.424	0.0160252
732.503	0.0159293
732.581	0.0160305
732.659	0.0159437
732.737	0.0159947
732.815	0.0160163
732.893	0.0159781
732.971	0.0160465
733.049	0.0159933
733.128	0.0161433
733.206	0.0162419
733.284	0.0161834
733.362	0.0162921
733.440	0.0162574
733.518	0.0161795
733.596	0.0162653
733.674	0.0163601
733.753	0.0162571
733.831	0.0163137
733.909	0.0161628
733.987	0.0161974
734.065	0.0161994
734.143	0.0161700
734.221	0.0160712
734.299	0.0160995
734.378	0.0161514
734.456	0.0160530
734.534	0.0159711
734.612	0.0158833
734.690	0.0161978
734.768	0.0160682
734.846	0.0160190
734.924	0.0161040
735.003	0.0160342
735.081	0.0160415
735.159	0.0160584
735.237	0.0161337
735.315	0.0160529
735.393	0.0159117
735.471	0.0159576
735.549	0.0160123
735.628	0.0158659
735.706	0.0158361
735.784	0.0158594
735.862	0.0157718
735.940	0.0158433
736.018	0.0158600
736.096	0.0158307
736.174	0.0156343
736.253	0.0157184
736.331	0.0156536
736.409	0.0156213
736.487	0.0156495
736.565	0.0156758
736.643	0.0157544
736.721	0.0157049
736.799	0.0156274
736.878	0.0156670
736.956	0.0157021
737.034	0.0155923
737.112	0.0156422
737.190	0.0155613
737.268	0.0155456
737.346	0.0154417
737.424	0.0154494
737.503	0.0154975
737.581	0.0155899
737.659	0.0155077
737.737	0.0154470
737.815	0.0154577
737.893	0.0154278
737.971	0.0153998
738.049	0.0153769
738.128	0.0154086
738.206	0.0155965
738.284	0.0153635
738.362	0.0154639
738.440	0.0155888
738.518	0.0155631
738.596	0.0155349
738.674	0.0156411
738.753	0.0154976
738.831	0.0155446
738.909	0.0156193
738.987	0.0156548
739.065	0.0156018
739.143	0.0157088
739.221	0.0157729
739.299	0.0158053
739.378	0.0158659
739.456	0.0158203
739.534	0.0158830
739.612	0.0158189
739.690	0.0158894
739.768	0.0160851
739.846	0.0159267
739.924	0.0159633
740.003	0.0160866
740.081	0.0159985
740.159	0.0159946
740.237	0.0159840
740.315	0.0160776
740.393	0.0161163
740.471	0.0159544
740.549	0.0160779
740.628	0.0161095
740.706	0.0159279
740.784	0.0160384
740.862	0.0160194
740.940	0.0161833
741.018	0.0160650
741.096	0.0161089
741.174	0.0159689
741.253	0.0160441
741.331	0.0160976
741.409	0.0160102
741.487	0.0160357
741.565	0.0160833
741.643	0.0160899
741.721	0.0162940
741.799	0.0160980
741.878	0.0160884
741.956	0.0159753
742.034	0.0160161
742.112	0.0160791
742.190	0.0160999
742.268	0.0160536
742.346	0.0160174
742.424	0.0159998
742.503	0.0160460
742.581	0.0159258
742.659	0.0158575
742.737	0.0159128
742.815	0.0158835
742.893	0.0159280
742.971	0.0159325
743.049	0.0157284
743.128	0.0157792
743.206	0.0157635
743.284	0.0158870
743.362	0.0157760
743.440	0.0157921
743.518	0.0157996
743.596	0.0157217
743.674	0.0155387
743.753	0.0155843
743.831	0.0156535
743.909	0.0155637
743.987	0.0155905
744.065	0.0155406
744.143	0.0155959
744.221	0.0156245
744.299	0.0157246
744.378	0.0155357
744.456	0.0156388
744.534	0.0155705
744.612	0.0155796
744.690	0.0154234
744.768	0.0155827
744.846	0.0156076
744.924	0.0156065
745.003	0.0155817
745.081	0.0155069
745.159	0.0155707
745.237	0.0155462
745.315	0.0155139
745.393	0.0156357
745.471	0.0155399
745.549	0.0155399
745.628	0.0156085
745.706	0.0155006
745.784	0.0157455
745.862	0.0157089
745.940	0.0158344
746.018	0.0157819
746.096	0.0157041
746.174	0.0158710
746.253	0.0158506
746.331	0.0158684
746.409	0.0158875
746.487	0.0157292
746.565	0.0158233
746.643	0.0157864
746.721	0.0159380
746.799	0.0159907
746.878	0.0159674
746.956	0.0159671
747.034	0.0159698
747.112	0.0159669
747.190	0.0159283
747.268	0.0161440
747.346	0.0160541
747.424	0.0159704
747.503	0.0160314
747.581	0.0160991
747.659	0.0160480
747.737	0.0161884
747.815	0.0160165
747.893	0.0160837
747.971	0.0160876
748.049	0.0161326
748.128	0.0160659
748.206	0.0161695
748.284	0.0163055
748.362	0.0161235
748.440	0.0161852
748.518	0.0161741
748.596	0.0161505
748.674	0.0160874
748.753	0.0160784
748.831	0.0161536
748.909	0.0159890
748.987	0.0160667
749.065	0.0161010
749.143	0.0160432
749.221	0.0160667
749.299	0.0160322
749.378	0.0161860
749.456	0.0161562
749.534	0.0159676
749.612	0.0160034
749.690	0.0161021
749.768	0.0162193
749.846	0.0161193
749.924	0.0161030
750.003	0.0159795
750.081	0.0160812
750.159	0.0160030
750.237	0.0159761
750.315	0.0158536
750.393	0.0159473
750.471	0.0158547
750.549	0.0158636
750.628	0.0157942
750.706	0.0158213
750.784	0.0157392
750.862	0.0159530
750.940	0.0157401
751.018	0.0156997
751.096	0.0158628
751.174	0.0157519
751.253	0.0157016
751.331	0.0155712
751.409	0.0157647
751.487	0.0156705
751.565	0.0156486
751.643	0.0157827
751.721	0.0157083
751.799	0.0156999
751.878	0.0156627
751.956	0.0156248
752.034	0.0155744
752.112	0.0157517
752.190	0.0157511
752.268	0.0156840
752.346	0.0156190
752.424	0.0156756
752.503	0.0155802
752.581	0.0155975
752.659	0.0157378
752.737	0.0155988
752.815	0.0155827
752.893	0.0155679
752.971	0.0155096
753.049	0.0156573
753.128	0.0155640
753.206	0.0157407
753.284	0.0156315
753.362	0.0157205
753.440	0.0157475
753.518	0.0158244
753.596	0.0158820
753.674	0.0157760
753.753	0.0158266
753.831	0.0159874
753.909	0.0158665
753.987	0.0159260
754.065	0.0160081
754.143	0.0158780
754.221	0.0158628
754.299	0.0162257
754.378	0.0160252
754.456	0.0159293
754.534	0.0161832
754.612	0.0160006
754.690	0.0159713
754.768	0.0159822
754.846	0.0160110
754.924	0.0160642
755.003	0.0160611
755.081	0.0159829
755.159	0.0158703
755.237	0.0159403
755.315	0.0160767
755.393	0.0160181
755.471	0.0159273
755.549	0.0159836
755.628	0.0158643
755.706	0.0158453
755.784	0.0160207
755.862	0.0161320
755.940	0.0159013
756.018	0.0159386
756.096	0.0159743
756.174	0.0160204
756.253	0.0161131
756.331	0.0160417
756.409	0.0159957
756.487	0.0161235
756.565	0.0159930
756.643	0.0160769
756.721	0.0160489
756.799	0.0160169
756.878	0.0159565
756.956	0.0159380
757.034	0.0159140
757.112	0.0160400
757.190	0.0158685
757.268	0.0158552
757.346	0.0159087
757.424	0.0158060
757.503	0.0159647
757.581	0.0159295
757.659	0.0159194
757.737	0.0160057
757.815	0.0157648
757.893	0.0158823
757.971	0.0159450
758.049	0.0159154
758.128	0.0159597
758.206	0.0158873
758.284	0.0156665
758.362	0.0157431
758.440	0.0158387
758.518	0.0157603
758.596	0.0158311
758.674	0.0156306
758.753	0.0156533
758.831	0.0156506
758.909	0.0157005
758.987	0.0156599
759.065	0.0155992
759.143	0.0157826
759.221	0.0157259
759.299	0.0157926
759.378	0.0158233
759.456	0.0157948
759.534	0.0158372
759.612	0.0156512
759.690	0.0156962
759.768	0.0157056
759.846	0.0156495
759.924	0.0157265
760.003	0.0158710
760.081	0.0157678
760.159	0.0157471
760.237	0.0156892
760.315	0.0157363
760.393	0.0155977
760.471	0.0156577
760.549	0.0157211
760.628	0.0156047
760.706	0.0156200
760.784	0.0156228
760.862	0.0156998
760.940	0.0157776
761.018	0.0157796
761.096	0.0158010
761.174	0.0157765
761.253	0.0158148
761.331	0.0158142
761.409	0.0158706
761.487	0.0157585
761.565	0.0157691
761.643	0.0158495
761.721	0.0158354
761.799	0.0159325
761.878	0.0159327
761.956	0.0160321
762.034	0.0158713
762.112	0.0159434
762.190	0.0160064
762.268	0.0160753
762.346	0.0160204
762.424	0.0160721
762.503	0.0159626
762.581	0.0159788
762.659	0.0160191
762.737	0.0159086
762.815	0.0159480
762.893	0.0160658
762.971	0.0160267
763.049	0.0161269
763.128	0.0161884
763.206	0.0161427
763.284	0.0161094
763.362	0.0159945
763.440	0.0160360
763.518	0.0161140
763.596	0.0160439
763.674	0.0159875
763.753	0.0160228
763.831	0.0161227
763.909	0.0160308
763.987	0.0161765
764.065	0.0161641
764.143	0.0161285
764.221	0.0162790
764.299	0.0161147
764.378	0.0161333
764.456	0.0160400
764.534	0.0162064
764.612	0.0161097
764.690	0.0160964
764.768	0.0159669
764.846	0.0160663
764.924	0.0159975
765.003	0.0158985
765.081	0.0159297
765.159	0.0159882
765.237	0.0159078
765.315	0.0159177
765.393	0.0158512
765.471	0.0160101
765.549	0.0157515
765.628	0.0157939
765.706	0.0159884
765.784	0.0157066
765.862	0.0159247
765.940	0.0160154
766.018	0.0159027
766.096	0.0158287
766.174	0.0159718
766.253	0.0159083
766.331	0.0158134
766.409	0.0157092
766.487	0.0157351
766.565	0.0157740
766.643	0.0156489
766.721	0.0157336
766.799	0.0156893
766.878	0.0156560
766.956	0.0155450
767.034	0.0157391
767.112	0.0157932
767.190	0.0158510
767.268	0.0158514
767.346	0.0158564
767.424	0.0157924
767.503	0.0159105
767.581	0.0158838
767.659	0.0158586
767.737	0.0159451
767.815	0.0158337
767.893	0.0158846
767.971	0.0158769
768.049	0.0158729
768.128	0.0158823
768.206	0.0158070
768.284	0.0158289
768.362	0.0156998
768.440	0.0157863
768.518	0.0159261
768.596	0.0159325
768.674	0.0157664
768.753	0.0156694
768.831	0.0158900
768.909	0.0159228
768.987	0.0159861
769.065	0.0159474
769.143	0.0160793
769.221	0.0161135
769.299	0.0159929
769.378	0.0159967
769.456	0.0160751
769.534	0.0159868
769.612	0.0160300
769.690	0.0159377
769.768	0.0159657
769.846	0.0159953
769.924	0.0158685
770.003	0.0161201
770.081	0.0160772
770.159	0.0158204
770.237	0.0159545
770.315	0.0160644
770.393	0.0161254
770.471	0.0160986
770.549	0.0160747
770.628	0.0159702
770.706	0.0159886
770.784	0.0159655
770.862	0.0160283
770.940	0.0159312
771.018	0.0159727
771.096	0.0158855
771.174	0.0158519
771.253	0.0159937
771.331	0.0160760
771.409	0.0159664
771.487	0.0160564
771.565	0.0160345
771.643	0.0159598
771.721	0.0159846
771.799	0.0159336
771.878	0.0159112
771.956	0.0161004
772.034	0.0160309
772.112	0.0160583
772.190	0.0160834
772.268	0.0159080
772.346	0.0159897
772.424	0.0161439
772.503	0.0160091
772.581	0.0160534
772.659	0.0159237
772.737	0.0159654
772.815	0.0160195
772.893	0.0158705
772.971	0.0159274
773.049	0.0158942
773.128	0.0157457
773.206	0.0158404
773.284	0.0157622
773.362	0.0156805
773.440	0.0157891
773.518	0.0157714
773.596	0.0157026
773.674	0.0156657
773.753	0.0158055
773.831	0.0157862
773.909	0.0158605
773.987	0.0157313
774.065	0.0158134
774.143	0.0156789
774.221	0.0157556
774.299	0.0158010
774.378	0.0157663
774.456	0.0159241
774.534	0.0157626
774.612	0.0157353
774.690	0.0157324
774.768	0.0156934
774.846	0.0156262
774.924	0.0156924
775.003	0.0156783
775.081	0.0155829
775.159	0.0157298
775.237	0.0156884
775.315	0.0158009
775.393	0.0158092
775.471	0.0158482
775.549	0.0157511
775.628	0.0157205
775.706	0.0158322
775.784	0.0157710
775.862	0.0157772
775.940	0.0158129
776.018	0.0157740
776.096	0.0158857
776.174	0.0158836
776.253	0.0156990
776.331	0.0155851
776.409	0.0158500
776.487	0.0159348
776.565	0.0159015
776.643	0.0157372
776.721	0.0157585
776.799	0.0158649
776.878	0.0157484
776.956	0.0156875
777.034	0.0157490
777.112	0.0159869
777.190	0.0158339
777.268	0.0157471
777.346	0.0158400
777.424	0.0158107
777.503	0.0158387
777.581	0.0159381
777.659	0.0159772
777.737	0.0159133
777.815	0.0159039
777.893	0.0158956
777.971	0.0158262
778.049	0.0159245
778.128	0.0160358
778.206	0.0160912
778.284	0.0160434
778.362	0.0160084
778.440	0.0159753
778.518	0.0159438
778.596	0.0161440
778.674	0.0161268
778.753	0.0160902
778.831	0.0160329
778.909	0.0159731
778.987	0.0159525
779.065	0.0160129
779.143	0.0159130
779.221	0.0160604
779.299	0.0159550
779.378	0.0159186
779.456	0.0160854
779.534	0.0159640
779.612	0.0159586
779.690	0.0161861
779.768	0.0160521
779.846	0.0158764
779.924	0.0159787
780.003	0.0161254
780.081	0.0161749
780.159	0.0160850
780.237	0.0158623
780.315	0.0158740
780.393	0.0158488
780.471	0.0159307
780.549	0.0159227
780.628	0.0160085
780.706	0.0158295
780.784	0.0158466
780.862	0.0158609
780.940	0.0158782
781.018	0.0157997
781.096	0.0158418
781.174	0.0157261
781.253	0.0155545
781.331	0.0157072
781.409	0.0157554
781.487	0.0157536
781.565	0.0156913
781.643	0.0156912
781.721	0.0156215
781.799	0.0155875
781.878	0.0156283
781.956	0.0156208
782.034	0.0157922
782.112	0.0157495
782.190	0.0157280
782.268	0.0157205
782.346	0.0156818
782.424	0.0156942
782.503	0.0156808
782.581	0.0157330
782.659	0.0156833
782.737	0.0156738
782.815	0.0157892
782.893	0.0157912
782.971	0.0156397
783.049	0.0157677
783.128	0.0158501
783.206	0.0156789
783.284	0.0157195
783.362	0.0158342
783.440	0.0158087
783.518	0.0159222
783.596	0.0157317
783.674	0.0158788
783.753	0.0158368
783.831	0.0157545
783.909	0.0158266
783.987	0.0158028
784.065	0.0159019
784.143	0.0158659
784.221	0.0158887
784.299	0.0159736
784.378	0.0159120
784.456	0.0159351
784.534	0.0158450
784.612	0.0159089
784.690	0.0159394
784.768	0.0159761
784.846	0.0158451
784.924	0.0158353
785.003	0.0159691
785.081	0.0159509
785.159	0.0160341
785.237	0.0158690
785.315	0.0159734
785.393	0.0160455
785.471	0.0161400
785.549	0.0160488
785.628	0.0159959
785.706	0.0159820
785.784	0.0160351
785.862	0.0159389
785.940	0.0158989
786.018	0.0160623
786.096	0.0158044
786.174	0.0159260
786.253	0.0159018
786.331	0.0160744
786.409	0.0160559
786.487	0.0159347
786.565	0.0159673
786.643	0.0160411
786.721	0.0161271
786.799	0.0160509
786.878	0.0159990
786.956	0.0159711
787.034	0.0159426
787.112	0.0160121
787.190	0.0160731
787.268	0.0159644
787.346	0.0158733
787.424	0.0157116
787.503	0.0158770
787.581	0.0158707
787.659	0.0160547
787.737	0.0161285
787.815	0.0159959
787.893	0.0159213
787.971	0.0160042
788.049	0.0160612
788.128	0.0159872
788.206	0.0160181
788.284	0.0161549
788.362	0.0160970
788.440	0.0159555
788.518	0.0159411
788.596	0.0160117
788.674	0.0159997
788.753	0.0160360
788.831	0.0159515
788.909	0.0158424
788.987	0.0159710
789.065	0.0160010
789.143	0.0158971
789.221	0.0158645
789.299	0.0158510
789.378	0.0159351
789.456	0.0158755
789.534	0.0158572
789.612	0.0158413
789.690	0.0158752
789.768	0.0158939
789.846	0.0157639
789.924	0.0158677
790.003	0.0158716
790.081	0.0159097
790.159	0.0159539
790.237	0.0158614
790.315	0.0159473
790.393	0.0159007
790.471	0.0159813
790.549	0.0159614
790.628	0.0158433
790.706	0.0158591
790.784	0.0157583
790.862	0.0158157
790.940	0.0157420
791.018	0.0157315
791.096	0.0156680
791.174	0.0156715
791.253	0.0157948
791.331	0.0158054
791.409	0.0156404
791.487	0.0155923
791.565	0.0155884
791.643	0.0155442
791.721	0.0156976
791.799	0.0156550
791.878	0.0155921
791.956	0.0157099
792.034	0.0158334
792.112	0.0157332
792.190	0.0157520
792.268	0.0158147
792.346	0.0158597
792.424	0.0159808
792.503	0.0158359
792.581	0.0159770
792.659	0.0158741
792.737	0.0159872
792.815	0.0159396
792.893	0.0158083
792.971	0.0158958
793.049	0.0159523
793.128	0.0160206
793.206	0.0159720
793.284	0.0158849
793.362	0.0160584
793.440	0.0161543
793.518	0.0161044
793.596	0.0160733
793.674	0.0161437
793.753	0.0161710
793.831	0.0160860
793.909	0.0160392
793.987	0.0160540
794.065	0.0161143
794.143	0.0161104
794.221	0.0160238
794.299	0.0161097
794.378	0.0160461
794.456	0.0159807
794.534	0.0160394
794.612	0.0160548
794.690	0.0160805
794.768	0.0159411
794.846	0.0161052
794.924	0.0160081
795.003	0.0158569
795.081	0.0159343
795.159	0.0159733
795.237	0.0158775
795.315	0.0158501
795.393	0.0158544
795.471	0.0158884
795.549	0.0157912
795.628	0.0157098
795.706	0.0158193
795.784	0.0156706
795.862	0.0157852
795.940	0.0159294
796.018	0.0159422
796.096	0.0158991
796.174	0.0158142
796.253	0.0160429
796.331	0.0157533
796.409	0.0158558
796.487	0.0157716
796.565	0.0157741
796.643	0.0159032
796.721	0.0158777
796.799	0.0158436
796.878	0.0158861
796.956	0.0157874
797.034	0.0157877
797.112	0.0157391
797.190	0.0158817
797.268	0.0159411
797.346	0.0158035
797.424	0.0157595
797.503	0.0157127
797.581	0.0157057
797.659	0.0156966
797.737	0.0158272
797.815	0.0157430
797.893	0.0156310
797.971	0.0158546
798.049	0.0156779
798.128	0.0156625
798.206	0.0156968
798.284	0.0157596
798.362	0.0156850
798.440	0.0156280
798.518	0.0157459
798.596	0.0158197
798.674	0.0156847
798.753	0.0158682
798.831	0.0157032
798.909	0.0158112
798.987	0.0158717
799.065	0.0158782
799.143	0.0158202
799.221	0.0157899
799.299	0.0157244
799.378	0.0157938
799.456	0.0160059
799.534	0.0159348
799.612	0.0158610
799.690	0.0159092
799.768	0.0158710
799.846	0.0157539
799.924	0.0157571
800.003	0.0158178
800.081	0.0158825
800.159	0.0159788
800.237	0.0159673
800.315	0.0160268
800.393	0.0159758
800.471	0.0159343
800.549	0.0160159
800.628	0.0160379
800.706	0.0160722
800.784	0.0158425
800.862	0.0159805
800.940	0.0158820
801.018	0.0160025
801.096	0.0159801
801.174	0.0158471
801.253	0.0159666
801.331	0.0159745
801.409	0.0160112
801.487	0.0159046
801.565	0.0159195
801.643	0.0158868
801.721	0.0158331
801.799	0.0158655
801.878	0.0159498
801.956	0.0159918
802.034	0.0162956
802.112	0.0159787
802.190	0.0159306
802.268	0.0160175
802.346	0.0160172
802.424	0.0159185
802.503	0.0159383
802.581	0.0160062
802.659	0.0160352
802.737	0.0157800
802.815	0.0158378
802.893	0.0160391
802.971	0.0159988
803.049	0.0158694
803.128	0.0158904
803.206	0.0158969
803.284	0.0158443
803.362	0.0158037
803.440	0.0158330
803.518	0.0159253
803.596	0.0157417
803.674	0.0156836
803.753	0.0158723
803.831	0.0158527
803.909	0.0156849
803.987	0.0157147
804.065	0.0157307
804.143	0.0156797
804.221	0.0158229
804.299	0.0157079
804.378	0.0157176
804.456	0.0157872
804.534	0.0157557
804.612	0.0157059
804.690	0.0157937
804.768	0.0157627
804.846	0.0158380
804.924	0.0156495
805.003	0.0157685
805.081	0.0157595
805.159	0.0156412
805.237	0.0156857
805.315	0.0156871
805.393	0.0157069
805.471	0.0156855
805.549	0.0157063
805.628	0.0156608
805.706	0.0157645
805.784	0.0156275
805.862	0.0157645
805.940	0.0158273
806.018	0.0157107
806.096	0.0157596
806.174	0.0156522
806.253	0.0157242
806.331	0.0156796
806.409	0.0156407
806.487	0.0157210
806.565	0.0157391
806.643	0.0157577
806.721	0.0157502
806.799	0.0157420
806.878	0.0158727
806.956	0.0157941
807.034	0.0156860
807.112	0.0158929
807.190	0.0157030
807.268	0.0158098
807.346	0.0158148
807.424	0.0158379
807.503	0.0158173
807.581	0.0158298
807.659	0.0158926
807.737	0.0159140
807.815	0.0157389
807.893	0.0159012
807.971	0.0159167
808.049	0.0159588
808.128	0.0160117
808.206	0.0158680
808.284	0.0159051
808.362	0.0159840
808.440	0.0159450
808.518	0.0159708
808.596	0.0158154
808.674	0.0158850
808.753	0.0161646
808.831	0.0161576
808.909	0.0160250
808.987	0.0161715
809.065	0.0159804
809.143	0.0160736
809.221	0.0160882
809.299	0.0160072
809.378	0.0160384
809.456	0.0160803
809.534	0.0159986
809.612	0.0160431
809.690	0.0160299
809.768	0.0159621
809.846	0.0160272
809.924	0.0161181
810.003	0.0160010
810.081	0.0161171
810.159	0.0160184
810.237	0.0160199
810.315	0.0158265
810.393	0.0160164
810.471	0.0159417
810.549	0.0159392
810.628	0.0159663
810.706	0.0159154
810.784	0.0158855
810.862	0.0157658
810.940	0.0157523
811.018	0.0157518
811.096	0.0157365
811.174	0.0156871
811.253	0.0157899
811.331	0.0157818
811.409	0.0156223
811.487	0.0156863
811.565	0.0157877
811.643	0.0156999
811.721	0.0158013
811.799	0.0157871
811.878	0.0158515
811.956	0.0158307
812.034	0.0156790
812.112	0.0157907
812.190	0.0157864
812.268	0.0157732
812.346	0.0156076
812.424	0.0157027
812.503	0.0155843
812.581	0.0156335
812.659	0.0156170
812.737	0.0156823
812.815	0.0156374
812.893	0.0157511
812.971	0.0156496
813.049	0.0156836
813.128	0.0156922
813.206	0.0158558
813.284	0.0156139
813.362	0.0157336
813.440	0.0156496
813.518	0.0156732
813.596	0.0157810
813.674	0.0157220
813.753	0.0157443
813.831	0.0157588
813.909	0.0158640
813.987	0.0156944
814.065	0.0156712
814.143	0.0158500
814.221	0.0157635
814.299	0.0157129
814.378	0.0158567
814.456	0.0157350
814.534	0.0157146
814.612	0.0158823
814.690	0.0157166
814.768	0.0157933
814.846	0.0158239
814.924	0.0158942
815.003	0.0158685
815.081	0.0158788
815.159	0.0159766
815.237	0.0158107
815.315	0.0159384
815.393	0.0159217
815.471	0.0159888
815.549	0.0160412
815.628	0.0160513
815.706	0.0159603
815.784	0.0159561
815.862	0.0159597
815.940	0.0160316
816.018	0.0160505
816.096	0.0159164
816.174	0.0159734
816.253	0.0159779
816.331	0.0159453
816.409	0.0159807
816.487	0.0158837
816.565	0.0160002
816.643	0.0158349
816.721	0.0159535
816.799	0.0159512
816.878	0.0158458
816.956	0.0159276
817.034	0.0159793
817.112	0.0158295
817.190	0.0157903
817.268	0.0158675
817.346	0.0159737
817.424	0.0158223
817.503	0.0157993
817.581	0.0157250
817.659	0.0158253
817.737	0.0159215
817.815	0.0157367
817.893	0.0158504
817.971	0.0157947
818.049	0.0158540
818.128	0.0158162
818.206	0.0158951
818.284	0.0159737
818.362	0.0158536
818.440	0.0159098
818.518	0.0158991
818.596	0.0158829
818.674	0.0159460
818.753	0.0159177
818.831	0.0158138
818.909	0.0157530
818.987	0.0158189
819.065	0.0158418
819.143	0.0157492
819.221	0.0158143
819.299	0.0158523
819.378	0.0157548
819.456	0.0157497
819.534	0.0158604
819.612	0.0158876
819.690	0.0158017
819.768	0.0156659
819.846	0.0158524
819.924	0.0157695
820.003	0.0157901
820.081	0.0157475
820.159	0.0158606
820.237	0.0157703
820.315	0.0157458
820.393	0.0159883
820.471	0.0158749
820.549	0.0158756
820.628	0.0157983
820.706	0.0157671
820.784	0.0159309
820.862	0.0158511
820.940	0.0158791
821.018	0.0158969
821.096	0.0158843
821.174	0.0159686
821.253	0.0158385
821.331	0.0157272
821.409	0.0158872
821.487	0.0157328
821.565	0.0159322
821.643	0.0159232
821.721	0.0159330
821.799	0.0159497
821.878	0.0158820
821.956	0.0158410
822.034	0.0159469
822.112	0.0159230
822.190	0.0159628
822.268	0.0159311
822.346	0.0157159
822.424	0.0159484
822.503	0.0160192
822.581	0.0160119
822.659	0.0158475
822.737	0.0159859
822.815	0.0159435
822.893	0.0158915
822.971	0.0160759
823.049	0.0159346
823.128	0.0158199
823.206	0.0159513
823.284	0.0160249
823.362	0.0160510
823.440	0.0158771
823.518	0.0160795
823.596	0.0158269
823.674	0.0159970
823.753	0.0160297
823.831	0.0160486
823.909	0.0160156
823.987	0.0161550
824.065	0.0158688
824.143	0.0159568
824.221	0.0158395
824.299	0.0158826
824.378	0.0158902
824.456	0.0159105
824.534	0.0160180
824.612	0.0159592
824.690	0.0158932
824.768	0.0159293
824.846	0.0158167
824.924	0.0158782
825.003	0.0159118
825.081	0.0160077
825.159	0.0159528
825.237	0.0159450
825.315	0.0158524
825.393	0.0158831
825.471	0.0160455
825.549	0.0159637
825.628	0.0160220
825.706	0.0159656
825.784	0.0159595
825.862	0.0158797
825.940	0.0158787
826.018	0.0158996
826.096	0.0158289
826.174	0.0160468
826.253	0.0159800
826.331	0.0159443
826.409	0.0159806
826.487	0.0158410
826.565	0.0159633
826.643	0.0159057
826.721	0.0160238
826.799	0.0158781
826.878	0.0159308
826.956	0.0158036
827.034	0.0159326
827.112	0.0159199
827.190	0.0159969
827.268	0.0158212
827.346	0.0159538
827.424	0.0157485
827.503	0.0157516
827.581	0.0157427
827.659	0.0157824
827.737	0.0158392
827.815	0.0159536
827.893	0.0157092
827.971	0.0158258
828.049	0.0158083
828.128	0.0157551
828.206	0.0159386
828.284	0.0157178
828.362	0.0157542
828.440	0.0158540
828.518	0.0158390
828.596	0.0158608
828.674	0.0157735
828.753	0.0157706
828.831	0.0157119
828.909	0.0157927
828.987	0.0157690
829.065	0.0158198
829.143	0.0158093
829.221	0.0158345
829.299	0.0157163
829.378	0.0157896
829.456	0.0158544
829.534	0.0157755
829.612	0.0157804
829.690	0.0158962
829.768	0.0158528
829.846	0.0158267
829.924	0.0158278
830.003	0.0158985
830.081	0.0158848
830.159	0.0160408
830.237	0.0158316
830.315	0.0159915
830.393	0.0158890
830.471	0.0159386
830.549	0.0159074
830.628	0.0157423
830.706	0.0158199
830.784	0.0159227
830.862	0.0159006
830.940	0.0160162
831.018	0.0160247
831.096	0.0157677
831.174	0.0158088
831.253	0.0159227
831.331	0.0160560
831.409	0.0157797
831.487	0.0158251
831.565	0.0157345
831.643	0.0158815
831.721	0.0158416
831.799	0.0158121
831.878	0.0159196
831.956	0.0158319
832.034	0.0159290
832.112	0.0158789
832.190	0.0158147
832.268	0.0158095
832.346	0.0157880
832.424	0.0160530
832.503	0.0159192
832.581	0.0157460
832.659	0.0158164
832.737	0.0158208
832.815	0.0159216
832.893	0.0158802
832.971	0.0157146
833.049	0.0157317
833.128	0.0157676
833.206	0.0158604
833.284	0.0157992
833.362	0.0159440
833.440	0.0158044
833.518	0.0156860
833.596	0.0157987
833.674	0.0158023
833.753	0.0157795
833.831	0.0158818
833.909	0.0158949
833.987	0.0157968
834.065	0.0158550
834.143	0.0158273
834.221	0.0159795
834.299	0.0158810
834.378	0.0157280
834.456	0.0157794
834.534	0.0156955
834.612	0.0156221
834.690	0.0156093
834.768	0.0156490
834.846	0.0158257
834.924	0.0157678
835.003	0.0157109
835.081	0.0157891
835.159	0.0157600
835.237	0.0155406
835.315	0.0157422
835.393	0.0158047
835.471	0.0157317
835.549	0.0157123
835.628	0.0158332
835.706	0.0157934
835.784	0.0156831
835.862	0.0156123
835.940	0.0156488
836.018	0.0158294
836.096	0.0158529
836.174	0.0157431
836.253	0.0157272
836.331	0.0157072
836.409	0.0157915
836.487	0.0158784
836.565	0.0157483
836.643	0.0157671
836.721	0.0157101
836.799	0.0158660
836.878	0.0158443
836.956	0.0156831
837.034	0.0155987
837.112	0.0156284
837.190	0.0156955
837.268	0.0157220
837.346	0.0156462
837.424	0.0157647
837.503	0.0158215
837.581	0.0156419
837.659	0.0157473
837.737	0.0156963
837.815	0.0158011
837.893	0.0157874
837.971	0.0156959
838.049	0.0157273
838.128	0.0159289
838.206	0.0157348
838.284	0.0157388
838.362	0.0157813
838.440	0.0157912
838.518	0.0158564
838.596	0.0157761
838.674	0.0159150
838.753	0.0158640
838.831	0.0158212
838.909	0.0157587
838.987	0.0158830
839.065	0.0158744
839.143	0.0158855
839.221	0.0158208
839.299	0.0158595
839.378	0.0158951
839.456	0.0158582
839.534	0.0158630
839.612	0.0159254
839.690	0.0160457
839.768	0.0159848
839.846	0.0158276
839.924	0.0159404
840.003	0.0160044
840.081	0.0159568
840.159	0.0159419
840.237	0.0159428
840.315	0.0158856
840.393	0.0159002
840.471	0.0160017
840.549	0.0159191
840.628	0.0158875
840.706	0.0159218
840.784	0.0159837
840.862	0.0159542
840.940	0.0160136
841.018	0.0159526
841.096	0.0159183
841.174	0.0159703
841.253	0.0159032
841.331	0.0159379
841.409	0.0160037
841.487	0.0159321
841.565	0.0158493
841.643	0.0159750
841.721	0.0158561
841.799	0.0159465
841.878	0.0158657
841.956	0.0158896
842.034	0.0159167
842.112	0.0158278
842.190	0.0158849
842.268	0.0160612
842.346	0.0160735
842.424	0.0158665
842.503	0.0160084
842.581	0.0160183
842.659	0.0158602
842.737	0.0158653
842.815	0.0159710
842.893	0.0159206
842.971	0.0159311
843.049	0.0159954
843.128	0.0159300
843.206	0.0159377
843.284	0.0157716
843.362	0.0159087
843.440	0.0159879
843.518	0.0159374
843.596	0.0159548
843.674	0.0158971
843.753	0.0159653
843.831	0.0159544
843.909	0.0157755
843.987	0.0158944
844.065	0.0159068
844.143	0.0158307
844.221	0.0159759
844.299	0.0160529
844.378	0.0159089
844.456	0.0159370
844.534	0.0160136
844.612	0.0158766
844.690	0.0157435
844.768	0.0158931
844.846	0.0159113
844.924	0.0159466
845.003	0.0158475
845.081	0.0158462
845.159	0.0158688
845.237	0.0158138
845.315	0.0158831
845.393	0.0158360
845.471	0.0158907
845.549	0.0157446
845.628	0.0157166
845.706	0.0158585
845.784	0.0159641
845.862	0.0158270
845.940	0.0158279
846.018	0.0158496
846.096	0.0158769
846.174	0.0160102
846.253	0.0158904
846.331	0.0158513
846.409	0.0160029
846.487	0.0159025
846.565	0.0159435
846.643	0.0159197
846.721	0.0159943
846.799	0.0160602
846.878	0.0160117
846.956	0.0159673
847.034	0.0158841
847.112	0.0158488
847.190	0.0159650
847.268	0.0159140
847.346	0.0158884
847.424	0.0158111
847.503	0.0158579
847.581	0.0159157
847.659	0.0159339
847.737	0.0159770
847.815	0.0159232
847.893	0.0159533
847.971	0.0159239
848.049	0.0158546
848.128	0.0159538
848.206	0.0160027
848.284	0.0160086
848.362	0.0159494
848.440	0.0159843
848.518	0.0158974
848.596	0.0160502
848.674	0.0158440
848.753	0.0157379
848.831	0.0158648
848.909	0.0158511
848.987	0.0158068
849.065	0.0159171
849.143	0.0159552
849.221	0.0158441
849.299	0.0159002
849.378	0.0157681
849.456	0.0158101
849.534	0.0157745
849.612	0.0157940
849.690	0.0158360
849.768	0.0158245
849.846	0.0158010
849.924	0.0158754
850.003	0.0157783
850.081	0.0157211
850.159	0.0158646
850.237	0.0158279
850.315	0.0158877
850.393	0.0158860
850.471	0.0157805
850.549	0.0159299
850.628	0.0159346
850.706	0.0159663
850.784	0.0158167
850.862	0.0159349
850.940	0.0160078
851.018	0.0158947
851.096	0.0157810
851.174	0.0158910
851.253	0.0159247
851.331	0.0158363
851.409	0.0158469
851.487	0.0158155
851.565	0.0158829
851.643	0.0159037
851.721	0.0158898
851.799	0.0157995
851.878	0.0158389
851.956	0.0158842
852.034	0.0158212
852.112	0.0158899
852.190	0.0158543
852.268	0.0159315
852.346	0.0158456
852.424	0.0158680
852.503	0.0158873
852.581	0.0158743
852.659	0.0159701
852.737	0.0159116
852.815	0.0158071
852.893	0.0158707
852.971	0.0158736
853.049	0.0157266
853.128	0.0157741
853.206	0.0158822
853.284	0.0157680
853.362	0.0157433
853.440	0.0157733
853.518	0.0156638
853.596	0.0158353
853.674	0.0158433
853.753	0.0158229
853.831	0.0157648
853.909	0.0156568
853.987	0.0157602
854.065	0.0158370
854.143	0.0158121
854.221	0.0157548
854.299	0.0158131
854.378	0.0157862
854.456	0.0158452
854.534	0.0158808
854.612	0.0159632
854.690	0.0159485
854.768	0.0159711
854.846	0.0158313
854.924	0.0159303
855.003	0.0159655
855.081	0.0158711
855.159	0.0158733
855.237	0.0158594
855.315	0.0159304
855.393	0.0159143
855.471	0.0159366
855.549	0.0159832
855.628	0.0158459
855.706	0.0159815
855.784	0.0159364
855.862	0.0158301
855.940	0.0160123
856.018	0.0159945
856.096	0.0159391
856.174	0.0160627
856.253	0.0158680
856.331	0.0158334
856.409	0.0160651
856.487	0.0160469
856.565	0.0158669
856.643	0.0158549
856.721	0.0158950
856.799	0.0159145
856.878	0.0159829
856.956	0.0158862
857.034	0.0158092
857.112	0.0159733
857.190	0.0159109
857.268	0.0159153
857.346	0.0157867
857.424	0.0157822
857.503	0.0159741
857.581	0.0158549
857.659	0.0158582
857.737	0.0159282
857.815	0.0158916
857.893	0.0158376
857.971	0.0159631
858.049	0.0159554
858.128	0.0159766
858.206	0.0159249
858.284	0.0158349
858.362	0.0157573
858.440	0.0158849
858.518	0.0159149
858.596	0.0158865
858.674	0.0157463
858.753	0.0157238
858.831	0.0158112
858.909	0.0157508
858.987	0.0157632
859.065	0.0158071
859.143	0.0157749
859.221	0.0157679
859.299	0.0156645
859.378	0.0156343
859.456	0.0156075
859.534	0.0158690
859.612	0.0157293
859.690	0.0156785
859.768	0.0157047
859.846	0.0157636
859.924	0.0158107
860.003	0.0158453
860.081	0.0158196
860.159	0.0157920
860.237	0.0157108
860.315	0.0158160
860.393	0.0157967
860.471	0.0158794
860.549	0.0158494
860.628	0.0158508
860.706	0.0158649
860.784	0.0159787
860.862	0.0159039
860.940	0.0158577
861.018	0.0159258
861.096	0.0157808
861.174	0.0157811
861.253	0.0158742
861.331	0.0158566
861.409	0.0157809
861.487	0.0158029
861.565	0.0158630
861.643	0.0158359
861.721	0.0159015
861.799	0.0158547
861.878	0.0159630
861.956	0.0159634
862.034	0.0159155
862.112	0.0159197
862.190	0.0158293
862.268	0.0158662
862.346	0.0159345
862.424	0.0160456
862.503	0.0159720
862.581	0.0159229
862.659	0.0161510
862.737	0.0160728
862.815	0.0160298
862.893	0.0160313
862.971	0.0160438
863.049	0.0160577
863.128	0.0160281
863.206	0.0160580
863.284	0.0159670
863.362	0.0159709
863.440	0.0158977
863.518	0.0159866
863.596	0.0159964
863.674	0.0159240
863.753	0.0157600
863.831	0.0159348
863.909	0.0158279
863.987	0.0159177
864.065	0.0159233
864.143	0.0158291
864.221	0.0159644
864.299	0.0159272
864.378	0.0158657
864.456	0.0159987
864.534	0.0159538
864.612	0.0158179
864.690	0.0159553
864.768	0.0161237
864.846	0.0160343
864.924	0.0159414
865.003	0.0159747
865.081	0.0161137
865.159	0.0159712
865.237	0.0159666
865.315	0.0159216
865.393	0.0158411
865.471	0.0160068
865.549	0.0160570
865.628	0.0159341
865.706	0.0157945
865.784	0.0159940
865.862	0.0158324
865.940	0.0158783
866.018	0.0158913
866.096	0.0158681
866.174	0.0158363
866.253	0.0158119
866.331	0.0158823
866.409	0.0158404
866.487	0.0159031
866.565	0.0158070
866.643	0.0158549
866.721	0.0157989
866.799	0.0158068
866.878	0.0158530
866.956	0.0159708
867.034	0.0158481
867.112	0.0158121
867.190	0.0158448
867.268	0.0159744
867.346	0.0159737
867.424	0.0159577
867.503	0.0158784
867.581	0.0158205
867.659	0.0157893
867.737	0.0158867
867.815	0.0159509
867.893	0.0160123
867.971	0.0158939
868.049	0.0158395
868.128	0.0159078
868.206	0.0159928
868.284	0.0159086
868.362	0.0158941
868.440	0.0158195
868.518	0.0159858
868.596	0.0159579
868.674	0.0160654
868.753	0.0160044
868.831	0.0158962
868.909	0.0158472
868.987	0.0157379
869.065	0.0158897
869.143	0.0159196
869.221	0.0159241
869.299	0.0158761
869.378	0.0160302
869.456	0.0159329
869.534	0.0159834
869.612	0.0158944
869.690	0.0159799
869.768	0.0158880
869.846	0.0159462
869.924	0.0158537
870.003	0.0158759
870.081	0.0159493
870.159	0.0158199
870.237	0.0158346
870.315	0.0158110
870.393	0.0158367
870.471	0.0157717
870.549	0.0157350
870.628	0.0158258
870.706	0.0157709
870.784	0.0158826
870.862	0.0156815
870.940	0.0157693
871.018	0.0157990
871.096	0.0156937
871.174	0.0158755
871.253	0.0157278
871.331	0.0158781
871.409	0.0158092
871.487	0.0158122
871.565	0.0159134
871.643	0.0158771
871.721	0.0158370
871.799	0.0158437
871.878	0.0158128
871.956	0.0159808
872.034	0.0159346
872.112	0.0160197
872.190	0.0159651
872.268	0.0160036
872.346	0.0159845
872.424	0.0158786
872.503	0.0158773
872.581	0.0160445
872.659	0.0159024
872.737	0.0160003
872.815	0.0159723
872.893	0.0158141
872.971	0.0158288
873.049	0.0157019
873.128	0.0159637
873.206	0.0158059
873.284	0.0158158
873.362	0.0159077
873.440	0.0158630
873.518	0.0157896
873.596	0.0158016
873.674	0.0157962
873.753	0.0158319
873.831	0.0156886
873.909	0.0158692
873.987	0.0158881
874.065	0.0157939
874.143	0.0159177
874.221	0.0158181
874.299	0.0158216
874.378	0.0157866
874.456	0.0157388
874.534	0.0158627
874.612	0.0157183
874.690	0.0159281
874.768	0.0159229
874.846	0.0159068
874.924	0.0157043
875.003	0.0156969
875.081	0.0158327
875.159	0.0157933
875.237	0.0157899
875.315	0.0156753
875.393	0.0157917
875.471	0.0157661
875.549	0.0156355
875.628	0.0156747
875.706	0.0157658
875.784	0.0157566
875.862	0.0158057
875.940	0.0156882
876.018	0.0159635
876.096	0.0158694
876.174	0.0157601
876.253	0.0157142
876.331	0.0158258
876.409	0.0158369
876.487	0.0159625
876.565	0.0157948
876.643	0.0158861
876.721	0.0158947
876.799	0.0157684
876.878	0.0158282
876.956	0.0157996
877.034	0.0158712
877.112	0.0159767
877.190	0.0157627
877.268	0.0157231
877.346	0.0158190
877.424	0.0158008
877.503	0.0158316
877.581	0.0159472
877.659	0.0158864
877.737	0.0157977
877.815	0.0158355
877.893	0.0160358
877.971	0.0160049
878.049	0.0159906
878.128	0.0158766
878.206	0.0158580
878.284	0.0157932
878.362	0.0158004
878.440	0.0159695
878.518	0.0158163
878.596	0.0159128
878.674	0.0159000
878.753	0.0158611
878.831	0.0159431
878.909	0.0158914
878.987	0.0160014
879.065	0.0158845
879.143	0.0157262
879.221	0.0159305
879.299	0.0159587
879.378	0.0157402
879.456	0.0158111
879.534	0.0158804
879.612	0.0158630
879.690	0.0157410
879.768	0.0157433
879.846	0.0158382
879.924	0.0159153
880.003	0.0158563
880.081	0.0158530
880.159	0.0158392
880.237	0.0158394
880.315	0.0159105
880.393	0.0159228
880.471	0.0158295
880.549	0.0157738
880.628	0.0157875
880.706	0.0157645
880.784	0.0159579
880.862	0.0157887
880.940	0.0157075
881.018	0.0157907
881.096	0.0158223
881.174	0.0158646
881.253	0.0159516
881.331	0.0158666
881.409	0.0157945
881.487	0.0157878
881.565	0.0156358
881.643	0.0158035
881.721	0.0157715
881.799	0.0157409
881.878	0.0156948
881.956	0.0158443
882.034	0.0157771
882.112	0.0159200
882.190	0.0159092
882.268	0.0158511
882.346	0.0159757
882.424	0.0160062
882.503	0.0157030
882.581	0.0158288
882.659	0.0157853
882.737	0.0156649
882.815	0.0157150
882.893	0.0157538
882.971	0.0158241
883.049	0.0157919
883.128	0.0157864
883.206	0.0157151
883.284	0.0157574
883.362	0.0158401
883.440	0.0159104
883.518	0.0158935
883.596	0.0157349
883.674	0.0159014
883.753	0.0159653
883.831	0.0159969
883.909	0.0159418
883.987	0.0159200
884.065	0.0160149
884.143	0.0159639
884.221	0.0159806
884.299	0.0159144
884.378	0.0159361
884.456	0.0158322
884.534	0.0157987
884.612	0.0158904
884.690	0.0158992
884.768	0.0159158
884.846	0.0160133
884.924	0.0160126
885.003	0.0159880
885.081	0.0159119
885.159	0.0158996
885.237	0.0160071
885.315	0.0158989
885.393	0.0159145
885.471	0.0158516
885.549	0.0159955
885.628	0.0159236
885.706	0.0159589
885.784	0.0159650
885.862	0.0159518
885.940	0.0158842
886.018	0.0158400
886.096	0.0158862
886.174	0.0159366
886.253	0.0160852
886.331	0.0157712
886.409	0.0159162
886.487	0.0158753
886.565	0.0158318
886.643	0.0158305
886.721	0.0158962
886.799	0.0159011
886.878	0.0157854
886.956	0.0157745
887.034	0.0159566
887.112	0.0159766
887.190	0.0157720
887.268	0.0158556
887.346	0.0158742
887.424	0.0158736
887.503	0.0159566
887.581	0.0159832
887.659	0.0160417
887.737	0.0160041
887.815	0.0159344
887.893	0.0160890
887.971	0.0160404
888.049	0.0160133
888.128	0.0159676
888.206	0.0159110
888.284	0.0159435
888.362	0.0161018
888.440	0.0160587
888.518	0.0159222
888.596	0.0159093
888.674	0.0160918
888.753	0.0159415
888.831	0.0158434
888.909	0.0159153
888.987	0.0158647
889.065	0.0159412
889.143	0.0159052
889.221	0.0157339
889.299	0.0160338
889.378	0.0160238
889.456	0.0159414
889.534	0.0159054
889.612	0.0159357
889.690	0.0158809
889.768	0.0160246
889.846	0.0160558
889.924	0.0159637
890.003	0.0159515
890.081	0.0160936
890.159	0.0161057
890.237	0.0161388
890.315	0.0159516
890.393	0.0158920
890.471	0.0158125
890.549	0.0158987
890.628	0.0159534
890.706	0.0158626
890.784	0.0159658
890.862	0.0159817
890.940	0.0157958
891.018	0.0157594
891.096	0.0159184
891.174	0.0159111
891.253	0.0160092
891.331	0.0157948
891.409	0.0159635
891.487	0.0158857
891.565	0.0159109
891.643	0.0159792
891.721	0.0159078
891.799	0.0158932
891.878	0.0159177
891.956	0.0158385
892.034	0.0158381
892.112	0.0159052
892.190	0.0159251
892.268	0.0159200
892.346	0.0159982
892.424	0.0159450
892.503	0.0159488
892.581	0.0159125
892.659	0.0159037
892.737	0.0159785
892.815	0.0158405
892.893	0.0159361
892.971	0.0158620
893.049	0.0158041
893.128	0.0158606
893.206	0.0157340
893.284	0.0157923
893.362	0.0158961
893.440	0.0159141
893.518	0.0157828
893.596	0.0157128
893.674	0.0157282
893.753	0.0157488
893.831	0.0160257
893.909	0.0160018
893.987	0.0158431
894.065	0.0158154
894.143	0.0159155
894.221	0.0158607
894.299	0.0160130
894.378	0.0159980
894.456	0.0158864
894.534	0.0159809
894.612	0.0159374
894.690	0.0159013
894.768	0.0159050
894.846	0.0159708
894.924	0.0158529
895.003	0.0158797
895.081	0.0158285
895.159	0.0159471
895.237	0.0158956
895.315	0.0156316
895.393	0.0157977
895.471	0.0158798
895.549	0.0159395
895.628	0.0158102
895.706	0.0157682
895.784	0.0158363
895.862	0.0158562
895.940	0.0158333
896.018	0.0158131
896.096	0.0158407
896.174	0.0157870
896.253	0.0158719
896.331	0.0158228
896.409	0.0158098
896.487	0.0156496
896.565	0.0157487
896.643	0.0159267
896.721	0.0158047
896.799	0.0158376
896.878	0.0157668
896.956	0.0157037
897.034	0.0157480
897.112	0.0156712
897.190	0.0158284
897.268	0.0157879
897.346	0.0158195
897.424	0.0157478
897.503	0.0157298
897.581	0.0158579
897.659	0.0158480
897.737	0.0158002
897.815	0.0157455
897.893	0.0156783
897.971	0.0157721
898.049	0.0157540
898.128	0.0157804
898.206	0.0156894
898.284	0.0157146
898.362	0.0157802
898.440	0.0157222
898.518	0.0157666
898.596	0.0157098
898.674	0.0157880
898.753	0.0158710
898.831	0.0157589
898.909	0.0157440
898.987	0.0158140
899.065	0.0157932
899.143	0.0159312
899.221	0.0160907
899.299	0.0160511
899.378	0.0159822
899.456	0.0159282
899.534	0.0157305
899.612	0.0157732
899.690	0.0158186
899.768	0.0158540
899.846	0.0156982
899.924	0.0159051
900.003	0.0157080
900.081	0.0157362
900.159	0.0158203
900.237	0.0158106
900.315	0.0158757
900.393	0.0158739
900.471	0.0157523
900.549	0.0157924
900.628	0.0159545
900.706	0.0158830
900.784	0.0157306
900.862	0.0158158
900.940	0.0158675
901.018	0.0158450
901.096	0.0158264
901.174	0.0159063
901.253	0.0158658
901.331	0.0157981
901.409	0.0158620
901.487	0.0158878
901.565	0.0160300
901.643	0.0158506
901.721	0.0157607
901.799	0.0158825
901.878	0.0157194
901.956	0.0158192
902.034	0.0157474
902.112	0.0158099
902.190	0.0156822
902.268	0.0155902
902.346	0.0158235
902.424	0.0157931
902.503	0.0156489
902.581	0.0158481
902.659	0.0158143
902.737	0.0157835
902.815	0.0157658
902.893	0.0157096
902.971	0.0158712
903.049	0.0158894
903.128	0.0158425
903.206	0.0158007
903.284	0.0158972
903.362	0.0159456
903.440	0.0158469
903.518	0.0160017
903.596	0.0160196
903.674	0.0159596
903.753	0.0158973
903.831	0.0158646
903.909	0.0159010
903.987	0.0158956
904.065	0.0158604
904.143	0.0157658
904.221	0.0159013
904.299	0.0158163
904.378	0.0159702
904.456	0.0157619
904.534	0.0157033
904.612	0.0158564
904.690	0.0158281
904.768	0.0158302
904.846	0.0158353
904.924	0.0158735
905.003	0.0157587
905.081	0.0158920
905.159	0.0157992
905.237	0.0156789
905.315	0.0158290
905.393	0.0157906
905.471	0.0157507
905.549	0.0159621
905.628	0.0158625
905.706	0.0159351
905.784	0.0157686
905.862	0.0157954
905.940	0.0158827
906.018	0.0157875
906.096	0.0156905
906.174	0.0159863
906.253	0.0157821
906.331	0.0158154
906.409	0.0157841
906.487	0.0159348
906.565	0.0158859
906.643	0.0158163
906.721	0.0157430
906.799	0.0157525
906.878	0.0158153
906.956	0.0158604
907.034	0.0157819
907.112	0.0157422
907.190	0.0158157
907.268	0.0158582
907.346	0.0157694
907.424	0.0157903
907.503	0.0158585
907.581	0.0157044
907.659	0.0159592
907.737	0.0158517
907.815	0.0158498
907.893	0.0160120
907.971	0.0158890
908.049	0.0157921
908.128	0.0159225
908.206	0.0159776
908.284	0.0158804
908.362	0.0158520
908.440	0.0159325
908.518	0.0159818
908.596	0.0158698
908.674	0.0158331
908.753	0.0158466
908.831	0.0159382
908.909	0.0160148
908.987	0.0158395
909.065	0.0158917
909.143	0.0159312
909.221	0.0158112
909.299	0.0158652
909.378	0.0157877
909.456	0.0157925
909.534	0.0158347
909.612	0.0158829
909.690	0.0158813
909.768	0.0158909
909.846	0.0159905
909.924	0.0158897
910.003	0.0158908
910.081	0.0159081
910.159	0.0158865
910.237	0.0158654
910.315	0.0158584
910.393	0.0158367
910.471	0.0159096
910.549	0.0158496
910.628	0.0157533
910.706	0.0159376
910.784	0.0159538
910.862	0.0158446
910.940	0.0158498
911.018	0.0158868
911.096	0.0158677
911.174	0.0159139
911.253	0.0158662
911.331	0.0157767
911.409	0.0157552
911.487	0.0158791
911.565	0.0157537
911.643	0.0158633
911.721	0.0158064
911.799	0.0159145
911.878	0.0157352
911.956	0.0158239
912.034	0.0158026
912.112	0.0157972
912.190	0.0158182
912.268	0.0158722
912.346	0.0158028
912.424	0.0159180
912.503	0.0158817
912.581	0.0159214
912.659	0.0158189
912.737	0.0158665
912.815	0.0159909
912.893	0.0159799
912.971	0.0159966
913.049	0.0159420
913.128	0.0158942
913.206	0.0158311
913.284	0.0161139
913.362	0.0159504
913.440	0.0158929
913.518	0.0160090
913.596	0.0159101
913.674	0.0158430
913.753	0.0159347
913.831	0.0158654
913.909	0.0159370
913.987	0.0158964
914.065	0.0160259
914.143	0.0159637
914.221	0.0158984
914.299	0.0159064
914.378	0.0159243
914.456	0.0159331
914.534	0.0159030
914.612	0.0158966
914.690	0.0158953
914.768	0.0159811
914.846	0.0158611
914.924	0.0157356
915.003	0.0157942
915.081	0.0159215
915.159	0.0158801
915.237	0.0159771
915.315	0.0158356
915.393	0.0156878
915.471	0.0158281
915.549	0.0157619
915.628	0.0157847
915.706	0.0158173
915.784	0.0157851
915.862	0.0158379
915.940	0.0159287
916.018	0.0159435
916.096	0.0156749
916.174	0.0157221
916.253	0.0157317
916.331	0.0158776
916.409	0.0158746
916.487	0.0159036
916.565	0.0158628
916.643	0.0156900
916.721	0.0157671
916.799	0.0158731
916.878	0.0157863
916.956	0.0158833
917.034	0.0159666
917.112	0.0158000
917.190	0.0159693
917.268	0.0157211
917.346	0.0157765
917.424	0.0160277
917.503	0.0160416
917.581	0.0158430
917.659	0.0158458
917.737	0.0160185
917.815	0.0158047
917.893	0.0158887
917.971	0.0158401
918.049	0.0159353
918.128	0.0158527
918.206	0.0159539
918.284	0.0158189
918.362	0.0158850
918.440	0.0158694
918.518	0.0158764
918.596	0.0158511
918.674	0.0157819
918.753	0.0158525
918.831	0.0159179
918.909	0.0158440
918.987	0.0157852
919.065	0.0158959
919.143	0.0158566
919.221	0.0158411
919.299	0.0157838
919.378	0.0158876
919.456	0.0158485
919.534	0.0158598
919.612	0.0159532
919.690	0.0159734
919.768	0.0158457
919.846	0.0159975
919.924	0.0160368
920.003	0.0157967
920.081	0.0160508
920.159	0.0159607
920.237	0.0159554
920.315	0.0159402
920.393	0.0160087
920.471	0.0159418
920.549	0.0160058
920.628	0.0160038
920.706	0.0159139
920.784	0.0159327
920.862	0.0159333
920.940	0.0159089
921.018	0.0158324
921.096	0.0158765
921.174	0.0159690
921.253	0.0160180
921.331	0.0159348
921.409	0.0158723
921.487	0.0158884
921.565	0.0160182
921.643	0.0159674
921.721	0.0160273
921.799	0.0159097
921.878	0.0159753
921.956	0.0159470
922.034	0.0159352
922.112	0.0158469
922.190	0.0158794
922.268	0.0158939
922.346	0.0159669
922.424	0.0159412
922.503	0.0159252
922.581	0.0159064
922.659	0.0157755
922.737	0.0159702
922.815	0.0160123
922.893	0.0160963
922.971	0.0159505
923.049	0.0158876
923.128	0.0158696
923.206	0.0158690
923.284	0.0159052
923.362	0.0159055
923.440	0.0158212
923.518	0.0159838
923.596	0.0157169
923.674	0.0158392
923.753	0.0159231
923.831	0.0159162
923.909	0.0158365
923.987	0.0158318
924.065	0.0159205
924.143	0.0158009
924.221	0.0157866
924.299	0.0158549
924.378	0.0158285
924.456	0.0158656
924.534	0.0159819
924.612	0.0159913
924.690	0.0159537
924.768	0.0159097
924.846	0.0159111
924.924	0.0159644
925.003	0.0158913
925.081	0.0158540
925.159	0.0160712
925.237	0.0161526
925.315	0.0157945
925.393	0.0158186
925.471	0.0157655
925.549	0.0158989
925.628	0.0159828
925.706	0.0159371
925.784	0.0159217
925.862	0.0158672
925.940	0.0159631
926.018	0.0158826
926.096	0.0159389
926.174	0.0159232
926.253	0.0158300
926.331	0.0159655
926.409	0.0159648
926.487	0.0158496
926.565	0.0159762
926.643	0.0158969
926.721	0.0158046
926.799	0.0159103
926.878	0.0160167
926.956	0.0159116
927.034	0.0159534
927.112	0.0159564
927.190	0.0159780
927.268	0.0158848
927.346	0.0158671
927.424	0.0159074
927.503	0.0159245
927.581	0.0160497
927.659	0.0159064
927.737	0.0158831
927.815	0.0159589
927.893	0.0159894
927.971	0.0158865
928.049	0.0159800
928.128	0.0159927
928.206	0.0159338
928.284	0.0159441
928.362	0.0158592
928.440	0.0159174
928.518	0.0157998
928.596	0.0158206
928.674	0.0158800
928.753	0.0159297
928.831	0.0158397
928.909	0.0158051
928.987	0.0160561
929.065	0.0159199
929.143	0.0157760
929.221	0.0159436
929.299	0.0159550
929.378	0.0160632
929.456	0.0159031
929.534	0.0158236
929.612	0.0158044
929.690	0.0159724
929.768	0.0160907
929.846	0.0159700
929.924	0.0159200
930.003	0.0158814
930.081	0.0159865
930.159	0.0159515
930.237	0.0159191
930.315	0.0158456
930.393	0.0158821
930.471	0.0160321
930.549	0.0159274
930.628	0.0159214
930.706	0.0159877
930.784	0.0158570
930.862	0.0158453
930.940	0.0160274
931.018	0.0157767
931.096	0.0158694
931.174	0.0158047
931.253	0.0159158
931.331	0.0160090
931.409	0.0157669
931.487	0.0158855
931.565	0.0159267
931.643	0.0158054
931.721	0.0157370
931.799	0.0159753
931.878	0.0158980
931.956	0.0157903
932.034	0.0156605
932.112	0.0157318
932.190	0.0159534
932.268	0.0158681
932.346	0.0158330
932.424	0.0157008
932.503	0.0157630
932.581	0.0158189
932.659	0.0156236
932.737	0.0158593
932.815	0.0157757
932.893	0.0157593
932.971	0.0158263
933.049	0.0158337
933.128	0.0159629
933.206	0.0157227
933.284	0.0157852
933.362	0.0157111
933.440	0.0158217
933.518	0.0157318
933.596	0.0158365
933.674	0.0158281
933.753	0.0157587
933.831	0.0157460
933.909	0.0157346
933.987	0.0157553
934.065	0.0158368
934.143	0.0156899
934.221	0.0157030
934.299	0.0158139
934.378	0.0157649
934.456	0.0156928
934.534	0.0157842
934.612	0.0158317
934.690	0.0158199
934.768	0.0158148
934.846	0.0157973
934.924	0.0159451
935.003	0.0159538
935.081	0.0159666
935.159	0.0157177
935.237	0.0159135
935.315	0.0158626
935.393	0.0158321
935.471	0.0159315
935.549	0.0159634
935.628	0.0158564
935.706	0.0158914
935.784	0.0158751
935.862	0.0158984
935.940	0.0159007
936.018	0.0160277
936.096	0.0157742
936.174	0.0158645
936.253	0.0159077
936.331	0.0159140
936.409	0.0158691
936.487	0.0158515
936.565	0.0157966
936.643	0.0158246
936.721	0.0157280
936.799	0.0158675
936.878	0.0159206
936.956	0.0158085
937.034	0.0157540
937.112	0.0157322
937.190	0.0158166
937.268	0.0159405
937.346	0.0157864
937.424	0.0158795
937.503	0.0160229
937.581	0.0159026
937.659	0.0159148
937.737	0.0160014
937.815	0.0159510
937.893	0.0159061
937.971	0.0158889
938.049	0.0158307
938.128	0.0159717
938.206	0.0160281
938.284	0.0158494
938.362	0.0158804
938.440	0.0159337
938.518	0.0159521
938.596	0.0158247
938.674	0.0159544
938.753	0.0158604
938.831	0.0158210
938.909	0.0158799
938.987	0.0159090
939.065	0.0158415
939.143	0.0157600
939.221	0.0158290
939.299	0.0158544
939.378	0.0157868
939.456	0.0158378
939.534	0.0158520
939.612	0.0157562
939.690	0.0160081
939.768	0.0159328
939.846	0.0159314
939.924	0.0158173
940.003	0.0159183
940.081	0.0159056
940.159	0.0159332
940.237	0.0158983
940.315	0.0158246
940.393	0.0158323
940.471	0.0159509
940.549	0.0159646
940.628	0.0159517
940.706	0.0159000
940.784	0.0158705
940.862	0.0158996
940.940	0.0158823
941.018	0.0158503
941.096	0.0157306
941.174	0.0159998
941.253	0.0160258
941.331	0.0158636
941.409	0.0158107
941.487	0.0159365
941.565	0.0158604
941.643	0.0158337
941.721	0.0158865
941.799	0.0159017
941.878	0.0159741
941.956	0.0158916
942.034	0.0157555
942.112	0.0159070
942.190	0.0160551
942.268	0.0159943
942.346	0.0158710
942.424	0.0160144
942.503	0.0159106
942.581	0.0159962
942.659	0.0160933
942.737	0.0159028
942.815	0.0159464
942.893	0.0160251
942.971	0.0159855
943.049	0.0158360
943.128	0.0159461
943.206	0.0159863
943.284	0.0158887
943.362	0.0160229
943.440	0.0159184
943.518	0.0157973
943.596	0.0159203
943.674	0.0158311
943.753	0.0157815
943.831	0.0159962
943.909	0.0160473
943.987	0.0160076
944.065	0.0158805
944.143	0.0159370
944.221	0.0160567
944.299	0.0160551
944.378	0.0159174
944.456	0.0159940
944.534	0.0159354
944.612	0.0161401
944.690	0.0160732
944.768	0.0160632
944.846	0.0160253
944.924	0.0159713
945.003	0.0160037
945.081	0.0159579
945.159	0.0160062
945.237	0.0160308
945.315	0.0160701
945.393	0.0159902
945.471	0.0159954
945.549	0.0160039
945.628	0.0159789
945.706	0.0160638
945.784	0.0160372
945.862	0.0160217
945.940	0.0160126
946.018	0.0158915
946.096	0.0158258
946.174	0.0159129
946.253	0.0158936
946.331	0.0160278
946.409	0.0158845
946.487	0.0160468
946.565	0.0159431
946.643	0.0159282
946.721	0.0160130
946.799	0.0160575
946.878	0.0159402
946.956	0.0159608
947.034	0.0159424
947.112	0.0159641
947.190	0.0158858
947.268	0.0159655
947.346	0.0161029
947.424	0.0159839
947.503	0.0159876
947.581	0.0160325
947.659	0.0159280
947.737	0.0158865
947.815	0.0159488
947.893	0.0160969
947.971	0.0160648
948.049	0.0159767
948.128	0.0160576
948.206	0.0159506
948.284	0.0160122
948.362	0.0159365
948.440	0.0160123
948.518	0.0158730
948.596	0.0157984
948.674	0.0158941
948.753	0.0160496
948.831	0.0159602
948.909	0.0160828
948.987	0.0158260
949.065	0.0158612
949.143	0.0159537
949.221	0.0159517
949.299	0.0159093
949.378	0.0159610
949.456	0.0159230
949.534	0.0160053
949.612	0.0157692
949.690	0.0157761
949.768	0.0159589
949.846	0.0157442
949.924	0.0158049
