05/19/2022	00:50:03	Ver.	4.1	UNKNOWN
Optical Delay	630.002507	Delta X		0.078125	Sweeps	1	Scan Rate	0/0
Coordinates	Axis 1	NaN	Axis 2	NaN	Axis 3	NaN	Axis 4	NaN	Axis 5	NaN	Axis 6	0.000000
TX Power	0.000000	RX Power	0.000000

630.003	0.0165944
630.081	0.0165916
630.159	0.0166176
630.237	0.0165370
630.315	0.0165477
630.393	0.0165137
630.471	0.0165409
630.549	0.0166052
630.628	0.0165259
630.706	0.0165578
630.784	0.0165605
630.862	0.0164159
630.940	0.0166389
631.018	0.0164638
631.096	0.0165952
631.174	0.0166034
631.253	0.0166289
631.331	0.0166158
631.409	0.0164893
631.487	0.0166157
631.565	0.0164122
631.643	0.0166158
631.721	0.0165729
631.799	0.0166006
631.878	0.0164011
631.956	0.0165054
632.034	0.0165953
632.112	0.0165475
632.190	0.0165463
632.268	0.0165366
632.346	0.0165668
632.424	0.0166218
632.503	0.0165876
632.581	0.0164798
632.659	0.0165845
632.737	0.0165118
632.815	0.0165511
632.893	0.0165655
632.971	0.0165408
633.049	0.0166724
633.128	0.0163832
633.206	0.0164407
633.284	0.0164999
633.362	0.0165726
633.440	0.0164628
633.518	0.0164319
633.596	0.0164980
633.674	0.0164562
633.753	0.0165816
633.831	0.0164365
633.909	0.0165566
633.987	0.0164103
634.065	0.0164001
634.143	0.0165583
634.221	0.0166184
634.299	0.0165567
634.378	0.0165639
634.456	0.0165388
634.534	0.0164838
634.612	0.0163963
634.690	0.0165362
634.768	0.0164834
634.846	0.0164896
634.924	0.0165720
635.003	0.0165942
635.081	0.0164768
635.159	0.0164689
635.237	0.0165265
635.315	0.0164793
635.393	0.0164218
635.471	0.0164322
635.549	0.0164459
635.628	0.0165852
635.706	0.0163542
635.784	0.0164784
635.862	0.0164834
635.940	0.0165831
636.018	0.0164941
636.096	0.0165113
636.174	0.0164705
636.253	0.0164732
636.331	0.0163474
636.409	0.0164895
636.487	0.0165077
636.565	0.0164433
636.643	0.0165118
636.721	0.0165340
636.799	0.0163773
636.878	0.0164429
636.956	0.0165001
637.034	0.0164481
637.112	0.0164391
637.190	0.0164758
637.268	0.0165004
637.346	0.0164966
637.424	0.0164572
637.503	0.0165189
637.581	0.0164722
637.659	0.0164286
637.737	0.0164011
637.815	0.0164510
637.893	0.0164574
637.971	0.0163845
638.049	0.0164777
638.128	0.0164596
638.206	0.0164733
638.284	0.0164886
638.362	0.0165386
638.440	0.0165691
638.518	0.0165505
638.596	0.0164703
638.674	0.0164397
638.753	0.0164528
638.831	0.0165444
638.909	0.0165099
638.987	0.0165122
639.065	0.0164756
639.143	0.0165058
639.221	0.0163378
639.299	0.0164089
639.378	0.0165646
639.456	0.0165609
639.534	0.0164017
639.612	0.0164503
639.690	0.0164653
639.768	0.0164120
639.846	0.0164133
639.924	0.0164397
640.003	0.0164722
640.081	0.0164113
640.159	0.0165311
640.237	0.0165646
640.315	0.0166061
640.393	0.0166216
640.471	0.0165599
640.549	0.0165208
640.628	0.0166005
640.706	0.0165461
640.784	0.0165203
640.862	0.0165972
640.940	0.0164880
641.018	0.0165384
641.096	0.0165435
641.174	0.0163995
641.253	0.0164841
641.331	0.0163520
641.409	0.0163207
641.487	0.0163789
641.565	0.0165455
641.643	0.0165316
641.721	0.0165235
641.799	0.0165227
641.878	0.0163861
641.956	0.0166456
642.034	0.0164563
642.112	0.0165514
642.190	0.0164952
642.268	0.0165948
642.346	0.0165008
642.424	0.0166296
642.503	0.0166222
642.581	0.0165733
642.659	0.0164409
642.737	0.0166563
642.815	0.0165685
642.893	0.0163409
642.971	0.0163796
643.049	0.0165360
643.128	0.0164700
643.206	0.0165369
643.284	0.0164913
643.362	0.0165321
643.440	0.0164272
643.518	0.0163267
643.596	0.0164628
643.674	0.0165166
643.753	0.0164739
643.831	0.0165916
643.909	0.0164513
643.987	0.0165428
644.065	0.0166897
644.143	0.0166586
644.221	0.0165526
644.299	0.0164844
644.378	0.0165824
644.456	0.0165282
644.534	0.0167192
644.612	0.0166290
644.690	0.0166269
644.768	0.0165437
644.846	0.0165568
644.924	0.0165752
645.003	0.0165771
645.081	0.0166276
645.159	0.0165670
645.237	0.0165691
645.315	0.0166033
645.393	0.0165351
645.471	0.0165558
645.549	0.0166257
645.628	0.0167460
645.706	0.0165900
645.784	0.0166601
645.862	0.0167023
645.940	0.0166104
646.018	0.0165712
646.096	0.0166122
646.174	0.0166472
646.253	0.0165968
646.331	0.0164482
646.409	0.0165958
646.487	0.0166359
646.565	0.0167120
646.643	0.0165684
646.721	0.0166108
646.799	0.0166112
646.878	0.0165464
646.956	0.0167815
647.034	0.0167388
647.112	0.0166938
647.190	0.0167182
647.268	0.0165915
647.346	0.0168477
647.424	0.0166402
647.503	0.0166257
647.581	0.0167204
647.659	0.0166727
647.737	0.0165959
647.815	0.0166557
647.893	0.0164576
647.971	0.0165029
648.049	0.0164914
648.128	0.0165327
648.206	0.0164990
648.284	0.0164738
648.362	0.0164861
648.440	0.0164771
648.518	0.0165125
648.596	0.0165969
648.674	0.0164721
648.753	0.0165581
648.831	0.0165453
648.909	0.0165088
648.987	0.0164737
649.065	0.0164386
649.143	0.0164526
649.221	0.0166078
649.299	0.0164985
649.378	0.0165411
649.456	0.0164261
649.534	0.0164576
649.612	0.0162606
649.690	0.0162642
649.768	0.0164572
649.846	0.0162606
649.924	0.0164359
650.003	0.0163119
650.081	0.0163069
650.159	0.0163118
650.237	0.0163287
650.315	0.0164201
650.393	0.0164342
650.471	0.0163441
650.549	0.0163063
650.628	0.0164174
650.706	0.0164773
650.784	0.0163899
650.862	0.0166450
650.940	0.0165583
651.018	0.0167186
651.096	0.0166617
651.174	0.0166032
651.253	0.0165314
651.331	0.0166039
651.409	0.0165593
651.487	0.0164893
651.565	0.0165147
651.643	0.0165238
651.721	0.0166808
651.799	0.0165874
651.878	0.0165744
651.956	0.0165933
652.034	0.0165683
652.112	0.0165308
652.190	0.0167263
652.268	0.0165129
652.346	0.0165140
652.424	0.0167020
652.503	0.0165234
652.581	0.0164896
652.659	0.0166733
652.737	0.0166106
652.815	0.0166869
652.893	0.0167717
652.971	0.0164478
653.049	0.0165789
653.128	0.0167300
653.206	0.0165613
653.284	0.0166550
653.362	0.0165383
653.440	0.0166423
653.518	0.0166594
653.596	0.0167254
653.674	0.0168472
653.753	0.0167032
653.831	0.0168276
653.909	0.0168076
653.987	0.0165718
654.065	0.0166599
654.143	0.0166135
654.221	0.0167611
654.299	0.0167116
654.378	0.0166990
654.456	0.0166476
654.534	0.0165604
654.612	0.0167139
654.690	0.0166126
654.768	0.0166659
654.846	0.0166483
654.924	0.0165694
655.003	0.0164966
655.081	0.0165709
655.159	0.0166653
655.237	0.0167711
655.315	0.0167822
655.393	0.0166038
655.471	0.0166481
655.549	0.0166859
655.628	0.0167957
655.706	0.0167833
655.784	0.0168184
655.862	0.0166784
655.940	0.0167262
656.018	0.0167360
656.096	0.0167944
656.174	0.0167691
656.253	0.0166227
656.331	0.0166471
656.409	0.0166189
656.487	0.0163702
656.565	0.0163519
656.643	0.0164706
656.721	0.0164032
656.799	0.0163904
656.878	0.0165004
656.956	0.0163817
657.034	0.0164261
657.112	0.0163343
657.190	0.0163802
657.268	0.0163636
657.346	0.0163242
657.424	0.0164088
657.503	0.0164262
657.581	0.0163207
657.659	0.0163315
657.737	0.0163471
657.815	0.0162437
657.893	0.0163125
657.971	0.0163059
658.049	0.0165592
658.128	0.0164771
658.206	0.0163913
658.284	0.0164769
658.362	0.0165556
658.440	0.0165409
658.518	0.0165745
658.596	0.0165128
658.674	0.0165220
658.753	0.0164664
658.831	0.0163874
658.909	0.0164622
658.987	0.0164327
659.065	0.0163244
659.143	0.0162135
659.221	0.0164607
659.299	0.0163337
659.378	0.0163709
659.456	0.0164305
659.534	0.0162537
659.612	0.0164676
659.690	0.0164073
659.768	0.0165433
659.846	0.0164832
659.924	0.0164095
660.003	0.0163993
660.081	0.0163921
660.159	0.0164644
660.237	0.0166344
660.315	0.0166676
660.393	0.0166965
660.471	0.0165191
660.549	0.0166620
660.628	0.0168362
660.706	0.0166827
660.784	0.0167216
660.862	0.0165144
660.940	0.0164844
661.018	0.0165936
661.096	0.0165021
661.174	0.0165977
661.253	0.0165105
661.331	0.0165190
661.409	0.0166439
661.487	0.0165494
661.565	0.0166007
661.643	0.0164890
661.721	0.0165766
661.799	0.0166011
661.878	0.0165418
661.956	0.0167608
662.034	0.0165579
662.112	0.0165623
662.190	0.0166801
662.268	0.0166720
662.346	0.0165277
662.424	0.0166843
662.503	0.0165356
662.581	0.0167286
662.659	0.0167923
662.737	0.0166306
662.815	0.0165743
662.893	0.0166166
662.971	0.0165355
663.049	0.0166576
663.128	0.0166699
663.206	0.0167366
663.284	0.0166361
663.362	0.0166577
663.440	0.0166480
663.518	0.0167472
663.596	0.0166420
663.674	0.0166229
663.753	0.0167826
663.831	0.0165683
663.909	0.0165431
663.987	0.0166535
664.065	0.0164635
664.143	0.0165580
664.221	0.0166940
664.299	0.0164930
664.378	0.0163891
664.456	0.0163908
664.534	0.0164502
664.612	0.0163341
664.690	0.0163649
664.768	0.0165113
664.846	0.0164848
664.924	0.0165216
665.003	0.0165589
665.081	0.0164996
665.159	0.0164175
665.237	0.0164906
665.315	0.0165024
665.393	0.0166754
665.471	0.0167495
665.549	0.0166418
665.628	0.0169821
665.706	0.0167566
665.784	0.0168060
665.862	0.0167722
665.940	0.0166794
666.018	0.0167800
666.096	0.0166926
666.174	0.0168463
666.253	0.0166162
666.331	0.0164174
666.409	0.0165810
666.487	0.0166550
666.565	0.0165408
666.643	0.0166262
666.721	0.0164418
666.799	0.0163934
666.878	0.0164716
666.956	0.0164296
667.034	0.0164264
667.112	0.0165275
667.190	0.0163705
667.268	0.0162801
667.346	0.0165529
667.424	0.0165427
667.503	0.0165156
667.581	0.0165750
667.659	0.0164692
667.737	0.0165009
667.815	0.0165246
667.893	0.0165908
667.971	0.0165845
668.049	0.0166328
668.128	0.0164974
668.206	0.0165601
668.284	0.0165778
668.362	0.0166528
668.440	0.0166338
668.518	0.0166495
668.596	0.0166233
668.674	0.0167374
668.753	0.0166206
668.831	0.0166471
668.909	0.0166712
668.987	0.0165913
669.065	0.0165979
669.143	0.0164607
669.221	0.0165343
669.299	0.0165252
669.378	0.0165891
669.456	0.0165208
669.534	0.0165105
669.612	0.0165346
669.690	0.0164977
669.768	0.0164332
669.846	0.0164665
669.924	0.0165701
670.003	0.0164954
670.081	0.0163924
670.159	0.0165493
670.237	0.0165193
670.315	0.0164474
670.393	0.0163558
670.471	0.0165270
670.549	0.0164716
670.628	0.0164137
670.706	0.0164394
670.784	0.0164008
670.862	0.0163737
670.940	0.0166183
671.018	0.0166358
671.096	0.0164512
671.174	0.0164017
671.253	0.0163689
671.331	0.0164114
671.409	0.0165025
671.487	0.0165025
671.565	0.0165591
671.643	0.0163853
671.721	0.0163823
671.799	0.0163937
671.878	0.0164617
671.956	0.0165215
672.034	0.0164634
672.112	0.0165563
672.190	0.0167281
672.268	0.0165863
672.346	0.0165907
672.424	0.0167843
672.503	0.0167663
672.581	0.0168774
672.659	0.0168803
672.737	0.0169437
672.815	0.0169185
672.893	0.0169730
672.971	0.0168540
673.049	0.0166988
673.128	0.0168623
673.206	0.0167281
673.284	0.0166564
673.362	0.0166929
673.440	0.0166370
673.518	0.0164175
673.596	0.0165630
673.674	0.0164133
673.753	0.0164247
673.831	0.0163879
673.909	0.0162925
673.987	0.0164484
674.065	0.0161839
674.143	0.0161652
674.221	0.0163435
674.299	0.0163532
674.378	0.0162410
674.456	0.0163417
674.534	0.0164497
674.612	0.0164069
674.690	0.0164323
674.768	0.0164876
674.846	0.0164089
674.924	0.0166217
675.003	0.0166518
675.081	0.0165022
675.159	0.0164545
675.237	0.0166168
675.315	0.0165661
675.393	0.0165157
675.471	0.0166560
675.549	0.0165331
675.628	0.0165771
675.706	0.0166159
675.784	0.0166625
675.862	0.0167833
675.940	0.0168549
676.018	0.0167979
676.096	0.0168873
676.174	0.0168700
676.253	0.0168015
676.331	0.0168834
676.409	0.0170681
676.487	0.0167810
676.565	0.0169161
676.643	0.0168363
676.721	0.0167701
676.799	0.0167300
676.878	0.0167311
676.956	0.0166826
677.034	0.0165698
677.112	0.0165141
677.190	0.0165401
677.268	0.0165243
677.346	0.0163399
677.424	0.0163471
677.503	0.0162934
677.581	0.0163593
677.659	0.0162625
677.737	0.0163122
677.815	0.0163519
677.893	0.0163372
677.971	0.0162598
678.049	0.0164268
678.128	0.0163555
678.206	0.0164093
678.284	0.0164171
678.362	0.0163490
678.440	0.0163945
678.518	0.0163268
678.596	0.0163589
678.674	0.0162473
678.753	0.0163353
678.831	0.0163158
678.909	0.0164619
678.987	0.0162736
679.065	0.0164950
679.143	0.0164837
679.221	0.0165274
679.299	0.0165282
679.378	0.0164091
679.456	0.0166008
679.534	0.0165687
679.612	0.0165650
679.690	0.0166832
679.768	0.0166759
679.846	0.0166100
679.924	0.0168265
680.003	0.0166872
680.081	0.0167084
680.159	0.0167216
680.237	0.0168114
680.315	0.0167992
680.393	0.0166924
680.471	0.0167134
680.549	0.0168301
680.628	0.0167474
680.706	0.0168369
680.784	0.0167113
680.862	0.0165419
680.940	0.0165218
681.018	0.0167413
681.096	0.0165478
681.174	0.0165363
681.253	0.0165327
681.331	0.0164561
681.409	0.0164204
681.487	0.0163416
681.565	0.0163734
681.643	0.0162411
681.721	0.0163435
681.799	0.0163100
681.878	0.0165089
681.956	0.0164039
682.034	0.0164234
682.112	0.0164902
682.190	0.0163991
682.268	0.0164033
682.346	0.0165781
682.424	0.0165364
682.503	0.0165067
682.581	0.0165465
682.659	0.0166582
682.737	0.0166924
682.815	0.0166386
682.893	0.0165617
682.971	0.0165401
683.049	0.0164760
683.128	0.0165195
683.206	0.0164924
683.284	0.0165575
683.362	0.0164382
683.440	0.0163549
683.518	0.0164726
683.596	0.0165710
683.674	0.0164904
683.753	0.0165305
683.831	0.0165693
683.909	0.0165760
683.987	0.0166080
684.065	0.0166978
684.143	0.0168085
684.221	0.0167529
684.299	0.0167203
684.378	0.0167686
684.456	0.0169082
684.534	0.0170194
684.612	0.0170142
684.690	0.0169604
684.768	0.0169767
684.846	0.0169486
684.924	0.0168982
685.003	0.0169261
685.081	0.0169938
685.159	0.0168386
685.237	0.0168421
685.315	0.0168505
685.393	0.0167678
685.471	0.0166756
685.549	0.0164762
685.628	0.0165318
685.706	0.0164729
685.784	0.0164834
685.862	0.0164297
685.940	0.0163616
686.018	0.0162829
686.096	0.0163100
686.174	0.0164767
686.253	0.0164668
686.331	0.0164899
686.409	0.0165514
686.487	0.0164945
686.565	0.0164942
686.643	0.0165791
686.721	0.0166174
686.799	0.0165314
686.878	0.0164182
686.956	0.0166248
687.034	0.0166695
687.112	0.0166302
687.190	0.0166556
687.268	0.0167121
687.346	0.0168451
687.424	0.0167452
687.503	0.0167566
687.581	0.0167120
687.659	0.0167608
687.737	0.0167456
687.815	0.0166048
687.893	0.0166026
687.971	0.0165816
688.049	0.0166148
688.128	0.0165501
688.206	0.0165416
688.284	0.0163267
688.362	0.0165735
688.440	0.0164685
688.518	0.0164386
688.596	0.0163982
688.674	0.0165273
688.753	0.0164230
688.831	0.0163013
688.909	0.0164582
688.987	0.0165739
689.065	0.0164587
689.143	0.0164292
689.221	0.0163501
689.299	0.0164315
689.378	0.0164165
689.456	0.0164418
689.534	0.0164249
689.612	0.0164090
689.690	0.0165440
689.768	0.0166618
689.846	0.0167947
689.924	0.0166691
690.003	0.0168189
690.081	0.0169318
690.159	0.0169595
690.237	0.0167660
690.315	0.0167847
690.393	0.0166959
690.471	0.0166624
690.549	0.0165401
690.628	0.0165051
690.706	0.0165565
690.784	0.0166204
690.862	0.0165883
690.940	0.0164697
691.018	0.0164384
691.096	0.0164278
691.174	0.0164043
691.253	0.0165424
691.331	0.0163408
691.409	0.0164084
691.487	0.0165382
691.565	0.0165141
691.643	0.0165598
691.721	0.0163852
691.799	0.0165245
691.878	0.0166986
691.956	0.0165455
692.034	0.0165601
692.112	0.0165723
692.190	0.0165755
692.268	0.0164634
692.346	0.0164681
692.424	0.0164960
692.503	0.0164648
692.581	0.0165829
692.659	0.0165728
692.737	0.0165515
692.815	0.0166397
692.893	0.0165462
692.971	0.0165184
693.049	0.0164217
693.128	0.0164973
693.206	0.0164557
693.284	0.0165259
693.362	0.0165675
693.440	0.0165681
693.518	0.0166026
693.596	0.0165571
693.674	0.0165885
693.753	0.0165453
693.831	0.0165079
693.909	0.0164991
693.987	0.0165946
694.065	0.0164829
694.143	0.0166042
694.221	0.0166198
694.299	0.0164891
694.378	0.0163464
694.456	0.0165376
694.534	0.0164034
694.612	0.0163560
694.690	0.0162419
694.768	0.0164797
694.846	0.0162682
694.924	0.0163602
695.003	0.0164433
695.081	0.0165252
695.159	0.0164691
695.237	0.0163446
695.315	0.0163660
695.393	0.0165728
695.471	0.0165594
695.549	0.0165592
695.628	0.0166989
695.706	0.0167813
695.784	0.0168035
695.862	0.0168880
695.940	0.0170011
696.018	0.0167820
696.096	0.0169537
696.174	0.0171436
696.253	0.0169787
696.331	0.0168863
696.409	0.0169775
696.487	0.0169189
696.565	0.0168697
696.643	0.0168336
696.721	0.0168333
696.799	0.0166162
696.878	0.0165920
696.956	0.0166068
697.034	0.0165704
697.112	0.0165285
697.190	0.0163097
697.268	0.0164600
697.346	0.0165158
697.424	0.0164272
697.503	0.0163412
697.581	0.0164629
697.659	0.0164209
697.737	0.0162843
697.815	0.0164426
697.893	0.0164786
697.971	0.0164876
698.049	0.0163069
698.128	0.0162156
698.206	0.0163006
698.284	0.0162460
698.362	0.0163361
698.440	0.0163499
698.518	0.0164476
698.596	0.0164326
698.674	0.0164944
698.753	0.0165607
698.831	0.0165309
698.909	0.0166197
698.987	0.0166296
699.065	0.0165376
699.143	0.0167345
699.221	0.0167852
699.299	0.0168104
699.378	0.0168026
699.456	0.0166846
699.534	0.0168504
699.612	0.0167629
699.690	0.0167741
699.768	0.0167511
699.846	0.0167537
699.924	0.0165323
700.003	0.0166112
700.081	0.0166325
700.159	0.0166784
700.237	0.0167056
700.315	0.0165511
700.393	0.0166357
700.471	0.0166044
700.549	0.0165308
700.628	0.0165127
700.706	0.0165801
700.784	0.0166827
700.862	0.0165812
700.940	0.0164931
701.018	0.0166252
701.096	0.0165395
701.174	0.0164112
701.253	0.0165015
701.331	0.0164679
701.409	0.0164132
701.487	0.0164864
701.565	0.0164697
701.643	0.0164669
701.721	0.0164371
701.799	0.0163369
701.878	0.0163830
701.956	0.0162707
702.034	0.0163271
702.112	0.0162277
702.190	0.0163680
702.268	0.0163670
702.346	0.0163461
702.424	0.0164642
702.503	0.0163673
702.581	0.0164632
702.659	0.0165343
702.737	0.0164275
702.815	0.0165346
702.893	0.0166547
702.971	0.0165662
703.049	0.0165646
703.128	0.0166310
703.206	0.0167247
703.284	0.0167728
703.362	0.0166652
703.440	0.0167599
703.518	0.0167744
703.596	0.0168000
703.674	0.0166366
703.753	0.0169562
703.831	0.0168354
703.909	0.0167149
703.987	0.0168114
704.065	0.0168233
704.143	0.0167489
704.221	0.0165543
704.299	0.0165549
704.378	0.0166618
704.456	0.0166932
704.534	0.0166499
704.612	0.0164700
704.690	0.0165681
704.768	0.0166057
704.846	0.0165015
704.924	0.0165184
705.003	0.0165244
705.081	0.0166464
705.159	0.0167243
705.237	0.0166432
705.315	0.0165273
705.393	0.0165365
705.471	0.0165065
705.549	0.0164506
705.628	0.0163660
705.706	0.0164658
705.784	0.0164613
705.862	0.0165466
705.940	0.0165390
706.018	0.0165661
706.096	0.0165904
706.174	0.0166177
706.253	0.0165371
706.331	0.0164783
706.409	0.0165137
706.487	0.0164708
706.565	0.0165211
706.643	0.0165172
706.721	0.0164278
706.799	0.0163992
706.878	0.0165082
706.956	0.0164510
707.034	0.0165366
707.112	0.0166196
707.190	0.0165388
707.268	0.0166970
707.346	0.0166932
707.424	0.0166907
707.503	0.0167940
707.581	0.0165870
707.659	0.0167501
707.737	0.0167970
707.815	0.0167366
707.893	0.0166600
707.971	0.0167767
708.049	0.0167348
708.128	0.0166270
708.206	0.0166269
708.284	0.0166673
708.362	0.0166687
708.440	0.0166147
708.518	0.0164650
708.596	0.0164120
708.674	0.0165862
708.753	0.0164769
708.831	0.0165590
708.909	0.0164580
708.987	0.0164716
709.065	0.0163773
709.143	0.0163387
709.221	0.0162961
709.299	0.0163277
709.378	0.0162762
709.456	0.0162051
709.534	0.0162431
709.612	0.0162170
709.690	0.0162766
709.768	0.0162161
709.846	0.0162427
709.924	0.0162875
710.003	0.0161900
710.081	0.0161140
710.159	0.0161781
710.237	0.0161506
710.315	0.0163634
710.393	0.0162329
710.471	0.0162156
710.549	0.0162647
710.628	0.0162113
710.706	0.0163419
710.784	0.0165017
710.862	0.0164619
710.940	0.0165042
711.018	0.0165516
711.096	0.0165196
711.174	0.0166795
711.253	0.0167345
711.331	0.0166600
711.409	0.0167822
711.487	0.0166086
711.565	0.0167159
711.643	0.0167939
711.721	0.0166555
711.799	0.0166425
711.878	0.0165798
711.956	0.0167834
712.034	0.0167120
712.112	0.0167833
712.190	0.0167851
712.268	0.0167476
712.346	0.0167115
712.424	0.0167067
712.503	0.0167155
712.581	0.0168054
712.659	0.0168708
712.737	0.0168010
712.815	0.0167711
712.893	0.0166953
712.971	0.0166499
713.049	0.0167452
713.128	0.0168105
713.206	0.0166495
713.284	0.0166124
713.362	0.0167706
713.440	0.0167873
713.518	0.0166824
713.596	0.0166149
713.674	0.0165975
713.753	0.0166373
713.831	0.0165196
713.909	0.0165115
713.987	0.0166426
714.065	0.0166079
714.143	0.0165517
714.221	0.0165156
714.299	0.0165366
714.378	0.0163969
714.456	0.0165950
714.534	0.0163165
714.612	0.0163695
714.690	0.0163064
714.768	0.0163583
714.846	0.0162104
714.924	0.0162344
715.003	0.0162151
715.081	0.0163811
715.159	0.0162397
715.237	0.0162309
715.315	0.0160275
715.393	0.0161191
715.471	0.0160841
715.549	0.0161258
715.628	0.0160216
715.706	0.0161538
715.784	0.0162121
715.862	0.0163317
715.940	0.0162566
716.018	0.0162156
716.096	0.0160755
716.174	0.0161833
716.253	0.0162005
716.331	0.0161555
716.409	0.0162540
716.487	0.0162318
716.565	0.0161696
716.643	0.0161934
716.721	0.0162434
716.799	0.0163287
716.878	0.0162383
716.956	0.0163004
717.034	0.0162665
717.112	0.0163789
717.190	0.0164076
717.268	0.0164571
717.346	0.0164499
717.424	0.0165582
717.503	0.0166807
717.581	0.0167011
717.659	0.0167228
717.737	0.0166913
717.815	0.0168019
717.893	0.0167987
717.971	0.0169169
718.049	0.0169621
718.128	0.0169343
718.206	0.0169229
718.284	0.0169778
718.362	0.0168636
718.440	0.0168404
718.518	0.0168924
718.596	0.0168398
718.674	0.0169090
718.753	0.0167670
718.831	0.0168245
718.909	0.0167364
718.987	0.0165575
719.065	0.0167180
719.143	0.0168217
719.221	0.0168123
719.299	0.0166942
719.378	0.0165169
719.456	0.0167413
719.534	0.0167258
719.612	0.0167153
719.690	0.0167817
719.768	0.0165391
719.846	0.0165913
719.924	0.0167287
720.003	0.0166340
720.081	0.0165298
720.159	0.0166109
720.237	0.0165020
720.315	0.0163577
720.393	0.0164842
720.471	0.0165618
720.549	0.0165588
720.628	0.0164213
720.706	0.0163577
720.784	0.0163541
720.862	0.0166383
720.940	0.0164910
721.018	0.0163010
721.096	0.0165586
721.174	0.0163529
721.253	0.0163999
721.331	0.0164555
721.409	0.0163906
721.487	0.0164425
721.565	0.0164216
721.643	0.0163491
721.721	0.0165497
721.799	0.0163202
721.878	0.0164653
721.956	0.0162479
722.034	0.0163451
722.112	0.0163167
722.190	0.0162930
722.268	0.0162299
722.346	0.0161260
722.424	0.0163652
722.503	0.0162724
722.581	0.0161794
722.659	0.0161983
722.737	0.0162200
722.815	0.0161636
722.893	0.0160750
722.971	0.0161965
723.049	0.0161847
723.128	0.0164626
723.206	0.0164317
723.284	0.0164075
723.362	0.0163181
723.440	0.0163441
723.518	0.0164355
723.596	0.0162228
723.674	0.0163222
723.753	0.0163417
723.831	0.0162771
723.909	0.0163361
723.987	0.0161320
724.065	0.0163120
724.143	0.0162922
724.221	0.0162637
724.299	0.0162069
724.378	0.0162172
724.456	0.0163891
724.534	0.0165813
724.612	0.0166440
724.690	0.0166065
724.768	0.0166661
724.846	0.0164941
724.924	0.0166929
725.003	0.0165968
725.081	0.0167902
725.159	0.0167975
725.237	0.0168520
725.315	0.0168069
725.393	0.0169601
725.471	0.0169427
725.549	0.0169635
725.628	0.0169241
725.706	0.0170060
725.784	0.0170728
725.862	0.0169559
725.940	0.0170011
726.018	0.0170081
726.096	0.0169382
726.174	0.0169633
726.253	0.0169396
726.331	0.0169949
726.409	0.0170690
726.487	0.0171095
726.565	0.0169636
726.643	0.0170124
726.721	0.0169522
726.799	0.0170161
726.878	0.0168896
726.956	0.0169141
727.034	0.0168074
727.112	0.0167964
727.190	0.0166971
727.268	0.0166367
727.346	0.0166595
727.424	0.0166005
727.503	0.0164999
727.581	0.0164465
727.659	0.0165415
727.737	0.0166260
727.815	0.0165052
727.893	0.0165098
727.971	0.0164455
728.049	0.0163735
728.128	0.0164000
728.206	0.0162765
728.284	0.0163287
728.362	0.0162518
728.440	0.0163011
728.518	0.0162445
728.596	0.0162751
728.674	0.0162846
728.753	0.0162145
728.831	0.0162656
728.909	0.0161597
728.987	0.0161856
729.065	0.0160605
729.143	0.0162627
729.221	0.0160140
729.299	0.0162267
729.378	0.0161893
729.456	0.0163176
729.534	0.0161708
729.612	0.0162289
729.690	0.0163788
729.768	0.0162315
729.846	0.0164457
729.924	0.0163960
730.003	0.0164395
730.081	0.0164658
730.159	0.0163757
730.237	0.0164496
730.315	0.0163496
730.393	0.0163839
730.471	0.0163680
730.549	0.0162810
730.628	0.0164232
730.706	0.0164059
730.784	0.0164378
730.862	0.0166048
730.940	0.0166022
731.018	0.0164643
731.096	0.0165452
731.174	0.0164980
731.253	0.0166662
731.331	0.0165225
731.409	0.0166121
731.487	0.0167331
731.565	0.0165984
731.643	0.0166452
731.721	0.0165759
731.799	0.0166093
731.878	0.0166801
731.956	0.0166035
732.034	0.0166531
732.112	0.0166381
732.190	0.0165937
732.268	0.0166144
732.346	0.0166161
732.424	0.0167176
732.503	0.0168938
732.581	0.0167280
732.659	0.0167538
732.737	0.0167735
732.815	0.0168235
732.893	0.0168278
732.971	0.0168825
733.049	0.0167708
733.128	0.0167200
733.206	0.0166726
733.284	0.0167767
733.362	0.0166885
733.440	0.0165977
733.518	0.0166784
733.596	0.0166230
733.674	0.0166674
733.753	0.0165649
733.831	0.0165720
733.909	0.0167719
733.987	0.0166255
734.065	0.0165448
734.143	0.0167482
734.221	0.0165439
734.299	0.0165755
734.378	0.0166295
734.456	0.0165700
734.534	0.0167090
734.612	0.0166386
734.690	0.0165101
734.768	0.0165031
734.846	0.0165461
734.924	0.0165481
735.003	0.0164603
735.081	0.0164898
735.159	0.0164300
735.237	0.0163962
735.315	0.0164317
735.393	0.0163419
735.471	0.0164155
735.549	0.0163432
735.628	0.0162600
735.706	0.0162155
735.784	0.0164020
735.862	0.0163592
735.940	0.0163570
736.018	0.0163175
736.096	0.0162347
736.174	0.0163147
736.253	0.0163184
736.331	0.0161371
736.409	0.0161774
736.487	0.0162346
736.565	0.0162998
736.643	0.0162936
736.721	0.0161522
736.799	0.0162910
736.878	0.0162883
736.956	0.0162880
737.034	0.0163092
737.112	0.0161916
737.190	0.0162229
737.268	0.0162052
737.346	0.0163155
737.424	0.0161239
737.503	0.0161595
737.581	0.0164009
737.659	0.0164204
737.737	0.0162910
737.815	0.0163638
737.893	0.0163286
737.971	0.0164093
738.049	0.0163038
738.128	0.0162904
738.206	0.0163509
738.284	0.0164985
738.362	0.0163943
738.440	0.0163818
738.518	0.0165988
738.596	0.0165566
738.674	0.0163942
738.753	0.0165884
738.831	0.0165445
738.909	0.0164558
738.987	0.0166008
739.065	0.0165975
739.143	0.0166898
739.221	0.0168186
739.299	0.0167262
739.378	0.0165516
739.456	0.0167819
739.534	0.0168172
739.612	0.0168360
739.690	0.0167807
739.768	0.0167633
739.846	0.0167925
739.924	0.0167518
740.003	0.0167576
740.081	0.0168793
740.159	0.0166285
740.237	0.0166090
740.315	0.0167285
740.393	0.0167866
740.471	0.0168267
740.549	0.0167995
740.628	0.0168841
740.706	0.0167155
740.784	0.0168142
740.862	0.0166848
740.940	0.0168468
741.018	0.0168195
741.096	0.0167889
741.174	0.0168186
741.253	0.0166975
741.331	0.0166257
741.409	0.0167548
741.487	0.0168164
741.565	0.0168093
741.643	0.0166605
741.721	0.0167753
741.799	0.0168628
741.878	0.0166860
741.956	0.0165223
742.034	0.0167294
742.112	0.0167639
742.190	0.0166022
742.268	0.0167301
742.346	0.0166557
742.424	0.0167458
742.503	0.0165855
742.581	0.0166167
742.659	0.0163805
742.737	0.0164790
742.815	0.0165736
742.893	0.0165921
742.971	0.0164897
743.049	0.0165726
743.128	0.0163611
743.206	0.0162775
743.284	0.0163184
743.362	0.0162887
743.440	0.0162656
743.518	0.0161956
743.596	0.0162703
743.674	0.0162143
743.753	0.0162012
743.831	0.0161644
743.909	0.0162315
743.987	0.0164074
744.065	0.0161999
744.143	0.0161204
744.221	0.0163011
744.299	0.0161716
744.378	0.0161553
744.456	0.0162568
744.534	0.0162688
744.612	0.0160923
744.690	0.0162746
744.768	0.0162467
744.846	0.0163272
744.924	0.0162376
745.003	0.0164376
745.081	0.0163985
745.159	0.0163313
745.237	0.0162512
745.315	0.0163336
745.393	0.0163922
745.471	0.0164239
745.549	0.0165338
745.628	0.0164555
745.706	0.0164972
745.784	0.0165456
745.862	0.0166755
745.940	0.0168124
746.018	0.0166351
746.096	0.0165089
746.174	0.0166056
746.253	0.0166614
746.331	0.0167225
746.409	0.0168090
746.487	0.0166536
746.565	0.0168814
746.643	0.0168406
746.721	0.0167609
746.799	0.0168027
746.878	0.0166653
746.956	0.0167381
747.034	0.0168336
747.112	0.0167530
747.190	0.0167698
747.268	0.0167473
747.346	0.0167798
747.424	0.0167938
747.503	0.0167737
747.581	0.0168770
747.659	0.0169525
747.737	0.0167786
747.815	0.0168268
747.893	0.0168342
747.971	0.0168468
748.049	0.0168259
748.128	0.0167477
748.206	0.0168114
748.284	0.0167863
748.362	0.0167612
748.440	0.0166176
748.518	0.0166545
748.596	0.0168024
748.674	0.0168425
748.753	0.0168474
748.831	0.0166354
748.909	0.0167966
748.987	0.0167606
749.065	0.0167095
749.143	0.0165502
749.221	0.0166587
749.299	0.0167041
749.378	0.0166326
749.456	0.0165621
749.534	0.0165739
749.612	0.0166202
749.690	0.0165005
749.768	0.0164677
749.846	0.0164843
749.924	0.0162910
750.003	0.0163378
750.081	0.0165814
750.159	0.0166142
750.237	0.0165170
750.315	0.0164154
750.393	0.0164925
750.471	0.0164846
750.549	0.0163866
750.628	0.0165285
750.706	0.0163844
750.784	0.0163920
750.862	0.0163357
750.940	0.0162126
751.018	0.0162818
751.096	0.0162055
751.174	0.0162789
751.253	0.0162767
751.331	0.0162185
751.409	0.0161125
751.487	0.0164217
751.565	0.0162498
751.643	0.0162229
751.721	0.0162001
751.799	0.0163454
751.878	0.0162994
751.956	0.0162577
752.034	0.0161772
752.112	0.0162820
752.190	0.0163083
752.268	0.0162514
752.346	0.0163008
752.424	0.0162634
752.503	0.0162605
752.581	0.0164040
752.659	0.0163712
752.737	0.0162509
752.815	0.0163648
752.893	0.0164571
752.971	0.0164544
753.049	0.0166204
753.128	0.0166067
753.206	0.0165401
753.284	0.0165528
753.362	0.0165961
753.440	0.0165938
753.518	0.0163793
753.596	0.0166300
753.674	0.0166460
753.753	0.0167442
753.831	0.0165962
753.909	0.0165753
753.987	0.0167996
754.065	0.0166387
754.143	0.0166632
754.221	0.0166895
754.299	0.0167413
754.378	0.0166409
754.456	0.0166451
754.534	0.0166809
754.612	0.0166544
754.690	0.0166699
754.768	0.0166351
754.846	0.0166331
754.924	0.0166676
755.003	0.0166846
755.081	0.0166299
755.159	0.0165316
755.237	0.0166077
755.315	0.0166778
755.393	0.0166946
755.471	0.0166669
755.549	0.0166551
755.628	0.0166259
755.706	0.0166344
755.784	0.0167843
755.862	0.0166322
755.940	0.0164979
756.018	0.0166661
756.096	0.0166933
756.174	0.0165509
756.253	0.0166055
756.331	0.0165157
756.409	0.0166241
756.487	0.0165536
756.565	0.0164910
756.643	0.0164999
756.721	0.0164153
756.799	0.0165404
756.878	0.0166190
756.956	0.0165357
757.034	0.0164164
757.112	0.0165201
757.190	0.0166065
757.268	0.0165599
757.346	0.0164543
757.424	0.0164734
757.503	0.0165160
757.581	0.0165827
757.659	0.0163653
757.737	0.0163488
757.815	0.0164570
757.893	0.0164043
757.971	0.0164244
758.049	0.0164222
758.128	0.0162278
758.206	0.0163638
758.284	0.0164745
758.362	0.0164137
758.440	0.0162926
758.518	0.0164304
758.596	0.0164848
758.674	0.0164112
758.753	0.0163862
758.831	0.0163569
758.909	0.0165438
758.987	0.0164102
759.065	0.0164337
759.143	0.0163729
759.221	0.0164934
759.299	0.0164543
759.378	0.0163737
759.456	0.0164822
759.534	0.0165413
759.612	0.0164810
759.690	0.0164317
759.768	0.0165210
759.846	0.0164705
759.924	0.0163275
760.003	0.0164836
760.081	0.0164275
760.159	0.0164459
760.237	0.0164787
760.315	0.0166441
760.393	0.0165293
760.471	0.0165512
760.549	0.0165343
760.628	0.0164436
760.706	0.0164987
760.784	0.0166528
760.862	0.0166938
760.940	0.0167359
761.018	0.0166828
761.096	0.0165759
761.174	0.0167567
761.253	0.0167338
761.331	0.0166798
761.409	0.0167148
761.487	0.0168265
761.565	0.0168595
761.643	0.0166590
761.721	0.0168179
761.799	0.0167664
761.878	0.0167379
761.956	0.0166329
762.034	0.0166273
762.112	0.0167414
762.190	0.0167555
762.268	0.0167730
762.346	0.0167187
762.424	0.0166939
762.503	0.0167862
762.581	0.0167590
762.659	0.0167594
762.737	0.0168121
762.815	0.0166764
762.893	0.0166591
762.971	0.0167410
763.049	0.0168790
763.128	0.0168020
763.206	0.0168818
763.284	0.0169343
763.362	0.0168647
763.440	0.0168633
763.518	0.0168793
763.596	0.0168423
763.674	0.0168427
763.753	0.0169189
763.831	0.0168275
763.909	0.0167722
763.987	0.0166978
764.065	0.0166637
764.143	0.0168610
764.221	0.0165933
764.299	0.0165484
764.378	0.0166778
764.456	0.0166660
764.534	0.0166734
764.612	0.0165891
764.690	0.0165256
764.768	0.0163482
764.846	0.0164458
764.924	0.0164421
765.003	0.0164318
765.081	0.0165260
765.159	0.0165305
765.237	0.0164614
765.315	0.0164117
765.393	0.0164523
765.471	0.0164067
765.549	0.0163825
765.628	0.0164332
765.706	0.0163173
765.784	0.0163865
765.862	0.0163319
765.940	0.0162915
766.018	0.0163941
766.096	0.0163483
766.174	0.0163203
766.253	0.0162662
766.331	0.0163804
766.409	0.0164458
766.487	0.0165359
766.565	0.0165821
766.643	0.0164976
766.721	0.0166011
766.799	0.0165189
766.878	0.0163616
766.956	0.0163359
767.034	0.0166819
767.112	0.0166638
767.190	0.0165216
767.268	0.0164336
767.346	0.0163525
767.424	0.0164973
767.503	0.0165045
767.581	0.0164511
767.659	0.0164260
767.737	0.0165125
767.815	0.0163729
767.893	0.0163087
767.971	0.0165598
768.049	0.0164812
768.128	0.0164743
768.206	0.0165193
768.284	0.0166056
768.362	0.0165314
768.440	0.0166002
768.518	0.0167025
768.596	0.0165838
768.674	0.0167619
768.753	0.0166108
768.831	0.0165807
768.909	0.0166136
768.987	0.0166079
769.065	0.0164974
769.143	0.0165599
769.221	0.0165076
769.299	0.0166062
769.378	0.0165382
769.456	0.0166674
769.534	0.0165886
769.612	0.0165862
769.690	0.0166502
769.768	0.0166244
769.846	0.0166497
769.924	0.0165041
770.003	0.0165288
770.081	0.0165659
770.159	0.0165990
770.237	0.0166596
770.315	0.0166225
770.393	0.0165056
770.471	0.0165385
770.549	0.0165865
770.628	0.0166267
770.706	0.0167162
770.784	0.0166334
770.862	0.0165931
770.940	0.0166466
771.018	0.0165881
771.096	0.0165006
771.174	0.0166159
771.253	0.0166680
771.331	0.0166700
771.409	0.0166283
771.487	0.0166444
771.565	0.0166004
771.643	0.0165431
771.721	0.0166325
771.799	0.0165314
771.878	0.0165685
771.956	0.0165795
772.034	0.0165152
772.112	0.0165833
772.190	0.0164542
772.268	0.0164316
772.346	0.0165840
772.424	0.0164298
772.503	0.0163802
772.581	0.0164773
772.659	0.0164869
772.737	0.0165353
772.815	0.0165865
772.893	0.0164874
772.971	0.0164420
773.049	0.0165180
773.128	0.0164326
773.206	0.0165941
773.284	0.0165994
773.362	0.0165579
773.440	0.0164503
773.518	0.0163645
773.596	0.0165318
773.674	0.0164858
773.753	0.0164675
773.831	0.0163246
773.909	0.0164458
773.987	0.0163236
774.065	0.0164783
774.143	0.0164626
774.221	0.0164235
774.299	0.0163255
774.378	0.0164796
774.456	0.0165136
774.534	0.0165118
774.612	0.0165888
774.690	0.0167178
774.768	0.0165352
774.846	0.0164833
774.924	0.0166225
775.003	0.0166389
775.081	0.0165273
775.159	0.0164620
775.237	0.0163854
775.315	0.0163748
775.393	0.0164465
775.471	0.0164672
775.549	0.0163715
775.628	0.0164116
775.706	0.0163036
775.784	0.0164318
775.862	0.0163817
775.940	0.0164212
776.018	0.0162933
776.096	0.0163541
776.174	0.0162069
776.253	0.0163405
776.331	0.0165178
776.409	0.0162185
776.487	0.0164855
776.565	0.0163709
776.643	0.0165541
776.721	0.0163396
776.799	0.0164231
776.878	0.0164760
776.956	0.0164289
777.034	0.0164287
777.112	0.0164446
777.190	0.0164033
777.268	0.0164013
777.346	0.0164928
777.424	0.0164878
777.503	0.0164878
777.581	0.0167213
777.659	0.0167347
777.737	0.0166171
777.815	0.0165785
777.893	0.0165305
777.971	0.0166467
778.049	0.0164869
778.128	0.0165881
778.206	0.0165067
778.284	0.0166956
778.362	0.0166278
778.440	0.0165958
778.518	0.0167632
778.596	0.0165590
778.674	0.0165576
778.753	0.0167694
778.831	0.0166508
778.909	0.0166405
778.987	0.0167410
779.065	0.0168933
779.143	0.0167018
779.221	0.0167644
779.299	0.0167558
779.378	0.0166464
779.456	0.0168371
779.534	0.0167868
779.612	0.0168623
779.690	0.0168951
779.768	0.0167896
779.846	0.0165292
779.924	0.0166964
780.003	0.0167121
780.081	0.0168069
780.159	0.0165533
780.237	0.0164880
780.315	0.0165564
780.393	0.0165318
780.471	0.0164830
780.549	0.0164513
780.628	0.0165224
780.706	0.0164756
780.784	0.0164402
780.862	0.0163271
780.940	0.0164177
781.018	0.0164603
781.096	0.0164169
781.174	0.0165450
781.253	0.0163688
781.331	0.0163556
781.409	0.0165105
781.487	0.0165354
781.565	0.0164732
781.643	0.0164143
781.721	0.0164811
781.799	0.0164771
781.878	0.0164275
781.956	0.0163944
782.034	0.0164797
782.112	0.0163975
782.190	0.0162756
782.268	0.0163676
782.346	0.0164312
782.424	0.0163908
782.503	0.0164223
782.581	0.0164248
782.659	0.0163525
782.737	0.0163931
782.815	0.0163669
782.893	0.0163512
782.971	0.0164826
783.049	0.0166944
783.128	0.0165737
783.206	0.0165279
783.284	0.0165213
783.362	0.0165181
783.440	0.0164201
783.518	0.0164368
783.596	0.0165753
783.674	0.0166602
783.753	0.0163863
783.831	0.0164772
783.909	0.0166217
783.987	0.0164327
784.065	0.0165078
784.143	0.0164082
784.221	0.0166959
784.299	0.0166355
784.378	0.0166833
784.456	0.0166548
784.534	0.0165498
784.612	0.0167977
784.690	0.0165284
784.768	0.0165858
784.846	0.0167132
784.924	0.0168235
785.003	0.0166917
785.081	0.0167119
785.159	0.0165774
785.237	0.0166522
785.315	0.0166742
785.393	0.0167590
785.471	0.0167252
785.549	0.0166685
785.628	0.0165603
785.706	0.0167091
785.784	0.0168542
785.862	0.0166438
785.940	0.0167653
786.018	0.0168017
786.096	0.0167628
786.174	0.0166586
786.253	0.0166061
786.331	0.0165446
786.409	0.0167180
786.487	0.0167341
786.565	0.0166796
786.643	0.0168101
786.721	0.0166753
786.799	0.0167325
786.878	0.0166066
786.956	0.0166274
787.034	0.0167754
787.112	0.0167168
787.190	0.0166412
787.268	0.0166197
787.346	0.0166000
787.424	0.0166737
787.503	0.0166291
787.581	0.0166245
787.659	0.0166602
787.737	0.0164818
787.815	0.0166615
787.893	0.0166785
787.971	0.0166179
788.049	0.0165385
788.128	0.0165969
788.206	0.0167356
788.284	0.0166192
788.362	0.0165340
788.440	0.0165999
788.518	0.0165307
788.596	0.0165366
788.674	0.0165575
788.753	0.0165846
788.831	0.0165978
788.909	0.0164687
788.987	0.0165857
789.065	0.0164721
789.143	0.0165861
789.221	0.0166621
789.299	0.0165985
789.378	0.0165027
789.456	0.0165802
789.534	0.0166975
789.612	0.0167185
789.690	0.0165944
789.768	0.0167129
789.846	0.0166260
789.924	0.0165495
790.003	0.0166811
790.081	0.0164457
790.159	0.0165319
790.237	0.0165007
790.315	0.0163876
790.393	0.0164679
790.471	0.0165014
790.549	0.0164392
790.628	0.0165221
790.706	0.0164172
790.784	0.0164857
790.862	0.0164252
790.940	0.0164214
791.018	0.0164262
791.096	0.0165035
791.174	0.0164791
791.253	0.0163870
791.331	0.0165018
791.409	0.0164182
791.487	0.0164015
791.565	0.0161932
791.643	0.0162869
791.721	0.0163560
791.799	0.0164349
791.878	0.0164909
791.956	0.0163741
792.034	0.0162814
792.112	0.0164165
792.190	0.0163434
792.268	0.0164707
792.346	0.0164153
792.424	0.0163864
792.503	0.0166738
792.581	0.0165416
792.659	0.0164944
792.737	0.0166856
792.815	0.0166457
792.893	0.0167403
792.971	0.0166908
793.049	0.0167207
793.128	0.0165931
793.206	0.0167695
793.284	0.0168115
793.362	0.0164874
793.440	0.0168147
793.518	0.0166498
793.596	0.0165654
793.674	0.0166820
793.753	0.0166187
793.831	0.0167146
793.909	0.0167873
793.987	0.0166968
794.065	0.0167307
794.143	0.0166901
794.221	0.0167517
794.299	0.0167783
794.378	0.0167652
794.456	0.0166158
794.534	0.0165905
794.612	0.0166444
794.690	0.0167734
794.768	0.0166470
794.846	0.0165343
794.924	0.0165468
795.003	0.0166705
795.081	0.0164553
795.159	0.0164388
795.237	0.0165913
795.315	0.0167141
795.393	0.0166687
795.471	0.0166376
795.549	0.0166437
795.628	0.0166976
795.706	0.0166131
795.784	0.0167059
795.862	0.0167058
795.940	0.0167266
796.018	0.0166367
796.096	0.0165899
796.174	0.0167073
796.253	0.0166676
796.331	0.0164958
796.409	0.0165299
796.487	0.0166151
796.565	0.0166283
796.643	0.0166375
796.721	0.0165469
796.799	0.0165362
796.878	0.0165399
796.956	0.0165894
797.034	0.0165401
797.112	0.0164525
797.190	0.0166798
797.268	0.0167508
797.346	0.0164668
797.424	0.0165349
797.503	0.0165113
797.581	0.0165071
797.659	0.0164505
797.737	0.0164376
797.815	0.0164870
797.893	0.0164926
797.971	0.0163300
798.049	0.0163522
798.128	0.0164911
798.206	0.0163920
798.284	0.0163736
798.362	0.0163439
798.440	0.0163882
798.518	0.0164781
798.596	0.0163983
798.674	0.0163630
798.753	0.0163728
798.831	0.0163718
798.909	0.0164725
798.987	0.0163777
799.065	0.0163187
799.143	0.0164552
799.221	0.0163983
799.299	0.0163985
799.378	0.0164762
799.456	0.0166204
799.534	0.0166254
799.612	0.0165573
799.690	0.0164035
799.768	0.0164849
799.846	0.0165297
799.924	0.0165292
800.003	0.0165974
800.081	0.0165802
800.159	0.0165154
800.237	0.0165357
800.315	0.0164761
800.393	0.0165572
800.471	0.0165823
800.549	0.0164217
800.628	0.0164175
800.706	0.0166312
800.784	0.0165353
800.862	0.0165142
800.940	0.0166214
801.018	0.0166524
801.096	0.0165398
801.174	0.0165872
801.253	0.0166665
801.331	0.0165967
801.409	0.0167328
801.487	0.0168187
801.565	0.0167149
801.643	0.0167521
801.721	0.0166957
801.799	0.0166553
801.878	0.0165900
801.956	0.0166772
802.034	0.0165563
802.112	0.0167721
802.190	0.0166764
802.268	0.0165524
802.346	0.0165438
802.424	0.0165873
802.503	0.0165952
802.581	0.0166396
802.659	0.0166273
802.737	0.0166221
802.815	0.0166142
802.893	0.0166211
802.971	0.0166125
803.049	0.0166190
803.128	0.0165221
803.206	0.0165462
803.284	0.0165800
803.362	0.0166494
803.440	0.0165783
803.518	0.0165292
803.596	0.0165891
803.674	0.0165169
803.753	0.0164845
803.831	0.0164835
803.909	0.0165871
803.987	0.0164684
804.065	0.0164274
804.143	0.0164883
804.221	0.0163975
804.299	0.0163316
804.378	0.0164497
804.456	0.0163625
804.534	0.0162745
804.612	0.0164296
804.690	0.0164539
804.768	0.0163224
804.846	0.0163770
804.924	0.0163976
805.003	0.0164532
805.081	0.0164333
805.159	0.0162547
805.237	0.0163405
805.315	0.0162165
805.393	0.0163823
805.471	0.0164254
805.549	0.0163311
805.628	0.0164236
805.706	0.0163530
805.784	0.0164908
805.862	0.0165418
805.940	0.0165269
806.018	0.0164980
806.096	0.0164642
806.174	0.0163860
806.253	0.0165121
806.331	0.0166320
806.409	0.0165448
806.487	0.0165081
806.565	0.0164699
806.643	0.0164386
806.721	0.0163641
806.799	0.0164066
806.878	0.0166261
806.956	0.0165179
807.034	0.0165634
807.112	0.0165450
807.190	0.0165324
807.268	0.0164936
807.346	0.0164133
807.424	0.0164896
807.503	0.0164800
807.581	0.0165295
807.659	0.0164744
807.737	0.0164952
807.815	0.0165640
807.893	0.0165598
807.971	0.0165608
808.049	0.0165699
808.128	0.0166043
808.206	0.0165676
808.284	0.0166415
808.362	0.0165582
808.440	0.0165897
808.518	0.0165726
808.596	0.0167051
808.674	0.0164957
808.753	0.0165710
808.831	0.0166878
808.909	0.0166952
808.987	0.0165627
809.065	0.0165912
809.143	0.0166791
809.221	0.0166940
809.299	0.0166998
809.378	0.0166236
809.456	0.0166174
809.534	0.0167693
809.612	0.0166949
809.690	0.0165706
809.768	0.0167033
809.846	0.0166519
809.924	0.0166801
810.003	0.0165535
810.081	0.0165588
810.159	0.0165425
810.237	0.0166056
810.315	0.0165269
810.393	0.0166117
810.471	0.0165867
810.549	0.0165990
810.628	0.0165581
810.706	0.0164272
810.784	0.0166197
810.862	0.0166769
810.940	0.0167017
811.018	0.0164970
811.096	0.0164916
811.174	0.0163931
811.253	0.0164670
811.331	0.0164803
811.409	0.0163666
811.487	0.0164013
811.565	0.0163715
811.643	0.0164250
811.721	0.0164456
811.799	0.0164455
811.878	0.0163964
811.956	0.0164576
812.034	0.0165459
812.112	0.0163126
812.190	0.0165135
812.268	0.0164565
812.346	0.0163183
812.424	0.0163808
812.503	0.0163757
812.581	0.0163303
812.659	0.0164033
812.737	0.0164024
812.815	0.0163363
812.893	0.0163084
812.971	0.0162896
813.049	0.0163834
813.128	0.0162981
813.206	0.0164144
813.284	0.0164952
813.362	0.0164130
813.440	0.0163563
813.518	0.0163983
813.596	0.0162270
813.674	0.0163416
813.753	0.0163030
813.831	0.0163077
813.909	0.0164608
813.987	0.0163936
814.065	0.0164513
814.143	0.0163749
814.221	0.0163918
814.299	0.0164563
814.378	0.0164083
814.456	0.0163325
814.534	0.0165313
814.612	0.0165453
814.690	0.0166136
814.768	0.0166087
814.846	0.0165662
814.924	0.0167279
815.003	0.0165891
815.081	0.0166559
815.159	0.0166785
815.237	0.0166149
815.315	0.0167834
815.393	0.0166465
815.471	0.0166496
815.549	0.0166656
815.628	0.0166898
815.706	0.0166150
815.784	0.0165901
815.862	0.0167046
815.940	0.0165205
816.018	0.0166353
816.096	0.0166041
816.174	0.0166362
816.253	0.0166706
816.331	0.0167497
816.409	0.0167839
816.487	0.0167224
816.565	0.0167124
816.643	0.0168459
816.721	0.0167191
816.799	0.0166492
816.878	0.0166598
816.956	0.0166499
817.034	0.0166239
817.112	0.0166310
817.190	0.0166075
817.268	0.0167156
817.346	0.0166353
817.424	0.0164872
817.503	0.0165749
817.581	0.0167294
817.659	0.0166650
817.737	0.0166985
817.815	0.0166495
817.893	0.0167304
817.971	0.0165623
818.049	0.0164413
818.128	0.0165960
818.206	0.0166376
818.284	0.0166349
818.362	0.0166188
818.440	0.0167019
818.518	0.0166292
818.596	0.0166291
818.674	0.0164067
818.753	0.0165044
818.831	0.0166023
818.909	0.0166284
818.987	0.0166209
819.065	0.0164607
819.143	0.0164215
819.221	0.0166261
819.299	0.0166256
819.378	0.0164529
819.456	0.0164475
819.534	0.0164595
819.612	0.0164815
819.690	0.0164937
819.768	0.0164062
819.846	0.0164631
819.924	0.0165053
820.003	0.0164159
820.081	0.0164255
820.159	0.0164072
820.237	0.0165311
820.315	0.0163937
820.393	0.0163332
820.471	0.0164268
820.549	0.0162923
820.628	0.0165273
820.706	0.0164913
820.784	0.0164399
820.862	0.0162760
820.940	0.0164156
821.018	0.0165273
821.096	0.0165118
821.174	0.0164285
821.253	0.0164523
821.331	0.0164873
821.409	0.0164330
821.487	0.0166014
821.565	0.0164320
821.643	0.0164585
821.721	0.0165641
821.799	0.0164675
821.878	0.0165942
821.956	0.0165931
822.034	0.0165692
822.112	0.0165933
822.190	0.0165583
822.268	0.0164347
822.346	0.0166482
822.424	0.0166061
822.503	0.0166494
822.581	0.0166455
822.659	0.0166975
822.737	0.0166361
822.815	0.0167652
822.893	0.0165868
822.971	0.0166917
823.049	0.0167106
823.128	0.0167784
823.206	0.0167149
823.284	0.0167815
823.362	0.0167504
823.440	0.0167831
823.518	0.0167230
823.596	0.0166439
823.674	0.0165779
823.753	0.0168903
823.831	0.0166589
823.909	0.0167585
823.987	0.0166176
824.065	0.0166577
824.143	0.0167467
824.221	0.0165374
824.299	0.0165943
824.378	0.0166222
824.456	0.0165694
824.534	0.0166664
824.612	0.0165826
824.690	0.0167403
824.768	0.0165314
824.846	0.0166039
824.924	0.0164901
825.003	0.0165728
825.081	0.0165752
825.159	0.0166028
825.237	0.0165215
825.315	0.0165785
825.393	0.0167235
825.471	0.0166879
825.549	0.0165643
825.628	0.0164815
825.706	0.0166178
825.784	0.0166203
825.862	0.0167168
825.940	0.0165694
826.018	0.0165424
826.096	0.0166301
826.174	0.0165394
826.253	0.0164967
826.331	0.0164397
826.409	0.0165281
826.487	0.0164452
826.565	0.0165513
826.643	0.0164185
826.721	0.0165025
826.799	0.0164404
826.878	0.0164487
826.956	0.0163501
827.034	0.0163773
827.112	0.0163342
827.190	0.0165929
827.268	0.0164026
827.346	0.0163316
827.424	0.0165061
827.503	0.0162925
827.581	0.0163280
827.659	0.0163501
827.737	0.0161950
827.815	0.0162998
827.893	0.0164254
827.971	0.0164543
828.049	0.0162462
828.128	0.0163297
828.206	0.0164759
828.284	0.0163348
828.362	0.0164856
828.440	0.0161875
828.518	0.0163409
828.596	0.0163544
828.674	0.0164774
828.753	0.0163609
828.831	0.0163042
828.909	0.0163589
828.987	0.0164407
829.065	0.0165443
829.143	0.0164115
829.221	0.0162715
829.299	0.0164795
829.378	0.0163247
829.456	0.0162704
829.534	0.0164481
829.612	0.0163863
829.690	0.0164968
829.768	0.0163794
829.846	0.0165295
829.924	0.0165723
830.003	0.0165211
830.081	0.0164754
830.159	0.0164462
830.237	0.0165510
830.315	0.0165222
830.393	0.0165235
830.471	0.0164748
830.549	0.0165194
830.628	0.0165411
830.706	0.0165305
830.784	0.0164203
830.862	0.0166261
830.940	0.0165292
831.018	0.0165018
831.096	0.0164587
831.174	0.0164178
831.253	0.0164685
831.331	0.0165110
831.409	0.0164449
831.487	0.0165354
831.565	0.0165402
831.643	0.0165372
831.721	0.0164668
831.799	0.0165871
831.878	0.0166161
831.956	0.0164320
832.034	0.0165186
832.112	0.0164725
832.190	0.0164869
832.268	0.0165269
832.346	0.0165318
832.424	0.0164864
832.503	0.0165749
832.581	0.0166196
832.659	0.0166217
832.737	0.0165424
832.815	0.0164451
832.893	0.0165732
832.971	0.0164819
833.049	0.0165798
833.128	0.0165570
833.206	0.0166607
833.284	0.0166891
833.362	0.0165280
833.440	0.0164954
833.518	0.0166210
833.596	0.0166087
833.674	0.0165101
833.753	0.0165393
833.831	0.0164494
833.909	0.0165618
833.987	0.0164503
834.065	0.0164861
834.143	0.0163318
834.221	0.0164634
834.299	0.0164976
834.378	0.0163155
834.456	0.0163494
834.534	0.0164869
834.612	0.0164571
834.690	0.0165861
834.768	0.0165147
834.846	0.0163151
834.924	0.0163151
835.003	0.0165127
835.081	0.0165015
835.159	0.0164558
835.237	0.0164269
835.315	0.0164175
835.393	0.0164485
835.471	0.0164707
835.549	0.0165602
835.628	0.0165202
835.706	0.0163508
835.784	0.0164096
835.862	0.0164517
835.940	0.0165486
836.018	0.0163972
836.096	0.0164647
836.174	0.0164095
836.253	0.0163586
836.331	0.0166302
836.409	0.0163795
836.487	0.0163812
836.565	0.0164529
836.643	0.0164198
836.721	0.0165012
836.799	0.0164472
836.878	0.0164960
836.956	0.0164444
837.034	0.0165040
837.112	0.0166096
837.190	0.0164081
837.268	0.0164704
837.346	0.0165986
837.424	0.0165265
837.503	0.0165256
837.581	0.0165086
837.659	0.0166562
837.737	0.0166277
837.815	0.0165267
837.893	0.0166307
837.971	0.0166432
838.049	0.0166167
838.128	0.0167366
838.206	0.0166436
838.284	0.0167467
838.362	0.0165984
838.440	0.0166128
838.518	0.0165438
838.596	0.0166105
838.674	0.0166685
838.753	0.0166612
838.831	0.0166265
838.909	0.0165993
838.987	0.0167415
839.065	0.0167276
839.143	0.0167384
839.221	0.0166513
839.299	0.0166796
839.378	0.0166865
839.456	0.0166697
839.534	0.0166257
839.612	0.0166734
839.690	0.0165815
839.768	0.0167213
839.846	0.0168269
839.924	0.0167640
840.003	0.0166189
840.081	0.0167282
840.159	0.0167612
840.237	0.0167330
840.315	0.0168046
840.393	0.0166762
840.471	0.0167043
840.549	0.0167887
840.628	0.0167252
840.706	0.0167350
840.784	0.0167245
840.862	0.0166427
840.940	0.0167506
841.018	0.0167734
841.096	0.0166991
841.174	0.0166067
841.253	0.0167468
841.331	0.0167249
841.409	0.0166868
841.487	0.0166885
841.565	0.0167689
841.643	0.0166617
841.721	0.0165704
841.799	0.0166139
841.878	0.0165807
841.956	0.0164970
842.034	0.0166114
842.112	0.0166145
842.190	0.0165048
842.268	0.0167801
842.346	0.0167155
842.424	0.0165091
842.503	0.0164644
842.581	0.0165796
842.659	0.0166617
842.737	0.0166368
842.815	0.0164786
842.893	0.0165743
842.971	0.0166518
843.049	0.0164516
843.128	0.0165956
843.206	0.0166279
843.284	0.0165913
843.362	0.0164722
843.440	0.0164182
843.518	0.0164565
843.596	0.0165406
843.674	0.0165173
843.753	0.0165733
843.831	0.0164061
843.909	0.0164785
843.987	0.0165227
844.065	0.0163869
844.143	0.0164832
844.221	0.0164270
844.299	0.0164732
844.378	0.0165524
844.456	0.0164701
844.534	0.0164420
844.612	0.0164685
844.690	0.0164928
844.768	0.0163740
844.846	0.0165424
844.924	0.0165318
845.003	0.0165180
845.081	0.0164684
845.159	0.0164476
845.237	0.0163608
845.315	0.0164684
845.393	0.0165224
845.471	0.0165064
845.549	0.0164935
845.628	0.0164077
845.706	0.0166023
845.784	0.0165958
845.862	0.0165710
845.940	0.0166253
846.018	0.0166268
846.096	0.0165079
846.174	0.0164270
846.253	0.0165973
846.331	0.0164825
846.409	0.0164360
846.487	0.0164793
846.565	0.0166709
846.643	0.0165844
846.721	0.0165117
846.799	0.0167068
846.878	0.0165502
846.956	0.0165011
847.034	0.0166269
847.112	0.0165482
847.190	0.0166726
847.268	0.0164749
847.346	0.0167762
847.424	0.0167282
847.503	0.0166680
847.581	0.0165681
847.659	0.0165542
847.737	0.0165755
847.815	0.0166110
847.893	0.0165326
847.971	0.0165054
848.049	0.0167216
848.128	0.0165208
848.206	0.0164786
848.284	0.0166358
848.362	0.0165557
848.440	0.0165632
848.518	0.0164593
848.596	0.0165878
848.674	0.0164695
848.753	0.0165044
848.831	0.0165445
848.909	0.0165398
848.987	0.0165282
849.065	0.0165995
849.143	0.0166237
849.221	0.0165751
849.299	0.0165448
849.378	0.0166426
849.456	0.0165905
849.534	0.0166229
849.612	0.0166719
849.690	0.0166465
849.768	0.0165588
849.846	0.0165843
849.924	0.0165302
850.003	0.0164734
850.081	0.0166012
850.159	0.0164976
850.237	0.0163773
850.315	0.0164371
850.393	0.0164059
850.471	0.0165855
850.549	0.0165047
850.628	0.0164394
850.706	0.0163878
850.784	0.0164904
850.862	0.0165900
850.940	0.0163098
851.018	0.0164393
851.096	0.0166134
851.174	0.0165884
851.253	0.0165016
851.331	0.0165057
851.409	0.0163698
851.487	0.0164414
851.565	0.0163953
851.643	0.0164163
851.721	0.0164598
851.799	0.0165268
851.878	0.0165395
851.956	0.0164194
852.034	0.0163771
852.112	0.0164909
852.190	0.0163805
852.268	0.0163483
852.346	0.0164196
852.424	0.0163913
852.503	0.0163857
852.581	0.0164341
852.659	0.0163469
852.737	0.0165672
852.815	0.0165670
852.893	0.0164220
852.971	0.0164728
853.049	0.0165441
853.128	0.0165163
853.206	0.0164957
853.284	0.0165062
853.362	0.0164378
853.440	0.0165224
853.518	0.0163449
853.596	0.0165245
853.674	0.0166893
853.753	0.0164440
853.831	0.0165241
853.909	0.0165230
853.987	0.0165586
854.065	0.0164719
854.143	0.0166176
854.221	0.0166001
854.299	0.0165782
854.378	0.0165698
854.456	0.0165677
854.534	0.0165759
854.612	0.0165253
854.690	0.0166923
854.768	0.0166261
854.846	0.0165331
854.924	0.0166211
855.003	0.0165839
855.081	0.0165945
855.159	0.0165915
855.237	0.0165684
855.315	0.0165427
855.393	0.0166825
855.471	0.0165445
855.549	0.0165687
855.628	0.0166038
855.706	0.0166393
855.784	0.0166201
855.862	0.0166652
855.940	0.0164988
856.018	0.0164783
856.096	0.0165324
856.174	0.0165560
856.253	0.0165097
856.331	0.0164293
856.409	0.0166118
856.487	0.0167013
856.565	0.0166880
856.643	0.0166753
856.721	0.0164764
856.799	0.0166447
856.878	0.0165950
856.956	0.0167511
857.034	0.0167432
857.112	0.0165149
857.190	0.0167293
857.268	0.0165197
857.346	0.0166093
857.424	0.0164516
857.503	0.0165879
857.581	0.0165785
857.659	0.0165414
857.737	0.0165502
857.815	0.0165533
857.893	0.0165659
857.971	0.0165431
858.049	0.0165651
858.128	0.0165858
858.206	0.0164905
858.284	0.0165940
858.362	0.0166202
858.440	0.0165611
858.518	0.0167481
858.596	0.0164903
858.674	0.0167689
858.753	0.0166156
858.831	0.0165574
858.909	0.0166586
858.987	0.0164452
859.065	0.0165868
859.143	0.0166385
859.221	0.0165098
859.299	0.0167101
859.378	0.0166534
859.456	0.0165712
859.534	0.0166751
859.612	0.0166199
859.690	0.0165157
859.768	0.0166203
859.846	0.0166134
859.924	0.0165065
860.003	0.0166282
860.081	0.0164362
860.159	0.0164574
860.237	0.0164973
860.315	0.0164695
860.393	0.0164883
860.471	0.0163625
860.549	0.0163522
860.628	0.0164175
860.706	0.0165141
860.784	0.0164299
860.862	0.0164468
860.940	0.0165126
861.018	0.0165957
861.096	0.0166039
861.174	0.0165428
861.253	0.0167304
861.331	0.0165591
861.409	0.0166371
861.487	0.0168062
861.565	0.0167621
861.643	0.0167318
861.721	0.0165539
861.799	0.0166920
861.878	0.0168065
861.956	0.0166498
862.034	0.0166077
862.112	0.0164614
862.190	0.0164125
862.268	0.0165760
862.346	0.0165440
862.424	0.0166008
862.503	0.0166129
862.581	0.0166437
862.659	0.0165318
862.737	0.0164824
862.815	0.0165327
862.893	0.0165930
862.971	0.0167333
863.049	0.0165601
863.128	0.0167138
863.206	0.0165423
863.284	0.0165182
863.362	0.0167992
863.440	0.0166671
863.518	0.0166534
863.596	0.0166365
863.674	0.0167081
863.753	0.0167274
863.831	0.0166338
863.909	0.0166651
863.987	0.0166644
864.065	0.0167176
864.143	0.0166772
864.221	0.0166421
864.299	0.0168152
864.378	0.0168245
864.456	0.0166512
864.534	0.0167088
864.612	0.0167518
864.690	0.0167719
864.768	0.0165614
864.846	0.0166100
864.924	0.0166668
865.003	0.0166306
865.081	0.0166080
865.159	0.0166078
865.237	0.0166982
865.315	0.0166758
865.393	0.0166337
865.471	0.0163509
865.549	0.0166009
865.628	0.0165850
865.706	0.0164843
865.784	0.0165934
865.862	0.0166619
865.940	0.0165225
866.018	0.0165714
866.096	0.0165592
866.174	0.0165186
866.253	0.0165766
866.331	0.0166226
866.409	0.0166532
866.487	0.0165538
866.565	0.0166341
866.643	0.0165438
866.721	0.0165583
866.799	0.0166254
866.878	0.0164851
866.956	0.0165289
867.034	0.0164211
867.112	0.0165124
867.190	0.0166022
867.268	0.0164722
867.346	0.0164352
867.424	0.0164967
867.503	0.0165512
867.581	0.0165574
867.659	0.0163910
867.737	0.0164167
867.815	0.0164099
867.893	0.0166711
867.971	0.0165588
868.049	0.0165803
868.128	0.0166001
868.206	0.0166562
868.284	0.0165446
868.362	0.0164931
868.440	0.0166071
868.518	0.0165972
868.596	0.0165189
868.674	0.0165696
868.753	0.0166438
868.831	0.0166643
868.909	0.0165300
868.987	0.0164710
869.065	0.0165835
869.143	0.0164610
869.221	0.0164557
869.299	0.0165680
869.378	0.0164977
869.456	0.0164365
869.534	0.0165332
869.612	0.0165170
869.690	0.0164104
869.768	0.0165759
869.846	0.0164548
869.924	0.0164745
870.003	0.0164126
870.081	0.0165208
870.159	0.0166354
870.237	0.0165040
870.315	0.0165771
870.393	0.0165724
870.471	0.0164592
870.549	0.0165191
870.628	0.0165919
870.706	0.0164775
870.784	0.0167633
870.862	0.0165497
870.940	0.0166566
871.018	0.0166986
871.096	0.0166986
871.174	0.0166203
871.253	0.0165804
871.331	0.0166268
871.409	0.0167799
871.487	0.0165922
871.565	0.0165890
871.643	0.0165928
871.721	0.0164761
871.799	0.0166129
871.878	0.0164940
871.956	0.0166456
872.034	0.0165638
872.112	0.0166126
872.190	0.0165224
872.268	0.0165582
872.346	0.0164571
872.424	0.0164905
872.503	0.0166963
872.581	0.0165494
872.659	0.0164321
872.737	0.0165431
872.815	0.0165538
872.893	0.0165054
872.971	0.0165278
873.049	0.0165832
873.128	0.0164245
873.206	0.0163838
873.284	0.0165472
873.362	0.0164842
873.440	0.0165601
873.518	0.0164234
873.596	0.0164172
873.674	0.0165601
873.753	0.0164161
873.831	0.0163827
873.909	0.0162794
873.987	0.0163645
874.065	0.0165924
874.143	0.0166478
874.221	0.0164812
874.299	0.0164883
874.378	0.0164879
874.456	0.0164404
874.534	0.0163945
874.612	0.0164439
874.690	0.0163774
874.768	0.0166248
874.846	0.0164552
874.924	0.0163978
875.003	0.0163795
875.081	0.0165200
875.159	0.0164837
875.237	0.0164794
875.315	0.0164906
875.393	0.0165421
875.471	0.0164761
875.549	0.0165206
875.628	0.0164988
875.706	0.0165102
875.784	0.0164964
875.862	0.0165022
875.940	0.0166440
876.018	0.0164098
876.096	0.0164790
876.174	0.0165569
876.253	0.0163501
876.331	0.0164200
876.409	0.0164211
876.487	0.0164910
876.565	0.0164516
876.643	0.0165415
876.721	0.0165067
876.799	0.0164655
876.878	0.0165189
876.956	0.0164585
877.034	0.0165485
877.112	0.0164548
877.190	0.0163380
877.268	0.0164890
877.346	0.0166466
877.424	0.0164370
877.503	0.0166113
877.581	0.0165421
877.659	0.0164637
877.737	0.0163541
877.815	0.0164648
877.893	0.0164255
877.971	0.0163708
878.049	0.0165293
878.128	0.0165175
878.206	0.0163837
878.284	0.0165427
878.362	0.0164344
878.440	0.0165144
878.518	0.0165645
878.596	0.0166151
878.674	0.0166714
878.753	0.0165350
878.831	0.0165891
878.909	0.0166092
878.987	0.0166056
879.065	0.0166044
879.143	0.0166614
879.221	0.0165726
879.299	0.0166099
879.378	0.0166001
879.456	0.0166206
879.534	0.0166013
879.612	0.0166359
879.690	0.0165464
879.768	0.0166795
879.846	0.0165758
879.924	0.0166940
880.003	0.0165429
880.081	0.0165866
880.159	0.0166605
880.237	0.0167381
880.315	0.0166637
880.393	0.0165703
880.471	0.0166959
880.549	0.0167473
880.628	0.0165198
880.706	0.0165788
880.784	0.0166369
880.862	0.0167099
880.940	0.0165502
881.018	0.0166120
881.096	0.0165728
881.174	0.0166539
881.253	0.0165111
881.331	0.0164671
881.409	0.0164255
881.487	0.0164557
881.565	0.0165840
881.643	0.0164050
881.721	0.0166892
881.799	0.0165024
881.878	0.0163951
881.956	0.0164634
882.034	0.0166298
882.112	0.0165947
882.190	0.0164334
882.268	0.0166656
882.346	0.0165556
882.424	0.0163390
882.503	0.0163276
882.581	0.0164831
882.659	0.0163949
882.737	0.0164875
882.815	0.0165053
882.893	0.0165310
882.971	0.0164776
883.049	0.0164585
883.128	0.0165094
883.206	0.0165710
883.284	0.0164636
883.362	0.0163815
883.440	0.0165166
883.518	0.0165621
883.596	0.0165348
883.674	0.0165688
883.753	0.0165649
883.831	0.0165022
883.909	0.0165569
883.987	0.0166113
884.065	0.0165027
884.143	0.0165543
884.221	0.0167942
884.299	0.0166886
884.378	0.0166083
884.456	0.0165875
884.534	0.0166799
884.612	0.0167118
884.690	0.0166908
884.768	0.0165601
884.846	0.0166379
884.924	0.0166714
885.003	0.0166475
885.081	0.0167198
885.159	0.0167480
885.237	0.0167628
885.315	0.0166682
885.393	0.0167509
885.471	0.0167564
885.549	0.0167362
885.628	0.0167453
885.706	0.0168449
885.784	0.0166992
885.862	0.0167522
885.940	0.0168359
886.018	0.0166089
886.096	0.0167892
886.174	0.0166962
886.253	0.0166859
886.331	0.0167784
886.409	0.0167106
886.487	0.0166505
886.565	0.0166868
886.643	0.0167503
886.721	0.0167416
886.799	0.0166750
886.878	0.0165800
886.956	0.0166709
887.034	0.0166022
887.112	0.0166103
887.190	0.0166814
887.268	0.0167017
887.346	0.0166350
887.424	0.0167480
887.503	0.0167091
887.581	0.0166907
887.659	0.0166674
887.737	0.0165163
887.815	0.0167641
887.893	0.0165709
887.971	0.0165977
888.049	0.0165585
888.128	0.0166913
888.206	0.0167510
888.284	0.0166721
888.362	0.0163487
888.440	0.0164928
888.518	0.0166454
888.596	0.0164783
888.674	0.0165759
888.753	0.0165047
888.831	0.0165963
888.909	0.0165250
888.987	0.0165174
889.065	0.0165622
889.143	0.0165652
889.221	0.0164561
889.299	0.0165611
889.378	0.0165010
889.456	0.0164758
889.534	0.0166141
889.612	0.0165788
889.690	0.0165487
889.768	0.0164393
889.846	0.0165206
889.924	0.0165494
890.003	0.0164487
890.081	0.0164558
890.159	0.0165560
890.237	0.0164490
890.315	0.0165124
890.393	0.0164903
890.471	0.0165660
890.549	0.0165736
890.628	0.0165076
890.706	0.0165125
890.784	0.0165369
890.862	0.0164880
890.940	0.0165518
891.018	0.0165294
891.096	0.0165427
891.174	0.0166055
891.253	0.0164556
891.331	0.0164242
891.409	0.0164502
891.487	0.0165378
891.565	0.0164638
891.643	0.0164999
891.721	0.0164202
891.799	0.0164732
891.878	0.0164952
891.956	0.0164584
892.034	0.0164265
892.112	0.0165051
892.190	0.0166265
892.268	0.0163389
892.346	0.0165043
892.424	0.0165969
892.503	0.0165075
892.581	0.0163656
892.659	0.0164734
892.737	0.0166473
892.815	0.0164719
892.893	0.0164104
892.971	0.0165993
893.049	0.0165249
893.128	0.0165137
893.206	0.0164139
893.284	0.0165488
893.362	0.0165410
893.440	0.0165887
893.518	0.0165280
893.596	0.0165813
893.674	0.0165403
893.753	0.0164259
893.831	0.0164538
893.909	0.0165804
893.987	0.0166364
894.065	0.0166410
894.143	0.0166499
894.221	0.0165704
894.299	0.0164133
894.378	0.0166286
894.456	0.0165888
894.534	0.0165070
894.612	0.0165453
894.690	0.0165554
894.768	0.0165398
894.846	0.0166037
894.924	0.0166732
895.003	0.0165022
895.081	0.0164339
895.159	0.0163106
895.237	0.0164607
895.315	0.0166037
895.393	0.0166087
895.471	0.0165826
895.549	0.0165887
895.628	0.0164618
895.706	0.0164213
895.784	0.0164645
895.862	0.0164643
895.940	0.0165616
896.018	0.0165379
896.096	0.0165601
896.174	0.0165607
896.253	0.0165087
896.331	0.0165183
896.409	0.0164481
896.487	0.0165025
896.565	0.0164095
896.643	0.0165003
896.721	0.0164014
896.799	0.0164537
896.878	0.0165510
896.956	0.0165245
897.034	0.0164859
897.112	0.0164309
897.190	0.0165293
897.268	0.0165880
897.346	0.0164548
897.424	0.0165321
897.503	0.0164384
897.581	0.0164218
897.659	0.0163641
897.737	0.0165868
897.815	0.0165492
897.893	0.0165439
897.971	0.0164275
898.049	0.0164700
898.128	0.0164892
898.206	0.0164934
898.284	0.0164712
898.362	0.0166808
898.440	0.0164583
898.518	0.0164832
898.596	0.0164638
898.674	0.0164866
898.753	0.0165490
898.831	0.0165111
898.909	0.0164449
898.987	0.0164429
899.065	0.0166364
899.143	0.0166222
899.221	0.0164818
899.299	0.0164545
899.378	0.0164159
899.456	0.0165061
899.534	0.0165948
899.612	0.0165775
899.690	0.0166093
899.768	0.0165450
899.846	0.0165553
899.924	0.0165735
900.003	0.0167037
900.081	0.0166038
900.159	0.0165717
900.237	0.0165667
900.315	0.0166075
900.393	0.0165631
900.471	0.0165292
900.549	0.0165582
900.628	0.0166341
900.706	0.0164881
900.784	0.0166480
900.862	0.0165631
900.940	0.0163368
901.018	0.0164938
901.096	0.0164716
901.174	0.0165002
901.253	0.0164983
901.331	0.0166071
901.409	0.0164928
901.487	0.0164629
901.565	0.0166109
901.643	0.0165575
901.721	0.0165869
901.799	0.0166280
901.878	0.0165978
901.956	0.0165584
902.034	0.0165839
902.112	0.0164825
902.190	0.0167049
902.268	0.0166275
902.346	0.0165723
902.424	0.0166737
902.503	0.0164994
902.581	0.0166985
902.659	0.0164834
902.737	0.0166260
902.815	0.0167097
902.893	0.0166066
902.971	0.0166358
903.049	0.0165488
903.128	0.0166441
903.206	0.0166565
903.284	0.0166722
903.362	0.0166819
903.440	0.0165445
903.518	0.0166197
903.596	0.0164246
903.674	0.0164199
903.753	0.0165530
903.831	0.0165655
903.909	0.0165726
903.987	0.0165715
904.065	0.0164868
904.143	0.0165163
904.221	0.0165855
904.299	0.0163480
904.378	0.0165961
904.456	0.0165800
904.534	0.0165255
904.612	0.0164575
904.690	0.0165150
904.768	0.0164330
904.846	0.0164631
904.924	0.0166660
905.003	0.0165620
905.081	0.0165775
905.159	0.0165715
905.237	0.0165659
905.315	0.0165183
905.393	0.0165772
905.471	0.0167379
905.549	0.0165568
905.628	0.0166290
905.706	0.0164756
905.784	0.0165359
905.862	0.0166117
905.940	0.0165104
906.018	0.0164252
906.096	0.0164520
906.174	0.0166039
906.253	0.0165672
906.331	0.0164391
906.409	0.0165358
906.487	0.0165549
906.565	0.0165517
906.643	0.0165302
906.721	0.0164630
906.799	0.0164487
906.878	0.0165700
906.956	0.0166496
907.034	0.0166053
907.112	0.0166114
907.190	0.0165975
907.268	0.0163637
907.346	0.0165501
907.424	0.0164909
907.503	0.0165187
907.581	0.0165399
907.659	0.0165510
907.737	0.0166737
907.815	0.0164369
907.893	0.0165105
907.971	0.0165051
908.049	0.0165512
908.128	0.0165672
908.206	0.0164329
908.284	0.0165051
908.362	0.0165355
908.440	0.0164906
908.518	0.0166103
908.596	0.0165627
908.674	0.0166694
908.753	0.0165362
908.831	0.0165357
908.909	0.0164832
908.987	0.0164833
909.065	0.0166119
909.143	0.0165997
909.221	0.0166214
909.299	0.0165685
909.378	0.0165054
909.456	0.0165683
909.534	0.0164980
909.612	0.0166722
909.690	0.0165882
909.768	0.0166083
909.846	0.0165582
909.924	0.0165785
910.003	0.0165578
910.081	0.0165554
910.159	0.0165741
910.237	0.0165462
910.315	0.0166138
910.393	0.0166124
910.471	0.0165306
910.549	0.0165673
910.628	0.0165174
910.706	0.0165305
910.784	0.0163176
910.862	0.0163834
910.940	0.0165346
911.018	0.0164708
911.096	0.0165045
911.174	0.0164304
911.253	0.0165051
911.331	0.0165284
911.409	0.0166330
911.487	0.0166452
911.565	0.0165624
911.643	0.0164902
911.721	0.0164647
911.799	0.0165386
911.878	0.0164902
911.956	0.0165166
912.034	0.0166199
912.112	0.0166386
912.190	0.0166705
912.268	0.0164993
912.346	0.0165012
912.424	0.0166026
912.503	0.0165278
912.581	0.0165360
912.659	0.0165933
912.737	0.0164439
912.815	0.0165414
912.893	0.0165583
912.971	0.0164966
913.049	0.0163857
913.128	0.0164967
913.206	0.0165590
913.284	0.0166333
913.362	0.0165963
913.440	0.0165741
913.518	0.0166162
913.596	0.0163567
913.674	0.0164260
913.753	0.0165867
913.831	0.0165152
913.909	0.0165070
913.987	0.0164993
914.065	0.0166111
914.143	0.0166029
914.221	0.0165912
914.299	0.0165379
914.378	0.0164155
914.456	0.0165372
914.534	0.0166869
914.612	0.0165659
914.690	0.0165977
914.768	0.0163860
914.846	0.0164304
914.924	0.0165510
915.003	0.0166719
915.081	0.0165269
915.159	0.0165311
915.237	0.0166123
915.315	0.0166452
915.393	0.0163513
915.471	0.0164388
915.549	0.0163564
915.628	0.0164906
915.706	0.0165395
915.784	0.0165498
915.862	0.0164573
915.940	0.0165025
916.018	0.0166675
916.096	0.0165833
916.174	0.0166610
916.253	0.0164877
916.331	0.0165820
916.409	0.0166980
916.487	0.0166734
916.565	0.0165768
916.643	0.0165652
916.721	0.0165990
916.799	0.0166146
916.878	0.0165556
916.956	0.0166517
917.034	0.0166206
917.112	0.0165464
917.190	0.0165678
917.268	0.0168050
917.346	0.0165481
917.424	0.0166209
917.503	0.0166680
917.581	0.0165864
917.659	0.0165875
917.737	0.0166225
917.815	0.0165759
917.893	0.0165685
917.971	0.0165976
918.049	0.0166011
918.128	0.0166303
918.206	0.0166016
918.284	0.0165619
918.362	0.0164344
918.440	0.0165594
918.518	0.0164999
918.596	0.0166164
918.674	0.0165579
918.753	0.0166484
918.831	0.0165575
918.909	0.0165776
918.987	0.0164925
919.065	0.0164758
919.143	0.0165465
919.221	0.0167475
919.299	0.0166001
919.378	0.0165424
919.456	0.0165690
919.534	0.0166402
919.612	0.0165562
919.690	0.0165959
919.768	0.0165494
919.846	0.0165363
919.924	0.0165298
920.003	0.0165971
920.081	0.0164581
920.159	0.0164935
920.237	0.0166759
920.315	0.0166247
920.393	0.0165497
920.471	0.0165841
920.549	0.0165851
920.628	0.0165358
920.706	0.0165430
920.784	0.0165945
920.862	0.0165783
920.940	0.0165114
921.018	0.0166116
921.096	0.0165191
921.174	0.0166282
921.253	0.0164754
921.331	0.0166856
921.409	0.0166014
921.487	0.0164928
921.565	0.0164275
921.643	0.0163605
921.721	0.0165778
921.799	0.0166836
921.878	0.0164932
921.956	0.0164700
922.034	0.0164057
922.112	0.0165041
922.190	0.0164027
922.268	0.0165240
922.346	0.0165160
922.424	0.0164761
922.503	0.0164355
922.581	0.0165369
922.659	0.0163248
922.737	0.0165044
922.815	0.0165469
922.893	0.0163451
922.971	0.0164009
923.049	0.0164996
923.128	0.0165826
923.206	0.0164513
923.284	0.0164264
923.362	0.0164995
923.440	0.0164052
923.518	0.0165794
923.596	0.0165799
923.674	0.0166023
923.753	0.0166474
923.831	0.0166714
923.909	0.0165975
923.987	0.0166164
924.065	0.0165049
924.143	0.0165763
924.221	0.0166360
924.299	0.0166566
924.378	0.0166483
924.456	0.0166570
924.534	0.0165618
924.612	0.0166386
924.690	0.0166049
924.768	0.0165814
924.846	0.0166607
924.924	0.0165466
925.003	0.0165281
925.081	0.0166434
925.159	0.0165922
925.237	0.0166113
925.315	0.0166292
925.393	0.0167226
925.471	0.0165313
925.549	0.0165228
925.628	0.0164812
925.706	0.0165549
925.784	0.0166626
925.862	0.0167039
925.940	0.0166496
926.018	0.0165985
926.096	0.0166045
926.174	0.0166435
926.253	0.0166192
926.331	0.0166074
926.409	0.0166499
926.487	0.0167268
926.565	0.0166354
926.643	0.0166502
926.721	0.0167229
926.799	0.0165350
926.878	0.0165974
926.956	0.0166270
927.034	0.0164771
927.112	0.0165108
927.190	0.0165777
927.268	0.0165018
927.346	0.0163866
927.424	0.0164548
927.503	0.0164777
927.581	0.0164608
927.659	0.0165199
927.737	0.0165849
927.815	0.0164895
927.893	0.0164863
927.971	0.0164563
928.049	0.0165070
928.128	0.0164354
928.206	0.0164052
928.284	0.0164761
928.362	0.0164450
928.440	0.0165089
928.518	0.0163486
928.596	0.0164957
928.674	0.0165918
928.753	0.0165745
928.831	0.0164576
928.909	0.0164130
928.987	0.0163914
929.065	0.0165241
929.143	0.0164428
929.221	0.0163726
929.299	0.0164271
929.378	0.0166309
929.456	0.0164479
929.534	0.0164439
929.612	0.0164693
929.690	0.0164149
929.768	0.0164268
929.846	0.0164137
929.924	0.0165161
930.003	0.0163950
930.081	0.0164347
930.159	0.0163757
930.237	0.0164794
930.315	0.0164606
930.393	0.0165295
930.471	0.0164086
930.549	0.0164692
930.628	0.0164256
930.706	0.0165303
930.784	0.0164291
930.862	0.0165366
930.940	0.0164709
931.018	0.0165565
931.096	0.0165951
931.174	0.0164610
931.253	0.0165092
931.331	0.0164832
931.409	0.0163514
931.487	0.0164545
931.565	0.0164937
931.643	0.0164711
931.721	0.0163726
931.799	0.0164337
931.878	0.0163843
931.956	0.0164706
932.034	0.0166416
932.112	0.0164233
932.190	0.0163367
932.268	0.0164711
932.346	0.0164339
932.424	0.0164651
932.503	0.0163528
932.581	0.0164224
932.659	0.0164847
932.737	0.0163628
932.815	0.0164269
932.893	0.0162918
932.971	0.0164715
933.049	0.0163369
933.128	0.0164475
933.206	0.0163686
933.284	0.0164424
933.362	0.0163220
933.440	0.0165424
933.518	0.0164135
933.596	0.0164101
933.674	0.0163194
933.753	0.0164579
933.831	0.0165061
933.909	0.0164709
933.987	0.0164863
934.065	0.0166265
934.143	0.0164222
934.221	0.0163895
934.299	0.0165546
934.378	0.0165266
934.456	0.0165359
934.534	0.0165430
934.612	0.0165017
934.690	0.0166459
934.768	0.0164941
934.846	0.0166946
934.924	0.0165690
935.003	0.0165495
935.081	0.0166306
935.159	0.0165267
935.237	0.0166241
935.315	0.0167117
935.393	0.0167149
935.471	0.0167626
935.549	0.0165649
935.628	0.0165218
935.706	0.0165651
935.784	0.0165537
935.862	0.0165903
935.940	0.0166798
936.018	0.0165850
936.096	0.0165892
936.174	0.0164961
936.253	0.0165813
936.331	0.0165970
936.409	0.0165031
936.487	0.0165893
936.565	0.0165881
936.643	0.0166219
936.721	0.0166421
936.799	0.0165173
936.878	0.0165907
936.956	0.0165836
937.034	0.0165495
937.112	0.0164570
937.190	0.0164457
937.268	0.0166361
937.346	0.0165095
937.424	0.0164241
937.503	0.0164634
937.581	0.0163958
937.659	0.0164676
937.737	0.0165934
937.815	0.0165245
937.893	0.0164599
937.971	0.0163898
938.049	0.0163783
938.128	0.0163663
938.206	0.0165476
938.284	0.0165579
938.362	0.0164761
938.440	0.0164520
938.518	0.0164950
938.596	0.0164804
938.674	0.0163737
938.753	0.0164109
938.831	0.0165012
938.909	0.0164983
938.987	0.0165234
939.065	0.0163231
939.143	0.0163329
939.221	0.0165480
939.299	0.0164806
939.378	0.0164466
939.456	0.0164156
939.534	0.0164877
939.612	0.0165463
939.690	0.0165170
939.768	0.0164375
939.846	0.0165514
939.924	0.0165353
940.003	0.0164714
940.081	0.0165588
940.159	0.0165025
940.237	0.0165090
940.315	0.0166011
940.393	0.0166519
940.471	0.0166096
940.549	0.0166344
940.628	0.0164762
940.706	0.0164762
940.784	0.0165916
940.862	0.0166044
940.940	0.0164994
941.018	0.0166676
941.096	0.0165671
941.174	0.0166425
941.253	0.0166778
941.331	0.0167176
941.409	0.0165170
941.487	0.0166785
941.565	0.0165890
941.643	0.0165865
941.721	0.0165741
941.799	0.0166851
941.878	0.0166131
941.956	0.0167379
942.034	0.0166570
942.112	0.0165432
942.190	0.0165090
942.268	0.0165322
942.346	0.0165885
942.424	0.0165293
942.503	0.0164991
942.581	0.0164609
942.659	0.0166264
942.737	0.0166628
942.815	0.0165520
942.893	0.0166237
942.971	0.0166045
943.049	0.0166100
943.128	0.0165663
943.206	0.0165263
943.284	0.0165794
943.362	0.0166541
943.440	0.0165952
943.518	0.0166071
943.596	0.0167109
943.674	0.0164557
943.753	0.0166311
943.831	0.0166452
943.909	0.0166521
943.987	0.0166227
944.065	0.0167456
944.143	0.0166529
944.221	0.0165710
944.299	0.0165257
944.378	0.0166206
944.456	0.0165575
944.534	0.0167348
944.612	0.0166080
944.690	0.0165868
944.768	0.0165712
944.846	0.0166251
944.924	0.0164908
945.003	0.0166787
945.081	0.0166067
945.159	0.0165480
945.237	0.0165440
945.315	0.0165222
945.393	0.0165083
945.471	0.0164664
945.549	0.0164574
945.628	0.0165305
945.706	0.0165704
945.784	0.0163631
945.862	0.0164552
945.940	0.0165984
946.018	0.0163853
946.096	0.0164260
946.174	0.0164291
946.253	0.0164568
946.331	0.0163839
946.409	0.0165209
946.487	0.0164007
946.565	0.0164781
946.643	0.0166673
946.721	0.0166384
946.799	0.0165245
946.878	0.0164703
946.956	0.0166083
947.034	0.0165182
947.112	0.0164686
947.190	0.0165923
947.268	0.0164906
947.346	0.0165235
947.424	0.0166090
947.503	0.0166223
947.581	0.0165546
947.659	0.0166261
947.737	0.0164595
947.815	0.0166588
947.893	0.0166525
947.971	0.0166756
948.049	0.0165921
948.128	0.0165800
948.206	0.0167541
948.284	0.0167624
948.362	0.0165535
948.440	0.0166786
948.518	0.0167478
948.596	0.0167382
948.674	0.0166403
948.753	0.0165636
948.831	0.0165851
948.909	0.0166552
948.987	0.0165980
949.065	0.0166220
949.143	0.0164914
949.221	0.0165703
949.299	0.0165378
949.378	0.0164928
949.456	0.0166417
949.534	0.0166905
949.612	0.0163813
949.690	0.0166911
949.768	0.0164806
949.846	0.0167139
949.924	0.0164619
