05/19/2022	00:50:43	Ver.	4.1	UNKNOWN
Optical Delay	630.002507	Delta X		0.078125	Sweeps	1	Scan Rate	0/0
Coordinates	Axis 1	NaN	Axis 2	NaN	Axis 3	NaN	Axis 4	NaN	Axis 5	NaN	Axis 6	0.000000
TX Power	0.000000	RX Power	0.000000

630.003	0.0163325
630.081	0.0163029
630.159	0.0163338
630.237	0.0163570
630.315	0.0163869
630.393	0.0164014
630.471	0.0163428
630.549	0.0163433
630.628	0.0163349
630.706	0.0163434
630.784	0.0163647
630.862	0.0163171
630.940	0.0163768
631.018	0.0162632
631.096	0.0162701
631.174	0.0163321
631.253	0.0163029
631.331	0.0163387
631.409	0.0163466
631.487	0.0162473
631.565	0.0164074
631.643	0.0163129
631.721	0.0162666
631.799	0.0164163
631.878	0.0162687
631.956	0.0164378
632.034	0.0164127
632.112	0.0164040
632.190	0.0164039
632.268	0.0164202
632.346	0.0164066
632.424	0.0163807
632.503	0.0162872
632.581	0.0163255
632.659	0.0164715
632.737	0.0163670
632.815	0.0163988
632.893	0.0163644
632.971	0.0162549
633.049	0.0163853
633.128	0.0163708
633.206	0.0163747
633.284	0.0163395
633.362	0.0164216
633.440	0.0163441
633.518	0.0163802
633.596	0.0164363
633.674	0.0163470
633.753	0.0164500
633.831	0.0164706
633.909	0.0164547
633.987	0.0164619
634.065	0.0164650
634.143	0.0162933
634.221	0.0164143
634.299	0.0163437
634.378	0.0164504
634.456	0.0164125
634.534	0.0163042
634.612	0.0163871
634.690	0.0165196
634.768	0.0164092
634.846	0.0162888
634.924	0.0163140
635.003	0.0164867
635.081	0.0163989
635.159	0.0164372
635.237	0.0163967
635.315	0.0164120
635.393	0.0162325
635.471	0.0162915
635.549	0.0162441
635.628	0.0165360
635.706	0.0164651
635.784	0.0163217
635.862	0.0165342
635.940	0.0164333
636.018	0.0163413
636.096	0.0163202
636.174	0.0164566
636.253	0.0163686
636.331	0.0163114
636.409	0.0165063
636.487	0.0163483
636.565	0.0163210
636.643	0.0163467
636.721	0.0163790
636.799	0.0162698
636.878	0.0161781
636.956	0.0163559
637.034	0.0162725
637.112	0.0162357
637.190	0.0163614
637.268	0.0164050
637.346	0.0163004
637.424	0.0163113
637.503	0.0162829
637.581	0.0164722
637.659	0.0163864
637.737	0.0163779
637.815	0.0164169
637.893	0.0164842
637.971	0.0163391
638.049	0.0162156
638.128	0.0164668
638.206	0.0163255
638.284	0.0164503
638.362	0.0163142
638.440	0.0163435
638.518	0.0162624
638.596	0.0163139
638.674	0.0163246
638.753	0.0162810
638.831	0.0163445
638.909	0.0162787
638.987	0.0162171
639.065	0.0162713
639.143	0.0162003
639.221	0.0164472
639.299	0.0164657
639.378	0.0163393
639.456	0.0163841
639.534	0.0165239
639.612	0.0163852
639.690	0.0164796
639.768	0.0163490
639.846	0.0162741
639.924	0.0162762
640.003	0.0164737
640.081	0.0164826
640.159	0.0164633
640.237	0.0164230
640.315	0.0163400
640.393	0.0164691
640.471	0.0164810
640.549	0.0164247
640.628	0.0163948
640.706	0.0164138
640.784	0.0164586
640.862	0.0165151
640.940	0.0164494
641.018	0.0164552
641.096	0.0163471
641.174	0.0164680
641.253	0.0163515
641.331	0.0165448
641.409	0.0163937
641.487	0.0163670
641.565	0.0164935
641.643	0.0164633
641.721	0.0163348
641.799	0.0164084
641.878	0.0164762
641.956	0.0163490
642.034	0.0164471
642.112	0.0162218
642.190	0.0163911
642.268	0.0163440
642.346	0.0165527
642.424	0.0163747
642.503	0.0163556
642.581	0.0164011
642.659	0.0164954
642.737	0.0164207
642.815	0.0163554
642.893	0.0163141
642.971	0.0163043
643.049	0.0163470
643.128	0.0163586
643.206	0.0163747
643.284	0.0162613
643.362	0.0163505
643.440	0.0164268
643.518	0.0163248
643.596	0.0163843
643.674	0.0163185
643.753	0.0163721
643.831	0.0164150
643.909	0.0164584
643.987	0.0163421
644.065	0.0163293
644.143	0.0163769
644.221	0.0164063
644.299	0.0164226
644.378	0.0165195
644.456	0.0164748
644.534	0.0164610
644.612	0.0164201
644.690	0.0163699
644.768	0.0162775
644.846	0.0164436
644.924	0.0162646
645.003	0.0162836
645.081	0.0163515
645.159	0.0163093
645.237	0.0161243
645.315	0.0162282
645.393	0.0162839
645.471	0.0162782
645.549	0.0162990
645.628	0.0160746
645.706	0.0161205
645.784	0.0162034
645.862	0.0163118
645.940	0.0163506
646.018	0.0163132
646.096	0.0161854
646.174	0.0162759
646.253	0.0163322
646.331	0.0162517
646.409	0.0163570
646.487	0.0163141
646.565	0.0162955
646.643	0.0163625
646.721	0.0164395
646.799	0.0162453
646.878	0.0162052
646.956	0.0164342
647.034	0.0163163
647.112	0.0163023
647.190	0.0163029
647.268	0.0162732
647.346	0.0163476
647.424	0.0162003
647.503	0.0163139
647.581	0.0163654
647.659	0.0163588
647.737	0.0162919
647.815	0.0162938
647.893	0.0164256
647.971	0.0163242
648.049	0.0164860
648.128	0.0165700
648.206	0.0163316
648.284	0.0163847
648.362	0.0165216
648.440	0.0165008
648.518	0.0165396
648.596	0.0164264
648.674	0.0164500
648.753	0.0165234
648.831	0.0164705
648.909	0.0164197
648.987	0.0163968
649.065	0.0163381
649.143	0.0164422
649.221	0.0165317
649.299	0.0165401
649.378	0.0165244
649.456	0.0165566
649.534	0.0164537
649.612	0.0163957
649.690	0.0163361
649.768	0.0164842
649.846	0.0165248
649.924	0.0164001
650.003	0.0164442
650.081	0.0164356
650.159	0.0164693
650.237	0.0163927
650.315	0.0163557
650.393	0.0163971
650.471	0.0165021
650.549	0.0164515
650.628	0.0164621
650.706	0.0163552
650.784	0.0164924
650.862	0.0164874
650.940	0.0164649
651.018	0.0164902
651.096	0.0165387
651.174	0.0165450
651.253	0.0164551
651.331	0.0166289
651.409	0.0165714
651.487	0.0164885
651.565	0.0164765
651.643	0.0166227
651.721	0.0165949
651.799	0.0164397
651.878	0.0164561
651.956	0.0163451
652.034	0.0164516
652.112	0.0166563
652.190	0.0162856
652.268	0.0163390
652.346	0.0164014
652.424	0.0162666
652.503	0.0164182
652.581	0.0161926
652.659	0.0162778
652.737	0.0162867
652.815	0.0161493
652.893	0.0161700
652.971	0.0163364
653.049	0.0160983
653.128	0.0162936
653.206	0.0164061
653.284	0.0163547
653.362	0.0163953
653.440	0.0163187
653.518	0.0163120
653.596	0.0165410
653.674	0.0163448
653.753	0.0160694
653.831	0.0162542
653.909	0.0161622
653.987	0.0163708
654.065	0.0164056
654.143	0.0162614
654.221	0.0161813
654.299	0.0162772
654.378	0.0162193
654.456	0.0161594
654.534	0.0161961
654.612	0.0163079
654.690	0.0162119
654.768	0.0160991
654.846	0.0161815
654.924	0.0161974
655.003	0.0161224
655.081	0.0163503
655.159	0.0162691
655.237	0.0163028
655.315	0.0163953
655.393	0.0163853
655.471	0.0162761
655.549	0.0162434
655.628	0.0162577
655.706	0.0164140
655.784	0.0162245
655.862	0.0163733
655.940	0.0164405
656.018	0.0163267
656.096	0.0163844
656.174	0.0164530
656.253	0.0165092
656.331	0.0163669
656.409	0.0163746
656.487	0.0164336
656.565	0.0164959
656.643	0.0165382
656.721	0.0164616
656.799	0.0165446
656.878	0.0164097
656.956	0.0165179
657.034	0.0164200
657.112	0.0165300
657.190	0.0164383
657.268	0.0164874
657.346	0.0163218
657.424	0.0162624
657.503	0.0162502
657.581	0.0162228
657.659	0.0163700
657.737	0.0163491
657.815	0.0163261
657.893	0.0161217
657.971	0.0162576
658.049	0.0163025
658.128	0.0164046
658.206	0.0163910
658.284	0.0163425
658.362	0.0164610
658.440	0.0164465
658.518	0.0165282
658.596	0.0163737
658.674	0.0164668
658.753	0.0165733
658.831	0.0165002
658.909	0.0163305
658.987	0.0164174
659.065	0.0164240
659.143	0.0165104
659.221	0.0162795
659.299	0.0162959
659.378	0.0164189
659.456	0.0163982
659.534	0.0163226
659.612	0.0165015
659.690	0.0162747
659.768	0.0162495
659.846	0.0164009
659.924	0.0164144
660.003	0.0164009
660.081	0.0164818
660.159	0.0165275
660.237	0.0164567
660.315	0.0165421
660.393	0.0164839
660.471	0.0163104
660.549	0.0163082
660.628	0.0164085
660.706	0.0162290
660.784	0.0163432
660.862	0.0163780
660.940	0.0161993
661.018	0.0164149
661.096	0.0163010
661.174	0.0162601
661.253	0.0162941
661.331	0.0162274
661.409	0.0163303
661.487	0.0163983
661.565	0.0165499
661.643	0.0165034
661.721	0.0163845
661.799	0.0164050
661.878	0.0164770
661.956	0.0163790
662.034	0.0164545
662.112	0.0163218
662.190	0.0164213
662.268	0.0164531
662.346	0.0162342
662.424	0.0162895
662.503	0.0163513
662.581	0.0163362
662.659	0.0163334
662.737	0.0162356
662.815	0.0160752
662.893	0.0160735
662.971	0.0161768
663.049	0.0163663
663.128	0.0162719
663.206	0.0163944
663.284	0.0163772
663.362	0.0164047
663.440	0.0163927
663.518	0.0165189
663.596	0.0164713
663.674	0.0164736
663.753	0.0165829
663.831	0.0165534
663.909	0.0165676
663.987	0.0166080
664.065	0.0165470
664.143	0.0165955
664.221	0.0164525
664.299	0.0164818
664.378	0.0163956
664.456	0.0165398
664.534	0.0165183
664.612	0.0164083
664.690	0.0164486
664.768	0.0163770
664.846	0.0164589
664.924	0.0163875
665.003	0.0164358
665.081	0.0165199
665.159	0.0163425
665.237	0.0163151
665.315	0.0164565
665.393	0.0164126
665.471	0.0163753
665.549	0.0164738
665.628	0.0164194
665.706	0.0163490
665.784	0.0162774
665.862	0.0163121
665.940	0.0161868
666.018	0.0161725
666.096	0.0162350
666.174	0.0162421
666.253	0.0162438
666.331	0.0163422
666.409	0.0163058
666.487	0.0163314
666.565	0.0164996
666.643	0.0164705
666.721	0.0163547
666.799	0.0164794
666.878	0.0164455
666.956	0.0163420
667.034	0.0164560
667.112	0.0166226
667.190	0.0165000
667.268	0.0164084
667.346	0.0164103
667.424	0.0165514
667.503	0.0164360
667.581	0.0164487
667.659	0.0163712
667.737	0.0163668
667.815	0.0164746
667.893	0.0164523
667.971	0.0163165
668.049	0.0163379
668.128	0.0163732
668.206	0.0163099
668.284	0.0164168
668.362	0.0166502
668.440	0.0164196
668.518	0.0164363
668.596	0.0164653
668.674	0.0164023
668.753	0.0162364
668.831	0.0163718
668.909	0.0164068
668.987	0.0163120
669.065	0.0164604
669.143	0.0162887
669.221	0.0163248
669.299	0.0161543
669.378	0.0162145
669.456	0.0163086
669.534	0.0162524
669.612	0.0163459
669.690	0.0164043
669.768	0.0163223
669.846	0.0163039
669.924	0.0162564
670.003	0.0163470
670.081	0.0164552
670.159	0.0164237
670.237	0.0163802
670.315	0.0164381
670.393	0.0164588
670.471	0.0165734
670.549	0.0164955
670.628	0.0165836
670.706	0.0165083
670.784	0.0165418
670.862	0.0167748
670.940	0.0165691
671.018	0.0166695
671.096	0.0165437
671.174	0.0165797
671.253	0.0165967
671.331	0.0165406
671.409	0.0164711
671.487	0.0164572
671.565	0.0166255
671.643	0.0164251
671.721	0.0164601
671.799	0.0166452
671.878	0.0165265
671.956	0.0165533
672.034	0.0164873
672.112	0.0164527
672.190	0.0164877
672.268	0.0163486
672.346	0.0163855
672.424	0.0163199
672.503	0.0161831
672.581	0.0162004
672.659	0.0162206
672.737	0.0161871
672.815	0.0162355
672.893	0.0160146
672.971	0.0161370
673.049	0.0161813
673.128	0.0161720
673.206	0.0162254
673.284	0.0160459
673.362	0.0162766
673.440	0.0160960
673.518	0.0163329
673.596	0.0162263
673.674	0.0164339
673.753	0.0164412
673.831	0.0163394
673.909	0.0165562
673.987	0.0164648
674.065	0.0167287
674.143	0.0166717
674.221	0.0165440
674.299	0.0166443
674.378	0.0165154
674.456	0.0165638
674.534	0.0166840
674.612	0.0167183
674.690	0.0166811
674.768	0.0166105
674.846	0.0165862
674.924	0.0165831
675.003	0.0164677
675.081	0.0164697
675.159	0.0164076
675.237	0.0164271
675.315	0.0163778
675.393	0.0162740
675.471	0.0165018
675.549	0.0163366
675.628	0.0163422
675.706	0.0163664
675.784	0.0163271
675.862	0.0164079
675.940	0.0163975
676.018	0.0163287
676.096	0.0163416
676.174	0.0162793
676.253	0.0162151
676.331	0.0162045
676.409	0.0161603
676.487	0.0161739
676.565	0.0160162
676.643	0.0160217
676.721	0.0158242
676.799	0.0159982
676.878	0.0161845
676.956	0.0161138
677.034	0.0159447
677.112	0.0159682
677.190	0.0159662
677.268	0.0162090
677.346	0.0162721
677.424	0.0161616
677.503	0.0161190
677.581	0.0162759
677.659	0.0163647
677.737	0.0163496
677.815	0.0164172
677.893	0.0164568
677.971	0.0164761
678.049	0.0164806
678.128	0.0163779
678.206	0.0165002
678.284	0.0163914
678.362	0.0165692
678.440	0.0166920
678.518	0.0165208
678.596	0.0163560
678.674	0.0164860
678.753	0.0163286
678.831	0.0163966
678.909	0.0163419
678.987	0.0163346
679.065	0.0163013
679.143	0.0163122
679.221	0.0164261
679.299	0.0163267
679.378	0.0165015
679.456	0.0163997
679.534	0.0165392
679.612	0.0165408
679.690	0.0164021
679.768	0.0164169
679.846	0.0164363
679.924	0.0164538
680.003	0.0163733
680.081	0.0163943
680.159	0.0163371
680.237	0.0162890
680.315	0.0162449
680.393	0.0162277
680.471	0.0161455
680.549	0.0160446
680.628	0.0160722
680.706	0.0160120
680.784	0.0162634
680.862	0.0161538
680.940	0.0160316
681.018	0.0162246
681.096	0.0162295
681.174	0.0163087
681.253	0.0163171
681.331	0.0163922
681.409	0.0163139
681.487	0.0163683
681.565	0.0163720
681.643	0.0163895
681.721	0.0164673
681.799	0.0165645
681.878	0.0165185
681.956	0.0165178
682.034	0.0164758
682.112	0.0164544
682.190	0.0165272
682.268	0.0164405
682.346	0.0164149
682.424	0.0163461
682.503	0.0165120
682.581	0.0164869
682.659	0.0163953
682.737	0.0164281
682.815	0.0163091
682.893	0.0163760
682.971	0.0163335
683.049	0.0161936
683.128	0.0163326
683.206	0.0163403
683.284	0.0164978
683.362	0.0165124
683.440	0.0164401
683.518	0.0165092
683.596	0.0164790
683.674	0.0165565
683.753	0.0164680
683.831	0.0164285
683.909	0.0164446
683.987	0.0165479
684.065	0.0165546
684.143	0.0165405
684.221	0.0164879
684.299	0.0163702
684.378	0.0165352
684.456	0.0163828
684.534	0.0163028
684.612	0.0163499
684.690	0.0163521
684.768	0.0163198
684.846	0.0162852
684.924	0.0163728
685.003	0.0161784
685.081	0.0161929
685.159	0.0161678
685.237	0.0162872
685.315	0.0162612
685.393	0.0162494
685.471	0.0162792
685.549	0.0163601
685.628	0.0163182
685.706	0.0162801
685.784	0.0163007
685.862	0.0163885
685.940	0.0162222
686.018	0.0162009
686.096	0.0162022
686.174	0.0162708
686.253	0.0162578
686.331	0.0163293
686.409	0.0163126
686.487	0.0162103
686.565	0.0162353
686.643	0.0161983
686.721	0.0161980
686.799	0.0162003
686.878	0.0162971
686.956	0.0163086
687.034	0.0164177
687.112	0.0162450
687.190	0.0164206
687.268	0.0165184
687.346	0.0166654
687.424	0.0166281
687.503	0.0166006
687.581	0.0166440
687.659	0.0166405
687.737	0.0166483
687.815	0.0166145
687.893	0.0166138
687.971	0.0166712
688.049	0.0163972
688.128	0.0164490
688.206	0.0164267
688.284	0.0164638
688.362	0.0164290
688.440	0.0163861
688.518	0.0163407
688.596	0.0163093
688.674	0.0162589
688.753	0.0162562
688.831	0.0163740
688.909	0.0162225
688.987	0.0161832
689.065	0.0162889
689.143	0.0162846
689.221	0.0162720
689.299	0.0164127
689.378	0.0164934
689.456	0.0163535
689.534	0.0164241
689.612	0.0164708
689.690	0.0166020
689.768	0.0164973
689.846	0.0165051
689.924	0.0166051
690.003	0.0166170
690.081	0.0165859
690.159	0.0165592
690.237	0.0166278
690.315	0.0167832
690.393	0.0165516
690.471	0.0164799
690.549	0.0166241
690.628	0.0164274
690.706	0.0165588
690.784	0.0163959
690.862	0.0163053
690.940	0.0164982
691.018	0.0163197
691.096	0.0160910
691.174	0.0162522
691.253	0.0163464
691.331	0.0162199
691.409	0.0161903
691.487	0.0162586
691.565	0.0161655
691.643	0.0162234
691.721	0.0161536
691.799	0.0159447
691.878	0.0160457
691.956	0.0161846
692.034	0.0162923
692.112	0.0163434
692.190	0.0162265
692.268	0.0162624
692.346	0.0163063
692.424	0.0164681
692.503	0.0163338
692.581	0.0164991
692.659	0.0163284
692.737	0.0162675
692.815	0.0163358
692.893	0.0163873
692.971	0.0163792
693.049	0.0163895
693.128	0.0163609
693.206	0.0162776
693.284	0.0163675
693.362	0.0165151
693.440	0.0164569
693.518	0.0165743
693.596	0.0164212
693.674	0.0164031
693.753	0.0164339
693.831	0.0165962
693.909	0.0165427
693.987	0.0165853
694.065	0.0167281
694.143	0.0167055
694.221	0.0166534
694.299	0.0165978
694.378	0.0164747
694.456	0.0165440
694.534	0.0165269
694.612	0.0165577
694.690	0.0162623
694.768	0.0163311
694.846	0.0163197
694.924	0.0160877
695.003	0.0162911
695.081	0.0162656
695.159	0.0162589
695.237	0.0161685
695.315	0.0163749
695.393	0.0163154
695.471	0.0161535
695.549	0.0162129
695.628	0.0162112
695.706	0.0162853
695.784	0.0162160
695.862	0.0163337
695.940	0.0161675
696.018	0.0162570
696.096	0.0163074
696.174	0.0164111
696.253	0.0163560
696.331	0.0163904
696.409	0.0163296
696.487	0.0163182
696.565	0.0165853
696.643	0.0164217
696.721	0.0163409
696.799	0.0165126
696.878	0.0163503
696.956	0.0163811
697.034	0.0164550
697.112	0.0163123
697.190	0.0163480
697.268	0.0163585
697.346	0.0162076
697.424	0.0162177
697.503	0.0162182
697.581	0.0161277
697.659	0.0161578
697.737	0.0161502
697.815	0.0161089
697.893	0.0160760
697.971	0.0161286
698.049	0.0162569
698.128	0.0162344
698.206	0.0162482
698.284	0.0161746
698.362	0.0164250
698.440	0.0164227
698.518	0.0164227
698.596	0.0165155
698.674	0.0164778
698.753	0.0163926
698.831	0.0163045
698.909	0.0163577
698.987	0.0163932
699.065	0.0162764
699.143	0.0164070
699.221	0.0163206
699.299	0.0162901
699.378	0.0162922
699.456	0.0163316
699.534	0.0163071
699.612	0.0164001
699.690	0.0162833
699.768	0.0163704
699.846	0.0164282
699.924	0.0163600
700.003	0.0164085
700.081	0.0165668
700.159	0.0164751
700.237	0.0163550
700.315	0.0164497
700.393	0.0163259
700.471	0.0162008
700.549	0.0162909
700.628	0.0160668
700.706	0.0160683
700.784	0.0161615
700.862	0.0161115
700.940	0.0160907
701.018	0.0161219
701.096	0.0161076
701.174	0.0160744
701.253	0.0162338
701.331	0.0161856
701.409	0.0161839
701.487	0.0162881
701.565	0.0163290
701.643	0.0163315
701.721	0.0164319
701.799	0.0163609
701.878	0.0164511
701.956	0.0163583
702.034	0.0162885
702.112	0.0164180
702.190	0.0163588
702.268	0.0162778
702.346	0.0161509
702.424	0.0161172
702.503	0.0161343
702.581	0.0161336
702.659	0.0160631
702.737	0.0161753
702.815	0.0162131
702.893	0.0161785
702.971	0.0163468
703.049	0.0162714
703.128	0.0163342
703.206	0.0163935
703.284	0.0163356
703.362	0.0163499
703.440	0.0164354
703.518	0.0164175
703.596	0.0164365
703.674	0.0163988
703.753	0.0165112
703.831	0.0164006
703.909	0.0163168
703.987	0.0164253
704.065	0.0163703
704.143	0.0164337
704.221	0.0164058
704.299	0.0163638
704.378	0.0163468
704.456	0.0163291
704.534	0.0164941
704.612	0.0163871
704.690	0.0163137
704.768	0.0163456
704.846	0.0163930
704.924	0.0163446
705.003	0.0164066
705.081	0.0163820
705.159	0.0162954
705.237	0.0162439
705.315	0.0162743
705.393	0.0162620
705.471	0.0163979
705.549	0.0161102
705.628	0.0162904
705.706	0.0164734
705.784	0.0163739
705.862	0.0164513
705.940	0.0162809
706.018	0.0162897
706.096	0.0162884
706.174	0.0162160
706.253	0.0161901
706.331	0.0162124
706.409	0.0161727
706.487	0.0162405
706.565	0.0162232
706.643	0.0162331
706.721	0.0161967
706.799	0.0160805
706.878	0.0161861
706.956	0.0163083
707.034	0.0163966
707.112	0.0161272
707.190	0.0162302
707.268	0.0161415
707.346	0.0161323
707.424	0.0165999
707.503	0.0164788
707.581	0.0164695
707.659	0.0163919
707.737	0.0165767
707.815	0.0163843
707.893	0.0164853
707.971	0.0164276
708.049	0.0164439
708.128	0.0164725
708.206	0.0165154
708.284	0.0165320
708.362	0.0164655
708.440	0.0164960
708.518	0.0164712
708.596	0.0164281
708.674	0.0164436
708.753	0.0163306
708.831	0.0164592
708.909	0.0164206
708.987	0.0163721
709.065	0.0164570
709.143	0.0164065
709.221	0.0163237
709.299	0.0164087
709.378	0.0163162
709.456	0.0164268
709.534	0.0162819
709.612	0.0163094
709.690	0.0161660
709.768	0.0164126
709.846	0.0162964
709.924	0.0163461
710.003	0.0164343
710.081	0.0163283
710.159	0.0163994
710.237	0.0162012
710.315	0.0164912
710.393	0.0163775
710.471	0.0163531
710.549	0.0164052
710.628	0.0163554
710.706	0.0164333
710.784	0.0163759
710.862	0.0163179
710.940	0.0163389
711.018	0.0161991
711.096	0.0164433
711.174	0.0163541
711.253	0.0162498
711.331	0.0163958
711.409	0.0163053
711.487	0.0162873
711.565	0.0163850
711.643	0.0166148
711.721	0.0164137
711.799	0.0166258
711.878	0.0165334
711.956	0.0165760
712.034	0.0164973
712.112	0.0166462
712.190	0.0166402
712.268	0.0166309
712.346	0.0164503
712.424	0.0165414
712.503	0.0165274
712.581	0.0165607
712.659	0.0164390
712.737	0.0164085
712.815	0.0164275
712.893	0.0163928
712.971	0.0162161
713.049	0.0163365
713.128	0.0162014
713.206	0.0163224
713.284	0.0163372
713.362	0.0162766
713.440	0.0163748
713.518	0.0162510
713.596	0.0161675
713.674	0.0162270
713.753	0.0163859
713.831	0.0162286
713.909	0.0162443
713.987	0.0162469
714.065	0.0161970
714.143	0.0162750
714.221	0.0162436
714.299	0.0162436
714.378	0.0161391
714.456	0.0161222
714.534	0.0162313
714.612	0.0163490
714.690	0.0162294
714.768	0.0162311
714.846	0.0162096
714.924	0.0162014
715.003	0.0163860
715.081	0.0164904
715.159	0.0163358
715.237	0.0162824
715.315	0.0164261
715.393	0.0163731
715.471	0.0163230
715.549	0.0164100
715.628	0.0163446
715.706	0.0163687
715.784	0.0163343
715.862	0.0163291
715.940	0.0164478
716.018	0.0162686
716.096	0.0163779
716.174	0.0164590
716.253	0.0163743
716.331	0.0163525
716.409	0.0164809
716.487	0.0165107
716.565	0.0164002
716.643	0.0166428
716.721	0.0165537
716.799	0.0164593
716.878	0.0166543
716.956	0.0165609
717.034	0.0165525
717.112	0.0165494
717.190	0.0166576
717.268	0.0165469
717.346	0.0164889
717.424	0.0166561
717.503	0.0167278
717.581	0.0165116
717.659	0.0164507
717.737	0.0165875
717.815	0.0166116
717.893	0.0164328
717.971	0.0165472
718.049	0.0165742
718.128	0.0163583
718.206	0.0164732
718.284	0.0165527
718.362	0.0164851
718.440	0.0164825
718.518	0.0165073
718.596	0.0163863
718.674	0.0164099
718.753	0.0164004
718.831	0.0164280
718.909	0.0163195
718.987	0.0163837
719.065	0.0163052
719.143	0.0163516
719.221	0.0162279
719.299	0.0161336
719.378	0.0161799
719.456	0.0162281
719.534	0.0161536
719.612	0.0161810
719.690	0.0162016
719.768	0.0160049
719.846	0.0160163
719.924	0.0158748
720.003	0.0159595
720.081	0.0161637
720.159	0.0161661
720.237	0.0160219
720.315	0.0160863
720.393	0.0161154
720.471	0.0160297
720.549	0.0159882
720.628	0.0161470
720.706	0.0159954
720.784	0.0158906
720.862	0.0159663
720.940	0.0160538
721.018	0.0160548
721.096	0.0161414
721.174	0.0161659
721.253	0.0160604
721.331	0.0161936
721.409	0.0162780
721.487	0.0161001
721.565	0.0162033
721.643	0.0163586
721.721	0.0160815
721.799	0.0163643
721.878	0.0163082
721.956	0.0162549
722.034	0.0164406
722.112	0.0162867
722.190	0.0163952
722.268	0.0164240
722.346	0.0163967
722.424	0.0164598
722.503	0.0163949
722.581	0.0163811
722.659	0.0163117
722.737	0.0164462
722.815	0.0164195
722.893	0.0164489
722.971	0.0163868
723.049	0.0162212
723.128	0.0164548
723.206	0.0164518
723.284	0.0164650
723.362	0.0163932
723.440	0.0164345
723.518	0.0164579
723.596	0.0163296
723.674	0.0164287
723.753	0.0165871
723.831	0.0166771
723.909	0.0166389
723.987	0.0165768
724.065	0.0166296
724.143	0.0164961
724.221	0.0165108
724.299	0.0167233
724.378	0.0166225
724.456	0.0166096
724.534	0.0165111
724.612	0.0164996
724.690	0.0164183
724.768	0.0163486
724.846	0.0163915
724.924	0.0164037
725.003	0.0163981
725.081	0.0163214
725.159	0.0164974
725.237	0.0163378
725.315	0.0164534
725.393	0.0164224
725.471	0.0163503
725.549	0.0163586
725.628	0.0164877
725.706	0.0164432
725.784	0.0163687
725.862	0.0165836
725.940	0.0164832
726.018	0.0163571
726.096	0.0163670
726.174	0.0164886
726.253	0.0163850
726.331	0.0163960
726.409	0.0163612
726.487	0.0163759
726.565	0.0162840
726.643	0.0163293
726.721	0.0162864
726.799	0.0162958
726.878	0.0162108
726.956	0.0161658
727.034	0.0163239
727.112	0.0162918
727.190	0.0161991
727.268	0.0161348
727.346	0.0163182
727.424	0.0162768
727.503	0.0162910
727.581	0.0162988
727.659	0.0162971
727.737	0.0162063
727.815	0.0162952
727.893	0.0161582
727.971	0.0161678
728.049	0.0162691
728.128	0.0161309
728.206	0.0162370
728.284	0.0162202
728.362	0.0161211
728.440	0.0161108
728.518	0.0162010
728.596	0.0160822
728.674	0.0161442
728.753	0.0161652
728.831	0.0161144
728.909	0.0162271
728.987	0.0163155
729.065	0.0161674
729.143	0.0161427
729.221	0.0162355
729.299	0.0162175
729.378	0.0162219
729.456	0.0163836
729.534	0.0162583
729.612	0.0164326
729.690	0.0164024
729.768	0.0164061
729.846	0.0165480
729.924	0.0164339
730.003	0.0162973
730.081	0.0165574
730.159	0.0165447
730.237	0.0164637
730.315	0.0166743
730.393	0.0165516
730.471	0.0164714
730.549	0.0166458
730.628	0.0166878
730.706	0.0165494
730.784	0.0166703
730.862	0.0165884
730.940	0.0165607
731.018	0.0167565
731.096	0.0165157
731.174	0.0167970
731.253	0.0167083
731.331	0.0167228
731.409	0.0168623
731.487	0.0167976
731.565	0.0167425
731.643	0.0166636
731.721	0.0167820
731.799	0.0166011
731.878	0.0166470
731.956	0.0166259
732.034	0.0167362
732.112	0.0166312
732.190	0.0165780
732.268	0.0165498
732.346	0.0166168
732.424	0.0165273
732.503	0.0163940
732.581	0.0165821
732.659	0.0164734
732.737	0.0164857
732.815	0.0164979
732.893	0.0165056
732.971	0.0162647
733.049	0.0163525
733.128	0.0164447
733.206	0.0163121
733.284	0.0164790
733.362	0.0164033
733.440	0.0163532
733.518	0.0162424
733.596	0.0162975
733.674	0.0162472
733.753	0.0162417
733.831	0.0161207
733.909	0.0161076
733.987	0.0161651
734.065	0.0162775
734.143	0.0161752
734.221	0.0161062
734.299	0.0160425
734.378	0.0162353
734.456	0.0161317
734.534	0.0161304
734.612	0.0161245
734.690	0.0160270
734.768	0.0161673
734.846	0.0161251
734.924	0.0162846
735.003	0.0162772
735.081	0.0161905
735.159	0.0163294
735.237	0.0163327
735.315	0.0161893
735.393	0.0161939
735.471	0.0163241
735.549	0.0163660
735.628	0.0163396
735.706	0.0163395
735.784	0.0163717
735.862	0.0163321
735.940	0.0162075
736.018	0.0162962
736.096	0.0162589
736.174	0.0162429
736.253	0.0162960
736.331	0.0163469
736.409	0.0162896
736.487	0.0163268
736.565	0.0162286
736.643	0.0163891
736.721	0.0163657
736.799	0.0162460
736.878	0.0163605
736.956	0.0164851
737.034	0.0163862
737.112	0.0164145
737.190	0.0164746
737.268	0.0164427
737.346	0.0165704
737.424	0.0163368
737.503	0.0163924
737.581	0.0164767
737.659	0.0164342
737.737	0.0164810
737.815	0.0165706
737.893	0.0164683
737.971	0.0164921
738.049	0.0165340
738.128	0.0165263
738.206	0.0165005
738.284	0.0165570
738.362	0.0165074
738.440	0.0164030
738.518	0.0165079
738.596	0.0165893
738.674	0.0165497
738.753	0.0164488
738.831	0.0164953
738.909	0.0166099
738.987	0.0165176
739.065	0.0165092
739.143	0.0164221
739.221	0.0164506
739.299	0.0164297
739.378	0.0164790
739.456	0.0166489
739.534	0.0164501
739.612	0.0164087
739.690	0.0165201
739.768	0.0163716
739.846	0.0163134
739.924	0.0164198
740.003	0.0162615
740.081	0.0162649
740.159	0.0163982
740.237	0.0163544
740.315	0.0163255
740.393	0.0163182
740.471	0.0163158
740.549	0.0163239
740.628	0.0163537
740.706	0.0163080
740.784	0.0163495
740.862	0.0162810
740.940	0.0163578
741.018	0.0162932
741.096	0.0163065
741.174	0.0162944
741.253	0.0163329
741.331	0.0163397
741.409	0.0161916
741.487	0.0162838
741.565	0.0162141
741.643	0.0161474
741.721	0.0160177
741.799	0.0160507
741.878	0.0161198
741.956	0.0162138
742.034	0.0161070
742.112	0.0160646
742.190	0.0161380
742.268	0.0160332
742.346	0.0159361
742.424	0.0160143
742.503	0.0160857
742.581	0.0159277
742.659	0.0161080
742.737	0.0160815
742.815	0.0162167
742.893	0.0161178
742.971	0.0161557
743.049	0.0160661
743.128	0.0160939
743.206	0.0159941
743.284	0.0161709
743.362	0.0162059
743.440	0.0161346
743.518	0.0162514
743.596	0.0163474
743.674	0.0162705
743.753	0.0162606
743.831	0.0163589
743.909	0.0163346
743.987	0.0164235
744.065	0.0162903
744.143	0.0164797
744.221	0.0162836
744.299	0.0163707
744.378	0.0163057
744.456	0.0162453
744.534	0.0165350
744.612	0.0164867
744.690	0.0163734
744.768	0.0163746
744.846	0.0164173
744.924	0.0165440
745.003	0.0164790
745.081	0.0166152
745.159	0.0164494
745.237	0.0165646
745.315	0.0165509
745.393	0.0165112
745.471	0.0166175
745.549	0.0165725
745.628	0.0165379
745.706	0.0165497
745.784	0.0165456
745.862	0.0166775
745.940	0.0166715
746.018	0.0166405
746.096	0.0166917
746.174	0.0166267
746.253	0.0167529
746.331	0.0166734
746.409	0.0166368
746.487	0.0166536
746.565	0.0166487
746.643	0.0165763
746.721	0.0166463
746.799	0.0165989
746.878	0.0166850
746.956	0.0165918
747.034	0.0166773
747.112	0.0165659
747.190	0.0165315
747.268	0.0164620
747.346	0.0165479
747.424	0.0164616
747.503	0.0165182
747.581	0.0164709
747.659	0.0163598
747.737	0.0164272
747.815	0.0164445
747.893	0.0165295
747.971	0.0165125
748.049	0.0163902
748.128	0.0163817
748.206	0.0164320
748.284	0.0165497
748.362	0.0164899
748.440	0.0164647
748.518	0.0162760
748.596	0.0163933
748.674	0.0164011
748.753	0.0163466
748.831	0.0164295
748.909	0.0164301
748.987	0.0163207
749.065	0.0161874
749.143	0.0163657
749.221	0.0162666
749.299	0.0160670
749.378	0.0163073
749.456	0.0162823
749.534	0.0163802
749.612	0.0162720
749.690	0.0162064
749.768	0.0161180
749.846	0.0162180
749.924	0.0162416
750.003	0.0162324
750.081	0.0162750
750.159	0.0160506
750.237	0.0161304
750.315	0.0161221
750.393	0.0162380
750.471	0.0161534
750.549	0.0162017
750.628	0.0162479
750.706	0.0161671
750.784	0.0161282
750.862	0.0163052
750.940	0.0163007
751.018	0.0163488
751.096	0.0163521
751.174	0.0163988
751.253	0.0164929
751.331	0.0163483
751.409	0.0163232
751.487	0.0163555
751.565	0.0164861
751.643	0.0164182
751.721	0.0162156
751.799	0.0163664
751.878	0.0163954
751.956	0.0164145
752.034	0.0163287
752.112	0.0164373
752.190	0.0164059
752.268	0.0163746
752.346	0.0164352
752.424	0.0164925
752.503	0.0165833
752.581	0.0163823
752.659	0.0165015
752.737	0.0164619
752.815	0.0166395
752.893	0.0165705
752.971	0.0165175
753.049	0.0166059
753.128	0.0167585
753.206	0.0167354
753.284	0.0166561
753.362	0.0166693
753.440	0.0168181
753.518	0.0168891
753.596	0.0168050
753.674	0.0168203
753.753	0.0168130
753.831	0.0166074
753.909	0.0166284
753.987	0.0165648
754.065	0.0166019
754.143	0.0165896
754.221	0.0166221
754.299	0.0167145
754.378	0.0166217
754.456	0.0166558
754.534	0.0165199
754.612	0.0164884
754.690	0.0164933
754.768	0.0166291
754.846	0.0166666
754.924	0.0165652
755.003	0.0165679
755.081	0.0164189
755.159	0.0164196
755.237	0.0165993
755.315	0.0165038
755.393	0.0163528
755.471	0.0163042
755.549	0.0164069
755.628	0.0161933
755.706	0.0162434
755.784	0.0162012
755.862	0.0161306
755.940	0.0160883
756.018	0.0162718
756.096	0.0161382
756.174	0.0161762
756.253	0.0162528
756.331	0.0162105
756.409	0.0161743
756.487	0.0162206
756.565	0.0160432
756.643	0.0161092
756.721	0.0160031
756.799	0.0161272
756.878	0.0159901
756.956	0.0161893
757.034	0.0161098
757.112	0.0160461
757.190	0.0159761
757.268	0.0160031
757.346	0.0160574
757.424	0.0160349
757.503	0.0161666
757.581	0.0161626
757.659	0.0161376
757.737	0.0161914
757.815	0.0162800
757.893	0.0163142
757.971	0.0163362
758.049	0.0163437
758.128	0.0163229
758.206	0.0162577
758.284	0.0163023
758.362	0.0162031
758.440	0.0162068
758.518	0.0162118
758.596	0.0163731
758.674	0.0161491
758.753	0.0162397
758.831	0.0163013
758.909	0.0161202
758.987	0.0160993
759.065	0.0162582
759.143	0.0163375
759.221	0.0162928
759.299	0.0164191
759.378	0.0164509
759.456	0.0164196
759.534	0.0164427
759.612	0.0166363
759.690	0.0165144
759.768	0.0163249
759.846	0.0164571
759.924	0.0165273
760.003	0.0165086
760.081	0.0164632
760.159	0.0163818
760.237	0.0164755
760.315	0.0164330
760.393	0.0164996
760.471	0.0164844
760.549	0.0164809
760.628	0.0162951
760.706	0.0165182
760.784	0.0166015
760.862	0.0166092
760.940	0.0164853
761.018	0.0164183
761.096	0.0164728
761.174	0.0165089
761.253	0.0163995
761.331	0.0164957
761.409	0.0164022
761.487	0.0165143
761.565	0.0165160
761.643	0.0166514
761.721	0.0165739
761.799	0.0165536
761.878	0.0165576
761.956	0.0165582
762.034	0.0164416
762.112	0.0163122
762.190	0.0163351
762.268	0.0164742
762.346	0.0165800
762.424	0.0164043
762.503	0.0165070
762.581	0.0161808
762.659	0.0163126
762.737	0.0162262
762.815	0.0161592
762.893	0.0162347
762.971	0.0162640
763.049	0.0160890
763.128	0.0163380
763.206	0.0162007
763.284	0.0163122
763.362	0.0161465
763.440	0.0163409
763.518	0.0161518
763.596	0.0160916
763.674	0.0162202
763.753	0.0160539
763.831	0.0161060
763.909	0.0162367
763.987	0.0161900
764.065	0.0161584
764.143	0.0163301
764.221	0.0161430
764.299	0.0161325
764.378	0.0162409
764.456	0.0162489
764.534	0.0161250
764.612	0.0162017
764.690	0.0163306
764.768	0.0161945
764.846	0.0161617
764.924	0.0163025
765.003	0.0161908
765.081	0.0162226
765.159	0.0162685
765.237	0.0161906
765.315	0.0161939
765.393	0.0161318
765.471	0.0162388
765.549	0.0162231
765.628	0.0161816
765.706	0.0162706
765.784	0.0161449
765.862	0.0163870
765.940	0.0162891
766.018	0.0162349
766.096	0.0162257
766.174	0.0164725
766.253	0.0164228
766.331	0.0163431
766.409	0.0164822
766.487	0.0163914
766.565	0.0163680
766.643	0.0164214
766.721	0.0163794
766.799	0.0163171
766.878	0.0164965
766.956	0.0165296
767.034	0.0163732
767.112	0.0163984
767.190	0.0165359
767.268	0.0164989
767.346	0.0164774
767.424	0.0166341
767.503	0.0164842
767.581	0.0164944
767.659	0.0165127
767.737	0.0166780
767.815	0.0165919
767.893	0.0165984
767.971	0.0165179
768.049	0.0166323
768.128	0.0165770
768.206	0.0166782
768.284	0.0165750
768.362	0.0163655
768.440	0.0165485
768.518	0.0166289
768.596	0.0166087
768.674	0.0165020
768.753	0.0166116
768.831	0.0164650
768.909	0.0164317
768.987	0.0165163
769.065	0.0164223
769.143	0.0164987
769.221	0.0165508
769.299	0.0164214
769.378	0.0163667
769.456	0.0163536
769.534	0.0164269
769.612	0.0164046
769.690	0.0164046
769.768	0.0163115
769.846	0.0163405
769.924	0.0164278
770.003	0.0165429
770.081	0.0165047
770.159	0.0162283
770.237	0.0162444
770.315	0.0163911
770.393	0.0162595
770.471	0.0163138
770.549	0.0162515
770.628	0.0163078
770.706	0.0163185
770.784	0.0162091
770.862	0.0162775
770.940	0.0162157
771.018	0.0163128
771.096	0.0163522
771.174	0.0163607
771.253	0.0162088
771.331	0.0163557
771.409	0.0163644
771.487	0.0163541
771.565	0.0163218
771.643	0.0162132
771.721	0.0163367
771.799	0.0164256
771.878	0.0164252
771.956	0.0163480
772.034	0.0162547
772.112	0.0162521
772.190	0.0162937
772.268	0.0162981
772.346	0.0163244
772.424	0.0163712
772.503	0.0162211
772.581	0.0162712
772.659	0.0164223
772.737	0.0164693
772.815	0.0163499
772.893	0.0163035
772.971	0.0163235
773.049	0.0163027
773.128	0.0163438
773.206	0.0163443
773.284	0.0163009
773.362	0.0164264
773.440	0.0164595
773.518	0.0164734
773.596	0.0161115
773.674	0.0163483
773.753	0.0163367
773.831	0.0162349
773.909	0.0164420
773.987	0.0162634
774.065	0.0164400
774.143	0.0163988
774.221	0.0163093
774.299	0.0164590
774.378	0.0164020
774.456	0.0163873
774.534	0.0164803
774.612	0.0164895
774.690	0.0165153
774.768	0.0164709
774.846	0.0165345
774.924	0.0164997
775.003	0.0165318
775.081	0.0165662
775.159	0.0164901
775.237	0.0164761
775.315	0.0167307
775.393	0.0165818
775.471	0.0165804
775.549	0.0166055
775.628	0.0165784
775.706	0.0165849
775.784	0.0166522
775.862	0.0165929
775.940	0.0165963
776.018	0.0165791
776.096	0.0165563
776.174	0.0164819
776.253	0.0165331
776.331	0.0164978
776.409	0.0164303
776.487	0.0164899
776.565	0.0165563
776.643	0.0164738
776.721	0.0164172
776.799	0.0164568
776.878	0.0164694
776.956	0.0163058
777.034	0.0164823
777.112	0.0163237
777.190	0.0163361
777.268	0.0163554
777.346	0.0164825
777.424	0.0162806
777.503	0.0163567
777.581	0.0163258
777.659	0.0165128
777.737	0.0163730
777.815	0.0163026
777.893	0.0162816
777.971	0.0163185
778.049	0.0163068
778.128	0.0162067
778.206	0.0162317
778.284	0.0163532
778.362	0.0163162
778.440	0.0162344
778.518	0.0162876
778.596	0.0162178
778.674	0.0162158
778.753	0.0161494
778.831	0.0162173
778.909	0.0162510
778.987	0.0161255
779.065	0.0160786
779.143	0.0163010
779.221	0.0163253
779.299	0.0163441
779.378	0.0163026
779.456	0.0163021
779.534	0.0164204
779.612	0.0162654
779.690	0.0162656
779.768	0.0163389
779.846	0.0163723
779.924	0.0164598
780.003	0.0165820
780.081	0.0164049
780.159	0.0162595
780.237	0.0164075
780.315	0.0164018
780.393	0.0162056
780.471	0.0165643
780.549	0.0164231
780.628	0.0162741
780.706	0.0162394
780.784	0.0163853
780.862	0.0162993
780.940	0.0161874
781.018	0.0163737
781.096	0.0162885
781.174	0.0162004
781.253	0.0163441
781.331	0.0161123
781.409	0.0162636
781.487	0.0162121
781.565	0.0161971
781.643	0.0163768
781.721	0.0161513
781.799	0.0160650
781.878	0.0162065
781.956	0.0163868
782.034	0.0162444
782.112	0.0161577
782.190	0.0161509
782.268	0.0162765
782.346	0.0161015
782.424	0.0161481
782.503	0.0162962
782.581	0.0162687
782.659	0.0163142
782.737	0.0162963
782.815	0.0164243
782.893	0.0164024
782.971	0.0164912
783.049	0.0163462
783.128	0.0163754
783.206	0.0163538
783.284	0.0164737
783.362	0.0164383
783.440	0.0163464
783.518	0.0163510
783.596	0.0163716
783.674	0.0165404
783.753	0.0163826
783.831	0.0165845
783.909	0.0164480
783.987	0.0164922
784.065	0.0164809
784.143	0.0165027
784.221	0.0166463
784.299	0.0165843
784.378	0.0166121
784.456	0.0166703
784.534	0.0165038
784.612	0.0165636
784.690	0.0164176
784.768	0.0166658
784.846	0.0164426
784.924	0.0164977
785.003	0.0165736
785.081	0.0165635
785.159	0.0165860
785.237	0.0164806
785.315	0.0166306
785.393	0.0164536
785.471	0.0164063
785.549	0.0164719
785.628	0.0164311
785.706	0.0164953
785.784	0.0163293
785.862	0.0164140
785.940	0.0164213
786.018	0.0164062
786.096	0.0165218
786.174	0.0163791
786.253	0.0163039
786.331	0.0164242
786.409	0.0164088
786.487	0.0163633
786.565	0.0164514
786.643	0.0162880
786.721	0.0162922
786.799	0.0161562
786.878	0.0163726
786.956	0.0162423
787.034	0.0162215
787.112	0.0163380
787.190	0.0163054
787.268	0.0163428
787.346	0.0162192
787.424	0.0162758
787.503	0.0161971
787.581	0.0161375
787.659	0.0162147
787.737	0.0162439
787.815	0.0161960
787.893	0.0162177
787.971	0.0162457
788.049	0.0163164
788.128	0.0162742
788.206	0.0162331
788.284	0.0162650
788.362	0.0162273
788.440	0.0162888
788.518	0.0161684
788.596	0.0161723
788.674	0.0161180
788.753	0.0163504
788.831	0.0163098
788.909	0.0162495
788.987	0.0162479
789.065	0.0162321
789.143	0.0161331
789.221	0.0162421
789.299	0.0163972
789.378	0.0162341
789.456	0.0162633
789.534	0.0162135
789.612	0.0162845
789.690	0.0162546
789.768	0.0164007
789.846	0.0162805
789.924	0.0162823
790.003	0.0161622
790.081	0.0163792
790.159	0.0163303
790.237	0.0163756
790.315	0.0162598
790.393	0.0163288
790.471	0.0162819
790.549	0.0163471
790.628	0.0163549
790.706	0.0163434
790.784	0.0163973
790.862	0.0163973
790.940	0.0163680
791.018	0.0164333
791.096	0.0163025
791.174	0.0164799
791.253	0.0163570
791.331	0.0163899
791.409	0.0164980
791.487	0.0165062
791.565	0.0163984
791.643	0.0165390
791.721	0.0163834
791.799	0.0163594
791.878	0.0163467
791.956	0.0164462
792.034	0.0164735
792.112	0.0163454
792.190	0.0164480
792.268	0.0166583
792.346	0.0165205
792.424	0.0163670
792.503	0.0164969
792.581	0.0165431
792.659	0.0164037
792.737	0.0164320
792.815	0.0163458
792.893	0.0165353
792.971	0.0165088
793.049	0.0163664
793.128	0.0163526
793.206	0.0165055
793.284	0.0165530
793.362	0.0165282
793.440	0.0164582
793.518	0.0165700
793.596	0.0164847
793.674	0.0164861
793.753	0.0164050
793.831	0.0165595
793.909	0.0165094
793.987	0.0163964
794.065	0.0163802
794.143	0.0164243
794.221	0.0164131
794.299	0.0163490
794.378	0.0162243
794.456	0.0163593
794.534	0.0163091
794.612	0.0163597
794.690	0.0163013
794.768	0.0161188
794.846	0.0161944
794.924	0.0162981
795.003	0.0162743
795.081	0.0162126
795.159	0.0162087
795.237	0.0163265
795.315	0.0162711
795.393	0.0161711
795.471	0.0161565
795.549	0.0162144
795.628	0.0161295
795.706	0.0161306
795.784	0.0161830
795.862	0.0161809
795.940	0.0161097
796.018	0.0162097
796.096	0.0163419
796.174	0.0162654
796.253	0.0162573
796.331	0.0160178
796.409	0.0162197
796.487	0.0162655
796.565	0.0162149
796.643	0.0161284
796.721	0.0160484
796.799	0.0160738
796.878	0.0161290
796.956	0.0163205
797.034	0.0161808
797.112	0.0160199
797.190	0.0161901
797.268	0.0162416
797.346	0.0162636
797.424	0.0161104
797.503	0.0161591
797.581	0.0162165
797.659	0.0161999
797.737	0.0162343
797.815	0.0162318
797.893	0.0163241
797.971	0.0162491
798.049	0.0161369
798.128	0.0163218
798.206	0.0163300
798.284	0.0162611
798.362	0.0162987
798.440	0.0162595
798.518	0.0161308
798.596	0.0162141
798.674	0.0162563
798.753	0.0161219
798.831	0.0163642
798.909	0.0162818
798.987	0.0161553
799.065	0.0163931
799.143	0.0164314
799.221	0.0162348
799.299	0.0163988
799.378	0.0164746
799.456	0.0163997
799.534	0.0164457
799.612	0.0164348
799.690	0.0164067
799.768	0.0165727
799.846	0.0165021
799.924	0.0165178
800.003	0.0164220
800.081	0.0165366
800.159	0.0164948
800.237	0.0165466
800.315	0.0165778
800.393	0.0165079
800.471	0.0165144
800.549	0.0165314
800.628	0.0166359
800.706	0.0166767
800.784	0.0165526
800.862	0.0165688
800.940	0.0165606
801.018	0.0164675
801.096	0.0164939
801.174	0.0164465
801.253	0.0164483
801.331	0.0165472
801.409	0.0165421
801.487	0.0163728
801.565	0.0164884
801.643	0.0165475
801.721	0.0165563
801.799	0.0165721
801.878	0.0164455
801.956	0.0163129
802.034	0.0163906
802.112	0.0164146
802.190	0.0162440
802.268	0.0162654
802.346	0.0162669
802.424	0.0162711
802.503	0.0162891
802.581	0.0162630
802.659	0.0162929
802.737	0.0162464
802.815	0.0161478
802.893	0.0161981
802.971	0.0162433
803.049	0.0161866
803.128	0.0162192
803.206	0.0162630
803.284	0.0161063
803.362	0.0160893
803.440	0.0161761
803.518	0.0162393
803.596	0.0161732
803.674	0.0162114
803.753	0.0161147
803.831	0.0161932
803.909	0.0162497
803.987	0.0162241
804.065	0.0161122
804.143	0.0162826
804.221	0.0162428
804.299	0.0162933
804.378	0.0162660
804.456	0.0162110
804.534	0.0163998
804.612	0.0163069
804.690	0.0162029
804.768	0.0162658
804.846	0.0162522
804.924	0.0161264
805.003	0.0161907
805.081	0.0162140
805.159	0.0162977
805.237	0.0162941
805.315	0.0162286
805.393	0.0162369
805.471	0.0162657
805.549	0.0162498
805.628	0.0162938
805.706	0.0161669
805.784	0.0163862
805.862	0.0163686
805.940	0.0163857
806.018	0.0162160
806.096	0.0163506
806.174	0.0163947
806.253	0.0165056
806.331	0.0163847
806.409	0.0164639
806.487	0.0163650
806.565	0.0164726
806.643	0.0165050
806.721	0.0164015
806.799	0.0164846
806.878	0.0163293
806.956	0.0164924
807.034	0.0164388
807.112	0.0165074
807.190	0.0165220
807.268	0.0163622
807.346	0.0165416
807.424	0.0163444
807.503	0.0165933
807.581	0.0165511
807.659	0.0165604
807.737	0.0164761
807.815	0.0164629
807.893	0.0165324
807.971	0.0166270
808.049	0.0165139
808.128	0.0166306
808.206	0.0166196
808.284	0.0166125
808.362	0.0165375
808.440	0.0164117
808.518	0.0166338
808.596	0.0165903
808.674	0.0164957
808.753	0.0166093
808.831	0.0165486
808.909	0.0166454
808.987	0.0166502
809.065	0.0165319
809.143	0.0165252
809.221	0.0165723
809.299	0.0165584
809.378	0.0164630
809.456	0.0165442
809.534	0.0166023
809.612	0.0164369
809.690	0.0164500
809.768	0.0165148
809.846	0.0163659
809.924	0.0165782
810.003	0.0164258
810.081	0.0163322
810.159	0.0165094
810.237	0.0164132
810.315	0.0163379
810.393	0.0163470
810.471	0.0163097
810.549	0.0163148
810.628	0.0162930
810.706	0.0163506
810.784	0.0162350
810.862	0.0162016
810.940	0.0162280
811.018	0.0163448
811.096	0.0162837
811.174	0.0161926
811.253	0.0162032
811.331	0.0161321
811.409	0.0162553
811.487	0.0162146
811.565	0.0161584
811.643	0.0161977
811.721	0.0162041
811.799	0.0161255
811.878	0.0161391
811.956	0.0162212
812.034	0.0160047
812.112	0.0161345
812.190	0.0162387
812.268	0.0162025
812.346	0.0161256
812.424	0.0160769
812.503	0.0161713
812.581	0.0161340
812.659	0.0160733
812.737	0.0161495
812.815	0.0160837
812.893	0.0163048
812.971	0.0162046
813.049	0.0162481
813.128	0.0161733
813.206	0.0161920
813.284	0.0163262
813.362	0.0162722
813.440	0.0161927
813.518	0.0162962
813.596	0.0162967
813.674	0.0162085
813.753	0.0163010
813.831	0.0163718
813.909	0.0162917
813.987	0.0163652
814.065	0.0162907
814.143	0.0163510
814.221	0.0163329
814.299	0.0163894
814.378	0.0164202
814.456	0.0163178
814.534	0.0163590
814.612	0.0163913
814.690	0.0165414
814.768	0.0164905
814.846	0.0165323
814.924	0.0163751
815.003	0.0164462
815.081	0.0164048
815.159	0.0164194
815.237	0.0164754
815.315	0.0164424
815.393	0.0163935
815.471	0.0164295
815.549	0.0165225
815.628	0.0164365
815.706	0.0165104
815.784	0.0166057
815.862	0.0166295
815.940	0.0165498
816.018	0.0164796
816.096	0.0165228
816.174	0.0163835
816.253	0.0163174
816.331	0.0164008
816.409	0.0164837
816.487	0.0164600
816.565	0.0163747
816.643	0.0164926
816.721	0.0164736
816.799	0.0164178
816.878	0.0163254
816.956	0.0163168
817.034	0.0165334
817.112	0.0163126
817.190	0.0164710
817.268	0.0163462
817.346	0.0164156
817.424	0.0164116
817.503	0.0163412
817.581	0.0163351
817.659	0.0162780
817.737	0.0163047
817.815	0.0163457
817.893	0.0162910
817.971	0.0162143
818.049	0.0162875
818.128	0.0161470
818.206	0.0162344
818.284	0.0163827
818.362	0.0163033
818.440	0.0162531
818.518	0.0161808
818.596	0.0161555
818.674	0.0162793
818.753	0.0161966
818.831	0.0162266
818.909	0.0163291
818.987	0.0162347
819.065	0.0159623
819.143	0.0161246
819.221	0.0161291
819.299	0.0161370
819.378	0.0161954
819.456	0.0161956
819.534	0.0161005
819.612	0.0162241
819.690	0.0162410
819.768	0.0162418
819.846	0.0162043
819.924	0.0162400
820.003	0.0161406
820.081	0.0161804
820.159	0.0162078
820.237	0.0161841
820.315	0.0160468
820.393	0.0161389
820.471	0.0162296
820.549	0.0162184
820.628	0.0161658
820.706	0.0161619
820.784	0.0161536
820.862	0.0161023
820.940	0.0161771
821.018	0.0163897
821.096	0.0163435
821.174	0.0162499
821.253	0.0162389
821.331	0.0162105
821.409	0.0161357
821.487	0.0162434
821.565	0.0162061
821.643	0.0162943
821.721	0.0162656
821.799	0.0162703
821.878	0.0164131
821.956	0.0164084
822.034	0.0162350
822.112	0.0163083
822.190	0.0163561
822.268	0.0163115
822.346	0.0164417
822.424	0.0163506
822.503	0.0162659
822.581	0.0164996
822.659	0.0163597
822.737	0.0164713
822.815	0.0164831
822.893	0.0164227
822.971	0.0164182
823.049	0.0165298
823.128	0.0164808
823.206	0.0164330
823.284	0.0165222
823.362	0.0164834
823.440	0.0166068
823.518	0.0165166
823.596	0.0165487
823.674	0.0163735
823.753	0.0164519
823.831	0.0165446
823.909	0.0166753
823.987	0.0164984
824.065	0.0166178
824.143	0.0165237
824.221	0.0165701
824.299	0.0164148
824.378	0.0166286
824.456	0.0166358
824.534	0.0164205
824.612	0.0164890
824.690	0.0165265
824.768	0.0164984
824.846	0.0163947
824.924	0.0163302
825.003	0.0164697
825.081	0.0164566
825.159	0.0165080
825.237	0.0164796
825.315	0.0164165
825.393	0.0162970
825.471	0.0165192
825.549	0.0163598
825.628	0.0163010
825.706	0.0163968
825.784	0.0163380
825.862	0.0163805
825.940	0.0163564
826.018	0.0162122
826.096	0.0162712
826.174	0.0163616
826.253	0.0161961
826.331	0.0163497
826.409	0.0163094
826.487	0.0162285
826.565	0.0162787
826.643	0.0161333
826.721	0.0161540
826.799	0.0162944
826.878	0.0162321
826.956	0.0161864
827.034	0.0162948
827.112	0.0162132
827.190	0.0162695
827.268	0.0164494
827.346	0.0162591
827.424	0.0162727
827.503	0.0162630
827.581	0.0163453
827.659	0.0162379
827.737	0.0164074
827.815	0.0163487
827.893	0.0163142
827.971	0.0163281
828.049	0.0162841
828.128	0.0163573
828.206	0.0162935
828.284	0.0164904
828.362	0.0164385
828.440	0.0164115
828.518	0.0162748
828.596	0.0162969
828.674	0.0162827
828.753	0.0161528
828.831	0.0164838
828.909	0.0163907
828.987	0.0163206
829.065	0.0163547
829.143	0.0165814
829.221	0.0163923
829.299	0.0164116
829.378	0.0164496
829.456	0.0164521
829.534	0.0165511
829.612	0.0164558
829.690	0.0163484
829.768	0.0165242
829.846	0.0166339
829.924	0.0164606
830.003	0.0165211
830.081	0.0166029
830.159	0.0166019
830.237	0.0164863
830.315	0.0165210
830.393	0.0166269
830.471	0.0165718
830.549	0.0164263
830.628	0.0164328
830.706	0.0165464
830.784	0.0165022
830.862	0.0165961
830.940	0.0164472
831.018	0.0162963
831.096	0.0164449
831.174	0.0165356
831.253	0.0163976
831.331	0.0164747
831.409	0.0164425
831.487	0.0165536
831.565	0.0164930
831.643	0.0163754
831.721	0.0165868
831.799	0.0165714
831.878	0.0164380
831.956	0.0164239
832.034	0.0165772
832.112	0.0165253
832.190	0.0163817
832.268	0.0164050
832.346	0.0164168
832.424	0.0165883
832.503	0.0165571
832.581	0.0165041
832.659	0.0164146
832.737	0.0164421
832.815	0.0165971
832.893	0.0164578
832.971	0.0163896
833.049	0.0165006
833.128	0.0164904
833.206	0.0165274
833.284	0.0164502
833.362	0.0164165
833.440	0.0161876
833.518	0.0162494
833.596	0.0164451
833.674	0.0164492
833.753	0.0164191
833.831	0.0163976
833.909	0.0162380
833.987	0.0164154
834.065	0.0163354
834.143	0.0163454
834.221	0.0163377
834.299	0.0163430
834.378	0.0162786
834.456	0.0160952
834.534	0.0162933
834.612	0.0163368
834.690	0.0161256
834.768	0.0162267
834.846	0.0161413
834.924	0.0163087
835.003	0.0162167
835.081	0.0160939
835.159	0.0163265
835.237	0.0163588
835.315	0.0162447
835.393	0.0163268
835.471	0.0162784
835.549	0.0162494
835.628	0.0162766
835.706	0.0162093
835.784	0.0162925
835.862	0.0162198
835.940	0.0162560
836.018	0.0162183
836.096	0.0163426
836.174	0.0162686
836.253	0.0161618
836.331	0.0161496
836.409	0.0162389
836.487	0.0161417
836.565	0.0160863
836.643	0.0163071
836.721	0.0162181
836.799	0.0162644
836.878	0.0163332
836.956	0.0162878
837.034	0.0162656
837.112	0.0163499
837.190	0.0162577
837.268	0.0163160
837.346	0.0163361
837.424	0.0163518
837.503	0.0162075
837.581	0.0163103
837.659	0.0163943
837.737	0.0163693
837.815	0.0164024
837.893	0.0164382
837.971	0.0163926
838.049	0.0163878
838.128	0.0163796
838.206	0.0164491
838.284	0.0164815
838.362	0.0165490
838.440	0.0163903
838.518	0.0164076
838.596	0.0166080
838.674	0.0166865
838.753	0.0167175
838.831	0.0164815
838.909	0.0166689
838.987	0.0165594
839.065	0.0165504
839.143	0.0165533
839.221	0.0165355
839.299	0.0165685
839.378	0.0164579
839.456	0.0164773
839.534	0.0165461
839.612	0.0164407
839.690	0.0164042
839.768	0.0164816
839.846	0.0165060
839.924	0.0165897
840.003	0.0163698
840.081	0.0163384
840.159	0.0164088
840.237	0.0165567
840.315	0.0163670
840.393	0.0162099
840.471	0.0163480
840.549	0.0163606
840.628	0.0164324
840.706	0.0163467
840.784	0.0163953
840.862	0.0163068
840.940	0.0162036
841.018	0.0160648
841.096	0.0163184
841.174	0.0161544
841.253	0.0162441
841.331	0.0160906
841.409	0.0163023
841.487	0.0162507
841.565	0.0161383
841.643	0.0161779
841.721	0.0161572
841.799	0.0161826
841.878	0.0160799
841.956	0.0161583
842.034	0.0161874
842.112	0.0162605
842.190	0.0162179
842.268	0.0161913
842.346	0.0162724
842.424	0.0162380
842.503	0.0162437
842.581	0.0161894
842.659	0.0162364
842.737	0.0162396
842.815	0.0162037
842.893	0.0162158
842.971	0.0163244
843.049	0.0162615
843.128	0.0161361
843.206	0.0162186
843.284	0.0162508
843.362	0.0163205
843.440	0.0163203
843.518	0.0161680
843.596	0.0162257
843.674	0.0161813
843.753	0.0161550
843.831	0.0161987
843.909	0.0162745
843.987	0.0162842
844.065	0.0163694
844.143	0.0162836
844.221	0.0163026
844.299	0.0162385
844.378	0.0162913
844.456	0.0162970
844.534	0.0163478
844.612	0.0162980
844.690	0.0164452
844.768	0.0163345
844.846	0.0163540
844.924	0.0164594
845.003	0.0162560
845.081	0.0164467
845.159	0.0164219
845.237	0.0163699
845.315	0.0165897
845.393	0.0164469
845.471	0.0163341
845.549	0.0164342
845.628	0.0164868
845.706	0.0165607
845.784	0.0165027
845.862	0.0164379
845.940	0.0164769
846.018	0.0164781
846.096	0.0163881
846.174	0.0165048
846.253	0.0164966
846.331	0.0164664
846.409	0.0165392
846.487	0.0165391
846.565	0.0165508
846.643	0.0164894
846.721	0.0164513
846.799	0.0164188
846.878	0.0165325
846.956	0.0166602
847.034	0.0165614
847.112	0.0165424
847.190	0.0165123
847.268	0.0164591
847.346	0.0163954
847.424	0.0165919
847.503	0.0166435
847.581	0.0164420
847.659	0.0164517
847.737	0.0162905
847.815	0.0164739
847.893	0.0163556
847.971	0.0164298
848.049	0.0163882
848.128	0.0163012
848.206	0.0164529
848.284	0.0163729
848.362	0.0164036
848.440	0.0163569
848.518	0.0163438
848.596	0.0164465
848.674	0.0164503
848.753	0.0163591
848.831	0.0164888
848.909	0.0163042
848.987	0.0164253
849.065	0.0165305
849.143	0.0163401
849.221	0.0163794
849.299	0.0163888
849.378	0.0164381
849.456	0.0164342
849.534	0.0163553
849.612	0.0163622
849.690	0.0164221
849.768	0.0163509
849.846	0.0162482
849.924	0.0163204
850.003	0.0163987
850.081	0.0163480
850.159	0.0163190
850.237	0.0163261
850.315	0.0162634
850.393	0.0163832
850.471	0.0165181
850.549	0.0162605
850.628	0.0163491
850.706	0.0161703
850.784	0.0162723
850.862	0.0163094
850.940	0.0164941
851.018	0.0163161
851.096	0.0163485
851.174	0.0163603
851.253	0.0163235
851.331	0.0164887
851.409	0.0163947
851.487	0.0163310
851.565	0.0163959
851.643	0.0164347
851.721	0.0163068
851.799	0.0164362
851.878	0.0163692
851.956	0.0163152
852.034	0.0165414
852.112	0.0164214
852.190	0.0164219
852.268	0.0165250
852.346	0.0164985
852.424	0.0162431
852.503	0.0163758
852.581	0.0163994
852.659	0.0164063
852.737	0.0164300
852.815	0.0164582
852.893	0.0165213
852.971	0.0165325
853.049	0.0164351
853.128	0.0163630
853.206	0.0164233
853.284	0.0164344
853.362	0.0164675
853.440	0.0164449
853.518	0.0164787
853.596	0.0165407
853.674	0.0163809
853.753	0.0165254
853.831	0.0164280
853.909	0.0163915
853.987	0.0164630
854.065	0.0164577
854.143	0.0166191
854.221	0.0164055
854.299	0.0163817
854.378	0.0163882
854.456	0.0166006
854.534	0.0164407
854.612	0.0164685
854.690	0.0164840
854.768	0.0164948
854.846	0.0165578
854.924	0.0164968
855.003	0.0164040
855.081	0.0163995
855.159	0.0165048
855.237	0.0165429
855.315	0.0165089
855.393	0.0165493
855.471	0.0165691
855.549	0.0164835
855.628	0.0164953
855.706	0.0164700
855.784	0.0165266
855.862	0.0164953
855.940	0.0165649
856.018	0.0165661
856.096	0.0163898
856.174	0.0163946
856.253	0.0164588
856.331	0.0164355
856.409	0.0164609
856.487	0.0164557
856.565	0.0164614
856.643	0.0163242
856.721	0.0164039
856.799	0.0163424
856.878	0.0163073
856.956	0.0163637
857.034	0.0162437
857.112	0.0162453
857.190	0.0163384
857.268	0.0162619
857.346	0.0163035
857.424	0.0162111
857.503	0.0162000
857.581	0.0164583
857.659	0.0164120
857.737	0.0162675
857.815	0.0162985
857.893	0.0163007
857.971	0.0162362
858.049	0.0161449
858.128	0.0162308
858.206	0.0163330
858.284	0.0162385
858.362	0.0161029
858.440	0.0161239
858.518	0.0162096
858.596	0.0161472
858.674	0.0162745
858.753	0.0162881
858.831	0.0163148
858.909	0.0162009
858.987	0.0161441
859.065	0.0161287
859.143	0.0162876
859.221	0.0161826
859.299	0.0162260
859.378	0.0161808
859.456	0.0164157
859.534	0.0163071
859.612	0.0162874
859.690	0.0163625
859.768	0.0164591
859.846	0.0165155
859.924	0.0164648
860.003	0.0164214
860.081	0.0163436
860.159	0.0164626
860.237	0.0163651
860.315	0.0163937
860.393	0.0163911
860.471	0.0163132
860.549	0.0162428
860.628	0.0164867
860.706	0.0163854
860.784	0.0163044
860.862	0.0163500
860.940	0.0163876
861.018	0.0164201
861.096	0.0163828
861.174	0.0163910
861.253	0.0163416
861.331	0.0162617
861.409	0.0162681
861.487	0.0163735
861.565	0.0163147
861.643	0.0164971
861.721	0.0164351
861.799	0.0163741
861.878	0.0164672
861.956	0.0164747
862.034	0.0164840
862.112	0.0163607
862.190	0.0164587
862.268	0.0165488
862.346	0.0163609
862.424	0.0163392
862.503	0.0164043
862.581	0.0165155
862.659	0.0164415
862.737	0.0163787
862.815	0.0163990
862.893	0.0163297
862.971	0.0163709
863.049	0.0164068
863.128	0.0164923
863.206	0.0163281
863.284	0.0162725
863.362	0.0163241
863.440	0.0162466
863.518	0.0163705
863.596	0.0162789
863.674	0.0163417
863.753	0.0164056
863.831	0.0163013
863.909	0.0161697
863.987	0.0163338
864.065	0.0163200
864.143	0.0161475
864.221	0.0162185
864.299	0.0161238
864.378	0.0162888
864.456	0.0162465
864.534	0.0161912
864.612	0.0160871
864.690	0.0161243
864.768	0.0163132
864.846	0.0163221
864.924	0.0161209
865.003	0.0163428
865.081	0.0162507
865.159	0.0162399
865.237	0.0162918
865.315	0.0162807
865.393	0.0161852
865.471	0.0162994
865.549	0.0162634
865.628	0.0160953
865.706	0.0162263
865.784	0.0160898
865.862	0.0161353
865.940	0.0162469
866.018	0.0160898
866.096	0.0162358
866.174	0.0162074
866.253	0.0161684
866.331	0.0161464
866.409	0.0162614
866.487	0.0162479
866.565	0.0161774
866.643	0.0163088
866.721	0.0162720
866.799	0.0162220
866.878	0.0164031
866.956	0.0162977
867.034	0.0162663
867.112	0.0163925
867.190	0.0163757
867.268	0.0164054
867.346	0.0163634
867.424	0.0165144
867.503	0.0162814
867.581	0.0163731
867.659	0.0163486
867.737	0.0163285
867.815	0.0164217
867.893	0.0163696
867.971	0.0164357
868.049	0.0163640
868.128	0.0163818
868.206	0.0164462
868.284	0.0166088
868.362	0.0164224
868.440	0.0164210
868.518	0.0164618
868.596	0.0164798
868.674	0.0164451
868.753	0.0163616
868.831	0.0164732
868.909	0.0164168
868.987	0.0163341
869.065	0.0164350
869.143	0.0163925
869.221	0.0164736
869.299	0.0162363
869.378	0.0163772
869.456	0.0163716
869.534	0.0165051
869.612	0.0165680
869.690	0.0164973
869.768	0.0162994
869.846	0.0163620
869.924	0.0164600
870.003	0.0164563
870.081	0.0163436
870.159	0.0163452
870.237	0.0164652
870.315	0.0164139
870.393	0.0164951
870.471	0.0162813
870.549	0.0163754
870.628	0.0164223
870.706	0.0164667
870.784	0.0164373
870.862	0.0165096
870.940	0.0165924
871.018	0.0165795
871.096	0.0165346
871.174	0.0164926
871.253	0.0165367
871.331	0.0165628
871.409	0.0166628
871.487	0.0165395
871.565	0.0165923
871.643	0.0164883
871.721	0.0165201
871.799	0.0165435
871.878	0.0165037
871.956	0.0164594
872.034	0.0164271
872.112	0.0164416
872.190	0.0166628
872.268	0.0164935
872.346	0.0166118
872.424	0.0164533
872.503	0.0165761
872.581	0.0164376
872.659	0.0165995
872.737	0.0165502
872.815	0.0164291
872.893	0.0165713
872.971	0.0166843
873.049	0.0165158
873.128	0.0164704
873.206	0.0164944
873.284	0.0163757
873.362	0.0164312
873.440	0.0165261
873.518	0.0164639
873.596	0.0164595
873.674	0.0163985
873.753	0.0163844
873.831	0.0163799
873.909	0.0164444
873.987	0.0164639
874.065	0.0163657
874.143	0.0165287
874.221	0.0164290
874.299	0.0164495
874.378	0.0165324
874.456	0.0164119
874.534	0.0164414
874.612	0.0164631
874.690	0.0164526
874.768	0.0163860
874.846	0.0164417
874.924	0.0166094
875.003	0.0164668
875.081	0.0164475
875.159	0.0164427
875.237	0.0164281
875.315	0.0164114
875.393	0.0164525
875.471	0.0163665
875.549	0.0162922
875.628	0.0163437
875.706	0.0163169
875.784	0.0164417
875.862	0.0163205
875.940	0.0164408
876.018	0.0163921
876.096	0.0163895
876.174	0.0163601
876.253	0.0163893
876.331	0.0163910
876.409	0.0163979
876.487	0.0163448
876.565	0.0163766
876.643	0.0164011
876.721	0.0163902
876.799	0.0163721
876.878	0.0163882
876.956	0.0164211
877.034	0.0163019
877.112	0.0164607
877.190	0.0164448
877.268	0.0165047
877.346	0.0163912
877.424	0.0162482
877.503	0.0163712
877.581	0.0163867
877.659	0.0163683
877.737	0.0163645
877.815	0.0161544
877.893	0.0163801
877.971	0.0163564
878.049	0.0163609
878.128	0.0162414
878.206	0.0163513
878.284	0.0163792
878.362	0.0162867
878.440	0.0164093
878.518	0.0163286
878.596	0.0162764
878.674	0.0162100
878.753	0.0163900
878.831	0.0164435
878.909	0.0163155
878.987	0.0163808
879.065	0.0162557
879.143	0.0163540
879.221	0.0165052
879.299	0.0163733
879.378	0.0163554
879.456	0.0163128
879.534	0.0163978
879.612	0.0164053
879.690	0.0162888
879.768	0.0162865
879.846	0.0164074
879.924	0.0162868
880.003	0.0161987
880.081	0.0162939
880.159	0.0162304
880.237	0.0163895
880.315	0.0163242
880.393	0.0163403
880.471	0.0164066
880.549	0.0162986
880.628	0.0162906
880.706	0.0163523
880.784	0.0162167
880.862	0.0162366
880.940	0.0162012
881.018	0.0162540
881.096	0.0163261
881.174	0.0162579
881.253	0.0163224
881.331	0.0162559
881.409	0.0162457
881.487	0.0163279
881.565	0.0162363
881.643	0.0161652
881.721	0.0163188
881.799	0.0163823
881.878	0.0162954
881.956	0.0162826
882.034	0.0162563
882.112	0.0164393
882.190	0.0164191
882.268	0.0163488
882.346	0.0163516
882.424	0.0164515
882.503	0.0163419
882.581	0.0163083
882.659	0.0162974
882.737	0.0161235
882.815	0.0162921
882.893	0.0164461
882.971	0.0161533
883.049	0.0162102
883.128	0.0161193
883.206	0.0161894
883.284	0.0162663
883.362	0.0162486
883.440	0.0161671
883.518	0.0161988
883.596	0.0163139
883.674	0.0162873
883.753	0.0162104
883.831	0.0162743
883.909	0.0162257
883.987	0.0163445
884.065	0.0163322
884.143	0.0162535
884.221	0.0162350
884.299	0.0164200
884.378	0.0164020
884.456	0.0163292
884.534	0.0163593
884.612	0.0162583
884.690	0.0164082
884.768	0.0163761
884.846	0.0163147
884.924	0.0163272
885.003	0.0163679
885.081	0.0162669
885.159	0.0161742
885.237	0.0162812
885.315	0.0163046
885.393	0.0162602
885.471	0.0162941
885.549	0.0163461
885.628	0.0163514
885.706	0.0162600
885.784	0.0162833
885.862	0.0162915
885.940	0.0163110
886.018	0.0162453
886.096	0.0163121
886.174	0.0162016
886.253	0.0164029
886.331	0.0163787
886.409	0.0163285
886.487	0.0163351
886.565	0.0164236
886.643	0.0164184
886.721	0.0164044
886.799	0.0164497
886.878	0.0165147
886.956	0.0162437
887.034	0.0162997
887.112	0.0163980
887.190	0.0162499
887.268	0.0162874
887.346	0.0162663
887.424	0.0163054
887.503	0.0161586
887.581	0.0161196
887.659	0.0163089
887.737	0.0162894
887.815	0.0162189
887.893	0.0163535
887.971	0.0162659
888.049	0.0163302
888.128	0.0162177
888.206	0.0163560
888.284	0.0163211
888.362	0.0161884
888.440	0.0163716
888.518	0.0163141
888.596	0.0162215
888.674	0.0163137
888.753	0.0163395
888.831	0.0162689
888.909	0.0163923
888.987	0.0163000
889.065	0.0164469
889.143	0.0163408
889.221	0.0163618
889.299	0.0163194
889.378	0.0163088
889.456	0.0162020
889.534	0.0162844
889.612	0.0162846
889.690	0.0163332
889.768	0.0163255
889.846	0.0162379
889.924	0.0161941
890.003	0.0163625
890.081	0.0162933
890.159	0.0162493
890.237	0.0162800
890.315	0.0163277
890.393	0.0163433
890.471	0.0162346
890.549	0.0162695
890.628	0.0163634
890.706	0.0164394
890.784	0.0164442
890.862	0.0163190
890.940	0.0163349
891.018	0.0163476
891.096	0.0162505
891.174	0.0163325
891.253	0.0164056
891.331	0.0163233
891.409	0.0163120
891.487	0.0164893
891.565	0.0163724
891.643	0.0163013
891.721	0.0164295
891.799	0.0162852
891.878	0.0164107
891.956	0.0163843
892.034	0.0163803
892.112	0.0163225
892.190	0.0162797
892.268	0.0163181
892.346	0.0163235
892.424	0.0162700
892.503	0.0163068
892.581	0.0163152
892.659	0.0163111
892.737	0.0164024
892.815	0.0163349
892.893	0.0164595
892.971	0.0163553
893.049	0.0164406
893.128	0.0163573
893.206	0.0164446
893.284	0.0164692
893.362	0.0164556
893.440	0.0164727
893.518	0.0163258
893.596	0.0163731
893.674	0.0163692
893.753	0.0164565
893.831	0.0164051
893.909	0.0163094
893.987	0.0164336
894.065	0.0163333
894.143	0.0163091
894.221	0.0163087
894.299	0.0164391
894.378	0.0164368
894.456	0.0163748
894.534	0.0163103
894.612	0.0163480
894.690	0.0164789
894.768	0.0163609
894.846	0.0165270
894.924	0.0164545
895.003	0.0163834
895.081	0.0164767
895.159	0.0163876
895.237	0.0163982
895.315	0.0164424
895.393	0.0164200
895.471	0.0165611
895.549	0.0165557
895.628	0.0164893
895.706	0.0164246
895.784	0.0163366
895.862	0.0166000
895.940	0.0164988
896.018	0.0163316
896.096	0.0163918
896.174	0.0163744
896.253	0.0164308
896.331	0.0164253
896.409	0.0164150
896.487	0.0164085
896.565	0.0164048
896.643	0.0163293
896.721	0.0165443
896.799	0.0163738
896.878	0.0163433
896.956	0.0163875
897.034	0.0165825
897.112	0.0165128
897.190	0.0163045
897.268	0.0163466
897.346	0.0163318
897.424	0.0164421
897.503	0.0163683
897.581	0.0165330
897.659	0.0165816
897.737	0.0164623
897.815	0.0165143
897.893	0.0164999
897.971	0.0164697
898.049	0.0165485
898.128	0.0164574
898.206	0.0164437
898.284	0.0164188
898.362	0.0164794
898.440	0.0164170
898.518	0.0163538
898.596	0.0163805
898.674	0.0164529
898.753	0.0162785
898.831	0.0164302
898.909	0.0163860
898.987	0.0163158
899.065	0.0163715
899.143	0.0162557
899.221	0.0162579
899.299	0.0164160
899.378	0.0163455
899.456	0.0162769
899.534	0.0162688
899.612	0.0162408
899.690	0.0163297
899.768	0.0163818
899.846	0.0164487
899.924	0.0162642
900.003	0.0163040
900.081	0.0163564
900.159	0.0162788
900.237	0.0162450
900.315	0.0164907
900.393	0.0163315
900.471	0.0165142
900.549	0.0164388
900.628	0.0163814
900.706	0.0163702
900.784	0.0164496
900.862	0.0163166
900.940	0.0163976
901.018	0.0164406
901.096	0.0164984
901.174	0.0163667
901.253	0.0162752
901.331	0.0164513
901.409	0.0164509
901.487	0.0163445
901.565	0.0162817
901.643	0.0163762
901.721	0.0163877
901.799	0.0165144
901.878	0.0164691
901.956	0.0164584
902.034	0.0163243
902.112	0.0163480
902.190	0.0164546
902.268	0.0165430
902.346	0.0165072
902.424	0.0164007
902.503	0.0165093
902.581	0.0165904
902.659	0.0163926
902.737	0.0164587
902.815	0.0164388
902.893	0.0164954
902.971	0.0164140
903.049	0.0165228
903.128	0.0164448
903.206	0.0164631
903.284	0.0164177
903.362	0.0164183
903.440	0.0164661
903.518	0.0163876
903.596	0.0164601
903.674	0.0164092
903.753	0.0164421
903.831	0.0164314
903.909	0.0165150
903.987	0.0164929
904.065	0.0164526
904.143	0.0164513
904.221	0.0164799
904.299	0.0164160
904.378	0.0165012
904.456	0.0165236
904.534	0.0164375
904.612	0.0165314
904.690	0.0166423
904.768	0.0164144
904.846	0.0164482
904.924	0.0165222
905.003	0.0164474
905.081	0.0165247
905.159	0.0164270
905.237	0.0163226
905.315	0.0163160
905.393	0.0164322
905.471	0.0163512
905.549	0.0162642
905.628	0.0164631
905.706	0.0163534
905.784	0.0164097
905.862	0.0162775
905.940	0.0163941
906.018	0.0164033
906.096	0.0163947
906.174	0.0164307
906.253	0.0162717
906.331	0.0163660
906.409	0.0163793
906.487	0.0162206
906.565	0.0163080
906.643	0.0163268
906.721	0.0163406
906.799	0.0162236
906.878	0.0164005
906.956	0.0162310
907.034	0.0161973
907.112	0.0162983
907.190	0.0163026
907.268	0.0161394
907.346	0.0162780
907.424	0.0162677
907.503	0.0162660
907.581	0.0162300
907.659	0.0163107
907.737	0.0162607
907.815	0.0164188
907.893	0.0162460
907.971	0.0163126
908.049	0.0162872
908.128	0.0163989
908.206	0.0165028
908.284	0.0163862
908.362	0.0162945
908.440	0.0162215
908.518	0.0163722
908.596	0.0163928
908.674	0.0162359
908.753	0.0164566
908.831	0.0165767
908.909	0.0164775
908.987	0.0163639
909.065	0.0163828
909.143	0.0162242
909.221	0.0163251
909.299	0.0163197
909.378	0.0161555
909.456	0.0163180
909.534	0.0163683
909.612	0.0163863
909.690	0.0163715
909.768	0.0162741
909.846	0.0163622
909.924	0.0163371
910.003	0.0164474
910.081	0.0164464
910.159	0.0164254
910.237	0.0164301
910.315	0.0163444
910.393	0.0163519
910.471	0.0165517
910.549	0.0164631
910.628	0.0164755
910.706	0.0163740
910.784	0.0164119
910.862	0.0163957
910.940	0.0164762
911.018	0.0163586
911.096	0.0163586
911.174	0.0164866
911.253	0.0163824
911.331	0.0164066
911.409	0.0163569
911.487	0.0163308
911.565	0.0164484
911.643	0.0164456
911.721	0.0162100
911.799	0.0163084
911.878	0.0164348
911.956	0.0164520
912.034	0.0163189
912.112	0.0162844
912.190	0.0163962
912.268	0.0163175
912.346	0.0162628
912.424	0.0164044
912.503	0.0163161
912.581	0.0162773
912.659	0.0161528
912.737	0.0163647
912.815	0.0164408
912.893	0.0163692
912.971	0.0163463
913.049	0.0163085
913.128	0.0162424
913.206	0.0162581
913.284	0.0162185
913.362	0.0163280
913.440	0.0163480
913.518	0.0161747
913.596	0.0163592
913.674	0.0162183
913.753	0.0162914
913.831	0.0162697
913.909	0.0162907
913.987	0.0162279
914.065	0.0162576
914.143	0.0163337
914.221	0.0161861
914.299	0.0162106
914.378	0.0162020
914.456	0.0161536
914.534	0.0160835
914.612	0.0161724
914.690	0.0161993
914.768	0.0162145
914.846	0.0161173
914.924	0.0163625
915.003	0.0161453
915.081	0.0161965
915.159	0.0162629
915.237	0.0162787
915.315	0.0162197
915.393	0.0161461
915.471	0.0162734
915.549	0.0163087
915.628	0.0163081
915.706	0.0163068
915.784	0.0162756
915.862	0.0163753
915.940	0.0161181
916.018	0.0162383
916.096	0.0163147
916.174	0.0163506
916.253	0.0162867
916.331	0.0161401
916.409	0.0162399
916.487	0.0162100
916.565	0.0163564
916.643	0.0162960
916.721	0.0163702
916.799	0.0163171
916.878	0.0162917
916.956	0.0163535
917.034	0.0163407
917.112	0.0163622
917.190	0.0164851
917.268	0.0164528
917.346	0.0162679
917.424	0.0162863
917.503	0.0164237
917.581	0.0165556
917.659	0.0163749
917.737	0.0164707
917.815	0.0163849
917.893	0.0164053
917.971	0.0164229
918.049	0.0164629
918.128	0.0163801
918.206	0.0163445
918.284	0.0165266
918.362	0.0164438
918.440	0.0163811
918.518	0.0163223
918.596	0.0164304
918.674	0.0163219
918.753	0.0163697
918.831	0.0163553
918.909	0.0164520
918.987	0.0163410
919.065	0.0163255
919.143	0.0161717
919.221	0.0163885
919.299	0.0162503
919.378	0.0162156
919.456	0.0163790
919.534	0.0162830
919.612	0.0164059
919.690	0.0161385
919.768	0.0163377
919.846	0.0164198
919.924	0.0162451
920.003	0.0163016
920.081	0.0163944
920.159	0.0164339
920.237	0.0163189
920.315	0.0164558
920.393	0.0164557
920.471	0.0163848
920.549	0.0164610
920.628	0.0163687
920.706	0.0163346
920.784	0.0163819
920.862	0.0162876
920.940	0.0162883
921.018	0.0163584
921.096	0.0164566
921.174	0.0164713
921.253	0.0164606
921.331	0.0163650
921.409	0.0163068
921.487	0.0164423
921.565	0.0165984
921.643	0.0164779
921.721	0.0163834
921.799	0.0165370
921.878	0.0164638
921.956	0.0164015
922.034	0.0164624
922.112	0.0164257
922.190	0.0163425
922.268	0.0165398
922.346	0.0165189
922.424	0.0163119
922.503	0.0164442
922.581	0.0163053
922.659	0.0164492
922.737	0.0163562
922.815	0.0163570
922.893	0.0163267
922.971	0.0164175
923.049	0.0164981
923.128	0.0163599
923.206	0.0162590
923.284	0.0164428
923.362	0.0163165
923.440	0.0163084
923.518	0.0163699
923.596	0.0163027
923.674	0.0162517
923.753	0.0163790
923.831	0.0164098
923.909	0.0162826
923.987	0.0163229
924.065	0.0164394
924.143	0.0163074
924.221	0.0164116
924.299	0.0163428
924.378	0.0163805
924.456	0.0163470
924.534	0.0163688
924.612	0.0163829
924.690	0.0165250
924.768	0.0165659
924.846	0.0164178
924.924	0.0163680
925.003	0.0164597
925.081	0.0164209
925.159	0.0164015
925.237	0.0163449
925.315	0.0164257
925.393	0.0165043
925.471	0.0165031
925.549	0.0164365
925.628	0.0162872
925.706	0.0165363
925.784	0.0164207
925.862	0.0164248
925.940	0.0163782
926.018	0.0163550
926.096	0.0163641
926.174	0.0164597
926.253	0.0163377
926.331	0.0163715
926.409	0.0163929
926.487	0.0164731
926.565	0.0164368
926.643	0.0164159
926.721	0.0164893
926.799	0.0164397
926.878	0.0162872
926.956	0.0164089
927.034	0.0163730
927.112	0.0163670
927.190	0.0163528
927.268	0.0163688
927.346	0.0162601
927.424	0.0164156
927.503	0.0163574
927.581	0.0163995
927.659	0.0162777
927.737	0.0162978
927.815	0.0163354
927.893	0.0163451
927.971	0.0162746
928.049	0.0164371
928.128	0.0164024
928.206	0.0163403
928.284	0.0163673
928.362	0.0162918
928.440	0.0163311
928.518	0.0164095
928.596	0.0163772
928.674	0.0163405
928.753	0.0163898
928.831	0.0164155
928.909	0.0164490
928.987	0.0164417
929.065	0.0163272
929.143	0.0164395
929.221	0.0164156
929.299	0.0164436
929.378	0.0162750
929.456	0.0163883
929.534	0.0163815
929.612	0.0163479
929.690	0.0163979
929.768	0.0163405
929.846	0.0163571
929.924	0.0162925
930.003	0.0162286
930.081	0.0163642
930.159	0.0164299
930.237	0.0162028
930.315	0.0163346
930.393	0.0163280
930.471	0.0163704
930.549	0.0164443
930.628	0.0163303
930.706	0.0163175
930.784	0.0164417
930.862	0.0165311
930.940	0.0163708
931.018	0.0163893
931.096	0.0163602
931.174	0.0164008
931.253	0.0165094
931.331	0.0164133
931.409	0.0163316
931.487	0.0162801
931.565	0.0164027
931.643	0.0163483
931.721	0.0163693
931.799	0.0163186
931.878	0.0162131
931.956	0.0164196
932.034	0.0164173
932.112	0.0163400
932.190	0.0163110
932.268	0.0164339
932.346	0.0164754
932.424	0.0163423
932.503	0.0164207
932.581	0.0164778
932.659	0.0163257
932.737	0.0162758
932.815	0.0163493
932.893	0.0162892
932.971	0.0163158
933.049	0.0163896
933.128	0.0164017
933.206	0.0163043
933.284	0.0163322
933.362	0.0163904
933.440	0.0162160
933.518	0.0163693
933.596	0.0163117
933.674	0.0163346
933.753	0.0164692
933.831	0.0163271
933.909	0.0163975
933.987	0.0163411
934.065	0.0163213
934.143	0.0163969
934.221	0.0165164
934.299	0.0164857
934.378	0.0165917
934.456	0.0164236
934.534	0.0164730
934.612	0.0164477
934.690	0.0165247
934.768	0.0165044
934.846	0.0165112
934.924	0.0163894
935.003	0.0163461
935.081	0.0164680
935.159	0.0163760
935.237	0.0163831
935.315	0.0163952
935.393	0.0165182
935.471	0.0163943
935.549	0.0163640
935.628	0.0164782
935.706	0.0163702
935.784	0.0163270
935.862	0.0164008
935.940	0.0164146
936.018	0.0164011
936.096	0.0163766
936.174	0.0164108
936.253	0.0163551
936.331	0.0162993
936.409	0.0162770
936.487	0.0162804
936.565	0.0163640
936.643	0.0163813
936.721	0.0163681
936.799	0.0162348
936.878	0.0163153
936.956	0.0162720
937.034	0.0163055
937.112	0.0163875
937.190	0.0163091
937.268	0.0162216
937.346	0.0163779
937.424	0.0163291
937.503	0.0164017
937.581	0.0163899
937.659	0.0161958
937.737	0.0162658
937.815	0.0164434
937.893	0.0163117
937.971	0.0161263
938.049	0.0163341
938.128	0.0163241
938.206	0.0163375
938.284	0.0164193
938.362	0.0162870
938.440	0.0163219
938.518	0.0162718
938.596	0.0163906
938.674	0.0164253
938.753	0.0162766
938.831	0.0162791
938.909	0.0163261
938.987	0.0162597
939.065	0.0164201
939.143	0.0163435
939.221	0.0163464
939.299	0.0164552
939.378	0.0163490
939.456	0.0163982
939.534	0.0161539
939.612	0.0163467
939.690	0.0163557
939.768	0.0164009
939.846	0.0165128
939.924	0.0163995
940.003	0.0162994
940.081	0.0164123
940.159	0.0163500
940.237	0.0162389
940.315	0.0164066
940.393	0.0162277
940.471	0.0163145
940.549	0.0163050
940.628	0.0163058
940.706	0.0162894
940.784	0.0164347
940.862	0.0163447
940.940	0.0164112
941.018	0.0163866
941.096	0.0162740
941.174	0.0163474
941.253	0.0163835
941.331	0.0162292
941.409	0.0162794
941.487	0.0163126
941.565	0.0163656
941.643	0.0162640
941.721	0.0164126
941.799	0.0162642
941.878	0.0162856
941.956	0.0163651
942.034	0.0160885
942.112	0.0164132
942.190	0.0164203
942.268	0.0162809
942.346	0.0163406
942.424	0.0163942
942.503	0.0163406
942.581	0.0164720
942.659	0.0163405
942.737	0.0164287
942.815	0.0163641
942.893	0.0162987
942.971	0.0164434
943.049	0.0163087
943.128	0.0163622
943.206	0.0163644
943.284	0.0161958
943.362	0.0163255
943.440	0.0162840
943.518	0.0163620
943.596	0.0163508
943.674	0.0162726
943.753	0.0163166
943.831	0.0162828
943.909	0.0162688
943.987	0.0162344
944.065	0.0163689
944.143	0.0163976
944.221	0.0163276
944.299	0.0162302
944.378	0.0163158
944.456	0.0163304
944.534	0.0164018
944.612	0.0161597
944.690	0.0162740
944.768	0.0162935
944.846	0.0162180
944.924	0.0161683
945.003	0.0162514
945.081	0.0161450
945.159	0.0161889
945.237	0.0161712
945.315	0.0162035
945.393	0.0161185
945.471	0.0161475
945.549	0.0162196
945.628	0.0163741
945.706	0.0162523
945.784	0.0162787
945.862	0.0162428
945.940	0.0162211
946.018	0.0163835
946.096	0.0162284
946.174	0.0162222
946.253	0.0163799
946.331	0.0164065
946.409	0.0164104
946.487	0.0163844
946.565	0.0163230
946.643	0.0163029
946.721	0.0163876
946.799	0.0162875
946.878	0.0164349
946.956	0.0163493
947.034	0.0163871
947.112	0.0163335
947.190	0.0163516
947.268	0.0163581
947.346	0.0162920
947.424	0.0162141
947.503	0.0163244
947.581	0.0164323
947.659	0.0163978
947.737	0.0162821
947.815	0.0163510
947.893	0.0163298
947.971	0.0163400
948.049	0.0163159
948.128	0.0163162
948.206	0.0164746
948.284	0.0163948
948.362	0.0164101
948.440	0.0164682
948.518	0.0164378
948.596	0.0165262
948.674	0.0164536
948.753	0.0164699
948.831	0.0164037
948.909	0.0164310
948.987	0.0164024
949.065	0.0164320
949.143	0.0164657
949.221	0.0165140
949.299	0.0164663
949.378	0.0164176
949.456	0.0164190
949.534	0.0163364
949.612	0.0163377
949.690	0.0164674
949.768	0.0164056
949.846	0.0163102
949.924	0.0164926
