05/19/2022	00:50:58	Ver.	4.1	UNKNOWN
Optical Delay	630.002507	Delta X		0.078125	Sweeps	1	Scan Rate	0/0
Coordinates	Axis 1	NaN	Axis 2	NaN	Axis 3	NaN	Axis 4	NaN	Axis 5	NaN	Axis 6	0.000000
TX Power	0.000000	RX Power	0.000000

630.003	0.0165811
630.081	0.0165382
630.159	0.0164521
630.237	0.0164711
630.315	0.0165273
630.393	0.0165862
630.471	0.0164743
630.549	0.0165252
630.628	0.0164739
630.706	0.0165095
630.784	0.0166270
630.862	0.0165717
630.940	0.0165784
631.018	0.0163599
631.096	0.0165664
631.174	0.0164944
631.253	0.0164968
631.331	0.0164784
631.409	0.0164014
631.487	0.0164427
631.565	0.0166546
631.643	0.0166512
631.721	0.0164957
631.799	0.0164455
631.878	0.0165579
631.956	0.0165918
632.034	0.0165750
632.112	0.0166354
632.190	0.0164368
632.268	0.0165536
632.346	0.0163964
632.424	0.0166563
632.503	0.0165827
632.581	0.0165170
632.659	0.0165829
632.737	0.0165785
632.815	0.0165427
632.893	0.0164544
632.971	0.0164879
633.049	0.0164512
633.128	0.0165609
633.206	0.0165682
633.284	0.0165446
633.362	0.0165063
633.440	0.0165359
633.518	0.0164824
633.596	0.0164811
633.674	0.0165209
633.753	0.0166947
633.831	0.0164869
633.909	0.0165742
633.987	0.0164996
634.065	0.0164998
634.143	0.0164790
634.221	0.0164841
634.299	0.0165675
634.378	0.0163912
634.456	0.0164923
634.534	0.0165979
634.612	0.0164889
634.690	0.0165434
634.768	0.0163644
634.846	0.0163990
634.924	0.0165029
635.003	0.0164194
635.081	0.0164420
635.159	0.0165112
635.237	0.0163486
635.315	0.0164529
635.393	0.0163979
635.471	0.0164905
635.549	0.0166145
635.628	0.0164545
635.706	0.0164829
635.784	0.0164101
635.862	0.0165305
635.940	0.0164588
636.018	0.0165087
636.096	0.0166434
636.174	0.0165058
636.253	0.0166212
636.331	0.0165849
636.409	0.0165703
636.487	0.0164744
636.565	0.0163885
636.643	0.0164783
636.721	0.0166335
636.799	0.0164608
636.878	0.0163640
636.956	0.0163695
637.034	0.0163530
637.112	0.0162666
637.190	0.0163732
637.268	0.0164363
637.346	0.0164304
637.424	0.0164355
637.503	0.0165211
637.581	0.0164744
637.659	0.0165267
637.737	0.0164205
637.815	0.0165412
637.893	0.0166801
637.971	0.0164890
638.049	0.0164411
638.128	0.0166118
638.206	0.0165044
638.284	0.0166364
638.362	0.0165738
638.440	0.0165446
638.518	0.0164796
638.596	0.0164541
638.674	0.0164756
638.753	0.0165754
638.831	0.0164778
638.909	0.0165227
638.987	0.0164478
639.065	0.0165355
639.143	0.0165919
639.221	0.0165102
639.299	0.0165012
639.378	0.0165981
639.456	0.0164870
639.534	0.0165077
639.612	0.0164354
639.690	0.0165257
639.768	0.0165381
639.846	0.0165947
639.924	0.0165771
640.003	0.0165022
640.081	0.0166073
640.159	0.0165046
640.237	0.0167693
640.315	0.0166214
640.393	0.0165831
640.471	0.0166142
640.549	0.0164607
640.628	0.0165662
640.706	0.0166983
640.784	0.0165212
640.862	0.0164838
640.940	0.0165790
641.018	0.0166702
641.096	0.0166506
641.174	0.0165135
641.253	0.0164957
641.331	0.0165155
641.409	0.0165665
641.487	0.0166747
641.565	0.0165248
641.643	0.0163715
641.721	0.0165845
641.799	0.0164104
641.878	0.0165850
641.956	0.0165712
642.034	0.0164956
642.112	0.0164902
642.190	0.0165730
642.268	0.0165554
642.346	0.0165661
642.424	0.0165197
642.503	0.0165773
642.581	0.0165051
642.659	0.0163960
642.737	0.0166887
642.815	0.0166317
642.893	0.0164989
642.971	0.0166840
643.049	0.0164635
643.128	0.0166507
643.206	0.0165356
643.284	0.0166293
643.362	0.0164939
643.440	0.0166349
643.518	0.0165879
643.596	0.0164750
643.674	0.0165570
643.753	0.0165093
643.831	0.0165054
643.909	0.0164129
643.987	0.0163886
644.065	0.0164082
644.143	0.0164265
644.221	0.0163680
644.299	0.0164396
644.378	0.0164516
644.456	0.0164188
644.534	0.0163628
644.612	0.0164583
644.690	0.0164426
644.768	0.0164187
644.846	0.0162724
644.924	0.0165101
645.003	0.0165427
645.081	0.0164857
645.159	0.0164014
645.237	0.0165038
645.315	0.0163380
645.393	0.0164549
645.471	0.0164729
645.549	0.0164442
645.628	0.0163763
645.706	0.0164062
645.784	0.0164133
645.862	0.0164017
645.940	0.0163832
646.018	0.0164631
646.096	0.0165184
646.174	0.0164485
646.253	0.0164641
646.331	0.0166026
646.409	0.0165507
646.487	0.0164445
646.565	0.0165422
646.643	0.0165540
646.721	0.0165893
646.799	0.0165503
646.878	0.0165632
646.956	0.0166393
647.034	0.0165059
647.112	0.0164355
647.190	0.0165016
647.268	0.0166496
647.346	0.0164352
647.424	0.0164597
647.503	0.0164429
647.581	0.0164890
647.659	0.0165041
647.737	0.0164648
647.815	0.0164765
647.893	0.0165372
647.971	0.0166182
648.049	0.0165646
648.128	0.0164067
648.206	0.0165981
648.284	0.0166851
648.362	0.0165620
648.440	0.0165878
648.518	0.0163287
648.596	0.0164442
648.674	0.0165852
648.753	0.0166366
648.831	0.0165196
648.909	0.0165061
648.987	0.0165891
649.065	0.0165247
649.143	0.0165990
649.221	0.0165405
649.299	0.0166236
649.378	0.0166911
649.456	0.0165002
649.534	0.0167155
649.612	0.0166636
649.690	0.0164777
649.768	0.0166281
649.846	0.0167660
649.924	0.0167326
650.003	0.0167191
650.081	0.0166542
650.159	0.0169259
650.237	0.0167685
650.315	0.0166754
650.393	0.0166824
650.471	0.0166319
650.549	0.0165683
650.628	0.0167049
650.706	0.0166275
650.784	0.0165984
650.862	0.0165054
650.940	0.0165101
651.018	0.0165555
651.096	0.0163853
651.174	0.0165128
651.253	0.0165850
651.331	0.0164932
651.409	0.0164553
651.487	0.0163258
651.565	0.0164782
651.643	0.0164425
651.721	0.0163752
651.799	0.0164294
651.878	0.0164129
651.956	0.0164256
652.034	0.0163594
652.112	0.0164467
652.190	0.0164886
652.268	0.0164390
652.346	0.0164228
652.424	0.0164867
652.503	0.0163344
652.581	0.0163802
652.659	0.0163972
652.737	0.0163709
652.815	0.0163451
652.893	0.0163356
652.971	0.0162364
653.049	0.0162383
653.128	0.0162109
653.206	0.0162670
653.284	0.0163045
653.362	0.0162725
653.440	0.0162344
653.518	0.0164163
653.596	0.0163753
653.674	0.0163918
653.753	0.0163783
653.831	0.0164163
653.909	0.0164537
653.987	0.0163323
654.065	0.0163959
654.143	0.0166203
654.221	0.0166080
654.299	0.0164365
654.378	0.0164194
654.456	0.0164236
654.534	0.0164787
654.612	0.0164973
654.690	0.0164478
654.768	0.0165491
654.846	0.0165099
654.924	0.0165489
655.003	0.0164885
655.081	0.0165424
655.159	0.0165164
655.237	0.0164938
655.315	0.0166002
655.393	0.0166269
655.471	0.0164776
655.549	0.0165013
655.628	0.0163545
655.706	0.0163435
655.784	0.0165382
655.862	0.0164908
655.940	0.0165632
656.018	0.0166672
656.096	0.0164218
656.174	0.0164616
656.253	0.0166275
656.331	0.0165887
656.409	0.0164619
656.487	0.0166732
656.565	0.0165577
656.643	0.0165476
656.721	0.0165791
656.799	0.0164370
656.878	0.0166856
656.956	0.0166113
657.034	0.0165745
657.112	0.0165588
657.190	0.0163209
657.268	0.0164340
657.346	0.0165385
657.424	0.0165183
657.503	0.0163609
657.581	0.0165395
657.659	0.0165597
657.737	0.0164384
657.815	0.0164892
657.893	0.0163358
657.971	0.0165611
658.049	0.0166118
658.128	0.0164980
658.206	0.0166191
658.284	0.0166603
658.362	0.0165697
658.440	0.0166930
658.518	0.0166290
658.596	0.0167412
658.674	0.0167084
658.753	0.0166845
658.831	0.0167586
658.909	0.0166917
658.987	0.0165897
659.065	0.0166366
659.143	0.0166792
659.221	0.0165177
659.299	0.0165328
659.378	0.0165304
659.456	0.0164492
659.534	0.0165731
659.612	0.0164752
659.690	0.0164326
659.768	0.0164828
659.846	0.0163924
659.924	0.0164939
660.003	0.0165137
660.081	0.0163650
660.159	0.0166413
660.237	0.0165163
660.315	0.0164093
660.393	0.0163486
660.471	0.0164629
660.549	0.0164365
660.628	0.0164681
660.706	0.0164465
660.784	0.0165946
660.862	0.0164470
660.940	0.0163474
661.018	0.0164497
661.096	0.0165002
661.174	0.0166280
661.253	0.0165418
661.331	0.0166196
661.409	0.0164873
661.487	0.0166224
661.565	0.0166034
661.643	0.0166117
661.721	0.0164736
661.799	0.0164793
661.878	0.0166079
661.956	0.0165438
662.034	0.0166673
662.112	0.0164077
662.190	0.0165528
662.268	0.0163862
662.346	0.0164205
662.424	0.0164056
662.503	0.0163799
662.581	0.0163566
662.659	0.0164057
662.737	0.0164695
662.815	0.0164782
662.893	0.0163993
662.971	0.0167331
663.049	0.0165558
663.128	0.0164935
663.206	0.0167005
663.284	0.0167272
663.362	0.0167069
663.440	0.0166395
663.518	0.0167242
663.596	0.0168101
663.674	0.0167790
663.753	0.0166616
663.831	0.0166003
663.909	0.0166599
663.987	0.0167625
664.065	0.0166336
664.143	0.0165965
664.221	0.0163624
664.299	0.0164741
664.378	0.0164967
664.456	0.0163528
664.534	0.0164379
664.612	0.0164720
664.690	0.0164671
664.768	0.0164655
664.846	0.0164048
664.924	0.0163725
665.003	0.0165820
665.081	0.0165313
665.159	0.0166724
665.237	0.0166045
665.315	0.0164674
665.393	0.0164732
665.471	0.0165332
665.549	0.0165032
665.628	0.0166037
665.706	0.0165025
665.784	0.0164620
665.862	0.0165649
665.940	0.0164762
666.018	0.0164969
666.096	0.0163274
666.174	0.0164666
666.253	0.0163132
666.331	0.0163115
666.409	0.0163255
666.487	0.0164151
666.565	0.0165514
666.643	0.0166061
666.721	0.0164827
666.799	0.0166114
666.878	0.0165047
666.956	0.0166821
667.034	0.0167368
667.112	0.0167149
667.190	0.0167117
667.268	0.0167370
667.346	0.0168161
667.424	0.0168893
667.503	0.0168565
667.581	0.0168048
667.659	0.0167423
667.737	0.0168662
667.815	0.0165445
667.893	0.0166920
667.971	0.0165451
668.049	0.0167085
668.128	0.0165528
668.206	0.0164385
668.284	0.0165133
668.362	0.0164741
668.440	0.0164608
668.518	0.0164312
668.596	0.0164453
668.674	0.0165816
668.753	0.0165069
668.831	0.0164030
668.909	0.0164477
668.987	0.0164805
669.065	0.0165464
669.143	0.0165675
669.221	0.0165196
669.299	0.0165291
669.378	0.0164828
669.456	0.0165435
669.534	0.0164896
669.612	0.0163960
669.690	0.0165271
669.768	0.0164081
669.846	0.0164879
669.924	0.0164369
670.003	0.0166949
670.081	0.0164425
670.159	0.0165516
670.237	0.0166350
670.315	0.0166315
670.393	0.0166705
670.471	0.0167430
670.549	0.0166966
670.628	0.0167725
670.706	0.0167693
670.784	0.0165141
670.862	0.0166666
670.940	0.0167328
671.018	0.0167110
671.096	0.0167206
671.174	0.0167113
671.253	0.0165441
671.331	0.0166068
671.409	0.0166004
671.487	0.0165485
671.565	0.0165271
671.643	0.0166184
671.721	0.0164956
671.799	0.0164223
671.878	0.0166058
671.956	0.0164928
672.034	0.0164748
672.112	0.0164538
672.190	0.0164323
672.268	0.0163571
672.346	0.0164443
672.424	0.0164204
672.503	0.0163783
672.581	0.0163181
672.659	0.0163007
672.737	0.0161790
672.815	0.0161748
672.893	0.0162528
672.971	0.0161955
673.049	0.0163263
673.128	0.0162502
673.206	0.0163191
673.284	0.0162792
673.362	0.0162784
673.440	0.0162419
673.518	0.0164272
673.596	0.0164098
673.674	0.0162223
673.753	0.0164893
673.831	0.0165025
673.909	0.0165824
673.987	0.0166133
674.065	0.0166149
674.143	0.0167033
674.221	0.0167801
674.299	0.0167001
674.378	0.0167912
674.456	0.0167966
674.534	0.0166389
674.612	0.0166929
674.690	0.0166681
674.768	0.0166428
674.846	0.0166338
674.924	0.0167027
675.003	0.0165836
675.081	0.0165950
675.159	0.0163864
675.237	0.0164935
675.315	0.0163877
675.393	0.0164745
675.471	0.0165452
675.549	0.0165425
675.628	0.0164793
675.706	0.0162917
675.784	0.0164050
675.862	0.0162873
675.940	0.0162846
676.018	0.0162553
676.096	0.0161223
676.174	0.0161601
676.253	0.0162596
676.331	0.0161681
676.409	0.0161676
676.487	0.0162426
676.565	0.0163432
676.643	0.0161641
676.721	0.0163434
676.799	0.0165047
676.878	0.0165244
676.956	0.0164913
677.034	0.0163596
677.112	0.0164991
677.190	0.0165536
677.268	0.0165926
677.346	0.0164094
677.424	0.0164085
677.503	0.0164836
677.581	0.0165999
677.659	0.0166063
677.737	0.0166717
677.815	0.0166483
677.893	0.0165426
677.971	0.0166370
678.049	0.0167764
678.128	0.0167302
678.206	0.0167115
678.284	0.0166551
678.362	0.0166976
678.440	0.0166569
678.518	0.0164647
678.596	0.0165239
678.674	0.0167336
678.753	0.0166364
678.831	0.0165501
678.909	0.0165641
678.987	0.0166365
679.065	0.0164723
679.143	0.0164745
679.221	0.0167167
679.299	0.0165961
679.378	0.0166571
679.456	0.0166270
679.534	0.0166152
679.612	0.0167083
679.690	0.0165712
679.768	0.0165728
679.846	0.0167145
679.924	0.0166083
680.003	0.0164909
680.081	0.0166415
680.159	0.0166938
680.237	0.0164388
680.315	0.0165575
680.393	0.0164137
680.471	0.0163086
680.549	0.0162900
680.628	0.0163998
680.706	0.0163113
680.784	0.0163481
680.862	0.0165816
680.940	0.0163177
681.018	0.0163786
681.096	0.0163814
681.174	0.0164973
681.253	0.0164245
681.331	0.0165163
681.409	0.0164532
681.487	0.0166033
681.565	0.0166117
681.643	0.0164843
681.721	0.0164996
681.799	0.0166000
681.878	0.0166389
681.956	0.0166098
682.034	0.0165578
682.112	0.0166267
682.190	0.0165482
682.268	0.0167108
682.346	0.0166434
682.424	0.0165559
682.503	0.0166322
682.581	0.0167296
682.659	0.0167377
682.737	0.0166212
682.815	0.0166116
682.893	0.0168887
682.971	0.0165159
683.049	0.0166839
683.128	0.0166264
683.206	0.0164604
683.284	0.0166043
683.362	0.0165068
683.440	0.0164339
683.518	0.0164899
683.596	0.0165869
683.674	0.0165144
683.753	0.0166708
683.831	0.0166251
683.909	0.0165906
683.987	0.0164860
684.065	0.0164999
684.143	0.0165924
684.221	0.0165689
684.299	0.0165942
684.378	0.0165618
684.456	0.0165730
684.534	0.0165589
684.612	0.0164257
684.690	0.0165608
684.768	0.0165909
684.846	0.0165430
684.924	0.0165004
685.003	0.0163880
685.081	0.0165069
685.159	0.0165502
685.237	0.0165006
685.315	0.0164333
685.393	0.0164232
685.471	0.0166006
685.549	0.0165083
685.628	0.0164501
685.706	0.0163419
685.784	0.0164578
685.862	0.0165351
685.940	0.0166568
686.018	0.0165636
686.096	0.0165179
686.174	0.0166203
686.253	0.0164938
686.331	0.0165341
686.409	0.0164853
686.487	0.0164803
686.565	0.0164649
686.643	0.0164528
686.721	0.0163945
686.799	0.0164767
686.878	0.0164695
686.956	0.0165933
687.034	0.0164532
687.112	0.0166863
687.190	0.0166856
687.268	0.0166553
687.346	0.0166742
687.424	0.0167339
687.503	0.0168095
687.581	0.0167606
687.659	0.0166993
687.737	0.0166944
687.815	0.0166666
687.893	0.0168168
687.971	0.0167683
688.049	0.0167115
688.128	0.0165435
688.206	0.0165438
688.284	0.0164997
688.362	0.0165296
688.440	0.0163561
688.518	0.0165053
688.596	0.0164500
688.674	0.0163158
688.753	0.0164584
688.831	0.0164344
688.909	0.0162534
688.987	0.0163757
689.065	0.0163998
689.143	0.0163996
689.221	0.0165736
689.299	0.0164877
689.378	0.0164040
689.456	0.0165794
689.534	0.0164372
689.612	0.0164953
689.690	0.0163970
689.768	0.0165388
689.846	0.0165752
689.924	0.0164960
690.003	0.0166174
690.081	0.0164619
690.159	0.0165643
690.237	0.0164236
690.315	0.0163840
690.393	0.0164095
690.471	0.0163442
690.549	0.0164545
690.628	0.0165467
690.706	0.0166550
690.784	0.0165179
690.862	0.0165116
690.940	0.0165783
691.018	0.0165539
691.096	0.0165484
691.174	0.0165970
691.253	0.0165669
691.331	0.0164516
691.409	0.0164032
691.487	0.0165365
691.565	0.0165052
691.643	0.0165395
691.721	0.0163528
691.799	0.0163754
691.878	0.0163857
691.956	0.0164558
692.034	0.0163813
692.112	0.0163233
692.190	0.0164335
692.268	0.0163429
692.346	0.0163165
692.424	0.0164360
692.503	0.0164663
692.581	0.0164948
692.659	0.0165186
692.737	0.0165955
692.815	0.0164630
692.893	0.0164351
692.971	0.0165047
693.049	0.0166357
693.128	0.0166587
693.206	0.0165556
693.284	0.0165070
693.362	0.0166071
693.440	0.0167139
693.518	0.0167157
693.596	0.0166729
693.674	0.0167798
693.753	0.0167300
693.831	0.0166845
693.909	0.0165283
693.987	0.0167900
694.065	0.0167773
694.143	0.0166457
694.221	0.0166660
694.299	0.0165967
694.378	0.0165868
694.456	0.0165661
694.534	0.0165232
694.612	0.0166870
694.690	0.0164706
694.768	0.0164331
694.846	0.0164076
694.924	0.0163474
695.003	0.0164338
695.081	0.0163961
695.159	0.0163908
695.237	0.0164787
695.315	0.0163511
695.393	0.0162423
695.471	0.0161246
695.549	0.0162586
695.628	0.0162045
695.706	0.0163467
695.784	0.0162224
695.862	0.0160171
695.940	0.0160549
696.018	0.0161987
696.096	0.0162442
696.174	0.0161028
696.253	0.0162681
696.331	0.0162200
696.409	0.0162469
696.487	0.0160990
696.565	0.0163786
696.643	0.0164225
696.721	0.0164276
696.799	0.0164785
696.878	0.0166372
696.956	0.0166714
697.034	0.0164371
697.112	0.0163824
697.190	0.0163832
697.268	0.0164903
697.346	0.0164221
697.424	0.0164446
697.503	0.0163562
697.581	0.0162046
697.659	0.0162598
697.737	0.0162617
697.815	0.0162758
697.893	0.0161686
697.971	0.0161631
698.049	0.0163409
698.128	0.0163178
698.206	0.0164197
698.284	0.0164724
698.362	0.0166189
698.440	0.0166378
698.518	0.0166380
698.596	0.0168393
698.674	0.0166287
698.753	0.0166101
698.831	0.0164960
698.909	0.0165385
698.987	0.0164425
699.065	0.0165825
699.143	0.0165714
699.221	0.0164091
699.299	0.0164630
699.378	0.0165491
699.456	0.0165910
699.534	0.0164724
699.612	0.0164857
699.690	0.0164079
699.768	0.0163679
699.846	0.0163814
699.924	0.0164935
700.003	0.0166175
700.081	0.0165725
700.159	0.0165516
700.237	0.0165652
700.315	0.0166184
700.393	0.0166673
700.471	0.0166358
700.549	0.0166824
700.628	0.0166529
700.706	0.0166481
700.784	0.0165192
700.862	0.0164851
700.940	0.0164290
701.018	0.0163387
701.096	0.0164146
701.174	0.0164831
701.253	0.0163596
701.331	0.0164046
701.409	0.0163688
701.487	0.0163344
701.565	0.0164362
701.643	0.0164690
701.721	0.0165491
701.799	0.0164027
701.878	0.0164782
701.956	0.0164532
702.034	0.0165952
702.112	0.0165655
702.190	0.0164960
702.268	0.0164927
702.346	0.0165404
702.424	0.0166837
702.503	0.0165031
702.581	0.0166442
702.659	0.0165556
702.737	0.0165782
702.815	0.0165687
702.893	0.0166882
702.971	0.0166383
703.049	0.0165964
703.128	0.0164951
703.206	0.0165236
703.284	0.0165733
703.362	0.0165599
703.440	0.0164130
703.518	0.0164455
703.596	0.0163963
703.674	0.0164579
703.753	0.0166068
703.831	0.0165623
703.909	0.0164314
703.987	0.0163638
704.065	0.0166248
704.143	0.0164533
704.221	0.0165560
704.299	0.0167605
704.378	0.0165653
704.456	0.0164625
704.534	0.0164636
704.612	0.0166042
704.690	0.0165699
704.768	0.0165463
704.846	0.0163785
704.924	0.0165080
705.003	0.0164864
705.081	0.0164909
705.159	0.0165975
705.237	0.0166316
705.315	0.0164785
705.393	0.0163772
705.471	0.0164577
705.549	0.0166010
705.628	0.0165291
705.706	0.0164412
705.784	0.0165134
705.862	0.0164890
705.940	0.0164851
706.018	0.0165379
706.096	0.0165014
706.174	0.0165340
706.253	0.0165159
706.331	0.0164219
706.409	0.0164144
706.487	0.0163539
706.565	0.0165424
706.643	0.0165366
706.721	0.0166104
706.799	0.0162798
706.878	0.0165482
706.956	0.0165421
707.034	0.0165368
707.112	0.0164762
707.190	0.0163142
707.268	0.0165283
707.346	0.0165627
707.424	0.0164246
707.503	0.0164288
707.581	0.0166457
707.659	0.0164382
707.737	0.0164414
707.815	0.0164107
707.893	0.0165541
707.971	0.0165720
708.049	0.0166119
708.128	0.0163993
708.206	0.0165559
708.284	0.0165832
708.362	0.0165965
708.440	0.0166865
708.518	0.0165962
708.596	0.0167483
708.674	0.0167669
708.753	0.0167398
708.831	0.0167542
708.909	0.0166566
708.987	0.0166270
709.065	0.0166831
709.143	0.0166649
709.221	0.0165870
709.299	0.0165673
709.378	0.0165734
709.456	0.0164017
709.534	0.0167097
709.612	0.0166384
709.690	0.0164673
709.768	0.0165296
709.846	0.0165807
709.924	0.0165044
710.003	0.0166156
710.081	0.0165892
710.159	0.0165041
710.237	0.0165627
710.315	0.0165313
710.393	0.0165958
710.471	0.0166280
710.549	0.0165971
710.628	0.0165907
710.706	0.0165071
710.784	0.0166972
710.862	0.0165370
710.940	0.0166387
711.018	0.0165580
711.096	0.0164700
711.174	0.0166171
711.253	0.0163843
711.331	0.0165073
711.409	0.0165021
711.487	0.0165144
711.565	0.0164650
711.643	0.0164894
711.721	0.0165543
711.799	0.0163384
711.878	0.0164925
711.956	0.0164753
712.034	0.0164333
712.112	0.0164525
712.190	0.0163789
712.268	0.0164201
712.346	0.0164462
712.424	0.0164774
712.503	0.0164018
712.581	0.0164111
712.659	0.0163938
712.737	0.0162585
712.815	0.0164134
712.893	0.0164995
712.971	0.0162577
713.049	0.0163515
713.128	0.0163551
713.206	0.0162297
713.284	0.0162559
713.362	0.0163084
713.440	0.0163330
713.518	0.0162286
713.596	0.0161651
713.674	0.0162693
713.753	0.0164036
713.831	0.0162171
713.909	0.0162090
713.987	0.0163173
714.065	0.0163036
714.143	0.0164400
714.221	0.0163630
714.299	0.0162513
714.378	0.0163750
714.456	0.0164417
714.534	0.0163478
714.612	0.0164443
714.690	0.0163323
714.768	0.0163824
714.846	0.0164260
714.924	0.0164846
715.003	0.0166090
715.081	0.0163499
715.159	0.0164366
715.237	0.0163953
715.315	0.0165272
715.393	0.0164599
715.471	0.0164362
715.549	0.0164073
715.628	0.0165384
715.706	0.0165015
715.784	0.0164973
715.862	0.0164262
715.940	0.0162437
716.018	0.0164148
716.096	0.0163603
716.174	0.0162468
716.253	0.0164764
716.331	0.0164483
716.409	0.0163954
716.487	0.0164216
716.565	0.0164339
716.643	0.0163924
716.721	0.0164071
716.799	0.0165178
716.878	0.0165564
716.956	0.0166994
717.034	0.0166338
717.112	0.0166458
717.190	0.0165707
717.268	0.0166179
717.346	0.0165781
717.424	0.0166385
717.503	0.0166236
717.581	0.0164777
717.659	0.0166661
717.737	0.0166927
717.815	0.0166006
717.893	0.0165323
717.971	0.0165089
718.049	0.0166151
718.128	0.0165538
718.206	0.0163783
718.284	0.0164397
718.362	0.0165821
718.440	0.0165425
718.518	0.0165301
718.596	0.0165875
718.674	0.0165143
718.753	0.0166025
718.831	0.0165911
718.909	0.0165517
718.987	0.0163652
719.065	0.0164117
719.143	0.0163763
719.221	0.0163269
719.299	0.0163180
719.378	0.0162001
719.456	0.0163000
719.534	0.0162262
719.612	0.0160551
719.690	0.0161878
719.768	0.0162553
719.846	0.0162010
719.924	0.0162404
720.003	0.0162231
720.081	0.0163283
720.159	0.0162774
720.237	0.0162807
720.315	0.0162841
720.393	0.0164843
720.471	0.0164629
720.549	0.0163393
720.628	0.0162953
720.706	0.0164572
720.784	0.0163592
720.862	0.0163738
720.940	0.0164680
721.018	0.0164474
721.096	0.0165199
721.174	0.0164312
721.253	0.0165171
721.331	0.0165599
721.409	0.0164390
721.487	0.0164590
721.565	0.0164332
721.643	0.0165698
721.721	0.0165512
721.799	0.0165231
721.878	0.0165856
721.956	0.0165683
722.034	0.0166730
722.112	0.0166074
722.190	0.0165472
722.268	0.0166284
722.346	0.0166364
722.424	0.0166391
722.503	0.0165379
722.581	0.0167110
722.659	0.0165932
722.737	0.0165925
722.815	0.0165342
722.893	0.0168134
722.971	0.0166800
723.049	0.0167408
723.128	0.0166261
723.206	0.0166245
723.284	0.0167184
723.362	0.0166926
723.440	0.0166672
723.518	0.0165979
723.596	0.0166719
723.674	0.0167556
723.753	0.0165832
723.831	0.0166903
723.909	0.0167959
723.987	0.0165428
724.065	0.0167078
724.143	0.0167235
724.221	0.0166733
724.299	0.0167562
724.378	0.0167313
724.456	0.0166828
724.534	0.0166657
724.612	0.0166972
724.690	0.0166762
724.768	0.0165392
724.846	0.0166496
724.924	0.0165076
725.003	0.0163720
725.081	0.0165667
725.159	0.0164874
725.237	0.0164106
725.315	0.0165777
725.393	0.0164420
725.471	0.0163776
725.549	0.0164156
725.628	0.0165240
725.706	0.0164627
725.784	0.0164545
725.862	0.0165434
725.940	0.0165124
726.018	0.0165799
726.096	0.0164596
726.174	0.0165259
726.253	0.0165206
726.331	0.0164364
726.409	0.0165607
726.487	0.0165542
726.565	0.0164298
726.643	0.0165302
726.721	0.0163586
726.799	0.0163513
726.878	0.0163168
726.956	0.0162965
727.034	0.0162968
727.112	0.0163129
727.190	0.0164421
727.268	0.0162838
727.346	0.0161583
727.424	0.0162573
727.503	0.0163223
727.581	0.0163825
727.659	0.0161576
727.737	0.0163130
727.815	0.0163422
727.893	0.0163868
727.971	0.0164805
728.049	0.0163721
728.128	0.0164796
728.206	0.0165829
728.284	0.0164526
728.362	0.0164061
728.440	0.0163724
728.518	0.0164775
728.596	0.0165523
728.674	0.0164409
728.753	0.0165927
728.831	0.0164584
728.909	0.0164853
728.987	0.0165331
729.065	0.0163892
729.143	0.0163926
729.221	0.0163999
729.299	0.0164960
729.378	0.0165261
729.456	0.0163833
729.534	0.0166129
729.612	0.0165122
729.690	0.0165282
729.768	0.0165447
729.846	0.0166198
729.924	0.0167557
730.003	0.0166550
730.081	0.0166769
730.159	0.0167052
730.237	0.0167284
730.315	0.0165260
730.393	0.0167912
730.471	0.0167993
730.549	0.0166549
730.628	0.0167889
730.706	0.0166725
730.784	0.0167187
730.862	0.0167600
730.940	0.0166538
731.018	0.0166064
731.096	0.0166502
731.174	0.0167486
731.253	0.0167573
731.331	0.0167394
731.409	0.0167599
731.487	0.0167184
731.565	0.0167354
731.643	0.0168219
731.721	0.0167915
731.799	0.0166843
731.878	0.0166463
731.956	0.0165678
732.034	0.0166145
732.112	0.0166286
732.190	0.0166052
732.268	0.0165335
732.346	0.0164194
732.424	0.0166442
732.503	0.0165410
732.581	0.0164898
732.659	0.0165355
732.737	0.0165302
732.815	0.0165569
732.893	0.0165250
732.971	0.0164980
733.049	0.0164670
733.128	0.0163873
733.206	0.0163921
733.284	0.0165208
733.362	0.0163053
733.440	0.0163119
733.518	0.0162829
733.596	0.0162655
733.674	0.0162984
733.753	0.0163277
733.831	0.0163522
733.909	0.0163699
733.987	0.0163490
734.065	0.0162424
734.143	0.0163362
734.221	0.0163557
734.299	0.0162670
734.378	0.0162199
734.456	0.0163326
734.534	0.0162067
734.612	0.0164558
734.690	0.0164319
734.768	0.0162487
734.846	0.0162947
734.924	0.0162502
735.003	0.0162704
735.081	0.0162595
735.159	0.0163022
735.237	0.0162841
735.315	0.0163307
735.393	0.0164095
735.471	0.0162612
735.549	0.0161910
735.628	0.0163043
735.706	0.0164658
735.784	0.0164680
735.862	0.0163596
735.940	0.0162571
736.018	0.0164019
736.096	0.0164166
736.174	0.0165300
736.253	0.0163007
736.331	0.0165934
736.409	0.0164378
736.487	0.0164781
736.565	0.0164183
736.643	0.0164240
736.721	0.0165063
736.799	0.0165804
736.878	0.0166242
736.956	0.0166261
737.034	0.0165128
737.112	0.0165899
737.190	0.0166868
737.268	0.0167275
737.346	0.0165211
737.424	0.0166212
737.503	0.0168140
737.581	0.0168616
737.659	0.0167856
737.737	0.0166130
737.815	0.0168520
737.893	0.0167300
737.971	0.0167831
738.049	0.0167462
738.128	0.0167254
738.206	0.0167566
738.284	0.0167889
738.362	0.0167046
738.440	0.0166978
738.518	0.0167356
738.596	0.0166834
738.674	0.0164680
738.753	0.0165558
738.831	0.0168025
738.909	0.0166856
738.987	0.0168700
739.065	0.0165865
739.143	0.0167419
739.221	0.0167829
739.299	0.0166840
739.378	0.0166390
739.456	0.0166287
739.534	0.0166618
739.612	0.0165896
739.690	0.0164460
739.768	0.0165567
739.846	0.0164325
739.924	0.0164255
740.003	0.0164131
740.081	0.0165597
740.159	0.0163824
740.237	0.0163334
740.315	0.0164160
740.393	0.0164490
740.471	0.0164001
740.549	0.0163923
740.628	0.0164008
740.706	0.0164104
740.784	0.0164384
740.862	0.0163673
740.940	0.0165886
741.018	0.0164528
741.096	0.0163157
741.174	0.0162415
741.253	0.0164288
741.331	0.0165042
741.409	0.0163408
741.487	0.0162807
741.565	0.0162952
741.643	0.0163983
741.721	0.0164311
741.799	0.0163242
741.878	0.0164589
741.956	0.0164024
742.034	0.0164509
742.112	0.0163038
742.190	0.0163184
742.268	0.0164696
742.346	0.0164812
742.424	0.0163791
742.503	0.0163774
742.581	0.0164417
742.659	0.0162900
742.737	0.0163436
742.815	0.0165634
742.893	0.0164376
742.971	0.0163651
743.049	0.0165080
743.128	0.0163734
743.206	0.0164161
743.284	0.0164146
743.362	0.0163908
743.440	0.0164410
743.518	0.0165289
743.596	0.0164415
743.674	0.0164380
743.753	0.0164825
743.831	0.0163570
743.909	0.0164568
743.987	0.0165079
744.065	0.0167387
744.143	0.0166492
744.221	0.0165982
744.299	0.0166629
744.378	0.0166409
744.456	0.0166378
744.534	0.0167537
744.612	0.0167088
744.690	0.0166315
744.768	0.0166740
744.846	0.0167603
744.924	0.0167647
745.003	0.0169093
745.081	0.0167382
745.159	0.0168760
745.237	0.0169028
745.315	0.0168864
745.393	0.0167978
745.471	0.0168129
745.549	0.0167928
745.628	0.0169362
745.706	0.0169022
745.784	0.0168938
745.862	0.0167450
745.940	0.0167363
746.018	0.0168190
746.096	0.0169202
746.174	0.0168584
746.253	0.0168117
746.331	0.0167263
746.409	0.0169057
746.487	0.0169122
746.565	0.0167669
746.643	0.0165987
746.721	0.0168237
746.799	0.0166776
746.878	0.0167199
746.956	0.0166428
747.034	0.0167553
747.112	0.0166600
747.190	0.0166948
747.268	0.0165797
747.346	0.0167377
747.424	0.0167213
747.503	0.0166687
747.581	0.0164648
747.659	0.0166095
747.737	0.0166576
747.815	0.0166046
747.893	0.0166649
747.971	0.0164365
748.049	0.0164516
748.128	0.0164635
748.206	0.0164442
748.284	0.0164094
748.362	0.0163376
748.440	0.0162886
748.518	0.0162804
748.596	0.0162768
748.674	0.0163449
748.753	0.0163253
748.831	0.0162906
748.909	0.0161919
748.987	0.0163491
749.065	0.0164709
749.143	0.0163809
749.221	0.0162080
749.299	0.0164808
749.378	0.0163918
749.456	0.0163167
749.534	0.0163605
749.612	0.0163114
749.690	0.0162897
749.768	0.0164038
749.846	0.0163145
749.924	0.0163223
750.003	0.0163432
750.081	0.0164221
750.159	0.0162750
750.237	0.0164575
750.315	0.0163620
750.393	0.0162730
750.471	0.0162753
750.549	0.0163937
750.628	0.0163121
750.706	0.0165498
750.784	0.0164390
750.862	0.0162919
750.940	0.0164147
751.018	0.0164658
751.096	0.0164365
751.174	0.0163693
751.253	0.0163854
751.331	0.0166003
751.409	0.0165458
751.487	0.0165076
751.565	0.0166102
751.643	0.0165226
751.721	0.0165126
751.799	0.0166183
751.878	0.0165345
751.956	0.0165231
752.034	0.0165302
752.112	0.0165659
752.190	0.0165359
752.268	0.0163727
752.346	0.0165218
752.424	0.0165240
752.503	0.0163443
752.581	0.0164722
752.659	0.0167138
752.737	0.0167295
752.815	0.0164999
752.893	0.0166850
752.971	0.0167307
753.049	0.0166677
753.128	0.0167194
753.206	0.0166837
753.284	0.0167783
753.362	0.0166399
753.440	0.0167420
753.518	0.0166731
753.596	0.0167860
753.674	0.0168015
753.753	0.0168552
753.831	0.0167727
753.909	0.0168336
753.987	0.0167580
754.065	0.0166630
754.143	0.0166412
754.221	0.0168388
754.299	0.0166669
754.378	0.0165634
754.456	0.0166853
754.534	0.0166525
754.612	0.0165804
754.690	0.0165283
754.768	0.0165211
754.846	0.0165250
754.924	0.0165660
755.003	0.0164712
755.081	0.0165286
755.159	0.0165462
755.237	0.0164316
755.315	0.0163471
755.393	0.0163851
755.471	0.0164007
755.549	0.0164416
755.628	0.0164610
755.706	0.0164008
755.784	0.0163911
755.862	0.0164193
755.940	0.0163799
756.018	0.0163365
756.096	0.0163335
756.174	0.0163561
756.253	0.0163456
756.331	0.0163216
756.409	0.0163131
756.487	0.0163444
756.565	0.0163033
756.643	0.0162518
756.721	0.0162340
756.799	0.0162110
756.878	0.0161848
756.956	0.0161610
757.034	0.0161537
757.112	0.0162876
757.190	0.0162895
757.268	0.0163076
757.346	0.0162270
757.424	0.0163624
757.503	0.0162381
757.581	0.0163009
757.659	0.0163013
757.737	0.0163205
757.815	0.0163349
757.893	0.0163525
757.971	0.0163065
758.049	0.0162593
758.128	0.0164054
758.206	0.0163902
758.284	0.0165174
758.362	0.0164036
758.440	0.0164758
758.518	0.0163448
758.596	0.0165890
758.674	0.0165697
758.753	0.0164397
758.831	0.0166007
758.909	0.0165853
758.987	0.0166222
759.065	0.0165230
759.143	0.0165337
759.221	0.0166335
759.299	0.0164904
759.378	0.0165977
759.456	0.0164000
759.534	0.0164120
759.612	0.0166803
759.690	0.0164799
759.768	0.0164971
759.846	0.0164755
759.924	0.0166173
760.003	0.0165366
760.081	0.0167102
760.159	0.0167324
760.237	0.0166280
760.315	0.0165289
760.393	0.0165811
760.471	0.0166961
760.549	0.0167202
760.628	0.0168174
760.706	0.0166525
760.784	0.0167831
760.862	0.0166325
760.940	0.0167318
761.018	0.0167276
761.096	0.0167503
761.174	0.0165572
761.253	0.0166582
761.331	0.0166497
761.409	0.0166589
761.487	0.0164907
761.565	0.0168653
761.643	0.0167918
761.721	0.0165614
761.799	0.0166855
761.878	0.0167228
761.956	0.0166539
762.034	0.0166682
762.112	0.0168069
762.190	0.0166634
762.268	0.0165731
762.346	0.0166199
762.424	0.0165269
762.503	0.0166306
762.581	0.0166309
762.659	0.0165726
762.737	0.0165750
762.815	0.0165304
762.893	0.0165211
762.971	0.0164697
763.049	0.0163718
763.128	0.0162470
763.206	0.0163979
763.284	0.0163693
763.362	0.0164096
763.440	0.0163491
763.518	0.0164005
763.596	0.0164186
763.674	0.0161946
763.753	0.0162746
763.831	0.0163058
763.909	0.0163757
763.987	0.0163868
764.065	0.0162730
764.143	0.0163405
764.221	0.0163575
764.299	0.0163418
764.378	0.0164088
764.456	0.0164116
764.534	0.0163939
764.612	0.0163589
764.690	0.0163020
764.768	0.0163738
764.846	0.0164200
764.924	0.0164471
765.003	0.0165000
765.081	0.0162844
765.159	0.0163496
765.237	0.0165009
765.315	0.0164249
765.393	0.0165106
765.471	0.0166017
765.549	0.0165549
765.628	0.0164720
765.706	0.0164040
765.784	0.0166512
765.862	0.0166342
765.940	0.0165596
766.018	0.0165356
766.096	0.0165897
766.174	0.0165533
766.253	0.0165594
766.331	0.0164715
766.409	0.0165683
766.487	0.0163960
766.565	0.0166188
766.643	0.0165847
766.721	0.0164516
766.799	0.0164413
766.878	0.0165504
766.956	0.0165066
767.034	0.0167249
767.112	0.0167332
767.190	0.0167435
767.268	0.0166409
767.346	0.0167010
767.424	0.0166174
767.503	0.0165864
767.581	0.0166971
767.659	0.0166778
767.737	0.0166027
767.815	0.0166154
767.893	0.0164426
767.971	0.0165268
768.049	0.0164993
768.128	0.0167170
768.206	0.0165869
768.284	0.0165771
768.362	0.0167718
768.440	0.0165941
768.518	0.0165376
768.596	0.0166575
768.674	0.0167397
768.753	0.0166163
768.831	0.0166730
768.909	0.0165311
768.987	0.0165689
769.065	0.0166605
769.143	0.0167162
769.221	0.0166607
769.299	0.0167477
769.378	0.0166248
769.456	0.0167779
769.534	0.0167239
769.612	0.0165823
769.690	0.0166209
769.768	0.0167173
769.846	0.0166364
769.924	0.0167474
770.003	0.0165993
770.081	0.0164891
770.159	0.0165680
770.237	0.0166662
770.315	0.0166746
770.393	0.0166464
770.471	0.0166213
770.549	0.0165456
770.628	0.0165551
770.706	0.0164726
770.784	0.0164500
770.862	0.0164586
770.940	0.0166093
771.018	0.0165475
771.096	0.0164941
771.174	0.0166101
771.253	0.0165082
771.331	0.0164159
771.409	0.0165449
771.487	0.0164093
771.565	0.0163911
771.643	0.0164509
771.721	0.0163264
771.799	0.0164698
771.878	0.0164803
771.956	0.0163760
772.034	0.0162674
772.112	0.0162714
772.190	0.0164113
772.268	0.0164055
772.346	0.0163827
772.424	0.0164063
772.503	0.0162440
772.581	0.0163918
772.659	0.0163298
772.737	0.0163592
772.815	0.0163973
772.893	0.0163577
772.971	0.0164814
773.049	0.0162872
773.128	0.0163115
773.206	0.0164019
773.284	0.0163828
773.362	0.0165235
773.440	0.0165424
773.518	0.0163557
773.596	0.0163273
773.674	0.0164722
773.753	0.0163819
773.831	0.0164264
773.909	0.0163975
773.987	0.0164273
774.065	0.0164503
774.143	0.0164431
774.221	0.0163780
774.299	0.0164681
774.378	0.0165736
774.456	0.0165449
774.534	0.0165178
774.612	0.0164868
774.690	0.0164709
774.768	0.0164881
774.846	0.0166178
774.924	0.0167245
775.003	0.0166212
775.081	0.0166153
775.159	0.0166164
775.237	0.0167020
775.315	0.0166671
775.393	0.0166415
775.471	0.0166452
775.549	0.0165922
775.628	0.0166676
775.706	0.0165736
775.784	0.0166403
775.862	0.0165051
775.940	0.0164643
776.018	0.0166125
776.096	0.0165044
776.174	0.0164043
776.253	0.0165475
776.331	0.0164870
776.409	0.0164648
776.487	0.0165943
776.565	0.0166122
776.643	0.0166550
776.721	0.0165749
776.799	0.0166447
776.878	0.0167537
776.956	0.0166254
777.034	0.0164928
777.112	0.0165714
777.190	0.0167094
777.268	0.0166033
777.346	0.0165803
777.424	0.0165775
777.503	0.0166133
777.581	0.0166848
777.659	0.0166193
777.737	0.0164874
777.815	0.0166653
777.893	0.0167063
777.971	0.0165690
778.049	0.0166685
778.128	0.0165739
778.206	0.0165018
778.284	0.0165044
778.362	0.0163843
778.440	0.0164671
778.518	0.0165193
778.596	0.0164347
778.674	0.0163994
778.753	0.0163537
778.831	0.0163422
778.909	0.0164534
778.987	0.0165573
779.065	0.0165121
779.143	0.0164427
779.221	0.0164717
779.299	0.0165823
779.378	0.0164092
779.456	0.0165022
779.534	0.0164972
779.612	0.0165615
779.690	0.0166224
779.768	0.0164960
779.846	0.0164511
779.924	0.0165553
780.003	0.0165671
780.081	0.0164272
780.159	0.0164252
780.237	0.0164744
780.315	0.0165933
780.393	0.0165360
780.471	0.0165110
780.549	0.0165062
780.628	0.0165207
780.706	0.0165499
780.784	0.0166075
780.862	0.0165005
780.940	0.0165350
781.018	0.0165347
781.096	0.0166168
781.174	0.0164777
781.253	0.0164127
781.331	0.0164461
781.409	0.0164835
781.487	0.0164609
781.565	0.0163644
781.643	0.0164249
781.721	0.0163934
781.799	0.0163342
781.878	0.0163742
781.956	0.0163709
782.034	0.0162514
782.112	0.0164038
782.190	0.0163731
782.268	0.0163095
782.346	0.0162854
782.424	0.0164332
782.503	0.0162950
782.581	0.0164197
782.659	0.0163315
782.737	0.0162867
782.815	0.0163677
782.893	0.0163446
782.971	0.0163467
783.049	0.0162901
783.128	0.0164998
783.206	0.0163416
783.284	0.0163925
783.362	0.0163870
783.440	0.0164673
783.518	0.0164224
783.596	0.0165285
783.674	0.0165538
783.753	0.0166803
783.831	0.0165699
783.909	0.0165683
783.987	0.0165522
784.065	0.0165947
784.143	0.0166219
784.221	0.0165387
784.299	0.0167256
784.378	0.0166521
784.456	0.0165285
784.534	0.0165659
784.612	0.0165561
784.690	0.0166880
784.768	0.0167547
784.846	0.0166938
784.924	0.0167190
785.003	0.0166909
785.081	0.0166032
785.159	0.0165678
785.237	0.0167999
785.315	0.0165695
785.393	0.0166210
785.471	0.0168038
785.549	0.0166628
785.628	0.0165930
785.706	0.0166813
785.784	0.0168015
785.862	0.0167603
785.940	0.0164834
786.018	0.0165371
786.096	0.0166392
786.174	0.0166473
786.253	0.0166487
786.331	0.0164412
786.409	0.0164778
786.487	0.0166165
786.565	0.0165148
786.643	0.0164385
786.721	0.0163903
786.799	0.0164388
786.878	0.0164668
786.956	0.0165096
787.034	0.0164874
787.112	0.0164944
787.190	0.0165902
787.268	0.0165859
787.346	0.0166182
787.424	0.0164789
787.503	0.0163704
787.581	0.0165011
787.659	0.0165593
787.737	0.0165002
787.815	0.0165350
787.893	0.0165095
787.971	0.0163930
788.049	0.0163667
788.128	0.0163995
788.206	0.0163991
788.284	0.0163476
788.362	0.0163674
788.440	0.0162850
788.518	0.0163969
788.596	0.0163149
788.674	0.0162825
788.753	0.0162472
788.831	0.0163598
788.909	0.0164531
788.987	0.0163210
789.065	0.0162065
789.143	0.0163329
789.221	0.0163654
789.299	0.0163205
789.378	0.0163352
789.456	0.0161988
789.534	0.0162772
789.612	0.0164111
789.690	0.0162861
789.768	0.0162096
789.846	0.0163993
789.924	0.0163934
790.003	0.0162392
790.081	0.0161884
790.159	0.0163103
790.237	0.0163564
790.315	0.0164912
790.393	0.0162666
790.471	0.0163857
790.549	0.0165251
790.628	0.0164571
790.706	0.0164034
790.784	0.0163580
790.862	0.0163803
790.940	0.0164558
791.018	0.0165763
791.096	0.0166380
791.174	0.0166075
791.253	0.0165040
791.331	0.0165517
791.409	0.0166640
791.487	0.0165836
791.565	0.0166678
791.643	0.0166315
791.721	0.0166193
791.799	0.0166245
791.878	0.0165847
791.956	0.0167380
792.034	0.0166922
792.112	0.0165659
792.190	0.0166201
792.268	0.0165439
792.346	0.0167068
792.424	0.0166134
792.503	0.0166216
792.581	0.0167362
792.659	0.0166576
792.737	0.0165049
792.815	0.0166302
792.893	0.0167346
792.971	0.0167139
793.049	0.0167365
793.128	0.0167613
793.206	0.0166750
793.284	0.0167287
793.362	0.0167383
793.440	0.0166454
793.518	0.0167005
793.596	0.0165980
793.674	0.0166377
793.753	0.0165362
793.831	0.0166351
793.909	0.0165482
793.987	0.0165448
794.065	0.0164233
794.143	0.0165268
794.221	0.0164768
794.299	0.0164741
794.378	0.0164923
794.456	0.0165294
794.534	0.0164576
794.612	0.0164689
794.690	0.0163177
794.768	0.0163109
794.846	0.0164075
794.924	0.0164730
795.003	0.0164514
795.081	0.0163758
795.159	0.0163007
795.237	0.0163100
795.315	0.0164864
795.393	0.0164305
795.471	0.0163659
795.549	0.0164056
795.628	0.0162611
795.706	0.0163481
795.784	0.0162981
795.862	0.0164796
795.940	0.0164088
796.018	0.0163554
796.096	0.0164043
796.174	0.0163657
796.253	0.0162980
796.331	0.0162925
796.409	0.0163107
796.487	0.0164027
796.565	0.0164034
796.643	0.0163340
796.721	0.0163898
796.799	0.0163921
796.878	0.0163498
796.956	0.0162919
797.034	0.0162772
797.112	0.0163171
797.190	0.0164941
797.268	0.0163016
797.346	0.0163336
797.424	0.0164786
797.503	0.0163407
797.581	0.0163711
797.659	0.0162953
797.737	0.0164610
797.815	0.0165649
797.893	0.0163270
797.971	0.0163546
798.049	0.0162374
798.128	0.0164151
798.206	0.0164160
798.284	0.0166169
798.362	0.0163345
798.440	0.0164135
798.518	0.0164317
798.596	0.0165353
798.674	0.0164430
798.753	0.0165449
798.831	0.0165939
798.909	0.0167649
798.987	0.0166476
799.065	0.0165149
799.143	0.0166637
799.221	0.0165362
799.299	0.0165954
799.378	0.0165428
799.456	0.0166177
799.534	0.0165173
799.612	0.0166367
799.690	0.0166553
799.768	0.0166661
799.846	0.0167899
799.924	0.0167367
800.003	0.0168133
800.081	0.0168913
800.159	0.0166997
800.237	0.0168492
800.315	0.0166970
800.393	0.0168164
800.471	0.0169101
800.549	0.0168772
800.628	0.0168721
800.706	0.0168271
800.784	0.0168371
800.862	0.0167818
800.940	0.0167617
801.018	0.0166801
801.096	0.0167417
801.174	0.0168121
801.253	0.0167891
801.331	0.0165421
801.409	0.0167295
801.487	0.0166141
801.565	0.0166949
801.643	0.0165841
801.721	0.0164739
801.799	0.0165594
801.878	0.0167187
801.956	0.0165400
802.034	0.0164842
802.112	0.0165133
802.190	0.0165036
802.268	0.0163956
802.346	0.0165455
802.424	0.0162691
802.503	0.0165005
802.581	0.0165398
802.659	0.0163555
802.737	0.0163784
802.815	0.0163779
802.893	0.0164651
802.971	0.0162785
803.049	0.0163354
803.128	0.0163464
803.206	0.0163989
803.284	0.0163905
803.362	0.0162773
803.440	0.0163363
803.518	0.0163335
803.596	0.0162808
803.674	0.0162870
803.753	0.0163441
803.831	0.0163661
803.909	0.0163780
803.987	0.0163248
804.065	0.0164011
804.143	0.0163827
804.221	0.0164758
804.299	0.0164053
804.378	0.0163511
804.456	0.0164181
804.534	0.0164135
804.612	0.0164957
804.690	0.0164294
804.768	0.0163783
804.846	0.0163866
804.924	0.0163164
805.003	0.0164373
805.081	0.0165764
805.159	0.0165500
805.237	0.0164638
805.315	0.0165004
805.393	0.0164689
805.471	0.0164780
805.549	0.0164778
805.628	0.0165678
805.706	0.0164583
805.784	0.0164563
805.862	0.0164869
805.940	0.0165216
806.018	0.0165878
806.096	0.0165983
806.174	0.0166675
806.253	0.0165747
806.331	0.0164919
806.409	0.0166074
806.487	0.0167212
806.565	0.0166077
806.643	0.0165247
806.721	0.0167532
806.799	0.0166710
806.878	0.0166352
806.956	0.0166821
807.034	0.0166140
807.112	0.0167146
807.190	0.0166769
807.268	0.0166609
807.346	0.0166541
807.424	0.0166495
807.503	0.0165471
807.581	0.0167068
807.659	0.0165493
807.737	0.0166549
807.815	0.0167850
807.893	0.0166292
807.971	0.0166341
808.049	0.0166066
808.128	0.0166100
808.206	0.0166847
808.284	0.0165003
808.362	0.0165560
808.440	0.0166148
808.518	0.0166815
808.596	0.0165878
808.674	0.0165803
808.753	0.0165578
808.831	0.0166360
808.909	0.0166589
808.987	0.0164718
809.065	0.0165514
809.143	0.0166048
809.221	0.0165263
809.299	0.0166145
809.378	0.0166138
809.456	0.0164590
809.534	0.0165381
809.612	0.0166540
809.690	0.0164753
809.768	0.0165488
809.846	0.0164533
809.924	0.0164886
810.003	0.0163934
810.081	0.0163037
810.159	0.0164951
810.237	0.0164033
810.315	0.0164019
810.393	0.0165558
810.471	0.0164268
810.549	0.0163845
810.628	0.0163515
810.706	0.0164334
810.784	0.0164544
810.862	0.0163452
810.940	0.0163123
811.018	0.0165253
811.096	0.0164520
811.174	0.0160860
811.253	0.0163097
811.331	0.0163364
811.409	0.0163253
811.487	0.0162222
811.565	0.0163245
811.643	0.0162807
811.721	0.0163345
811.799	0.0162374
811.878	0.0162928
811.956	0.0161442
812.034	0.0163461
812.112	0.0162273
812.190	0.0162246
812.268	0.0162360
812.346	0.0163284
812.424	0.0163064
812.503	0.0163420
812.581	0.0163868
812.659	0.0162333
812.737	0.0164394
812.815	0.0162214
812.893	0.0163274
812.971	0.0164812
813.049	0.0164536
813.128	0.0164466
813.206	0.0164238
813.284	0.0164622
813.362	0.0164469
813.440	0.0163393
813.518	0.0164112
813.596	0.0164409
813.674	0.0165517
813.753	0.0164560
813.831	0.0163592
813.909	0.0164670
813.987	0.0165357
814.065	0.0165255
814.143	0.0165267
814.221	0.0166534
814.299	0.0166619
814.378	0.0165205
814.456	0.0165393
814.534	0.0165468
814.612	0.0164565
814.690	0.0165668
814.768	0.0164632
814.846	0.0164752
814.924	0.0165400
815.003	0.0165800
815.081	0.0166122
815.159	0.0165160
815.237	0.0165784
815.315	0.0166233
815.393	0.0166181
815.471	0.0165200
815.549	0.0167083
815.628	0.0165507
815.706	0.0166811
815.784	0.0166196
815.862	0.0166211
815.940	0.0165170
816.018	0.0165734
816.096	0.0165973
816.174	0.0167067
816.253	0.0165034
816.331	0.0165899
816.409	0.0165639
816.487	0.0164989
816.565	0.0166903
816.643	0.0166747
816.721	0.0165495
816.799	0.0167248
816.878	0.0165904
816.956	0.0167126
817.034	0.0166940
817.112	0.0165575
817.190	0.0164931
817.268	0.0165324
817.346	0.0165481
817.424	0.0165302
817.503	0.0163698
817.581	0.0163445
817.659	0.0164380
817.737	0.0164576
817.815	0.0165005
817.893	0.0163357
817.971	0.0164500
818.049	0.0164716
818.128	0.0166618
818.206	0.0164088
818.284	0.0163249
818.362	0.0164539
818.440	0.0164138
818.518	0.0165942
818.596	0.0164159
818.674	0.0164504
818.753	0.0163177
818.831	0.0163404
818.909	0.0165123
818.987	0.0163378
819.065	0.0163796
819.143	0.0163293
819.221	0.0163204
819.299	0.0163230
819.378	0.0163458
819.456	0.0164355
819.534	0.0163864
819.612	0.0163976
819.690	0.0164314
819.768	0.0164182
819.846	0.0163744
819.924	0.0163184
820.003	0.0163985
820.081	0.0164967
820.159	0.0163923
820.237	0.0164978
820.315	0.0164964
820.393	0.0166023
820.471	0.0164869
820.549	0.0166550
820.628	0.0164793
820.706	0.0163943
820.784	0.0166142
820.862	0.0165903
820.940	0.0166143
821.018	0.0165355
821.096	0.0164644
821.174	0.0164992
821.253	0.0168446
821.331	0.0165144
821.409	0.0162780
821.487	0.0166656
821.565	0.0166272
821.643	0.0164527
821.721	0.0165965
821.799	0.0165759
821.878	0.0167165
821.956	0.0166450
822.034	0.0166034
822.112	0.0167633
822.190	0.0165215
822.268	0.0166074
822.346	0.0167826
822.424	0.0165603
822.503	0.0165943
822.581	0.0166518
822.659	0.0167783
822.737	0.0168048
822.815	0.0166689
822.893	0.0166945
822.971	0.0166664
823.049	0.0166418
823.128	0.0167139
823.206	0.0167733
823.284	0.0166646
823.362	0.0166312
823.440	0.0166372
823.518	0.0167268
823.596	0.0167820
823.674	0.0167698
823.753	0.0168562
823.831	0.0168279
823.909	0.0169052
823.987	0.0168412
824.065	0.0166975
824.143	0.0167041
824.221	0.0167242
824.299	0.0167035
824.378	0.0167925
824.456	0.0167834
824.534	0.0166451
824.612	0.0167496
824.690	0.0167683
824.768	0.0166884
824.846	0.0166394
824.924	0.0165938
825.003	0.0167428
825.081	0.0165926
825.159	0.0164799
825.237	0.0165388
825.315	0.0165604
825.393	0.0165340
825.471	0.0165453
825.549	0.0165141
825.628	0.0164610
825.706	0.0164980
825.784	0.0165492
825.862	0.0163866
825.940	0.0163721
826.018	0.0162654
826.096	0.0162538
826.174	0.0162046
826.253	0.0164338
826.331	0.0164087
826.409	0.0163760
826.487	0.0162955
826.565	0.0162795
826.643	0.0164230
826.721	0.0163302
826.799	0.0163768
826.878	0.0163759
826.956	0.0162996
827.034	0.0161723
827.112	0.0162992
827.190	0.0163769
827.268	0.0163032
827.346	0.0162956
827.424	0.0163229
827.503	0.0162666
827.581	0.0163558
827.659	0.0161811
827.737	0.0162672
827.815	0.0165466
827.893	0.0162535
827.971	0.0162137
828.049	0.0164294
828.128	0.0165044
828.206	0.0165047
828.284	0.0164745
828.362	0.0164725
828.440	0.0164047
828.518	0.0164499
828.596	0.0164955
828.674	0.0165540
828.753	0.0165331
828.831	0.0164658
828.909	0.0165018
828.987	0.0165936
829.065	0.0165486
829.143	0.0165047
829.221	0.0166228
829.299	0.0165269
829.378	0.0165415
829.456	0.0166356
829.534	0.0166116
829.612	0.0164838
829.690	0.0166344
829.768	0.0166727
829.846	0.0166341
829.924	0.0165505
830.003	0.0165459
830.081	0.0166312
830.159	0.0166572
830.237	0.0166364
830.315	0.0166010
830.393	0.0166647
830.471	0.0164124
830.549	0.0164912
830.628	0.0165922
830.706	0.0165620
830.784	0.0165086
830.862	0.0165231
830.940	0.0166009
831.018	0.0165260
831.096	0.0167509
831.174	0.0166509
831.253	0.0166069
831.331	0.0166971
831.409	0.0166648
831.487	0.0166684
831.565	0.0166669
831.643	0.0167203
831.721	0.0166240
831.799	0.0164771
831.878	0.0165958
831.956	0.0166993
832.034	0.0165661
832.112	0.0167590
832.190	0.0166732
832.268	0.0164938
832.346	0.0165739
832.424	0.0167389
832.503	0.0166431
832.581	0.0165867
832.659	0.0166504
832.737	0.0166769
832.815	0.0165928
832.893	0.0165485
832.971	0.0165300
833.049	0.0165623
833.128	0.0166594
833.206	0.0166727
833.284	0.0167746
833.362	0.0164244
833.440	0.0165224
833.518	0.0165939
833.596	0.0165944
833.674	0.0165154
833.753	0.0164774
833.831	0.0163286
833.909	0.0164806
833.987	0.0165150
834.065	0.0164085
834.143	0.0163726
834.221	0.0164594
834.299	0.0164579
834.378	0.0162706
834.456	0.0163025
834.534	0.0161658
834.612	0.0163590
834.690	0.0163761
834.768	0.0163550
834.846	0.0162767
834.924	0.0162604
835.003	0.0163538
835.081	0.0164227
835.159	0.0164474
835.237	0.0162442
835.315	0.0162740
835.393	0.0162667
835.471	0.0163874
835.549	0.0162911
835.628	0.0163805
835.706	0.0162749
835.784	0.0162332
835.862	0.0162099
835.940	0.0163448
836.018	0.0164072
836.096	0.0162450
836.174	0.0163451
836.253	0.0163496
836.331	0.0162945
836.409	0.0163088
836.487	0.0163071
836.565	0.0163505
836.643	0.0164252
836.721	0.0164091
836.799	0.0164921
836.878	0.0164890
836.956	0.0164906
837.034	0.0164920
837.112	0.0163100
837.190	0.0164766
837.268	0.0165776
837.346	0.0166265
837.424	0.0165743
837.503	0.0164841
837.581	0.0165554
837.659	0.0166048
837.737	0.0165406
837.815	0.0165836
837.893	0.0165827
837.971	0.0166065
838.049	0.0165705
838.128	0.0166784
838.206	0.0166607
838.284	0.0165762
838.362	0.0165740
838.440	0.0166345
838.518	0.0166330
838.596	0.0167582
838.674	0.0166238
838.753	0.0165237
838.831	0.0166661
838.909	0.0166252
838.987	0.0166126
839.065	0.0166673
839.143	0.0166251
839.221	0.0165129
839.299	0.0167905
839.378	0.0166962
839.456	0.0168955
839.534	0.0168587
839.612	0.0166056
839.690	0.0166583
839.768	0.0167635
839.846	0.0167930
839.924	0.0165090
840.003	0.0167578
840.081	0.0167139
840.159	0.0165598
840.237	0.0165857
840.315	0.0165794
840.393	0.0165533
840.471	0.0166595
840.549	0.0166090
840.628	0.0166315
840.706	0.0165688
840.784	0.0164597
840.862	0.0165195
840.940	0.0166167
841.018	0.0164775
841.096	0.0165381
841.174	0.0165073
841.253	0.0165292
841.331	0.0163555
841.409	0.0164596
841.487	0.0163821
841.565	0.0165226
841.643	0.0164130
841.721	0.0163738
841.799	0.0164692
841.878	0.0163216
841.956	0.0162721
842.034	0.0162581
842.112	0.0162432
842.190	0.0162579
842.268	0.0164243
842.346	0.0163649
842.424	0.0162953
842.503	0.0162658
842.581	0.0162930
842.659	0.0163335
842.737	0.0162768
842.815	0.0163817
842.893	0.0164711
842.971	0.0164071
843.049	0.0162430
843.128	0.0163686
843.206	0.0163036
843.284	0.0163617
843.362	0.0163499
843.440	0.0165226
843.518	0.0164966
843.596	0.0164478
843.674	0.0164957
843.753	0.0165444
843.831	0.0164801
843.909	0.0163460
843.987	0.0165176
844.065	0.0165079
844.143	0.0165249
844.221	0.0165624
844.299	0.0165084
844.378	0.0165062
844.456	0.0165826
844.534	0.0164437
844.612	0.0164804
844.690	0.0165564
844.768	0.0165405
844.846	0.0166308
844.924	0.0164522
845.003	0.0165026
845.081	0.0166341
845.159	0.0166255
845.237	0.0166403
845.315	0.0165659
845.393	0.0166426
845.471	0.0165858
845.549	0.0166858
845.628	0.0167226
845.706	0.0167228
845.784	0.0166473
845.862	0.0167032
845.940	0.0166638
846.018	0.0166473
846.096	0.0165875
846.174	0.0166821
846.253	0.0166947
846.331	0.0166180
846.409	0.0166042
846.487	0.0164949
846.565	0.0164854
846.643	0.0165429
846.721	0.0164238
846.799	0.0165530
846.878	0.0165711
846.956	0.0165941
847.034	0.0167547
847.112	0.0166389
847.190	0.0165276
847.268	0.0166459
847.346	0.0167502
847.424	0.0166117
847.503	0.0165453
847.581	0.0164983
847.659	0.0166854
847.737	0.0166107
847.815	0.0166627
847.893	0.0166343
847.971	0.0165036
848.049	0.0166553
848.128	0.0165851
848.206	0.0165946
848.284	0.0167171
848.362	0.0165483
848.440	0.0165276
848.518	0.0164813
848.596	0.0166312
848.674	0.0163742
848.753	0.0164122
848.831	0.0164365
848.909	0.0164201
848.987	0.0165733
849.065	0.0163513
849.143	0.0165097
849.221	0.0164587
849.299	0.0164735
849.378	0.0164371
849.456	0.0164264
849.534	0.0165562
849.612	0.0165170
849.690	0.0163927
849.768	0.0162885
849.846	0.0164279
849.924	0.0162807
850.003	0.0164762
850.081	0.0165726
850.159	0.0164614
850.237	0.0164265
850.315	0.0163108
850.393	0.0163674
850.471	0.0163641
850.549	0.0164236
850.628	0.0163239
850.706	0.0163405
850.784	0.0163297
850.862	0.0165924
850.940	0.0163734
851.018	0.0162477
851.096	0.0164139
851.174	0.0162786
851.253	0.0164454
851.331	0.0164953
851.409	0.0164318
851.487	0.0164106
851.565	0.0164784
851.643	0.0163723
851.721	0.0164943
851.799	0.0163195
851.878	0.0163716
851.956	0.0165669
852.034	0.0164655
852.112	0.0166149
852.190	0.0164149
852.268	0.0164323
852.346	0.0164754
852.424	0.0163818
852.503	0.0163995
852.581	0.0164925
852.659	0.0164005
852.737	0.0164870
852.815	0.0164549
852.893	0.0165771
852.971	0.0164931
853.049	0.0164472
853.128	0.0165231
853.206	0.0165524
853.284	0.0164291
853.362	0.0165199
853.440	0.0166306
853.518	0.0165334
853.596	0.0165385
853.674	0.0164978
853.753	0.0165371
853.831	0.0165148
853.909	0.0166250
853.987	0.0166473
854.065	0.0166264
854.143	0.0166687
854.221	0.0166727
854.299	0.0165179
854.378	0.0165235
854.456	0.0164577
854.534	0.0166286
854.612	0.0165610
854.690	0.0165540
854.768	0.0166228
854.846	0.0166355
854.924	0.0167306
855.003	0.0166946
855.081	0.0166306
855.159	0.0165242
855.237	0.0166196
855.315	0.0166518
855.393	0.0166783
855.471	0.0167171
855.549	0.0165350
855.628	0.0167197
855.706	0.0165309
855.784	0.0166970
855.862	0.0165660
855.940	0.0166042
856.018	0.0165253
856.096	0.0166090
856.174	0.0166573
856.253	0.0164504
856.331	0.0164104
856.409	0.0165818
856.487	0.0165644
856.565	0.0165097
856.643	0.0164656
856.721	0.0165301
856.799	0.0166121
856.878	0.0164224
856.956	0.0164191
857.034	0.0162966
857.112	0.0164684
857.190	0.0164589
857.268	0.0163979
857.346	0.0163792
857.424	0.0163776
857.503	0.0162538
857.581	0.0162944
857.659	0.0164022
857.737	0.0163776
857.815	0.0161629
857.893	0.0163267
857.971	0.0164796
858.049	0.0163849
858.128	0.0164417
858.206	0.0163387
858.284	0.0164549
858.362	0.0163458
858.440	0.0164120
858.518	0.0163596
858.596	0.0163610
858.674	0.0164640
858.753	0.0164205
858.831	0.0164263
858.909	0.0163477
858.987	0.0163663
859.065	0.0165433
859.143	0.0163197
859.221	0.0163145
859.299	0.0162796
859.378	0.0163023
859.456	0.0163065
859.534	0.0162493
859.612	0.0164814
859.690	0.0165359
859.768	0.0164024
859.846	0.0164365
859.924	0.0165814
860.003	0.0165102
860.081	0.0164610
860.159	0.0163746
860.237	0.0166098
860.315	0.0165694
860.393	0.0165523
860.471	0.0165055
860.549	0.0165124
860.628	0.0164745
860.706	0.0165748
860.784	0.0166882
860.862	0.0165862
860.940	0.0165638
861.018	0.0165537
861.096	0.0166329
861.174	0.0165152
861.253	0.0165750
861.331	0.0164941
861.409	0.0165773
861.487	0.0164419
861.565	0.0165418
861.643	0.0164705
861.721	0.0165601
861.799	0.0167418
861.878	0.0165097
861.956	0.0164973
862.034	0.0165953
862.112	0.0166190
862.190	0.0167336
862.268	0.0166077
862.346	0.0164887
862.424	0.0166001
862.503	0.0166585
862.581	0.0166669
862.659	0.0165753
862.737	0.0166637
862.815	0.0166580
862.893	0.0166221
862.971	0.0164589
863.049	0.0165916
863.128	0.0166395
863.206	0.0166080
863.284	0.0166485
863.362	0.0166852
863.440	0.0166225
863.518	0.0164136
863.596	0.0164558
863.674	0.0164775
863.753	0.0166062
863.831	0.0164517
863.909	0.0164852
863.987	0.0163957
864.065	0.0163691
864.143	0.0165399
864.221	0.0163950
864.299	0.0164256
864.378	0.0163782
864.456	0.0165794
864.534	0.0164660
864.612	0.0165353
864.690	0.0163233
864.768	0.0165648
864.846	0.0165481
864.924	0.0164095
865.003	0.0165287
865.081	0.0165288
865.159	0.0166573
865.237	0.0164747
865.315	0.0164552
865.393	0.0165944
865.471	0.0166735
865.549	0.0166245
865.628	0.0166245
865.706	0.0166540
865.784	0.0165548
865.862	0.0166147
865.940	0.0164742
866.018	0.0165780
866.096	0.0164693
866.174	0.0166678
866.253	0.0164133
866.331	0.0164907
866.409	0.0164355
866.487	0.0165595
866.565	0.0165144
866.643	0.0165530
866.721	0.0164140
866.799	0.0164725
866.878	0.0164867
866.956	0.0164005
867.034	0.0164675
867.112	0.0166328
867.190	0.0165068
867.268	0.0166257
867.346	0.0165422
867.424	0.0166404
867.503	0.0165540
867.581	0.0164892
867.659	0.0165438
867.737	0.0166688
867.815	0.0165992
867.893	0.0166560
867.971	0.0166285
868.049	0.0165804
868.128	0.0165080
868.206	0.0166237
868.284	0.0166769
868.362	0.0166305
868.440	0.0166797
868.518	0.0165357
868.596	0.0167470
868.674	0.0166515
868.753	0.0165656
868.831	0.0168375
868.909	0.0167347
868.987	0.0166235
869.065	0.0166692
869.143	0.0167404
869.221	0.0166351
869.299	0.0166669
869.378	0.0165846
869.456	0.0167750
869.534	0.0167926
869.612	0.0166542
869.690	0.0167410
869.768	0.0166995
869.846	0.0166432
869.924	0.0165320
870.003	0.0165784
870.081	0.0167162
870.159	0.0166084
870.237	0.0166419
870.315	0.0166693
870.393	0.0165992
870.471	0.0165559
870.549	0.0164598
870.628	0.0164091
870.706	0.0165800
870.784	0.0166823
870.862	0.0165948
870.940	0.0164990
871.018	0.0167078
871.096	0.0164990
871.174	0.0163602
871.253	0.0164253
871.331	0.0166093
871.409	0.0165667
871.487	0.0165173
871.565	0.0165461
871.643	0.0165057
871.721	0.0163493
871.799	0.0165018
871.878	0.0164294
871.956	0.0164118
872.034	0.0164523
872.112	0.0163989
872.190	0.0164454
872.268	0.0163659
872.346	0.0164945
872.424	0.0164057
872.503	0.0164256
872.581	0.0165083
872.659	0.0163456
872.737	0.0163963
872.815	0.0164076
872.893	0.0163940
872.971	0.0164291
873.049	0.0164111
873.128	0.0164854
873.206	0.0164195
873.284	0.0164680
873.362	0.0163586
873.440	0.0164996
873.518	0.0164427
873.596	0.0163696
873.674	0.0164327
873.753	0.0164761
873.831	0.0164355
873.909	0.0162750
873.987	0.0163548
874.065	0.0164198
874.143	0.0163332
874.221	0.0163287
874.299	0.0164703
874.378	0.0163548
874.456	0.0163877
874.534	0.0164494
874.612	0.0163499
874.690	0.0164655
874.768	0.0164277
874.846	0.0164857
874.924	0.0164684
875.003	0.0166263
875.081	0.0165411
875.159	0.0165282
875.237	0.0164458
875.315	0.0164634
875.393	0.0166238
875.471	0.0165570
875.549	0.0165161
875.628	0.0166673
875.706	0.0164399
875.784	0.0165359
875.862	0.0164788
875.940	0.0163670
876.018	0.0164467
876.096	0.0165957
876.174	0.0164513
876.253	0.0166164
876.331	0.0165137
876.409	0.0165126
876.487	0.0166262
876.565	0.0164928
876.643	0.0165954
876.721	0.0165105
876.799	0.0166552
876.878	0.0166779
876.956	0.0166518
877.034	0.0167879
877.112	0.0166304
877.190	0.0164515
877.268	0.0166795
877.346	0.0167263
877.424	0.0166586
877.503	0.0165548
877.581	0.0166074
877.659	0.0165427
877.737	0.0164816
877.815	0.0165544
877.893	0.0165718
877.971	0.0165254
878.049	0.0165512
878.128	0.0165481
878.206	0.0164632
878.284	0.0164590
878.362	0.0163812
878.440	0.0166080
878.518	0.0165620
878.596	0.0164510
878.674	0.0164604
878.753	0.0164017
878.831	0.0165485
878.909	0.0164167
878.987	0.0164847
879.065	0.0164606
879.143	0.0163291
879.221	0.0165118
879.299	0.0164722
879.378	0.0163374
879.456	0.0164687
879.534	0.0165324
879.612	0.0164427
879.690	0.0163836
879.768	0.0163885
879.846	0.0165702
879.924	0.0165076
880.003	0.0164271
880.081	0.0164860
880.159	0.0164807
880.237	0.0165990
880.315	0.0166179
880.393	0.0164188
880.471	0.0163423
880.549	0.0164119
880.628	0.0164327
880.706	0.0165083
880.784	0.0164613
880.862	0.0165434
880.940	0.0164816
881.018	0.0163452
881.096	0.0164963
881.174	0.0164838
881.253	0.0163255
881.331	0.0163638
881.409	0.0164453
881.487	0.0162246
881.565	0.0162701
881.643	0.0164702
881.721	0.0165110
881.799	0.0163678
881.878	0.0163917
881.956	0.0164184
882.034	0.0163148
882.112	0.0165005
882.190	0.0163895
882.268	0.0163889
882.346	0.0163747
882.424	0.0163596
882.503	0.0165086
882.581	0.0164340
882.659	0.0163493
882.737	0.0163625
882.815	0.0164507
882.893	0.0164619
882.971	0.0164264
883.049	0.0164309
883.128	0.0164169
883.206	0.0164277
883.284	0.0163535
883.362	0.0163393
883.440	0.0164737
883.518	0.0164130
883.596	0.0164289
883.674	0.0164759
883.753	0.0162642
883.831	0.0162987
883.909	0.0163609
883.987	0.0164162
884.065	0.0165166
884.143	0.0163396
884.221	0.0164297
884.299	0.0165081
884.378	0.0163789
884.456	0.0164218
884.534	0.0166048
884.612	0.0166463
884.690	0.0164349
884.768	0.0166494
884.846	0.0166563
884.924	0.0165009
885.003	0.0165044
885.081	0.0165969
885.159	0.0166640
885.237	0.0166020
885.315	0.0165165
885.393	0.0165343
885.471	0.0165411
885.549	0.0165037
885.628	0.0164258
885.706	0.0165153
885.784	0.0165227
885.862	0.0164605
885.940	0.0164786
886.018	0.0164465
886.096	0.0164874
886.174	0.0166541
886.253	0.0164651
886.331	0.0163356
886.409	0.0164878
886.487	0.0165971
886.565	0.0165691
886.643	0.0165948
886.721	0.0165479
886.799	0.0166236
886.878	0.0165119
886.956	0.0165186
887.034	0.0165359
887.112	0.0166644
887.190	0.0165482
887.268	0.0165741
887.346	0.0164737
887.424	0.0165722
887.503	0.0164951
887.581	0.0165581
887.659	0.0164199
887.737	0.0164052
887.815	0.0164107
887.893	0.0165963
887.971	0.0165031
888.049	0.0164294
888.128	0.0164657
888.206	0.0165011
888.284	0.0164542
888.362	0.0165666
888.440	0.0165089
888.518	0.0163990
888.596	0.0166045
888.674	0.0165630
888.753	0.0164780
888.831	0.0163857
888.909	0.0166656
888.987	0.0165222
889.065	0.0165041
889.143	0.0163824
889.221	0.0163773
889.299	0.0165161
889.378	0.0164860
889.456	0.0165426
889.534	0.0164838
889.612	0.0163561
889.690	0.0165646
889.768	0.0164127
889.846	0.0164129
889.924	0.0165152
890.003	0.0164025
890.081	0.0165446
890.159	0.0164516
890.237	0.0165202
890.315	0.0163816
890.393	0.0163639
890.471	0.0165310
890.549	0.0164191
890.628	0.0164529
890.706	0.0164807
890.784	0.0163616
890.862	0.0164922
890.940	0.0165258
891.018	0.0165177
891.096	0.0164775
891.174	0.0164880
891.253	0.0164619
891.331	0.0165009
891.409	0.0166086
891.487	0.0165987
891.565	0.0164301
891.643	0.0165386
891.721	0.0167003
891.799	0.0167324
891.878	0.0164338
891.956	0.0165420
892.034	0.0165265
892.112	0.0166645
892.190	0.0165784
892.268	0.0165935
892.346	0.0165165
892.424	0.0164066
892.503	0.0162830
892.581	0.0167023
892.659	0.0166302
892.737	0.0165920
892.815	0.0165237
892.893	0.0165136
892.971	0.0165221
893.049	0.0165132
893.128	0.0166013
893.206	0.0163921
893.284	0.0165074
893.362	0.0165148
893.440	0.0165260
893.518	0.0165418
893.596	0.0164837
893.674	0.0164278
893.753	0.0166415
893.831	0.0165092
893.909	0.0167486
893.987	0.0165691
894.065	0.0164593
894.143	0.0165058
894.221	0.0166891
894.299	0.0165187
894.378	0.0165567
894.456	0.0165334
894.534	0.0164581
894.612	0.0166684
894.690	0.0165485
894.768	0.0167025
894.846	0.0166244
894.924	0.0166318
895.003	0.0166199
895.081	0.0165707
895.159	0.0166135
895.237	0.0165916
895.315	0.0166212
895.393	0.0166362
895.471	0.0165865
895.549	0.0165154
895.628	0.0164643
895.706	0.0165410
895.784	0.0165089
895.862	0.0165688
895.940	0.0166212
896.018	0.0165762
896.096	0.0166097
896.174	0.0164664
896.253	0.0164783
896.331	0.0165045
896.409	0.0166548
896.487	0.0166116
896.565	0.0166779
896.643	0.0166083
896.721	0.0166463
896.799	0.0165323
896.878	0.0165734
896.956	0.0167036
897.034	0.0166266
897.112	0.0165687
897.190	0.0166141
897.268	0.0164626
897.346	0.0166508
897.424	0.0167684
897.503	0.0165559
897.581	0.0164598
897.659	0.0165662
897.737	0.0164864
897.815	0.0166076
897.893	0.0165549
897.971	0.0165748
898.049	0.0165215
898.128	0.0164896
898.206	0.0165083
898.284	0.0165589
898.362	0.0164611
898.440	0.0164656
898.518	0.0164394
898.596	0.0164478
898.674	0.0165141
898.753	0.0165073
898.831	0.0164432
898.909	0.0164594
898.987	0.0164999
899.065	0.0164714
899.143	0.0162828
899.221	0.0164296
899.299	0.0165435
899.378	0.0163842
899.456	0.0164742
899.534	0.0164288
899.612	0.0164620
899.690	0.0164697
899.768	0.0164854
899.846	0.0164948
899.924	0.0164516
900.003	0.0167303
900.081	0.0165668
900.159	0.0167226
900.237	0.0165556
900.315	0.0164562
900.393	0.0165809
900.471	0.0166264
900.549	0.0165710
900.628	0.0167406
900.706	0.0166168
900.784	0.0166663
900.862	0.0166505
900.940	0.0165794
901.018	0.0165531
901.096	0.0165336
901.174	0.0165815
901.253	0.0166216
901.331	0.0165409
901.409	0.0165086
901.487	0.0166251
901.565	0.0166152
901.643	0.0166036
901.721	0.0165340
901.799	0.0164250
901.878	0.0166241
901.956	0.0167000
902.034	0.0165488
902.112	0.0165707
902.190	0.0167195
902.268	0.0165749
902.346	0.0166050
902.424	0.0166885
902.503	0.0167202
902.581	0.0164681
902.659	0.0164989
902.737	0.0166834
902.815	0.0166367
902.893	0.0165739
902.971	0.0166092
903.049	0.0164798
903.128	0.0164655
903.206	0.0164814
903.284	0.0165484
903.362	0.0165872
903.440	0.0164915
903.518	0.0164236
903.596	0.0164222
903.674	0.0164941
903.753	0.0165267
903.831	0.0164793
903.909	0.0164178
903.987	0.0165529
904.065	0.0164281
904.143	0.0163926
904.221	0.0163792
904.299	0.0163285
904.378	0.0164317
904.456	0.0165495
904.534	0.0163984
904.612	0.0164751
904.690	0.0164856
904.768	0.0163940
904.846	0.0165005
904.924	0.0166097
905.003	0.0164849
905.081	0.0164491
905.159	0.0164473
905.237	0.0164236
905.315	0.0164538
905.393	0.0163519
905.471	0.0163955
905.549	0.0163371
905.628	0.0164519
905.706	0.0164671
905.784	0.0163171
905.862	0.0163867
905.940	0.0166014
906.018	0.0163100
906.096	0.0163691
906.174	0.0164224
906.253	0.0163688
906.331	0.0163893
906.409	0.0165092
906.487	0.0163898
906.565	0.0163097
906.643	0.0164614
906.721	0.0166029
906.799	0.0163753
906.878	0.0165211
906.956	0.0164306
907.034	0.0164436
907.112	0.0164275
907.190	0.0164935
907.268	0.0163972
907.346	0.0165101
907.424	0.0164782
907.503	0.0163943
907.581	0.0165331
907.659	0.0165202
907.737	0.0164710
907.815	0.0165179
907.893	0.0164533
907.971	0.0164482
908.049	0.0164038
908.128	0.0165203
908.206	0.0166490
908.284	0.0165294
908.362	0.0163998
908.440	0.0165266
908.518	0.0165302
908.596	0.0165100
908.674	0.0164626
908.753	0.0165900
908.831	0.0164994
908.909	0.0164410
908.987	0.0165697
909.065	0.0164893
909.143	0.0166431
909.221	0.0164148
909.299	0.0164407
909.378	0.0164181
909.456	0.0162537
909.534	0.0164283
909.612	0.0165311
909.690	0.0164703
909.768	0.0163792
909.846	0.0163244
909.924	0.0165934
910.003	0.0164394
910.081	0.0164726
910.159	0.0164154
910.237	0.0162596
910.315	0.0164944
910.393	0.0164438
910.471	0.0165208
910.549	0.0164965
910.628	0.0163935
910.706	0.0165287
910.784	0.0165089
910.862	0.0165535
910.940	0.0165468
911.018	0.0164297
911.096	0.0163531
911.174	0.0163736
911.253	0.0164336
911.331	0.0164570
911.409	0.0164713
911.487	0.0163692
911.565	0.0163155
911.643	0.0165993
911.721	0.0164946
911.799	0.0164439
911.878	0.0163760
911.956	0.0164657
912.034	0.0164267
912.112	0.0163477
912.190	0.0164965
912.268	0.0162865
912.346	0.0165277
912.424	0.0164030
912.503	0.0164084
912.581	0.0163085
912.659	0.0163956
912.737	0.0163000
912.815	0.0163863
912.893	0.0163116
912.971	0.0163863
913.049	0.0163879
913.128	0.0164958
913.206	0.0165395
913.284	0.0164002
913.362	0.0165727
913.440	0.0164215
913.518	0.0163555
913.596	0.0165638
913.674	0.0165455
913.753	0.0164042
913.831	0.0164265
913.909	0.0165424
913.987	0.0165177
914.065	0.0164491
914.143	0.0165350
914.221	0.0164821
914.299	0.0164262
914.378	0.0163932
914.456	0.0163988
914.534	0.0165884
914.612	0.0165131
914.690	0.0165550
914.768	0.0164140
914.846	0.0165519
914.924	0.0165747
915.003	0.0166056
915.081	0.0164485
915.159	0.0165200
915.237	0.0165321
915.315	0.0165137
915.393	0.0165430
915.471	0.0165392
915.549	0.0165594
915.628	0.0166459
915.706	0.0166985
915.784	0.0166400
915.862	0.0166256
915.940	0.0165932
916.018	0.0168051
916.096	0.0165234
916.174	0.0165647
916.253	0.0167196
916.331	0.0166671
916.409	0.0167606
916.487	0.0166225
916.565	0.0166538
916.643	0.0165884
916.721	0.0166165
916.799	0.0165733
916.878	0.0166241
916.956	0.0165171
917.034	0.0165902
917.112	0.0165858
917.190	0.0167102
917.268	0.0166893
917.346	0.0165627
917.424	0.0167627
917.503	0.0166018
917.581	0.0166273
917.659	0.0166674
917.737	0.0166851
917.815	0.0166929
917.893	0.0165913
917.971	0.0165672
918.049	0.0167290
918.128	0.0166258
918.206	0.0166903
918.284	0.0166686
918.362	0.0165921
918.440	0.0167866
918.518	0.0167663
918.596	0.0166364
918.674	0.0166582
918.753	0.0166890
918.831	0.0166743
918.909	0.0165826
918.987	0.0167578
919.065	0.0166216
919.143	0.0166185
919.221	0.0165550
919.299	0.0166449
919.378	0.0166034
919.456	0.0165085
919.534	0.0166369
919.612	0.0166212
919.690	0.0165572
919.768	0.0165387
919.846	0.0164834
919.924	0.0164671
920.003	0.0165117
920.081	0.0166003
920.159	0.0165063
920.237	0.0165423
920.315	0.0165760
920.393	0.0164143
920.471	0.0165395
920.549	0.0165282
920.628	0.0166436
920.706	0.0164799
920.784	0.0164808
920.862	0.0166176
920.940	0.0165996
921.018	0.0166380
921.096	0.0166221
921.174	0.0164790
921.253	0.0164997
921.331	0.0164816
921.409	0.0165369
921.487	0.0165060
921.565	0.0164924
921.643	0.0164951
921.721	0.0165616
921.799	0.0166990
921.878	0.0165244
921.956	0.0165464
922.034	0.0165691
922.112	0.0166799
922.190	0.0165631
922.268	0.0164472
922.346	0.0165546
922.424	0.0164291
922.503	0.0165899
922.581	0.0165609
922.659	0.0165366
922.737	0.0165913
922.815	0.0164619
922.893	0.0165077
922.971	0.0165327
923.049	0.0166123
923.128	0.0165798
923.206	0.0166220
923.284	0.0165958
923.362	0.0166382
923.440	0.0165350
923.518	0.0165739
923.596	0.0166104
923.674	0.0167801
923.753	0.0166550
923.831	0.0166469
923.909	0.0166309
923.987	0.0165359
924.065	0.0166635
924.143	0.0166297
924.221	0.0167040
924.299	0.0166247
924.378	0.0165957
924.456	0.0166240
924.534	0.0166905
924.612	0.0165928
924.690	0.0166577
924.768	0.0165193
924.846	0.0166212
924.924	0.0166504
925.003	0.0166286
925.081	0.0166043
925.159	0.0164298
925.237	0.0166680
925.315	0.0166853
925.393	0.0166270
925.471	0.0166914
925.549	0.0165530
925.628	0.0165467
925.706	0.0166190
925.784	0.0165051
925.862	0.0166407
925.940	0.0165949
926.018	0.0165576
926.096	0.0165357
926.174	0.0164882
926.253	0.0165531
926.331	0.0165672
926.409	0.0166504
926.487	0.0166480
926.565	0.0165424
926.643	0.0165221
926.721	0.0165929
926.799	0.0164748
926.878	0.0164648
926.956	0.0164966
927.034	0.0163597
927.112	0.0165890
927.190	0.0164825
927.268	0.0165264
927.346	0.0164867
927.424	0.0166417
927.503	0.0165842
927.581	0.0165129
927.659	0.0165171
927.737	0.0165282
927.815	0.0165176
927.893	0.0165215
927.971	0.0165884
928.049	0.0165067
928.128	0.0165215
928.206	0.0165936
928.284	0.0165410
928.362	0.0165759
928.440	0.0166107
928.518	0.0164811
928.596	0.0164946
928.674	0.0167735
928.753	0.0165483
928.831	0.0164034
928.909	0.0165912
928.987	0.0165424
929.065	0.0165095
929.143	0.0166663
929.221	0.0165185
929.299	0.0164775
929.378	0.0164260
929.456	0.0165022
929.534	0.0165849
929.612	0.0166375
929.690	0.0164563
929.768	0.0164896
929.846	0.0165279
929.924	0.0163996
930.003	0.0165511
930.081	0.0165060
930.159	0.0165857
930.237	0.0163303
930.315	0.0164870
930.393	0.0165355
930.471	0.0165435
930.549	0.0164225
930.628	0.0164384
930.706	0.0165501
930.784	0.0164861
930.862	0.0166468
930.940	0.0165884
931.018	0.0165005
931.096	0.0165892
931.174	0.0165263
931.253	0.0165082
931.331	0.0166274
931.409	0.0166389
931.487	0.0165265
931.565	0.0164197
931.643	0.0164604
931.721	0.0165903
931.799	0.0164458
931.878	0.0164520
931.956	0.0163989
932.034	0.0164957
932.112	0.0166057
932.190	0.0164618
932.268	0.0165063
932.346	0.0165500
932.424	0.0164985
932.503	0.0165430
932.581	0.0164503
932.659	0.0165433
932.737	0.0165926
932.815	0.0165264
932.893	0.0164477
932.971	0.0164719
933.049	0.0164568
933.128	0.0165531
933.206	0.0165577
933.284	0.0164534
933.362	0.0164684
933.440	0.0163815
933.518	0.0164864
933.596	0.0164723
933.674	0.0165095
933.753	0.0165007
933.831	0.0164314
933.909	0.0164066
933.987	0.0164912
934.065	0.0163837
934.143	0.0162646
934.221	0.0163440
934.299	0.0164845
934.378	0.0164026
934.456	0.0163662
934.534	0.0164523
934.612	0.0163822
934.690	0.0164290
934.768	0.0164209
934.846	0.0165058
934.924	0.0164234
935.003	0.0164770
935.081	0.0164085
935.159	0.0164509
935.237	0.0165067
935.315	0.0164144
935.393	0.0164293
935.471	0.0164655
935.549	0.0164492
935.628	0.0162856
935.706	0.0162233
935.784	0.0164698
935.862	0.0163966
935.940	0.0163488
936.018	0.0163262
936.096	0.0163506
936.174	0.0164527
936.253	0.0164134
936.331	0.0163383
936.409	0.0163948
936.487	0.0165775
936.565	0.0163845
936.643	0.0164148
936.721	0.0163282
936.799	0.0162904
936.878	0.0164007
936.956	0.0164379
937.034	0.0163592
937.112	0.0163773
937.190	0.0164942
937.268	0.0162376
937.346	0.0163675
937.424	0.0164371
937.503	0.0164413
937.581	0.0163763
937.659	0.0163672
937.737	0.0164571
937.815	0.0165285
937.893	0.0163012
937.971	0.0164078
938.049	0.0163670
938.128	0.0163936
938.206	0.0163737
938.284	0.0162492
938.362	0.0164058
938.440	0.0164826
938.518	0.0163654
938.596	0.0162404
938.674	0.0162500
938.753	0.0164124
938.831	0.0164727
938.909	0.0162353
938.987	0.0162823
939.065	0.0165449
939.143	0.0164907
939.221	0.0164265
939.299	0.0163828
939.378	0.0164668
939.456	0.0165541
939.534	0.0165220
939.612	0.0165050
939.690	0.0165112
939.768	0.0165782
939.846	0.0165852
939.924	0.0165691
940.003	0.0164155
940.081	0.0165014
940.159	0.0165331
940.237	0.0165462
940.315	0.0165096
940.393	0.0164215
940.471	0.0164701
940.549	0.0165726
940.628	0.0166432
940.706	0.0165552
940.784	0.0165467
940.862	0.0164916
940.940	0.0164441
941.018	0.0164867
941.096	0.0166357
941.174	0.0164941
941.253	0.0164870
941.331	0.0165016
941.409	0.0165248
941.487	0.0165338
941.565	0.0165208
941.643	0.0166256
941.721	0.0166074
941.799	0.0165219
941.878	0.0164664
941.956	0.0165764
942.034	0.0166617
942.112	0.0166228
942.190	0.0164449
942.268	0.0164683
942.346	0.0164940
942.424	0.0165356
942.503	0.0164857
942.581	0.0165229
942.659	0.0165816
942.737	0.0165578
942.815	0.0165073
942.893	0.0165839
942.971	0.0164655
943.049	0.0163641
943.128	0.0165399
943.206	0.0166267
943.284	0.0164614
943.362	0.0164966
943.440	0.0165926
943.518	0.0164761
943.596	0.0164110
943.674	0.0163995
943.753	0.0165259
943.831	0.0164964
943.909	0.0164519
943.987	0.0164856
944.065	0.0165495
944.143	0.0165524
944.221	0.0164742
944.299	0.0164554
944.378	0.0164672
944.456	0.0164365
944.534	0.0165536
944.612	0.0166343
944.690	0.0164342
944.768	0.0165617
944.846	0.0166683
944.924	0.0164498
945.003	0.0165598
945.081	0.0165231
945.159	0.0164679
945.237	0.0166153
945.315	0.0164763
945.393	0.0165482
945.471	0.0165276
945.549	0.0163635
945.628	0.0164687
945.706	0.0166508
945.784	0.0164233
945.862	0.0164014
945.940	0.0166191
946.018	0.0165427
946.096	0.0165389
946.174	0.0165221
946.253	0.0165318
946.331	0.0166225
946.409	0.0166025
946.487	0.0164462
946.565	0.0164312
946.643	0.0164701
946.721	0.0165001
946.799	0.0164680
946.878	0.0165604
946.956	0.0165962
947.034	0.0165095
947.112	0.0165408
947.190	0.0164275
947.268	0.0164700
947.346	0.0165921
947.424	0.0166606
947.503	0.0164939
947.581	0.0167252
947.659	0.0164301
947.737	0.0165634
947.815	0.0166051
947.893	0.0166193
947.971	0.0165507
948.049	0.0166844
948.128	0.0166267
948.206	0.0166985
948.284	0.0164949
948.362	0.0167075
948.440	0.0166087
948.518	0.0166286
948.596	0.0167056
948.674	0.0166392
948.753	0.0166898
948.831	0.0166241
948.909	0.0166122
948.987	0.0166145
949.065	0.0166427
949.143	0.0166049
949.221	0.0165804
949.299	0.0165898
949.378	0.0165347
949.456	0.0165826
949.534	0.0166931
949.612	0.0165784
949.690	0.0166025
949.768	0.0165798
949.846	0.0165192
949.924	0.0165598
