05/19/2022	00:51:28	Ver.	4.1	UNKNOWN
Optical Delay	630.002507	Delta X		0.078125	Sweeps	1	Scan Rate	0/0
Coordinates	Axis 1	NaN	Axis 2	NaN	Axis 3	NaN	Axis 4	NaN	Axis 5	NaN	Axis 6	0.000000
TX Power	0.000000	RX Power	0.000000

630.003	0.0157240
630.081	0.0156810
630.159	0.0157668
630.237	0.0157042
630.315	0.0157346
630.393	0.0157138
630.471	0.0157111
630.549	0.0157977
630.628	0.0156612
630.706	0.0156184
630.784	0.0157480
630.862	0.0157050
630.940	0.0157754
631.018	0.0157984
631.096	0.0157958
631.174	0.0157310
631.253	0.0157087
631.331	0.0158350
631.409	0.0157081
631.487	0.0156957
631.565	0.0155851
631.643	0.0156250
631.721	0.0157108
631.799	0.0158185
631.878	0.0156234
631.956	0.0156236
632.034	0.0155650
632.112	0.0157469
632.190	0.0157952
632.268	0.0157474
632.346	0.0157023
632.424	0.0157076
632.503	0.0157276
632.581	0.0156538
632.659	0.0156994
632.737	0.0157581
632.815	0.0158157
632.893	0.0158478
632.971	0.0158932
633.049	0.0159648
633.128	0.0158745
633.206	0.0158108
633.284	0.0160577
633.362	0.0157848
633.440	0.0157880
633.518	0.0156956
633.596	0.0156821
633.674	0.0157249
633.753	0.0157105
633.831	0.0158484
633.909	0.0158105
633.987	0.0156145
634.065	0.0157095
634.143	0.0158452
634.221	0.0157722
634.299	0.0158154
634.378	0.0157270
634.456	0.0157208
634.534	0.0157700
634.612	0.0158226
634.690	0.0157467
634.768	0.0159304
634.846	0.0158451
634.924	0.0158426
635.003	0.0157529
635.081	0.0156847
635.159	0.0158481
635.237	0.0158273
635.315	0.0158093
635.393	0.0156268
635.471	0.0157381
635.549	0.0158720
635.628	0.0157563
635.706	0.0157159
635.784	0.0159079
635.862	0.0157532
635.940	0.0157839
636.018	0.0158114
636.096	0.0157372
636.174	0.0157380
636.253	0.0157846
636.331	0.0157942
636.409	0.0158619
636.487	0.0157214
636.565	0.0157309
636.643	0.0158534
636.721	0.0157261
636.799	0.0158626
636.878	0.0158042
636.956	0.0157450
637.034	0.0158610
637.112	0.0157928
637.190	0.0158698
637.268	0.0158699
637.346	0.0157561
637.424	0.0156943
637.503	0.0158810
637.581	0.0157885
637.659	0.0157568
637.737	0.0159858
637.815	0.0157334
637.893	0.0155978
637.971	0.0158071
638.049	0.0159183
638.128	0.0157662
638.206	0.0156528
638.284	0.0157327
638.362	0.0157090
638.440	0.0157722
638.518	0.0157784
638.596	0.0156871
638.674	0.0156889
638.753	0.0158141
638.831	0.0157735
638.909	0.0156876
638.987	0.0157878
639.065	0.0158185
639.143	0.0158018
639.221	0.0157007
639.299	0.0157806
639.378	0.0158395
639.456	0.0158430
639.534	0.0158921
639.612	0.0158692
639.690	0.0156542
639.768	0.0158171
639.846	0.0158623
639.924	0.0157822
640.003	0.0156548
640.081	0.0156407
640.159	0.0157726
640.237	0.0157629
640.315	0.0156472
640.393	0.0156345
640.471	0.0155357
640.549	0.0156808
640.628	0.0156415
640.706	0.0156551
640.784	0.0155957
640.862	0.0156561
640.940	0.0156612
641.018	0.0155541
641.096	0.0157367
641.174	0.0156335
641.253	0.0155978
641.331	0.0157891
641.409	0.0157678
641.487	0.0157370
641.565	0.0156145
641.643	0.0157211
641.721	0.0157674
641.799	0.0156301
641.878	0.0157906
641.956	0.0157088
642.034	0.0156840
642.112	0.0156279
642.190	0.0157069
642.268	0.0156313
642.346	0.0155710
642.424	0.0156496
642.503	0.0155261
642.581	0.0155523
642.659	0.0155280
642.737	0.0156544
642.815	0.0155807
642.893	0.0156316
642.971	0.0155013
643.049	0.0156348
643.128	0.0156661
643.206	0.0157059
643.284	0.0157137
643.362	0.0157423
643.440	0.0157018
643.518	0.0157911
643.596	0.0157790
643.674	0.0156374
643.753	0.0156745
643.831	0.0157507
643.909	0.0158182
643.987	0.0158064
644.065	0.0157821
644.143	0.0158204
644.221	0.0157968
644.299	0.0157875
644.378	0.0157289
644.456	0.0158012
644.534	0.0158596
644.612	0.0156951
644.690	0.0157616
644.768	0.0157604
644.846	0.0157483
644.924	0.0157664
645.003	0.0156687
645.081	0.0157436
645.159	0.0158535
645.237	0.0157389
645.315	0.0157841
645.393	0.0158290
645.471	0.0156977
645.549	0.0157413
645.628	0.0157277
645.706	0.0157670
645.784	0.0157996
645.862	0.0157338
645.940	0.0157384
646.018	0.0157664
646.096	0.0158971
646.174	0.0157633
646.253	0.0158585
646.331	0.0158146
646.409	0.0159008
646.487	0.0158502
646.565	0.0159088
646.643	0.0158572
646.721	0.0158566
646.799	0.0158583
646.878	0.0159225
646.956	0.0159214
647.034	0.0158916
647.112	0.0158125
647.190	0.0158515
647.268	0.0159027
647.346	0.0159425
647.424	0.0157671
647.503	0.0157257
647.581	0.0158366
647.659	0.0157750
647.737	0.0159189
647.815	0.0158338
647.893	0.0159286
647.971	0.0156284
648.049	0.0158153
648.128	0.0156609
648.206	0.0157352
648.284	0.0156969
648.362	0.0158129
648.440	0.0156860
648.518	0.0157140
648.596	0.0156750
648.674	0.0156303
648.753	0.0156597
648.831	0.0157906
648.909	0.0158315
648.987	0.0157932
649.065	0.0157475
649.143	0.0158118
649.221	0.0157819
649.299	0.0157055
649.378	0.0157377
649.456	0.0155783
649.534	0.0156688
649.612	0.0156293
649.690	0.0156335
649.768	0.0157149
649.846	0.0156359
649.924	0.0155248
650.003	0.0156253
650.081	0.0156433
650.159	0.0155437
650.237	0.0154621
650.315	0.0157375
650.393	0.0155683
650.471	0.0157154
650.549	0.0156288
650.628	0.0157019
650.706	0.0157399
650.784	0.0157829
650.862	0.0156713
650.940	0.0157153
651.018	0.0157016
651.096	0.0156920
651.174	0.0158038
651.253	0.0157016
651.331	0.0157466
651.409	0.0157607
651.487	0.0156730
651.565	0.0157090
651.643	0.0155567
651.721	0.0157249
651.799	0.0156193
651.878	0.0156169
651.956	0.0156968
652.034	0.0157883
652.112	0.0157477
652.190	0.0157169
652.268	0.0155853
652.346	0.0157018
652.424	0.0158743
652.503	0.0156953
652.581	0.0158144
652.659	0.0157925
652.737	0.0157402
652.815	0.0156675
652.893	0.0156442
652.971	0.0157979
653.049	0.0156362
653.128	0.0157534
653.206	0.0157357
653.284	0.0157979
653.362	0.0156259
653.440	0.0157583
653.518	0.0157633
653.596	0.0156788
653.674	0.0156272
653.753	0.0157752
653.831	0.0159807
653.909	0.0158206
653.987	0.0157909
654.065	0.0158196
654.143	0.0158513
654.221	0.0158495
654.299	0.0158534
654.378	0.0158433
654.456	0.0158541
654.534	0.0157566
654.612	0.0159324
654.690	0.0158249
654.768	0.0158454
654.846	0.0159109
654.924	0.0157478
655.003	0.0157240
655.081	0.0156989
655.159	0.0157928
655.237	0.0157484
655.315	0.0157690
655.393	0.0157506
655.471	0.0157442
655.549	0.0158687
655.628	0.0156711
655.706	0.0156424
655.784	0.0156959
655.862	0.0157821
655.940	0.0158272
656.018	0.0157526
656.096	0.0158080
656.174	0.0159279
656.253	0.0157880
656.331	0.0157726
656.409	0.0158025
656.487	0.0159267
656.565	0.0159241
656.643	0.0158362
656.721	0.0158772
656.799	0.0157686
656.878	0.0157751
656.956	0.0159507
657.034	0.0157452
657.112	0.0157887
657.190	0.0158039
657.268	0.0158765
657.346	0.0159138
657.424	0.0157881
657.503	0.0157549
657.581	0.0159554
657.659	0.0158717
657.737	0.0157513
657.815	0.0158886
657.893	0.0157624
657.971	0.0158171
658.049	0.0157832
658.128	0.0158440
658.206	0.0157169
658.284	0.0158081
658.362	0.0157311
658.440	0.0157233
658.518	0.0157462
658.596	0.0156025
658.674	0.0158294
658.753	0.0156502
658.831	0.0157004
658.909	0.0157342
658.987	0.0156937
659.065	0.0158746
659.143	0.0158470
659.221	0.0156324
659.299	0.0157268
659.378	0.0156978
659.456	0.0157462
659.534	0.0158447
659.612	0.0157126
659.690	0.0157063
659.768	0.0158189
659.846	0.0158972
659.924	0.0159808
660.003	0.0158025
660.081	0.0159328
660.159	0.0159637
660.237	0.0158890
660.315	0.0159518
660.393	0.0159099
660.471	0.0158691
660.549	0.0158684
660.628	0.0158450
660.706	0.0158439
660.784	0.0159135
660.862	0.0157822
660.940	0.0157511
661.018	0.0156496
661.096	0.0156857
661.174	0.0157147
661.253	0.0157005
661.331	0.0157870
661.409	0.0157198
661.487	0.0156017
661.565	0.0156526
661.643	0.0159015
661.721	0.0157895
661.799	0.0158526
661.878	0.0157793
661.956	0.0158070
662.034	0.0156821
662.112	0.0158489
662.190	0.0160555
662.268	0.0158864
662.346	0.0158300
662.424	0.0158714
662.503	0.0159221
662.581	0.0157865
662.659	0.0157709
662.737	0.0158759
662.815	0.0157764
662.893	0.0157951
662.971	0.0157304
663.049	0.0154542
663.128	0.0155310
663.206	0.0155683
663.284	0.0156969
663.362	0.0154174
663.440	0.0153139
663.518	0.0154533
663.596	0.0153582
663.674	0.0153816
663.753	0.0155208
663.831	0.0154196
663.909	0.0154486
663.987	0.0155000
664.065	0.0157200
664.143	0.0156949
664.221	0.0155933
664.299	0.0157343
664.378	0.0155985
664.456	0.0155177
664.534	0.0155155
664.612	0.0156420
664.690	0.0156784
664.768	0.0156298
664.846	0.0155966
664.924	0.0155660
665.003	0.0157576
665.081	0.0156905
665.159	0.0156897
665.237	0.0155259
665.315	0.0156017
665.393	0.0156797
665.471	0.0155959
665.549	0.0158504
665.628	0.0157305
665.706	0.0157362
665.784	0.0157555
665.862	0.0158523
665.940	0.0158334
666.018	0.0158228
666.096	0.0158933
666.174	0.0158645
666.253	0.0160505
666.331	0.0160478
666.409	0.0159666
666.487	0.0159819
666.565	0.0158569
666.643	0.0157544
666.721	0.0158140
666.799	0.0159095
666.878	0.0157694
666.956	0.0157933
667.034	0.0158329
667.112	0.0157910
667.190	0.0158434
667.268	0.0158028
667.346	0.0156535
667.424	0.0156709
667.503	0.0157337
667.581	0.0157696
667.659	0.0157452
667.737	0.0156969
667.815	0.0155883
667.893	0.0155947
667.971	0.0156812
668.049	0.0155697
668.128	0.0155027
668.206	0.0154440
668.284	0.0155315
668.362	0.0155322
668.440	0.0154696
668.518	0.0155220
668.596	0.0154565
668.674	0.0155341
668.753	0.0156417
668.831	0.0156374
668.909	0.0156148
668.987	0.0157930
669.065	0.0158015
669.143	0.0158868
669.221	0.0158786
669.299	0.0160746
669.378	0.0160736
669.456	0.0159619
669.534	0.0161677
669.612	0.0161340
669.690	0.0160060
669.768	0.0159702
669.846	0.0160643
669.924	0.0161131
670.003	0.0159113
670.081	0.0158981
670.159	0.0159346
670.237	0.0158034
670.315	0.0158388
670.393	0.0158302
670.471	0.0157379
670.549	0.0157354
670.628	0.0157230
670.706	0.0155195
670.784	0.0155103
670.862	0.0156654
670.940	0.0156831
671.018	0.0154961
671.096	0.0155165
671.174	0.0155299
671.253	0.0156566
671.331	0.0155649
671.409	0.0154206
671.487	0.0154321
671.565	0.0154768
671.643	0.0156046
671.721	0.0155457
671.799	0.0155579
671.878	0.0156302
671.956	0.0155537
672.034	0.0157324
672.112	0.0157377
672.190	0.0156752
672.268	0.0157819
672.346	0.0156512
672.424	0.0157574
672.503	0.0157462
672.581	0.0158402
672.659	0.0158947
672.737	0.0158475
672.815	0.0158736
672.893	0.0157849
672.971	0.0158319
673.049	0.0157718
673.128	0.0159968
673.206	0.0161519
673.284	0.0158376
673.362	0.0159026
673.440	0.0158255
673.518	0.0158835
673.596	0.0160166
673.674	0.0159189
673.753	0.0159065
673.831	0.0158794
673.909	0.0160062
673.987	0.0159249
674.065	0.0158287
674.143	0.0159098
674.221	0.0159686
674.299	0.0156382
674.378	0.0156647
674.456	0.0157609
674.534	0.0157085
674.612	0.0155724
674.690	0.0156091
674.768	0.0155390
674.846	0.0156012
674.924	0.0155154
675.003	0.0154536
675.081	0.0155801
675.159	0.0155222
675.237	0.0155676
675.315	0.0155346
675.393	0.0155598
675.471	0.0156033
675.549	0.0154782
675.628	0.0154728
675.706	0.0155550
675.784	0.0157633
675.862	0.0155998
675.940	0.0155231
676.018	0.0154523
676.096	0.0157294
676.174	0.0157093
676.253	0.0158308
676.331	0.0157281
676.409	0.0155201
676.487	0.0158191
676.565	0.0159280
676.643	0.0159002
676.721	0.0159576
676.799	0.0160509
676.878	0.0161886
676.956	0.0162127
677.034	0.0160483
677.112	0.0161186
677.190	0.0161268
677.268	0.0160951
677.346	0.0160890
677.424	0.0161398
677.503	0.0159708
677.581	0.0159625
677.659	0.0159275
677.737	0.0158201
677.815	0.0159188
677.893	0.0159109
677.971	0.0158354
678.049	0.0157899
678.128	0.0157703
678.206	0.0158480
678.284	0.0157208
678.362	0.0157005
678.440	0.0156520
678.518	0.0156341
678.596	0.0156615
678.674	0.0155235
678.753	0.0155901
678.831	0.0157187
678.909	0.0156125
678.987	0.0155847
679.065	0.0155478
679.143	0.0154948
679.221	0.0155039
679.299	0.0155542
679.378	0.0155348
679.456	0.0154732
679.534	0.0155595
679.612	0.0154419
679.690	0.0157058
679.768	0.0156651
679.846	0.0157561
679.924	0.0156045
680.003	0.0156291
680.081	0.0157425
680.159	0.0155966
680.237	0.0155894
680.315	0.0155136
680.393	0.0155312
680.471	0.0155598
680.549	0.0155437
680.628	0.0154860
680.706	0.0154743
680.784	0.0154753
680.862	0.0157147
680.940	0.0156549
681.018	0.0157169
681.096	0.0156825
681.174	0.0157089
681.253	0.0157264
681.331	0.0159051
681.409	0.0160001
681.487	0.0158164
681.565	0.0159512
681.643	0.0158403
681.721	0.0158408
681.799	0.0158080
681.878	0.0158876
681.956	0.0159418
682.034	0.0158895
682.112	0.0159776
682.190	0.0158195
682.268	0.0158380
682.346	0.0158437
682.424	0.0157293
682.503	0.0158662
682.581	0.0158076
682.659	0.0157697
682.737	0.0157256
682.815	0.0157730
682.893	0.0157887
682.971	0.0157233
683.049	0.0158347
683.128	0.0156408
683.206	0.0157159
683.284	0.0157141
683.362	0.0157378
683.440	0.0157525
683.518	0.0156461
683.596	0.0156569
683.674	0.0154902
683.753	0.0155865
683.831	0.0154374
683.909	0.0155543
683.987	0.0155044
684.065	0.0153491
684.143	0.0155534
684.221	0.0156442
684.299	0.0155842
684.378	0.0156661
684.456	0.0156450
684.534	0.0156916
684.612	0.0156898
684.690	0.0158641
684.768	0.0158470
684.846	0.0158482
684.924	0.0159274
685.003	0.0159908
685.081	0.0158174
685.159	0.0158862
685.237	0.0158183
685.315	0.0157217
685.393	0.0155851
685.471	0.0157367
685.549	0.0156900
685.628	0.0155024
685.706	0.0156504
685.784	0.0154549
685.862	0.0154779
685.940	0.0153702
686.018	0.0154621
686.096	0.0154404
686.174	0.0155670
686.253	0.0157251
686.331	0.0156150
686.409	0.0157026
686.487	0.0155995
686.565	0.0157005
686.643	0.0155893
686.721	0.0157180
686.799	0.0156843
686.878	0.0157704
686.956	0.0157307
687.034	0.0156104
687.112	0.0156577
687.190	0.0157960
687.268	0.0157233
687.346	0.0157739
687.424	0.0156930
687.503	0.0156699
687.581	0.0156016
687.659	0.0157201
687.737	0.0157555
687.815	0.0157330
687.893	0.0159075
687.971	0.0157821
688.049	0.0157426
688.128	0.0157807
688.206	0.0157794
688.284	0.0158558
688.362	0.0158733
688.440	0.0157510
688.518	0.0155959
688.596	0.0155328
688.674	0.0156511
688.753	0.0158190
688.831	0.0155453
688.909	0.0157039
688.987	0.0156345
689.065	0.0156863
689.143	0.0156067
689.221	0.0157567
689.299	0.0155793
689.378	0.0155576
689.456	0.0156324
689.534	0.0157165
689.612	0.0157268
689.690	0.0156189
689.768	0.0157203
689.846	0.0155336
689.924	0.0156105
690.003	0.0155825
690.081	0.0156358
690.159	0.0155280
690.237	0.0154879
690.315	0.0156329
690.393	0.0154896
690.471	0.0155485
690.549	0.0156757
690.628	0.0156387
690.706	0.0157607
690.784	0.0158820
690.862	0.0156288
690.940	0.0158741
691.018	0.0157880
691.096	0.0158131
691.174	0.0158127
691.253	0.0159296
691.331	0.0159170
691.409	0.0157870
691.487	0.0157526
691.565	0.0158300
691.643	0.0157387
691.721	0.0155276
691.799	0.0157059
691.878	0.0155661
691.956	0.0155968
692.034	0.0156511
692.112	0.0155154
692.190	0.0154591
692.268	0.0154442
692.346	0.0155833
692.424	0.0155137
692.503	0.0155560
692.581	0.0155032
692.659	0.0155258
692.737	0.0156375
692.815	0.0156787
692.893	0.0158087
692.971	0.0158789
693.049	0.0158814
693.128	0.0159459
693.206	0.0159391
693.284	0.0159718
693.362	0.0161024
693.440	0.0159307
693.518	0.0161069
693.596	0.0160546
693.674	0.0159944
693.753	0.0160075
693.831	0.0160381
693.909	0.0159921
693.987	0.0158006
694.065	0.0160316
694.143	0.0158485
694.221	0.0157497
694.299	0.0156304
694.378	0.0156589
694.456	0.0156392
694.534	0.0156302
694.612	0.0155843
694.690	0.0156976
694.768	0.0158115
694.846	0.0157186
694.924	0.0156175
695.003	0.0156835
695.081	0.0156830
695.159	0.0156604
695.237	0.0157121
695.315	0.0155783
695.393	0.0155888
695.471	0.0155075
695.549	0.0154705
695.628	0.0155615
695.706	0.0155377
695.784	0.0154819
695.862	0.0154178
695.940	0.0154723
696.018	0.0152670
696.096	0.0153501
696.174	0.0153499
696.253	0.0152994
696.331	0.0155002
696.409	0.0154611
696.487	0.0155482
696.565	0.0155805
696.643	0.0156926
696.721	0.0157616
696.799	0.0158243
696.878	0.0158755
696.956	0.0157780
697.034	0.0159433
697.112	0.0160539
697.190	0.0160459
697.268	0.0160177
697.346	0.0160493
697.424	0.0160172
697.503	0.0159761
697.581	0.0159824
697.659	0.0160854
697.737	0.0159958
697.815	0.0160201
697.893	0.0160098
697.971	0.0159525
698.049	0.0159653
698.128	0.0159804
698.206	0.0159686
698.284	0.0156902
698.362	0.0156898
698.440	0.0155750
698.518	0.0157687
698.596	0.0157899
698.674	0.0157220
698.753	0.0155820
698.831	0.0156747
698.909	0.0156442
698.987	0.0157061
699.065	0.0156837
699.143	0.0155684
699.221	0.0156941
699.299	0.0156931
699.378	0.0157089
699.456	0.0156857
699.534	0.0155566
699.612	0.0155187
699.690	0.0155708
699.768	0.0157083
699.846	0.0156748
699.924	0.0156735
700.003	0.0157613
700.081	0.0158504
700.159	0.0156889
700.237	0.0158274
700.315	0.0158190
700.393	0.0157486
700.471	0.0158380
700.549	0.0158361
700.628	0.0160002
700.706	0.0159695
700.784	0.0157007
700.862	0.0158973
700.940	0.0158899
701.018	0.0157994
701.096	0.0158097
701.174	0.0157766
701.253	0.0157708
701.331	0.0157693
701.409	0.0157500
701.487	0.0156853
701.565	0.0155968
701.643	0.0156744
701.721	0.0157973
701.799	0.0158615
701.878	0.0158862
701.956	0.0157049
702.034	0.0158274
702.112	0.0157352
702.190	0.0158798
702.268	0.0158710
702.346	0.0159047
702.424	0.0158707
702.503	0.0158363
702.581	0.0159889
702.659	0.0158594
702.737	0.0157178
702.815	0.0157374
702.893	0.0156129
702.971	0.0155190
703.049	0.0154752
703.128	0.0155324
703.206	0.0155527
703.284	0.0154201
703.362	0.0154975
703.440	0.0153760
703.518	0.0154732
703.596	0.0154715
703.674	0.0154300
703.753	0.0153856
703.831	0.0154113
703.909	0.0153950
703.987	0.0154867
704.065	0.0154759
704.143	0.0155467
704.221	0.0156573
704.299	0.0155291
704.378	0.0157207
704.456	0.0156232
704.534	0.0156569
704.612	0.0157804
704.690	0.0158653
704.768	0.0157476
704.846	0.0158665
704.924	0.0158421
705.003	0.0157468
705.081	0.0159093
705.159	0.0159338
705.237	0.0158459
705.315	0.0158044
705.393	0.0158727
705.471	0.0158260
705.549	0.0157604
705.628	0.0156915
705.706	0.0156300
705.784	0.0157985
705.862	0.0155653
705.940	0.0154877
706.018	0.0156432
706.096	0.0154813
706.174	0.0155836
706.253	0.0157251
706.331	0.0156065
706.409	0.0156919
706.487	0.0157217
706.565	0.0157894
706.643	0.0157291
706.721	0.0158572
706.799	0.0157674
706.878	0.0157276
706.956	0.0157705
707.034	0.0157027
707.112	0.0158656
707.190	0.0156651
707.268	0.0156676
707.346	0.0156466
707.424	0.0155915
707.503	0.0156528
707.581	0.0155390
707.659	0.0154937
707.737	0.0155951
707.815	0.0156258
707.893	0.0156269
707.971	0.0156474
708.049	0.0156767
708.128	0.0157879
708.206	0.0156863
708.284	0.0158908
708.362	0.0158206
708.440	0.0158151
708.518	0.0158386
708.596	0.0157777
708.674	0.0158160
708.753	0.0156981
708.831	0.0158769
708.909	0.0156995
708.987	0.0156569
709.065	0.0156064
709.143	0.0158504
709.221	0.0156188
709.299	0.0157152
709.378	0.0157584
709.456	0.0156805
709.534	0.0157530
709.612	0.0158862
709.690	0.0158730
709.768	0.0157284
709.846	0.0157312
709.924	0.0158698
710.003	0.0157400
710.081	0.0158332
710.159	0.0157573
710.237	0.0156216
710.315	0.0157666
710.393	0.0156831
710.471	0.0156706
710.549	0.0157304
710.628	0.0157676
710.706	0.0156595
710.784	0.0156002
710.862	0.0156522
710.940	0.0156340
711.018	0.0157956
711.096	0.0156623
711.174	0.0156150
711.253	0.0155800
711.331	0.0156339
711.409	0.0155609
711.487	0.0157251
711.565	0.0157178
711.643	0.0156052
711.721	0.0156208
711.799	0.0156447
711.878	0.0156339
711.956	0.0156606
712.034	0.0156643
712.112	0.0156091
712.190	0.0156863
712.268	0.0155029
712.346	0.0155515
712.424	0.0157994
712.503	0.0157312
712.581	0.0156369
712.659	0.0156005
712.737	0.0158176
712.815	0.0158114
712.893	0.0158620
712.971	0.0158495
713.049	0.0158308
713.128	0.0159325
713.206	0.0159416
713.284	0.0159705
713.362	0.0158913
713.440	0.0159095
713.518	0.0158113
713.596	0.0157962
713.674	0.0158813
713.753	0.0159628
713.831	0.0157794
713.909	0.0158165
713.987	0.0156519
714.065	0.0157574
714.143	0.0158652
714.221	0.0157738
714.299	0.0158625
714.378	0.0158472
714.456	0.0157690
714.534	0.0159188
714.612	0.0157879
714.690	0.0158973
714.768	0.0158618
714.846	0.0156691
714.924	0.0159173
715.003	0.0159507
715.081	0.0157810
715.159	0.0159290
715.237	0.0158759
715.315	0.0158263
715.393	0.0157769
715.471	0.0159034
715.549	0.0157370
715.628	0.0159030
715.706	0.0158862
715.784	0.0158360
715.862	0.0158161
715.940	0.0155874
716.018	0.0157175
716.096	0.0156770
716.174	0.0158326
716.253	0.0158054
716.331	0.0158187
716.409	0.0155396
716.487	0.0155847
716.565	0.0156200
716.643	0.0157749
716.721	0.0156820
716.799	0.0157188
716.878	0.0156792
716.956	0.0157706
717.034	0.0157210
717.112	0.0157533
717.190	0.0157220
717.268	0.0158498
717.346	0.0157594
717.424	0.0157649
717.503	0.0157382
717.581	0.0157391
717.659	0.0157440
717.737	0.0157970
717.815	0.0158134
717.893	0.0156824
717.971	0.0157529
718.049	0.0156042
718.128	0.0157759
718.206	0.0157613
718.284	0.0156841
718.362	0.0155087
718.440	0.0155773
718.518	0.0157330
718.596	0.0156419
718.674	0.0156412
718.753	0.0156858
718.831	0.0156618
718.909	0.0156567
718.987	0.0157249
719.065	0.0157901
719.143	0.0157557
719.221	0.0157558
719.299	0.0156670
719.378	0.0155950
719.456	0.0156123
719.534	0.0158077
719.612	0.0155647
719.690	0.0156383
719.768	0.0156079
719.846	0.0158231
719.924	0.0157120
720.003	0.0156776
720.081	0.0157872
720.159	0.0156837
720.237	0.0156968
720.315	0.0157001
720.393	0.0159278
720.471	0.0158049
720.549	0.0157830
720.628	0.0159073
720.706	0.0157861
720.784	0.0159930
720.862	0.0160361
720.940	0.0159941
721.018	0.0159195
721.096	0.0158839
721.174	0.0158343
721.253	0.0158487
721.331	0.0158979
721.409	0.0157845
721.487	0.0158334
721.565	0.0158238
721.643	0.0158182
721.721	0.0157631
721.799	0.0157669
721.878	0.0158607
721.956	0.0159000
722.034	0.0158097
722.112	0.0156100
722.190	0.0157215
722.268	0.0157310
722.346	0.0157513
722.424	0.0157520
722.503	0.0157492
722.581	0.0158804
722.659	0.0159093
722.737	0.0157912
722.815	0.0156542
722.893	0.0158454
722.971	0.0158504
723.049	0.0158978
723.128	0.0157131
723.206	0.0158025
723.284	0.0157587
723.362	0.0155851
723.440	0.0156353
723.518	0.0156749
723.596	0.0155537
723.674	0.0155909
723.753	0.0156702
723.831	0.0155383
723.909	0.0155867
723.987	0.0156521
724.065	0.0156425
724.143	0.0156468
724.221	0.0157607
724.299	0.0157678
724.378	0.0157236
724.456	0.0158085
724.534	0.0158347
724.612	0.0158511
724.690	0.0157607
724.768	0.0159921
724.846	0.0157624
724.924	0.0157793
725.003	0.0157462
725.081	0.0158850
725.159	0.0157143
725.237	0.0158056
725.315	0.0155784
725.393	0.0155968
725.471	0.0157430
725.549	0.0155604
725.628	0.0154971
725.706	0.0155321
725.784	0.0154971
725.862	0.0154472
725.940	0.0154748
726.018	0.0155074
726.096	0.0154595
726.174	0.0155379
726.253	0.0155739
726.331	0.0156004
726.409	0.0156384
726.487	0.0156985
726.565	0.0157163
726.643	0.0156062
726.721	0.0155383
726.799	0.0156373
726.878	0.0157137
726.956	0.0156981
727.034	0.0157293
727.112	0.0156588
727.190	0.0155865
727.268	0.0157978
727.346	0.0157340
727.424	0.0157633
727.503	0.0157542
727.581	0.0156504
727.659	0.0156360
727.737	0.0157829
727.815	0.0157902
727.893	0.0157484
727.971	0.0157423
728.049	0.0157669
728.128	0.0157581
728.206	0.0159398
728.284	0.0160542
728.362	0.0160387
728.440	0.0159652
728.518	0.0161006
728.596	0.0161073
728.674	0.0160402
728.753	0.0159123
728.831	0.0160614
728.909	0.0159289
728.987	0.0159731
729.065	0.0159361
729.143	0.0160615
729.221	0.0158880
729.299	0.0158458
729.378	0.0158708
729.456	0.0160106
729.534	0.0157774
729.612	0.0158657
729.690	0.0159276
729.768	0.0159531
729.846	0.0159275
729.924	0.0158938
730.003	0.0160136
730.081	0.0158467
730.159	0.0158966
730.237	0.0159000
730.315	0.0159254
730.393	0.0159010
730.471	0.0159246
730.549	0.0158327
730.628	0.0157233
730.706	0.0158804
730.784	0.0157447
730.862	0.0157512
730.940	0.0157993
731.018	0.0157697
731.096	0.0157312
731.174	0.0156773
731.253	0.0157002
731.331	0.0155919
731.409	0.0155328
731.487	0.0156729
731.565	0.0157600
731.643	0.0156586
731.721	0.0157495
731.799	0.0157409
731.878	0.0156813
731.956	0.0157153
732.034	0.0156172
732.112	0.0158459
732.190	0.0159007
732.268	0.0159124
732.346	0.0158553
732.424	0.0158627
732.503	0.0158479
732.581	0.0157673
732.659	0.0157048
732.737	0.0158518
732.815	0.0157499
732.893	0.0157697
732.971	0.0158936
733.049	0.0157188
733.128	0.0157693
733.206	0.0157902
733.284	0.0157626
733.362	0.0157683
733.440	0.0157182
733.518	0.0157260
733.596	0.0156480
733.674	0.0156564
733.753	0.0157216
733.831	0.0156990
733.909	0.0155969
733.987	0.0158637
734.065	0.0156741
734.143	0.0155466
734.221	0.0156748
734.299	0.0157335
734.378	0.0157170
734.456	0.0157397
734.534	0.0157952
734.612	0.0157321
734.690	0.0157291
734.768	0.0155991
734.846	0.0156136
734.924	0.0157917
735.003	0.0156982
735.081	0.0158117
735.159	0.0157746
735.237	0.0158370
735.315	0.0157807
735.393	0.0158172
735.471	0.0157210
735.549	0.0156837
735.628	0.0158057
735.706	0.0157457
735.784	0.0157785
735.862	0.0159741
735.940	0.0157351
736.018	0.0158518
736.096	0.0158971
736.174	0.0158507
736.253	0.0159322
736.331	0.0158602
736.409	0.0159447
736.487	0.0158418
736.565	0.0158413
736.643	0.0160069
736.721	0.0159577
736.799	0.0158488
736.878	0.0159203
736.956	0.0158881
737.034	0.0159037
737.112	0.0160327
737.190	0.0159628
737.268	0.0159241
737.346	0.0158146
737.424	0.0158646
737.503	0.0158633
737.581	0.0158224
737.659	0.0158891
737.737	0.0159860
737.815	0.0158115
737.893	0.0158138
737.971	0.0157567
738.049	0.0159053
738.128	0.0158810
738.206	0.0159046
738.284	0.0158906
738.362	0.0157245
738.440	0.0157755
738.518	0.0158789
738.596	0.0157235
738.674	0.0156647
738.753	0.0157173
738.831	0.0157831
738.909	0.0157560
738.987	0.0157392
739.065	0.0155733
739.143	0.0158694
739.221	0.0158139
739.299	0.0157587
739.378	0.0156658
739.456	0.0157099
739.534	0.0157304
739.612	0.0156662
739.690	0.0157716
739.768	0.0156998
739.846	0.0155092
739.924	0.0155294
740.003	0.0156625
740.081	0.0156263
740.159	0.0155224
740.237	0.0154651
740.315	0.0155936
740.393	0.0155974
740.471	0.0156371
740.549	0.0155138
740.628	0.0155479
740.706	0.0154965
740.784	0.0156085
740.862	0.0156730
740.940	0.0155916
741.018	0.0155612
741.096	0.0156900
741.174	0.0156169
741.253	0.0156479
741.331	0.0156713
741.409	0.0157147
741.487	0.0154736
741.565	0.0155536
741.643	0.0156245
741.721	0.0155100
741.799	0.0154883
741.878	0.0155501
741.956	0.0156140
742.034	0.0154822
742.112	0.0155537
742.190	0.0155927
742.268	0.0155857
742.346	0.0155897
742.424	0.0156026
742.503	0.0156564
742.581	0.0157112
742.659	0.0156866
742.737	0.0156454
742.815	0.0158294
742.893	0.0157094
742.971	0.0157664
743.049	0.0158064
743.128	0.0158868
743.206	0.0158539
743.284	0.0157372
743.362	0.0157926
743.440	0.0158612
743.518	0.0156879
743.596	0.0159417
743.674	0.0159437
743.753	0.0160004
743.831	0.0158610
743.909	0.0158469
743.987	0.0159662
744.065	0.0161316
744.143	0.0159675
744.221	0.0159135
744.299	0.0159946
744.378	0.0159460
744.456	0.0158900
744.534	0.0161065
744.612	0.0160365
744.690	0.0159719
744.768	0.0159975
744.846	0.0160958
744.924	0.0159409
745.003	0.0158237
745.081	0.0160123
745.159	0.0158801
745.237	0.0158887
745.315	0.0158857
745.393	0.0158577
745.471	0.0158933
745.549	0.0158405
745.628	0.0157835
745.706	0.0156950
745.784	0.0157217
745.862	0.0157898
745.940	0.0158028
746.018	0.0157261
746.096	0.0157528
746.174	0.0158885
746.253	0.0157281
746.331	0.0155600
746.409	0.0156525
746.487	0.0157711
746.565	0.0156787
746.643	0.0158051
746.721	0.0156736
746.799	0.0157405
746.878	0.0156357
746.956	0.0155898
747.034	0.0156716
747.112	0.0156517
747.190	0.0156357
747.268	0.0155583
747.346	0.0157243
747.424	0.0155920
747.503	0.0156856
747.581	0.0156350
747.659	0.0155608
747.737	0.0154412
747.815	0.0155272
747.893	0.0155499
747.971	0.0154346
748.049	0.0155735
748.128	0.0155501
748.206	0.0155215
748.284	0.0153796
748.362	0.0155479
748.440	0.0156454
748.518	0.0156065
748.596	0.0155250
748.674	0.0155519
748.753	0.0154451
748.831	0.0156322
748.909	0.0155927
748.987	0.0156472
749.065	0.0155265
749.143	0.0155143
749.221	0.0156203
749.299	0.0156356
749.378	0.0155347
749.456	0.0156384
749.534	0.0156464
749.612	0.0155591
749.690	0.0155480
749.768	0.0156651
749.846	0.0157049
749.924	0.0156249
750.003	0.0156743
750.081	0.0157507
750.159	0.0158376
750.237	0.0157399
750.315	0.0157961
750.393	0.0157265
750.471	0.0158529
750.549	0.0158375
750.628	0.0158894
750.706	0.0158453
750.784	0.0159424
750.862	0.0158699
750.940	0.0158533
751.018	0.0159084
751.096	0.0158530
751.174	0.0158720
751.253	0.0158392
751.331	0.0158979
751.409	0.0160242
751.487	0.0159365
751.565	0.0159401
751.643	0.0159239
751.721	0.0159235
751.799	0.0159378
751.878	0.0158420
751.956	0.0159452
752.034	0.0159481
752.112	0.0159234
752.190	0.0158283
752.268	0.0158211
752.346	0.0159278
752.424	0.0158836
752.503	0.0159581
752.581	0.0160487
752.659	0.0158838
752.737	0.0158772
752.815	0.0159895
752.893	0.0159935
752.971	0.0160437
753.049	0.0157890
753.128	0.0159738
753.206	0.0159776
753.284	0.0158669
753.362	0.0157878
753.440	0.0158429
753.518	0.0158378
753.596	0.0158263
753.674	0.0156795
753.753	0.0157516
753.831	0.0157871
753.909	0.0156859
753.987	0.0156123
754.065	0.0156290
754.143	0.0156053
754.221	0.0156717
754.299	0.0156301
754.378	0.0155253
754.456	0.0157481
754.534	0.0155296
754.612	0.0155325
754.690	0.0155332
754.768	0.0155556
754.846	0.0155879
754.924	0.0155424
755.003	0.0154427
755.081	0.0155277
755.159	0.0154852
755.237	0.0154964
755.315	0.0155908
755.393	0.0154317
755.471	0.0155239
755.549	0.0155233
755.628	0.0154314
755.706	0.0155630
755.784	0.0155042
755.862	0.0156438
755.940	0.0156071
756.018	0.0155700
756.096	0.0156007
756.174	0.0155447
756.253	0.0156418
756.331	0.0155773
756.409	0.0156055
756.487	0.0156847
756.565	0.0157363
756.643	0.0156717
756.721	0.0158309
756.799	0.0159169
756.878	0.0158062
756.956	0.0156533
757.034	0.0157226
757.112	0.0159007
757.190	0.0157526
757.268	0.0158854
757.346	0.0158458
757.424	0.0158399
757.503	0.0157980
757.581	0.0159058
757.659	0.0158430
757.737	0.0158238
757.815	0.0156236
757.893	0.0157777
757.971	0.0158386
758.049	0.0158587
758.128	0.0158621
758.206	0.0156365
758.284	0.0156544
758.362	0.0158459
758.440	0.0159816
758.518	0.0158472
758.596	0.0158307
758.674	0.0157914
758.753	0.0159359
758.831	0.0158607
758.909	0.0158917
758.987	0.0159045
759.065	0.0158579
759.143	0.0159983
759.221	0.0159058
759.299	0.0159770
759.378	0.0160555
759.456	0.0160023
759.534	0.0159821
759.612	0.0158823
759.690	0.0159628
759.768	0.0158440
759.846	0.0158919
759.924	0.0159573
760.003	0.0159985
760.081	0.0160524
760.159	0.0159572
760.237	0.0159579
760.315	0.0161525
760.393	0.0159334
760.471	0.0160686
760.549	0.0161289
760.628	0.0159073
760.706	0.0159318
760.784	0.0159695
760.862	0.0159479
760.940	0.0161360
761.018	0.0159729
761.096	0.0157806
761.174	0.0159837
761.253	0.0159438
761.331	0.0159310
761.409	0.0158293
761.487	0.0159818
761.565	0.0157436
761.643	0.0158727
761.721	0.0157640
761.799	0.0157426
761.878	0.0157049
761.956	0.0157862
762.034	0.0157629
762.112	0.0156300
762.190	0.0155902
762.268	0.0156942
762.346	0.0157500
762.424	0.0156814
762.503	0.0156947
762.581	0.0156654
762.659	0.0157272
762.737	0.0155994
762.815	0.0154613
762.893	0.0154073
762.971	0.0154130
763.049	0.0154356
763.128	0.0154739
763.206	0.0153185
763.284	0.0154243
763.362	0.0153527
763.440	0.0152621
763.518	0.0154294
763.596	0.0153659
763.674	0.0154510
763.753	0.0155508
763.831	0.0155840
763.909	0.0155923
763.987	0.0155886
764.065	0.0157061
764.143	0.0155250
764.221	0.0155434
764.299	0.0155070
764.378	0.0157957
764.456	0.0156145
764.534	0.0155920
764.612	0.0155866
764.690	0.0155637
764.768	0.0156506
764.846	0.0155604
764.924	0.0155177
765.003	0.0157114
765.081	0.0156591
765.159	0.0156933
765.237	0.0155780
765.315	0.0156763
765.393	0.0157517
765.471	0.0157291
765.549	0.0157997
765.628	0.0159191
765.706	0.0158992
765.784	0.0158712
765.862	0.0157412
765.940	0.0158376
766.018	0.0157840
766.096	0.0158624
766.174	0.0157014
766.253	0.0157229
766.331	0.0158297
766.409	0.0158622
766.487	0.0159396
766.565	0.0159312
766.643	0.0157932
766.721	0.0159185
766.799	0.0158586
766.878	0.0158691
766.956	0.0159676
767.034	0.0159421
767.112	0.0160292
767.190	0.0160014
767.268	0.0158873
767.346	0.0158846
767.424	0.0159780
767.503	0.0160441
767.581	0.0159918
767.659	0.0159608
767.737	0.0158885
767.815	0.0159497
767.893	0.0160335
767.971	0.0158962
768.049	0.0159043
768.128	0.0159786
768.206	0.0158083
768.284	0.0158672
768.362	0.0158668
768.440	0.0159229
768.518	0.0158057
768.596	0.0158278
768.674	0.0159041
768.753	0.0158244
768.831	0.0157749
768.909	0.0157659
768.987	0.0158308
769.065	0.0158138
769.143	0.0156995
769.221	0.0156686
769.299	0.0156291
769.378	0.0158158
769.456	0.0157484
769.534	0.0157562
769.612	0.0156488
769.690	0.0156292
769.768	0.0157045
769.846	0.0157143
769.924	0.0156679
770.003	0.0156031
770.081	0.0157082
770.159	0.0156290
770.237	0.0156211
770.315	0.0154827
770.393	0.0156301
770.471	0.0155029
770.549	0.0155540
770.628	0.0156610
770.706	0.0155749
770.784	0.0154686
770.862	0.0156843
770.940	0.0154935
771.018	0.0154594
771.096	0.0154633
771.174	0.0157085
771.253	0.0155775
771.331	0.0155892
771.409	0.0155404
771.487	0.0157331
771.565	0.0157169
771.643	0.0155885
771.721	0.0155500
771.799	0.0157384
771.878	0.0157800
771.956	0.0156958
772.034	0.0156477
772.112	0.0157835
772.190	0.0156362
772.268	0.0157155
772.346	0.0158590
772.424	0.0156846
772.503	0.0156326
772.581	0.0157088
772.659	0.0156048
772.737	0.0157188
772.815	0.0155429
772.893	0.0157240
772.971	0.0158070
773.049	0.0155800
773.128	0.0156101
773.206	0.0157547
773.284	0.0158041
773.362	0.0156554
773.440	0.0156756
773.518	0.0157492
773.596	0.0158377
773.674	0.0158249
773.753	0.0157500
773.831	0.0158005
773.909	0.0158023
773.987	0.0159404
774.065	0.0158549
774.143	0.0158339
774.221	0.0160194
774.299	0.0159263
774.378	0.0158085
774.456	0.0158500
774.534	0.0160004
774.612	0.0159940
774.690	0.0158659
774.768	0.0158886
774.846	0.0157661
774.924	0.0159039
775.003	0.0160605
775.081	0.0158710
775.159	0.0158653
775.237	0.0158813
775.315	0.0157403
775.393	0.0157634
775.471	0.0156303
775.549	0.0158058
775.628	0.0158481
775.706	0.0157235
775.784	0.0157942
775.862	0.0158971
775.940	0.0158835
776.018	0.0157734
776.096	0.0156569
776.174	0.0156961
776.253	0.0156966
776.331	0.0158437
776.409	0.0158044
776.487	0.0156592
776.565	0.0157359
776.643	0.0156904
776.721	0.0157372
776.799	0.0156029
776.878	0.0157472
776.956	0.0156551
777.034	0.0155560
777.112	0.0155564
777.190	0.0156269
777.268	0.0156806
777.346	0.0158021
777.424	0.0156273
777.503	0.0156344
777.581	0.0156509
777.659	0.0156909
777.737	0.0155144
777.815	0.0155971
777.893	0.0156398
777.971	0.0156207
778.049	0.0156789
778.128	0.0157650
778.206	0.0156054
778.284	0.0156174
778.362	0.0156322
778.440	0.0156139
778.518	0.0156236
778.596	0.0157618
778.674	0.0156968
778.753	0.0156686
778.831	0.0157357
778.909	0.0157075
778.987	0.0159480
779.065	0.0159000
779.143	0.0158012
779.221	0.0159317
779.299	0.0158322
779.378	0.0157448
779.456	0.0157765
779.534	0.0157806
779.612	0.0158236
779.690	0.0157932
779.768	0.0158410
779.846	0.0157272
779.924	0.0158012
780.003	0.0157332
780.081	0.0158006
780.159	0.0157235
780.237	0.0158566
780.315	0.0157167
780.393	0.0156904
780.471	0.0157342
780.549	0.0159284
780.628	0.0157003
780.706	0.0156875
780.784	0.0158305
780.862	0.0158344
780.940	0.0158537
781.018	0.0158516
781.096	0.0157727
781.174	0.0157542
781.253	0.0156598
781.331	0.0157372
781.409	0.0157462
781.487	0.0156303
781.565	0.0157561
781.643	0.0158339
781.721	0.0157639
781.799	0.0156216
781.878	0.0156145
781.956	0.0157197
782.034	0.0157528
782.112	0.0156596
782.190	0.0156277
782.268	0.0157908
782.346	0.0158586
782.424	0.0157954
782.503	0.0159006
782.581	0.0157753
782.659	0.0158472
782.737	0.0157494
782.815	0.0157082
782.893	0.0157964
782.971	0.0156857
783.049	0.0156111
783.128	0.0158260
783.206	0.0157374
783.284	0.0158293
783.362	0.0158849
783.440	0.0159191
783.518	0.0158079
783.596	0.0158084
783.674	0.0159174
783.753	0.0159228
783.831	0.0158865
783.909	0.0159672
783.987	0.0159273
784.065	0.0158759
784.143	0.0159470
784.221	0.0156789
784.299	0.0158326
784.378	0.0157718
784.456	0.0158238
784.534	0.0158373
784.612	0.0158947
784.690	0.0158512
784.768	0.0159089
784.846	0.0157764
784.924	0.0156700
785.003	0.0157689
785.081	0.0157656
785.159	0.0157687
785.237	0.0157400
785.315	0.0157599
785.393	0.0157085
785.471	0.0157932
785.549	0.0156485
785.628	0.0157053
785.706	0.0157077
785.784	0.0157576
785.862	0.0157175
785.940	0.0157639
786.018	0.0158890
786.096	0.0157178
786.174	0.0156905
786.253	0.0158125
786.331	0.0158237
786.409	0.0157299
786.487	0.0156854
786.565	0.0157933
786.643	0.0157152
786.721	0.0157616
786.799	0.0157137
786.878	0.0158238
786.956	0.0157696
787.034	0.0157174
787.112	0.0156772
787.190	0.0157379
787.268	0.0157611
787.346	0.0157718
787.424	0.0157492
787.503	0.0157034
787.581	0.0157446
787.659	0.0155993
787.737	0.0155805
787.815	0.0156229
787.893	0.0157105
787.971	0.0156582
788.049	0.0156653
788.128	0.0157605
788.206	0.0156210
788.284	0.0157899
788.362	0.0156906
788.440	0.0156202
788.518	0.0156052
788.596	0.0156520
788.674	0.0156013
788.753	0.0156641
788.831	0.0156139
788.909	0.0156197
788.987	0.0156847
789.065	0.0157594
789.143	0.0156351
789.221	0.0155888
789.299	0.0156147
789.378	0.0157565
789.456	0.0157220
789.534	0.0157521
789.612	0.0157874
789.690	0.0157567
789.768	0.0158709
789.846	0.0158033
789.924	0.0157433
790.003	0.0158264
790.081	0.0159339
790.159	0.0158375
790.237	0.0158702
790.315	0.0160603
790.393	0.0157746
790.471	0.0158365
790.549	0.0159623
790.628	0.0160715
790.706	0.0159631
790.784	0.0158940
790.862	0.0159634
790.940	0.0159365
791.018	0.0159373
791.096	0.0158692
791.174	0.0160649
791.253	0.0158713
791.331	0.0158427
791.409	0.0160167
791.487	0.0159800
791.565	0.0160085
791.643	0.0159220
791.721	0.0160435
791.799	0.0159714
791.878	0.0159015
791.956	0.0159997
792.034	0.0159351
792.112	0.0159225
792.190	0.0159373
792.268	0.0157906
792.346	0.0159064
792.424	0.0159549
792.503	0.0158647
792.581	0.0158084
792.659	0.0157656
792.737	0.0158385
792.815	0.0160601
792.893	0.0159160
792.971	0.0158153
793.049	0.0158392
793.128	0.0159035
793.206	0.0158138
793.284	0.0158771
793.362	0.0158003
793.440	0.0158742
793.518	0.0158473
793.596	0.0157183
793.674	0.0156773
793.753	0.0156449
793.831	0.0157010
793.909	0.0156355
793.987	0.0156248
794.065	0.0157015
794.143	0.0157968
794.221	0.0157790
794.299	0.0156774
794.378	0.0157093
794.456	0.0156230
794.534	0.0157732
794.612	0.0155821
794.690	0.0156220
794.768	0.0157281
794.846	0.0156965
794.924	0.0156261
795.003	0.0158312
795.081	0.0157185
795.159	0.0155714
795.237	0.0156422
795.315	0.0156538
795.393	0.0156181
795.471	0.0157238
795.549	0.0155941
795.628	0.0156577
795.706	0.0157906
795.784	0.0158084
795.862	0.0156785
795.940	0.0155558
796.018	0.0156991
796.096	0.0157991
796.174	0.0158052
796.253	0.0157386
796.331	0.0157725
796.409	0.0157203
796.487	0.0157430
796.565	0.0156844
796.643	0.0157094
796.721	0.0157727
796.799	0.0158321
796.878	0.0157954
796.956	0.0157097
797.034	0.0155477
797.112	0.0158407
797.190	0.0158524
797.268	0.0156824
797.346	0.0156867
797.424	0.0158186
797.503	0.0157869
797.581	0.0158228
797.659	0.0159566
797.737	0.0157544
797.815	0.0158829
797.893	0.0158365
797.971	0.0158759
798.049	0.0156768
798.128	0.0158888
798.206	0.0158215
798.284	0.0157829
798.362	0.0158432
798.440	0.0156838
798.518	0.0158421
798.596	0.0157324
798.674	0.0156121
798.753	0.0157941
798.831	0.0157910
798.909	0.0157874
798.987	0.0156410
799.065	0.0158783
799.143	0.0156788
799.221	0.0157547
799.299	0.0157448
799.378	0.0157821
799.456	0.0157685
799.534	0.0157483
799.612	0.0159013
799.690	0.0157689
799.768	0.0158958
799.846	0.0158298
799.924	0.0158973
800.003	0.0158130
800.081	0.0157668
800.159	0.0159361
800.237	0.0158165
800.315	0.0158086
800.393	0.0157906
800.471	0.0156615
800.549	0.0158311
800.628	0.0157644
800.706	0.0156635
800.784	0.0157729
800.862	0.0157400
800.940	0.0158041
801.018	0.0157317
801.096	0.0158095
801.174	0.0156097
801.253	0.0157983
801.331	0.0157936
801.409	0.0156216
801.487	0.0157050
801.565	0.0155739
801.643	0.0156281
801.721	0.0156784
801.799	0.0156093
801.878	0.0156845
801.956	0.0156760
802.034	0.0156007
802.112	0.0157143
802.190	0.0157145
802.268	0.0155592
802.346	0.0157236
802.424	0.0157228
802.503	0.0155880
802.581	0.0156611
802.659	0.0156570
802.737	0.0156135
802.815	0.0156332
802.893	0.0155302
802.971	0.0155059
803.049	0.0156292
803.128	0.0156097
803.206	0.0156075
803.284	0.0156820
803.362	0.0156721
803.440	0.0155184
803.518	0.0155367
803.596	0.0156980
803.674	0.0156059
803.753	0.0156708
803.831	0.0157597
803.909	0.0157831
803.987	0.0156080
804.065	0.0156914
804.143	0.0158144
804.221	0.0157066
804.299	0.0157412
804.378	0.0154964
804.456	0.0157869
804.534	0.0156740
804.612	0.0156443
804.690	0.0156141
804.768	0.0156316
804.846	0.0156084
804.924	0.0156111
805.003	0.0156742
805.081	0.0156559
805.159	0.0156252
805.237	0.0156332
805.315	0.0157829
805.393	0.0156924
805.471	0.0156852
805.549	0.0157908
805.628	0.0156784
805.706	0.0157661
805.784	0.0157603
805.862	0.0158142
805.940	0.0157726
806.018	0.0159106
806.096	0.0158344
806.174	0.0157274
806.253	0.0157121
806.331	0.0158200
806.409	0.0159601
806.487	0.0158386
806.565	0.0158845
806.643	0.0158505
806.721	0.0158256
806.799	0.0158974
806.878	0.0157519
806.956	0.0158195
807.034	0.0159426
807.112	0.0158471
807.190	0.0160361
807.268	0.0159488
807.346	0.0159512
807.424	0.0158099
807.503	0.0158171
807.581	0.0161108
807.659	0.0159378
807.737	0.0160233
807.815	0.0159323
807.893	0.0158236
807.971	0.0158447
808.049	0.0157526
808.128	0.0157761
808.206	0.0158392
808.284	0.0158876
808.362	0.0158390
808.440	0.0158071
808.518	0.0156240
808.596	0.0158353
808.674	0.0158154
808.753	0.0157055
808.831	0.0157594
808.909	0.0157372
808.987	0.0156577
809.065	0.0157930
809.143	0.0156738
809.221	0.0157454
809.299	0.0156592
809.378	0.0157098
809.456	0.0158489
809.534	0.0157301
809.612	0.0157023
809.690	0.0157100
809.768	0.0156802
809.846	0.0156925
809.924	0.0157543
810.003	0.0156468
810.081	0.0157147
810.159	0.0156714
810.237	0.0156728
810.315	0.0157321
810.393	0.0156823
810.471	0.0155646
810.549	0.0156425
810.628	0.0157863
810.706	0.0157469
810.784	0.0157304
810.862	0.0156710
810.940	0.0156528
811.018	0.0158024
811.096	0.0157052
811.174	0.0156739
811.253	0.0158293
811.331	0.0158163
811.409	0.0157800
811.487	0.0157072
811.565	0.0158124
811.643	0.0157742
811.721	0.0157352
811.799	0.0158295
811.878	0.0159179
811.956	0.0156950
812.034	0.0157407
812.112	0.0157032
812.190	0.0158229
812.268	0.0159029
812.346	0.0156651
812.424	0.0157466
812.503	0.0157595
812.581	0.0158405
812.659	0.0158154
812.737	0.0156853
812.815	0.0157745
812.893	0.0158739
812.971	0.0158511
813.049	0.0157884
813.128	0.0158861
813.206	0.0157384
813.284	0.0156483
813.362	0.0158305
813.440	0.0158353
813.518	0.0158148
813.596	0.0157998
813.674	0.0157747
813.753	0.0158420
813.831	0.0159239
813.909	0.0157895
813.987	0.0158576
814.065	0.0159159
814.143	0.0158958
814.221	0.0158809
814.299	0.0158459
814.378	0.0157600
814.456	0.0158680
814.534	0.0158784
814.612	0.0158455
814.690	0.0159490
814.768	0.0158746
814.846	0.0159204
814.924	0.0158008
815.003	0.0159502
815.081	0.0157702
815.159	0.0159999
815.237	0.0159583
815.315	0.0159222
815.393	0.0159338
815.471	0.0161420
815.549	0.0159905
815.628	0.0159094
815.706	0.0159103
815.784	0.0159328
815.862	0.0159742
815.940	0.0159449
816.018	0.0158931
816.096	0.0159157
816.174	0.0158886
816.253	0.0158718
816.331	0.0159661
816.409	0.0158486
816.487	0.0158456
816.565	0.0157712
816.643	0.0157602
816.721	0.0157418
816.799	0.0157275
816.878	0.0156138
816.956	0.0158711
817.034	0.0157043
817.112	0.0156797
817.190	0.0157568
817.268	0.0158702
817.346	0.0157868
817.424	0.0156731
817.503	0.0157710
817.581	0.0158046
817.659	0.0156350
817.737	0.0155428
817.815	0.0156380
817.893	0.0156622
817.971	0.0157092
818.049	0.0156646
818.128	0.0156094
818.206	0.0155939
818.284	0.0156651
818.362	0.0155339
818.440	0.0154259
818.518	0.0155363
818.596	0.0153463
818.674	0.0156037
818.753	0.0155772
818.831	0.0155705
818.909	0.0155708
818.987	0.0156214
819.065	0.0157022
819.143	0.0155941
819.221	0.0155043
819.299	0.0156858
819.378	0.0154736
819.456	0.0156133
819.534	0.0156594
819.612	0.0155328
819.690	0.0154848
819.768	0.0155201
819.846	0.0154461
819.924	0.0155249
820.003	0.0155831
820.081	0.0156545
820.159	0.0156311
820.237	0.0156001
820.315	0.0155372
820.393	0.0155944
820.471	0.0156745
820.549	0.0156141
820.628	0.0156084
820.706	0.0155747
820.784	0.0155289
820.862	0.0156158
820.940	0.0157275
821.018	0.0157198
821.096	0.0157815
821.174	0.0156796
821.253	0.0157018
821.331	0.0156988
821.409	0.0156773
821.487	0.0156864
821.565	0.0157011
821.643	0.0157761
821.721	0.0156832
821.799	0.0155759
821.878	0.0156324
821.956	0.0158378
822.034	0.0156772
822.112	0.0158230
822.190	0.0157800
822.268	0.0157840
822.346	0.0159488
822.424	0.0158866
822.503	0.0157615
822.581	0.0158964
822.659	0.0160285
822.737	0.0160304
822.815	0.0158982
822.893	0.0159926
822.971	0.0158877
823.049	0.0157471
823.128	0.0158646
823.206	0.0158747
823.284	0.0159484
823.362	0.0158815
823.440	0.0158403
823.518	0.0159743
823.596	0.0159345
823.674	0.0159224
823.753	0.0158436
823.831	0.0159694
823.909	0.0158478
823.987	0.0158929
824.065	0.0159220
824.143	0.0159681
824.221	0.0158939
824.299	0.0157334
824.378	0.0157532
824.456	0.0157328
824.534	0.0157575
824.612	0.0159196
824.690	0.0157223
824.768	0.0158423
824.846	0.0156896
824.924	0.0155729
825.003	0.0158236
825.081	0.0157623
825.159	0.0156667
825.237	0.0156339
825.315	0.0156749
825.393	0.0157364
825.471	0.0156639
825.549	0.0157131
825.628	0.0155730
825.706	0.0155173
825.784	0.0156419
825.862	0.0155209
825.940	0.0155826
826.018	0.0154826
826.096	0.0154914
826.174	0.0154655
826.253	0.0156052
826.331	0.0155238
826.409	0.0154847
826.487	0.0154814
826.565	0.0155257
826.643	0.0154084
826.721	0.0155581
826.799	0.0154652
826.878	0.0156528
826.956	0.0155482
827.034	0.0154546
827.112	0.0155508
827.190	0.0154897
827.268	0.0155877
827.346	0.0154864
827.424	0.0154790
827.503	0.0156521
827.581	0.0156776
827.659	0.0155041
827.737	0.0157209
827.815	0.0155803
827.893	0.0157605
827.971	0.0156204
828.049	0.0156201
828.128	0.0156846
828.206	0.0157407
828.284	0.0156025
828.362	0.0155988
828.440	0.0157272
828.518	0.0156240
828.596	0.0157397
828.674	0.0157558
828.753	0.0157587
828.831	0.0158538
828.909	0.0156398
828.987	0.0157251
829.065	0.0157500
829.143	0.0157401
829.221	0.0158717
829.299	0.0157783
829.378	0.0158653
829.456	0.0158041
829.534	0.0158707
829.612	0.0158755
829.690	0.0160007
829.768	0.0158529
829.846	0.0158516
829.924	0.0158966
830.003	0.0160411
830.081	0.0159689
830.159	0.0158176
830.237	0.0161266
830.315	0.0160301
830.393	0.0160117
830.471	0.0158495
830.549	0.0159403
830.628	0.0158828
830.706	0.0158743
830.784	0.0160172
830.862	0.0160302
830.940	0.0160426
831.018	0.0159577
831.096	0.0160442
831.174	0.0159618
831.253	0.0160003
831.331	0.0161210
831.409	0.0161161
831.487	0.0158827
831.565	0.0159854
831.643	0.0159785
831.721	0.0158465
831.799	0.0158411
831.878	0.0159925
831.956	0.0159686
832.034	0.0161250
832.112	0.0159840
832.190	0.0158564
832.268	0.0159022
832.346	0.0158090
832.424	0.0158233
832.503	0.0159734
832.581	0.0157758
832.659	0.0156950
832.737	0.0157294
832.815	0.0156969
832.893	0.0158892
832.971	0.0158276
833.049	0.0157283
833.128	0.0155573
833.206	0.0157455
833.284	0.0157642
833.362	0.0155778
833.440	0.0156351
833.518	0.0157230
833.596	0.0157227
833.674	0.0157137
833.753	0.0156588
833.831	0.0157112
833.909	0.0156322
833.987	0.0155206
834.065	0.0156870
834.143	0.0155549
834.221	0.0156045
834.299	0.0157154
834.378	0.0156093
834.456	0.0156645
834.534	0.0157194
834.612	0.0156467
834.690	0.0155418
834.768	0.0157949
834.846	0.0156460
834.924	0.0156042
835.003	0.0156628
835.081	0.0155901
835.159	0.0156303
835.237	0.0156467
835.315	0.0156225
835.393	0.0155884
835.471	0.0155816
835.549	0.0156520
835.628	0.0157271
835.706	0.0157940
835.784	0.0155772
835.862	0.0158511
835.940	0.0158871
836.018	0.0157875
836.096	0.0158270
836.174	0.0157584
836.253	0.0157835
836.331	0.0158447
836.409	0.0159234
836.487	0.0159040
836.565	0.0159236
836.643	0.0157963
836.721	0.0158289
836.799	0.0157433
836.878	0.0158110
836.956	0.0158725
837.034	0.0158733
837.112	0.0158366
837.190	0.0159740
837.268	0.0159202
837.346	0.0159287
837.424	0.0158841
837.503	0.0159376
837.581	0.0158768
837.659	0.0158698
837.737	0.0159527
837.815	0.0160293
837.893	0.0159245
837.971	0.0157388
838.049	0.0159289
838.128	0.0158413
838.206	0.0158791
838.284	0.0159194
838.362	0.0159116
838.440	0.0158209
838.518	0.0158807
838.596	0.0158730
838.674	0.0158913
838.753	0.0157860
838.831	0.0158315
838.909	0.0158607
838.987	0.0158681
839.065	0.0159943
839.143	0.0158829
839.221	0.0158488
839.299	0.0158414
839.378	0.0158098
839.456	0.0158205
839.534	0.0157558
839.612	0.0157344
839.690	0.0157316
839.768	0.0156544
839.846	0.0157430
839.924	0.0157536
840.003	0.0156777
840.081	0.0158388
840.159	0.0157873
840.237	0.0157142
840.315	0.0157401
840.393	0.0156291
840.471	0.0157503
840.549	0.0157282
840.628	0.0156565
840.706	0.0156440
840.784	0.0155569
840.862	0.0155545
840.940	0.0155744
841.018	0.0155388
841.096	0.0155830
841.174	0.0156854
841.253	0.0155531
841.331	0.0154949
841.409	0.0155235
841.487	0.0155673
841.565	0.0156088
841.643	0.0156339
841.721	0.0156182
841.799	0.0154773
841.878	0.0155370
841.956	0.0155943
842.034	0.0156014
842.112	0.0155714
842.190	0.0155344
842.268	0.0155275
842.346	0.0155486
842.424	0.0155704
842.503	0.0155680
842.581	0.0157438
842.659	0.0156510
842.737	0.0154919
842.815	0.0155676
842.893	0.0155611
842.971	0.0154549
843.049	0.0156121
843.128	0.0155195
843.206	0.0154813
843.284	0.0156040
843.362	0.0156875
843.440	0.0157340
843.518	0.0155470
843.596	0.0155456
843.674	0.0155110
843.753	0.0156300
843.831	0.0155424
843.909	0.0156842
843.987	0.0157173
844.065	0.0157279
844.143	0.0156697
844.221	0.0158382
844.299	0.0157659
844.378	0.0157301
844.456	0.0158205
844.534	0.0157605
844.612	0.0159147
844.690	0.0160524
844.768	0.0158492
844.846	0.0157398
844.924	0.0158318
845.003	0.0160123
845.081	0.0159109
845.159	0.0158680
845.237	0.0159588
845.315	0.0157719
845.393	0.0157956
845.471	0.0159117
845.549	0.0158818
845.628	0.0157854
845.706	0.0158112
845.784	0.0156750
845.862	0.0158794
845.940	0.0158584
846.018	0.0158572
846.096	0.0157457
846.174	0.0157885
846.253	0.0159145
846.331	0.0158967
846.409	0.0160190
846.487	0.0158580
846.565	0.0158273
846.643	0.0159393
846.721	0.0160323
846.799	0.0159193
846.878	0.0157880
846.956	0.0159274
847.034	0.0157555
847.112	0.0158103
847.190	0.0157767
847.268	0.0157673
847.346	0.0155821
847.424	0.0157394
847.503	0.0157676
847.581	0.0156196
847.659	0.0157507
847.737	0.0155351
847.815	0.0155753
847.893	0.0155646
847.971	0.0156609
848.049	0.0155423
848.128	0.0156564
848.206	0.0155570
848.284	0.0155461
848.362	0.0155182
848.440	0.0155828
848.518	0.0155157
848.596	0.0155513
848.674	0.0155610
848.753	0.0155110
848.831	0.0155172
848.909	0.0155445
848.987	0.0155894
849.065	0.0156627
849.143	0.0156398
849.221	0.0156389
849.299	0.0155816
849.378	0.0155933
849.456	0.0156014
849.534	0.0156529
849.612	0.0156368
849.690	0.0155975
849.768	0.0155944
849.846	0.0156453
849.924	0.0155691
850.003	0.0154990
850.081	0.0155974
850.159	0.0156280
850.237	0.0156149
850.315	0.0156423
850.393	0.0155959
850.471	0.0155716
850.549	0.0157114
850.628	0.0155276
850.706	0.0157692
850.784	0.0156856
850.862	0.0156682
850.940	0.0155726
851.018	0.0157552
851.096	0.0157545
851.174	0.0157303
851.253	0.0157697
851.331	0.0157126
851.409	0.0157857
851.487	0.0158810
851.565	0.0157068
851.643	0.0156951
851.721	0.0157108
851.799	0.0157710
851.878	0.0158514
851.956	0.0156965
852.034	0.0156565
852.112	0.0158218
852.190	0.0156013
852.268	0.0157216
852.346	0.0157933
852.424	0.0156512
852.503	0.0153790
852.581	0.0157307
852.659	0.0158622
852.737	0.0158147
852.815	0.0157994
852.893	0.0158514
852.971	0.0158271
853.049	0.0159572
853.128	0.0159046
853.206	0.0158494
853.284	0.0159190
853.362	0.0159390
853.440	0.0159503
853.518	0.0160033
853.596	0.0157742
853.674	0.0159547
853.753	0.0158511
853.831	0.0159160
853.909	0.0159124
853.987	0.0158477
854.065	0.0157892
854.143	0.0157844
854.221	0.0158942
854.299	0.0159029
854.378	0.0158531
854.456	0.0159674
854.534	0.0159293
854.612	0.0159340
854.690	0.0159627
854.768	0.0158169
854.846	0.0160025
854.924	0.0159742
855.003	0.0159377
855.081	0.0160852
855.159	0.0159732
855.237	0.0159975
855.315	0.0159884
855.393	0.0159904
855.471	0.0159834
855.549	0.0157976
855.628	0.0158599
855.706	0.0158697
855.784	0.0157819
855.862	0.0158468
855.940	0.0157405
856.018	0.0156570
856.096	0.0156067
856.174	0.0155555
856.253	0.0156677
856.331	0.0157832
856.409	0.0156711
856.487	0.0157477
856.565	0.0157352
856.643	0.0156096
856.721	0.0156847
856.799	0.0156789
856.878	0.0157210
856.956	0.0157574
857.034	0.0156658
857.112	0.0157590
857.190	0.0157963
857.268	0.0156785
857.346	0.0157392
857.424	0.0156696
857.503	0.0158628
857.581	0.0158238
857.659	0.0156915
857.737	0.0157085
857.815	0.0156931
857.893	0.0158751
857.971	0.0158862
858.049	0.0158157
858.128	0.0158011
858.206	0.0156888
858.284	0.0157213
858.362	0.0157689
858.440	0.0158652
858.518	0.0158339
858.596	0.0158528
858.674	0.0157641
858.753	0.0157303
858.831	0.0157138
858.909	0.0157442
858.987	0.0158373
859.065	0.0157607
859.143	0.0158205
859.221	0.0158124
859.299	0.0157713
859.378	0.0158392
859.456	0.0157201
859.534	0.0158454
859.612	0.0159481
859.690	0.0159315
859.768	0.0158591
859.846	0.0158002
859.924	0.0159352
860.003	0.0158655
860.081	0.0157879
860.159	0.0157998
860.237	0.0159659
860.315	0.0159032
860.393	0.0158916
860.471	0.0158849
860.549	0.0158433
860.628	0.0159626
860.706	0.0159163
860.784	0.0157954
860.862	0.0159006
860.940	0.0158808
861.018	0.0157602
861.096	0.0159763
861.174	0.0158755
861.253	0.0159127
861.331	0.0158482
861.409	0.0158094
861.487	0.0156770
861.565	0.0157355
861.643	0.0157300
861.721	0.0155618
861.799	0.0158036
861.878	0.0157403
861.956	0.0157164
862.034	0.0158243
862.112	0.0157675
862.190	0.0156760
862.268	0.0156759
862.346	0.0156684
862.424	0.0158003
862.503	0.0158727
862.581	0.0157138
862.659	0.0157068
862.737	0.0157272
862.815	0.0156577
862.893	0.0155532
862.971	0.0155818
863.049	0.0156368
863.128	0.0156877
863.206	0.0155966
863.284	0.0156270
863.362	0.0156780
863.440	0.0157254
863.518	0.0156303
863.596	0.0157671
863.674	0.0157732
863.753	0.0155202
863.831	0.0156538
863.909	0.0156832
863.987	0.0157175
864.065	0.0156230
864.143	0.0156876
864.221	0.0157212
864.299	0.0155817
864.378	0.0158145
864.456	0.0156300
864.534	0.0156046
864.612	0.0155710
864.690	0.0156625
864.768	0.0156487
864.846	0.0154980
864.924	0.0155394
865.003	0.0156099
865.081	0.0156406
865.159	0.0155109
865.237	0.0155930
865.315	0.0155583
865.393	0.0156332
865.471	0.0156088
865.549	0.0155225
865.628	0.0156087
865.706	0.0156511
865.784	0.0154862
865.862	0.0156150
865.940	0.0156701
866.018	0.0157591
866.096	0.0155468
866.174	0.0157726
866.253	0.0156529
866.331	0.0156332
866.409	0.0156712
866.487	0.0157260
866.565	0.0157828
866.643	0.0157488
866.721	0.0157978
866.799	0.0157877
866.878	0.0156861
866.956	0.0157209
867.034	0.0156922
867.112	0.0156957
867.190	0.0157873
867.268	0.0157635
867.346	0.0158226
867.424	0.0156612
867.503	0.0157496
867.581	0.0158302
867.659	0.0156981
867.737	0.0156294
867.815	0.0157720
867.893	0.0158027
867.971	0.0157017
868.049	0.0158041
868.128	0.0157791
868.206	0.0158035
868.284	0.0157221
868.362	0.0158228
868.440	0.0159119
868.518	0.0158542
868.596	0.0158240
868.674	0.0157521
868.753	0.0158214
868.831	0.0158376
868.909	0.0158810
868.987	0.0158606
869.065	0.0157152
869.143	0.0156850
869.221	0.0156244
869.299	0.0159455
869.378	0.0158152
869.456	0.0158383
869.534	0.0158109
869.612	0.0156297
869.690	0.0158856
869.768	0.0157618
869.846	0.0157433
869.924	0.0158649
870.003	0.0157514
870.081	0.0157544
870.159	0.0158315
870.237	0.0157845
870.315	0.0158549
870.393	0.0158311
870.471	0.0157272
870.549	0.0157648
870.628	0.0157182
870.706	0.0156281
870.784	0.0156055
870.862	0.0155772
870.940	0.0156069
871.018	0.0155826
871.096	0.0157017
871.174	0.0156785
871.253	0.0154742
871.331	0.0156298
871.409	0.0157055
871.487	0.0157541
871.565	0.0157969
871.643	0.0158395
871.721	0.0157111
871.799	0.0157582
871.878	0.0157348
871.956	0.0157157
872.034	0.0158828
872.112	0.0159422
872.190	0.0157545
872.268	0.0158625
872.346	0.0158982
872.424	0.0157878
872.503	0.0158812
872.581	0.0158015
872.659	0.0156776
872.737	0.0156886
872.815	0.0156535
872.893	0.0157281
872.971	0.0156977
873.049	0.0156461
873.128	0.0157540
873.206	0.0156561
873.284	0.0156101
873.362	0.0156452
873.440	0.0156263
873.518	0.0156326
873.596	0.0155813
873.674	0.0157659
873.753	0.0157709
873.831	0.0157613
873.909	0.0157125
873.987	0.0156926
874.065	0.0156702
874.143	0.0157280
874.221	0.0156714
874.299	0.0158064
874.378	0.0157365
874.456	0.0157212
874.534	0.0157559
874.612	0.0158054
874.690	0.0157470
874.768	0.0156578
874.846	0.0157556
874.924	0.0155730
875.003	0.0157385
875.081	0.0157969
875.159	0.0155844
875.237	0.0157031
875.315	0.0156839
875.393	0.0156473
875.471	0.0155065
875.549	0.0157928
875.628	0.0157487
875.706	0.0154901
875.784	0.0156990
875.862	0.0157723
875.940	0.0156776
876.018	0.0156817
876.096	0.0156362
876.174	0.0158284
876.253	0.0158479
876.331	0.0158472
876.409	0.0158260
876.487	0.0157101
876.565	0.0157997
876.643	0.0159122
876.721	0.0158858
876.799	0.0156960
876.878	0.0158463
876.956	0.0159190
877.034	0.0159595
877.112	0.0157444
877.190	0.0158096
877.268	0.0159030
877.346	0.0158342
877.424	0.0157954
877.503	0.0158588
877.581	0.0157619
877.659	0.0157821
877.737	0.0158053
877.815	0.0159230
877.893	0.0160246
877.971	0.0159216
878.049	0.0157220
878.128	0.0158914
878.206	0.0158758
878.284	0.0159885
878.362	0.0157989
878.440	0.0158154
878.518	0.0159509
878.596	0.0157647
878.674	0.0158797
878.753	0.0157137
878.831	0.0157217
878.909	0.0158426
878.987	0.0157191
879.065	0.0158141
879.143	0.0156856
879.221	0.0157411
879.299	0.0158213
879.378	0.0156033
879.456	0.0157008
879.534	0.0157468
879.612	0.0157043
879.690	0.0157914
879.768	0.0157478
879.846	0.0158254
879.924	0.0156824
880.003	0.0157660
880.081	0.0158187
880.159	0.0156897
880.237	0.0156026
880.315	0.0156487
880.393	0.0156252
880.471	0.0156837
880.549	0.0156603
880.628	0.0155325
880.706	0.0155772
880.784	0.0156071
880.862	0.0155343
880.940	0.0155808
881.018	0.0155832
881.096	0.0155861
881.174	0.0156010
881.253	0.0157185
881.331	0.0155954
881.409	0.0157694
881.487	0.0156668
881.565	0.0157751
881.643	0.0157122
881.721	0.0157333
881.799	0.0157451
881.878	0.0157227
881.956	0.0156670
882.034	0.0156405
882.112	0.0157012
882.190	0.0157793
882.268	0.0158987
882.346	0.0157974
882.424	0.0157918
882.503	0.0157554
882.581	0.0158229
882.659	0.0158357
882.737	0.0156533
882.815	0.0157034
882.893	0.0156701
882.971	0.0157125
883.049	0.0158583
883.128	0.0157861
883.206	0.0159248
883.284	0.0157721
883.362	0.0157991
883.440	0.0158323
883.518	0.0157301
883.596	0.0158611
883.674	0.0157866
883.753	0.0157109
883.831	0.0159187
883.909	0.0157158
883.987	0.0158945
884.065	0.0158298
884.143	0.0159075
884.221	0.0158296
884.299	0.0158454
884.378	0.0158471
884.456	0.0158812
884.534	0.0158596
884.612	0.0158610
884.690	0.0156829
884.768	0.0158949
884.846	0.0158624
884.924	0.0158502
885.003	0.0158772
885.081	0.0160146
885.159	0.0158063
885.237	0.0157990
885.315	0.0158233
885.393	0.0157790
885.471	0.0158592
885.549	0.0156145
885.628	0.0157852
885.706	0.0159132
885.784	0.0158953
885.862	0.0157610
885.940	0.0159295
886.018	0.0158183
886.096	0.0158156
886.174	0.0159222
886.253	0.0158678
886.331	0.0158323
886.409	0.0158241
886.487	0.0156924
886.565	0.0160090
886.643	0.0158940
886.721	0.0157764
886.799	0.0158894
886.878	0.0157731
886.956	0.0158471
887.034	0.0158031
887.112	0.0157938
887.190	0.0157372
887.268	0.0158268
887.346	0.0157574
887.424	0.0156239
887.503	0.0156685
887.581	0.0157435
887.659	0.0157338
887.737	0.0156693
887.815	0.0156383
887.893	0.0157435
887.971	0.0157461
888.049	0.0158475
888.128	0.0158172
888.206	0.0156123
888.284	0.0156828
888.362	0.0157244
888.440	0.0157111
888.518	0.0159341
888.596	0.0156488
888.674	0.0158100
888.753	0.0158326
888.831	0.0157233
888.909	0.0158006
888.987	0.0156290
889.065	0.0157124
889.143	0.0159025
889.221	0.0157833
889.299	0.0157492
889.378	0.0157310
889.456	0.0158344
889.534	0.0158880
889.612	0.0157133
889.690	0.0158527
889.768	0.0157095
889.846	0.0156509
889.924	0.0158550
890.003	0.0158951
890.081	0.0159205
890.159	0.0158740
890.237	0.0158754
890.315	0.0159341
890.393	0.0157683
890.471	0.0159951
890.549	0.0159048
890.628	0.0158627
890.706	0.0159264
890.784	0.0159736
890.862	0.0158897
890.940	0.0158628
891.018	0.0159789
891.096	0.0157996
891.174	0.0158724
891.253	0.0158846
891.331	0.0159616
891.409	0.0158546
891.487	0.0159146
891.565	0.0157894
891.643	0.0158121
891.721	0.0158904
891.799	0.0157985
891.878	0.0157478
891.956	0.0160119
892.034	0.0158760
892.112	0.0158223
892.190	0.0159430
892.268	0.0157117
892.346	0.0157771
892.424	0.0158081
892.503	0.0158574
892.581	0.0158466
892.659	0.0157702
892.737	0.0158356
892.815	0.0158011
892.893	0.0159243
892.971	0.0158363
893.049	0.0158427
893.128	0.0157426
893.206	0.0158909
893.284	0.0158092
893.362	0.0157507
893.440	0.0158723
893.518	0.0158684
893.596	0.0157344
893.674	0.0158028
893.753	0.0159383
893.831	0.0157903
893.909	0.0157863
893.987	0.0158512
894.065	0.0156924
894.143	0.0158621
894.221	0.0157756
894.299	0.0157560
894.378	0.0158200
894.456	0.0156126
894.534	0.0157902
894.612	0.0157494
894.690	0.0158741
894.768	0.0158827
894.846	0.0158563
894.924	0.0157627
895.003	0.0158661
895.081	0.0157701
895.159	0.0156618
895.237	0.0156441
895.315	0.0157254
895.393	0.0157607
895.471	0.0156919
895.549	0.0157866
895.628	0.0158652
895.706	0.0158504
895.784	0.0157665
895.862	0.0156658
895.940	0.0156834
896.018	0.0155971
896.096	0.0159076
896.174	0.0156320
896.253	0.0157447
896.331	0.0157089
896.409	0.0157480
896.487	0.0158966
896.565	0.0157094
896.643	0.0156120
896.721	0.0157515
896.799	0.0157941
896.878	0.0156831
896.956	0.0158794
897.034	0.0158770
897.112	0.0158494
897.190	0.0157820
897.268	0.0158888
897.346	0.0159341
897.424	0.0157335
897.503	0.0158940
897.581	0.0158338
897.659	0.0158681
897.737	0.0158187
897.815	0.0157541
897.893	0.0157328
897.971	0.0156597
898.049	0.0157617
898.128	0.0158509
898.206	0.0157281
898.284	0.0157673
898.362	0.0157026
898.440	0.0158397
898.518	0.0157127
898.596	0.0157247
898.674	0.0156911
898.753	0.0157729
898.831	0.0156593
898.909	0.0157589
898.987	0.0156363
899.065	0.0155904
899.143	0.0156329
899.221	0.0156527
899.299	0.0155703
899.378	0.0156303
899.456	0.0156248
899.534	0.0156561
899.612	0.0156433
899.690	0.0156059
899.768	0.0155250
899.846	0.0157240
899.924	0.0156274
900.003	0.0156210
900.081	0.0156990
900.159	0.0156561
900.237	0.0156251
900.315	0.0156725
900.393	0.0156808
900.471	0.0156487
900.549	0.0156563
900.628	0.0155700
900.706	0.0155958
900.784	0.0157010
900.862	0.0156261
900.940	0.0156429
901.018	0.0155392
901.096	0.0155040
901.174	0.0155832
901.253	0.0155495
901.331	0.0155682
901.409	0.0155032
901.487	0.0155485
901.565	0.0158199
901.643	0.0156641
901.721	0.0157053
901.799	0.0158257
901.878	0.0155987
901.956	0.0156649
902.034	0.0158710
902.112	0.0157910
902.190	0.0158275
902.268	0.0157320
902.346	0.0156976
902.424	0.0157122
902.503	0.0156506
902.581	0.0157170
902.659	0.0156548
902.737	0.0157137
902.815	0.0157197
902.893	0.0157784
902.971	0.0157710
903.049	0.0157118
903.128	0.0157452
903.206	0.0157041
903.284	0.0157212
903.362	0.0157597
903.440	0.0156506
903.518	0.0156450
903.596	0.0156856
903.674	0.0157924
903.753	0.0157864
903.831	0.0156750
903.909	0.0158388
903.987	0.0156432
904.065	0.0155875
904.143	0.0156947
904.221	0.0157068
904.299	0.0156307
904.378	0.0155235
904.456	0.0157262
904.534	0.0157133
904.612	0.0157169
904.690	0.0155598
904.768	0.0156594
904.846	0.0156208
904.924	0.0156142
905.003	0.0156369
905.081	0.0156311
905.159	0.0156692
905.237	0.0157524
905.315	0.0155676
905.393	0.0157194
905.471	0.0157870
905.549	0.0156557
905.628	0.0157764
905.706	0.0156535
905.784	0.0157955
905.862	0.0158543
905.940	0.0158345
906.018	0.0159255
906.096	0.0158158
906.174	0.0157571
906.253	0.0159399
906.331	0.0158764
906.409	0.0158688
906.487	0.0158543
906.565	0.0157855
906.643	0.0157479
906.721	0.0158527
906.799	0.0158752
906.878	0.0158567
906.956	0.0157517
907.034	0.0159089
907.112	0.0158360
907.190	0.0159287
907.268	0.0158052
907.346	0.0158031
907.424	0.0158937
907.503	0.0158476
907.581	0.0158848
907.659	0.0158870
907.737	0.0158335
907.815	0.0157700
907.893	0.0157927
907.971	0.0158077
908.049	0.0159103
908.128	0.0158892
908.206	0.0157803
908.284	0.0157597
908.362	0.0159424
908.440	0.0158437
908.518	0.0157938
908.596	0.0159675
908.674	0.0158698
908.753	0.0158747
908.831	0.0157600
908.909	0.0156654
908.987	0.0158265
909.065	0.0157761
909.143	0.0159287
909.221	0.0159049
909.299	0.0158520
909.378	0.0156786
909.456	0.0157096
909.534	0.0157818
909.612	0.0158631
909.690	0.0157225
909.768	0.0157130
909.846	0.0157166
909.924	0.0156770
910.003	0.0156742
910.081	0.0156417
910.159	0.0157035
910.237	0.0156994
910.315	0.0156612
910.393	0.0158154
910.471	0.0157398
910.549	0.0155991
910.628	0.0157493
910.706	0.0158996
910.784	0.0158423
910.862	0.0158105
910.940	0.0157561
911.018	0.0157110
911.096	0.0157126
911.174	0.0157288
911.253	0.0157040
911.331	0.0157388
911.409	0.0156885
911.487	0.0158165
911.565	0.0157697
911.643	0.0156892
911.721	0.0157158
911.799	0.0156537
911.878	0.0157248
911.956	0.0157746
912.034	0.0157327
912.112	0.0158188
912.190	0.0157476
912.268	0.0156769
912.346	0.0157053
912.424	0.0157334
912.503	0.0158111
912.581	0.0160155
912.659	0.0159478
912.737	0.0158163
912.815	0.0158295
912.893	0.0157686
912.971	0.0157886
913.049	0.0157886
913.128	0.0157754
913.206	0.0158884
913.284	0.0159998
913.362	0.0157776
913.440	0.0157928
913.518	0.0157092
913.596	0.0157720
913.674	0.0158802
913.753	0.0158822
913.831	0.0159140
913.909	0.0159798
913.987	0.0160099
914.065	0.0159269
914.143	0.0157421
914.221	0.0158993
914.299	0.0160050
914.378	0.0159573
914.456	0.0157926
914.534	0.0158427
914.612	0.0157731
914.690	0.0158447
914.768	0.0159486
914.846	0.0158625
914.924	0.0159486
915.003	0.0159721
915.081	0.0158471
915.159	0.0157662
915.237	0.0156985
915.315	0.0159071
915.393	0.0158764
915.471	0.0158972
915.549	0.0159306
915.628	0.0160585
915.706	0.0158578
915.784	0.0158585
915.862	0.0158673
915.940	0.0158761
916.018	0.0157991
916.096	0.0158483
916.174	0.0158787
916.253	0.0158926
916.331	0.0159116
916.409	0.0160059
916.487	0.0159008
916.565	0.0158250
916.643	0.0158562
916.721	0.0157194
916.799	0.0156810
916.878	0.0158087
916.956	0.0158331
917.034	0.0156069
917.112	0.0157812
917.190	0.0158138
917.268	0.0157935
917.346	0.0158448
917.424	0.0158170
917.503	0.0158500
917.581	0.0157982
917.659	0.0157758
917.737	0.0158862
917.815	0.0157930
917.893	0.0159098
917.971	0.0157991
918.049	0.0159194
918.128	0.0158128
918.206	0.0156963
918.284	0.0159517
918.362	0.0157973
918.440	0.0158409
918.518	0.0156425
918.596	0.0157291
918.674	0.0157589
918.753	0.0158061
918.831	0.0157946
918.909	0.0157098
918.987	0.0157948
919.065	0.0158089
919.143	0.0156760
919.221	0.0158226
919.299	0.0156489
919.378	0.0158193
919.456	0.0157670
919.534	0.0157726
919.612	0.0157660
919.690	0.0158150
919.768	0.0158170
919.846	0.0157029
919.924	0.0159306
920.003	0.0159485
920.081	0.0158693
920.159	0.0157594
920.237	0.0157662
920.315	0.0156411
920.393	0.0159004
920.471	0.0159411
920.549	0.0157484
920.628	0.0157742
920.706	0.0157634
920.784	0.0157475
920.862	0.0157043
920.940	0.0158091
921.018	0.0158486
921.096	0.0157412
921.174	0.0155598
921.253	0.0155687
921.331	0.0156783
921.409	0.0157228
921.487	0.0156830
921.565	0.0157011
921.643	0.0156642
921.721	0.0156997
921.799	0.0156192
921.878	0.0157362
921.956	0.0156570
922.034	0.0157599
922.112	0.0157583
922.190	0.0157724
922.268	0.0155901
922.346	0.0155897
922.424	0.0156244
922.503	0.0157784
922.581	0.0156995
922.659	0.0157146
922.737	0.0155479
922.815	0.0157771
922.893	0.0157308
922.971	0.0157089
923.049	0.0157036
923.128	0.0156543
923.206	0.0156509
923.284	0.0157635
923.362	0.0157539
923.440	0.0157430
923.518	0.0157519
923.596	0.0158142
923.674	0.0156776
923.753	0.0155939
923.831	0.0156712
923.909	0.0156168
923.987	0.0156257
924.065	0.0156656
924.143	0.0155952
924.221	0.0155004
924.299	0.0155582
924.378	0.0156431
924.456	0.0156083
924.534	0.0156166
924.612	0.0155885
924.690	0.0156635
924.768	0.0157650
924.846	0.0156759
924.924	0.0155690
925.003	0.0155692
925.081	0.0156453
925.159	0.0156472
925.237	0.0155891
925.315	0.0155090
925.393	0.0154926
925.471	0.0156098
925.549	0.0156208
925.628	0.0156429
925.706	0.0155598
925.784	0.0155874
925.862	0.0156715
925.940	0.0155376
926.018	0.0157110
926.096	0.0157820
926.174	0.0157000
926.253	0.0155409
926.331	0.0157963
926.409	0.0157673
926.487	0.0157468
926.565	0.0156225
926.643	0.0157931
926.721	0.0157869
926.799	0.0156893
926.878	0.0157120
926.956	0.0158412
927.034	0.0157700
927.112	0.0157224
927.190	0.0157922
927.268	0.0157494
927.346	0.0155607
927.424	0.0156384
927.503	0.0157214
927.581	0.0156624
927.659	0.0157235
927.737	0.0158575
927.815	0.0155830
927.893	0.0156517
927.971	0.0156396
928.049	0.0155183
928.128	0.0155959
928.206	0.0157867
928.284	0.0158209
928.362	0.0155908
928.440	0.0155451
928.518	0.0156239
928.596	0.0155488
928.674	0.0155841
928.753	0.0155853
928.831	0.0156734
928.909	0.0156264
928.987	0.0156266
929.065	0.0156385
929.143	0.0157243
929.221	0.0155847
929.299	0.0154585
929.378	0.0155975
929.456	0.0156741
929.534	0.0156463
929.612	0.0156355
929.690	0.0156242
929.768	0.0156969
929.846	0.0156087
929.924	0.0156665
930.003	0.0156883
930.081	0.0156527
930.159	0.0155699
930.237	0.0157924
930.315	0.0156613
930.393	0.0155861
930.471	0.0155964
930.549	0.0155579
930.628	0.0156155
930.706	0.0156674
930.784	0.0157294
930.862	0.0157428
930.940	0.0156710
931.018	0.0156006
931.096	0.0156252
931.174	0.0158101
931.253	0.0156547
931.331	0.0157482
931.409	0.0156672
931.487	0.0158778
931.565	0.0155309
931.643	0.0157185
931.721	0.0156454
931.799	0.0156882
931.878	0.0155949
931.956	0.0157317
932.034	0.0156274
932.112	0.0157901
932.190	0.0157443
932.268	0.0157073
932.346	0.0156877
932.424	0.0156870
932.503	0.0157168
932.581	0.0157494
932.659	0.0156262
932.737	0.0156140
932.815	0.0156933
932.893	0.0157304
932.971	0.0157507
933.049	0.0157075
933.128	0.0157239
933.206	0.0157199
933.284	0.0156759
933.362	0.0157564
933.440	0.0156835
933.518	0.0156960
933.596	0.0156651
933.674	0.0157069
933.753	0.0157626
933.831	0.0156761
933.909	0.0157548
933.987	0.0157558
934.065	0.0157275
934.143	0.0158953
934.221	0.0159337
934.299	0.0158643
934.378	0.0157455
934.456	0.0158705
934.534	0.0160093
934.612	0.0158780
934.690	0.0158373
934.768	0.0159766
934.846	0.0159815
934.924	0.0160476
935.003	0.0158968
935.081	0.0158488
935.159	0.0158676
935.237	0.0159452
935.315	0.0158918
935.393	0.0158089
935.471	0.0158722
935.549	0.0159761
935.628	0.0158643
935.706	0.0158185
935.784	0.0158071
935.862	0.0159216
935.940	0.0158745
936.018	0.0158566
936.096	0.0159040
936.174	0.0158618
936.253	0.0157629
936.331	0.0158058
936.409	0.0156441
936.487	0.0155993
936.565	0.0157979
936.643	0.0156886
936.721	0.0157318
936.799	0.0158950
936.878	0.0157104
936.956	0.0158078
937.034	0.0157944
937.112	0.0156488
937.190	0.0157762
937.268	0.0158619
937.346	0.0158014
937.424	0.0158617
937.503	0.0157293
937.581	0.0158266
937.659	0.0158466
937.737	0.0157820
937.815	0.0159037
937.893	0.0158430
937.971	0.0157785
938.049	0.0158192
938.128	0.0158103
938.206	0.0158600
938.284	0.0158353
938.362	0.0159353
938.440	0.0159240
938.518	0.0158311
938.596	0.0157635
938.674	0.0157522
938.753	0.0158826
938.831	0.0159477
938.909	0.0158315
938.987	0.0159314
939.065	0.0158244
939.143	0.0159621
939.221	0.0158983
939.299	0.0159282
939.378	0.0158796
939.456	0.0159357
939.534	0.0160501
939.612	0.0158405
939.690	0.0158840
939.768	0.0158913
939.846	0.0158703
939.924	0.0159361
940.003	0.0158654
940.081	0.0159619
940.159	0.0160088
940.237	0.0158029
940.315	0.0157744
940.393	0.0157483
940.471	0.0157835
940.549	0.0158774
940.628	0.0157355
940.706	0.0158295
940.784	0.0158094
940.862	0.0158968
940.940	0.0158251
941.018	0.0158489
941.096	0.0158663
941.174	0.0157694
941.253	0.0156915
941.331	0.0158897
941.409	0.0158083
941.487	0.0158283
941.565	0.0159467
941.643	0.0158904
941.721	0.0158060
941.799	0.0157871
941.878	0.0158304
941.956	0.0158662
942.034	0.0157606
942.112	0.0157783
942.190	0.0158304
942.268	0.0157242
942.346	0.0156925
942.424	0.0156918
942.503	0.0157785
942.581	0.0157114
942.659	0.0157450
942.737	0.0157318
942.815	0.0156939
942.893	0.0157552
942.971	0.0157080
943.049	0.0158018
943.128	0.0157455
943.206	0.0156712
943.284	0.0157204
943.362	0.0157906
943.440	0.0156223
943.518	0.0155142
943.596	0.0157040
943.674	0.0157401
943.753	0.0156895
943.831	0.0157397
943.909	0.0157955
943.987	0.0157343
944.065	0.0156139
944.143	0.0156925
944.221	0.0155849
944.299	0.0156668
944.378	0.0157194
944.456	0.0156277
944.534	0.0156647
944.612	0.0157889
944.690	0.0155117
944.768	0.0156064
944.846	0.0157748
944.924	0.0157280
945.003	0.0156389
945.081	0.0156826
945.159	0.0157227
945.237	0.0157018
945.315	0.0156391
945.393	0.0156940
945.471	0.0158047
945.549	0.0158115
945.628	0.0157695
945.706	0.0156288
945.784	0.0156524
945.862	0.0158025
945.940	0.0157690
946.018	0.0156854
946.096	0.0158183
946.174	0.0157390
946.253	0.0156861
946.331	0.0157662
946.409	0.0156258
946.487	0.0156821
946.565	0.0157859
946.643	0.0156934
946.721	0.0158200
946.799	0.0157538
946.878	0.0157185
946.956	0.0156694
947.034	0.0155492
947.112	0.0156012
947.190	0.0156406
947.268	0.0155958
947.346	0.0156728
947.424	0.0157964
947.503	0.0157132
947.581	0.0157145
947.659	0.0156765
947.737	0.0156236
947.815	0.0157349
947.893	0.0157720
947.971	0.0156051
948.049	0.0156403
948.128	0.0156731
948.206	0.0155249
948.284	0.0156668
948.362	0.0157195
948.440	0.0155664
948.518	0.0158631
948.596	0.0156501
948.674	0.0156700
948.753	0.0157136
948.831	0.0156270
948.909	0.0156644
948.987	0.0158268
949.065	0.0155643
949.143	0.0156023
949.221	0.0157181
949.299	0.0156550
949.378	0.0157277
949.456	0.0156664
949.534	0.0157338
949.612	0.0157674
949.690	0.0156742
949.768	0.0157892
949.846	0.0157730
949.924	0.0156526
