05/19/2022	00:51:43	Ver.	4.1	UNKNOWN
Optical Delay	630.002507	Delta X		0.078125	Sweeps	1	Scan Rate	0/0
Coordinates	Axis 1	NaN	Axis 2	NaN	Axis 3	NaN	Axis 4	NaN	Axis 5	NaN	Axis 6	0.000000
TX Power	0.000000	RX Power	0.000000

630.003	0.0163007
630.081	0.0164028
630.159	0.0163499
630.237	0.0162732
630.315	0.0162555
630.393	0.0161816
630.471	0.0162803
630.549	0.0163307
630.628	0.0163425
630.706	0.0164217
630.784	0.0161642
630.862	0.0162189
630.940	0.0162299
631.018	0.0163881
631.096	0.0162158
631.174	0.0163282
631.253	0.0162367
631.331	0.0163233
631.409	0.0162835
631.487	0.0163924
631.565	0.0162455
631.643	0.0162239
631.721	0.0163860
631.799	0.0162138
631.878	0.0162634
631.956	0.0163071
632.034	0.0162094
632.112	0.0163905
632.190	0.0162147
632.268	0.0161546
632.346	0.0163209
632.424	0.0161631
632.503	0.0162428
632.581	0.0162560
632.659	0.0161660
632.737	0.0162733
632.815	0.0163213
632.893	0.0162682
632.971	0.0162337
633.049	0.0164185
633.128	0.0164107
633.206	0.0162842
633.284	0.0163092
633.362	0.0164041
633.440	0.0163034
633.518	0.0163839
633.596	0.0162973
633.674	0.0162910
633.753	0.0163093
633.831	0.0163474
633.909	0.0161944
633.987	0.0162534
634.065	0.0163449
634.143	0.0162994
634.221	0.0162483
634.299	0.0163980
634.378	0.0163754
634.456	0.0162366
634.534	0.0162135
634.612	0.0162730
634.690	0.0162309
634.768	0.0163335
634.846	0.0163890
634.924	0.0162783
635.003	0.0163508
635.081	0.0162933
635.159	0.0163230
635.237	0.0163650
635.315	0.0163894
635.393	0.0162746
635.471	0.0163981
635.549	0.0164057
635.628	0.0162688
635.706	0.0162688
635.784	0.0163443
635.862	0.0163651
635.940	0.0162683
636.018	0.0163307
636.096	0.0163466
636.174	0.0163519
636.253	0.0163924
636.331	0.0163792
636.409	0.0163266
636.487	0.0164464
636.565	0.0162997
636.643	0.0163273
636.721	0.0162832
636.799	0.0162447
636.878	0.0164331
636.956	0.0162727
637.034	0.0163473
637.112	0.0162778
637.190	0.0162330
637.268	0.0161918
637.346	0.0162875
637.424	0.0163999
637.503	0.0163359
637.581	0.0162705
637.659	0.0161987
637.737	0.0163597
637.815	0.0163982
637.893	0.0163132
637.971	0.0164608
638.049	0.0164234
638.128	0.0162501
638.206	0.0163436
638.284	0.0163524
638.362	0.0163193
638.440	0.0163938
638.518	0.0163554
638.596	0.0162057
638.674	0.0163381
638.753	0.0162665
638.831	0.0163500
638.909	0.0162888
638.987	0.0162476
639.065	0.0161726
639.143	0.0161502
639.221	0.0162393
639.299	0.0162611
639.378	0.0161836
639.456	0.0161947
639.534	0.0162154
639.612	0.0161983
639.690	0.0161109
639.768	0.0161323
639.846	0.0162215
639.924	0.0162918
640.003	0.0162837
640.081	0.0162702
640.159	0.0163203
640.237	0.0161479
640.315	0.0162376
640.393	0.0161472
640.471	0.0162946
640.549	0.0161656
640.628	0.0163123
640.706	0.0161649
640.784	0.0161283
640.862	0.0162858
640.940	0.0162160
641.018	0.0161780
641.096	0.0161330
641.174	0.0161906
641.253	0.0161211
641.331	0.0162907
641.409	0.0163294
641.487	0.0161342
641.565	0.0161525
641.643	0.0162536
641.721	0.0161914
641.799	0.0162276
641.878	0.0161467
641.956	0.0161484
642.034	0.0162258
642.112	0.0163240
642.190	0.0162433
642.268	0.0163055
642.346	0.0163708
642.424	0.0161190
642.503	0.0163002
642.581	0.0162902
642.659	0.0161217
642.737	0.0163038
642.815	0.0162164
642.893	0.0161861
642.971	0.0162190
643.049	0.0161115
643.128	0.0160771
643.206	0.0163199
643.284	0.0163573
643.362	0.0162213
643.440	0.0161267
643.518	0.0161719
643.596	0.0162519
643.674	0.0162831
643.753	0.0163478
643.831	0.0164301
643.909	0.0161746
643.987	0.0162721
644.065	0.0163565
644.143	0.0163382
644.221	0.0163560
644.299	0.0163057
644.378	0.0162337
644.456	0.0163371
644.534	0.0164700
644.612	0.0163824
644.690	0.0163403
644.768	0.0163416
644.846	0.0164458
644.924	0.0163599
645.003	0.0164014
645.081	0.0163847
645.159	0.0163792
645.237	0.0164255
645.315	0.0164683
645.393	0.0164954
645.471	0.0164849
645.549	0.0163525
645.628	0.0165196
645.706	0.0165532
645.784	0.0165115
645.862	0.0164980
645.940	0.0164155
646.018	0.0164613
646.096	0.0163683
646.174	0.0165415
646.253	0.0164770
646.331	0.0163435
646.409	0.0164766
646.487	0.0163454
646.565	0.0163084
646.643	0.0163831
646.721	0.0161643
646.799	0.0163045
646.878	0.0163877
646.956	0.0163602
647.034	0.0162524
647.112	0.0162387
647.190	0.0163025
647.268	0.0162608
647.346	0.0163097
647.424	0.0163240
647.503	0.0162738
647.581	0.0162540
647.659	0.0163531
647.737	0.0162457
647.815	0.0161647
647.893	0.0161890
647.971	0.0161520
648.049	0.0162166
648.128	0.0162789
648.206	0.0161927
648.284	0.0162237
648.362	0.0161223
648.440	0.0161121
648.518	0.0160900
648.596	0.0162049
648.674	0.0161791
648.753	0.0160786
648.831	0.0161985
648.909	0.0162032
648.987	0.0163390
649.065	0.0162177
649.143	0.0160923
649.221	0.0161977
649.299	0.0162603
649.378	0.0163040
649.456	0.0161674
649.534	0.0163715
649.612	0.0163615
649.690	0.0162879
649.768	0.0162335
649.846	0.0162946
649.924	0.0162623
650.003	0.0162595
650.081	0.0161259
650.159	0.0163663
650.237	0.0162719
650.315	0.0162601
650.393	0.0163702
650.471	0.0162773
650.549	0.0162844
650.628	0.0163624
650.706	0.0161044
650.784	0.0163852
650.862	0.0164381
650.940	0.0163291
651.018	0.0163853
651.096	0.0162090
651.174	0.0163875
651.253	0.0163542
651.331	0.0162522
651.409	0.0163529
651.487	0.0163404
651.565	0.0163552
651.643	0.0163837
651.721	0.0161835
651.799	0.0162164
651.878	0.0163873
651.956	0.0163885
652.034	0.0163066
652.112	0.0162074
652.190	0.0162164
652.268	0.0163459
652.346	0.0164402
652.424	0.0163501
652.503	0.0164777
652.581	0.0165335
652.659	0.0163518
652.737	0.0164937
652.815	0.0162761
652.893	0.0163866
652.971	0.0162783
653.049	0.0163609
653.128	0.0163771
653.206	0.0163506
653.284	0.0164259
653.362	0.0162141
653.440	0.0162845
653.518	0.0164024
653.596	0.0163558
653.674	0.0163593
653.753	0.0163377
653.831	0.0163223
653.909	0.0162688
653.987	0.0163244
654.065	0.0164290
654.143	0.0164359
654.221	0.0164823
654.299	0.0164933
654.378	0.0165594
654.456	0.0164721
654.534	0.0163709
654.612	0.0164516
654.690	0.0164791
654.768	0.0164764
654.846	0.0164806
654.924	0.0162990
655.003	0.0164155
655.081	0.0162265
655.159	0.0161517
655.237	0.0162796
655.315	0.0163332
655.393	0.0162483
655.471	0.0163076
655.549	0.0162987
655.628	0.0163094
655.706	0.0162350
655.784	0.0164667
655.862	0.0164089
655.940	0.0162728
656.018	0.0164053
656.096	0.0164298
656.174	0.0163243
656.253	0.0164607
656.331	0.0163295
656.409	0.0164802
656.487	0.0165049
656.565	0.0163125
656.643	0.0165778
656.721	0.0165861
656.799	0.0164839
656.878	0.0165025
656.956	0.0165871
657.034	0.0163959
657.112	0.0164281
657.190	0.0163843
657.268	0.0163023
657.346	0.0163461
657.424	0.0162014
657.503	0.0162841
657.581	0.0162563
657.659	0.0164223
657.737	0.0163872
657.815	0.0161434
657.893	0.0161711
657.971	0.0164268
658.049	0.0161789
658.128	0.0161536
658.206	0.0160871
658.284	0.0160618
658.362	0.0162045
658.440	0.0161073
658.518	0.0162289
658.596	0.0162208
658.674	0.0163317
658.753	0.0164206
658.831	0.0162894
658.909	0.0163400
658.987	0.0163890
659.065	0.0164700
659.143	0.0163765
659.221	0.0163165
659.299	0.0165544
659.378	0.0164782
659.456	0.0163601
659.534	0.0163982
659.612	0.0164008
659.690	0.0164522
659.768	0.0163960
659.846	0.0162173
659.924	0.0161308
660.003	0.0162670
660.081	0.0161076
660.159	0.0160193
660.237	0.0160327
660.315	0.0160854
660.393	0.0161457
660.471	0.0159825
660.549	0.0161489
660.628	0.0161191
660.706	0.0161893
660.784	0.0162646
660.862	0.0162594
660.940	0.0163008
661.018	0.0162255
661.096	0.0163981
661.174	0.0165281
661.253	0.0164716
661.331	0.0165047
661.409	0.0164526
661.487	0.0163713
661.565	0.0163451
661.643	0.0162349
661.721	0.0162796
661.799	0.0162732
661.878	0.0163914
661.956	0.0164257
662.034	0.0162426
662.112	0.0162905
662.190	0.0162327
662.268	0.0162774
662.346	0.0161217
662.424	0.0161205
662.503	0.0160375
662.581	0.0160858
662.659	0.0161588
662.737	0.0163033
662.815	0.0162102
662.893	0.0161364
662.971	0.0161700
663.049	0.0161469
663.128	0.0163839
663.206	0.0163097
663.284	0.0163721
663.362	0.0162329
663.440	0.0162289
663.518	0.0162845
663.596	0.0162570
663.674	0.0163951
663.753	0.0162496
663.831	0.0162626
663.909	0.0163696
663.987	0.0162075
664.065	0.0162266
664.143	0.0161813
664.221	0.0163445
664.299	0.0162156
664.378	0.0161072
664.456	0.0163026
664.534	0.0165079
664.612	0.0163103
664.690	0.0163464
664.768	0.0162321
664.846	0.0162972
664.924	0.0163131
665.003	0.0164105
665.081	0.0164371
665.159	0.0164561
665.237	0.0163911
665.315	0.0164903
665.393	0.0165723
665.471	0.0164889
665.549	0.0165768
665.628	0.0163863
665.706	0.0164413
665.784	0.0164898
665.862	0.0166461
665.940	0.0165901
666.018	0.0165979
666.096	0.0163275
666.174	0.0164687
666.253	0.0165534
666.331	0.0163530
666.409	0.0163469
666.487	0.0163710
666.565	0.0163820
666.643	0.0163660
666.721	0.0162309
666.799	0.0161990
666.878	0.0161421
666.956	0.0161656
667.034	0.0161303
667.112	0.0160927
667.190	0.0161038
667.268	0.0161592
667.346	0.0161559
667.424	0.0161428
667.503	0.0161467
667.581	0.0160796
667.659	0.0161357
667.737	0.0160072
667.815	0.0161165
667.893	0.0161069
667.971	0.0161017
668.049	0.0161658
668.128	0.0162448
668.206	0.0161351
668.284	0.0162195
668.362	0.0161340
668.440	0.0160800
668.518	0.0163865
668.596	0.0164748
668.674	0.0163673
668.753	0.0162664
668.831	0.0164173
668.909	0.0164248
668.987	0.0162916
669.065	0.0163696
669.143	0.0163720
669.221	0.0162398
669.299	0.0165076
669.378	0.0162930
669.456	0.0164124
669.534	0.0164994
669.612	0.0164825
669.690	0.0163963
669.768	0.0163799
669.846	0.0163064
669.924	0.0162614
670.003	0.0164515
670.081	0.0164072
670.159	0.0163627
670.237	0.0163188
670.315	0.0163937
670.393	0.0162541
670.471	0.0162276
670.549	0.0161726
670.628	0.0161127
670.706	0.0161337
670.784	0.0160686
670.862	0.0162099
670.940	0.0160931
671.018	0.0160249
671.096	0.0160570
671.174	0.0160252
671.253	0.0161005
671.331	0.0161479
671.409	0.0160667
671.487	0.0160630
671.565	0.0160370
671.643	0.0162669
671.721	0.0161646
671.799	0.0162765
671.878	0.0163696
671.956	0.0163598
672.034	0.0164751
672.112	0.0165688
672.190	0.0163799
672.268	0.0164972
672.346	0.0165199
672.424	0.0164398
672.503	0.0165693
672.581	0.0165111
672.659	0.0164951
672.737	0.0165197
672.815	0.0165660
672.893	0.0165548
672.971	0.0163708
673.049	0.0164192
673.128	0.0164837
673.206	0.0164741
673.284	0.0163197
673.362	0.0163605
673.440	0.0163837
673.518	0.0164167
673.596	0.0164583
673.674	0.0162422
673.753	0.0162022
673.831	0.0163208
673.909	0.0163451
673.987	0.0164124
674.065	0.0161848
674.143	0.0160595
674.221	0.0161049
674.299	0.0161710
674.378	0.0161535
674.456	0.0161211
674.534	0.0160620
674.612	0.0161096
674.690	0.0161182
674.768	0.0160131
674.846	0.0160458
674.924	0.0161756
675.003	0.0161752
675.081	0.0161307
675.159	0.0161674
675.237	0.0160889
675.315	0.0162724
675.393	0.0162650
675.471	0.0162050
675.549	0.0162205
675.628	0.0161773
675.706	0.0162806
675.784	0.0161121
675.862	0.0161369
675.940	0.0162734
676.018	0.0163367
676.096	0.0164248
676.174	0.0163898
676.253	0.0163029
676.331	0.0163637
676.409	0.0165359
676.487	0.0165745
676.565	0.0164597
676.643	0.0166679
676.721	0.0166721
676.799	0.0164737
676.878	0.0165612
676.956	0.0166548
677.034	0.0166695
677.112	0.0167131
677.190	0.0165527
677.268	0.0165064
677.346	0.0163955
677.424	0.0165814
677.503	0.0164860
677.581	0.0163734
677.659	0.0163419
677.737	0.0163211
677.815	0.0162640
677.893	0.0162669
677.971	0.0163280
678.049	0.0163499
678.128	0.0163303
678.206	0.0162306
678.284	0.0161068
678.362	0.0162231
678.440	0.0161240
678.518	0.0161608
678.596	0.0163517
678.674	0.0161820
678.753	0.0162491
678.831	0.0161771
678.909	0.0160256
678.987	0.0161832
679.065	0.0162345
679.143	0.0162192
679.221	0.0161788
679.299	0.0161057
679.378	0.0162006
679.456	0.0161913
679.534	0.0161190
679.612	0.0161654
679.690	0.0163693
679.768	0.0163776
679.846	0.0162976
679.924	0.0163039
680.003	0.0163426
680.081	0.0162273
680.159	0.0161532
680.237	0.0163630
680.315	0.0163448
680.393	0.0162672
680.471	0.0162714
680.549	0.0163836
680.628	0.0162225
680.706	0.0162260
680.784	0.0162111
680.862	0.0162444
680.940	0.0161527
681.018	0.0161624
681.096	0.0162610
681.174	0.0161630
681.253	0.0161890
681.331	0.0161751
681.409	0.0163167
681.487	0.0162562
681.565	0.0163840
681.643	0.0163737
681.721	0.0163392
681.799	0.0162627
681.878	0.0163459
681.956	0.0163168
682.034	0.0164510
682.112	0.0163938
682.190	0.0163279
682.268	0.0163239
682.346	0.0162756
682.424	0.0163762
682.503	0.0162389
682.581	0.0163614
682.659	0.0161739
682.737	0.0164211
682.815	0.0163390
682.893	0.0163094
682.971	0.0162445
683.049	0.0162449
683.128	0.0162756
683.206	0.0160538
683.284	0.0160793
683.362	0.0161416
683.440	0.0161568
683.518	0.0160492
683.596	0.0159787
683.674	0.0160457
683.753	0.0160606
683.831	0.0159174
683.909	0.0160146
683.987	0.0161298
684.065	0.0161288
684.143	0.0161073
684.221	0.0163109
684.299	0.0162959
684.378	0.0161721
684.456	0.0163704
684.534	0.0165077
684.612	0.0164775
684.690	0.0166169
684.768	0.0164478
684.846	0.0165624
684.924	0.0165519
685.003	0.0165817
685.081	0.0166078
685.159	0.0163750
685.237	0.0163959
685.315	0.0163932
685.393	0.0163566
685.471	0.0161843
685.549	0.0163474
685.628	0.0161819
685.706	0.0159763
685.784	0.0159604
685.862	0.0160269
685.940	0.0161753
686.018	0.0160385
686.096	0.0159909
686.174	0.0160472
686.253	0.0162197
686.331	0.0162694
686.409	0.0162225
686.487	0.0162743
686.565	0.0163822
686.643	0.0164799
686.721	0.0162936
686.799	0.0164211
686.878	0.0162923
686.956	0.0163727
687.034	0.0164045
687.112	0.0164095
687.190	0.0163910
687.268	0.0162904
687.346	0.0164255
687.424	0.0164721
687.503	0.0163609
687.581	0.0163800
687.659	0.0163402
687.737	0.0164742
687.815	0.0163444
687.893	0.0163835
687.971	0.0164033
688.049	0.0163854
688.128	0.0164998
688.206	0.0164197
688.284	0.0164178
688.362	0.0164988
688.440	0.0163110
688.518	0.0164378
688.596	0.0163492
688.674	0.0162994
688.753	0.0161970
688.831	0.0163357
688.909	0.0162210
688.987	0.0162108
689.065	0.0162846
689.143	0.0162460
689.221	0.0163332
689.299	0.0161906
689.378	0.0162160
689.456	0.0162925
689.534	0.0162949
689.612	0.0162785
689.690	0.0163180
689.768	0.0163764
689.846	0.0162189
689.924	0.0163275
690.003	0.0162541
690.081	0.0162331
690.159	0.0163519
690.237	0.0162163
690.315	0.0161088
690.393	0.0161568
690.471	0.0162302
690.549	0.0161987
690.628	0.0162306
690.706	0.0163564
690.784	0.0161759
690.862	0.0162006
690.940	0.0162382
691.018	0.0161569
691.096	0.0163061
691.174	0.0162341
691.253	0.0164687
691.331	0.0163050
691.409	0.0163030
691.487	0.0163696
691.565	0.0164032
691.643	0.0163187
691.721	0.0164525
691.799	0.0164833
691.878	0.0163562
691.956	0.0164156
692.034	0.0164487
692.112	0.0164202
692.190	0.0162672
692.268	0.0160432
692.346	0.0162823
692.424	0.0161614
692.503	0.0161887
692.581	0.0162549
692.659	0.0161631
692.737	0.0162045
692.815	0.0162404
692.893	0.0162952
692.971	0.0163441
693.049	0.0164107
693.128	0.0163992
693.206	0.0163596
693.284	0.0164123
693.362	0.0164882
693.440	0.0165044
693.518	0.0166273
693.596	0.0166222
693.674	0.0165814
693.753	0.0164901
693.831	0.0164787
693.909	0.0164671
693.987	0.0165756
694.065	0.0164391
694.143	0.0162353
694.221	0.0163451
694.299	0.0164075
694.378	0.0162338
694.456	0.0162643
694.534	0.0163409
694.612	0.0163049
694.690	0.0162874
694.768	0.0161922
694.846	0.0162213
694.924	0.0162437
695.003	0.0161713
695.081	0.0160687
695.159	0.0162070
695.237	0.0161207
695.315	0.0162192
695.393	0.0160485
695.471	0.0159720
695.549	0.0160912
695.628	0.0160435
695.706	0.0160212
695.784	0.0159467
695.862	0.0159161
695.940	0.0161534
696.018	0.0159908
696.096	0.0161522
696.174	0.0162090
696.253	0.0162415
696.331	0.0163228
696.409	0.0162254
696.487	0.0162949
696.565	0.0163314
696.643	0.0162048
696.721	0.0163411
696.799	0.0163105
696.878	0.0163651
696.956	0.0164630
697.034	0.0164056
697.112	0.0165597
697.190	0.0165034
697.268	0.0164849
697.346	0.0165154
697.424	0.0165163
697.503	0.0165668
697.581	0.0165325
697.659	0.0164359
697.737	0.0165685
697.815	0.0166285
697.893	0.0166019
697.971	0.0166212
698.049	0.0165067
698.128	0.0164722
698.206	0.0164423
698.284	0.0164035
698.362	0.0163843
698.440	0.0164868
698.518	0.0163179
698.596	0.0162448
698.674	0.0162286
698.753	0.0161288
698.831	0.0160752
698.909	0.0159032
698.987	0.0160082
699.065	0.0159435
699.143	0.0159745
699.221	0.0159410
699.299	0.0159327
699.378	0.0160201
699.456	0.0159709
699.534	0.0160058
699.612	0.0160562
699.690	0.0161238
699.768	0.0160751
699.846	0.0161198
699.924	0.0161956
700.003	0.0161306
700.081	0.0160596
700.159	0.0162353
700.237	0.0162453
700.315	0.0161800
700.393	0.0161996
700.471	0.0162385
700.549	0.0161221
700.628	0.0161699
700.706	0.0161732
700.784	0.0161433
700.862	0.0162466
700.940	0.0162416
701.018	0.0161770
701.096	0.0162553
701.174	0.0162653
701.253	0.0162547
701.331	0.0163422
701.409	0.0162428
701.487	0.0162982
701.565	0.0162674
701.643	0.0162362
701.721	0.0162753
701.799	0.0164134
701.878	0.0163198
701.956	0.0163530
702.034	0.0162844
702.112	0.0162616
702.190	0.0163135
702.268	0.0163757
702.346	0.0163659
702.424	0.0161684
702.503	0.0161443
702.581	0.0162381
702.659	0.0162004
702.737	0.0162400
702.815	0.0162166
702.893	0.0160735
702.971	0.0161427
703.049	0.0160593
703.128	0.0160947
703.206	0.0160987
703.284	0.0160950
703.362	0.0161845
703.440	0.0162353
703.518	0.0162968
703.596	0.0163136
703.674	0.0161051
703.753	0.0159869
703.831	0.0161331
703.909	0.0161843
703.987	0.0161916
704.065	0.0163451
704.143	0.0161328
704.221	0.0161158
704.299	0.0161311
704.378	0.0162231
704.456	0.0161838
704.534	0.0162375
704.612	0.0162823
704.690	0.0163419
704.768	0.0162902
704.846	0.0163306
704.924	0.0164028
705.003	0.0164107
705.081	0.0165893
705.159	0.0166114
705.237	0.0166542
705.315	0.0165826
705.393	0.0165778
705.471	0.0166219
705.549	0.0165531
705.628	0.0164628
705.706	0.0164262
705.784	0.0163383
705.862	0.0163952
705.940	0.0162765
706.018	0.0162801
706.096	0.0163072
706.174	0.0162355
706.253	0.0162737
706.331	0.0162205
706.409	0.0163646
706.487	0.0164273
706.565	0.0162746
706.643	0.0162948
706.721	0.0162065
706.799	0.0163030
706.878	0.0163638
706.956	0.0163851
707.034	0.0163566
707.112	0.0162686
707.190	0.0163963
707.268	0.0163225
707.346	0.0161929
707.424	0.0162629
707.503	0.0163431
707.581	0.0162598
707.659	0.0161501
707.737	0.0161482
707.815	0.0162993
707.893	0.0163373
707.971	0.0163223
708.049	0.0162770
708.128	0.0163371
708.206	0.0162280
708.284	0.0163725
708.362	0.0163497
708.440	0.0161954
708.518	0.0162577
708.596	0.0163139
708.674	0.0162226
708.753	0.0162253
708.831	0.0162758
708.909	0.0162165
708.987	0.0161504
709.065	0.0163583
709.143	0.0163747
709.221	0.0163615
709.299	0.0163274
709.378	0.0164449
709.456	0.0165682
709.534	0.0163335
709.612	0.0165326
709.690	0.0165240
709.768	0.0165767
709.846	0.0165044
709.924	0.0164726
710.003	0.0165618
710.081	0.0165302
710.159	0.0164094
710.237	0.0162164
710.315	0.0164113
710.393	0.0163022
710.471	0.0163817
710.549	0.0163941
710.628	0.0163586
710.706	0.0162167
710.784	0.0162382
710.862	0.0163239
710.940	0.0162544
711.018	0.0163293
711.096	0.0163528
711.174	0.0162301
711.253	0.0162942
711.331	0.0162012
711.409	0.0163362
711.487	0.0162373
711.565	0.0163633
711.643	0.0162812
711.721	0.0162253
711.799	0.0162205
711.878	0.0161496
711.956	0.0161617
712.034	0.0162764
712.112	0.0162143
712.190	0.0161701
712.268	0.0162930
712.346	0.0162494
712.424	0.0161749
712.503	0.0163610
712.581	0.0161974
712.659	0.0161885
712.737	0.0162946
712.815	0.0165381
712.893	0.0165000
712.971	0.0164713
713.049	0.0164609
713.128	0.0165359
713.206	0.0163783
713.284	0.0165603
713.362	0.0165416
713.440	0.0165085
713.518	0.0165356
713.596	0.0164439
713.674	0.0163639
713.753	0.0162973
713.831	0.0163492
713.909	0.0164815
713.987	0.0163523
714.065	0.0163950
714.143	0.0163193
714.221	0.0162390
714.299	0.0162835
714.378	0.0163104
714.456	0.0164465
714.534	0.0163475
714.612	0.0163580
714.690	0.0162441
714.768	0.0163903
714.846	0.0163195
714.924	0.0163496
715.003	0.0163068
715.081	0.0162048
715.159	0.0163930
715.237	0.0161848
715.315	0.0163520
715.393	0.0163377
715.471	0.0162895
715.549	0.0163036
715.628	0.0162749
715.706	0.0164035
715.784	0.0163617
715.862	0.0163522
715.940	0.0162700
716.018	0.0163358
716.096	0.0162852
716.174	0.0164513
716.253	0.0163542
716.331	0.0163097
716.409	0.0163810
716.487	0.0162778
716.565	0.0162876
716.643	0.0163782
716.721	0.0162379
716.799	0.0162666
716.878	0.0162840
716.956	0.0161961
717.034	0.0160298
717.112	0.0161439
717.190	0.0160377
717.268	0.0160977
717.346	0.0161906
717.424	0.0162025
717.503	0.0163888
717.581	0.0162618
717.659	0.0161161
717.737	0.0161416
717.815	0.0162604
717.893	0.0162097
717.971	0.0161488
718.049	0.0161566
718.128	0.0162488
718.206	0.0161942
718.284	0.0162354
718.362	0.0162039
718.440	0.0161703
718.518	0.0161526
718.596	0.0162834
718.674	0.0161821
718.753	0.0162954
718.831	0.0161909
718.909	0.0160570
718.987	0.0164075
719.065	0.0162824
719.143	0.0163493
719.221	0.0162961
719.299	0.0163082
719.378	0.0163312
719.456	0.0164051
719.534	0.0163271
719.612	0.0162348
719.690	0.0162095
719.768	0.0160614
719.846	0.0162903
719.924	0.0162183
720.003	0.0161531
720.081	0.0163196
720.159	0.0163209
720.237	0.0163179
720.315	0.0163376
720.393	0.0164396
720.471	0.0163264
720.549	0.0163271
720.628	0.0163786
720.706	0.0164232
720.784	0.0163755
720.862	0.0163805
720.940	0.0160976
721.018	0.0164159
721.096	0.0165261
721.174	0.0162838
721.253	0.0164537
721.331	0.0162951
721.409	0.0162188
721.487	0.0163425
721.565	0.0162024
721.643	0.0163855
721.721	0.0163664
721.799	0.0162260
721.878	0.0162216
721.956	0.0163079
722.034	0.0163455
722.112	0.0162614
722.190	0.0162645
722.268	0.0161582
722.346	0.0161757
722.424	0.0161304
722.503	0.0162381
722.581	0.0162257
722.659	0.0161618
722.737	0.0162901
722.815	0.0161436
722.893	0.0162183
722.971	0.0162777
723.049	0.0162218
723.128	0.0162737
723.206	0.0162164
723.284	0.0161929
723.362	0.0162835
723.440	0.0163474
723.518	0.0163612
723.596	0.0163199
723.674	0.0162524
723.753	0.0165410
723.831	0.0164403
723.909	0.0162749
723.987	0.0163504
724.065	0.0163657
724.143	0.0161860
724.221	0.0163684
724.299	0.0164112
724.378	0.0163129
724.456	0.0164293
724.534	0.0164597
724.612	0.0164849
724.690	0.0164191
724.768	0.0164404
724.846	0.0163455
724.924	0.0165093
725.003	0.0164030
725.081	0.0164354
725.159	0.0163136
725.237	0.0163707
725.315	0.0162277
725.393	0.0164491
725.471	0.0162675
725.549	0.0163276
725.628	0.0161832
725.706	0.0162059
725.784	0.0163177
725.862	0.0161967
725.940	0.0161837
726.018	0.0161324
726.096	0.0161493
726.174	0.0162620
726.253	0.0162778
726.331	0.0161422
726.409	0.0161570
726.487	0.0163428
726.565	0.0162074
726.643	0.0162267
726.721	0.0164238
726.799	0.0163480
726.878	0.0162302
726.956	0.0164886
727.034	0.0163381
727.112	0.0164185
727.190	0.0163044
727.268	0.0164442
727.346	0.0163582
727.424	0.0165968
727.503	0.0166505
727.581	0.0164417
727.659	0.0164493
727.737	0.0163487
727.815	0.0165926
727.893	0.0164149
727.971	0.0164538
728.049	0.0164407
728.128	0.0165556
728.206	0.0166086
728.284	0.0165939
728.362	0.0166042
728.440	0.0167036
728.518	0.0166678
728.596	0.0165260
728.674	0.0167479
728.753	0.0165261
728.831	0.0165421
728.909	0.0165247
728.987	0.0165971
729.065	0.0166442
729.143	0.0165993
729.221	0.0164385
729.299	0.0165376
729.378	0.0165338
729.456	0.0164893
729.534	0.0164944
729.612	0.0164738
729.690	0.0163850
729.768	0.0164276
729.846	0.0165168
729.924	0.0164285
730.003	0.0163666
730.081	0.0164738
730.159	0.0164068
730.237	0.0164498
730.315	0.0161652
730.393	0.0162656
730.471	0.0162825
730.549	0.0163696
730.628	0.0163475
730.706	0.0162388
730.784	0.0163045
730.862	0.0162827
730.940	0.0162157
731.018	0.0162766
731.096	0.0163577
731.174	0.0162678
731.253	0.0163525
731.331	0.0162552
731.409	0.0161607
731.487	0.0162815
731.565	0.0161459
731.643	0.0161517
731.721	0.0162977
731.799	0.0162282
731.878	0.0162041
731.956	0.0163390
732.034	0.0161491
732.112	0.0161569
732.190	0.0162038
732.268	0.0163812
732.346	0.0163425
732.424	0.0162151
732.503	0.0162820
732.581	0.0163145
732.659	0.0163805
732.737	0.0162902
732.815	0.0164904
732.893	0.0163892
732.971	0.0163356
733.049	0.0163988
733.128	0.0164594
733.206	0.0162346
733.284	0.0162468
733.362	0.0163527
733.440	0.0163429
733.518	0.0162704
733.596	0.0163344
733.674	0.0161604
733.753	0.0163096
733.831	0.0162541
733.909	0.0162886
733.987	0.0163969
734.065	0.0164141
734.143	0.0162881
734.221	0.0162659
734.299	0.0162977
734.378	0.0164156
734.456	0.0163657
734.534	0.0163219
734.612	0.0162735
734.690	0.0163686
734.768	0.0163914
734.846	0.0164324
734.924	0.0164216
735.003	0.0163773
735.081	0.0164894
735.159	0.0163214
735.237	0.0163337
735.315	0.0163842
735.393	0.0163888
735.471	0.0165419
735.549	0.0163380
735.628	0.0163690
735.706	0.0163457
735.784	0.0163622
735.862	0.0163520
735.940	0.0163225
736.018	0.0163744
736.096	0.0163461
736.174	0.0164803
736.253	0.0163474
736.331	0.0164164
736.409	0.0164113
736.487	0.0164645
736.565	0.0165149
736.643	0.0164132
736.721	0.0163612
736.799	0.0163696
736.878	0.0164024
736.956	0.0165037
737.034	0.0163665
737.112	0.0162810
737.190	0.0162674
737.268	0.0162600
737.346	0.0163577
737.424	0.0162789
737.503	0.0162653
737.581	0.0162434
737.659	0.0162890
737.737	0.0162514
737.815	0.0162207
737.893	0.0161064
737.971	0.0161133
738.049	0.0160650
738.128	0.0161707
738.206	0.0161391
738.284	0.0161135
738.362	0.0161322
738.440	0.0161201
738.518	0.0162012
738.596	0.0162071
738.674	0.0160878
738.753	0.0161264
738.831	0.0162955
738.909	0.0162323
738.987	0.0161637
739.065	0.0160697
739.143	0.0161546
739.221	0.0160762
739.299	0.0162119
739.378	0.0161510
739.456	0.0161314
739.534	0.0162310
739.612	0.0162254
739.690	0.0163253
739.768	0.0161920
739.846	0.0161095
739.924	0.0161390
740.003	0.0161681
740.081	0.0162309
740.159	0.0161814
740.237	0.0163161
740.315	0.0163432
740.393	0.0162798
740.471	0.0163024
740.549	0.0161692
740.628	0.0163563
740.706	0.0162816
740.784	0.0162915
740.862	0.0161964
740.940	0.0161771
741.018	0.0162497
741.096	0.0162518
741.174	0.0162009
741.253	0.0161419
741.331	0.0162280
741.409	0.0162463
741.487	0.0162503
741.565	0.0160840
741.643	0.0162336
741.721	0.0162646
741.799	0.0163077
741.878	0.0163062
741.956	0.0162883
742.034	0.0162514
742.112	0.0162758
742.190	0.0162170
742.268	0.0162737
742.346	0.0162973
742.424	0.0162852
742.503	0.0164967
742.581	0.0164131
742.659	0.0162740
742.737	0.0164234
742.815	0.0165319
742.893	0.0165274
742.971	0.0165370
743.049	0.0164333
743.128	0.0165158
743.206	0.0163258
743.284	0.0164507
743.362	0.0165542
743.440	0.0166333
743.518	0.0165360
743.596	0.0165901
743.674	0.0165580
743.753	0.0164846
743.831	0.0166147
743.909	0.0165865
743.987	0.0165372
744.065	0.0164527
744.143	0.0164140
744.221	0.0165186
744.299	0.0164214
744.378	0.0164287
744.456	0.0164632
744.534	0.0164812
744.612	0.0165051
744.690	0.0162860
744.768	0.0163131
744.846	0.0163332
744.924	0.0162402
745.003	0.0163313
745.081	0.0163735
745.159	0.0163122
745.237	0.0161987
745.315	0.0164052
745.393	0.0162418
745.471	0.0161308
745.549	0.0163261
745.628	0.0163325
745.706	0.0163075
745.784	0.0161054
745.862	0.0162202
745.940	0.0162875
746.018	0.0163105
746.096	0.0162177
746.174	0.0161806
746.253	0.0162365
746.331	0.0161040
746.409	0.0162077
746.487	0.0161704
746.565	0.0162065
746.643	0.0161663
746.721	0.0160942
746.799	0.0162023
746.878	0.0160593
746.956	0.0161619
747.034	0.0162390
747.112	0.0162004
747.190	0.0161249
747.268	0.0161150
747.346	0.0163106
747.424	0.0160750
747.503	0.0161726
747.581	0.0161909
747.659	0.0161039
747.737	0.0162138
747.815	0.0162048
747.893	0.0162519
747.971	0.0163070
748.049	0.0162414
748.128	0.0161787
748.206	0.0162823
748.284	0.0161623
748.362	0.0162647
748.440	0.0161950
748.518	0.0161145
748.596	0.0162296
748.674	0.0162963
748.753	0.0163363
748.831	0.0163342
748.909	0.0162608
748.987	0.0160960
749.065	0.0161938
749.143	0.0164146
749.221	0.0162440
749.299	0.0162250
749.378	0.0161938
749.456	0.0163779
749.534	0.0163621
749.612	0.0162597
749.690	0.0163040
749.768	0.0164338
749.846	0.0164713
749.924	0.0164900
750.003	0.0164483
750.081	0.0163995
750.159	0.0164587
750.237	0.0165221
750.315	0.0163409
750.393	0.0163008
750.471	0.0163361
750.549	0.0164790
750.628	0.0163558
750.706	0.0163402
750.784	0.0163848
750.862	0.0164100
750.940	0.0164034
751.018	0.0163478
751.096	0.0163417
751.174	0.0165758
751.253	0.0163622
751.331	0.0164584
751.409	0.0165696
751.487	0.0165613
751.565	0.0165414
751.643	0.0165300
751.721	0.0164422
751.799	0.0165093
751.878	0.0165086
751.956	0.0164944
752.034	0.0164644
752.112	0.0164658
752.190	0.0164678
752.268	0.0165339
752.346	0.0163465
752.424	0.0163831
752.503	0.0163003
752.581	0.0163388
752.659	0.0163892
752.737	0.0164155
752.815	0.0162369
752.893	0.0163469
752.971	0.0163673
753.049	0.0163322
753.128	0.0162525
753.206	0.0162231
753.284	0.0162564
753.362	0.0162144
753.440	0.0161927
753.518	0.0162270
753.596	0.0161206
753.674	0.0163509
753.753	0.0163316
753.831	0.0162279
753.909	0.0162626
753.987	0.0161224
754.065	0.0160793
754.143	0.0161013
754.221	0.0161086
754.299	0.0162066
754.378	0.0161167
754.456	0.0160461
754.534	0.0161406
754.612	0.0161224
754.690	0.0160718
754.768	0.0161037
754.846	0.0160054
754.924	0.0160919
755.003	0.0160747
755.081	0.0160629
755.159	0.0160542
755.237	0.0161810
755.315	0.0161871
755.393	0.0162568
755.471	0.0162410
755.549	0.0162837
755.628	0.0163768
755.706	0.0162973
755.784	0.0162070
755.862	0.0163234
755.940	0.0163716
756.018	0.0164176
756.096	0.0163630
756.174	0.0164053
756.253	0.0164294
756.331	0.0164091
756.409	0.0162891
756.487	0.0164696
756.565	0.0164705
756.643	0.0162617
756.721	0.0165047
756.799	0.0164365
756.878	0.0164771
756.956	0.0164610
757.034	0.0164309
757.112	0.0164392
757.190	0.0162505
757.268	0.0164617
757.346	0.0165441
757.424	0.0166100
757.503	0.0165813
757.581	0.0164381
757.659	0.0163496
757.737	0.0166604
757.815	0.0164947
757.893	0.0165031
757.971	0.0164221
758.049	0.0164774
758.128	0.0163805
758.206	0.0163863
758.284	0.0162820
758.362	0.0164420
758.440	0.0164892
758.518	0.0163062
758.596	0.0164934
758.674	0.0162430
758.753	0.0164155
758.831	0.0164133
758.909	0.0164521
758.987	0.0164214
759.065	0.0163206
759.143	0.0163494
759.221	0.0163244
759.299	0.0164094
759.378	0.0163389
759.456	0.0162936
759.534	0.0162395
759.612	0.0162682
759.690	0.0162699
759.768	0.0163688
759.846	0.0163010
759.924	0.0161729
760.003	0.0162886
760.081	0.0162710
760.159	0.0163780
760.237	0.0162978
760.315	0.0163424
760.393	0.0164266
760.471	0.0163541
760.549	0.0164620
760.628	0.0163870
760.706	0.0162900
760.784	0.0161227
760.862	0.0161779
760.940	0.0161121
761.018	0.0161425
761.096	0.0161655
761.174	0.0161675
761.253	0.0161009
761.331	0.0160807
761.409	0.0161079
761.487	0.0160030
761.565	0.0161629
761.643	0.0161138
761.721	0.0160593
761.799	0.0161056
761.878	0.0161856
761.956	0.0161681
762.034	0.0161990
762.112	0.0161382
762.190	0.0162054
762.268	0.0162212
762.346	0.0161568
762.424	0.0161267
762.503	0.0161311
762.581	0.0160922
762.659	0.0161332
762.737	0.0161384
762.815	0.0160257
762.893	0.0161020
762.971	0.0162497
763.049	0.0161391
763.128	0.0160230
763.206	0.0161179
763.284	0.0161748
763.362	0.0162035
763.440	0.0162079
763.518	0.0161858
763.596	0.0162938
763.674	0.0161524
763.753	0.0161916
763.831	0.0162945
763.909	0.0162921
763.987	0.0162794
764.065	0.0163805
764.143	0.0162764
764.221	0.0163642
764.299	0.0164490
764.378	0.0163889
764.456	0.0164329
764.534	0.0164066
764.612	0.0163902
764.690	0.0164182
764.768	0.0165427
764.846	0.0163232
764.924	0.0164571
765.003	0.0165098
765.081	0.0164532
765.159	0.0164814
765.237	0.0165040
765.315	0.0165461
765.393	0.0163638
765.471	0.0164546
765.549	0.0165448
765.628	0.0164983
765.706	0.0163611
765.784	0.0163377
765.862	0.0163396
765.940	0.0164528
766.018	0.0164057
766.096	0.0163718
766.174	0.0164291
766.253	0.0164371
766.331	0.0164159
766.409	0.0164022
766.487	0.0164121
766.565	0.0164522
766.643	0.0164110
766.721	0.0164896
766.799	0.0162289
766.878	0.0164778
766.956	0.0165554
767.034	0.0163023
767.112	0.0163570
767.190	0.0163977
767.268	0.0162535
767.346	0.0163806
767.424	0.0161949
767.503	0.0161214
767.581	0.0162209
767.659	0.0163030
767.737	0.0162621
767.815	0.0162650
767.893	0.0162801
767.971	0.0162580
768.049	0.0162910
768.128	0.0162946
768.206	0.0162659
768.284	0.0163074
768.362	0.0161927
768.440	0.0161855
768.518	0.0162766
768.596	0.0162868
768.674	0.0162608
768.753	0.0162498
768.831	0.0161903
768.909	0.0161366
768.987	0.0160933
769.065	0.0163031
769.143	0.0161952
769.221	0.0161115
769.299	0.0160755
769.378	0.0161160
769.456	0.0161954
769.534	0.0160729
769.612	0.0161717
769.690	0.0161344
769.768	0.0161783
769.846	0.0163146
769.924	0.0162311
770.003	0.0162316
770.081	0.0162001
770.159	0.0161433
770.237	0.0162950
770.315	0.0160518
770.393	0.0160918
770.471	0.0161404
770.549	0.0161774
770.628	0.0160255
770.706	0.0160393
770.784	0.0160286
770.862	0.0160744
770.940	0.0161526
771.018	0.0160749
771.096	0.0162534
771.174	0.0161751
771.253	0.0162058
771.331	0.0163927
771.409	0.0162106
771.487	0.0163342
771.565	0.0163501
771.643	0.0163171
771.721	0.0162923
771.799	0.0164393
771.878	0.0163083
771.956	0.0162965
772.034	0.0163464
772.112	0.0164017
772.190	0.0162768
772.268	0.0162840
772.346	0.0161679
772.424	0.0162962
772.503	0.0163708
772.581	0.0164557
772.659	0.0163271
772.737	0.0164159
772.815	0.0161803
772.893	0.0164050
772.971	0.0164176
773.049	0.0165627
773.128	0.0163779
773.206	0.0164690
773.284	0.0164169
773.362	0.0163886
773.440	0.0164621
773.518	0.0163947
773.596	0.0164118
773.674	0.0164032
773.753	0.0164671
773.831	0.0164536
773.909	0.0163349
773.987	0.0163483
774.065	0.0165752
774.143	0.0165565
774.221	0.0163480
774.299	0.0163879
774.378	0.0164945
774.456	0.0162908
774.534	0.0163210
774.612	0.0163003
774.690	0.0164401
774.768	0.0163214
774.846	0.0164901
774.924	0.0165102
775.003	0.0164382
775.081	0.0165444
775.159	0.0164415
775.237	0.0163109
775.315	0.0162954
775.393	0.0163912
775.471	0.0163392
775.549	0.0162735
775.628	0.0162529
775.706	0.0162305
775.784	0.0162656
775.862	0.0162283
775.940	0.0161129
776.018	0.0161445
776.096	0.0160155
776.174	0.0161356
776.253	0.0160488
776.331	0.0161055
776.409	0.0161018
776.487	0.0158656
776.565	0.0160366
776.643	0.0160720
776.721	0.0159853
776.799	0.0160726
776.878	0.0162083
776.956	0.0160472
777.034	0.0160309
777.112	0.0162162
777.190	0.0160404
777.268	0.0161043
777.346	0.0160791
777.424	0.0160628
777.503	0.0160090
777.581	0.0160995
777.659	0.0160468
777.737	0.0160071
777.815	0.0161727
777.893	0.0162866
777.971	0.0161637
778.049	0.0161751
778.128	0.0162672
778.206	0.0161676
778.284	0.0163036
778.362	0.0163005
778.440	0.0161044
778.518	0.0162905
778.596	0.0162574
778.674	0.0162359
778.753	0.0163039
778.831	0.0163935
778.909	0.0164240
778.987	0.0163401
779.065	0.0163297
779.143	0.0163754
779.221	0.0164004
779.299	0.0163789
779.378	0.0164117
779.456	0.0164573
779.534	0.0163000
779.612	0.0163437
779.690	0.0163918
779.768	0.0164010
779.846	0.0164263
779.924	0.0164933
780.003	0.0164834
780.081	0.0163007
780.159	0.0164320
780.237	0.0163934
780.315	0.0162945
780.393	0.0163854
780.471	0.0162856
780.549	0.0163154
780.628	0.0163548
780.706	0.0163696
780.784	0.0163639
780.862	0.0162508
780.940	0.0163499
781.018	0.0164181
781.096	0.0164116
781.174	0.0163778
781.253	0.0163657
781.331	0.0162896
781.409	0.0163572
781.487	0.0163150
781.565	0.0163274
781.643	0.0162357
781.721	0.0162692
781.799	0.0162481
781.878	0.0162290
781.956	0.0161874
782.034	0.0161448
782.112	0.0163153
782.190	0.0161856
782.268	0.0162661
782.346	0.0162966
782.424	0.0161676
782.503	0.0162859
782.581	0.0162772
782.659	0.0162865
782.737	0.0162572
782.815	0.0163410
782.893	0.0162518
782.971	0.0162224
783.049	0.0162436
783.128	0.0162874
783.206	0.0162737
783.284	0.0161938
783.362	0.0161327
783.440	0.0163076
783.518	0.0162074
783.596	0.0161794
783.674	0.0162513
783.753	0.0163078
783.831	0.0163069
783.909	0.0163262
783.987	0.0164259
784.065	0.0163143
784.143	0.0162981
784.221	0.0163637
784.299	0.0161781
784.378	0.0162004
784.456	0.0161799
784.534	0.0163087
784.612	0.0163577
784.690	0.0162647
784.768	0.0162855
784.846	0.0163278
784.924	0.0163750
785.003	0.0162157
785.081	0.0163025
785.159	0.0161803
785.237	0.0162409
785.315	0.0162893
785.393	0.0162820
785.471	0.0164353
785.549	0.0164072
785.628	0.0164083
785.706	0.0163317
785.784	0.0162785
785.862	0.0164054
785.940	0.0162631
786.018	0.0162666
786.096	0.0165111
786.174	0.0163678
786.253	0.0163301
786.331	0.0162709
786.409	0.0164753
786.487	0.0163882
786.565	0.0163778
786.643	0.0164301
786.721	0.0161971
786.799	0.0164111
786.878	0.0163042
786.956	0.0163930
787.034	0.0164197
787.112	0.0163695
787.190	0.0163329
787.268	0.0162288
787.346	0.0162860
787.424	0.0163327
787.503	0.0164954
787.581	0.0163274
787.659	0.0161437
787.737	0.0162460
787.815	0.0162323
787.893	0.0162734
787.971	0.0162309
788.049	0.0163301
788.128	0.0163860
788.206	0.0162708
788.284	0.0161654
788.362	0.0163337
788.440	0.0162994
788.518	0.0161848
788.596	0.0161512
788.674	0.0162189
788.753	0.0163981
788.831	0.0161741
788.909	0.0162108
788.987	0.0161546
789.065	0.0162422
789.143	0.0162197
789.221	0.0162022
789.299	0.0161506
789.378	0.0162701
789.456	0.0162309
789.534	0.0163718
789.612	0.0162728
789.690	0.0164510
789.768	0.0162066
789.846	0.0162780
789.924	0.0164216
790.003	0.0164716
790.081	0.0164653
790.159	0.0163573
790.237	0.0164970
790.315	0.0164642
790.393	0.0165316
790.471	0.0165675
790.549	0.0164230
790.628	0.0163992
790.706	0.0164639
790.784	0.0164782
790.862	0.0165073
790.940	0.0164548
791.018	0.0163692
791.096	0.0165035
791.174	0.0163961
791.253	0.0164430
791.331	0.0164185
791.409	0.0165459
791.487	0.0165919
791.565	0.0165183
791.643	0.0163239
791.721	0.0164389
791.799	0.0164399
791.878	0.0163704
791.956	0.0164108
792.034	0.0164446
792.112	0.0164352
792.190	0.0164016
792.268	0.0162856
792.346	0.0163949
792.424	0.0164011
792.503	0.0162884
792.581	0.0162424
792.659	0.0163164
792.737	0.0162658
792.815	0.0161720
792.893	0.0163210
792.971	0.0161275
793.049	0.0162763
793.128	0.0161289
793.206	0.0162817
793.284	0.0161851
793.362	0.0162509
793.440	0.0161985
793.518	0.0161546
793.596	0.0162260
793.674	0.0162488
793.753	0.0161777
793.831	0.0161303
793.909	0.0161364
793.987	0.0160646
794.065	0.0160503
794.143	0.0161421
794.221	0.0160351
794.299	0.0161012
794.378	0.0161154
794.456	0.0161895
794.534	0.0161945
794.612	0.0161143
794.690	0.0161741
794.768	0.0160551
794.846	0.0160701
794.924	0.0162543
795.003	0.0161583
795.081	0.0160502
795.159	0.0161411
795.237	0.0161350
795.315	0.0161081
795.393	0.0159991
795.471	0.0160128
795.549	0.0160947
795.628	0.0160176
795.706	0.0161494
795.784	0.0160842
795.862	0.0160648
795.940	0.0161309
796.018	0.0160532
796.096	0.0161116
796.174	0.0161812
796.253	0.0162265
796.331	0.0162310
796.409	0.0161589
796.487	0.0161993
796.565	0.0162185
796.643	0.0161573
796.721	0.0162803
796.799	0.0161603
796.878	0.0162724
796.956	0.0161002
797.034	0.0161726
797.112	0.0163982
797.190	0.0161196
797.268	0.0162072
797.346	0.0162984
797.424	0.0162183
797.503	0.0164010
797.581	0.0163510
797.659	0.0162874
797.737	0.0162231
797.815	0.0165406
797.893	0.0164361
797.971	0.0164682
798.049	0.0163166
798.128	0.0164784
798.206	0.0164742
798.284	0.0163457
798.362	0.0165238
798.440	0.0165266
798.518	0.0164868
798.596	0.0164860
798.674	0.0165208
798.753	0.0163970
798.831	0.0163998
798.909	0.0164555
798.987	0.0164241
799.065	0.0163786
799.143	0.0163557
799.221	0.0164177
799.299	0.0163608
799.378	0.0164350
799.456	0.0163649
799.534	0.0164975
799.612	0.0164050
799.690	0.0162829
799.768	0.0163988
799.846	0.0163318
799.924	0.0162891
800.003	0.0163162
800.081	0.0162387
800.159	0.0163758
800.237	0.0162569
800.315	0.0162698
800.393	0.0162974
800.471	0.0163107
800.549	0.0162598
800.628	0.0163268
800.706	0.0162295
800.784	0.0161744
800.862	0.0161258
800.940	0.0161221
801.018	0.0161726
801.096	0.0163084
801.174	0.0160757
801.253	0.0161880
801.331	0.0161854
801.409	0.0161817
801.487	0.0161843
801.565	0.0161770
801.643	0.0160270
801.721	0.0161452
801.799	0.0161050
801.878	0.0160532
801.956	0.0160843
802.034	0.0161531
802.112	0.0161495
802.190	0.0160868
802.268	0.0160429
802.346	0.0161249
802.424	0.0160949
802.503	0.0161873
802.581	0.0160896
802.659	0.0161806
802.737	0.0161024
802.815	0.0161028
802.893	0.0162167
802.971	0.0162535
803.049	0.0162016
803.128	0.0162772
803.206	0.0162131
803.284	0.0162486
803.362	0.0161222
803.440	0.0162220
803.518	0.0161190
803.596	0.0163223
803.674	0.0162810
803.753	0.0161749
803.831	0.0161691
803.909	0.0161943
803.987	0.0163056
804.065	0.0162704
804.143	0.0162612
804.221	0.0163418
804.299	0.0162585
804.378	0.0161948
804.456	0.0163454
804.534	0.0162759
804.612	0.0162727
804.690	0.0162012
804.768	0.0162688
804.846	0.0163081
804.924	0.0163376
805.003	0.0163443
805.081	0.0164251
805.159	0.0163491
805.237	0.0163097
805.315	0.0162825
805.393	0.0163382
805.471	0.0162138
805.549	0.0163852
805.628	0.0165073
805.706	0.0164745
805.784	0.0163791
805.862	0.0164277
805.940	0.0164077
806.018	0.0164861
806.096	0.0165223
806.174	0.0164525
806.253	0.0165311
806.331	0.0165625
806.409	0.0165923
806.487	0.0165749
806.565	0.0165574
806.643	0.0165416
806.721	0.0166071
806.799	0.0165569
806.878	0.0165613
806.956	0.0166649
807.034	0.0166269
807.112	0.0165586
807.190	0.0165429
807.268	0.0167237
807.346	0.0165985
807.424	0.0166616
807.503	0.0166732
807.581	0.0166135
807.659	0.0166019
807.737	0.0165590
807.815	0.0165150
807.893	0.0166093
807.971	0.0165523
808.049	0.0164373
808.128	0.0164941
808.206	0.0163160
808.284	0.0163886
808.362	0.0164899
808.440	0.0163860
808.518	0.0163143
808.596	0.0163250
808.674	0.0163592
808.753	0.0163348
808.831	0.0162423
808.909	0.0164232
808.987	0.0162834
809.065	0.0162203
809.143	0.0162589
809.221	0.0163232
809.299	0.0163350
809.378	0.0163005
809.456	0.0162479
809.534	0.0161466
809.612	0.0163555
809.690	0.0163476
809.768	0.0161591
809.846	0.0162496
809.924	0.0162747
810.003	0.0162846
810.081	0.0161868
810.159	0.0161695
810.237	0.0162910
810.315	0.0161717
810.393	0.0161989
810.471	0.0161884
810.549	0.0162091
810.628	0.0161752
810.706	0.0161986
810.784	0.0162601
810.862	0.0161512
810.940	0.0162215
811.018	0.0162717
811.096	0.0161163
811.174	0.0162108
811.253	0.0162057
811.331	0.0163227
811.409	0.0162362
811.487	0.0161827
811.565	0.0160804
811.643	0.0161837
811.721	0.0162249
811.799	0.0164244
811.878	0.0161739
811.956	0.0161516
812.034	0.0163358
812.112	0.0161648
812.190	0.0163225
812.268	0.0162601
812.346	0.0162975
812.424	0.0163799
812.503	0.0162878
812.581	0.0163432
812.659	0.0162576
812.737	0.0163708
812.815	0.0162583
812.893	0.0163046
812.971	0.0163354
813.049	0.0163053
813.128	0.0162885
813.206	0.0163761
813.284	0.0164455
813.362	0.0162408
813.440	0.0163171
813.518	0.0163366
813.596	0.0163398
813.674	0.0164030
813.753	0.0164274
813.831	0.0164578
813.909	0.0165011
813.987	0.0164200
814.065	0.0165357
814.143	0.0165318
814.221	0.0164086
814.299	0.0164333
814.378	0.0164905
814.456	0.0163553
814.534	0.0164216
814.612	0.0164264
814.690	0.0163344
814.768	0.0163165
814.846	0.0164157
814.924	0.0164158
815.003	0.0163878
815.081	0.0163608
815.159	0.0165533
815.237	0.0163152
815.315	0.0165279
815.393	0.0165333
815.471	0.0163522
815.549	0.0163168
815.628	0.0165098
815.706	0.0163396
815.784	0.0164671
815.862	0.0165067
815.940	0.0164641
816.018	0.0162445
816.096	0.0163452
816.174	0.0164048
816.253	0.0162884
816.331	0.0163007
816.409	0.0163119
816.487	0.0163226
816.565	0.0163295
816.643	0.0162154
816.721	0.0163477
816.799	0.0162856
816.878	0.0161609
816.956	0.0163290
817.034	0.0161806
817.112	0.0159893
817.190	0.0161076
817.268	0.0160354
817.346	0.0160489
817.424	0.0161725
817.503	0.0160703
817.581	0.0160126
817.659	0.0161492
817.737	0.0160913
817.815	0.0159608
817.893	0.0160975
817.971	0.0161162
818.049	0.0161237
818.128	0.0162249
818.206	0.0159794
818.284	0.0161345
818.362	0.0162315
818.440	0.0160036
818.518	0.0161467
818.596	0.0160706
818.674	0.0162701
818.753	0.0160806
818.831	0.0160214
818.909	0.0161313
818.987	0.0162459
819.065	0.0162464
819.143	0.0160601
819.221	0.0160754
819.299	0.0161422
819.378	0.0160526
819.456	0.0160751
819.534	0.0160679
819.612	0.0161672
819.690	0.0160615
819.768	0.0162405
819.846	0.0162465
819.924	0.0161957
820.003	0.0161929
820.081	0.0162798
820.159	0.0162134
820.237	0.0161519
820.315	0.0161838
820.393	0.0161938
820.471	0.0162009
820.549	0.0162125
820.628	0.0162995
820.706	0.0161594
820.784	0.0162663
820.862	0.0163561
820.940	0.0161800
821.018	0.0162919
821.096	0.0161638
821.174	0.0163233
821.253	0.0162498
821.331	0.0162960
821.409	0.0162764
821.487	0.0162577
821.565	0.0163357
821.643	0.0164377
821.721	0.0163926
821.799	0.0163451
821.878	0.0163211
821.956	0.0163968
822.034	0.0165392
822.112	0.0165146
822.190	0.0164986
822.268	0.0163667
822.346	0.0164742
822.424	0.0164520
822.503	0.0165209
822.581	0.0164611
822.659	0.0163784
822.737	0.0163593
822.815	0.0165159
822.893	0.0164952
822.971	0.0163242
823.049	0.0163829
823.128	0.0163918
823.206	0.0164911
823.284	0.0163492
823.362	0.0163943
823.440	0.0164598
823.518	0.0164149
823.596	0.0164034
823.674	0.0163586
823.753	0.0163663
823.831	0.0164246
823.909	0.0163284
823.987	0.0164388
824.065	0.0164152
824.143	0.0163917
824.221	0.0163033
824.299	0.0163061
824.378	0.0164457
824.456	0.0162727
824.534	0.0162934
824.612	0.0163349
824.690	0.0163177
824.768	0.0162433
824.846	0.0163070
824.924	0.0163387
825.003	0.0162957
825.081	0.0163021
825.159	0.0162312
825.237	0.0161998
825.315	0.0163663
825.393	0.0161073
825.471	0.0161185
825.549	0.0162142
825.628	0.0162769
825.706	0.0162259
825.784	0.0161462
825.862	0.0161008
825.940	0.0161480
826.018	0.0161964
826.096	0.0161208
826.174	0.0160092
826.253	0.0161604
826.331	0.0162052
826.409	0.0162150
826.487	0.0160963
826.565	0.0161562
826.643	0.0162822
826.721	0.0160929
826.799	0.0162618
826.878	0.0161133
826.956	0.0162120
827.034	0.0162882
827.112	0.0163137
827.190	0.0163043
827.268	0.0160210
827.346	0.0160911
827.424	0.0162534
827.503	0.0161140
827.581	0.0162687
827.659	0.0161773
827.737	0.0161476
827.815	0.0161324
827.893	0.0162717
827.971	0.0162018
828.049	0.0164157
828.128	0.0162727
828.206	0.0162289
828.284	0.0162381
828.362	0.0163865
828.440	0.0164339
828.518	0.0164255
828.596	0.0163915
828.674	0.0164945
828.753	0.0164195
828.831	0.0165405
828.909	0.0164117
828.987	0.0164904
829.065	0.0165112
829.143	0.0165270
829.221	0.0164207
829.299	0.0164537
829.378	0.0165625
829.456	0.0165324
829.534	0.0166319
829.612	0.0165973
829.690	0.0166009
829.768	0.0164496
829.846	0.0166666
829.924	0.0166671
830.003	0.0165141
830.081	0.0164397
830.159	0.0166656
830.237	0.0167322
830.315	0.0166169
830.393	0.0166092
830.471	0.0165467
830.549	0.0167110
830.628	0.0164809
830.706	0.0166496
830.784	0.0165710
830.862	0.0165559
830.940	0.0166483
831.018	0.0164610
831.096	0.0164822
831.174	0.0164240
831.253	0.0163919
831.331	0.0163950
831.409	0.0164868
831.487	0.0165103
831.565	0.0165825
831.643	0.0164121
831.721	0.0164841
831.799	0.0163947
831.878	0.0164697
831.956	0.0162926
832.034	0.0164693
832.112	0.0164153
832.190	0.0163917
832.268	0.0163866
832.346	0.0162960
832.424	0.0162412
832.503	0.0162479
832.581	0.0162678
832.659	0.0161613
832.737	0.0162669
832.815	0.0163335
832.893	0.0161900
832.971	0.0162437
833.049	0.0162562
833.128	0.0162045
833.206	0.0160854
833.284	0.0161620
833.362	0.0162356
833.440	0.0161787
833.518	0.0161113
833.596	0.0160381
833.674	0.0160236
833.753	0.0161823
833.831	0.0160027
833.909	0.0160545
833.987	0.0160978
834.065	0.0160208
834.143	0.0160149
834.221	0.0159695
834.299	0.0159613
834.378	0.0160812
834.456	0.0161374
834.534	0.0161282
834.612	0.0160538
834.690	0.0161026
834.768	0.0162181
834.846	0.0161475
834.924	0.0161191
835.003	0.0161279
835.081	0.0161455
835.159	0.0161222
835.237	0.0161350
835.315	0.0160862
835.393	0.0161365
835.471	0.0162623
835.549	0.0162089
835.628	0.0161005
835.706	0.0161868
835.784	0.0162506
835.862	0.0162946
835.940	0.0162026
836.018	0.0162877
836.096	0.0162981
836.174	0.0162827
836.253	0.0162929
836.331	0.0164327
836.409	0.0163065
836.487	0.0163083
836.565	0.0163116
836.643	0.0164671
836.721	0.0162266
836.799	0.0164674
836.878	0.0163219
836.956	0.0163911
837.034	0.0164125
837.112	0.0164116
837.190	0.0162947
837.268	0.0162685
837.346	0.0164706
837.424	0.0163428
837.503	0.0164312
837.581	0.0164858
837.659	0.0164413
837.737	0.0163214
837.815	0.0162701
837.893	0.0163169
837.971	0.0163958
838.049	0.0163235
838.128	0.0162495
838.206	0.0164010
838.284	0.0162414
838.362	0.0163041
838.440	0.0164613
838.518	0.0164115
838.596	0.0162231
838.674	0.0163752
838.753	0.0164298
838.831	0.0162788
838.909	0.0163415
838.987	0.0163908
839.065	0.0162659
839.143	0.0163125
839.221	0.0162123
839.299	0.0162807
839.378	0.0163491
839.456	0.0162357
839.534	0.0160735
839.612	0.0162257
839.690	0.0162357
839.768	0.0162049
839.846	0.0162438
839.924	0.0162978
840.003	0.0162615
840.081	0.0162824
840.159	0.0162611
840.237	0.0162461
840.315	0.0160892
840.393	0.0161591
840.471	0.0161435
840.549	0.0161971
840.628	0.0161540
840.706	0.0161674
840.784	0.0160459
840.862	0.0160785
840.940	0.0160653
841.018	0.0161427
841.096	0.0160683
841.174	0.0161162
841.253	0.0159699
841.331	0.0160486
841.409	0.0161722
841.487	0.0160963
841.565	0.0159892
841.643	0.0159325
841.721	0.0159369
841.799	0.0159644
841.878	0.0160223
841.956	0.0160661
842.034	0.0160534
842.112	0.0159749
842.190	0.0159370
842.268	0.0160253
842.346	0.0159638
842.424	0.0159721
842.503	0.0159029
842.581	0.0159311
842.659	0.0159637
842.737	0.0160424
842.815	0.0159921
842.893	0.0161110
842.971	0.0161129
843.049	0.0161852
843.128	0.0160557
843.206	0.0160448
843.284	0.0162795
843.362	0.0161536
843.440	0.0160998
843.518	0.0162282
843.596	0.0162189
843.674	0.0162680
843.753	0.0161994
843.831	0.0161988
843.909	0.0162651
843.987	0.0163286
844.065	0.0162706
844.143	0.0163706
844.221	0.0163319
844.299	0.0162995
844.378	0.0164030
844.456	0.0164375
844.534	0.0163112
844.612	0.0164862
844.690	0.0165227
844.768	0.0163387
844.846	0.0164205
844.924	0.0165383
845.003	0.0165902
845.081	0.0164994
845.159	0.0163532
845.237	0.0166091
845.315	0.0165544
845.393	0.0164699
845.471	0.0164703
845.549	0.0163924
845.628	0.0163103
845.706	0.0164939
845.784	0.0165781
845.862	0.0163754
845.940	0.0164656
846.018	0.0165050
846.096	0.0163960
846.174	0.0164705
846.253	0.0165095
846.331	0.0162376
846.409	0.0163589
846.487	0.0164736
846.565	0.0162791
846.643	0.0162965
846.721	0.0163039
846.799	0.0164581
846.878	0.0163400
846.956	0.0163021
847.034	0.0163183
847.112	0.0161957
847.190	0.0163566
847.268	0.0164056
847.346	0.0162608
847.424	0.0162621
847.503	0.0161205
847.581	0.0162900
847.659	0.0162850
847.737	0.0161147
847.815	0.0162280
847.893	0.0163443
847.971	0.0162839
848.049	0.0162692
848.128	0.0161347
848.206	0.0162328
848.284	0.0161092
848.362	0.0161710
848.440	0.0161184
848.518	0.0162457
848.596	0.0160207
848.674	0.0161328
848.753	0.0159909
848.831	0.0161903
848.909	0.0161171
848.987	0.0161076
849.065	0.0162280
849.143	0.0162472
849.221	0.0161861
849.299	0.0162221
849.378	0.0162621
849.456	0.0162355
849.534	0.0161514
849.612	0.0163053
849.690	0.0163647
849.768	0.0162762
849.846	0.0163526
849.924	0.0161655
850.003	0.0163574
850.081	0.0165356
850.159	0.0162667
850.237	0.0161370
850.315	0.0161658
850.393	0.0161548
850.471	0.0162739
850.549	0.0162587
850.628	0.0162771
850.706	0.0161793
850.784	0.0161750
850.862	0.0163356
850.940	0.0164450
851.018	0.0163780
851.096	0.0163258
851.174	0.0162582
851.253	0.0164307
851.331	0.0164841
851.409	0.0163406
851.487	0.0162366
851.565	0.0163923
851.643	0.0163712
851.721	0.0164745
851.799	0.0165291
851.878	0.0165350
851.956	0.0164928
852.034	0.0164931
852.112	0.0164821
852.190	0.0164170
852.268	0.0164581
852.346	0.0164122
852.424	0.0164213
852.503	0.0165475
852.581	0.0164555
852.659	0.0164892
852.737	0.0163174
852.815	0.0164231
852.893	0.0164436
852.971	0.0163766
853.049	0.0163050
853.128	0.0164254
853.206	0.0164649
853.284	0.0166191
853.362	0.0166216
853.440	0.0165182
853.518	0.0165849
853.596	0.0165843
853.674	0.0167332
853.753	0.0166319
853.831	0.0166105
853.909	0.0166670
853.987	0.0165676
854.065	0.0166964
854.143	0.0167301
854.221	0.0166087
854.299	0.0165211
854.378	0.0165837
854.456	0.0166229
854.534	0.0165050
854.612	0.0164289
854.690	0.0163450
854.768	0.0165501
854.846	0.0164468
854.924	0.0163410
855.003	0.0163779
855.081	0.0163039
855.159	0.0164638
855.237	0.0163863
855.315	0.0163715
855.393	0.0163448
855.471	0.0164758
855.549	0.0163910
855.628	0.0162668
855.706	0.0163193
855.784	0.0162467
855.862	0.0162897
855.940	0.0163937
856.018	0.0162706
856.096	0.0161754
856.174	0.0161423
856.253	0.0163406
856.331	0.0161462
856.409	0.0161819
856.487	0.0163231
856.565	0.0162347
856.643	0.0161819
856.721	0.0161163
856.799	0.0162137
856.878	0.0161514
856.956	0.0160870
857.034	0.0160860
857.112	0.0160905
857.190	0.0161253
857.268	0.0161151
857.346	0.0161523
857.424	0.0160017
857.503	0.0160092
857.581	0.0161909
857.659	0.0161597
857.737	0.0160733
857.815	0.0160665
857.893	0.0161739
857.971	0.0162461
858.049	0.0162661
858.128	0.0161977
858.206	0.0161292
858.284	0.0162015
858.362	0.0163010
858.440	0.0162450
858.518	0.0160320
858.596	0.0162180
858.674	0.0163126
858.753	0.0160557
858.831	0.0161942
858.909	0.0160663
858.987	0.0161753
859.065	0.0161216
859.143	0.0161818
859.221	0.0161402
859.299	0.0162534
859.378	0.0161554
859.456	0.0161732
859.534	0.0161941
859.612	0.0162153
859.690	0.0161158
859.768	0.0160455
859.846	0.0160246
859.924	0.0161008
860.003	0.0161190
860.081	0.0160757
860.159	0.0161489
860.237	0.0162084
860.315	0.0161385
860.393	0.0163020
860.471	0.0163351
860.549	0.0162476
860.628	0.0164238
860.706	0.0162431
860.784	0.0164116
860.862	0.0163361
860.940	0.0162521
861.018	0.0165547
861.096	0.0163643
861.174	0.0163056
861.253	0.0164384
861.331	0.0164017
861.409	0.0163523
861.487	0.0164191
861.565	0.0162829
861.643	0.0163606
861.721	0.0164973
861.799	0.0164645
861.878	0.0163174
861.956	0.0164350
862.034	0.0162930
862.112	0.0161659
862.190	0.0163115
862.268	0.0162591
862.346	0.0161654
862.424	0.0162276
862.503	0.0161954
862.581	0.0162102
862.659	0.0161968
862.737	0.0162561
862.815	0.0161636
862.893	0.0162170
862.971	0.0161765
863.049	0.0161803
863.128	0.0162305
863.206	0.0162480
863.284	0.0162257
863.362	0.0161950
863.440	0.0161857
863.518	0.0161922
863.596	0.0162399
863.674	0.0160981
863.753	0.0160645
863.831	0.0162445
863.909	0.0160056
863.987	0.0159249
864.065	0.0161111
864.143	0.0162785
864.221	0.0160703
864.299	0.0160300
864.378	0.0161271
864.456	0.0161894
864.534	0.0162659
864.612	0.0161102
864.690	0.0161121
864.768	0.0160567
864.846	0.0160893
864.924	0.0161690
865.003	0.0161370
865.081	0.0162064
865.159	0.0162188
865.237	0.0161548
865.315	0.0160783
865.393	0.0161065
865.471	0.0161759
865.549	0.0160970
865.628	0.0162724
865.706	0.0162395
865.784	0.0160956
865.862	0.0161681
865.940	0.0161846
866.018	0.0162409
866.096	0.0161057
866.174	0.0161536
866.253	0.0161746
866.331	0.0162094
866.409	0.0163405
866.487	0.0162682
866.565	0.0163705
866.643	0.0163193
866.721	0.0164419
866.799	0.0163384
866.878	0.0164196
866.956	0.0163767
867.034	0.0163215
867.112	0.0163775
867.190	0.0163885
867.268	0.0163689
867.346	0.0163992
867.424	0.0161992
867.503	0.0162197
867.581	0.0163231
867.659	0.0162607
867.737	0.0161967
867.815	0.0163988
867.893	0.0163081
867.971	0.0162528
868.049	0.0162021
868.128	0.0163035
868.206	0.0163049
868.284	0.0163297
868.362	0.0164012
868.440	0.0163148
868.518	0.0163947
868.596	0.0161883
868.674	0.0164838
868.753	0.0163605
868.831	0.0163451
868.909	0.0164798
868.987	0.0163747
869.065	0.0163201
869.143	0.0163647
869.221	0.0163295
869.299	0.0163839
869.378	0.0163080
869.456	0.0162551
869.534	0.0160816
869.612	0.0163655
869.690	0.0162541
869.768	0.0161795
869.846	0.0161721
869.924	0.0162236
870.003	0.0162105
870.081	0.0162165
870.159	0.0161292
870.237	0.0162028
870.315	0.0163611
870.393	0.0163543
870.471	0.0162529
870.549	0.0163009
870.628	0.0160627
870.706	0.0162204
870.784	0.0162253
870.862	0.0162778
870.940	0.0162462
871.018	0.0162008
871.096	0.0161732
871.174	0.0161464
871.253	0.0162373
871.331	0.0162399
871.409	0.0162277
871.487	0.0160683
871.565	0.0162175
871.643	0.0163103
871.721	0.0163112
871.799	0.0162519
871.878	0.0162434
871.956	0.0162722
872.034	0.0162439
872.112	0.0161694
872.190	0.0163303
872.268	0.0163113
872.346	0.0162225
872.424	0.0163139
872.503	0.0162646
872.581	0.0163318
872.659	0.0163026
872.737	0.0162353
872.815	0.0162988
872.893	0.0163760
872.971	0.0163111
873.049	0.0162321
873.128	0.0162164
873.206	0.0160207
873.284	0.0163147
873.362	0.0162397
873.440	0.0163255
873.518	0.0163581
873.596	0.0162191
873.674	0.0162676
873.753	0.0164093
873.831	0.0162867
873.909	0.0163172
873.987	0.0163197
874.065	0.0163427
874.143	0.0162710
874.221	0.0162853
874.299	0.0162025
874.378	0.0163377
874.456	0.0163110
874.534	0.0163795
874.612	0.0163122
874.690	0.0161952
874.768	0.0162846
874.846	0.0162492
874.924	0.0163859
875.003	0.0163181
875.081	0.0162688
875.159	0.0163126
875.237	0.0164137
875.315	0.0162799
875.393	0.0162852
875.471	0.0163561
875.549	0.0162090
875.628	0.0163159
875.706	0.0163202
875.784	0.0163940
875.862	0.0162499
875.940	0.0163672
876.018	0.0163148
876.096	0.0162041
876.174	0.0164523
876.253	0.0163406
876.331	0.0162212
876.409	0.0162285
876.487	0.0163945
876.565	0.0163104
876.643	0.0163169
876.721	0.0163149
876.799	0.0164767
876.878	0.0162489
876.956	0.0162814
877.034	0.0162997
877.112	0.0163176
877.190	0.0164709
877.268	0.0164219
877.346	0.0163314
877.424	0.0162976
877.503	0.0162875
877.581	0.0163049
877.659	0.0163403
877.737	0.0162808
877.815	0.0163219
877.893	0.0163880
877.971	0.0164503
878.049	0.0164964
878.128	0.0164518
878.206	0.0163124
878.284	0.0165411
878.362	0.0162894
878.440	0.0163886
878.518	0.0163076
878.596	0.0164531
878.674	0.0163844
878.753	0.0163908
878.831	0.0162231
878.909	0.0162238
878.987	0.0162032
879.065	0.0164045
879.143	0.0162589
879.221	0.0162502
879.299	0.0162388
879.378	0.0163521
879.456	0.0162312
879.534	0.0161033
879.612	0.0161763
879.690	0.0161835
879.768	0.0160940
879.846	0.0160735
879.924	0.0162109
880.003	0.0161364
880.081	0.0161283
880.159	0.0161092
880.237	0.0161660
880.315	0.0161534
880.393	0.0161278
880.471	0.0161406
880.549	0.0160924
880.628	0.0161939
880.706	0.0162344
880.784	0.0161964
880.862	0.0163709
880.940	0.0162477
881.018	0.0162608
881.096	0.0162633
881.174	0.0161658
881.253	0.0162495
881.331	0.0162502
881.409	0.0162445
881.487	0.0160696
881.565	0.0162241
881.643	0.0162815
881.721	0.0161183
881.799	0.0162220
881.878	0.0163859
881.956	0.0162095
882.034	0.0162378
882.112	0.0163746
882.190	0.0161169
882.268	0.0161725
882.346	0.0163246
882.424	0.0162375
882.503	0.0163257
882.581	0.0163974
882.659	0.0161304
882.737	0.0163517
882.815	0.0164668
882.893	0.0163649
882.971	0.0163676
883.049	0.0164494
883.128	0.0164233
883.206	0.0164678
883.284	0.0163376
883.362	0.0163284
883.440	0.0163715
883.518	0.0164606
883.596	0.0163837
883.674	0.0163857
883.753	0.0162794
883.831	0.0162286
883.909	0.0162780
883.987	0.0164160
884.065	0.0164127
884.143	0.0164352
884.221	0.0162700
884.299	0.0161345
884.378	0.0162791
884.456	0.0163556
884.534	0.0163400
884.612	0.0164097
884.690	0.0163125
884.768	0.0164067
884.846	0.0164117
884.924	0.0163776
885.003	0.0164233
885.081	0.0164487
885.159	0.0164745
885.237	0.0164526
885.315	0.0163733
885.393	0.0163749
885.471	0.0165390
885.549	0.0164685
885.628	0.0164996
885.706	0.0164333
885.784	0.0163063
885.862	0.0163515
885.940	0.0164107
886.018	0.0164880
886.096	0.0164510
886.174	0.0163815
886.253	0.0162906
886.331	0.0164001
886.409	0.0163118
886.487	0.0164291
886.565	0.0164320
886.643	0.0163444
886.721	0.0162507
886.799	0.0162884
886.878	0.0162620
886.956	0.0162321
887.034	0.0163165
887.112	0.0162731
887.190	0.0163023
887.268	0.0162107
887.346	0.0162301
887.424	0.0162431
887.503	0.0163428
887.581	0.0161034
887.659	0.0161908
887.737	0.0162152
887.815	0.0161346
887.893	0.0162123
887.971	0.0161556
888.049	0.0160619
888.128	0.0162945
888.206	0.0162327
888.284	0.0162080
888.362	0.0164291
888.440	0.0161116
888.518	0.0162524
888.596	0.0162865
888.674	0.0162444
888.753	0.0162441
888.831	0.0163056
888.909	0.0161362
888.987	0.0161893
889.065	0.0162185
889.143	0.0162883
889.221	0.0163337
889.299	0.0163920
889.378	0.0162930
889.456	0.0162821
889.534	0.0164214
889.612	0.0162418
889.690	0.0164158
889.768	0.0162976
889.846	0.0162804
889.924	0.0162471
890.003	0.0163500
890.081	0.0161851
890.159	0.0163401
890.237	0.0162695
890.315	0.0162671
890.393	0.0162724
890.471	0.0162545
890.549	0.0165096
890.628	0.0164013
890.706	0.0164249
890.784	0.0163484
890.862	0.0161771
890.940	0.0162563
891.018	0.0162875
891.096	0.0163686
891.174	0.0163259
891.253	0.0163396
891.331	0.0162690
891.409	0.0162885
891.487	0.0163562
891.565	0.0162656
891.643	0.0163390
891.721	0.0162724
891.799	0.0163558
891.878	0.0163539
891.956	0.0164160
892.034	0.0163605
892.112	0.0163730
892.190	0.0164246
892.268	0.0164665
892.346	0.0163109
892.424	0.0163781
892.503	0.0164939
892.581	0.0163678
892.659	0.0163496
892.737	0.0163549
892.815	0.0163596
892.893	0.0164391
892.971	0.0163765
893.049	0.0165298
893.128	0.0165666
893.206	0.0164315
893.284	0.0163855
893.362	0.0164364
893.440	0.0163571
893.518	0.0164836
893.596	0.0163524
893.674	0.0164508
893.753	0.0164452
893.831	0.0163877
893.909	0.0164752
893.987	0.0164529
894.065	0.0163305
894.143	0.0163766
894.221	0.0163168
894.299	0.0164189
894.378	0.0162620
894.456	0.0161915
894.534	0.0162202
894.612	0.0162673
894.690	0.0160768
894.768	0.0160555
894.846	0.0161328
894.924	0.0162237
895.003	0.0160515
895.081	0.0159255
895.159	0.0160443
895.237	0.0160573
895.315	0.0161169
895.393	0.0161310
895.471	0.0160612
895.549	0.0160979
895.628	0.0161661
895.706	0.0160429
895.784	0.0161480
895.862	0.0161355
895.940	0.0162112
896.018	0.0161000
896.096	0.0161033
896.174	0.0162456
896.253	0.0159922
896.331	0.0161729
896.409	0.0162133
896.487	0.0161358
896.565	0.0160798
896.643	0.0161943
896.721	0.0161332
896.799	0.0161313
896.878	0.0160184
896.956	0.0161495
897.034	0.0161507
897.112	0.0160839
897.190	0.0163020
897.268	0.0162683
897.346	0.0161628
897.424	0.0161972
897.503	0.0163446
897.581	0.0163606
897.659	0.0162272
897.737	0.0162703
897.815	0.0161775
897.893	0.0162989
897.971	0.0161814
898.049	0.0161338
898.128	0.0163423
898.206	0.0163827
898.284	0.0161954
898.362	0.0162087
898.440	0.0162451
898.518	0.0164160
898.596	0.0161602
898.674	0.0162523
898.753	0.0162369
898.831	0.0161166
898.909	0.0162535
898.987	0.0162112
899.065	0.0161771
899.143	0.0163045
899.221	0.0163984
899.299	0.0162399
899.378	0.0161396
899.456	0.0163995
899.534	0.0162881
899.612	0.0162752
899.690	0.0162968
899.768	0.0163345
899.846	0.0163599
899.924	0.0163528
900.003	0.0162735
900.081	0.0163430
900.159	0.0163686
900.237	0.0163547
900.315	0.0163748
900.393	0.0163258
900.471	0.0163554
900.549	0.0163882
900.628	0.0164059
900.706	0.0163313
900.784	0.0162417
900.862	0.0163306
900.940	0.0162758
901.018	0.0162196
901.096	0.0162971
901.174	0.0162029
901.253	0.0162640
901.331	0.0162778
901.409	0.0161610
901.487	0.0161430
901.565	0.0161377
901.643	0.0161172
901.721	0.0163881
901.799	0.0163148
901.878	0.0162363
901.956	0.0162691
902.034	0.0162703
902.112	0.0164214
902.190	0.0163141
902.268	0.0162814
902.346	0.0164116
902.424	0.0162740
902.503	0.0163898
902.581	0.0163397
902.659	0.0164989
902.737	0.0164133
902.815	0.0164421
902.893	0.0165103
902.971	0.0162524
903.049	0.0162605
903.128	0.0163916
903.206	0.0164259
903.284	0.0163677
903.362	0.0163473
903.440	0.0164147
903.518	0.0163356
903.596	0.0164181
903.674	0.0163341
903.753	0.0162920
903.831	0.0163326
903.909	0.0164727
903.987	0.0163869
904.065	0.0164548
904.143	0.0163999
904.221	0.0163516
904.299	0.0163958
904.378	0.0163000
904.456	0.0163731
904.534	0.0163212
904.612	0.0164424
904.690	0.0163889
904.768	0.0162578
904.846	0.0164584
904.924	0.0163562
905.003	0.0163962
905.081	0.0164243
905.159	0.0164182
905.237	0.0162418
905.315	0.0164375
905.393	0.0163708
905.471	0.0163910
905.549	0.0164508
905.628	0.0164228
905.706	0.0162622
905.784	0.0164970
905.862	0.0164649
905.940	0.0163993
906.018	0.0163668
906.096	0.0164275
906.174	0.0165607
906.253	0.0164632
906.331	0.0163743
906.409	0.0165434
906.487	0.0165479
906.565	0.0163881
906.643	0.0163074
906.721	0.0162447
906.799	0.0162782
906.878	0.0163551
906.956	0.0163617
907.034	0.0164597
907.112	0.0163552
907.190	0.0162827
907.268	0.0164466
907.346	0.0164679
907.424	0.0163552
907.503	0.0163326
907.581	0.0164356
907.659	0.0162159
907.737	0.0163434
907.815	0.0163206
907.893	0.0163762
907.971	0.0162936
908.049	0.0163187
908.128	0.0164009
908.206	0.0163860
908.284	0.0163116
908.362	0.0164065
908.440	0.0163766
908.518	0.0164596
908.596	0.0162852
908.674	0.0163549
908.753	0.0164023
908.831	0.0164091
908.909	0.0163068
908.987	0.0163365
909.065	0.0166106
909.143	0.0164237
909.221	0.0164169
909.299	0.0163991
909.378	0.0164732
909.456	0.0164459
909.534	0.0163598
909.612	0.0164162
909.690	0.0163285
909.768	0.0163092
909.846	0.0164072
909.924	0.0163280
910.003	0.0163990
910.081	0.0164146
910.159	0.0164722
910.237	0.0164159
910.315	0.0163722
910.393	0.0162946
910.471	0.0163495
910.549	0.0162819
910.628	0.0164564
910.706	0.0163560
910.784	0.0163741
910.862	0.0163381
910.940	0.0163686
911.018	0.0164571
911.096	0.0164241
911.174	0.0161397
911.253	0.0164845
911.331	0.0164565
911.409	0.0162515
911.487	0.0165009
911.565	0.0163840
911.643	0.0164050
911.721	0.0163954
911.799	0.0163002
911.878	0.0163541
911.956	0.0163515
912.034	0.0163211
912.112	0.0162844
912.190	0.0162292
912.268	0.0162917
912.346	0.0163783
912.424	0.0162563
912.503	0.0163258
912.581	0.0162899
912.659	0.0164902
912.737	0.0163386
912.815	0.0161147
912.893	0.0162130
912.971	0.0163210
913.049	0.0162875
913.128	0.0162923
913.206	0.0163698
913.284	0.0162253
913.362	0.0163490
913.440	0.0163475
913.518	0.0163988
913.596	0.0164266
913.674	0.0162006
913.753	0.0163929
913.831	0.0164375
913.909	0.0164143
913.987	0.0164532
914.065	0.0164523
914.143	0.0165013
914.221	0.0163164
914.299	0.0164070
914.378	0.0164483
914.456	0.0163764
914.534	0.0163723
914.612	0.0163787
914.690	0.0163892
914.768	0.0164246
914.846	0.0164351
914.924	0.0163863
915.003	0.0165284
915.081	0.0163731
915.159	0.0162603
915.237	0.0164448
915.315	0.0163580
915.393	0.0163420
915.471	0.0165624
915.549	0.0164449
915.628	0.0162850
915.706	0.0164610
915.784	0.0163039
915.862	0.0163455
915.940	0.0164368
916.018	0.0163390
916.096	0.0163833
916.174	0.0163615
916.253	0.0163228
916.331	0.0164892
916.409	0.0164107
916.487	0.0162698
916.565	0.0164191
916.643	0.0162933
916.721	0.0164349
916.799	0.0163673
916.878	0.0163078
916.956	0.0162069
917.034	0.0162476
917.112	0.0163017
917.190	0.0163419
917.268	0.0162177
917.346	0.0162502
917.424	0.0162325
917.503	0.0163636
917.581	0.0162621
917.659	0.0161988
917.737	0.0162955
917.815	0.0161891
917.893	0.0161781
917.971	0.0162369
918.049	0.0161713
918.128	0.0163717
918.206	0.0162691
918.284	0.0161988
918.362	0.0163079
918.440	0.0163496
918.518	0.0162582
918.596	0.0162305
918.674	0.0164101
918.753	0.0164206
918.831	0.0164046
918.909	0.0163879
918.987	0.0161644
919.065	0.0162515
919.143	0.0163802
919.221	0.0162454
919.299	0.0160880
919.378	0.0161313
919.456	0.0163484
919.534	0.0163109
919.612	0.0162187
919.690	0.0161433
919.768	0.0162035
919.846	0.0162687
919.924	0.0161384
920.003	0.0161283
920.081	0.0163571
920.159	0.0161491
920.237	0.0161346
920.315	0.0160757
920.393	0.0162454
920.471	0.0161402
920.549	0.0163286
920.628	0.0162016
920.706	0.0161748
920.784	0.0162061
920.862	0.0161635
920.940	0.0160751
921.018	0.0162685
921.096	0.0162867
921.174	0.0161565
921.253	0.0161168
921.331	0.0161114
921.409	0.0162097
921.487	0.0160359
921.565	0.0160489
921.643	0.0161982
921.721	0.0161494
921.799	0.0161978
921.878	0.0161968
921.956	0.0161894
922.034	0.0161065
922.112	0.0161703
922.190	0.0162250
922.268	0.0162016
922.346	0.0161730
922.424	0.0162770
922.503	0.0161922
922.581	0.0163410
922.659	0.0163344
922.737	0.0161813
922.815	0.0162878
922.893	0.0163659
922.971	0.0161805
923.049	0.0162691
923.128	0.0162229
923.206	0.0163144
923.284	0.0162999
923.362	0.0161961
923.440	0.0161755
923.518	0.0163002
923.596	0.0162109
923.674	0.0163072
923.753	0.0161689
923.831	0.0160959
923.909	0.0162627
923.987	0.0162243
924.065	0.0161997
924.143	0.0161991
924.221	0.0162310
924.299	0.0162757
924.378	0.0161929
924.456	0.0161510
924.534	0.0162547
924.612	0.0163425
924.690	0.0161933
924.768	0.0163049
924.846	0.0162457
924.924	0.0162151
925.003	0.0162257
925.081	0.0162227
925.159	0.0161446
925.237	0.0161955
925.315	0.0163165
925.393	0.0162103
925.471	0.0161189
925.549	0.0163875
925.628	0.0162667
925.706	0.0162331
925.784	0.0162868
925.862	0.0162044
925.940	0.0163162
926.018	0.0163916
926.096	0.0163618
926.174	0.0163300
926.253	0.0162912
926.331	0.0164081
926.409	0.0165040
926.487	0.0164309
926.565	0.0162691
926.643	0.0164385
926.721	0.0164057
926.799	0.0162164
926.878	0.0163323
926.956	0.0161983
927.034	0.0163345
927.112	0.0163117
927.190	0.0163835
927.268	0.0163335
927.346	0.0162293
927.424	0.0163125
927.503	0.0162048
927.581	0.0163400
927.659	0.0163094
927.737	0.0162563
927.815	0.0162044
927.893	0.0163160
927.971	0.0163433
928.049	0.0162578
928.128	0.0162714
928.206	0.0162080
928.284	0.0162962
928.362	0.0162370
928.440	0.0163481
928.518	0.0162299
928.596	0.0162779
928.674	0.0162575
928.753	0.0160837
928.831	0.0162857
928.909	0.0162716
928.987	0.0162270
929.065	0.0161979
929.143	0.0162247
929.221	0.0162325
929.299	0.0161790
929.378	0.0163691
929.456	0.0163544
929.534	0.0161998
929.612	0.0163122
929.690	0.0164026
929.768	0.0163301
929.846	0.0162938
929.924	0.0162518
930.003	0.0163287
930.081	0.0165469
930.159	0.0163002
930.237	0.0162579
930.315	0.0164552
930.393	0.0164169
930.471	0.0163130
930.549	0.0164535
930.628	0.0164471
930.706	0.0163338
930.784	0.0163251
930.862	0.0162872
930.940	0.0163961
931.018	0.0164221
931.096	0.0163081
931.174	0.0163367
931.253	0.0162482
931.331	0.0163422
931.409	0.0164421
931.487	0.0164112
931.565	0.0163827
931.643	0.0162960
931.721	0.0161567
931.799	0.0162307
931.878	0.0162809
931.956	0.0164204
932.034	0.0163619
932.112	0.0163221
932.190	0.0162443
932.268	0.0162668
932.346	0.0164477
932.424	0.0163584
932.503	0.0162591
932.581	0.0163217
932.659	0.0164075
932.737	0.0164199
932.815	0.0164665
932.893	0.0163371
932.971	0.0163820
933.049	0.0162396
933.128	0.0162884
933.206	0.0164330
933.284	0.0163358
933.362	0.0163847
933.440	0.0163741
933.518	0.0164140
933.596	0.0164288
933.674	0.0163676
933.753	0.0164896
933.831	0.0163898
933.909	0.0164236
933.987	0.0163819
934.065	0.0163351
934.143	0.0165408
934.221	0.0165431
934.299	0.0164806
934.378	0.0164293
934.456	0.0163837
934.534	0.0165395
934.612	0.0163647
934.690	0.0164565
934.768	0.0165331
934.846	0.0165417
934.924	0.0163914
935.003	0.0163550
935.081	0.0165376
935.159	0.0164721
935.237	0.0164734
935.315	0.0164355
935.393	0.0163605
935.471	0.0163429
935.549	0.0163615
935.628	0.0163379
935.706	0.0163132
935.784	0.0163654
935.862	0.0163730
935.940	0.0163876
936.018	0.0163822
936.096	0.0162713
936.174	0.0162886
936.253	0.0161761
936.331	0.0164242
936.409	0.0163792
936.487	0.0163768
936.565	0.0163049
936.643	0.0165083
936.721	0.0163947
936.799	0.0162273
936.878	0.0163418
936.956	0.0163612
937.034	0.0164519
937.112	0.0163692
937.190	0.0164082
937.268	0.0163489
937.346	0.0162431
937.424	0.0163678
937.503	0.0162724
937.581	0.0162675
937.659	0.0163053
937.737	0.0164362
937.815	0.0163815
937.893	0.0162279
937.971	0.0161746
938.049	0.0161679
938.128	0.0162705
938.206	0.0162859
938.284	0.0162520
938.362	0.0162096
938.440	0.0163849
938.518	0.0162489
938.596	0.0163434
938.674	0.0163132
938.753	0.0162212
938.831	0.0163800
938.909	0.0161977
938.987	0.0162773
939.065	0.0161883
939.143	0.0162669
939.221	0.0162027
939.299	0.0162245
939.378	0.0162173
939.456	0.0163280
939.534	0.0162189
939.612	0.0160824
939.690	0.0163085
939.768	0.0162297
939.846	0.0163160
939.924	0.0160997
940.003	0.0162789
940.081	0.0164971
940.159	0.0164053
940.237	0.0162497
940.315	0.0162852
940.393	0.0163946
940.471	0.0162563
940.549	0.0163720
940.628	0.0162820
940.706	0.0164485
940.784	0.0163445
940.862	0.0162970
940.940	0.0162152
941.018	0.0164017
941.096	0.0164458
941.174	0.0162511
941.253	0.0162254
941.331	0.0162643
941.409	0.0161646
941.487	0.0162093
941.565	0.0163351
941.643	0.0163129
941.721	0.0163645
941.799	0.0162531
941.878	0.0161855
941.956	0.0162667
942.034	0.0162806
942.112	0.0162543
942.190	0.0163107
942.268	0.0162733
942.346	0.0162273
942.424	0.0162048
942.503	0.0162270
942.581	0.0162768
942.659	0.0162461
942.737	0.0162514
942.815	0.0161887
942.893	0.0162173
942.971	0.0163467
943.049	0.0162479
943.128	0.0160405
943.206	0.0160872
943.284	0.0161985
943.362	0.0161802
943.440	0.0161066
943.518	0.0161276
943.596	0.0160693
943.674	0.0162411
943.753	0.0159875
943.831	0.0160703
943.909	0.0161502
943.987	0.0161380
944.065	0.0161810
944.143	0.0162232
944.221	0.0161539
944.299	0.0163354
944.378	0.0162254
944.456	0.0161827
944.534	0.0162349
944.612	0.0162360
944.690	0.0163134
944.768	0.0162440
944.846	0.0163382
944.924	0.0162608
945.003	0.0162608
945.081	0.0163625
945.159	0.0162775
945.237	0.0162808
945.315	0.0163001
945.393	0.0162672
945.471	0.0161982
945.549	0.0162317
945.628	0.0163854
945.706	0.0162308
945.784	0.0162962
945.862	0.0162643
945.940	0.0163020
946.018	0.0162344
946.096	0.0163561
946.174	0.0162743
946.253	0.0162968
946.331	0.0163692
946.409	0.0163570
946.487	0.0161887
946.565	0.0162006
946.643	0.0163443
946.721	0.0162760
946.799	0.0163285
946.878	0.0162560
946.956	0.0162416
947.034	0.0162522
947.112	0.0162925
947.190	0.0162810
947.268	0.0162843
947.346	0.0163618
947.424	0.0162313
947.503	0.0160493
947.581	0.0161684
947.659	0.0162163
947.737	0.0161084
947.815	0.0161083
947.893	0.0161037
947.971	0.0161654
948.049	0.0162698
948.128	0.0162016
948.206	0.0161397
948.284	0.0161593
948.362	0.0162286
948.440	0.0163296
948.518	0.0161187
948.596	0.0161940
948.674	0.0161077
948.753	0.0162714
948.831	0.0162347
948.909	0.0162428
948.987	0.0162579
949.065	0.0161407
949.143	0.0162643
949.221	0.0162909
949.299	0.0162837
949.378	0.0164275
949.456	0.0164349
949.534	0.0163433
949.612	0.0163248
949.690	0.0162733
949.768	0.0161678
949.846	0.0162212
949.924	0.0164790
