05/19/2022	00:51:53	Ver.	4.1	UNKNOWN
Optical Delay	630.002507	Delta X		0.078125	Sweeps	1	Scan Rate	0/0
Coordinates	Axis 1	NaN	Axis 2	NaN	Axis 3	NaN	Axis 4	NaN	Axis 5	NaN	Axis 6	0.000000
TX Power	0.000000	RX Power	0.000000

630.003	0.0160519
630.081	0.0160179
630.159	0.0160335
630.237	0.0161463
630.315	0.0162287
630.393	0.0160072
630.471	0.0160828
630.549	0.0159859
630.628	0.0161131
630.706	0.0160856
630.784	0.0159103
630.862	0.0160542
630.940	0.0160746
631.018	0.0159170
631.096	0.0160901
631.174	0.0160023
631.253	0.0160564
631.331	0.0161167
631.409	0.0160522
631.487	0.0161153
631.565	0.0160272
631.643	0.0161835
631.721	0.0160329
631.799	0.0160516
631.878	0.0160094
631.956	0.0161568
632.034	0.0160366
632.112	0.0160467
632.190	0.0160046
632.268	0.0159903
632.346	0.0159200
632.424	0.0159740
632.503	0.0160992
632.581	0.0160133
632.659	0.0161128
632.737	0.0159799
632.815	0.0159809
632.893	0.0160563
632.971	0.0160726
633.049	0.0159363
633.128	0.0159872
633.206	0.0161398
633.284	0.0160783
633.362	0.0159211
633.440	0.0160184
633.518	0.0159758
633.596	0.0161107
633.674	0.0162816
633.753	0.0162051
633.831	0.0160025
633.909	0.0160865
633.987	0.0161184
634.065	0.0159750
634.143	0.0160049
634.221	0.0160368
634.299	0.0160015
634.378	0.0162251
634.456	0.0160551
634.534	0.0160928
634.612	0.0161677
634.690	0.0161154
634.768	0.0161107
634.846	0.0161522
634.924	0.0160783
635.003	0.0159915
635.081	0.0159309
635.159	0.0160023
635.237	0.0161569
635.315	0.0160004
635.393	0.0160680
635.471	0.0160618
635.549	0.0160001
635.628	0.0159770
635.706	0.0160622
635.784	0.0161166
635.862	0.0160989
635.940	0.0159767
636.018	0.0160336
636.096	0.0161423
636.174	0.0159929
636.253	0.0160578
636.331	0.0161964
636.409	0.0160674
636.487	0.0158832
636.565	0.0162093
636.643	0.0161374
636.721	0.0161824
636.799	0.0161388
636.878	0.0160673
636.956	0.0160243
637.034	0.0161295
637.112	0.0160905
637.190	0.0160741
637.268	0.0159722
637.346	0.0159798
637.424	0.0160789
637.503	0.0161104
637.581	0.0161548
637.659	0.0161272
637.737	0.0159532
637.815	0.0160421
637.893	0.0160497
637.971	0.0159780
638.049	0.0158241
638.128	0.0160928
638.206	0.0161560
638.284	0.0160212
638.362	0.0160791
638.440	0.0159976
638.518	0.0158941
638.596	0.0161036
638.674	0.0160809
638.753	0.0159850
638.831	0.0160268
638.909	0.0159135
638.987	0.0159033
639.065	0.0159092
639.143	0.0159144
639.221	0.0159563
639.299	0.0159885
639.378	0.0160447
639.456	0.0159563
639.534	0.0158915
639.612	0.0158474
639.690	0.0159959
639.768	0.0159145
639.846	0.0159743
639.924	0.0159820
640.003	0.0161370
640.081	0.0159831
640.159	0.0159111
640.237	0.0159373
640.315	0.0160284
640.393	0.0160006
640.471	0.0159715
640.549	0.0160773
640.628	0.0159373
640.706	0.0159824
640.784	0.0159456
640.862	0.0159696
640.940	0.0160262
641.018	0.0159973
641.096	0.0160040
641.174	0.0159904
641.253	0.0160490
641.331	0.0159892
641.409	0.0160864
641.487	0.0162231
641.565	0.0160007
641.643	0.0159899
641.721	0.0160025
641.799	0.0161652
641.878	0.0160328
641.956	0.0160342
642.034	0.0159121
642.112	0.0160762
642.190	0.0160517
642.268	0.0160358
642.346	0.0159215
642.424	0.0160402
642.503	0.0160855
642.581	0.0160696
642.659	0.0159499
642.737	0.0160864
642.815	0.0159416
642.893	0.0159898
642.971	0.0160775
643.049	0.0159927
643.128	0.0159602
643.206	0.0160014
643.284	0.0161031
643.362	0.0159905
643.440	0.0160367
643.518	0.0160631
643.596	0.0160789
643.674	0.0159286
643.753	0.0161844
643.831	0.0161623
643.909	0.0159190
643.987	0.0161097
644.065	0.0161320
644.143	0.0162123
644.221	0.0161413
644.299	0.0160737
644.378	0.0161017
644.456	0.0160699
644.534	0.0162273
644.612	0.0162282
644.690	0.0161330
644.768	0.0161174
644.846	0.0160535
644.924	0.0161240
645.003	0.0161164
645.081	0.0161711
645.159	0.0161218
645.237	0.0161332
645.315	0.0160802
645.393	0.0161469
645.471	0.0161730
645.549	0.0162496
645.628	0.0160411
645.706	0.0160194
645.784	0.0161685
645.862	0.0160203
645.940	0.0163130
646.018	0.0161652
646.096	0.0159793
646.174	0.0161034
646.253	0.0161802
646.331	0.0160818
646.409	0.0159679
646.487	0.0159760
646.565	0.0160845
646.643	0.0160507
646.721	0.0159947
646.799	0.0161308
646.878	0.0160096
646.956	0.0160431
647.034	0.0160566
647.112	0.0159742
647.190	0.0159704
647.268	0.0160223
647.346	0.0159357
647.424	0.0161145
647.503	0.0160719
647.581	0.0158964
647.659	0.0160526
647.737	0.0160244
647.815	0.0160486
647.893	0.0159429
647.971	0.0160178
648.049	0.0160106
648.128	0.0159661
648.206	0.0160850
648.284	0.0160443
648.362	0.0158791
648.440	0.0158438
648.518	0.0158927
648.596	0.0159940
648.674	0.0160354
648.753	0.0159221
648.831	0.0161073
648.909	0.0159246
648.987	0.0159962
649.065	0.0160835
649.143	0.0160692
649.221	0.0159886
649.299	0.0160104
649.378	0.0160163
649.456	0.0160522
649.534	0.0161334
649.612	0.0159874
649.690	0.0160235
649.768	0.0160419
649.846	0.0160651
649.924	0.0160580
650.003	0.0161180
650.081	0.0161086
650.159	0.0161116
650.237	0.0159107
650.315	0.0161688
650.393	0.0159654
650.471	0.0159766
650.549	0.0161241
650.628	0.0160590
650.706	0.0161290
650.784	0.0159040
650.862	0.0162286
650.940	0.0161617
651.018	0.0161318
651.096	0.0160051
651.174	0.0160613
651.253	0.0161083
651.331	0.0161751
651.409	0.0162667
651.487	0.0159908
651.565	0.0160364
651.643	0.0162020
651.721	0.0159699
651.799	0.0160904
651.878	0.0160865
651.956	0.0162921
652.034	0.0161352
652.112	0.0159468
652.190	0.0160912
652.268	0.0160775
652.346	0.0161217
652.424	0.0160668
652.503	0.0160677
652.581	0.0161926
652.659	0.0162245
652.737	0.0161610
652.815	0.0160313
652.893	0.0160021
652.971	0.0161678
653.049	0.0162168
653.128	0.0161587
653.206	0.0161282
653.284	0.0160178
653.362	0.0160564
653.440	0.0159416
653.518	0.0160477
653.596	0.0159898
653.674	0.0161049
653.753	0.0159708
653.831	0.0159158
653.909	0.0160168
653.987	0.0160904
654.065	0.0159796
654.143	0.0159798
654.221	0.0159953
654.299	0.0159936
654.378	0.0160191
654.456	0.0160741
654.534	0.0161005
654.612	0.0160657
654.690	0.0160450
654.768	0.0160182
654.846	0.0161366
654.924	0.0161045
655.003	0.0161160
655.081	0.0160873
655.159	0.0161008
655.237	0.0161391
655.315	0.0159957
655.393	0.0159959
655.471	0.0160346
655.549	0.0160232
655.628	0.0159852
655.706	0.0161627
655.784	0.0160840
655.862	0.0160052
655.940	0.0160492
656.018	0.0160829
656.096	0.0161741
656.174	0.0160962
656.253	0.0160886
656.331	0.0163076
656.409	0.0160906
656.487	0.0160895
656.565	0.0161729
656.643	0.0161226
656.721	0.0160029
656.799	0.0160903
656.878	0.0161121
656.956	0.0161411
657.034	0.0161048
657.112	0.0161177
657.190	0.0159605
657.268	0.0160807
657.346	0.0159996
657.424	0.0160625
657.503	0.0160206
657.581	0.0160179
657.659	0.0160101
657.737	0.0160123
657.815	0.0160695
657.893	0.0160078
657.971	0.0160438
658.049	0.0160047
658.128	0.0160378
658.206	0.0159944
658.284	0.0159782
658.362	0.0158771
658.440	0.0159943
658.518	0.0160828
658.596	0.0160155
658.674	0.0160148
658.753	0.0161340
658.831	0.0160903
658.909	0.0160017
658.987	0.0160780
659.065	0.0161990
659.143	0.0162751
659.221	0.0160838
659.299	0.0160709
659.378	0.0160582
659.456	0.0161234
659.534	0.0160324
659.612	0.0160841
659.690	0.0161456
659.768	0.0160364
659.846	0.0160558
659.924	0.0160597
660.003	0.0160694
660.081	0.0159061
660.159	0.0159087
660.237	0.0159227
660.315	0.0158952
660.393	0.0159857
660.471	0.0158370
660.549	0.0158437
660.628	0.0159239
660.706	0.0159548
660.784	0.0158960
660.862	0.0161648
660.940	0.0160276
661.018	0.0159018
661.096	0.0160574
661.174	0.0160139
661.253	0.0162291
661.331	0.0161805
661.409	0.0159812
661.487	0.0160757
661.565	0.0160909
661.643	0.0159502
661.721	0.0162186
661.799	0.0161035
661.878	0.0160197
661.956	0.0160600
662.034	0.0159763
662.112	0.0159308
662.190	0.0159588
662.268	0.0161438
662.346	0.0160028
662.424	0.0158627
662.503	0.0159754
662.581	0.0160349
662.659	0.0159969
662.737	0.0159102
662.815	0.0159505
662.893	0.0159409
662.971	0.0160060
663.049	0.0159300
663.128	0.0158981
663.206	0.0159904
663.284	0.0158622
663.362	0.0159414
663.440	0.0160773
663.518	0.0159692
663.596	0.0160233
663.674	0.0161050
663.753	0.0160313
663.831	0.0160947
663.909	0.0159200
663.987	0.0159069
664.065	0.0159819
664.143	0.0160302
664.221	0.0160057
664.299	0.0159898
664.378	0.0159483
664.456	0.0161444
664.534	0.0161256
664.612	0.0162471
664.690	0.0162833
664.768	0.0160390
664.846	0.0160681
664.924	0.0161456
665.003	0.0162777
665.081	0.0161163
665.159	0.0162380
665.237	0.0162780
665.315	0.0162113
665.393	0.0162270
665.471	0.0161964
665.549	0.0162811
665.628	0.0163131
665.706	0.0160821
665.784	0.0160969
665.862	0.0163216
665.940	0.0161188
666.018	0.0162460
666.096	0.0161522
666.174	0.0161221
666.253	0.0160369
666.331	0.0161472
666.409	0.0160355
666.487	0.0159959
666.565	0.0160544
666.643	0.0161572
666.721	0.0160063
666.799	0.0159191
666.878	0.0159887
666.956	0.0159097
667.034	0.0159821
667.112	0.0161692
667.190	0.0159723
667.268	0.0158981
667.346	0.0158745
667.424	0.0158220
667.503	0.0157738
667.581	0.0157925
667.659	0.0159743
667.737	0.0158409
667.815	0.0158269
667.893	0.0158080
667.971	0.0158617
668.049	0.0158880
668.128	0.0159277
668.206	0.0159651
668.284	0.0159453
668.362	0.0158823
668.440	0.0161395
668.518	0.0161404
668.596	0.0161557
668.674	0.0161987
668.753	0.0163015
668.831	0.0162575
668.909	0.0163369
668.987	0.0162460
669.065	0.0161403
669.143	0.0163315
669.221	0.0164463
669.299	0.0163109
669.378	0.0163004
669.456	0.0162407
669.534	0.0163369
669.612	0.0162083
669.690	0.0162086
669.768	0.0161771
669.846	0.0161794
669.924	0.0161008
670.003	0.0161226
670.081	0.0158908
670.159	0.0159909
670.237	0.0159359
670.315	0.0159393
670.393	0.0158976
670.471	0.0160011
670.549	0.0160069
670.628	0.0159251
670.706	0.0157675
670.784	0.0158136
670.862	0.0157117
670.940	0.0157800
671.018	0.0158519
671.096	0.0158867
671.174	0.0158345
671.253	0.0158589
671.331	0.0159293
671.409	0.0159756
671.487	0.0159196
671.565	0.0158788
671.643	0.0159666
671.721	0.0159743
671.799	0.0160570
671.878	0.0160510
671.956	0.0161295
672.034	0.0162497
672.112	0.0160899
672.190	0.0162214
672.268	0.0162733
672.346	0.0162663
672.424	0.0163197
672.503	0.0163429
672.581	0.0163684
672.659	0.0162509
672.737	0.0162069
672.815	0.0162637
672.893	0.0163800
672.971	0.0162207
673.049	0.0160928
673.128	0.0159940
673.206	0.0161794
673.284	0.0160612
673.362	0.0160921
673.440	0.0161221
673.518	0.0160001
673.596	0.0160197
673.674	0.0159912
673.753	0.0159841
673.831	0.0160982
673.909	0.0159518
673.987	0.0160509
674.065	0.0159962
674.143	0.0160342
674.221	0.0159239
674.299	0.0159538
674.378	0.0159837
674.456	0.0160028
674.534	0.0158450
674.612	0.0159955
674.690	0.0159859
674.768	0.0160265
674.846	0.0159420
674.924	0.0159931
675.003	0.0159891
675.081	0.0160175
675.159	0.0161024
675.237	0.0160018
675.315	0.0159199
675.393	0.0159892
675.471	0.0160860
675.549	0.0160764
675.628	0.0160170
675.706	0.0160230
675.784	0.0160262
675.862	0.0160447
675.940	0.0161125
676.018	0.0160567
676.096	0.0161436
676.174	0.0163286
676.253	0.0161684
676.331	0.0161240
676.409	0.0162006
676.487	0.0162603
676.565	0.0163102
676.643	0.0163036
676.721	0.0162187
676.799	0.0163078
676.878	0.0163687
676.956	0.0163214
677.034	0.0163967
677.112	0.0162877
677.190	0.0161761
677.268	0.0160921
677.346	0.0161389
677.424	0.0162331
677.503	0.0161012
677.581	0.0160350
677.659	0.0160960
677.737	0.0160547
677.815	0.0159367
677.893	0.0160113
677.971	0.0159732
678.049	0.0159200
678.128	0.0159947
678.206	0.0158763
678.284	0.0159728
678.362	0.0159022
678.440	0.0159716
678.518	0.0157402
678.596	0.0159314
678.674	0.0160383
678.753	0.0159552
678.831	0.0160237
678.909	0.0159695
678.987	0.0159180
679.065	0.0158401
679.143	0.0159124
679.221	0.0159465
679.299	0.0160110
679.378	0.0159969
679.456	0.0160921
679.534	0.0160609
679.612	0.0160479
679.690	0.0160071
679.768	0.0160496
679.846	0.0160822
679.924	0.0159774
680.003	0.0159768
680.081	0.0160706
680.159	0.0160548
680.237	0.0160310
680.315	0.0160731
680.393	0.0161087
680.471	0.0162927
680.549	0.0159406
680.628	0.0160340
680.706	0.0160754
680.784	0.0161232
680.862	0.0159209
680.940	0.0160556
681.018	0.0162067
681.096	0.0160101
681.174	0.0159091
681.253	0.0161074
681.331	0.0160760
681.409	0.0161234
681.487	0.0161891
681.565	0.0161942
681.643	0.0160516
681.721	0.0161136
681.799	0.0161526
681.878	0.0161977
681.956	0.0162577
682.034	0.0160984
682.112	0.0160671
682.190	0.0160779
682.268	0.0163128
682.346	0.0160034
682.424	0.0160455
682.503	0.0161462
682.581	0.0160118
682.659	0.0161098
682.737	0.0161317
682.815	0.0159790
682.893	0.0160831
682.971	0.0159692
683.049	0.0160963
683.128	0.0160573
683.206	0.0158779
683.284	0.0158987
683.362	0.0159881
683.440	0.0159188
683.518	0.0157027
683.596	0.0158180
683.674	0.0157883
683.753	0.0157645
683.831	0.0157108
683.909	0.0157632
683.987	0.0159278
684.065	0.0159092
684.143	0.0158427
684.221	0.0158981
684.299	0.0160907
684.378	0.0160728
684.456	0.0161930
684.534	0.0162702
684.612	0.0162242
684.690	0.0162223
684.768	0.0163681
684.846	0.0165182
684.924	0.0164292
685.003	0.0162277
685.081	0.0163461
685.159	0.0162517
685.237	0.0161838
685.315	0.0161330
685.393	0.0160659
685.471	0.0159753
685.549	0.0160198
685.628	0.0160257
685.706	0.0159330
685.784	0.0158680
685.862	0.0157440
685.940	0.0159133
686.018	0.0159084
686.096	0.0159713
686.174	0.0158817
686.253	0.0158574
686.331	0.0160149
686.409	0.0160464
686.487	0.0159322
686.565	0.0160655
686.643	0.0161691
686.721	0.0161565
686.799	0.0161510
686.878	0.0162080
686.956	0.0162534
687.034	0.0161357
687.112	0.0161383
687.190	0.0162183
687.268	0.0162066
687.346	0.0161268
687.424	0.0161624
687.503	0.0160900
687.581	0.0161355
687.659	0.0161679
687.737	0.0161028
687.815	0.0161330
687.893	0.0161834
687.971	0.0161494
688.049	0.0161547
688.128	0.0161051
688.206	0.0160349
688.284	0.0163140
688.362	0.0162289
688.440	0.0161330
688.518	0.0161090
688.596	0.0161873
688.674	0.0161227
688.753	0.0159827
688.831	0.0158856
688.909	0.0160367
688.987	0.0160540
689.065	0.0159956
689.143	0.0160020
689.221	0.0158446
689.299	0.0157887
689.378	0.0160174
689.456	0.0159641
689.534	0.0157611
689.612	0.0159241
689.690	0.0159887
689.768	0.0158427
689.846	0.0158478
689.924	0.0159846
690.003	0.0158501
690.081	0.0159275
690.159	0.0160868
690.237	0.0159583
690.315	0.0159334
690.393	0.0159759
690.471	0.0160942
690.549	0.0159476
690.628	0.0160558
690.706	0.0160307
690.784	0.0160011
690.862	0.0159470
690.940	0.0160424
691.018	0.0160119
691.096	0.0160935
691.174	0.0160635
691.253	0.0161648
691.331	0.0162035
691.409	0.0160395
691.487	0.0160207
691.565	0.0161523
691.643	0.0162483
691.721	0.0161774
691.799	0.0161181
691.878	0.0161333
691.956	0.0162684
692.034	0.0161786
692.112	0.0160122
692.190	0.0161465
692.268	0.0162098
692.346	0.0162032
692.424	0.0159988
692.503	0.0159743
692.581	0.0159029
692.659	0.0160284
692.737	0.0160032
692.815	0.0159296
692.893	0.0160706
692.971	0.0160805
693.049	0.0159803
693.128	0.0160594
693.206	0.0161209
693.284	0.0160310
693.362	0.0160720
693.440	0.0161066
693.518	0.0161858
693.596	0.0162456
693.674	0.0162587
693.753	0.0161848
693.831	0.0161015
693.909	0.0161658
693.987	0.0162058
694.065	0.0162557
694.143	0.0161185
694.221	0.0161440
694.299	0.0161221
694.378	0.0159814
694.456	0.0159767
694.534	0.0160377
694.612	0.0160368
694.690	0.0159772
694.768	0.0159763
694.846	0.0159198
694.924	0.0159483
695.003	0.0157536
695.081	0.0157635
695.159	0.0159472
695.237	0.0156808
695.315	0.0157844
695.393	0.0158168
695.471	0.0156030
695.549	0.0157140
695.628	0.0158034
695.706	0.0156904
695.784	0.0157084
695.862	0.0157574
695.940	0.0157186
696.018	0.0160104
696.096	0.0157905
696.174	0.0158257
696.253	0.0159664
696.331	0.0159172
696.409	0.0160323
696.487	0.0161870
696.565	0.0161311
696.643	0.0160914
696.721	0.0161002
696.799	0.0160816
696.878	0.0161459
696.956	0.0161789
697.034	0.0160785
697.112	0.0161666
697.190	0.0161674
697.268	0.0162634
697.346	0.0162141
697.424	0.0162592
697.503	0.0162000
697.581	0.0163542
697.659	0.0164011
697.737	0.0163579
697.815	0.0163230
697.893	0.0164163
697.971	0.0162832
698.049	0.0160635
698.128	0.0163536
698.206	0.0164875
698.284	0.0160674
698.362	0.0161784
698.440	0.0160869
698.518	0.0160125
698.596	0.0159401
698.674	0.0158054
698.753	0.0158563
698.831	0.0158057
698.909	0.0157276
698.987	0.0156795
699.065	0.0156870
699.143	0.0157373
699.221	0.0156602
699.299	0.0156136
699.378	0.0157423
699.456	0.0157285
699.534	0.0157047
699.612	0.0157245
699.690	0.0158608
699.768	0.0158907
699.846	0.0158161
699.924	0.0157838
700.003	0.0159016
700.081	0.0159123
700.159	0.0159666
700.237	0.0159821
700.315	0.0160287
700.393	0.0158093
700.471	0.0159451
700.549	0.0159524
700.628	0.0159803
700.706	0.0159601
700.784	0.0160795
700.862	0.0159360
700.940	0.0160298
701.018	0.0159411
701.096	0.0161636
701.174	0.0159804
701.253	0.0160556
701.331	0.0160659
701.409	0.0160748
701.487	0.0160815
701.565	0.0160988
701.643	0.0161495
701.721	0.0160310
701.799	0.0161208
701.878	0.0161485
701.956	0.0161784
702.034	0.0161453
702.112	0.0161250
702.190	0.0161642
702.268	0.0160563
702.346	0.0160912
702.424	0.0160577
702.503	0.0159201
702.581	0.0159984
702.659	0.0159917
702.737	0.0160580
702.815	0.0160336
702.893	0.0160001
702.971	0.0159792
703.049	0.0160540
703.128	0.0160720
703.206	0.0160246
703.284	0.0160613
703.362	0.0158598
703.440	0.0160181
703.518	0.0159700
703.596	0.0158659
703.674	0.0159822
703.753	0.0160489
703.831	0.0159380
703.909	0.0160519
703.987	0.0160109
704.065	0.0160649
704.143	0.0159251
704.221	0.0159789
704.299	0.0159088
704.378	0.0160616
704.456	0.0161115
704.534	0.0160437
704.612	0.0158130
704.690	0.0160876
704.768	0.0160598
704.846	0.0161471
704.924	0.0162521
705.003	0.0161987
705.081	0.0164960
705.159	0.0162424
705.237	0.0162674
705.315	0.0164246
705.393	0.0163345
705.471	0.0163495
705.549	0.0163026
705.628	0.0162756
705.706	0.0162881
705.784	0.0162749
705.862	0.0162547
705.940	0.0161366
706.018	0.0162418
706.096	0.0161990
706.174	0.0160460
706.253	0.0160296
706.331	0.0160406
706.409	0.0160025
706.487	0.0159325
706.565	0.0160339
706.643	0.0161499
706.721	0.0161404
706.799	0.0160268
706.878	0.0161715
706.956	0.0160296
707.034	0.0159539
707.112	0.0159203
707.190	0.0159657
707.268	0.0161386
707.346	0.0160065
707.424	0.0159382
707.503	0.0159914
707.581	0.0158490
707.659	0.0160629
707.737	0.0159758
707.815	0.0160179
707.893	0.0160172
707.971	0.0159823
708.049	0.0160947
708.128	0.0160763
708.206	0.0159601
708.284	0.0159357
708.362	0.0160072
708.440	0.0160475
708.518	0.0161137
708.596	0.0159531
708.674	0.0160767
708.753	0.0160259
708.831	0.0160848
708.909	0.0161719
708.987	0.0160536
709.065	0.0160228
709.143	0.0161575
709.221	0.0161943
709.299	0.0160904
709.378	0.0161743
709.456	0.0162854
709.534	0.0161962
709.612	0.0162839
709.690	0.0163931
709.768	0.0161514
709.846	0.0162025
709.924	0.0162589
710.003	0.0161871
710.081	0.0161781
710.159	0.0161001
710.237	0.0162305
710.315	0.0160567
710.393	0.0162060
710.471	0.0160997
710.549	0.0160015
710.628	0.0159480
710.706	0.0160025
710.784	0.0161159
710.862	0.0160532
710.940	0.0160139
711.018	0.0159679
711.096	0.0161286
711.174	0.0161113
711.253	0.0161372
711.331	0.0160351
711.409	0.0159697
711.487	0.0159230
711.565	0.0159444
711.643	0.0159512
711.721	0.0159708
711.799	0.0159783
711.878	0.0158576
711.956	0.0159544
712.034	0.0160193
712.112	0.0161205
712.190	0.0160166
712.268	0.0159333
712.346	0.0159322
712.424	0.0159914
712.503	0.0158820
712.581	0.0160076
712.659	0.0159801
712.737	0.0158436
712.815	0.0160783
712.893	0.0162217
712.971	0.0160631
713.049	0.0161828
713.128	0.0160933
713.206	0.0161213
713.284	0.0163637
713.362	0.0161857
713.440	0.0162011
713.518	0.0161194
713.596	0.0160601
713.674	0.0161460
713.753	0.0160127
713.831	0.0161404
713.909	0.0162475
713.987	0.0160798
714.065	0.0161303
714.143	0.0161067
714.221	0.0162033
714.299	0.0160672
714.378	0.0160879
714.456	0.0161022
714.534	0.0161021
714.612	0.0159422
714.690	0.0160959
714.768	0.0160655
714.846	0.0159995
714.924	0.0160880
715.003	0.0161666
715.081	0.0161406
715.159	0.0161458
715.237	0.0160497
715.315	0.0160899
715.393	0.0160429
715.471	0.0160369
715.549	0.0161010
715.628	0.0161168
715.706	0.0160625
715.784	0.0161662
715.862	0.0161883
715.940	0.0160663
716.018	0.0161307
716.096	0.0160610
716.174	0.0161278
716.253	0.0161296
716.331	0.0161254
716.409	0.0160217
716.487	0.0160670
716.565	0.0159730
716.643	0.0158680
716.721	0.0161010
716.799	0.0160115
716.878	0.0159879
716.956	0.0159329
717.034	0.0158385
717.112	0.0160430
717.190	0.0159402
717.268	0.0158283
717.346	0.0158984
717.424	0.0159121
717.503	0.0159353
717.581	0.0159439
717.659	0.0160033
717.737	0.0160963
717.815	0.0158918
717.893	0.0159747
717.971	0.0157866
718.049	0.0160146
718.128	0.0161876
718.206	0.0160414
718.284	0.0160429
718.362	0.0159763
718.440	0.0159381
718.518	0.0160684
718.596	0.0159109
718.674	0.0159781
718.753	0.0160509
718.831	0.0160816
718.909	0.0161942
718.987	0.0161194
719.065	0.0160749
719.143	0.0160686
719.221	0.0160846
719.299	0.0161242
719.378	0.0161633
719.456	0.0162029
719.534	0.0162035
719.612	0.0161611
719.690	0.0160979
719.768	0.0161285
719.846	0.0160792
719.924	0.0161121
720.003	0.0161553
720.081	0.0160880
720.159	0.0161102
720.237	0.0161389
720.315	0.0162321
720.393	0.0160204
720.471	0.0161214
720.549	0.0161138
720.628	0.0161308
720.706	0.0161951
720.784	0.0161246
720.862	0.0160733
720.940	0.0161192
721.018	0.0161132
721.096	0.0160867
721.174	0.0160274
721.253	0.0161269
721.331	0.0161282
721.409	0.0161610
721.487	0.0160923
721.565	0.0160756
721.643	0.0160546
721.721	0.0162158
721.799	0.0159462
721.878	0.0160013
721.956	0.0160488
722.034	0.0159525
722.112	0.0161519
722.190	0.0159669
722.268	0.0160709
722.346	0.0159317
722.424	0.0159314
722.503	0.0159172
722.581	0.0160777
722.659	0.0160154
722.737	0.0161160
722.815	0.0161781
722.893	0.0159414
722.971	0.0160191
723.049	0.0162204
723.128	0.0160943
723.206	0.0159327
723.284	0.0160232
723.362	0.0160762
723.440	0.0160899
723.518	0.0161595
723.596	0.0161131
723.674	0.0161068
723.753	0.0161230
723.831	0.0159949
723.909	0.0161411
723.987	0.0161375
724.065	0.0160960
724.143	0.0161344
724.221	0.0162413
724.299	0.0162082
724.378	0.0161060
724.456	0.0160908
724.534	0.0161043
724.612	0.0160670
724.690	0.0161528
724.768	0.0160427
724.846	0.0160970
724.924	0.0161444
725.003	0.0161101
725.081	0.0161279
725.159	0.0160697
725.237	0.0161211
725.315	0.0160434
725.393	0.0160509
725.471	0.0159795
725.549	0.0160463
725.628	0.0161282
725.706	0.0159741
725.784	0.0159250
725.862	0.0159904
725.940	0.0160877
726.018	0.0160841
726.096	0.0159338
726.174	0.0159246
726.253	0.0159908
726.331	0.0160305
726.409	0.0159812
726.487	0.0160954
726.565	0.0161445
726.643	0.0160906
726.721	0.0159977
726.799	0.0161093
726.878	0.0162027
726.956	0.0162038
727.034	0.0161082
727.112	0.0162491
727.190	0.0161640
727.268	0.0160097
727.346	0.0160973
727.424	0.0162641
727.503	0.0162185
727.581	0.0162376
727.659	0.0162139
727.737	0.0161134
727.815	0.0161371
727.893	0.0162309
727.971	0.0160898
728.049	0.0161759
728.128	0.0162592
728.206	0.0162015
728.284	0.0161430
728.362	0.0162790
728.440	0.0162865
728.518	0.0162714
728.596	0.0162919
728.674	0.0162771
728.753	0.0163026
728.831	0.0162513
728.909	0.0163109
728.987	0.0162552
729.065	0.0162284
729.143	0.0163036
729.221	0.0162328
729.299	0.0162331
729.378	0.0163025
729.456	0.0162431
729.534	0.0161438
729.612	0.0162192
729.690	0.0161903
729.768	0.0160007
729.846	0.0159723
729.924	0.0161366
730.003	0.0161448
730.081	0.0160198
730.159	0.0160596
730.237	0.0160109
730.315	0.0160762
730.393	0.0160545
730.471	0.0161998
730.549	0.0160631
730.628	0.0159615
730.706	0.0159942
730.784	0.0158949
730.862	0.0160133
730.940	0.0160279
731.018	0.0159839
731.096	0.0160363
731.174	0.0160201
731.253	0.0158702
731.331	0.0160136
731.409	0.0158352
731.487	0.0160356
731.565	0.0159305
731.643	0.0159934
731.721	0.0159292
731.799	0.0158991
731.878	0.0159296
731.956	0.0160397
732.034	0.0160198
732.112	0.0159547
732.190	0.0159698
732.268	0.0159874
732.346	0.0160353
732.424	0.0159657
732.503	0.0159650
732.581	0.0160492
732.659	0.0160326
732.737	0.0160657
732.815	0.0160218
732.893	0.0159333
732.971	0.0160477
733.049	0.0160379
733.128	0.0160908
733.206	0.0160735
733.284	0.0160026
733.362	0.0160817
733.440	0.0159514
733.518	0.0160149
733.596	0.0162609
733.674	0.0160730
733.753	0.0160431
733.831	0.0161525
733.909	0.0160072
733.987	0.0161121
734.065	0.0159679
734.143	0.0161349
734.221	0.0160128
734.299	0.0161482
734.378	0.0160297
734.456	0.0159859
734.534	0.0161732
734.612	0.0160728
734.690	0.0161034
734.768	0.0159619
734.846	0.0160793
734.924	0.0161701
735.003	0.0161961
735.081	0.0161761
735.159	0.0161212
735.237	0.0160809
735.315	0.0161679
735.393	0.0161623
735.471	0.0160900
735.549	0.0161039
735.628	0.0161464
735.706	0.0161888
735.784	0.0161283
735.862	0.0159860
735.940	0.0161062
736.018	0.0161364
736.096	0.0160127
736.174	0.0160859
736.253	0.0161018
736.331	0.0161178
736.409	0.0160886
736.487	0.0160866
736.565	0.0161906
736.643	0.0161429
736.721	0.0161315
736.799	0.0161498
736.878	0.0161288
736.956	0.0163383
737.034	0.0162117
737.112	0.0161640
737.190	0.0160386
737.268	0.0161813
737.346	0.0160489
737.424	0.0160607
737.503	0.0160153
737.581	0.0159010
737.659	0.0158584
737.737	0.0160762
737.815	0.0160184
737.893	0.0159124
737.971	0.0160146
738.049	0.0159921
738.128	0.0159396
738.206	0.0159258
738.284	0.0159412
738.362	0.0158167
738.440	0.0159870
738.518	0.0160523
738.596	0.0159384
738.674	0.0160025
738.753	0.0160410
738.831	0.0158423
738.909	0.0159370
738.987	0.0158918
739.065	0.0158218
739.143	0.0159773
739.221	0.0159769
739.299	0.0158296
739.378	0.0158556
739.456	0.0159410
739.534	0.0159769
739.612	0.0158939
739.690	0.0158237
739.768	0.0158705
739.846	0.0159155
739.924	0.0159427
740.003	0.0159897
740.081	0.0162112
740.159	0.0162550
740.237	0.0159613
740.315	0.0160426
740.393	0.0159881
740.471	0.0160056
740.549	0.0160167
740.628	0.0161354
740.706	0.0161019
740.784	0.0159914
740.862	0.0161439
740.940	0.0159364
741.018	0.0159850
741.096	0.0160001
741.174	0.0160372
741.253	0.0161204
741.331	0.0161433
741.409	0.0159612
741.487	0.0159933
741.565	0.0160852
741.643	0.0159684
741.721	0.0159176
741.799	0.0160281
741.878	0.0159243
741.956	0.0159490
742.034	0.0161391
742.112	0.0160218
742.190	0.0161189
742.268	0.0162216
742.346	0.0161783
742.424	0.0161786
742.503	0.0161600
742.581	0.0162131
742.659	0.0162102
742.737	0.0162544
742.815	0.0160902
742.893	0.0162096
742.971	0.0162894
743.049	0.0162916
743.128	0.0161214
743.206	0.0163334
743.284	0.0163950
743.362	0.0163113
743.440	0.0162923
743.518	0.0163481
743.596	0.0161684
743.674	0.0162205
743.753	0.0162417
743.831	0.0162408
743.909	0.0162234
743.987	0.0162084
744.065	0.0161568
744.143	0.0162645
744.221	0.0163190
744.299	0.0162614
744.378	0.0162204
744.456	0.0160989
744.534	0.0160368
744.612	0.0161362
744.690	0.0161810
744.768	0.0161082
744.846	0.0160752
744.924	0.0159969
745.003	0.0160572
745.081	0.0160229
745.159	0.0160172
745.237	0.0160090
745.315	0.0160460
745.393	0.0159722
745.471	0.0161040
745.549	0.0160514
745.628	0.0161254
745.706	0.0159892
745.784	0.0159455
745.862	0.0160207
745.940	0.0160021
746.018	0.0161235
746.096	0.0159909
746.174	0.0159543
746.253	0.0160399
746.331	0.0160125
746.409	0.0160117
746.487	0.0161045
746.565	0.0160214
746.643	0.0160654
746.721	0.0160049
746.799	0.0159579
746.878	0.0160268
746.956	0.0159272
747.034	0.0159592
747.112	0.0159306
747.190	0.0159650
747.268	0.0160290
747.346	0.0159029
747.424	0.0159052
747.503	0.0158810
747.581	0.0159887
747.659	0.0159485
747.737	0.0159716
747.815	0.0158504
747.893	0.0158974
747.971	0.0159443
748.049	0.0160442
748.128	0.0162178
748.206	0.0159789
748.284	0.0159774
748.362	0.0160025
748.440	0.0159527
748.518	0.0158968
748.596	0.0161066
748.674	0.0160123
748.753	0.0160631
748.831	0.0159818
748.909	0.0160566
748.987	0.0160182
749.065	0.0160905
749.143	0.0160157
749.221	0.0160568
749.299	0.0161462
749.378	0.0161440
749.456	0.0162249
749.534	0.0161539
749.612	0.0160882
749.690	0.0161214
749.768	0.0162135
749.846	0.0161066
749.924	0.0162118
750.003	0.0163738
750.081	0.0162108
750.159	0.0163415
750.237	0.0162749
750.315	0.0161697
750.393	0.0162489
750.471	0.0161715
750.549	0.0163628
750.628	0.0161829
750.706	0.0163326
750.784	0.0163265
750.862	0.0162402
750.940	0.0161459
751.018	0.0162555
751.096	0.0162090
751.174	0.0161583
751.253	0.0162386
751.331	0.0163177
751.409	0.0162283
751.487	0.0162372
751.565	0.0161338
751.643	0.0162889
751.721	0.0162717
751.799	0.0162971
751.878	0.0162475
751.956	0.0162546
752.034	0.0163025
752.112	0.0161661
752.190	0.0162663
752.268	0.0162211
752.346	0.0162730
752.424	0.0163259
752.503	0.0161980
752.581	0.0161600
752.659	0.0162675
752.737	0.0163293
752.815	0.0160483
752.893	0.0160179
752.971	0.0160385
753.049	0.0160417
753.128	0.0161089
753.206	0.0161126
753.284	0.0160800
753.362	0.0160816
753.440	0.0160178
753.518	0.0159544
753.596	0.0160110
753.674	0.0160016
753.753	0.0159293
753.831	0.0159851
753.909	0.0159017
753.987	0.0160069
754.065	0.0158177
754.143	0.0160635
754.221	0.0158913
754.299	0.0158394
754.378	0.0159847
754.456	0.0159151
754.534	0.0158548
754.612	0.0157274
754.690	0.0158746
754.768	0.0157655
754.846	0.0158341
754.924	0.0158479
755.003	0.0158547
755.081	0.0159261
755.159	0.0157753
755.237	0.0159637
755.315	0.0159103
755.393	0.0157978
755.471	0.0158939
755.549	0.0160055
755.628	0.0160439
755.706	0.0161367
755.784	0.0161606
755.862	0.0159966
755.940	0.0161335
756.018	0.0161528
756.096	0.0162506
756.174	0.0160054
756.253	0.0160712
756.331	0.0159895
756.409	0.0160834
756.487	0.0161199
756.565	0.0160208
756.643	0.0160512
756.721	0.0160196
756.799	0.0161732
756.878	0.0161024
756.956	0.0162075
757.034	0.0161392
757.112	0.0160796
757.190	0.0162033
757.268	0.0163660
757.346	0.0162460
757.424	0.0162868
757.503	0.0163292
757.581	0.0162890
757.659	0.0162057
757.737	0.0162498
757.815	0.0163118
757.893	0.0161936
757.971	0.0163123
758.049	0.0161822
758.128	0.0160698
758.206	0.0162511
758.284	0.0162543
758.362	0.0163708
758.440	0.0161998
758.518	0.0162943
758.596	0.0161862
758.674	0.0162286
758.753	0.0162846
758.831	0.0162320
758.909	0.0162348
758.987	0.0161457
759.065	0.0161636
759.143	0.0161772
759.221	0.0163054
759.299	0.0161256
759.378	0.0162045
759.456	0.0161420
759.534	0.0160930
759.612	0.0160754
759.690	0.0160549
759.768	0.0161681
759.846	0.0161252
759.924	0.0161060
760.003	0.0161243
760.081	0.0161050
760.159	0.0161348
760.237	0.0160919
760.315	0.0160672
760.393	0.0161165
760.471	0.0160125
760.549	0.0161931
760.628	0.0161148
760.706	0.0159839
760.784	0.0160323
760.862	0.0161346
760.940	0.0160757
761.018	0.0158685
761.096	0.0158075
761.174	0.0159477
761.253	0.0160719
761.331	0.0158360
761.409	0.0159801
761.487	0.0159853
761.565	0.0160396
761.643	0.0158068
761.721	0.0159731
761.799	0.0159430
761.878	0.0158865
761.956	0.0161559
762.034	0.0158705
762.112	0.0158423
762.190	0.0159538
762.268	0.0159599
762.346	0.0160543
762.424	0.0158190
762.503	0.0159496
762.581	0.0159011
762.659	0.0159093
762.737	0.0158758
762.815	0.0157538
762.893	0.0159053
762.971	0.0158555
763.049	0.0159675
763.128	0.0158720
763.206	0.0158602
763.284	0.0159077
763.362	0.0158896
763.440	0.0158889
763.518	0.0159642
763.596	0.0159645
763.674	0.0160805
763.753	0.0160684
763.831	0.0159785
763.909	0.0159384
763.987	0.0161462
764.065	0.0160490
764.143	0.0159553
764.221	0.0160350
764.299	0.0161151
764.378	0.0160872
764.456	0.0162112
764.534	0.0161848
764.612	0.0162059
764.690	0.0160031
764.768	0.0162409
764.846	0.0162210
764.924	0.0161629
765.003	0.0162114
765.081	0.0162065
765.159	0.0160725
765.237	0.0161803
765.315	0.0161503
765.393	0.0163535
765.471	0.0161584
765.549	0.0160723
765.628	0.0163016
765.706	0.0162598
765.784	0.0160446
765.862	0.0161599
765.940	0.0162064
766.018	0.0162018
766.096	0.0162475
766.174	0.0160064
766.253	0.0161251
766.331	0.0160624
766.409	0.0161644
766.487	0.0163586
766.565	0.0161443
766.643	0.0161487
766.721	0.0162932
766.799	0.0162795
766.878	0.0161658
766.956	0.0162415
767.034	0.0160824
767.112	0.0161468
767.190	0.0160378
767.268	0.0160822
767.346	0.0160670
767.424	0.0160994
767.503	0.0160577
767.581	0.0159599
767.659	0.0159995
767.737	0.0160783
767.815	0.0161418
767.893	0.0159337
767.971	0.0161587
768.049	0.0161220
768.128	0.0160228
768.206	0.0160371
768.284	0.0159631
768.362	0.0160292
768.440	0.0159087
768.518	0.0159286
768.596	0.0159294
768.674	0.0160683
768.753	0.0159221
768.831	0.0159375
768.909	0.0159556
768.987	0.0159328
769.065	0.0159235
769.143	0.0159336
769.221	0.0158392
769.299	0.0159315
769.378	0.0159192
769.456	0.0158578
769.534	0.0160838
769.612	0.0159724
769.690	0.0159118
769.768	0.0158292
769.846	0.0158337
769.924	0.0159669
770.003	0.0158990
770.081	0.0158764
770.159	0.0158825
770.237	0.0159917
770.315	0.0159592
770.393	0.0157941
770.471	0.0157761
770.549	0.0158847
770.628	0.0157980
770.706	0.0158051
770.784	0.0158513
770.862	0.0158954
770.940	0.0158419
771.018	0.0159454
771.096	0.0159065
771.174	0.0157646
771.253	0.0160447
771.331	0.0159377
771.409	0.0160123
771.487	0.0160907
771.565	0.0160669
771.643	0.0160844
771.721	0.0159406
771.799	0.0159660
771.878	0.0160473
771.956	0.0160905
772.034	0.0160323
772.112	0.0160806
772.190	0.0161111
772.268	0.0161802
772.346	0.0161295
772.424	0.0161650
772.503	0.0161111
772.581	0.0159880
772.659	0.0160778
772.737	0.0161285
772.815	0.0161111
772.893	0.0162657
772.971	0.0162897
773.049	0.0161306
773.128	0.0161339
773.206	0.0161026
773.284	0.0161044
773.362	0.0161064
773.440	0.0161858
773.518	0.0162846
773.596	0.0161690
773.674	0.0161141
773.753	0.0163999
773.831	0.0163351
773.909	0.0161638
773.987	0.0162962
774.065	0.0163567
774.143	0.0163130
774.221	0.0161515
774.299	0.0162701
774.378	0.0162009
774.456	0.0163684
774.534	0.0162882
774.612	0.0161712
774.690	0.0161870
774.768	0.0161376
774.846	0.0162349
774.924	0.0162456
775.003	0.0162836
775.081	0.0160958
775.159	0.0160751
775.237	0.0160717
775.315	0.0161428
775.393	0.0160538
775.471	0.0160690
775.549	0.0160173
775.628	0.0160262
775.706	0.0159009
775.784	0.0159787
775.862	0.0159035
775.940	0.0159516
776.018	0.0159643
776.096	0.0159041
776.174	0.0157610
776.253	0.0158125
776.331	0.0158457
776.409	0.0158632
776.487	0.0158851
776.565	0.0159319
776.643	0.0158871
776.721	0.0159799
776.799	0.0159109
776.878	0.0160136
776.956	0.0157855
777.034	0.0158273
777.112	0.0158708
777.190	0.0158111
777.268	0.0158840
777.346	0.0159822
777.424	0.0158481
777.503	0.0158348
777.581	0.0159376
777.659	0.0158069
777.737	0.0158493
777.815	0.0158263
777.893	0.0160237
777.971	0.0159389
778.049	0.0159944
778.128	0.0161008
778.206	0.0161469
778.284	0.0160776
778.362	0.0161253
778.440	0.0160663
778.518	0.0162300
778.596	0.0161108
778.674	0.0158887
778.753	0.0161858
778.831	0.0161121
778.909	0.0160036
778.987	0.0161624
779.065	0.0162704
779.143	0.0162287
779.221	0.0162435
779.299	0.0161248
779.378	0.0161897
779.456	0.0161561
779.534	0.0161959
779.612	0.0161543
779.690	0.0162843
779.768	0.0160886
779.846	0.0160085
779.924	0.0161692
780.003	0.0160413
780.081	0.0161513
780.159	0.0161552
780.237	0.0162904
780.315	0.0160333
780.393	0.0161472
780.471	0.0162355
780.549	0.0161237
780.628	0.0160736
780.706	0.0161833
780.784	0.0160577
780.862	0.0161570
780.940	0.0163046
781.018	0.0161686
781.096	0.0160143
781.174	0.0161470
781.253	0.0161157
781.331	0.0161922
781.409	0.0161668
781.487	0.0161592
781.565	0.0160785
781.643	0.0160279
781.721	0.0162231
781.799	0.0159706
781.878	0.0160892
781.956	0.0159791
782.034	0.0160479
782.112	0.0161033
782.190	0.0160770
782.268	0.0160442
782.346	0.0160986
782.424	0.0161486
782.503	0.0160943
782.581	0.0161102
782.659	0.0161606
782.737	0.0160316
782.815	0.0159756
782.893	0.0159891
782.971	0.0160349
783.049	0.0160126
783.128	0.0160524
783.206	0.0160816
783.284	0.0160648
783.362	0.0162337
783.440	0.0161509
783.518	0.0160624
783.596	0.0160809
783.674	0.0161744
783.753	0.0160085
783.831	0.0159560
783.909	0.0161581
783.987	0.0160343
784.065	0.0160783
784.143	0.0160810
784.221	0.0161253
784.299	0.0161376
784.378	0.0161806
784.456	0.0161147
784.534	0.0160139
784.612	0.0161251
784.690	0.0161805
784.768	0.0161418
784.846	0.0161103
784.924	0.0160310
785.003	0.0160212
785.081	0.0159896
785.159	0.0159112
785.237	0.0160712
785.315	0.0160764
785.393	0.0161166
785.471	0.0160417
785.549	0.0160886
785.628	0.0161246
785.706	0.0161800
785.784	0.0162158
785.862	0.0160927
785.940	0.0161487
786.018	0.0162738
786.096	0.0161460
786.174	0.0163174
786.253	0.0163123
786.331	0.0161873
786.409	0.0162186
786.487	0.0162018
786.565	0.0162640
786.643	0.0162775
786.721	0.0160709
786.799	0.0162610
786.878	0.0161916
786.956	0.0162029
787.034	0.0161205
787.112	0.0160795
787.190	0.0161643
787.268	0.0161797
787.346	0.0161469
787.424	0.0160307
787.503	0.0159697
787.581	0.0159733
787.659	0.0161608
787.737	0.0162363
787.815	0.0161388
787.893	0.0160251
787.971	0.0160448
788.049	0.0159272
788.128	0.0159604
788.206	0.0159618
788.284	0.0160517
788.362	0.0159617
788.440	0.0159843
788.518	0.0160035
788.596	0.0160425
788.674	0.0158571
788.753	0.0159654
788.831	0.0160169
788.909	0.0159846
788.987	0.0159209
789.065	0.0159106
789.143	0.0159985
789.221	0.0159914
789.299	0.0158739
789.378	0.0159122
789.456	0.0159943
789.534	0.0160927
789.612	0.0160748
789.690	0.0160184
789.768	0.0160273
789.846	0.0161951
789.924	0.0159871
790.003	0.0160061
790.081	0.0160826
790.159	0.0161652
790.237	0.0161028
790.315	0.0160818
790.393	0.0161646
790.471	0.0161062
790.549	0.0162380
790.628	0.0161272
790.706	0.0159969
790.784	0.0161296
790.862	0.0161328
790.940	0.0160454
791.018	0.0161296
791.096	0.0161030
791.174	0.0159784
791.253	0.0161293
791.331	0.0162016
791.409	0.0161999
791.487	0.0161059
791.565	0.0160684
791.643	0.0160674
791.721	0.0160511
791.799	0.0160760
791.878	0.0161173
791.956	0.0161324
792.034	0.0162561
792.112	0.0161095
792.190	0.0161116
792.268	0.0161406
792.346	0.0160762
792.424	0.0160487
792.503	0.0161323
792.581	0.0161192
792.659	0.0161353
792.737	0.0159335
792.815	0.0161895
792.893	0.0160220
792.971	0.0161913
793.049	0.0161337
793.128	0.0160960
793.206	0.0160432
793.284	0.0160678
793.362	0.0160406
793.440	0.0159731
793.518	0.0160448
793.596	0.0159414
793.674	0.0159592
793.753	0.0161339
793.831	0.0162090
793.909	0.0159927
793.987	0.0159622
794.065	0.0159796
794.143	0.0160172
794.221	0.0162178
794.299	0.0160564
794.378	0.0160382
794.456	0.0159122
794.534	0.0159949
794.612	0.0160502
794.690	0.0159570
794.768	0.0160162
794.846	0.0159850
794.924	0.0158765
795.003	0.0159603
795.081	0.0158842
795.159	0.0158385
795.237	0.0160923
795.315	0.0159386
795.393	0.0157946
795.471	0.0157133
795.549	0.0158980
795.628	0.0158867
795.706	0.0159643
795.784	0.0157957
795.862	0.0158215
795.940	0.0158773
796.018	0.0161046
796.096	0.0158280
796.174	0.0159051
796.253	0.0159393
796.331	0.0161028
796.409	0.0159543
796.487	0.0158860
796.565	0.0159242
796.643	0.0159150
796.721	0.0159906
796.799	0.0160871
796.878	0.0159989
796.956	0.0159652
797.034	0.0159645
797.112	0.0160776
797.190	0.0159664
797.268	0.0160254
797.346	0.0160957
797.424	0.0160626
797.503	0.0162299
797.581	0.0160571
797.659	0.0161218
797.737	0.0161645
797.815	0.0161422
797.893	0.0161719
797.971	0.0161985
798.049	0.0161636
798.128	0.0161491
798.206	0.0161458
798.284	0.0162494
798.362	0.0162514
798.440	0.0161174
798.518	0.0160969
798.596	0.0162090
798.674	0.0162465
798.753	0.0160399
798.831	0.0161732
798.909	0.0161612
798.987	0.0162267
799.065	0.0161173
799.143	0.0160111
799.221	0.0160152
799.299	0.0160148
799.378	0.0161556
799.456	0.0162614
799.534	0.0159595
799.612	0.0160661
799.690	0.0161115
799.768	0.0160974
799.846	0.0160947
799.924	0.0159947
800.003	0.0160401
800.081	0.0160431
800.159	0.0161776
800.237	0.0160677
800.315	0.0160719
800.393	0.0160120
800.471	0.0160255
800.549	0.0161078
800.628	0.0160545
800.706	0.0160342
800.784	0.0160337
800.862	0.0160706
800.940	0.0159508
801.018	0.0161691
801.096	0.0159697
801.174	0.0159878
801.253	0.0160529
801.331	0.0160847
801.409	0.0160488
801.487	0.0160465
801.565	0.0160252
801.643	0.0160371
801.721	0.0159784
801.799	0.0160059
801.878	0.0160049
801.956	0.0160014
802.034	0.0160231
802.112	0.0160812
802.190	0.0160324
802.268	0.0158990
802.346	0.0158330
802.424	0.0158699
802.503	0.0160286
802.581	0.0159340
802.659	0.0159802
802.737	0.0161507
802.815	0.0161089
802.893	0.0160699
802.971	0.0160478
803.049	0.0159900
803.128	0.0160248
803.206	0.0160355
803.284	0.0160907
803.362	0.0158591
803.440	0.0159909
803.518	0.0160015
803.596	0.0159258
803.674	0.0160751
803.753	0.0160941
803.831	0.0160944
803.909	0.0160780
803.987	0.0159044
804.065	0.0160425
804.143	0.0160197
804.221	0.0159594
804.299	0.0160358
804.378	0.0161801
804.456	0.0160448
804.534	0.0160689
804.612	0.0160470
804.690	0.0160679
804.768	0.0160867
804.846	0.0159499
804.924	0.0161717
805.003	0.0159840
805.081	0.0160290
805.159	0.0163775
805.237	0.0160257
805.315	0.0160544
805.393	0.0162060
805.471	0.0161385
805.549	0.0162310
805.628	0.0161690
805.706	0.0162800
805.784	0.0163819
805.862	0.0163097
805.940	0.0162707
806.018	0.0163741
806.096	0.0162616
806.174	0.0161468
806.253	0.0163326
806.331	0.0162236
806.409	0.0163657
806.487	0.0163638
806.565	0.0162952
806.643	0.0163077
806.721	0.0162840
806.799	0.0163476
806.878	0.0162869
806.956	0.0162637
807.034	0.0163049
807.112	0.0162783
807.190	0.0163015
807.268	0.0162527
807.346	0.0162207
807.424	0.0161849
807.503	0.0164294
807.581	0.0163705
807.659	0.0162286
807.737	0.0161516
807.815	0.0160580
807.893	0.0161267
807.971	0.0162446
808.049	0.0161683
808.128	0.0161241
808.206	0.0160890
808.284	0.0160627
808.362	0.0161089
808.440	0.0160032
808.518	0.0161290
808.596	0.0161064
808.674	0.0158939
808.753	0.0161288
808.831	0.0160174
808.909	0.0160357
808.987	0.0160659
809.065	0.0159476
809.143	0.0159536
809.221	0.0160231
809.299	0.0158430
809.378	0.0160184
809.456	0.0160826
809.534	0.0160397
809.612	0.0160585
809.690	0.0160550
809.768	0.0159464
809.846	0.0159840
809.924	0.0160995
810.003	0.0160344
810.081	0.0160315
810.159	0.0160114
810.237	0.0162148
810.315	0.0159786
810.393	0.0158441
810.471	0.0158400
810.549	0.0158694
810.628	0.0158955
810.706	0.0161449
810.784	0.0160444
810.862	0.0158865
810.940	0.0159361
811.018	0.0159470
811.096	0.0160504
811.174	0.0159731
811.253	0.0159162
811.331	0.0158046
811.409	0.0159981
811.487	0.0159865
811.565	0.0159235
811.643	0.0160309
811.721	0.0160469
811.799	0.0159758
811.878	0.0158769
811.956	0.0159348
812.034	0.0159206
812.112	0.0159969
812.190	0.0160886
812.268	0.0160601
812.346	0.0159779
812.424	0.0158683
812.503	0.0159328
812.581	0.0159939
812.659	0.0159723
812.737	0.0162048
812.815	0.0160677
812.893	0.0161511
812.971	0.0160565
813.049	0.0162465
813.128	0.0162217
813.206	0.0160602
813.284	0.0160439
813.362	0.0161228
813.440	0.0159693
813.518	0.0161130
813.596	0.0160947
813.674	0.0160954
813.753	0.0160532
813.831	0.0161742
813.909	0.0161622
813.987	0.0161700
814.065	0.0161655
814.143	0.0162781
814.221	0.0161087
814.299	0.0161083
814.378	0.0161717
814.456	0.0162206
814.534	0.0161639
814.612	0.0161348
814.690	0.0162719
814.768	0.0161918
814.846	0.0161694
814.924	0.0161182
815.003	0.0160740
815.081	0.0160950
815.159	0.0160358
815.237	0.0160783
815.315	0.0161911
815.393	0.0161219
815.471	0.0163048
815.549	0.0161002
815.628	0.0162360
815.706	0.0160542
815.784	0.0160634
815.862	0.0161471
815.940	0.0160758
816.018	0.0161003
816.096	0.0161874
816.174	0.0161975
816.253	0.0160658
816.331	0.0161720
816.409	0.0161009
816.487	0.0160426
816.565	0.0159713
816.643	0.0160418
816.721	0.0160592
816.799	0.0159043
816.878	0.0159672
816.956	0.0160292
817.034	0.0159480
817.112	0.0158657
817.190	0.0160439
817.268	0.0159940
817.346	0.0158891
817.424	0.0159735
817.503	0.0159415
817.581	0.0157554
817.659	0.0160049
817.737	0.0159027
817.815	0.0159312
817.893	0.0159772
817.971	0.0159861
818.049	0.0160377
818.128	0.0159084
818.206	0.0160189
818.284	0.0159045
818.362	0.0159470
818.440	0.0160938
818.518	0.0159583
818.596	0.0159826
818.674	0.0159850
818.753	0.0159765
818.831	0.0158852
818.909	0.0158723
818.987	0.0159322
819.065	0.0159348
819.143	0.0159258
819.221	0.0160670
819.299	0.0158636
819.378	0.0159301
819.456	0.0158653
819.534	0.0160154
819.612	0.0159167
819.690	0.0159962
819.768	0.0158486
819.846	0.0159235
819.924	0.0160545
820.003	0.0159988
820.081	0.0160847
820.159	0.0160083
820.237	0.0159354
820.315	0.0161970
820.393	0.0160614
820.471	0.0160367
820.549	0.0161498
820.628	0.0160949
820.706	0.0161378
820.784	0.0160602
820.862	0.0161439
820.940	0.0162083
821.018	0.0162267
821.096	0.0161707
821.174	0.0161000
821.253	0.0161751
821.331	0.0162215
821.409	0.0161295
821.487	0.0160999
821.565	0.0161504
821.643	0.0161174
821.721	0.0160801
821.799	0.0162326
821.878	0.0163528
821.956	0.0161289
822.034	0.0161198
822.112	0.0161732
822.190	0.0162410
822.268	0.0161950
822.346	0.0162131
822.424	0.0162178
822.503	0.0162150
822.581	0.0161695
822.659	0.0162025
822.737	0.0162756
822.815	0.0163856
822.893	0.0162797
822.971	0.0162234
823.049	0.0162985
823.128	0.0162328
823.206	0.0162597
823.284	0.0162447
823.362	0.0161130
823.440	0.0161450
823.518	0.0161842
823.596	0.0161217
823.674	0.0162263
823.753	0.0162227
823.831	0.0162409
823.909	0.0161865
823.987	0.0161276
824.065	0.0161248
824.143	0.0161736
824.221	0.0161625
824.299	0.0161914
824.378	0.0159826
824.456	0.0162522
824.534	0.0161587
824.612	0.0160787
824.690	0.0160452
824.768	0.0160458
824.846	0.0160213
824.924	0.0160207
825.003	0.0161063
825.081	0.0162102
825.159	0.0160384
825.237	0.0160072
825.315	0.0160825
825.393	0.0160471
825.471	0.0161162
825.549	0.0159929
825.628	0.0159733
825.706	0.0159486
825.784	0.0157710
825.862	0.0158949
825.940	0.0161205
826.018	0.0160032
826.096	0.0158123
826.174	0.0159576
826.253	0.0160329
826.331	0.0160093
826.409	0.0159686
826.487	0.0160220
826.565	0.0159329
826.643	0.0159630
826.721	0.0159666
826.799	0.0159691
826.878	0.0159290
826.956	0.0158833
827.034	0.0162104
827.112	0.0161900
827.190	0.0160179
827.268	0.0159964
827.346	0.0160818
827.424	0.0162434
827.503	0.0161049
827.581	0.0160045
827.659	0.0161392
827.737	0.0161782
827.815	0.0160416
827.893	0.0161960
827.971	0.0160877
828.049	0.0161343
828.128	0.0161458
828.206	0.0161103
828.284	0.0161341
828.362	0.0161167
828.440	0.0162012
828.518	0.0162058
828.596	0.0162984
828.674	0.0162632
828.753	0.0161689
828.831	0.0163747
828.909	0.0163842
828.987	0.0162653
829.065	0.0163483
829.143	0.0163221
829.221	0.0163053
829.299	0.0164332
829.378	0.0164918
829.456	0.0164114
829.534	0.0163961
829.612	0.0163097
829.690	0.0163949
829.768	0.0163639
829.846	0.0163857
829.924	0.0164193
830.003	0.0163620
830.081	0.0162749
830.159	0.0164180
830.237	0.0162891
830.315	0.0164378
830.393	0.0164102
830.471	0.0162461
830.549	0.0162968
830.628	0.0162808
830.706	0.0162820
830.784	0.0163345
830.862	0.0162952
830.940	0.0162785
831.018	0.0162655
831.096	0.0163995
831.174	0.0163589
831.253	0.0162504
831.331	0.0161719
831.409	0.0161701
831.487	0.0161693
831.565	0.0161694
831.643	0.0159896
831.721	0.0161436
831.799	0.0161397
831.878	0.0161588
831.956	0.0162193
832.034	0.0159700
832.112	0.0160844
832.190	0.0160323
832.268	0.0161008
832.346	0.0161150
832.424	0.0159436
832.503	0.0161092
832.581	0.0160610
832.659	0.0160719
832.737	0.0160301
832.815	0.0159778
832.893	0.0159522
832.971	0.0160061
833.049	0.0158634
833.128	0.0159410
833.206	0.0160339
833.284	0.0159588
833.362	0.0159416
833.440	0.0159070
833.518	0.0159261
833.596	0.0159777
833.674	0.0158459
833.753	0.0158171
833.831	0.0158011
833.909	0.0157497
833.987	0.0160686
834.065	0.0159898
834.143	0.0158826
834.221	0.0158305
834.299	0.0158080
834.378	0.0158414
834.456	0.0158678
834.534	0.0159723
834.612	0.0158982
834.690	0.0158065
834.768	0.0158695
834.846	0.0159241
834.924	0.0158812
835.003	0.0159561
835.081	0.0158929
835.159	0.0159573
835.237	0.0159241
835.315	0.0159777
835.393	0.0161082
835.471	0.0159281
835.549	0.0160635
835.628	0.0159451
835.706	0.0161430
835.784	0.0160567
835.862	0.0160017
835.940	0.0161057
836.018	0.0160221
836.096	0.0161097
836.174	0.0160640
836.253	0.0161785
836.331	0.0161057
836.409	0.0160749
836.487	0.0161504
836.565	0.0161954
836.643	0.0162167
836.721	0.0161811
836.799	0.0161494
836.878	0.0162142
836.956	0.0162419
837.034	0.0160789
837.112	0.0161266
837.190	0.0162443
837.268	0.0160701
837.346	0.0162473
837.424	0.0161901
837.503	0.0162195
837.581	0.0161327
837.659	0.0161528
837.737	0.0163330
837.815	0.0161315
837.893	0.0161333
837.971	0.0161818
838.049	0.0159988
838.128	0.0161672
838.206	0.0162357
838.284	0.0161266
838.362	0.0160758
838.440	0.0162253
838.518	0.0160698
838.596	0.0161897
838.674	0.0162423
838.753	0.0160838
838.831	0.0162511
838.909	0.0161913
838.987	0.0161560
839.065	0.0161253
839.143	0.0161577
839.221	0.0161250
839.299	0.0161902
839.378	0.0160149
839.456	0.0160937
839.534	0.0160989
839.612	0.0159960
839.690	0.0159206
839.768	0.0160155
839.846	0.0159702
839.924	0.0159963
840.003	0.0160686
840.081	0.0160368
840.159	0.0160149
840.237	0.0160060
840.315	0.0159349
840.393	0.0160627
840.471	0.0160993
840.549	0.0160617
840.628	0.0160077
840.706	0.0158851
840.784	0.0159245
840.862	0.0159893
840.940	0.0160384
841.018	0.0159104
841.096	0.0158976
841.174	0.0159309
841.253	0.0160317
841.331	0.0158543
841.409	0.0159834
841.487	0.0158774
841.565	0.0159486
841.643	0.0158807
841.721	0.0159012
841.799	0.0158327
841.878	0.0159714
841.956	0.0159506
842.034	0.0159366
842.112	0.0159248
842.190	0.0158107
842.268	0.0158598
842.346	0.0159332
842.424	0.0159209
842.503	0.0158297
842.581	0.0159354
842.659	0.0158940
842.737	0.0159551
842.815	0.0157963
842.893	0.0159016
842.971	0.0159068
843.049	0.0159143
843.128	0.0160263
843.206	0.0159995
843.284	0.0160371
843.362	0.0162023
843.440	0.0161969
843.518	0.0159795
843.596	0.0161288
843.674	0.0161435
843.753	0.0161876
843.831	0.0161434
843.909	0.0162433
843.987	0.0161576
844.065	0.0160762
844.143	0.0161428
844.221	0.0161969
844.299	0.0161892
844.378	0.0161591
844.456	0.0162225
844.534	0.0163219
844.612	0.0162524
844.690	0.0161066
844.768	0.0162265
844.846	0.0163000
844.924	0.0163072
845.003	0.0163162
845.081	0.0163822
845.159	0.0163196
845.237	0.0162424
845.315	0.0162975
845.393	0.0162875
845.471	0.0163977
845.549	0.0164554
845.628	0.0164011
845.706	0.0162626
845.784	0.0162435
845.862	0.0163257
845.940	0.0162369
846.018	0.0162058
846.096	0.0163337
846.174	0.0163426
846.253	0.0163531
846.331	0.0162206
846.409	0.0162360
846.487	0.0161480
846.565	0.0161812
846.643	0.0162304
846.721	0.0160965
846.799	0.0163072
846.878	0.0162941
846.956	0.0163201
847.034	0.0161204
847.112	0.0161909
847.190	0.0161696
847.268	0.0162385
847.346	0.0160936
847.424	0.0160450
847.503	0.0161810
847.581	0.0161590
847.659	0.0160809
847.737	0.0158419
847.815	0.0159943
847.893	0.0160895
847.971	0.0160389
848.049	0.0160625
848.128	0.0161095
848.206	0.0160128
848.284	0.0160532
848.362	0.0160023
848.440	0.0160156
848.518	0.0160925
848.596	0.0160443
848.674	0.0158955
848.753	0.0160678
848.831	0.0160242
848.909	0.0159485
848.987	0.0158892
849.065	0.0159178
849.143	0.0159235
849.221	0.0158561
849.299	0.0160086
849.378	0.0160477
849.456	0.0159624
849.534	0.0159074
849.612	0.0160235
849.690	0.0161960
849.768	0.0161128
849.846	0.0161492
849.924	0.0161587
850.003	0.0161982
850.081	0.0160586
850.159	0.0162260
850.237	0.0162972
850.315	0.0160973
850.393	0.0161758
850.471	0.0160545
850.549	0.0161424
850.628	0.0163189
850.706	0.0162411
850.784	0.0162128
850.862	0.0161730
850.940	0.0161829
851.018	0.0162380
851.096	0.0162466
851.174	0.0162267
851.253	0.0161984
851.331	0.0161667
851.409	0.0162241
851.487	0.0161630
851.565	0.0163069
851.643	0.0162846
851.721	0.0163126
851.799	0.0161046
851.878	0.0162478
851.956	0.0161366
852.034	0.0162740
852.112	0.0162696
852.190	0.0161046
852.268	0.0163242
852.346	0.0162392
852.424	0.0162101
852.503	0.0163080
852.581	0.0161905
852.659	0.0161098
852.737	0.0160718
852.815	0.0163350
852.893	0.0162475
852.971	0.0162277
853.049	0.0162173
853.128	0.0160806
853.206	0.0161360
853.284	0.0162634
853.362	0.0161723
853.440	0.0162377
853.518	0.0161894
853.596	0.0161635
853.674	0.0161835
853.753	0.0162588
853.831	0.0163268
853.909	0.0162724
853.987	0.0163670
854.065	0.0162411
854.143	0.0163258
854.221	0.0161617
854.299	0.0162498
854.378	0.0162904
854.456	0.0162336
854.534	0.0162462
854.612	0.0162657
854.690	0.0161472
854.768	0.0161429
854.846	0.0162315
854.924	0.0161476
855.003	0.0161653
855.081	0.0161295
855.159	0.0161201
855.237	0.0160687
855.315	0.0159632
855.393	0.0161089
855.471	0.0161073
855.549	0.0160094
855.628	0.0159301
855.706	0.0161601
855.784	0.0159938
855.862	0.0160339
855.940	0.0158569
856.018	0.0159569
856.096	0.0159221
856.174	0.0159154
856.253	0.0159756
856.331	0.0158940
856.409	0.0160130
856.487	0.0159103
856.565	0.0160592
856.643	0.0159136
856.721	0.0160093
856.799	0.0160901
856.878	0.0158999
856.956	0.0159499
857.034	0.0159553
857.112	0.0159756
857.190	0.0159726
857.268	0.0160031
857.346	0.0160426
857.424	0.0158681
857.503	0.0158844
857.581	0.0159032
857.659	0.0159177
857.737	0.0159284
857.815	0.0160300
857.893	0.0159705
857.971	0.0160976
858.049	0.0159208
858.128	0.0159194
858.206	0.0160052
858.284	0.0159633
858.362	0.0159341
858.440	0.0159918
858.518	0.0159474
858.596	0.0159704
858.674	0.0160923
858.753	0.0159484
858.831	0.0159028
858.909	0.0158424
858.987	0.0158039
859.065	0.0159875
859.143	0.0159915
859.221	0.0159405
859.299	0.0158743
859.378	0.0160384
859.456	0.0159915
859.534	0.0159932
859.612	0.0159879
859.690	0.0158698
859.768	0.0159284
859.846	0.0160648
859.924	0.0159253
860.003	0.0159960
860.081	0.0158472
860.159	0.0159606
860.237	0.0159501
860.315	0.0160382
860.393	0.0161307
860.471	0.0161230
860.549	0.0161368
860.628	0.0160449
860.706	0.0160899
860.784	0.0161121
860.862	0.0161877
860.940	0.0162868
861.018	0.0160934
861.096	0.0162103
861.174	0.0161992
861.253	0.0162590
861.331	0.0161564
861.409	0.0161189
861.487	0.0160781
861.565	0.0161211
861.643	0.0160381
861.721	0.0160369
861.799	0.0159901
861.878	0.0160343
861.956	0.0162706
862.034	0.0161906
862.112	0.0159782
862.190	0.0160223
862.268	0.0160147
862.346	0.0160061
862.424	0.0159237
862.503	0.0160503
862.581	0.0159588
862.659	0.0159473
862.737	0.0159382
862.815	0.0159203
862.893	0.0159721
862.971	0.0160706
863.049	0.0160944
863.128	0.0159680
863.206	0.0158656
863.284	0.0159628
863.362	0.0159424
863.440	0.0160152
863.518	0.0160365
863.596	0.0158761
863.674	0.0160504
863.753	0.0160071
863.831	0.0158269
863.909	0.0159782
863.987	0.0159103
864.065	0.0159626
864.143	0.0159322
864.221	0.0159478
864.299	0.0158734
864.378	0.0159337
864.456	0.0159435
864.534	0.0158761
864.612	0.0159142
864.690	0.0157957
864.768	0.0157876
864.846	0.0158944
864.924	0.0158826
865.003	0.0158650
865.081	0.0161076
865.159	0.0159430
865.237	0.0159428
865.315	0.0159206
865.393	0.0158064
865.471	0.0159295
865.549	0.0158999
865.628	0.0159228
865.706	0.0161340
865.784	0.0158505
865.862	0.0160367
865.940	0.0159851
866.018	0.0158611
866.096	0.0160702
866.174	0.0160856
866.253	0.0160360
866.331	0.0161248
866.409	0.0160806
866.487	0.0159073
866.565	0.0159819
866.643	0.0160274
866.721	0.0161976
866.799	0.0161916
866.878	0.0161555
866.956	0.0162146
867.034	0.0160750
867.112	0.0160530
867.190	0.0161890
867.268	0.0161221
867.346	0.0161160
867.424	0.0161056
867.503	0.0160889
867.581	0.0160522
867.659	0.0160458
867.737	0.0160454
867.815	0.0159026
867.893	0.0160051
867.971	0.0160382
868.049	0.0159985
868.128	0.0160770
868.206	0.0160065
868.284	0.0162193
868.362	0.0161370
868.440	0.0160345
868.518	0.0162502
868.596	0.0162028
868.674	0.0161263
868.753	0.0161401
868.831	0.0162231
868.909	0.0160468
868.987	0.0162029
869.065	0.0161261
869.143	0.0162710
869.221	0.0162705
869.299	0.0161669
869.378	0.0162297
869.456	0.0161327
869.534	0.0162048
869.612	0.0160760
869.690	0.0159803
869.768	0.0159368
869.846	0.0160783
869.924	0.0159928
870.003	0.0160446
870.081	0.0160143
870.159	0.0158816
870.237	0.0159713
870.315	0.0161710
870.393	0.0159830
870.471	0.0159798
870.549	0.0160465
870.628	0.0161509
870.706	0.0159711
870.784	0.0160715
870.862	0.0159818
870.940	0.0160238
871.018	0.0160789
871.096	0.0162099
871.174	0.0160835
871.253	0.0160922
871.331	0.0161420
871.409	0.0159706
871.487	0.0161713
871.565	0.0160461
871.643	0.0160511
871.721	0.0161182
871.799	0.0161246
871.878	0.0161224
871.956	0.0160104
872.034	0.0161535
872.112	0.0160528
872.190	0.0160551
872.268	0.0160637
872.346	0.0159932
872.424	0.0161880
872.503	0.0160732
872.581	0.0161264
872.659	0.0159333
872.737	0.0159866
872.815	0.0162978
872.893	0.0160326
872.971	0.0160490
873.049	0.0160968
873.128	0.0159959
873.206	0.0160864
873.284	0.0161504
873.362	0.0160603
873.440	0.0160434
873.518	0.0161531
873.596	0.0160956
873.674	0.0162062
873.753	0.0160869
873.831	0.0161587
873.909	0.0160781
873.987	0.0160688
874.065	0.0160373
874.143	0.0161158
874.221	0.0160983
874.299	0.0162646
874.378	0.0161610
874.456	0.0161343
874.534	0.0161386
874.612	0.0161760
874.690	0.0161516
874.768	0.0161581
874.846	0.0160050
874.924	0.0161356
875.003	0.0161079
875.081	0.0160960
875.159	0.0160413
875.237	0.0160857
875.315	0.0161552
875.393	0.0160329
875.471	0.0161992
875.549	0.0161942
875.628	0.0160965
875.706	0.0160853
875.784	0.0160725
875.862	0.0161003
875.940	0.0160414
876.018	0.0162333
876.096	0.0161462
876.174	0.0161468
876.253	0.0160568
876.331	0.0160035
876.409	0.0160725
876.487	0.0161531
876.565	0.0161320
876.643	0.0161485
876.721	0.0161229
876.799	0.0160853
876.878	0.0161412
876.956	0.0160938
877.034	0.0161293
877.112	0.0160721
877.190	0.0161380
877.268	0.0161498
877.346	0.0161031
877.424	0.0159158
877.503	0.0161138
877.581	0.0161363
877.659	0.0161221
877.737	0.0161543
877.815	0.0160950
877.893	0.0162048
877.971	0.0162286
878.049	0.0161865
878.128	0.0161676
878.206	0.0161225
878.284	0.0161816
878.362	0.0161489
878.440	0.0160793
878.518	0.0160397
878.596	0.0161253
878.674	0.0158753
878.753	0.0160536
878.831	0.0159890
878.909	0.0159763
878.987	0.0160429
879.065	0.0160848
879.143	0.0160155
879.221	0.0160370
879.299	0.0161054
879.378	0.0159441
879.456	0.0158423
879.534	0.0159550
879.612	0.0159437
879.690	0.0160918
879.768	0.0160140
879.846	0.0161265
879.924	0.0159460
880.003	0.0159688
880.081	0.0160487
880.159	0.0160715
880.237	0.0160271
880.315	0.0159649
880.393	0.0160356
880.471	0.0159248
880.549	0.0159963
880.628	0.0160073
880.706	0.0160284
880.784	0.0161359
880.862	0.0160567
880.940	0.0160950
881.018	0.0159005
881.096	0.0161602
881.174	0.0159869
881.253	0.0160073
881.331	0.0160828
881.409	0.0160827
881.487	0.0160673
881.565	0.0161532
881.643	0.0160501
881.721	0.0161008
881.799	0.0159693
881.878	0.0159851
881.956	0.0161685
882.034	0.0161839
882.112	0.0161760
882.190	0.0162333
882.268	0.0160920
882.346	0.0160389
882.424	0.0160999
882.503	0.0161135
882.581	0.0160652
882.659	0.0161769
882.737	0.0161283
882.815	0.0161256
882.893	0.0160829
882.971	0.0161059
883.049	0.0160249
883.128	0.0160638
883.206	0.0160927
883.284	0.0161693
883.362	0.0161687
883.440	0.0162424
883.518	0.0161279
883.596	0.0163017
883.674	0.0161732
883.753	0.0159753
883.831	0.0161551
883.909	0.0161756
883.987	0.0161438
884.065	0.0161790
884.143	0.0161093
884.221	0.0162094
884.299	0.0161650
884.378	0.0159960
884.456	0.0161449
884.534	0.0160552
884.612	0.0160618
884.690	0.0161648
884.768	0.0160558
884.846	0.0161534
884.924	0.0161061
885.003	0.0160757
885.081	0.0161536
885.159	0.0162754
885.237	0.0162205
885.315	0.0161758
885.393	0.0162218
885.471	0.0161606
885.549	0.0162144
885.628	0.0162359
885.706	0.0162629
885.784	0.0162165
885.862	0.0161373
885.940	0.0162756
886.018	0.0161681
886.096	0.0160786
886.174	0.0161739
886.253	0.0161848
886.331	0.0161719
886.409	0.0160395
886.487	0.0159708
886.565	0.0159857
886.643	0.0159367
886.721	0.0159454
886.799	0.0160468
886.878	0.0162014
886.956	0.0161138
887.034	0.0159878
887.112	0.0159653
887.190	0.0160356
887.268	0.0161092
887.346	0.0159486
887.424	0.0160535
887.503	0.0161283
887.581	0.0159451
887.659	0.0161150
887.737	0.0160358
887.815	0.0160282
887.893	0.0161742
887.971	0.0161182
888.049	0.0160046
888.128	0.0160278
888.206	0.0160326
888.284	0.0161829
888.362	0.0160416
888.440	0.0159778
888.518	0.0159442
888.596	0.0161148
888.674	0.0160069
888.753	0.0161790
888.831	0.0160445
888.909	0.0159381
888.987	0.0161060
889.065	0.0160576
889.143	0.0160589
889.221	0.0161118
889.299	0.0160101
889.378	0.0160162
889.456	0.0161662
889.534	0.0160851
889.612	0.0160503
889.690	0.0160601
889.768	0.0161719
889.846	0.0159556
889.924	0.0159934
890.003	0.0160497
890.081	0.0161554
890.159	0.0159785
890.237	0.0160408
890.315	0.0160715
890.393	0.0159989
890.471	0.0160136
890.549	0.0159259
890.628	0.0159501
890.706	0.0161135
890.784	0.0160190
890.862	0.0160759
890.940	0.0162099
891.018	0.0160100
891.096	0.0159963
891.174	0.0160538
891.253	0.0160592
891.331	0.0160762
891.409	0.0160927
891.487	0.0158882
891.565	0.0160159
891.643	0.0160535
891.721	0.0160351
891.799	0.0160917
891.878	0.0160062
891.956	0.0160643
892.034	0.0160313
892.112	0.0161427
892.190	0.0160629
892.268	0.0159275
892.346	0.0162117
892.424	0.0161283
892.503	0.0160354
892.581	0.0160793
892.659	0.0160765
892.737	0.0161177
892.815	0.0160597
892.893	0.0160374
892.971	0.0161742
893.049	0.0161494
893.128	0.0161829
893.206	0.0161777
893.284	0.0160004
893.362	0.0159785
893.440	0.0162049
893.518	0.0161893
893.596	0.0160443
893.674	0.0160735
893.753	0.0161152
893.831	0.0161773
893.909	0.0161351
893.987	0.0160853
894.065	0.0159951
894.143	0.0162232
894.221	0.0161202
894.299	0.0161073
894.378	0.0160453
894.456	0.0159509
894.534	0.0158259
894.612	0.0159172
894.690	0.0159412
894.768	0.0159199
894.846	0.0160146
894.924	0.0157860
895.003	0.0159321
895.081	0.0159377
895.159	0.0158842
895.237	0.0158414
895.315	0.0158288
895.393	0.0158454
895.471	0.0159451
895.549	0.0158834
895.628	0.0159035
895.706	0.0159801
895.784	0.0160160
895.862	0.0158831
895.940	0.0160102
896.018	0.0160835
896.096	0.0159885
896.174	0.0158929
896.253	0.0160615
896.331	0.0159534
896.409	0.0159703
896.487	0.0160899
896.565	0.0160609
896.643	0.0158633
896.721	0.0160291
896.799	0.0160908
896.878	0.0160404
896.956	0.0162101
897.034	0.0161092
897.112	0.0160269
897.190	0.0161148
897.268	0.0161755
897.346	0.0160985
897.424	0.0161389
897.503	0.0160244
897.581	0.0160959
897.659	0.0162105
897.737	0.0160452
897.815	0.0159439
897.893	0.0159000
897.971	0.0160629
898.049	0.0160365
898.128	0.0160439
898.206	0.0160280
898.284	0.0159982
898.362	0.0160663
898.440	0.0161619
898.518	0.0160017
898.596	0.0159602
898.674	0.0159834
898.753	0.0160666
898.831	0.0162074
898.909	0.0160846
898.987	0.0161197
899.065	0.0160832
899.143	0.0162339
899.221	0.0161816
899.299	0.0161655
899.378	0.0159175
899.456	0.0160011
899.534	0.0161675
899.612	0.0161781
899.690	0.0161863
899.768	0.0161634
899.846	0.0161414
899.924	0.0161777
900.003	0.0161746
900.081	0.0160147
900.159	0.0161105
900.237	0.0161854
900.315	0.0160043
900.393	0.0160487
900.471	0.0161383
900.549	0.0161150
900.628	0.0161120
900.706	0.0160151
900.784	0.0161756
900.862	0.0161997
900.940	0.0160599
901.018	0.0159908
901.096	0.0160609
901.174	0.0161465
901.253	0.0160547
901.331	0.0159430
901.409	0.0159245
901.487	0.0160764
901.565	0.0161408
901.643	0.0160898
901.721	0.0160218
901.799	0.0160328
901.878	0.0159919
901.956	0.0161176
902.034	0.0160372
902.112	0.0161124
902.190	0.0160569
902.268	0.0161200
902.346	0.0159429
902.424	0.0161444
902.503	0.0161162
902.581	0.0160229
902.659	0.0160584
902.737	0.0161306
902.815	0.0161415
902.893	0.0161876
902.971	0.0162208
903.049	0.0162154
903.128	0.0161154
903.206	0.0162498
903.284	0.0162350
903.362	0.0161160
903.440	0.0162290
903.518	0.0162779
903.596	0.0161574
903.674	0.0161122
903.753	0.0161775
903.831	0.0161902
903.909	0.0162189
903.987	0.0160805
904.065	0.0161050
904.143	0.0162135
904.221	0.0161721
904.299	0.0161255
904.378	0.0162142
904.456	0.0161253
904.534	0.0161052
904.612	0.0161721
904.690	0.0161036
904.768	0.0161720
904.846	0.0162839
904.924	0.0161509
905.003	0.0161229
905.081	0.0162221
905.159	0.0161461
905.237	0.0161528
905.315	0.0163298
905.393	0.0161589
905.471	0.0161005
905.549	0.0161246
905.628	0.0161975
905.706	0.0160941
905.784	0.0162416
905.862	0.0162209
905.940	0.0161500
906.018	0.0162394
906.096	0.0161163
906.174	0.0161457
906.253	0.0162252
906.331	0.0161623
906.409	0.0161137
906.487	0.0161230
906.565	0.0160757
906.643	0.0160858
906.721	0.0161383
906.799	0.0161977
906.878	0.0161421
906.956	0.0160362
907.034	0.0160077
907.112	0.0161850
907.190	0.0161395
907.268	0.0160516
907.346	0.0160703
907.424	0.0160162
907.503	0.0160722
907.581	0.0160170
907.659	0.0160986
907.737	0.0161101
907.815	0.0160838
907.893	0.0161234
907.971	0.0161425
908.049	0.0161514
908.128	0.0161475
908.206	0.0161179
908.284	0.0160862
908.362	0.0161442
908.440	0.0161616
908.518	0.0161887
908.596	0.0161037
908.674	0.0160950
908.753	0.0162366
908.831	0.0160258
908.909	0.0160447
908.987	0.0162333
909.065	0.0161581
909.143	0.0161382
909.221	0.0161814
909.299	0.0161610
909.378	0.0163391
909.456	0.0161298
909.534	0.0161339
909.612	0.0161860
909.690	0.0160695
909.768	0.0161578
909.846	0.0160764
909.924	0.0161305
910.003	0.0160931
910.081	0.0161385
910.159	0.0161087
910.237	0.0161736
910.315	0.0162627
910.393	0.0161720
910.471	0.0161652
910.549	0.0162176
910.628	0.0162677
910.706	0.0160869
910.784	0.0161676
910.862	0.0161459
910.940	0.0161146
911.018	0.0161829
911.096	0.0161549
911.174	0.0161175
911.253	0.0161726
911.331	0.0163234
911.409	0.0161674
911.487	0.0160859
911.565	0.0161121
911.643	0.0161201
911.721	0.0160606
911.799	0.0161273
911.878	0.0161415
911.956	0.0161617
912.034	0.0161711
912.112	0.0160403
912.190	0.0159887
912.268	0.0159756
912.346	0.0160918
912.424	0.0160243
912.503	0.0160619
912.581	0.0160258
912.659	0.0161273
912.737	0.0161526
912.815	0.0161316
912.893	0.0161271
912.971	0.0162720
913.049	0.0162791
913.128	0.0161213
913.206	0.0160889
913.284	0.0160706
913.362	0.0160123
913.440	0.0161535
913.518	0.0161305
913.596	0.0160545
913.674	0.0162178
913.753	0.0162421
913.831	0.0162482
913.909	0.0160628
913.987	0.0161225
914.065	0.0161703
914.143	0.0160703
914.221	0.0161648
914.299	0.0162321
914.378	0.0161488
914.456	0.0160183
914.534	0.0161114
914.612	0.0162324
914.690	0.0162508
914.768	0.0160820
914.846	0.0161200
914.924	0.0160799
915.003	0.0161755
915.081	0.0161424
915.159	0.0161237
915.237	0.0161712
915.315	0.0161101
915.393	0.0159702
915.471	0.0159473
915.549	0.0160145
915.628	0.0161097
915.706	0.0161239
915.784	0.0161296
915.862	0.0159374
915.940	0.0160233
916.018	0.0160725
916.096	0.0160269
916.174	0.0161079
916.253	0.0160320
916.331	0.0161818
916.409	0.0159690
916.487	0.0160254
916.565	0.0160538
916.643	0.0161633
916.721	0.0161098
916.799	0.0159972
916.878	0.0159740
916.956	0.0160178
917.034	0.0158857
917.112	0.0160176
917.190	0.0160462
917.268	0.0159695
917.346	0.0159977
917.424	0.0158704
917.503	0.0159216
917.581	0.0160344
917.659	0.0160382
917.737	0.0159651
917.815	0.0159963
917.893	0.0159689
917.971	0.0159036
918.049	0.0160691
918.128	0.0160426
918.206	0.0160938
918.284	0.0160912
918.362	0.0160747
918.440	0.0161449
918.518	0.0160333
918.596	0.0160915
918.674	0.0162986
918.753	0.0160478
918.831	0.0160495
918.909	0.0161626
918.987	0.0160582
919.065	0.0160213
919.143	0.0159883
919.221	0.0159586
919.299	0.0162215
919.378	0.0159957
919.456	0.0159008
919.534	0.0159950
919.612	0.0159348
919.690	0.0159982
919.768	0.0160108
919.846	0.0158855
919.924	0.0160988
920.003	0.0159778
920.081	0.0160488
920.159	0.0158008
920.237	0.0159158
920.315	0.0159527
920.393	0.0158629
920.471	0.0158054
920.549	0.0158737
920.628	0.0158807
920.706	0.0159231
920.784	0.0159831
920.862	0.0158990
920.940	0.0159518
921.018	0.0160577
921.096	0.0160266
921.174	0.0160324
921.253	0.0158840
921.331	0.0158464
921.409	0.0159911
921.487	0.0160545
921.565	0.0160240
921.643	0.0159768
921.721	0.0159065
921.799	0.0159426
921.878	0.0159373
921.956	0.0160664
922.034	0.0158968
922.112	0.0160388
922.190	0.0158510
922.268	0.0159698
922.346	0.0161043
922.424	0.0160242
922.503	0.0159839
922.581	0.0161007
922.659	0.0161082
922.737	0.0159940
922.815	0.0159904
922.893	0.0160269
922.971	0.0158610
923.049	0.0160470
923.128	0.0158945
923.206	0.0160386
923.284	0.0160657
923.362	0.0158893
923.440	0.0159848
923.518	0.0159214
923.596	0.0159718
923.674	0.0159693
923.753	0.0160442
923.831	0.0159931
923.909	0.0160014
923.987	0.0160913
924.065	0.0160094
924.143	0.0160403
924.221	0.0160538
924.299	0.0160278
924.378	0.0160215
924.456	0.0159644
924.534	0.0160616
924.612	0.0160332
924.690	0.0159978
924.768	0.0159785
924.846	0.0159483
924.924	0.0159719
925.003	0.0161284
925.081	0.0160320
925.159	0.0160603
925.237	0.0160158
925.315	0.0158387
925.393	0.0161790
925.471	0.0160493
925.549	0.0160669
925.628	0.0161695
925.706	0.0160677
925.784	0.0160926
925.862	0.0161346
925.940	0.0161457
926.018	0.0160494
926.096	0.0161736
926.174	0.0161320
926.253	0.0161400
926.331	0.0162071
926.409	0.0162948
926.487	0.0161037
926.565	0.0160809
926.643	0.0162099
926.721	0.0161479
926.799	0.0161031
926.878	0.0161486
926.956	0.0161904
927.034	0.0161612
927.112	0.0162301
927.190	0.0160374
927.268	0.0160283
927.346	0.0160189
927.424	0.0161514
927.503	0.0160796
927.581	0.0161786
927.659	0.0161407
927.737	0.0160922
927.815	0.0160970
927.893	0.0160673
927.971	0.0160574
928.049	0.0160793
928.128	0.0162309
928.206	0.0161595
928.284	0.0162046
928.362	0.0159779
928.440	0.0161363
928.518	0.0161156
928.596	0.0161406
928.674	0.0160025
928.753	0.0161327
928.831	0.0161270
928.909	0.0160397
928.987	0.0160156
929.065	0.0159641
929.143	0.0160852
929.221	0.0161166
929.299	0.0160786
929.378	0.0159883
929.456	0.0161633
929.534	0.0159403
929.612	0.0160487
929.690	0.0162676
929.768	0.0162493
929.846	0.0159668
929.924	0.0160925
930.003	0.0160291
930.081	0.0160783
930.159	0.0160646
930.237	0.0161018
930.315	0.0161665
930.393	0.0160844
930.471	0.0161565
930.549	0.0162658
930.628	0.0162757
930.706	0.0161235
930.784	0.0160537
930.862	0.0160664
930.940	0.0161739
931.018	0.0160962
931.096	0.0160644
931.174	0.0161449
931.253	0.0161150
931.331	0.0161382
931.409	0.0162064
931.487	0.0160246
931.565	0.0160452
931.643	0.0161295
931.721	0.0162603
931.799	0.0161839
931.878	0.0160663
931.956	0.0160210
932.034	0.0161385
932.112	0.0162119
932.190	0.0162010
932.268	0.0161396
932.346	0.0161845
932.424	0.0160998
932.503	0.0161215
932.581	0.0161895
932.659	0.0162661
932.737	0.0161775
932.815	0.0160970
932.893	0.0161488
932.971	0.0161221
933.049	0.0161697
933.128	0.0161188
933.206	0.0159994
933.284	0.0161816
933.362	0.0161403
933.440	0.0161580
933.518	0.0161932
933.596	0.0161871
933.674	0.0161157
933.753	0.0160701
933.831	0.0162664
933.909	0.0161333
933.987	0.0162267
934.065	0.0161053
934.143	0.0161584
934.221	0.0160711
934.299	0.0160036
934.378	0.0161277
934.456	0.0161749
934.534	0.0161138
934.612	0.0161874
934.690	0.0161604
934.768	0.0160876
934.846	0.0161577
934.924	0.0161427
935.003	0.0161383
935.081	0.0161864
935.159	0.0160915
935.237	0.0161314
935.315	0.0162156
935.393	0.0162038
935.471	0.0160574
935.549	0.0160641
935.628	0.0161496
935.706	0.0161515
935.784	0.0159531
935.862	0.0158544
935.940	0.0160403
936.018	0.0161267
936.096	0.0160747
936.174	0.0161581
936.253	0.0160825
936.331	0.0160013
936.409	0.0161243
936.487	0.0160602
936.565	0.0160104
936.643	0.0161695
936.721	0.0161335
936.799	0.0161568
936.878	0.0159685
936.956	0.0160381
937.034	0.0161398
937.112	0.0160926
937.190	0.0160097
937.268	0.0160181
937.346	0.0160857
937.424	0.0160720
937.503	0.0159564
937.581	0.0160449
937.659	0.0159991
937.737	0.0161454
937.815	0.0160255
937.893	0.0160487
937.971	0.0160410
938.049	0.0161669
938.128	0.0160938
938.206	0.0160676
938.284	0.0161432
938.362	0.0159502
938.440	0.0158862
938.518	0.0159606
938.596	0.0159360
938.674	0.0160270
938.753	0.0160226
938.831	0.0160328
938.909	0.0159640
938.987	0.0160338
939.065	0.0160155
939.143	0.0160612
939.221	0.0159167
939.299	0.0160307
939.378	0.0159511
939.456	0.0159332
939.534	0.0161069
939.612	0.0160998
939.690	0.0160233
939.768	0.0160340
939.846	0.0160755
939.924	0.0161311
940.003	0.0158864
940.081	0.0161563
940.159	0.0160294
940.237	0.0160950
940.315	0.0161416
940.393	0.0160957
940.471	0.0161481
940.549	0.0160794
940.628	0.0160464
940.706	0.0161735
940.784	0.0161186
940.862	0.0161060
940.940	0.0162208
941.018	0.0161697
941.096	0.0160268
941.174	0.0161469
941.253	0.0161304
941.331	0.0159662
941.409	0.0160455
941.487	0.0160723
941.565	0.0160764
941.643	0.0159892
941.721	0.0159715
941.799	0.0160307
941.878	0.0159873
941.956	0.0159233
942.034	0.0159908
942.112	0.0161295
942.190	0.0160104
942.268	0.0161061
942.346	0.0160867
942.424	0.0160827
942.503	0.0159485
942.581	0.0159762
942.659	0.0160259
942.737	0.0160411
942.815	0.0160785
942.893	0.0160402
942.971	0.0160100
943.049	0.0159104
943.128	0.0159957
943.206	0.0160081
943.284	0.0158093
943.362	0.0159041
943.440	0.0159444
943.518	0.0160286
943.596	0.0159021
943.674	0.0158556
943.753	0.0159212
943.831	0.0160081
943.909	0.0159174
943.987	0.0159264
944.065	0.0159948
944.143	0.0160277
944.221	0.0160025
944.299	0.0160491
944.378	0.0160616
944.456	0.0161469
944.534	0.0161133
944.612	0.0160712
944.690	0.0159954
944.768	0.0161228
944.846	0.0159172
944.924	0.0161539
945.003	0.0160569
945.081	0.0161290
945.159	0.0160719
945.237	0.0160487
945.315	0.0160615
945.393	0.0160162
945.471	0.0159918
945.549	0.0161315
945.628	0.0161032
945.706	0.0159724
945.784	0.0160278
945.862	0.0159954
945.940	0.0160400
946.018	0.0160746
946.096	0.0160514
946.174	0.0159964
946.253	0.0160570
946.331	0.0160075
946.409	0.0160943
946.487	0.0159946
946.565	0.0159469
946.643	0.0160365
946.721	0.0159367
946.799	0.0160825
946.878	0.0161064
946.956	0.0159280
947.034	0.0159727
947.112	0.0159401
947.190	0.0160268
947.268	0.0161097
947.346	0.0159725
947.424	0.0160268
947.503	0.0160251
947.581	0.0161285
947.659	0.0160331
947.737	0.0160057
947.815	0.0161243
947.893	0.0159893
947.971	0.0159792
948.049	0.0161134
948.128	0.0159914
948.206	0.0159673
948.284	0.0160611
948.362	0.0160319
948.440	0.0160896
948.518	0.0159792
948.596	0.0161224
948.674	0.0161276
948.753	0.0161604
948.831	0.0160508
948.909	0.0160181
948.987	0.0160339
949.065	0.0160282
949.143	0.0161736
949.221	0.0161561
949.299	0.0160223
949.378	0.0160860
949.456	0.0162104
949.534	0.0161751
949.612	0.0160659
949.690	0.0160957
949.768	0.0161507
949.846	0.0162105
949.924	0.0162232
