05/19/2022	00:52:33	Ver.	4.1	UNKNOWN
Optical Delay	630.002507	Delta X		0.078125	Sweeps	1	Scan Rate	0/0
Coordinates	Axis 1	NaN	Axis 2	NaN	Axis 3	NaN	Axis 4	NaN	Axis 5	NaN	Axis 6	0.000000
TX Power	0.000000	RX Power	0.000000

630.003	0.0160007
630.081	0.0160779
630.159	0.0160814
630.237	0.0160057
630.315	0.0159882
630.393	0.0159862
630.471	0.0159608
630.549	0.0158926
630.628	0.0159922
630.706	0.0160418
630.784	0.0160255
630.862	0.0160814
630.940	0.0159065
631.018	0.0159597
631.096	0.0160299
631.174	0.0159487
631.253	0.0160563
631.331	0.0161703
631.409	0.0161184
631.487	0.0160587
631.565	0.0162195
631.643	0.0161134
631.721	0.0161068
631.799	0.0160059
631.878	0.0160036
631.956	0.0162224
632.034	0.0161022
632.112	0.0161504
632.190	0.0160702
632.268	0.0160703
632.346	0.0159676
632.424	0.0160867
632.503	0.0159692
632.581	0.0160344
632.659	0.0159418
632.737	0.0159539
632.815	0.0159393
632.893	0.0159798
632.971	0.0158848
633.049	0.0161128
633.128	0.0162344
633.206	0.0160255
633.284	0.0160816
633.362	0.0159524
633.440	0.0158687
633.518	0.0161095
633.596	0.0159653
633.674	0.0161436
633.753	0.0161721
633.831	0.0159039
633.909	0.0159979
633.987	0.0160069
634.065	0.0158089
634.143	0.0159134
634.221	0.0160041
634.299	0.0159750
634.378	0.0158675
634.456	0.0158744
634.534	0.0157410
634.612	0.0158864
634.690	0.0159504
634.768	0.0159168
634.846	0.0159175
634.924	0.0160674
635.003	0.0160329
635.081	0.0158245
635.159	0.0158606
635.237	0.0159255
635.315	0.0159370
635.393	0.0159261
635.471	0.0160430
635.549	0.0158603
635.628	0.0158955
635.706	0.0160660
635.784	0.0159260
635.862	0.0159155
635.940	0.0160023
636.018	0.0159405
636.096	0.0160284
636.174	0.0160123
636.253	0.0161029
636.331	0.0160135
636.409	0.0160202
636.487	0.0160963
636.565	0.0159813
636.643	0.0161048
636.721	0.0160619
636.799	0.0160488
636.878	0.0160980
636.956	0.0159132
637.034	0.0158965
637.112	0.0159992
637.190	0.0159599
637.268	0.0160500
637.346	0.0159139
637.424	0.0158060
637.503	0.0160214
637.581	0.0158540
637.659	0.0159897
637.737	0.0159506
637.815	0.0159538
637.893	0.0159951
637.971	0.0158867
638.049	0.0160179
638.128	0.0160589
638.206	0.0160410
638.284	0.0160214
638.362	0.0159000
638.440	0.0159995
638.518	0.0161107
638.596	0.0160361
638.674	0.0159528
638.753	0.0161491
638.831	0.0159731
638.909	0.0159897
638.987	0.0159717
639.065	0.0159696
639.143	0.0161065
639.221	0.0159983
639.299	0.0159441
639.378	0.0159364
639.456	0.0158855
639.534	0.0159400
639.612	0.0159930
639.690	0.0159357
639.768	0.0160595
639.846	0.0159074
639.924	0.0159832
640.003	0.0159576
640.081	0.0160159
640.159	0.0159882
640.237	0.0159875
640.315	0.0159770
640.393	0.0159636
640.471	0.0159020
640.549	0.0160278
640.628	0.0159956
640.706	0.0160409
640.784	0.0159453
640.862	0.0156822
640.940	0.0158030
641.018	0.0160203
641.096	0.0160344
641.174	0.0158607
641.253	0.0159022
641.331	0.0159982
641.409	0.0158722
641.487	0.0159328
641.565	0.0158619
641.643	0.0159617
641.721	0.0158520
641.799	0.0159322
641.878	0.0159034
641.956	0.0158698
642.034	0.0158569
642.112	0.0158738
642.190	0.0159250
642.268	0.0158941
642.346	0.0158746
642.424	0.0158212
642.503	0.0160654
642.581	0.0159693
642.659	0.0159237
642.737	0.0159644
642.815	0.0158737
642.893	0.0157906
642.971	0.0159010
643.049	0.0159618
643.128	0.0160025
643.206	0.0159537
643.284	0.0158823
643.362	0.0158942
643.440	0.0158790
643.518	0.0160233
643.596	0.0159740
643.674	0.0158987
643.753	0.0157981
643.831	0.0158747
643.909	0.0159192
643.987	0.0159337
644.065	0.0159358
644.143	0.0160841
644.221	0.0159717
644.299	0.0159101
644.378	0.0160140
644.456	0.0159449
644.534	0.0160979
644.612	0.0160894
644.690	0.0159309
644.768	0.0159779
644.846	0.0161301
644.924	0.0159323
645.003	0.0159785
645.081	0.0160126
645.159	0.0160407
645.237	0.0161400
645.315	0.0159733
645.393	0.0160939
645.471	0.0159643
645.549	0.0160696
645.628	0.0159319
645.706	0.0160443
645.784	0.0159653
645.862	0.0158485
645.940	0.0159551
646.018	0.0160120
646.096	0.0159151
646.174	0.0159663
646.253	0.0160297
646.331	0.0159866
646.409	0.0158565
646.487	0.0158688
646.565	0.0159997
646.643	0.0161572
646.721	0.0160150
646.799	0.0161032
646.878	0.0160603
646.956	0.0159839
647.034	0.0160012
647.112	0.0159725
647.190	0.0159941
647.268	0.0159536
647.346	0.0158880
647.424	0.0160660
647.503	0.0158876
647.581	0.0159961
647.659	0.0159443
647.737	0.0159895
647.815	0.0157755
647.893	0.0158664
647.971	0.0159337
648.049	0.0161229
648.128	0.0159038
648.206	0.0160432
648.284	0.0159223
648.362	0.0160276
648.440	0.0161337
648.518	0.0161281
648.596	0.0160218
648.674	0.0160310
648.753	0.0160201
648.831	0.0160686
648.909	0.0161158
648.987	0.0160416
649.065	0.0159485
649.143	0.0160011
649.221	0.0159321
649.299	0.0158917
649.378	0.0158987
649.456	0.0158788
649.534	0.0157838
649.612	0.0159334
649.690	0.0159573
649.768	0.0158248
649.846	0.0159441
649.924	0.0159149
650.003	0.0159457
650.081	0.0159786
650.159	0.0160361
650.237	0.0159905
650.315	0.0159961
650.393	0.0159945
650.471	0.0159393
650.549	0.0158960
650.628	0.0160555
650.706	0.0160630
650.784	0.0160350
650.862	0.0161341
650.940	0.0160218
651.018	0.0159314
651.096	0.0159336
651.174	0.0159119
651.253	0.0160001
651.331	0.0159522
651.409	0.0159155
651.487	0.0160193
651.565	0.0158688
651.643	0.0159487
651.721	0.0159639
651.799	0.0158855
651.878	0.0159620
651.956	0.0159399
652.034	0.0158593
652.112	0.0158808
652.190	0.0159618
652.268	0.0160382
652.346	0.0159116
652.424	0.0159488
652.503	0.0158077
652.581	0.0159148
652.659	0.0160589
652.737	0.0160780
652.815	0.0159500
652.893	0.0160508
652.971	0.0160908
653.049	0.0161109
653.128	0.0160595
653.206	0.0161038
653.284	0.0160538
653.362	0.0161438
653.440	0.0162836
653.518	0.0161588
653.596	0.0160169
653.674	0.0161743
653.753	0.0161005
653.831	0.0159629
653.909	0.0160215
653.987	0.0159068
654.065	0.0158744
654.143	0.0158973
654.221	0.0159297
654.299	0.0158363
654.378	0.0158176
654.456	0.0157124
654.534	0.0158923
654.612	0.0161099
654.690	0.0158911
654.768	0.0159832
654.846	0.0157642
654.924	0.0157288
655.003	0.0159982
655.081	0.0158296
655.159	0.0159309
655.237	0.0159387
655.315	0.0158311
655.393	0.0157787
655.471	0.0158103
655.549	0.0159335
655.628	0.0160701
655.706	0.0157851
655.784	0.0157800
655.862	0.0158152
655.940	0.0158474
656.018	0.0159236
656.096	0.0158447
656.174	0.0158421
656.253	0.0156864
656.331	0.0157872
656.409	0.0158083
656.487	0.0158675
656.565	0.0157738
656.643	0.0158303
656.721	0.0160858
656.799	0.0160143
656.878	0.0159650
656.956	0.0159545
657.034	0.0161357
657.112	0.0160473
657.190	0.0159949
657.268	0.0159994
657.346	0.0160574
657.424	0.0160337
657.503	0.0159915
657.581	0.0159974
657.659	0.0159506
657.737	0.0158798
657.815	0.0159007
657.893	0.0157494
657.971	0.0159029
658.049	0.0158385
658.128	0.0160160
658.206	0.0158430
658.284	0.0158858
658.362	0.0158650
658.440	0.0159213
658.518	0.0157928
658.596	0.0159410
658.674	0.0160467
658.753	0.0159508
658.831	0.0159455
658.909	0.0161078
658.987	0.0159750
659.065	0.0160380
659.143	0.0160564
659.221	0.0160049
659.299	0.0160590
659.378	0.0162227
659.456	0.0160228
659.534	0.0159316
659.612	0.0162514
659.690	0.0160468
659.768	0.0159970
659.846	0.0159545
659.924	0.0159954
660.003	0.0160714
660.081	0.0159040
660.159	0.0159203
660.237	0.0160647
660.315	0.0158836
660.393	0.0159432
660.471	0.0158843
660.549	0.0159304
660.628	0.0158904
660.706	0.0159176
660.784	0.0159932
660.862	0.0157671
660.940	0.0158326
661.018	0.0157037
661.096	0.0157314
661.174	0.0158260
661.253	0.0158440
661.331	0.0158009
661.409	0.0159459
661.487	0.0157904
661.565	0.0158485
661.643	0.0159984
661.721	0.0158745
661.799	0.0158027
661.878	0.0160373
661.956	0.0159605
662.034	0.0159166
662.112	0.0158399
662.190	0.0160361
662.268	0.0160832
662.346	0.0160177
662.424	0.0159566
662.503	0.0159820
662.581	0.0161621
662.659	0.0159480
662.737	0.0160557
662.815	0.0159586
662.893	0.0159177
662.971	0.0158961
663.049	0.0160198
663.128	0.0157865
663.206	0.0157838
663.284	0.0158636
663.362	0.0159373
663.440	0.0159316
663.518	0.0158637
663.596	0.0160156
663.674	0.0160288
663.753	0.0158946
663.831	0.0159800
663.909	0.0159705
663.987	0.0159259
664.065	0.0158458
664.143	0.0160475
664.221	0.0160538
664.299	0.0160162
664.378	0.0160694
664.456	0.0160020
664.534	0.0158370
664.612	0.0159566
664.690	0.0160193
664.768	0.0159958
664.846	0.0157273
664.924	0.0158325
665.003	0.0157625
665.081	0.0157146
665.159	0.0156229
665.237	0.0155058
665.315	0.0155743
665.393	0.0154633
665.471	0.0155270
665.549	0.0155197
665.628	0.0155312
665.706	0.0155724
665.784	0.0157194
665.862	0.0155790
665.940	0.0157553
666.018	0.0157932
666.096	0.0157966
666.174	0.0159632
666.253	0.0160238
666.331	0.0159608
666.409	0.0162511
666.487	0.0161846
666.565	0.0161107
666.643	0.0161664
666.721	0.0162327
666.799	0.0161924
666.878	0.0162695
666.956	0.0162439
667.034	0.0163750
667.112	0.0162440
667.190	0.0161469
667.268	0.0163566
667.346	0.0162061
667.424	0.0161454
667.503	0.0163211
667.581	0.0163454
667.659	0.0162364
667.737	0.0161405
667.815	0.0161765
667.893	0.0161168
667.971	0.0160116
668.049	0.0159095
668.128	0.0159571
668.206	0.0160077
668.284	0.0159205
668.362	0.0159399
668.440	0.0157788
668.518	0.0156489
668.596	0.0157042
668.674	0.0155261
668.753	0.0156567
668.831	0.0157005
668.909	0.0156255
668.987	0.0155056
669.065	0.0156750
669.143	0.0155464
669.221	0.0156239
669.299	0.0158099
669.378	0.0156030
669.456	0.0156604
669.534	0.0158759
669.612	0.0159121
669.690	0.0158086
669.768	0.0159328
669.846	0.0160162
669.924	0.0159833
670.003	0.0160596
670.081	0.0161307
670.159	0.0161091
670.237	0.0161473
670.315	0.0161694
670.393	0.0161259
670.471	0.0161826
670.549	0.0162486
670.628	0.0161159
670.706	0.0162659
670.784	0.0163084
670.862	0.0163243
670.940	0.0161548
671.018	0.0161102
671.096	0.0160959
671.174	0.0162075
671.253	0.0160683
671.331	0.0159720
671.409	0.0160742
671.487	0.0159021
671.565	0.0157961
671.643	0.0161204
671.721	0.0159713
671.799	0.0159058
671.878	0.0160539
671.956	0.0159386
672.034	0.0159476
672.112	0.0159248
672.190	0.0160978
672.268	0.0159361
672.346	0.0159373
672.424	0.0160991
672.503	0.0159380
672.581	0.0158921
672.659	0.0159064
672.737	0.0160284
672.815	0.0159739
672.893	0.0159961
672.971	0.0159626
673.049	0.0158556
673.128	0.0159228
673.206	0.0157448
673.284	0.0157852
673.362	0.0158585
673.440	0.0159787
673.518	0.0158799
673.596	0.0159718
673.674	0.0158664
673.753	0.0158755
673.831	0.0159088
673.909	0.0160084
673.987	0.0163013
674.065	0.0160374
674.143	0.0160634
674.221	0.0160613
674.299	0.0161995
674.378	0.0160430
674.456	0.0160301
674.534	0.0159361
674.612	0.0160479
674.690	0.0159956
674.768	0.0158801
674.846	0.0158669
674.924	0.0159946
675.003	0.0161204
675.081	0.0160222
675.159	0.0160813
675.237	0.0159273
675.315	0.0160388
675.393	0.0162207
675.471	0.0161597
675.549	0.0160311
675.628	0.0161348
675.706	0.0161899
675.784	0.0161304
675.862	0.0161662
675.940	0.0159432
676.018	0.0159639
676.096	0.0160576
676.174	0.0161147
676.253	0.0160477
676.331	0.0159531
676.409	0.0159597
676.487	0.0158268
676.565	0.0160252
676.643	0.0158578
676.721	0.0158631
676.799	0.0158456
676.878	0.0158392
676.956	0.0159019
677.034	0.0159046
677.112	0.0158700
677.190	0.0157437
677.268	0.0158804
677.346	0.0158551
677.424	0.0158244
677.503	0.0159232
677.581	0.0159246
677.659	0.0160205
677.737	0.0160561
677.815	0.0160389
677.893	0.0160009
677.971	0.0160660
678.049	0.0161093
678.128	0.0160085
678.206	0.0161645
678.284	0.0161127
678.362	0.0159975
678.440	0.0159618
678.518	0.0160538
678.596	0.0161615
678.674	0.0160458
678.753	0.0160170
678.831	0.0160009
678.909	0.0160839
678.987	0.0160493
679.065	0.0159914
679.143	0.0159029
679.221	0.0159365
679.299	0.0158514
679.378	0.0159752
679.456	0.0159024
679.534	0.0157316
679.612	0.0159566
679.690	0.0159856
679.768	0.0159077
679.846	0.0158070
679.924	0.0156291
680.003	0.0157507
680.081	0.0156978
680.159	0.0158929
680.237	0.0157680
680.315	0.0157506
680.393	0.0159435
680.471	0.0158067
680.549	0.0157888
680.628	0.0158115
680.706	0.0157150
680.784	0.0157951
680.862	0.0160051
680.940	0.0159251
681.018	0.0159076
681.096	0.0159774
681.174	0.0159341
681.253	0.0160436
681.331	0.0159540
681.409	0.0159679
681.487	0.0159499
681.565	0.0160627
681.643	0.0159724
681.721	0.0159414
681.799	0.0159851
681.878	0.0159291
681.956	0.0159525
682.034	0.0159571
682.112	0.0159446
682.190	0.0159435
682.268	0.0159101
682.346	0.0158829
682.424	0.0159027
682.503	0.0158358
682.581	0.0157994
682.659	0.0157980
682.737	0.0157549
682.815	0.0157275
682.893	0.0157529
682.971	0.0157479
683.049	0.0158981
683.128	0.0157159
683.206	0.0158165
683.284	0.0158081
683.362	0.0159122
683.440	0.0159620
683.518	0.0159323
683.596	0.0160005
683.674	0.0160378
683.753	0.0160724
683.831	0.0160355
683.909	0.0160142
683.987	0.0160652
684.065	0.0160206
684.143	0.0160570
684.221	0.0160558
684.299	0.0161724
684.378	0.0160831
684.456	0.0161464
684.534	0.0159852
684.612	0.0161520
684.690	0.0160876
684.768	0.0159652
684.846	0.0159672
684.924	0.0159579
685.003	0.0159300
685.081	0.0157100
685.159	0.0158691
685.237	0.0156821
685.315	0.0156841
685.393	0.0155762
685.471	0.0156026
685.549	0.0157310
685.628	0.0156001
685.706	0.0155965
685.784	0.0157941
685.862	0.0157064
685.940	0.0156829
686.018	0.0158288
686.096	0.0158741
686.174	0.0160034
686.253	0.0158380
686.331	0.0159239
686.409	0.0160065
686.487	0.0159695
686.565	0.0160183
686.643	0.0160578
686.721	0.0160093
686.799	0.0159523
686.878	0.0159386
686.956	0.0159415
687.034	0.0158694
687.112	0.0159460
687.190	0.0158797
687.268	0.0159904
687.346	0.0159544
687.424	0.0160124
687.503	0.0160402
687.581	0.0159038
687.659	0.0159291
687.737	0.0160129
687.815	0.0161077
687.893	0.0161094
687.971	0.0161190
688.049	0.0160186
688.128	0.0161668
688.206	0.0162035
688.284	0.0161013
688.362	0.0160968
688.440	0.0160636
688.518	0.0160622
688.596	0.0159857
688.674	0.0158310
688.753	0.0160329
688.831	0.0159255
688.909	0.0158949
688.987	0.0157632
689.065	0.0158033
689.143	0.0156950
689.221	0.0156155
689.299	0.0157810
689.378	0.0156691
689.456	0.0156565
689.534	0.0156091
689.612	0.0156995
689.690	0.0157422
689.768	0.0157574
689.846	0.0157831
689.924	0.0158855
690.003	0.0159458
690.081	0.0160283
690.159	0.0161124
690.237	0.0161011
690.315	0.0161739
690.393	0.0162667
690.471	0.0160934
690.549	0.0163257
690.628	0.0162549
690.706	0.0162084
690.784	0.0160705
690.862	0.0162991
690.940	0.0163524
691.018	0.0161683
691.096	0.0162700
691.174	0.0161841
691.253	0.0162299
691.331	0.0162598
691.409	0.0161976
691.487	0.0161914
691.565	0.0162940
691.643	0.0162203
691.721	0.0160316
691.799	0.0160692
691.878	0.0161013
691.956	0.0159562
692.034	0.0159486
692.112	0.0159093
692.190	0.0159862
692.268	0.0159369
692.346	0.0157738
692.424	0.0156934
692.503	0.0157210
692.581	0.0157677
692.659	0.0155534
692.737	0.0156116
692.815	0.0157169
692.893	0.0155996
692.971	0.0154772
693.049	0.0156125
693.128	0.0155782
693.206	0.0156224
693.284	0.0156745
693.362	0.0157809
693.440	0.0155865
693.518	0.0157408
693.596	0.0157969
693.674	0.0157115
693.753	0.0157038
693.831	0.0159135
693.909	0.0159805
693.987	0.0159342
694.065	0.0160845
694.143	0.0160762
694.221	0.0160461
694.299	0.0161010
694.378	0.0160818
694.456	0.0162722
694.534	0.0161993
694.612	0.0161195
694.690	0.0162298
694.768	0.0160437
694.846	0.0160934
694.924	0.0161085
695.003	0.0159863
695.081	0.0158694
695.159	0.0158588
695.237	0.0159924
695.315	0.0160358
695.393	0.0159339
695.471	0.0157938
695.549	0.0158538
695.628	0.0158694
695.706	0.0158629
695.784	0.0158559
695.862	0.0156799
695.940	0.0159267
696.018	0.0159322
696.096	0.0159421
696.174	0.0160205
696.253	0.0161033
696.331	0.0159986
696.409	0.0160229
696.487	0.0159180
696.565	0.0160696
696.643	0.0160961
696.721	0.0161012
696.799	0.0159634
696.878	0.0161023
696.956	0.0158996
697.034	0.0158450
697.112	0.0158205
697.190	0.0158030
697.268	0.0158173
697.346	0.0157050
697.424	0.0156573
697.503	0.0156785
697.581	0.0157690
697.659	0.0156435
697.737	0.0156874
697.815	0.0155986
697.893	0.0158118
697.971	0.0157784
698.049	0.0158730
698.128	0.0159253
698.206	0.0159191
698.284	0.0158966
698.362	0.0159074
698.440	0.0159742
698.518	0.0159364
698.596	0.0158893
698.674	0.0159487
698.753	0.0158166
698.831	0.0158614
698.909	0.0158677
698.987	0.0159435
699.065	0.0159431
699.143	0.0158355
699.221	0.0157728
699.299	0.0157864
699.378	0.0158270
699.456	0.0158229
699.534	0.0157964
699.612	0.0159016
699.690	0.0157591
699.768	0.0158205
699.846	0.0159295
699.924	0.0160615
700.003	0.0159695
700.081	0.0160201
700.159	0.0159774
700.237	0.0160408
700.315	0.0161057
700.393	0.0160692
700.471	0.0160756
700.549	0.0161162
700.628	0.0160540
700.706	0.0160814
700.784	0.0161004
700.862	0.0162827
700.940	0.0161068
701.018	0.0161945
701.096	0.0161949
701.174	0.0159889
701.253	0.0160863
701.331	0.0161319
701.409	0.0160860
701.487	0.0160205
701.565	0.0160835
701.643	0.0161395
701.721	0.0159275
701.799	0.0160171
701.878	0.0158309
701.956	0.0159928
702.034	0.0159281
702.112	0.0160140
702.190	0.0159528
702.268	0.0159383
702.346	0.0158894
702.424	0.0159194
702.503	0.0159882
702.581	0.0158978
702.659	0.0158337
702.737	0.0159233
702.815	0.0159344
702.893	0.0157664
702.971	0.0159399
703.049	0.0158150
703.128	0.0157758
703.206	0.0158798
703.284	0.0158894
703.362	0.0158414
703.440	0.0158598
703.518	0.0158319
703.596	0.0159344
703.674	0.0160474
703.753	0.0158750
703.831	0.0159006
703.909	0.0159070
703.987	0.0159480
704.065	0.0159145
704.143	0.0159921
704.221	0.0160339
704.299	0.0158537
704.378	0.0158626
704.456	0.0160165
704.534	0.0159498
704.612	0.0160022
704.690	0.0160568
704.768	0.0159926
704.846	0.0160278
704.924	0.0159187
705.003	0.0160326
705.081	0.0161580
705.159	0.0161153
705.237	0.0162768
705.315	0.0162676
705.393	0.0163268
705.471	0.0162894
705.549	0.0162850
705.628	0.0162714
705.706	0.0164227
705.784	0.0163464
705.862	0.0162525
705.940	0.0162706
706.018	0.0162637
706.096	0.0163366
706.174	0.0162543
706.253	0.0160500
706.331	0.0160455
706.409	0.0159386
706.487	0.0159554
706.565	0.0157824
706.643	0.0156487
706.721	0.0157983
706.799	0.0157641
706.878	0.0158653
706.956	0.0158594
707.034	0.0156775
707.112	0.0158282
707.190	0.0158010
707.268	0.0159014
707.346	0.0159957
707.424	0.0157481
707.503	0.0158894
707.581	0.0160449
707.659	0.0159480
707.737	0.0160307
707.815	0.0159600
707.893	0.0161455
707.971	0.0162327
708.049	0.0161524
708.128	0.0161919
708.206	0.0162909
708.284	0.0162458
708.362	0.0161816
708.440	0.0161201
708.518	0.0162215
708.596	0.0162247
708.674	0.0162346
708.753	0.0161794
708.831	0.0162563
708.909	0.0160302
708.987	0.0160252
709.065	0.0160340
709.143	0.0160844
709.221	0.0160333
709.299	0.0160098
709.378	0.0158788
709.456	0.0161473
709.534	0.0159776
709.612	0.0159530
709.690	0.0160629
709.768	0.0158952
709.846	0.0158981
709.924	0.0161030
710.003	0.0160191
710.081	0.0161373
710.159	0.0160365
710.237	0.0159307
710.315	0.0159236
710.393	0.0160738
710.471	0.0160397
710.549	0.0158723
710.628	0.0158824
710.706	0.0158096
710.784	0.0158418
710.862	0.0157965
710.940	0.0157040
711.018	0.0157205
711.096	0.0157523
711.174	0.0157681
711.253	0.0157439
711.331	0.0158115
711.409	0.0157471
711.487	0.0159236
711.565	0.0159399
711.643	0.0159286
711.721	0.0158595
711.799	0.0160817
711.878	0.0160040
711.956	0.0160545
712.034	0.0160647
712.112	0.0160973
712.190	0.0160931
712.268	0.0159934
712.346	0.0160732
712.424	0.0159655
712.503	0.0160290
712.581	0.0158681
712.659	0.0161172
712.737	0.0159703
712.815	0.0159739
712.893	0.0160194
712.971	0.0159899
713.049	0.0159739
713.128	0.0159647
713.206	0.0159630
713.284	0.0160397
713.362	0.0160431
713.440	0.0160416
713.518	0.0160159
713.596	0.0161153
713.674	0.0160557
713.753	0.0161246
713.831	0.0159895
713.909	0.0159106
713.987	0.0159817
714.065	0.0159977
714.143	0.0160535
714.221	0.0160461
714.299	0.0159580
714.378	0.0161115
714.456	0.0160316
714.534	0.0158747
714.612	0.0159804
714.690	0.0161239
714.768	0.0161445
714.846	0.0161058
714.924	0.0159955
715.003	0.0161729
715.081	0.0162636
715.159	0.0163535
715.237	0.0163935
715.315	0.0163145
715.393	0.0160938
715.471	0.0161590
715.549	0.0161152
715.628	0.0160399
715.706	0.0159558
715.784	0.0158807
715.862	0.0157810
715.940	0.0158111
716.018	0.0159750
716.096	0.0157980
716.174	0.0159005
716.253	0.0158078
716.331	0.0156970
716.409	0.0158094
716.487	0.0158791
716.565	0.0158034
716.643	0.0159879
716.721	0.0158878
716.799	0.0159329
716.878	0.0158737
716.956	0.0158000
717.034	0.0158424
717.112	0.0160649
717.190	0.0159103
717.268	0.0158389
717.346	0.0159000
717.424	0.0159169
717.503	0.0159110
717.581	0.0158147
717.659	0.0158766
717.737	0.0159038
717.815	0.0157829
717.893	0.0158009
717.971	0.0157698
718.049	0.0157899
718.128	0.0156673
718.206	0.0158193
718.284	0.0157848
718.362	0.0156533
718.440	0.0157300
718.518	0.0158363
718.596	0.0159753
718.674	0.0159903
718.753	0.0158702
718.831	0.0158414
718.909	0.0159346
718.987	0.0159393
719.065	0.0159162
719.143	0.0160112
719.221	0.0158591
719.299	0.0159402
719.378	0.0158070
719.456	0.0159550
719.534	0.0158914
719.612	0.0160093
719.690	0.0159819
719.768	0.0161129
719.846	0.0160153
719.924	0.0159594
720.003	0.0161418
720.081	0.0162580
720.159	0.0160593
720.237	0.0160793
720.315	0.0161345
720.393	0.0161475
720.471	0.0159669
720.549	0.0160147
720.628	0.0160909
720.706	0.0159020
720.784	0.0160057
720.862	0.0159959
720.940	0.0158582
721.018	0.0158529
721.096	0.0159136
721.174	0.0156773
721.253	0.0159566
721.331	0.0159725
721.409	0.0158489
721.487	0.0158821
721.565	0.0158328
721.643	0.0158575
721.721	0.0159259
721.799	0.0158707
721.878	0.0157767
721.956	0.0159528
722.034	0.0159489
722.112	0.0158088
722.190	0.0157822
722.268	0.0156934
722.346	0.0158367
722.424	0.0157324
722.503	0.0159084
722.581	0.0157951
722.659	0.0157894
722.737	0.0159024
722.815	0.0157326
722.893	0.0157387
722.971	0.0157166
723.049	0.0158511
723.128	0.0159753
723.206	0.0159937
723.284	0.0160186
723.362	0.0159778
723.440	0.0159940
723.518	0.0159508
723.596	0.0159287
723.674	0.0161705
723.753	0.0162252
723.831	0.0160432
723.909	0.0159595
723.987	0.0160205
724.065	0.0159092
724.143	0.0159902
724.221	0.0160007
724.299	0.0158479
724.378	0.0159922
724.456	0.0160624
724.534	0.0159415
724.612	0.0158948
724.690	0.0161417
724.768	0.0160458
724.846	0.0160338
724.924	0.0159826
725.003	0.0160923
725.081	0.0160400
725.159	0.0160185
725.237	0.0159494
725.315	0.0159481
725.393	0.0158916
725.471	0.0159915
725.549	0.0159987
725.628	0.0159657
725.706	0.0158979
725.784	0.0159129
725.862	0.0158556
725.940	0.0159165
726.018	0.0158808
726.096	0.0158336
726.174	0.0159315
726.253	0.0159390
726.331	0.0159837
726.409	0.0159493
726.487	0.0159013
726.565	0.0161151
726.643	0.0158384
726.721	0.0159669
726.799	0.0161083
726.878	0.0159979
726.956	0.0160657
727.034	0.0159793
727.112	0.0160319
727.190	0.0160445
727.268	0.0157654
727.346	0.0158738
727.424	0.0159760
727.503	0.0159798
727.581	0.0158455
727.659	0.0158360
727.737	0.0157893
727.815	0.0160748
727.893	0.0158685
727.971	0.0158286
728.049	0.0158445
728.128	0.0159235
728.206	0.0157569
728.284	0.0159844
728.362	0.0159991
728.440	0.0158179
728.518	0.0158757
728.596	0.0157122
728.674	0.0157778
728.753	0.0159332
728.831	0.0159392
728.909	0.0158575
728.987	0.0160096
729.065	0.0160344
729.143	0.0158688
729.221	0.0158931
729.299	0.0158733
729.378	0.0159763
729.456	0.0158465
729.534	0.0158694
729.612	0.0160425
729.690	0.0159618
729.768	0.0159623
729.846	0.0160391
729.924	0.0158752
730.003	0.0159576
730.081	0.0158734
730.159	0.0159037
730.237	0.0157825
730.315	0.0159241
730.393	0.0159041
730.471	0.0160550
730.549	0.0158099
730.628	0.0159068
730.706	0.0159814
730.784	0.0159496
730.862	0.0159364
730.940	0.0159730
731.018	0.0160594
731.096	0.0158779
731.174	0.0159552
731.253	0.0159211
731.331	0.0158538
731.409	0.0160705
731.487	0.0159386
731.565	0.0159197
731.643	0.0158451
731.721	0.0160112
731.799	0.0160384
731.878	0.0158471
731.956	0.0159599
732.034	0.0159377
732.112	0.0159413
732.190	0.0161182
732.268	0.0159542
732.346	0.0160412
732.424	0.0160906
732.503	0.0159548
732.581	0.0160670
732.659	0.0160268
732.737	0.0161223
732.815	0.0161112
732.893	0.0160756
732.971	0.0160806
733.049	0.0160792
733.128	0.0159016
733.206	0.0160336
733.284	0.0159593
733.362	0.0160680
733.440	0.0160101
733.518	0.0160402
733.596	0.0159498
733.674	0.0160136
733.753	0.0159805
733.831	0.0159649
733.909	0.0157962
733.987	0.0157967
734.065	0.0159287
734.143	0.0160194
734.221	0.0157460
734.299	0.0158591
734.378	0.0158074
734.456	0.0157192
734.534	0.0159862
734.612	0.0158871
734.690	0.0159675
734.768	0.0159553
734.846	0.0158536
734.924	0.0159328
735.003	0.0158869
735.081	0.0158502
735.159	0.0158264
735.237	0.0158948
735.315	0.0158916
735.393	0.0158290
735.471	0.0157941
735.549	0.0160142
735.628	0.0159203
735.706	0.0159621
735.784	0.0159402
735.862	0.0159852
735.940	0.0159808
736.018	0.0159813
736.096	0.0158918
736.174	0.0159567
736.253	0.0160761
736.331	0.0160154
736.409	0.0160530
736.487	0.0160719
736.565	0.0161145
736.643	0.0160426
736.721	0.0160013
736.799	0.0159589
736.878	0.0159492
736.956	0.0161163
737.034	0.0160975
737.112	0.0159898
737.190	0.0160716
737.268	0.0160165
737.346	0.0159663
737.424	0.0158974
737.503	0.0159202
737.581	0.0159147
737.659	0.0157912
737.737	0.0159158
737.815	0.0159515
737.893	0.0159148
737.971	0.0160163
738.049	0.0159048
738.128	0.0159611
738.206	0.0159834
738.284	0.0158348
738.362	0.0159778
738.440	0.0160742
738.518	0.0159663
738.596	0.0159631
738.674	0.0158540
738.753	0.0158376
738.831	0.0160036
738.909	0.0159554
738.987	0.0159783
739.065	0.0159619
739.143	0.0159412
739.221	0.0158744
739.299	0.0158866
739.378	0.0158666
739.456	0.0157914
739.534	0.0159763
739.612	0.0158245
739.690	0.0157612
739.768	0.0159167
739.846	0.0158008
739.924	0.0157133
740.003	0.0157699
740.081	0.0158068
740.159	0.0157024
740.237	0.0157901
740.315	0.0158138
740.393	0.0158341
740.471	0.0158997
740.549	0.0158386
740.628	0.0158028
740.706	0.0158533
740.784	0.0158446
740.862	0.0159138
740.940	0.0159469
741.018	0.0159606
741.096	0.0159188
741.174	0.0159683
741.253	0.0159870
741.331	0.0159943
741.409	0.0160436
741.487	0.0159557
741.565	0.0159019
741.643	0.0160213
741.721	0.0159319
741.799	0.0157903
741.878	0.0160148
741.956	0.0159115
742.034	0.0159304
742.112	0.0159686
742.190	0.0160195
742.268	0.0160991
742.346	0.0158784
742.424	0.0159793
742.503	0.0160213
742.581	0.0160544
742.659	0.0160636
742.737	0.0159186
742.815	0.0159658
742.893	0.0159501
742.971	0.0159184
743.049	0.0158207
743.128	0.0158586
743.206	0.0160014
743.284	0.0158172
743.362	0.0159200
743.440	0.0158114
743.518	0.0159726
743.596	0.0158900
743.674	0.0158145
743.753	0.0159647
743.831	0.0159326
743.909	0.0158657
743.987	0.0158296
744.065	0.0158559
744.143	0.0159724
744.221	0.0158315
744.299	0.0159519
744.378	0.0160014
744.456	0.0159876
744.534	0.0158903
744.612	0.0159049
744.690	0.0159549
744.768	0.0160120
744.846	0.0158945
744.924	0.0159617
745.003	0.0159838
745.081	0.0159521
745.159	0.0160281
745.237	0.0159534
745.315	0.0157924
745.393	0.0158597
745.471	0.0161106
745.549	0.0159801
745.628	0.0159135
745.706	0.0158501
745.784	0.0160091
745.862	0.0160158
745.940	0.0158858
746.018	0.0160386
746.096	0.0160381
746.174	0.0159710
746.253	0.0160574
746.331	0.0160043
746.409	0.0159026
746.487	0.0159990
746.565	0.0159717
746.643	0.0160042
746.721	0.0160749
746.799	0.0160846
746.878	0.0160620
746.956	0.0160844
747.034	0.0160043
747.112	0.0160339
747.190	0.0161035
747.268	0.0162022
747.346	0.0161210
747.424	0.0160950
747.503	0.0161568
747.581	0.0160407
747.659	0.0160376
747.737	0.0158707
747.815	0.0159820
747.893	0.0158765
747.971	0.0157968
748.049	0.0159572
748.128	0.0158589
748.206	0.0158307
748.284	0.0158627
748.362	0.0158105
748.440	0.0157628
748.518	0.0157806
748.596	0.0159212
748.674	0.0159430
748.753	0.0158715
748.831	0.0159692
748.909	0.0160287
748.987	0.0160126
749.065	0.0158975
749.143	0.0158656
749.221	0.0159380
749.299	0.0160434
749.378	0.0159743
749.456	0.0160756
749.534	0.0158305
749.612	0.0158105
749.690	0.0158092
749.768	0.0157415
749.846	0.0158221
749.924	0.0157599
750.003	0.0158700
750.081	0.0158504
750.159	0.0157504
750.237	0.0159104
750.315	0.0158963
750.393	0.0158202
750.471	0.0158125
750.549	0.0158977
750.628	0.0157917
750.706	0.0158612
750.784	0.0159126
750.862	0.0159200
750.940	0.0159956
751.018	0.0159952
751.096	0.0159763
751.174	0.0160455
751.253	0.0160108
751.331	0.0159789
751.409	0.0161354
751.487	0.0159322
751.565	0.0160640
751.643	0.0158582
751.721	0.0158746
751.799	0.0159208
751.878	0.0160508
751.956	0.0158691
752.034	0.0159933
752.112	0.0158315
752.190	0.0159044
752.268	0.0159254
752.346	0.0160299
752.424	0.0159676
752.503	0.0159437
752.581	0.0159597
752.659	0.0158913
752.737	0.0159214
752.815	0.0158077
752.893	0.0157796
752.971	0.0158852
753.049	0.0158965
753.128	0.0158745
753.206	0.0157988
753.284	0.0158224
753.362	0.0157354
753.440	0.0158987
753.518	0.0158592
753.596	0.0158814
753.674	0.0158827
753.753	0.0158575
753.831	0.0158611
753.909	0.0159439
753.987	0.0158685
754.065	0.0158891
754.143	0.0158815
754.221	0.0158532
754.299	0.0159342
754.378	0.0158098
754.456	0.0158742
754.534	0.0158704
754.612	0.0159496
754.690	0.0158583
754.768	0.0158824
754.846	0.0158627
754.924	0.0160258
755.003	0.0159663
755.081	0.0159126
755.159	0.0159182
755.237	0.0158894
755.315	0.0159599
755.393	0.0158979
755.471	0.0159016
755.549	0.0158021
755.628	0.0158596
755.706	0.0158863
755.784	0.0158774
755.862	0.0159902
755.940	0.0158178
756.018	0.0159101
756.096	0.0157807
756.174	0.0159614
756.253	0.0158753
756.331	0.0158713
756.409	0.0159193
756.487	0.0159197
756.565	0.0159237
756.643	0.0160098
756.721	0.0160393
756.799	0.0159422
756.878	0.0159438
756.956	0.0158659
757.034	0.0157606
757.112	0.0160091
757.190	0.0159380
757.268	0.0159776
757.346	0.0159545
757.424	0.0158023
757.503	0.0158433
757.581	0.0157898
757.659	0.0158093
757.737	0.0157860
757.815	0.0158726
757.893	0.0159769
757.971	0.0156924
758.049	0.0157860
758.128	0.0159122
758.206	0.0157558
758.284	0.0158683
758.362	0.0158260
758.440	0.0157854
758.518	0.0157942
758.596	0.0159225
758.674	0.0158185
758.753	0.0156918
758.831	0.0158620
758.909	0.0159271
758.987	0.0159747
759.065	0.0158747
759.143	0.0158397
759.221	0.0158363
759.299	0.0158308
759.378	0.0160250
759.456	0.0158156
759.534	0.0159341
759.612	0.0159570
759.690	0.0159057
759.768	0.0158485
759.846	0.0159392
759.924	0.0158850
760.003	0.0158736
760.081	0.0160029
760.159	0.0158963
760.237	0.0157425
760.315	0.0158798
760.393	0.0159831
760.471	0.0158898
760.549	0.0158156
760.628	0.0158212
760.706	0.0157682
760.784	0.0157210
760.862	0.0159424
760.940	0.0156586
761.018	0.0157117
761.096	0.0158769
761.174	0.0158833
761.253	0.0158528
761.331	0.0158379
761.409	0.0159222
761.487	0.0159377
761.565	0.0159421
761.643	0.0160098
761.721	0.0160112
761.799	0.0158659
761.878	0.0161036
761.956	0.0160181
762.034	0.0160100
762.112	0.0159925
762.190	0.0158545
762.268	0.0160195
762.346	0.0159675
762.424	0.0160055
762.503	0.0159564
762.581	0.0159936
762.659	0.0160110
762.737	0.0159634
762.815	0.0158964
762.893	0.0160745
762.971	0.0159760
763.049	0.0159447
763.128	0.0160557
763.206	0.0160564
763.284	0.0159875
763.362	0.0160965
763.440	0.0158569
763.518	0.0160492
763.596	0.0161517
763.674	0.0160188
763.753	0.0160662
763.831	0.0159644
763.909	0.0161620
763.987	0.0160623
764.065	0.0161274
764.143	0.0162061
764.221	0.0160495
764.299	0.0160278
764.378	0.0160931
764.456	0.0159558
764.534	0.0159884
764.612	0.0159599
764.690	0.0159921
764.768	0.0159205
764.846	0.0159472
764.924	0.0159341
765.003	0.0159396
765.081	0.0160809
765.159	0.0158262
765.237	0.0159037
765.315	0.0160013
765.393	0.0160922
765.471	0.0159512
765.549	0.0158044
765.628	0.0159542
765.706	0.0159770
765.784	0.0161793
765.862	0.0159296
765.940	0.0159863
766.018	0.0160368
766.096	0.0159064
766.174	0.0160741
766.253	0.0160335
766.331	0.0160176
766.409	0.0160544
766.487	0.0159446
766.565	0.0160200
766.643	0.0159649
766.721	0.0159985
766.799	0.0159611
766.878	0.0159930
766.956	0.0160064
767.034	0.0159246
767.112	0.0158985
767.190	0.0160068
767.268	0.0160349
767.346	0.0159397
767.424	0.0158245
767.503	0.0159051
767.581	0.0159383
767.659	0.0158487
767.737	0.0159124
767.815	0.0158599
767.893	0.0158759
767.971	0.0158712
768.049	0.0158501
768.128	0.0159103
768.206	0.0158918
768.284	0.0158054
768.362	0.0160280
768.440	0.0158417
768.518	0.0159962
768.596	0.0159864
768.674	0.0159917
768.753	0.0159660
768.831	0.0158559
768.909	0.0159287
768.987	0.0159458
769.065	0.0158932
769.143	0.0158382
769.221	0.0158861
769.299	0.0159781
769.378	0.0159656
769.456	0.0159224
769.534	0.0158356
769.612	0.0161154
769.690	0.0160599
769.768	0.0159454
769.846	0.0160820
769.924	0.0160699
770.003	0.0160670
770.081	0.0161330
770.159	0.0160960
770.237	0.0160199
770.315	0.0162128
770.393	0.0159135
770.471	0.0161600
770.549	0.0161888
770.628	0.0160830
770.706	0.0161113
770.784	0.0161297
770.862	0.0161716
770.940	0.0161408
771.018	0.0160152
771.096	0.0161211
771.174	0.0160645
771.253	0.0160630
771.331	0.0162318
771.409	0.0160769
771.487	0.0162042
771.565	0.0160378
771.643	0.0160863
771.721	0.0160046
771.799	0.0160984
771.878	0.0161243
771.956	0.0160637
772.034	0.0159878
772.112	0.0160128
772.190	0.0160644
772.268	0.0159129
772.346	0.0160970
772.424	0.0160912
772.503	0.0157692
772.581	0.0158770
772.659	0.0160102
772.737	0.0158433
772.815	0.0158791
772.893	0.0159222
772.971	0.0159243
773.049	0.0157842
773.128	0.0158199
773.206	0.0158040
773.284	0.0159155
773.362	0.0157491
773.440	0.0156999
773.518	0.0158803
773.596	0.0158516
773.674	0.0158647
773.753	0.0159033
773.831	0.0157938
773.909	0.0158652
773.987	0.0158732
774.065	0.0157809
774.143	0.0157618
774.221	0.0156017
774.299	0.0156659
774.378	0.0155805
774.456	0.0157449
774.534	0.0155943
774.612	0.0156901
774.690	0.0158617
774.768	0.0156814
774.846	0.0155532
774.924	0.0157463
775.003	0.0156953
775.081	0.0156757
775.159	0.0155253
775.237	0.0156692
775.315	0.0156776
775.393	0.0156699
775.471	0.0156644
775.549	0.0157704
775.628	0.0156757
775.706	0.0158605
775.784	0.0158009
775.862	0.0157300
775.940	0.0156291
776.018	0.0157521
776.096	0.0157803
776.174	0.0157687
776.253	0.0157645
776.331	0.0158603
776.409	0.0158514
776.487	0.0158050
776.565	0.0158954
776.643	0.0158784
776.721	0.0158636
776.799	0.0160194
776.878	0.0160521
776.956	0.0159291
777.034	0.0159254
777.112	0.0160997
777.190	0.0160519
777.268	0.0160572
777.346	0.0160032
777.424	0.0161385
777.503	0.0160811
777.581	0.0159787
777.659	0.0161015
777.737	0.0160298
777.815	0.0159760
777.893	0.0161353
777.971	0.0162312
778.049	0.0161312
778.128	0.0161185
778.206	0.0162081
778.284	0.0160696
778.362	0.0160606
778.440	0.0161996
778.518	0.0162277
778.596	0.0161058
778.674	0.0161928
778.753	0.0162264
778.831	0.0161368
778.909	0.0159607
778.987	0.0159326
779.065	0.0160023
779.143	0.0160543
779.221	0.0160697
779.299	0.0160297
779.378	0.0159090
779.456	0.0160681
779.534	0.0160439
779.612	0.0161980
779.690	0.0158909
779.768	0.0159750
779.846	0.0159094
779.924	0.0160488
780.003	0.0160650
780.081	0.0159641
780.159	0.0160935
780.237	0.0159464
780.315	0.0159708
780.393	0.0158379
780.471	0.0158931
780.549	0.0158843
780.628	0.0158233
780.706	0.0159207
780.784	0.0158572
780.862	0.0159051
780.940	0.0157446
781.018	0.0158086
781.096	0.0157687
781.174	0.0156687
781.253	0.0157169
781.331	0.0156719
781.409	0.0157535
781.487	0.0156135
781.565	0.0155612
781.643	0.0157133
781.721	0.0156969
781.799	0.0157407
781.878	0.0158247
781.956	0.0157955
782.034	0.0157030
782.112	0.0157659
782.190	0.0156887
782.268	0.0157685
782.346	0.0158709
782.424	0.0156844
782.503	0.0155712
782.581	0.0157950
782.659	0.0157456
782.737	0.0158039
782.815	0.0158440
782.893	0.0158442
782.971	0.0158105
783.049	0.0158587
783.128	0.0159395
783.206	0.0159498
783.284	0.0160129
783.362	0.0158717
783.440	0.0158862
783.518	0.0157959
783.596	0.0158606
783.674	0.0160068
783.753	0.0160284
783.831	0.0158529
783.909	0.0160792
783.987	0.0158862
784.065	0.0159597
784.143	0.0159734
784.221	0.0159225
784.299	0.0159193
784.378	0.0159863
784.456	0.0160915
784.534	0.0161012
784.612	0.0160852
784.690	0.0160930
784.768	0.0160019
784.846	0.0160232
784.924	0.0161122
785.003	0.0159599
785.081	0.0159770
785.159	0.0159412
785.237	0.0159354
785.315	0.0160069
785.393	0.0158299
785.471	0.0159415
785.549	0.0159798
785.628	0.0159692
785.706	0.0160159
785.784	0.0159918
785.862	0.0159622
785.940	0.0159203
786.018	0.0160818
786.096	0.0160586
786.174	0.0161003
786.253	0.0160798
786.331	0.0160467
786.409	0.0160207
786.487	0.0160855
786.565	0.0160811
786.643	0.0160755
786.721	0.0161192
786.799	0.0161045
786.878	0.0161630
786.956	0.0160158
787.034	0.0160452
787.112	0.0159724
787.190	0.0160484
787.268	0.0161948
787.346	0.0161774
787.424	0.0159998
787.503	0.0160954
787.581	0.0160822
787.659	0.0161316
787.737	0.0160465
787.815	0.0161266
787.893	0.0160171
787.971	0.0160766
788.049	0.0161253
788.128	0.0160808
788.206	0.0160387
788.284	0.0160616
788.362	0.0160555
788.440	0.0160912
788.518	0.0160273
788.596	0.0159790
788.674	0.0158483
788.753	0.0158958
788.831	0.0159143
788.909	0.0159959
788.987	0.0159120
789.065	0.0159072
789.143	0.0158983
789.221	0.0157919
789.299	0.0158817
789.378	0.0159059
789.456	0.0158664
789.534	0.0159197
789.612	0.0158075
789.690	0.0157673
789.768	0.0158517
789.846	0.0158431
789.924	0.0157466
790.003	0.0158820
790.081	0.0158433
790.159	0.0159573
790.237	0.0158624
790.315	0.0158772
790.393	0.0158003
790.471	0.0158092
790.549	0.0159812
790.628	0.0158754
790.706	0.0158765
790.784	0.0160283
790.862	0.0160497
790.940	0.0159450
791.018	0.0159766
791.096	0.0159682
791.174	0.0159705
791.253	0.0160771
791.331	0.0159715
791.409	0.0160699
791.487	0.0161712
791.565	0.0160728
791.643	0.0160226
791.721	0.0161137
791.799	0.0161558
791.878	0.0161147
791.956	0.0160807
792.034	0.0161861
792.112	0.0160129
792.190	0.0159252
792.268	0.0160323
792.346	0.0160963
792.424	0.0160601
792.503	0.0159863
792.581	0.0159557
792.659	0.0159711
792.737	0.0158815
792.815	0.0159496
792.893	0.0160035
792.971	0.0160713
793.049	0.0160461
793.128	0.0158227
793.206	0.0160655
793.284	0.0160209
793.362	0.0160006
793.440	0.0158840
793.518	0.0158697
793.596	0.0159306
793.674	0.0159864
793.753	0.0159430
793.831	0.0160249
793.909	0.0159165
793.987	0.0158105
794.065	0.0159229
794.143	0.0158891
794.221	0.0159394
794.299	0.0159350
794.378	0.0158058
794.456	0.0158144
794.534	0.0160291
794.612	0.0160600
794.690	0.0159152
794.768	0.0159928
794.846	0.0159344
794.924	0.0158588
795.003	0.0158607
795.081	0.0159047
795.159	0.0158890
795.237	0.0157903
795.315	0.0158382
795.393	0.0158243
795.471	0.0157709
795.549	0.0157340
795.628	0.0157748
795.706	0.0159420
795.784	0.0158554
795.862	0.0157322
795.940	0.0158327
796.018	0.0158797
796.096	0.0158228
796.174	0.0158019
796.253	0.0157854
796.331	0.0157854
796.409	0.0158711
796.487	0.0157932
796.565	0.0158687
796.643	0.0159908
796.721	0.0158816
796.799	0.0158652
796.878	0.0158421
796.956	0.0158982
797.034	0.0158862
797.112	0.0159927
797.190	0.0160046
797.268	0.0158565
797.346	0.0157526
797.424	0.0159155
797.503	0.0160451
797.581	0.0159955
797.659	0.0158548
797.737	0.0158234
797.815	0.0159680
797.893	0.0158590
797.971	0.0158959
798.049	0.0159699
798.128	0.0160072
798.206	0.0159502
798.284	0.0160227
798.362	0.0158856
798.440	0.0158743
798.518	0.0160157
798.596	0.0160855
798.674	0.0160326
798.753	0.0160561
798.831	0.0159004
798.909	0.0159579
798.987	0.0160136
799.065	0.0159480
799.143	0.0159140
799.221	0.0159080
799.299	0.0158620
799.378	0.0159571
799.456	0.0158431
799.534	0.0159724
799.612	0.0159104
799.690	0.0158955
799.768	0.0157537
799.846	0.0159342
799.924	0.0158943
800.003	0.0157940
800.081	0.0158912
800.159	0.0158035
800.237	0.0158126
800.315	0.0157986
800.393	0.0158044
800.471	0.0157695
800.549	0.0157685
800.628	0.0157827
800.706	0.0158979
800.784	0.0158196
800.862	0.0157520
800.940	0.0158797
801.018	0.0158044
801.096	0.0157974
801.174	0.0158254
801.253	0.0159058
801.331	0.0158405
801.409	0.0157793
801.487	0.0158246
801.565	0.0158878
801.643	0.0158272
801.721	0.0158765
801.799	0.0159850
801.878	0.0159239
801.956	0.0158546
802.034	0.0158115
802.112	0.0159310
802.190	0.0158935
802.268	0.0160833
802.346	0.0158302
802.424	0.0159184
802.503	0.0160042
802.581	0.0160539
802.659	0.0158860
802.737	0.0158236
802.815	0.0159361
802.893	0.0159608
802.971	0.0160123
803.049	0.0161304
803.128	0.0159889
803.206	0.0160910
803.284	0.0160927
803.362	0.0160278
803.440	0.0159431
803.518	0.0160178
803.596	0.0159987
803.674	0.0161616
803.753	0.0159846
803.831	0.0160862
803.909	0.0159885
803.987	0.0159282
804.065	0.0160273
804.143	0.0160764
804.221	0.0160754
804.299	0.0159955
804.378	0.0157722
804.456	0.0160385
804.534	0.0161469
804.612	0.0159444
804.690	0.0160448
804.768	0.0160236
804.846	0.0160123
804.924	0.0159330
805.003	0.0159903
805.081	0.0160139
805.159	0.0161111
805.237	0.0160178
805.315	0.0159586
805.393	0.0159920
805.471	0.0159322
805.549	0.0159068
805.628	0.0161170
805.706	0.0159718
805.784	0.0160132
805.862	0.0161206
805.940	0.0161871
806.018	0.0159461
806.096	0.0159872
806.174	0.0160654
806.253	0.0159114
806.331	0.0159824
806.409	0.0161547
806.487	0.0160440
806.565	0.0159692
806.643	0.0158727
806.721	0.0159414
806.799	0.0161419
806.878	0.0160098
806.956	0.0160966
807.034	0.0160867
807.112	0.0159402
807.190	0.0159975
807.268	0.0158178
807.346	0.0156704
807.424	0.0159406
807.503	0.0158627
807.581	0.0159195
807.659	0.0157405
807.737	0.0159016
807.815	0.0157777
807.893	0.0159007
807.971	0.0157384
808.049	0.0159029
808.128	0.0157838
808.206	0.0160056
808.284	0.0157393
808.362	0.0158434
808.440	0.0158734
808.518	0.0157902
808.596	0.0158758
808.674	0.0158825
808.753	0.0158832
808.831	0.0158414
808.909	0.0159554
808.987	0.0158487
809.065	0.0158254
809.143	0.0158466
809.221	0.0159735
809.299	0.0159704
809.378	0.0160320
809.456	0.0160731
809.534	0.0161882
809.612	0.0161085
809.690	0.0160021
809.768	0.0159668
809.846	0.0160481
809.924	0.0160562
810.003	0.0159927
810.081	0.0159335
810.159	0.0160879
810.237	0.0161401
810.315	0.0161226
810.393	0.0160169
810.471	0.0159213
810.549	0.0160436
810.628	0.0161182
810.706	0.0160756
810.784	0.0159411
810.862	0.0161890
810.940	0.0160424
811.018	0.0161616
811.096	0.0161682
811.174	0.0160773
811.253	0.0161977
811.331	0.0159309
811.409	0.0160421
811.487	0.0161252
811.565	0.0160810
811.643	0.0161115
811.721	0.0160652
811.799	0.0160680
811.878	0.0159965
811.956	0.0160911
812.034	0.0159782
812.112	0.0160709
812.190	0.0160694
812.268	0.0160110
812.346	0.0159590
812.424	0.0160452
812.503	0.0160948
812.581	0.0161532
812.659	0.0160465
812.737	0.0160764
812.815	0.0159339
812.893	0.0159737
812.971	0.0159922
813.049	0.0159735
813.128	0.0162037
813.206	0.0160117
813.284	0.0159478
813.362	0.0160779
813.440	0.0160597
813.518	0.0161663
813.596	0.0159643
813.674	0.0160008
813.753	0.0159575
813.831	0.0160437
813.909	0.0159554
813.987	0.0158720
814.065	0.0160000
814.143	0.0160958
814.221	0.0159026
814.299	0.0160648
814.378	0.0158185
814.456	0.0158230
814.534	0.0158894
814.612	0.0159557
814.690	0.0160715
814.768	0.0160100
814.846	0.0159624
814.924	0.0159600
815.003	0.0158772
815.081	0.0160551
815.159	0.0159308
815.237	0.0159377
815.315	0.0159717
815.393	0.0158990
815.471	0.0158906
815.549	0.0159715
815.628	0.0159338
815.706	0.0159126
815.784	0.0158213
815.862	0.0157833
815.940	0.0158725
816.018	0.0156907
816.096	0.0158553
816.174	0.0157994
816.253	0.0157705
816.331	0.0158678
816.409	0.0159141
816.487	0.0157255
816.565	0.0157684
816.643	0.0157720
816.721	0.0159240
816.799	0.0157273
816.878	0.0157255
816.956	0.0157375
817.034	0.0158692
817.112	0.0158256
817.190	0.0158894
817.268	0.0159357
817.346	0.0158366
817.424	0.0158332
817.503	0.0160241
817.581	0.0158419
817.659	0.0159273
817.737	0.0160476
817.815	0.0159990
817.893	0.0156084
817.971	0.0158307
818.049	0.0158465
818.128	0.0158696
818.206	0.0158411
818.284	0.0158609
818.362	0.0158566
818.440	0.0157903
818.518	0.0158819
818.596	0.0159184
818.674	0.0157714
818.753	0.0158654
818.831	0.0160109
818.909	0.0158097
818.987	0.0158736
819.065	0.0160909
819.143	0.0161379
819.221	0.0160444
819.299	0.0160461
819.378	0.0159560
819.456	0.0160572
819.534	0.0159215
819.612	0.0160141
819.690	0.0159009
819.768	0.0159325
819.846	0.0160046
819.924	0.0160980
820.003	0.0160307
820.081	0.0160812
820.159	0.0159793
820.237	0.0159733
820.315	0.0159592
820.393	0.0159976
820.471	0.0160090
820.549	0.0160024
820.628	0.0159907
820.706	0.0161391
820.784	0.0160728
820.862	0.0160368
820.940	0.0161268
821.018	0.0159579
821.096	0.0158739
821.174	0.0159162
821.253	0.0159752
821.331	0.0158078
821.409	0.0159739
821.487	0.0158698
821.565	0.0158542
821.643	0.0159119
821.721	0.0159081
821.799	0.0160354
821.878	0.0159931
821.956	0.0159016
822.034	0.0159776
822.112	0.0158778
822.190	0.0158630
822.268	0.0158794
822.346	0.0159705
822.424	0.0158333
822.503	0.0156966
822.581	0.0158234
822.659	0.0158459
822.737	0.0156622
822.815	0.0157269
822.893	0.0157777
822.971	0.0156438
823.049	0.0156484
823.128	0.0156477
823.206	0.0157388
823.284	0.0155453
823.362	0.0155873
823.440	0.0156100
823.518	0.0157380
823.596	0.0155940
823.674	0.0156245
823.753	0.0157575
823.831	0.0155520
823.909	0.0157700
823.987	0.0157893
824.065	0.0157642
824.143	0.0157195
824.221	0.0157045
824.299	0.0157907
824.378	0.0156279
824.456	0.0158836
824.534	0.0158355
824.612	0.0157603
824.690	0.0157893
824.768	0.0159107
824.846	0.0158815
824.924	0.0159608
825.003	0.0157155
825.081	0.0159191
825.159	0.0160205
825.237	0.0158279
825.315	0.0158789
825.393	0.0159000
825.471	0.0158950
825.549	0.0160208
825.628	0.0160520
825.706	0.0159236
825.784	0.0158418
825.862	0.0159222
825.940	0.0159695
826.018	0.0160124
826.096	0.0159696
826.174	0.0161385
826.253	0.0159308
826.331	0.0160247
826.409	0.0161433
826.487	0.0160497
826.565	0.0159726
826.643	0.0160081
826.721	0.0159415
826.799	0.0160611
826.878	0.0161334
826.956	0.0160767
827.034	0.0160975
827.112	0.0160785
827.190	0.0160091
827.268	0.0160413
827.346	0.0160432
827.424	0.0160017
827.503	0.0160917
827.581	0.0161005
827.659	0.0159386
827.737	0.0160619
827.815	0.0160080
827.893	0.0160166
827.971	0.0162236
828.049	0.0159611
828.128	0.0159937
828.206	0.0160747
828.284	0.0159653
828.362	0.0160362
828.440	0.0161172
828.518	0.0160429
828.596	0.0161639
828.674	0.0160983
828.753	0.0161431
828.831	0.0161435
828.909	0.0160755
828.987	0.0159769
829.065	0.0159232
829.143	0.0161118
829.221	0.0159922
829.299	0.0160545
829.378	0.0161269
829.456	0.0160552
829.534	0.0159473
829.612	0.0160379
829.690	0.0160513
829.768	0.0160432
829.846	0.0160251
829.924	0.0159470
830.003	0.0160162
830.081	0.0159788
830.159	0.0159550
830.237	0.0158126
830.315	0.0158381
830.393	0.0159537
830.471	0.0159436
830.549	0.0159339
830.628	0.0159108
830.706	0.0157995
830.784	0.0158878
830.862	0.0160262
830.940	0.0158746
831.018	0.0158573
831.096	0.0158575
831.174	0.0159263
831.253	0.0159966
831.331	0.0159969
831.409	0.0158612
831.487	0.0158677
831.565	0.0159283
831.643	0.0158097
831.721	0.0156755
831.799	0.0157729
831.878	0.0158524
831.956	0.0159164
832.034	0.0157546
832.112	0.0158876
832.190	0.0159231
832.268	0.0158112
832.346	0.0158565
832.424	0.0158828
832.503	0.0159821
832.581	0.0158699
832.659	0.0158174
832.737	0.0158656
832.815	0.0159458
832.893	0.0158414
832.971	0.0159043
833.049	0.0159106
833.128	0.0159234
833.206	0.0158464
833.284	0.0159417
833.362	0.0158428
833.440	0.0157693
833.518	0.0159764
833.596	0.0160380
833.674	0.0159302
833.753	0.0159608
833.831	0.0159830
833.909	0.0159406
833.987	0.0160371
834.065	0.0161249
834.143	0.0161634
834.221	0.0160758
834.299	0.0159963
834.378	0.0160223
834.456	0.0162346
834.534	0.0161678
834.612	0.0160765
834.690	0.0162840
834.768	0.0162275
834.846	0.0160949
834.924	0.0162098
835.003	0.0161375
835.081	0.0162489
835.159	0.0163129
835.237	0.0162550
835.315	0.0162822
835.393	0.0162157
835.471	0.0162374
835.549	0.0161552
835.628	0.0161639
835.706	0.0162771
835.784	0.0161663
835.862	0.0162049
835.940	0.0162787
836.018	0.0162163
836.096	0.0163310
836.174	0.0161546
836.253	0.0160438
836.331	0.0161352
836.409	0.0161471
836.487	0.0161868
836.565	0.0161683
836.643	0.0161082
836.721	0.0160458
836.799	0.0160623
836.878	0.0161290
836.956	0.0160794
837.034	0.0161110
837.112	0.0160917
837.190	0.0160327
837.268	0.0161179
837.346	0.0158939
837.424	0.0160339
837.503	0.0159210
837.581	0.0158833
837.659	0.0157306
837.737	0.0158075
837.815	0.0158091
837.893	0.0158134
837.971	0.0158189
838.049	0.0158542
838.128	0.0158318
838.206	0.0157790
838.284	0.0157298
838.362	0.0157803
838.440	0.0156463
838.518	0.0157287
838.596	0.0157642
838.674	0.0156870
838.753	0.0157635
838.831	0.0155952
838.909	0.0156821
838.987	0.0157211
839.065	0.0156820
839.143	0.0156092
839.221	0.0155920
839.299	0.0155385
839.378	0.0155068
839.456	0.0157034
839.534	0.0156023
839.612	0.0154272
839.690	0.0157322
839.768	0.0156931
839.846	0.0156470
839.924	0.0157229
840.003	0.0157856
840.081	0.0157002
840.159	0.0157485
840.237	0.0158184
840.315	0.0157715
840.393	0.0157732
840.471	0.0157291
840.549	0.0159128
840.628	0.0159068
840.706	0.0158667
840.784	0.0160276
840.862	0.0158691
840.940	0.0157506
841.018	0.0159219
841.096	0.0158860
841.174	0.0158502
841.253	0.0158720
841.331	0.0158172
841.409	0.0159258
841.487	0.0160532
841.565	0.0160665
841.643	0.0159631
841.721	0.0161674
841.799	0.0159709
841.878	0.0159234
841.956	0.0160263
842.034	0.0159137
842.112	0.0158881
842.190	0.0160328
842.268	0.0158630
842.346	0.0162344
842.424	0.0160979
842.503	0.0159373
842.581	0.0159904
842.659	0.0160841
842.737	0.0161784
842.815	0.0160752
842.893	0.0160332
842.971	0.0161472
843.049	0.0161259
843.128	0.0161367
843.206	0.0162208
843.284	0.0162410
843.362	0.0161697
843.440	0.0161575
843.518	0.0160078
843.596	0.0161784
843.674	0.0161341
843.753	0.0160203
843.831	0.0160170
843.909	0.0161207
843.987	0.0160310
844.065	0.0159618
844.143	0.0160227
844.221	0.0159663
844.299	0.0160253
844.378	0.0159013
844.456	0.0159644
844.534	0.0158905
844.612	0.0158581
844.690	0.0157658
844.768	0.0160099
844.846	0.0158433
844.924	0.0158907
845.003	0.0159253
845.081	0.0158995
845.159	0.0157840
845.237	0.0159299
845.315	0.0158969
845.393	0.0159947
845.471	0.0159438
845.549	0.0159011
845.628	0.0158749
845.706	0.0158732
845.784	0.0158210
845.862	0.0158782
845.940	0.0158170
846.018	0.0158085
846.096	0.0156787
846.174	0.0157700
846.253	0.0155975
846.331	0.0156821
846.409	0.0157342
846.487	0.0156110
846.565	0.0157773
846.643	0.0156142
846.721	0.0156475
846.799	0.0156969
846.878	0.0158121
846.956	0.0158205
847.034	0.0158204
847.112	0.0157267
847.190	0.0157687
847.268	0.0158732
847.346	0.0158177
847.424	0.0156586
847.503	0.0157445
847.581	0.0158321
847.659	0.0158556
847.737	0.0158173
847.815	0.0158272
847.893	0.0159740
847.971	0.0158418
848.049	0.0156961
848.128	0.0157465
848.206	0.0157951
848.284	0.0158512
848.362	0.0159530
848.440	0.0158054
848.518	0.0157033
848.596	0.0158788
848.674	0.0159134
848.753	0.0158586
848.831	0.0158960
848.909	0.0158088
848.987	0.0160280
849.065	0.0158789
849.143	0.0159426
849.221	0.0159000
849.299	0.0158412
849.378	0.0159277
849.456	0.0159709
849.534	0.0160957
849.612	0.0160484
849.690	0.0159762
849.768	0.0159971
849.846	0.0160506
849.924	0.0160432
850.003	0.0159751
850.081	0.0159251
850.159	0.0158758
850.237	0.0161381
850.315	0.0160188
850.393	0.0160710
850.471	0.0161320
850.549	0.0160783
850.628	0.0162424
850.706	0.0160546
850.784	0.0160061
850.862	0.0159661
850.940	0.0160687
851.018	0.0161925
851.096	0.0161220
851.174	0.0161897
851.253	0.0161507
851.331	0.0159931
851.409	0.0159994
851.487	0.0162362
851.565	0.0161067
851.643	0.0160661
851.721	0.0161356
851.799	0.0161019
851.878	0.0160838
851.956	0.0159493
852.034	0.0161288
852.112	0.0161054
852.190	0.0160023
852.268	0.0159557
852.346	0.0159843
852.424	0.0160394
852.503	0.0160520
852.581	0.0157653
852.659	0.0158820
852.737	0.0158865
852.815	0.0158279
852.893	0.0159565
852.971	0.0159204
853.049	0.0158282
853.128	0.0158431
853.206	0.0159704
853.284	0.0158750
853.362	0.0158173
853.440	0.0157095
853.518	0.0157196
853.596	0.0157372
853.674	0.0158047
853.753	0.0157535
853.831	0.0157452
853.909	0.0157215
853.987	0.0157244
854.065	0.0158239
854.143	0.0157838
854.221	0.0157175
854.299	0.0157706
854.378	0.0158264
854.456	0.0158530
854.534	0.0157777
854.612	0.0159226
854.690	0.0158109
854.768	0.0158488
854.846	0.0157689
854.924	0.0156965
855.003	0.0159047
855.081	0.0158150
855.159	0.0159138
855.237	0.0159333
855.315	0.0158253
855.393	0.0158230
855.471	0.0157965
855.549	0.0157532
855.628	0.0158125
855.706	0.0157327
855.784	0.0158812
855.862	0.0157371
855.940	0.0158925
856.018	0.0158880
856.096	0.0158951
856.174	0.0158010
856.253	0.0157964
856.331	0.0158878
856.409	0.0160040
856.487	0.0159723
856.565	0.0158778
856.643	0.0160094
856.721	0.0158937
856.799	0.0157556
856.878	0.0159967
856.956	0.0160620
857.034	0.0158765
857.112	0.0159286
857.190	0.0159381
857.268	0.0158121
857.346	0.0160960
857.424	0.0158508
857.503	0.0160582
857.581	0.0160213
857.659	0.0160307
857.737	0.0159964
857.815	0.0160561
857.893	0.0159150
857.971	0.0160983
858.049	0.0159973
858.128	0.0160831
858.206	0.0160252
858.284	0.0160919
858.362	0.0161201
858.440	0.0159824
858.518	0.0160970
858.596	0.0159813
858.674	0.0161774
858.753	0.0162091
858.831	0.0159588
858.909	0.0160637
858.987	0.0162755
859.065	0.0162518
859.143	0.0160429
859.221	0.0159372
859.299	0.0161449
859.378	0.0160815
859.456	0.0161508
859.534	0.0160216
859.612	0.0161870
859.690	0.0161716
859.768	0.0161892
859.846	0.0160938
859.924	0.0162013
860.003	0.0160529
860.081	0.0160557
860.159	0.0160037
860.237	0.0159576
860.315	0.0159409
860.393	0.0158739
860.471	0.0158929
860.549	0.0161244
860.628	0.0158109
860.706	0.0158805
860.784	0.0158870
860.862	0.0158738
860.940	0.0158406
861.018	0.0157195
861.096	0.0158826
861.174	0.0158609
861.253	0.0158061
861.331	0.0158257
861.409	0.0157759
861.487	0.0157021
861.565	0.0158276
861.643	0.0157362
861.721	0.0158432
861.799	0.0158904
861.878	0.0158001
861.956	0.0158037
862.034	0.0158288
862.112	0.0158473
862.190	0.0158598
862.268	0.0158905
862.346	0.0159109
862.424	0.0159538
862.503	0.0158681
862.581	0.0158717
862.659	0.0159268
862.737	0.0160129
862.815	0.0160519
862.893	0.0158223
862.971	0.0158717
863.049	0.0160535
863.128	0.0159795
863.206	0.0159534
863.284	0.0159232
863.362	0.0159288
863.440	0.0161132
863.518	0.0160822
863.596	0.0159674
863.674	0.0159377
863.753	0.0158738
863.831	0.0159766
863.909	0.0159614
863.987	0.0159158
864.065	0.0159439
864.143	0.0159347
864.221	0.0160528
864.299	0.0160115
864.378	0.0160856
864.456	0.0161226
864.534	0.0160048
864.612	0.0160656
864.690	0.0161080
864.768	0.0160684
864.846	0.0159914
864.924	0.0161211
865.003	0.0160592
865.081	0.0161098
865.159	0.0159841
865.237	0.0161914
865.315	0.0160625
865.393	0.0161110
865.471	0.0161748
865.549	0.0161557
865.628	0.0163486
865.706	0.0160843
865.784	0.0160876
865.862	0.0161784
865.940	0.0161306
866.018	0.0160846
866.096	0.0161122
866.174	0.0162286
866.253	0.0160931
866.331	0.0161989
866.409	0.0161601
866.487	0.0161378
866.565	0.0161709
866.643	0.0160546
866.721	0.0160992
866.799	0.0162199
866.878	0.0160224
866.956	0.0160311
867.034	0.0161768
867.112	0.0160392
867.190	0.0161494
867.268	0.0160857
867.346	0.0160429
867.424	0.0160454
867.503	0.0159996
867.581	0.0159625
867.659	0.0158165
867.737	0.0159004
867.815	0.0160322
867.893	0.0158971
867.971	0.0157958
868.049	0.0159638
868.128	0.0159695
868.206	0.0159466
868.284	0.0158392
868.362	0.0160598
868.440	0.0158839
868.518	0.0158951
868.596	0.0159202
868.674	0.0160522
868.753	0.0159382
868.831	0.0158843
868.909	0.0159134
868.987	0.0159072
869.065	0.0158832
869.143	0.0158514
869.221	0.0158551
869.299	0.0158562
869.378	0.0157574
869.456	0.0159416
869.534	0.0159074
869.612	0.0158919
869.690	0.0158670
869.768	0.0158414
869.846	0.0158719
869.924	0.0158665
870.003	0.0158924
870.081	0.0158062
870.159	0.0157584
870.237	0.0157969
870.315	0.0158689
870.393	0.0157935
870.471	0.0158121
870.549	0.0160199
870.628	0.0157950
870.706	0.0158264
870.784	0.0158098
870.862	0.0158702
870.940	0.0157767
871.018	0.0159185
871.096	0.0158132
871.174	0.0159521
871.253	0.0159482
871.331	0.0159261
871.409	0.0159617
871.487	0.0159852
871.565	0.0158553
871.643	0.0158828
871.721	0.0158977
871.799	0.0158998
871.878	0.0158971
871.956	0.0159103
872.034	0.0158016
872.112	0.0159334
872.190	0.0161115
872.268	0.0158553
872.346	0.0159333
872.424	0.0160637
872.503	0.0159270
872.581	0.0159188
872.659	0.0158392
872.737	0.0159524
872.815	0.0159290
872.893	0.0158821
872.971	0.0159905
873.049	0.0160233
873.128	0.0158746
873.206	0.0158923
873.284	0.0160191
873.362	0.0158620
873.440	0.0159093
873.518	0.0158057
873.596	0.0158543
873.674	0.0159741
873.753	0.0157504
873.831	0.0158140
873.909	0.0159421
873.987	0.0157572
874.065	0.0159009
874.143	0.0158774
874.221	0.0159623
874.299	0.0158871
874.378	0.0158357
874.456	0.0158197
874.534	0.0157969
874.612	0.0157690
874.690	0.0158693
874.768	0.0158463
874.846	0.0158553
874.924	0.0157798
875.003	0.0159207
875.081	0.0158928
875.159	0.0158635
875.237	0.0157772
875.315	0.0158270
875.393	0.0159216
875.471	0.0158837
875.549	0.0158862
875.628	0.0158147
875.706	0.0157458
875.784	0.0158701
875.862	0.0158199
875.940	0.0157608
876.018	0.0157658
876.096	0.0156413
876.174	0.0156599
876.253	0.0156245
876.331	0.0157946
876.409	0.0156852
876.487	0.0157827
876.565	0.0156588
876.643	0.0156146
876.721	0.0157505
876.799	0.0157031
876.878	0.0155938
876.956	0.0157415
877.034	0.0156721
877.112	0.0158063
877.190	0.0159068
877.268	0.0157519
877.346	0.0157012
877.424	0.0157341
877.503	0.0157499
877.581	0.0156889
877.659	0.0158424
877.737	0.0158427
877.815	0.0157487
877.893	0.0158340
877.971	0.0159509
878.049	0.0158072
878.128	0.0158971
878.206	0.0158099
878.284	0.0157410
878.362	0.0158508
878.440	0.0158819
878.518	0.0158350
878.596	0.0158875
878.674	0.0158929
878.753	0.0158324
878.831	0.0158295
878.909	0.0159108
878.987	0.0160960
879.065	0.0159460
879.143	0.0158429
879.221	0.0158354
879.299	0.0157047
879.378	0.0159300
879.456	0.0159420
879.534	0.0159102
879.612	0.0158795
879.690	0.0158994
879.768	0.0158881
879.846	0.0159617
879.924	0.0158950
880.003	0.0158463
880.081	0.0159296
880.159	0.0158989
880.237	0.0159402
880.315	0.0160040
880.393	0.0159563
880.471	0.0158603
880.549	0.0158440
880.628	0.0159834
880.706	0.0159162
880.784	0.0159219
880.862	0.0159214
880.940	0.0160310
881.018	0.0160670
881.096	0.0159881
881.174	0.0160352
881.253	0.0159578
881.331	0.0160058
881.409	0.0160867
881.487	0.0159316
881.565	0.0159595
881.643	0.0159358
881.721	0.0159897
881.799	0.0160011
881.878	0.0161296
881.956	0.0160407
882.034	0.0160300
882.112	0.0160718
882.190	0.0161332
882.268	0.0161084
882.346	0.0160636
882.424	0.0162498
882.503	0.0160793
882.581	0.0160667
882.659	0.0162260
882.737	0.0161701
882.815	0.0162189
882.893	0.0162576
882.971	0.0162608
883.049	0.0160420
883.128	0.0162651
883.206	0.0161216
883.284	0.0161093
883.362	0.0162092
883.440	0.0159864
883.518	0.0161135
883.596	0.0160503
883.674	0.0162540
883.753	0.0162309
883.831	0.0160050
883.909	0.0161493
883.987	0.0161982
884.065	0.0162992
884.143	0.0161926
884.221	0.0160667
884.299	0.0160088
884.378	0.0161216
884.456	0.0160596
884.534	0.0160757
884.612	0.0160179
884.690	0.0159807
884.768	0.0159346
884.846	0.0161649
884.924	0.0160453
885.003	0.0159612
885.081	0.0159917
885.159	0.0159903
885.237	0.0159129
885.315	0.0158056
885.393	0.0160023
885.471	0.0158295
885.549	0.0157310
885.628	0.0159966
885.706	0.0159338
885.784	0.0159962
885.862	0.0160397
885.940	0.0159200
886.018	0.0158796
886.096	0.0160061
886.174	0.0161095
886.253	0.0159634
886.331	0.0160188
886.409	0.0159127
886.487	0.0160131
886.565	0.0160404
886.643	0.0160511
886.721	0.0159496
886.799	0.0158827
886.878	0.0160553
886.956	0.0159830
887.034	0.0159886
887.112	0.0160694
887.190	0.0160873
887.268	0.0159591
887.346	0.0159567
887.424	0.0160357
887.503	0.0160802
887.581	0.0159660
887.659	0.0159202
887.737	0.0160548
887.815	0.0161153
887.893	0.0160428
887.971	0.0161864
888.049	0.0161651
888.128	0.0159514
888.206	0.0160471
888.284	0.0159776
888.362	0.0160442
888.440	0.0160310
888.518	0.0160052
888.596	0.0159288
888.674	0.0160660
888.753	0.0159212
888.831	0.0160231
888.909	0.0160313
888.987	0.0159845
889.065	0.0160803
889.143	0.0160222
889.221	0.0159677
889.299	0.0160403
889.378	0.0160166
889.456	0.0160923
889.534	0.0159322
889.612	0.0158794
889.690	0.0161330
889.768	0.0160903
889.846	0.0161694
889.924	0.0160320
890.003	0.0162055
890.081	0.0161326
890.159	0.0161036
890.237	0.0160254
890.315	0.0160188
890.393	0.0160890
890.471	0.0160410
890.549	0.0161273
890.628	0.0159935
890.706	0.0160887
890.784	0.0159989
890.862	0.0161577
890.940	0.0160833
891.018	0.0161060
891.096	0.0159712
891.174	0.0161279
891.253	0.0159191
891.331	0.0160634
891.409	0.0160891
891.487	0.0159869
891.565	0.0160701
891.643	0.0157864
891.721	0.0159349
891.799	0.0160226
891.878	0.0159148
891.956	0.0160654
892.034	0.0159642
892.112	0.0159277
892.190	0.0160970
892.268	0.0159701
892.346	0.0159087
892.424	0.0160425
892.503	0.0159541
892.581	0.0159634
892.659	0.0159195
892.737	0.0160920
892.815	0.0159647
892.893	0.0159888
892.971	0.0159092
893.049	0.0158479
893.128	0.0158511
893.206	0.0160124
893.284	0.0159709
893.362	0.0160167
893.440	0.0159842
893.518	0.0160055
893.596	0.0160198
893.674	0.0159534
893.753	0.0158913
893.831	0.0161041
893.909	0.0159331
893.987	0.0159141
894.065	0.0159368
894.143	0.0159810
894.221	0.0159511
894.299	0.0160496
894.378	0.0158801
894.456	0.0160881
894.534	0.0159002
894.612	0.0159392
894.690	0.0159757
894.768	0.0160811
894.846	0.0159730
894.924	0.0159919
895.003	0.0160252
895.081	0.0157833
895.159	0.0159351
895.237	0.0158097
895.315	0.0158275
895.393	0.0158975
895.471	0.0160506
895.549	0.0159288
895.628	0.0159618
895.706	0.0157884
895.784	0.0158426
895.862	0.0160590
895.940	0.0158388
896.018	0.0158486
896.096	0.0158519
896.174	0.0158658
896.253	0.0158871
896.331	0.0158681
896.409	0.0159258
896.487	0.0157363
896.565	0.0159911
896.643	0.0159911
896.721	0.0158698
896.799	0.0157106
896.878	0.0158242
896.956	0.0159672
897.034	0.0159042
897.112	0.0159505
897.190	0.0159508
897.268	0.0159639
897.346	0.0158686
897.424	0.0158489
897.503	0.0158614
897.581	0.0158640
897.659	0.0158813
897.737	0.0159861
897.815	0.0158916
897.893	0.0159066
897.971	0.0157682
898.049	0.0158080
898.128	0.0159671
898.206	0.0159027
898.284	0.0158586
898.362	0.0157910
898.440	0.0157620
898.518	0.0156544
898.596	0.0158719
898.674	0.0159533
898.753	0.0159074
898.831	0.0158403
898.909	0.0159051
898.987	0.0158384
899.065	0.0158961
899.143	0.0159953
899.221	0.0157729
899.299	0.0158371
899.378	0.0158483
899.456	0.0158032
899.534	0.0159037
899.612	0.0159744
899.690	0.0159231
899.768	0.0159079
899.846	0.0159747
899.924	0.0159840
900.003	0.0159769
900.081	0.0159897
900.159	0.0159281
900.237	0.0158906
900.315	0.0160301
900.393	0.0158894
900.471	0.0159753
900.549	0.0160064
900.628	0.0159627
900.706	0.0158755
900.784	0.0158264
900.862	0.0158112
900.940	0.0157552
901.018	0.0158344
901.096	0.0157060
901.174	0.0157177
901.253	0.0158106
901.331	0.0157787
901.409	0.0158440
901.487	0.0157380
901.565	0.0156471
901.643	0.0157504
901.721	0.0156019
901.799	0.0157379
901.878	0.0157562
901.956	0.0156516
902.034	0.0157200
902.112	0.0158028
902.190	0.0157562
902.268	0.0159280
902.346	0.0158185
902.424	0.0159303
902.503	0.0159616
902.581	0.0160394
902.659	0.0160368
902.737	0.0158472
902.815	0.0159696
902.893	0.0159834
902.971	0.0159229
903.049	0.0159658
903.128	0.0159477
903.206	0.0159772
903.284	0.0158682
903.362	0.0160090
903.440	0.0159452
903.518	0.0160342
903.596	0.0158862
903.674	0.0159837
903.753	0.0160528
903.831	0.0157570
903.909	0.0158427
903.987	0.0158510
904.065	0.0158836
904.143	0.0159856
904.221	0.0158981
904.299	0.0158262
904.378	0.0159180
904.456	0.0158862
904.534	0.0158672
904.612	0.0159335
904.690	0.0158664
904.768	0.0159256
904.846	0.0159307
904.924	0.0160180
905.003	0.0158837
905.081	0.0158399
905.159	0.0159219
905.237	0.0158530
905.315	0.0160128
905.393	0.0159375
905.471	0.0158340
905.549	0.0159261
905.628	0.0159274
905.706	0.0157358
905.784	0.0158744
905.862	0.0158672
905.940	0.0158211
906.018	0.0159402
906.096	0.0159813
906.174	0.0158768
906.253	0.0157740
906.331	0.0159612
906.409	0.0159591
906.487	0.0159193
906.565	0.0159277
906.643	0.0159120
906.721	0.0159600
906.799	0.0160784
906.878	0.0158166
906.956	0.0159258
907.034	0.0160765
907.112	0.0160332
907.190	0.0159915
907.268	0.0159818
907.346	0.0159982
907.424	0.0159673
907.503	0.0158389
907.581	0.0159585
907.659	0.0160072
907.737	0.0159099
907.815	0.0161150
907.893	0.0159694
907.971	0.0159107
908.049	0.0160677
908.128	0.0160687
908.206	0.0158684
908.284	0.0159835
908.362	0.0159957
908.440	0.0158229
908.518	0.0159970
908.596	0.0159998
908.674	0.0160040
908.753	0.0160207
908.831	0.0161046
908.909	0.0160404
908.987	0.0158116
909.065	0.0159308
909.143	0.0160224
909.221	0.0159192
909.299	0.0159659
909.378	0.0160590
909.456	0.0160438
909.534	0.0159287
909.612	0.0159647
909.690	0.0160542
909.768	0.0160741
909.846	0.0160069
909.924	0.0159607
910.003	0.0159191
910.081	0.0161962
910.159	0.0161226
910.237	0.0160406
910.315	0.0160479
910.393	0.0161983
910.471	0.0160916
910.549	0.0160682
910.628	0.0162124
910.706	0.0161129
910.784	0.0159876
910.862	0.0160903
910.940	0.0160732
911.018	0.0160989
911.096	0.0160268
911.174	0.0160968
911.253	0.0160331
911.331	0.0160957
911.409	0.0160544
911.487	0.0160059
911.565	0.0159164
911.643	0.0160082
911.721	0.0161314
911.799	0.0161100
911.878	0.0161066
911.956	0.0160403
912.034	0.0160631
912.112	0.0160221
912.190	0.0160222
912.268	0.0160255
912.346	0.0159180
912.424	0.0160062
912.503	0.0160412
912.581	0.0162051
912.659	0.0159465
912.737	0.0159645
912.815	0.0159753
912.893	0.0159518
912.971	0.0159265
913.049	0.0157953
913.128	0.0160437
913.206	0.0160971
913.284	0.0159829
913.362	0.0159949
913.440	0.0160251
913.518	0.0160358
913.596	0.0159641
913.674	0.0160642
913.753	0.0159541
913.831	0.0161103
913.909	0.0161629
913.987	0.0160831
914.065	0.0160431
914.143	0.0160827
914.221	0.0160824
914.299	0.0162131
914.378	0.0161417
914.456	0.0161772
914.534	0.0160477
914.612	0.0160696
914.690	0.0163650
914.768	0.0160972
914.846	0.0160703
914.924	0.0160900
915.003	0.0160394
915.081	0.0160470
915.159	0.0160254
915.237	0.0160532
915.315	0.0158734
915.393	0.0159071
915.471	0.0159282
915.549	0.0158530
915.628	0.0158863
915.706	0.0159585
915.784	0.0158207
915.862	0.0159098
915.940	0.0158536
916.018	0.0159809
916.096	0.0158411
916.174	0.0159307
916.253	0.0159634
916.331	0.0159267
916.409	0.0158560
916.487	0.0158745
916.565	0.0157870
916.643	0.0159019
916.721	0.0158537
916.799	0.0157648
916.878	0.0158939
916.956	0.0158633
917.034	0.0158839
917.112	0.0159602
917.190	0.0159928
917.268	0.0158484
917.346	0.0158635
917.424	0.0160313
917.503	0.0159689
917.581	0.0160284
917.659	0.0158437
917.737	0.0159619
917.815	0.0159246
917.893	0.0159901
917.971	0.0160741
918.049	0.0160400
918.128	0.0160197
918.206	0.0159391
918.284	0.0159761
918.362	0.0159526
918.440	0.0160722
918.518	0.0159191
918.596	0.0160341
918.674	0.0161523
918.753	0.0159984
918.831	0.0159734
918.909	0.0159190
918.987	0.0158786
919.065	0.0159687
919.143	0.0159449
919.221	0.0159451
919.299	0.0160042
919.378	0.0161160
919.456	0.0158701
919.534	0.0157904
919.612	0.0159415
919.690	0.0159924
919.768	0.0160220
919.846	0.0158907
919.924	0.0161350
920.003	0.0159975
920.081	0.0159742
920.159	0.0160319
920.237	0.0160112
920.315	0.0159714
920.393	0.0159468
920.471	0.0159986
920.549	0.0159421
920.628	0.0158223
920.706	0.0158657
920.784	0.0159223
920.862	0.0159822
920.940	0.0159826
921.018	0.0157511
921.096	0.0160091
921.174	0.0159879
921.253	0.0158005
921.331	0.0158263
921.409	0.0158757
921.487	0.0159563
921.565	0.0158269
921.643	0.0158554
921.721	0.0160093
921.799	0.0158087
921.878	0.0158694
921.956	0.0159999
922.034	0.0159491
922.112	0.0159161
922.190	0.0159114
922.268	0.0159065
922.346	0.0159402
922.424	0.0159735
922.503	0.0157610
922.581	0.0157546
922.659	0.0160832
922.737	0.0158957
922.815	0.0158381
922.893	0.0159979
922.971	0.0160478
923.049	0.0157994
923.128	0.0157204
923.206	0.0158621
923.284	0.0158278
923.362	0.0159855
923.440	0.0158620
923.518	0.0158675
923.596	0.0156578
923.674	0.0157385
923.753	0.0159068
923.831	0.0159530
923.909	0.0158990
923.987	0.0158177
924.065	0.0159690
924.143	0.0158791
924.221	0.0157377
924.299	0.0158471
924.378	0.0156860
924.456	0.0158257
924.534	0.0158701
924.612	0.0157968
924.690	0.0159100
924.768	0.0158553
924.846	0.0157539
924.924	0.0158753
925.003	0.0158011
925.081	0.0159126
925.159	0.0159660
925.237	0.0159318
925.315	0.0158609
925.393	0.0158604
925.471	0.0159773
925.549	0.0160695
925.628	0.0158441
925.706	0.0159367
925.784	0.0161402
925.862	0.0160050
925.940	0.0160404
926.018	0.0159688
926.096	0.0159406
926.174	0.0160678
926.253	0.0160040
926.331	0.0160654
926.409	0.0160750
926.487	0.0159685
926.565	0.0160355
926.643	0.0159636
926.721	0.0159274
926.799	0.0159308
926.878	0.0160141
926.956	0.0160192
927.034	0.0158566
927.112	0.0158395
927.190	0.0158552
927.268	0.0160059
927.346	0.0158794
927.424	0.0159985
927.503	0.0160075
927.581	0.0158883
927.659	0.0159605
927.737	0.0158656
927.815	0.0158540
927.893	0.0160149
927.971	0.0159213
928.049	0.0158472
928.128	0.0158955
928.206	0.0157339
928.284	0.0158738
928.362	0.0158597
928.440	0.0157834
928.518	0.0158365
928.596	0.0159603
928.674	0.0157644
928.753	0.0158529
928.831	0.0159839
928.909	0.0159238
928.987	0.0158037
929.065	0.0158950
929.143	0.0159502
929.221	0.0160440
929.299	0.0159741
929.378	0.0159752
929.456	0.0159734
929.534	0.0158692
929.612	0.0160214
929.690	0.0159406
929.768	0.0158879
929.846	0.0158798
929.924	0.0160489
930.003	0.0160664
930.081	0.0159797
930.159	0.0159372
930.237	0.0161673
930.315	0.0159225
930.393	0.0159615
930.471	0.0160848
930.549	0.0159852
930.628	0.0158718
930.706	0.0160148
930.784	0.0159765
930.862	0.0159042
930.940	0.0160537
931.018	0.0160823
931.096	0.0160123
931.174	0.0160493
931.253	0.0160183
931.331	0.0161470
931.409	0.0159775
931.487	0.0160163
931.565	0.0160095
931.643	0.0160108
931.721	0.0159653
931.799	0.0160466
931.878	0.0160674
931.956	0.0159052
932.034	0.0161301
932.112	0.0161256
932.190	0.0158854
932.268	0.0158896
932.346	0.0160052
932.424	0.0158672
932.503	0.0159063
932.581	0.0160651
932.659	0.0158414
932.737	0.0160491
932.815	0.0157829
932.893	0.0159737
932.971	0.0159538
933.049	0.0159078
933.128	0.0160281
933.206	0.0160012
933.284	0.0159621
933.362	0.0158750
933.440	0.0159163
933.518	0.0159966
933.596	0.0160405
933.674	0.0159730
933.753	0.0160350
933.831	0.0158926
933.909	0.0159429
933.987	0.0160521
934.065	0.0161052
934.143	0.0160707
934.221	0.0159995
934.299	0.0160241
934.378	0.0160529
934.456	0.0160392
934.534	0.0160628
934.612	0.0160760
934.690	0.0160052
934.768	0.0160723
934.846	0.0160210
934.924	0.0160352
935.003	0.0160152
935.081	0.0160712
935.159	0.0159882
935.237	0.0159924
935.315	0.0159644
935.393	0.0160277
935.471	0.0159542
935.549	0.0160300
935.628	0.0159631
935.706	0.0158328
935.784	0.0159478
935.862	0.0160071
935.940	0.0160496
936.018	0.0160218
936.096	0.0160303
936.174	0.0159195
936.253	0.0160268
936.331	0.0160213
936.409	0.0158537
936.487	0.0160115
936.565	0.0159614
936.643	0.0160094
936.721	0.0158231
936.799	0.0160298
936.878	0.0158972
936.956	0.0157941
937.034	0.0158858
937.112	0.0157840
937.190	0.0159160
937.268	0.0158731
937.346	0.0159121
937.424	0.0158230
937.503	0.0157356
937.581	0.0158472
937.659	0.0159464
937.737	0.0157488
937.815	0.0157958
937.893	0.0158918
937.971	0.0158603
938.049	0.0158881
938.128	0.0160368
938.206	0.0158136
938.284	0.0159106
938.362	0.0159888
938.440	0.0157835
938.518	0.0158008
938.596	0.0158450
938.674	0.0159882
938.753	0.0159708
938.831	0.0158535
938.909	0.0157552
938.987	0.0157887
939.065	0.0157695
939.143	0.0158947
939.221	0.0158504
939.299	0.0158961
939.378	0.0159358
939.456	0.0157832
939.534	0.0158996
939.612	0.0159502
939.690	0.0159727
939.768	0.0158232
939.846	0.0157890
939.924	0.0159139
940.003	0.0159135
940.081	0.0161353
940.159	0.0160139
940.237	0.0159517
940.315	0.0160759
940.393	0.0159692
940.471	0.0160593
940.549	0.0160628
940.628	0.0160590
940.706	0.0160140
940.784	0.0160529
940.862	0.0160921
940.940	0.0159200
941.018	0.0158305
941.096	0.0160276
941.174	0.0159101
941.253	0.0158778
941.331	0.0158379
941.409	0.0159703
941.487	0.0158957
941.565	0.0159175
941.643	0.0159901
941.721	0.0159138
941.799	0.0159621
941.878	0.0160183
941.956	0.0159225
942.034	0.0160008
942.112	0.0161068
942.190	0.0159363
942.268	0.0159996
942.346	0.0161378
942.424	0.0159124
942.503	0.0161001
942.581	0.0161194
942.659	0.0158704
942.737	0.0160084
942.815	0.0161043
942.893	0.0159966
942.971	0.0160625
943.049	0.0160319
943.128	0.0158595
943.206	0.0159105
943.284	0.0159674
943.362	0.0160070
943.440	0.0160320
943.518	0.0160207
943.596	0.0159074
943.674	0.0158976
943.753	0.0159502
943.831	0.0160331
943.909	0.0159396
943.987	0.0160224
944.065	0.0160719
944.143	0.0160339
944.221	0.0159579
944.299	0.0158733
944.378	0.0159789
944.456	0.0160060
944.534	0.0159977
944.612	0.0160349
944.690	0.0158986
944.768	0.0159573
944.846	0.0158907
944.924	0.0160439
945.003	0.0160118
945.081	0.0160592
945.159	0.0159334
945.237	0.0159322
945.315	0.0158884
945.393	0.0157582
945.471	0.0159823
945.549	0.0161259
945.628	0.0158025
945.706	0.0158633
945.784	0.0159682
945.862	0.0158356
945.940	0.0158610
946.018	0.0158504
946.096	0.0159029
946.174	0.0159581
946.253	0.0158921
946.331	0.0158855
946.409	0.0159636
946.487	0.0160458
946.565	0.0159874
946.643	0.0160574
946.721	0.0158968
946.799	0.0159367
946.878	0.0159828
946.956	0.0158192
947.034	0.0158696
947.112	0.0160484
947.190	0.0160164
947.268	0.0159097
947.346	0.0158972
947.424	0.0157562
947.503	0.0158502
947.581	0.0159414
947.659	0.0159506
947.737	0.0158121
947.815	0.0158961
947.893	0.0159797
947.971	0.0159357
948.049	0.0159639
948.128	0.0160365
948.206	0.0159502
948.284	0.0160264
948.362	0.0158730
948.440	0.0158759
948.518	0.0160474
948.596	0.0159843
948.674	0.0159149
948.753	0.0159489
948.831	0.0159232
948.909	0.0160316
948.987	0.0159419
949.065	0.0159917
949.143	0.0160039
949.221	0.0159896
949.299	0.0160764
949.378	0.0159161
949.456	0.0159906
949.534	0.0159560
949.612	0.0160194
949.690	0.0160029
949.768	0.0160416
949.846	0.0161137
949.924	0.0159822
