05/19/2022	00:54:14	Ver.	4.1	UNKNOWN
Optical Delay	630.002507	Delta X		0.078125	Sweeps	1	Scan Rate	0/0
Coordinates	Axis 1	NaN	Axis 2	NaN	Axis 3	NaN	Axis 4	NaN	Axis 5	NaN	Axis 6	0.000000
TX Power	0.000000	RX Power	0.000000

630.003	0.0155688
630.081	0.0154858
630.159	0.0155544
630.237	0.0155817
630.315	0.0154971
630.393	0.0156612
630.471	0.0156217
630.549	0.0156002
630.628	0.0155948
630.706	0.0156010
630.784	0.0156129
630.862	0.0155673
630.940	0.0156438
631.018	0.0155573
631.096	0.0156955
631.174	0.0157912
631.253	0.0156194
631.331	0.0154269
631.409	0.0157820
631.487	0.0155815
631.565	0.0156947
631.643	0.0156940
631.721	0.0156774
631.799	0.0155423
631.878	0.0155690
631.956	0.0156937
632.034	0.0155634
632.112	0.0155653
632.190	0.0154996
632.268	0.0155533
632.346	0.0154604
632.424	0.0155996
632.503	0.0155238
632.581	0.0156289
632.659	0.0154760
632.737	0.0155664
632.815	0.0156141
632.893	0.0156062
632.971	0.0154749
633.049	0.0154556
633.128	0.0155880
633.206	0.0155912
633.284	0.0155415
633.362	0.0154412
633.440	0.0155499
633.518	0.0154808
633.596	0.0156197
633.674	0.0155609
633.753	0.0154860
633.831	0.0155167
633.909	0.0156145
633.987	0.0156172
634.065	0.0154499
634.143	0.0156173
634.221	0.0155943
634.299	0.0153022
634.378	0.0153934
634.456	0.0156027
634.534	0.0155791
634.612	0.0154395
634.690	0.0154354
634.768	0.0155325
634.846	0.0154245
634.924	0.0154883
635.003	0.0155759
635.081	0.0155219
635.159	0.0154881
635.237	0.0154061
635.315	0.0155306
635.393	0.0156305
635.471	0.0155322
635.549	0.0155241
635.628	0.0155591
635.706	0.0156419
635.784	0.0155608
635.862	0.0155959
635.940	0.0154436
636.018	0.0155843
636.096	0.0155334
636.174	0.0155677
636.253	0.0154455
636.331	0.0155858
636.409	0.0154480
636.487	0.0155548
636.565	0.0156680
636.643	0.0155709
636.721	0.0154911
636.799	0.0155228
636.878	0.0155750
636.956	0.0156818
637.034	0.0156223
637.112	0.0156258
637.190	0.0154851
637.268	0.0154750
637.346	0.0156177
637.424	0.0155490
637.503	0.0155702
637.581	0.0156035
637.659	0.0155337
637.737	0.0154765
637.815	0.0155153
637.893	0.0156364
637.971	0.0155057
638.049	0.0156408
638.128	0.0155579
638.206	0.0154614
638.284	0.0155688
638.362	0.0155151
638.440	0.0155437
638.518	0.0155902
638.596	0.0154899
638.674	0.0155407
638.753	0.0156747
638.831	0.0155028
638.909	0.0156240
638.987	0.0155861
639.065	0.0155900
639.143	0.0156859
639.221	0.0156959
639.299	0.0156851
639.378	0.0156107
639.456	0.0155874
639.534	0.0157130
639.612	0.0156938
639.690	0.0156882
639.768	0.0156909
639.846	0.0154726
639.924	0.0156171
640.003	0.0156725
640.081	0.0156079
640.159	0.0154757
640.237	0.0155315
640.315	0.0156154
640.393	0.0155548
640.471	0.0156055
640.549	0.0155279
640.628	0.0156245
640.706	0.0155807
640.784	0.0156026
640.862	0.0156587
640.940	0.0155093
641.018	0.0156981
641.096	0.0156110
641.174	0.0155950
641.253	0.0156686
641.331	0.0155173
641.409	0.0155912
641.487	0.0156567
641.565	0.0154515
641.643	0.0155634
641.721	0.0154953
641.799	0.0155816
641.878	0.0155100
641.956	0.0154971
642.034	0.0155716
642.112	0.0155249
642.190	0.0155077
642.268	0.0155467
642.346	0.0155468
642.424	0.0157330
642.503	0.0157303
642.581	0.0157723
642.659	0.0158550
642.737	0.0155904
642.815	0.0156014
642.893	0.0156723
642.971	0.0157341
643.049	0.0156351
643.128	0.0155773
643.206	0.0157100
643.284	0.0155704
643.362	0.0155427
643.440	0.0153960
643.518	0.0156116
643.596	0.0157074
643.674	0.0156419
643.753	0.0155255
643.831	0.0156582
643.909	0.0156238
643.987	0.0155247
644.065	0.0156796
644.143	0.0155813
644.221	0.0155173
644.299	0.0156652
644.378	0.0155195
644.456	0.0156123
644.534	0.0155466
644.612	0.0155850
644.690	0.0155330
644.768	0.0154420
644.846	0.0155138
644.924	0.0155798
645.003	0.0156358
645.081	0.0153685
645.159	0.0153991
645.237	0.0156313
645.315	0.0155275
645.393	0.0154599
645.471	0.0156839
645.549	0.0153873
645.628	0.0157211
645.706	0.0156532
645.784	0.0155349
645.862	0.0155951
645.940	0.0156432
646.018	0.0156479
646.096	0.0157494
646.174	0.0155476
646.253	0.0154617
646.331	0.0155520
646.409	0.0156171
646.487	0.0156197
646.565	0.0155221
646.643	0.0155406
646.721	0.0156188
646.799	0.0156038
646.878	0.0154857
646.956	0.0155602
647.034	0.0154632
647.112	0.0156402
647.190	0.0154895
647.268	0.0157420
647.346	0.0156113
647.424	0.0155867
647.503	0.0156506
647.581	0.0156707
647.659	0.0157665
647.737	0.0157804
647.815	0.0156136
647.893	0.0156316
647.971	0.0156007
648.049	0.0154793
648.128	0.0154233
648.206	0.0155074
648.284	0.0154565
648.362	0.0154517
648.440	0.0154836
648.518	0.0154802
648.596	0.0154183
648.674	0.0155056
648.753	0.0154069
648.831	0.0153785
648.909	0.0153973
648.987	0.0155344
649.065	0.0155312
649.143	0.0154239
649.221	0.0154884
649.299	0.0156042
649.378	0.0156367
649.456	0.0154591
649.534	0.0156824
649.612	0.0157570
649.690	0.0154811
649.768	0.0154586
649.846	0.0155980
649.924	0.0155723
650.003	0.0156965
650.081	0.0155529
650.159	0.0155455
650.237	0.0154607
650.315	0.0154726
650.393	0.0154296
650.471	0.0155173
650.549	0.0155275
650.628	0.0155004
650.706	0.0154763
650.784	0.0154428
650.862	0.0154277
650.940	0.0154147
651.018	0.0153961
651.096	0.0155796
651.174	0.0156113
651.253	0.0154655
651.331	0.0154626
651.409	0.0155760
651.487	0.0154014
651.565	0.0155466
651.643	0.0156599
651.721	0.0155659
651.799	0.0155320
651.878	0.0154858
651.956	0.0155474
652.034	0.0154135
652.112	0.0154914
652.190	0.0156036
652.268	0.0155508
652.346	0.0154913
652.424	0.0157572
652.503	0.0156644
652.581	0.0155464
652.659	0.0156519
652.737	0.0155898
652.815	0.0155105
652.893	0.0156454
652.971	0.0156396
653.049	0.0156441
653.128	0.0156140
653.206	0.0155898
653.284	0.0156872
653.362	0.0156315
653.440	0.0155541
653.518	0.0154812
653.596	0.0154400
653.674	0.0156027
653.753	0.0154778
653.831	0.0154810
653.909	0.0154195
653.987	0.0154192
654.065	0.0154113
654.143	0.0154961
654.221	0.0154249
654.299	0.0153754
654.378	0.0155645
654.456	0.0155260
654.534	0.0154882
654.612	0.0155055
654.690	0.0154927
654.768	0.0156499
654.846	0.0155282
654.924	0.0155038
655.003	0.0155369
655.081	0.0155086
655.159	0.0156324
655.237	0.0154564
655.315	0.0154199
655.393	0.0155674
655.471	0.0155509
655.549	0.0155033
655.628	0.0154476
655.706	0.0155161
655.784	0.0154560
655.862	0.0154675
655.940	0.0154718
656.018	0.0154575
656.096	0.0155592
656.174	0.0154730
656.253	0.0154855
656.331	0.0155671
656.409	0.0156287
656.487	0.0155542
656.565	0.0155741
656.643	0.0156493
656.721	0.0154446
656.799	0.0156824
656.878	0.0157273
656.956	0.0155208
657.034	0.0154743
657.112	0.0156296
657.190	0.0155452
657.268	0.0156264
657.346	0.0154298
657.424	0.0156200
657.503	0.0156919
657.581	0.0155293
657.659	0.0155746
657.737	0.0155006
657.815	0.0155624
657.893	0.0154799
657.971	0.0153946
658.049	0.0153687
658.128	0.0155594
658.206	0.0153712
658.284	0.0155508
658.362	0.0155759
658.440	0.0155584
658.518	0.0155975
658.596	0.0155882
658.674	0.0155641
658.753	0.0156047
658.831	0.0156431
658.909	0.0156237
658.987	0.0155701
659.065	0.0156605
659.143	0.0156007
659.221	0.0158095
659.299	0.0157139
659.378	0.0156971
659.456	0.0157364
659.534	0.0158012
659.612	0.0157008
659.690	0.0157147
659.768	0.0156359
659.846	0.0156570
659.924	0.0157841
660.003	0.0157492
660.081	0.0156683
660.159	0.0156264
660.237	0.0155446
660.315	0.0156147
660.393	0.0156521
660.471	0.0155325
660.549	0.0156409
660.628	0.0155404
660.706	0.0156232
660.784	0.0155328
660.862	0.0155442
660.940	0.0154233
661.018	0.0154581
661.096	0.0152556
661.174	0.0154214
661.253	0.0155462
661.331	0.0155437
661.409	0.0153755
661.487	0.0153890
661.565	0.0154881
661.643	0.0154047
661.721	0.0154942
661.799	0.0154946
661.878	0.0154501
661.956	0.0154558
662.034	0.0154720
662.112	0.0154721
662.190	0.0155190
662.268	0.0154916
662.346	0.0154209
662.424	0.0155318
662.503	0.0155983
662.581	0.0155783
662.659	0.0157030
662.737	0.0157465
662.815	0.0157544
662.893	0.0158111
662.971	0.0157848
663.049	0.0159335
663.128	0.0158364
663.206	0.0158263
663.284	0.0158643
663.362	0.0159145
663.440	0.0158475
663.518	0.0158477
663.596	0.0158721
663.674	0.0158244
663.753	0.0157771
663.831	0.0157373
663.909	0.0158762
663.987	0.0158163
664.065	0.0157596
664.143	0.0158875
664.221	0.0158482
664.299	0.0157352
664.378	0.0156427
664.456	0.0158033
664.534	0.0155973
664.612	0.0155626
664.690	0.0157215
664.768	0.0156419
664.846	0.0155605
664.924	0.0156811
665.003	0.0156419
665.081	0.0153622
665.159	0.0154620
665.237	0.0154901
665.315	0.0153007
665.393	0.0152700
665.471	0.0152733
665.549	0.0151561
665.628	0.0152213
665.706	0.0151363
665.784	0.0152931
665.862	0.0150343
665.940	0.0151009
666.018	0.0152581
666.096	0.0151608
666.174	0.0150395
666.253	0.0151499
666.331	0.0152247
666.409	0.0154068
666.487	0.0154042
666.565	0.0152961
666.643	0.0152942
666.721	0.0153378
666.799	0.0153674
666.878	0.0154951
666.956	0.0156154
667.034	0.0155311
667.112	0.0156160
667.190	0.0156853
667.268	0.0156670
667.346	0.0157620
667.424	0.0157194
667.503	0.0157433
667.581	0.0157176
667.659	0.0158073
667.737	0.0159288
667.815	0.0158833
667.893	0.0158965
667.971	0.0158116
668.049	0.0159423
668.128	0.0158939
668.206	0.0158916
668.284	0.0158778
668.362	0.0158852
668.440	0.0157294
668.518	0.0157703
668.596	0.0157277
668.674	0.0158593
668.753	0.0157211
668.831	0.0157043
668.909	0.0156994
668.987	0.0156155
669.065	0.0155785
669.143	0.0156506
669.221	0.0156698
669.299	0.0155993
669.378	0.0154104
669.456	0.0155161
669.534	0.0154735
669.612	0.0153910
669.690	0.0153428
669.768	0.0153690
669.846	0.0152106
669.924	0.0152910
670.003	0.0153883
670.081	0.0150711
670.159	0.0151283
670.237	0.0151271
670.315	0.0151464
670.393	0.0152518
670.471	0.0152378
670.549	0.0152987
670.628	0.0153481
670.706	0.0153857
670.784	0.0154028
670.862	0.0154656
670.940	0.0154534
671.018	0.0155930
671.096	0.0156420
671.174	0.0156615
671.253	0.0156554
671.331	0.0155695
671.409	0.0156992
671.487	0.0154987
671.565	0.0155852
671.643	0.0157703
671.721	0.0155926
671.799	0.0155199
671.878	0.0156772
671.956	0.0156548
672.034	0.0156158
672.112	0.0155003
672.190	0.0154483
672.268	0.0155327
672.346	0.0155322
672.424	0.0155193
672.503	0.0154862
672.581	0.0155610
672.659	0.0154441
672.737	0.0154031
672.815	0.0154145
672.893	0.0156185
672.971	0.0156371
673.049	0.0155608
673.128	0.0155569
673.206	0.0156805
673.284	0.0155442
673.362	0.0155723
673.440	0.0155119
673.518	0.0155764
673.596	0.0157171
673.674	0.0157032
673.753	0.0156484
673.831	0.0157309
673.909	0.0157616
673.987	0.0158113
674.065	0.0158997
674.143	0.0158933
674.221	0.0158656
674.299	0.0158234
674.378	0.0158365
674.456	0.0156734
674.534	0.0157803
674.612	0.0158139
674.690	0.0157713
674.768	0.0157685
674.846	0.0157339
674.924	0.0157474
675.003	0.0156258
675.081	0.0155909
675.159	0.0155302
675.237	0.0155927
675.315	0.0153168
675.393	0.0154197
675.471	0.0155299
675.549	0.0154249
675.628	0.0155289
675.706	0.0155988
675.784	0.0155486
675.862	0.0155671
675.940	0.0154673
676.018	0.0155556
676.096	0.0156519
676.174	0.0156506
676.253	0.0157249
676.331	0.0156740
676.409	0.0156868
676.487	0.0155910
676.565	0.0155403
676.643	0.0156619
676.721	0.0156894
676.799	0.0156192
676.878	0.0153642
676.956	0.0156146
677.034	0.0154288
677.112	0.0154872
677.190	0.0155497
677.268	0.0155460
677.346	0.0155769
677.424	0.0154865
677.503	0.0154176
677.581	0.0154514
677.659	0.0156243
677.737	0.0154983
677.815	0.0155501
677.893	0.0155571
677.971	0.0154548
678.049	0.0155985
678.128	0.0155649
678.206	0.0155047
678.284	0.0154751
678.362	0.0155047
678.440	0.0156071
678.518	0.0156545
678.596	0.0155048
678.674	0.0154353
678.753	0.0156566
678.831	0.0157123
678.909	0.0155637
678.987	0.0156303
679.065	0.0156406
679.143	0.0155573
679.221	0.0156537
679.299	0.0156366
679.378	0.0156812
679.456	0.0156891
679.534	0.0157133
679.612	0.0156984
679.690	0.0157068
679.768	0.0156659
679.846	0.0158265
679.924	0.0157613
680.003	0.0156710
680.081	0.0157034
680.159	0.0155315
680.237	0.0156774
680.315	0.0156687
680.393	0.0156593
680.471	0.0154927
680.549	0.0157100
680.628	0.0157208
680.706	0.0155987
680.784	0.0155671
680.862	0.0155235
680.940	0.0156031
681.018	0.0154985
681.096	0.0154636
681.174	0.0155956
681.253	0.0155243
681.331	0.0155830
681.409	0.0156006
681.487	0.0154611
681.565	0.0154501
681.643	0.0154700
681.721	0.0155074
681.799	0.0155891
681.878	0.0154926
681.956	0.0156413
682.034	0.0155903
682.112	0.0155186
682.190	0.0155457
682.268	0.0156213
682.346	0.0157861
682.424	0.0157243
682.503	0.0157063
682.581	0.0156798
682.659	0.0156277
682.737	0.0157105
682.815	0.0156804
682.893	0.0157140
682.971	0.0155813
683.049	0.0156424
683.128	0.0154768
683.206	0.0155173
683.284	0.0156107
683.362	0.0155858
683.440	0.0155220
683.518	0.0156627
683.596	0.0157645
683.674	0.0157008
683.753	0.0157302
683.831	0.0155849
683.909	0.0158565
683.987	0.0157368
684.065	0.0158390
684.143	0.0158109
684.221	0.0157224
684.299	0.0158010
684.378	0.0159133
684.456	0.0159496
684.534	0.0157577
684.612	0.0158633
684.690	0.0157641
684.768	0.0156879
684.846	0.0155700
684.924	0.0154810
685.003	0.0155168
685.081	0.0154782
685.159	0.0153703
685.237	0.0152946
685.315	0.0154093
685.393	0.0154084
685.471	0.0153261
685.549	0.0152927
685.628	0.0152515
685.706	0.0152488
685.784	0.0153214
685.862	0.0152834
685.940	0.0153260
686.018	0.0153596
686.096	0.0153770
686.174	0.0154739
686.253	0.0153957
686.331	0.0153932
686.409	0.0155018
686.487	0.0154626
686.565	0.0155124
686.643	0.0156284
686.721	0.0156444
686.799	0.0154679
686.878	0.0155470
686.956	0.0156248
687.034	0.0155212
687.112	0.0155460
687.190	0.0155176
687.268	0.0156097
687.346	0.0155791
687.424	0.0155418
687.503	0.0155983
687.581	0.0156908
687.659	0.0155695
687.737	0.0154931
687.815	0.0156678
687.893	0.0156673
687.971	0.0157360
688.049	0.0156226
688.128	0.0156806
688.206	0.0154996
688.284	0.0156499
688.362	0.0157591
688.440	0.0158437
688.518	0.0157360
688.596	0.0157821
688.674	0.0155882
688.753	0.0157391
688.831	0.0158130
688.909	0.0157258
688.987	0.0156452
689.065	0.0157973
689.143	0.0155857
689.221	0.0154977
689.299	0.0156419
689.378	0.0156692
689.456	0.0156017
689.534	0.0155886
689.612	0.0154252
689.690	0.0154086
689.768	0.0154723
689.846	0.0154365
689.924	0.0152399
690.003	0.0153544
690.081	0.0153260
690.159	0.0153738
690.237	0.0153477
690.315	0.0153642
690.393	0.0153011
690.471	0.0152795
690.549	0.0153156
690.628	0.0152799
690.706	0.0152483
690.784	0.0154366
690.862	0.0154720
690.940	0.0156319
691.018	0.0155143
691.096	0.0155917
691.174	0.0156194
691.253	0.0156949
691.331	0.0158002
691.409	0.0156583
691.487	0.0158317
691.565	0.0157991
691.643	0.0157571
691.721	0.0158706
691.799	0.0157938
691.878	0.0159026
691.956	0.0156927
692.034	0.0156405
692.112	0.0155499
692.190	0.0155845
692.268	0.0155813
692.346	0.0157018
692.424	0.0156266
692.503	0.0155185
692.581	0.0155475
692.659	0.0154305
692.737	0.0155721
692.815	0.0155123
692.893	0.0155791
692.971	0.0155106
693.049	0.0155255
693.128	0.0155034
693.206	0.0156036
693.284	0.0154665
693.362	0.0155436
693.440	0.0154510
693.518	0.0154331
693.596	0.0156429
693.674	0.0154217
693.753	0.0155933
693.831	0.0156918
693.909	0.0154589
693.987	0.0155660
694.065	0.0154215
694.143	0.0155181
694.221	0.0157219
694.299	0.0156387
694.378	0.0156152
694.456	0.0157136
694.534	0.0156855
694.612	0.0155847
694.690	0.0155492
694.768	0.0155636
694.846	0.0156711
694.924	0.0157170
695.003	0.0155797
695.081	0.0157079
695.159	0.0157662
695.237	0.0157870
695.315	0.0157138
695.393	0.0158042
695.471	0.0158511
695.549	0.0157253
695.628	0.0157393
695.706	0.0158184
695.784	0.0157038
695.862	0.0157280
695.940	0.0156381
696.018	0.0155869
696.096	0.0155661
696.174	0.0154499
696.253	0.0154025
696.331	0.0154504
696.409	0.0153384
696.487	0.0151775
696.565	0.0151707
696.643	0.0150787
696.721	0.0151894
696.799	0.0150209
696.878	0.0151846
696.956	0.0151646
697.034	0.0151772
697.112	0.0152213
697.190	0.0153211
697.268	0.0152882
697.346	0.0154363
697.424	0.0155546
697.503	0.0155231
697.581	0.0156603
697.659	0.0157590
697.737	0.0157007
697.815	0.0157069
697.893	0.0157339
697.971	0.0157603
698.049	0.0157310
698.128	0.0158477
698.206	0.0156936
698.284	0.0158289
698.362	0.0158144
698.440	0.0158846
698.518	0.0157226
698.596	0.0156957
698.674	0.0156106
698.753	0.0156799
698.831	0.0158157
698.909	0.0158062
698.987	0.0157856
699.065	0.0157231
699.143	0.0157535
699.221	0.0156451
699.299	0.0157536
699.378	0.0155773
699.456	0.0156606
699.534	0.0157255
699.612	0.0155927
699.690	0.0156690
699.768	0.0154509
699.846	0.0155175
699.924	0.0155746
700.003	0.0154877
700.081	0.0154621
700.159	0.0154642
700.237	0.0154932
700.315	0.0153354
700.393	0.0152686
700.471	0.0153863
700.549	0.0151821
700.628	0.0153759
700.706	0.0152776
700.784	0.0154679
700.862	0.0153983
700.940	0.0153760
701.018	0.0154227
701.096	0.0153841
701.174	0.0154307
701.253	0.0153586
701.331	0.0154673
701.409	0.0154681
701.487	0.0154628
701.565	0.0156741
701.643	0.0155724
701.721	0.0154058
701.799	0.0155103
701.878	0.0154777
701.956	0.0155369
702.034	0.0155418
702.112	0.0157007
702.190	0.0155625
702.268	0.0155730
702.346	0.0155891
702.424	0.0156650
702.503	0.0155911
702.581	0.0157237
702.659	0.0156824
702.737	0.0156987
702.815	0.0155839
702.893	0.0157180
702.971	0.0157190
703.049	0.0157918
703.128	0.0156619
703.206	0.0156770
703.284	0.0157201
703.362	0.0157159
703.440	0.0156214
703.518	0.0154672
703.596	0.0156208
703.674	0.0154326
703.753	0.0153375
703.831	0.0153792
703.909	0.0153691
703.987	0.0152552
704.065	0.0154050
704.143	0.0153190
704.221	0.0153139
704.299	0.0153744
704.378	0.0154278
704.456	0.0153513
704.534	0.0153323
704.612	0.0153427
704.690	0.0154533
704.768	0.0155054
704.846	0.0155669
704.924	0.0156580
705.003	0.0157310
705.081	0.0157525
705.159	0.0158332
705.237	0.0157745
705.315	0.0157605
705.393	0.0157423
705.471	0.0157803
705.549	0.0158586
705.628	0.0158661
705.706	0.0157184
705.784	0.0158598
705.862	0.0156815
705.940	0.0157236
706.018	0.0156358
706.096	0.0155618
706.174	0.0156609
706.253	0.0154874
706.331	0.0155073
706.409	0.0155438
706.487	0.0156723
706.565	0.0156491
706.643	0.0156886
706.721	0.0155307
706.799	0.0155508
706.878	0.0155631
706.956	0.0156202
707.034	0.0155906
707.112	0.0155180
707.190	0.0156778
707.268	0.0158200
707.346	0.0156642
707.424	0.0155875
707.503	0.0155820
707.581	0.0155451
707.659	0.0155096
707.737	0.0155563
707.815	0.0154026
707.893	0.0154256
707.971	0.0153318
708.049	0.0152959
708.128	0.0154419
708.206	0.0153623
708.284	0.0152202
708.362	0.0152130
708.440	0.0152884
708.518	0.0153737
708.596	0.0152348
708.674	0.0154936
708.753	0.0153615
708.831	0.0154269
708.909	0.0155031
708.987	0.0153728
709.065	0.0154154
709.143	0.0155219
709.221	0.0156223
709.299	0.0156258
709.378	0.0155608
709.456	0.0155393
709.534	0.0157672
709.612	0.0157162
709.690	0.0156282
709.768	0.0155944
709.846	0.0155724
709.924	0.0157270
710.003	0.0156881
710.081	0.0154936
710.159	0.0156438
710.237	0.0156224
710.315	0.0155238
710.393	0.0155795
710.471	0.0155602
710.549	0.0155410
710.628	0.0155608
710.706	0.0155722
710.784	0.0156492
710.862	0.0157241
710.940	0.0155056
711.018	0.0156858
711.096	0.0157478
711.174	0.0157405
711.253	0.0157159
711.331	0.0157674
711.409	0.0156624
711.487	0.0155325
711.565	0.0156437
711.643	0.0157215
711.721	0.0157197
711.799	0.0155511
711.878	0.0156068
711.956	0.0156194
712.034	0.0156472
712.112	0.0156311
712.190	0.0155038
712.268	0.0155138
712.346	0.0156498
712.424	0.0155526
712.503	0.0154624
712.581	0.0155248
712.659	0.0155065
712.737	0.0155229
712.815	0.0156609
712.893	0.0155965
712.971	0.0155803
713.049	0.0155898
713.128	0.0154956
713.206	0.0155958
713.284	0.0156738
713.362	0.0156834
713.440	0.0155795
713.518	0.0155456
713.596	0.0156184
713.674	0.0155840
713.753	0.0154465
713.831	0.0154874
713.909	0.0154710
713.987	0.0154890
714.065	0.0155194
714.143	0.0153766
714.221	0.0154856
714.299	0.0154500
714.378	0.0153460
714.456	0.0155104
714.534	0.0153255
714.612	0.0154436
714.690	0.0154556
714.768	0.0155041
714.846	0.0155735
714.924	0.0155241
715.003	0.0155989
715.081	0.0154871
715.159	0.0155459
715.237	0.0156120
715.315	0.0154916
715.393	0.0155946
715.471	0.0155924
715.549	0.0156824
715.628	0.0155409
715.706	0.0155743
715.784	0.0154807
715.862	0.0155737
715.940	0.0155972
716.018	0.0156267
716.096	0.0156342
716.174	0.0156133
716.253	0.0156831
716.331	0.0155997
716.409	0.0155875
716.487	0.0155935
716.565	0.0155532
716.643	0.0155426
716.721	0.0155656
716.799	0.0156080
716.878	0.0155894
716.956	0.0156006
717.034	0.0155216
717.112	0.0156226
717.190	0.0156179
717.268	0.0155978
717.346	0.0155153
717.424	0.0156190
717.503	0.0157538
717.581	0.0156187
717.659	0.0156351
717.737	0.0158204
717.815	0.0155667
717.893	0.0157166
717.971	0.0156460
718.049	0.0155114
718.128	0.0158088
718.206	0.0154888
718.284	0.0154396
718.362	0.0155382
718.440	0.0155653
718.518	0.0155444
718.596	0.0154549
718.674	0.0155348
718.753	0.0154575
718.831	0.0154172
718.909	0.0155889
718.987	0.0156389
719.065	0.0155013
719.143	0.0156049
719.221	0.0155463
719.299	0.0156866
719.378	0.0157243
719.456	0.0156439
719.534	0.0156387
719.612	0.0157365
719.690	0.0156226
719.768	0.0156635
719.846	0.0155303
719.924	0.0155807
720.003	0.0155568
720.081	0.0157203
720.159	0.0154727
720.237	0.0155067
720.315	0.0155299
720.393	0.0153739
720.471	0.0153143
720.549	0.0155082
720.628	0.0155740
720.706	0.0154167
720.784	0.0153909
720.862	0.0155340
720.940	0.0154153
721.018	0.0154299
721.096	0.0154030
721.174	0.0155235
721.253	0.0156099
721.331	0.0154021
721.409	0.0155384
721.487	0.0155666
721.565	0.0154378
721.643	0.0155896
721.721	0.0155890
721.799	0.0155878
721.878	0.0154659
721.956	0.0155781
722.034	0.0154884
722.112	0.0152736
722.190	0.0153679
722.268	0.0154802
722.346	0.0154751
722.424	0.0153414
722.503	0.0155917
722.581	0.0155735
722.659	0.0156005
722.737	0.0154808
722.815	0.0155394
722.893	0.0156448
722.971	0.0155394
723.049	0.0154896
723.128	0.0155136
723.206	0.0155462
723.284	0.0156045
723.362	0.0156410
723.440	0.0156562
723.518	0.0157033
723.596	0.0156404
723.674	0.0156343
723.753	0.0155193
723.831	0.0155415
723.909	0.0154936
723.987	0.0155885
724.065	0.0156354
724.143	0.0155996
724.221	0.0155434
724.299	0.0155933
724.378	0.0154808
724.456	0.0155878
724.534	0.0156117
724.612	0.0156618
724.690	0.0155261
724.768	0.0155032
724.846	0.0154679
724.924	0.0154945
725.003	0.0155888
725.081	0.0154048
725.159	0.0155124
725.237	0.0155379
725.315	0.0155709
725.393	0.0154383
725.471	0.0153899
725.549	0.0154389
725.628	0.0155643
725.706	0.0154602
725.784	0.0155293
725.862	0.0154499
725.940	0.0154883
726.018	0.0154916
726.096	0.0155775
726.174	0.0154910
726.253	0.0154642
726.331	0.0154375
726.409	0.0153513
726.487	0.0152521
726.565	0.0152957
726.643	0.0154035
726.721	0.0154546
726.799	0.0155422
726.878	0.0154559
726.956	0.0155031
727.034	0.0155301
727.112	0.0155254
727.190	0.0154611
727.268	0.0155730
727.346	0.0157580
727.424	0.0155190
727.503	0.0156281
727.581	0.0155339
727.659	0.0154685
727.737	0.0155910
727.815	0.0156102
727.893	0.0154491
727.971	0.0155682
728.049	0.0154818
728.128	0.0154804
728.206	0.0154387
728.284	0.0154195
728.362	0.0155022
728.440	0.0154705
728.518	0.0155923
728.596	0.0154861
728.674	0.0154655
728.753	0.0154961
728.831	0.0155423
728.909	0.0155859
728.987	0.0153500
729.065	0.0154927
729.143	0.0155520
729.221	0.0155450
729.299	0.0154971
729.378	0.0154469
729.456	0.0155920
729.534	0.0155051
729.612	0.0154695
729.690	0.0155387
729.768	0.0154703
729.846	0.0155903
729.924	0.0153914
730.003	0.0154587
730.081	0.0154254
730.159	0.0155817
730.237	0.0154476
730.315	0.0153141
730.393	0.0155560
730.471	0.0154134
730.549	0.0156679
730.628	0.0156277
730.706	0.0155438
730.784	0.0156987
730.862	0.0155616
730.940	0.0156927
731.018	0.0155704
731.096	0.0155624
731.174	0.0156652
731.253	0.0156091
731.331	0.0156030
731.409	0.0157587
731.487	0.0155875
731.565	0.0155473
731.643	0.0156568
731.721	0.0156290
731.799	0.0156739
731.878	0.0155698
731.956	0.0154101
732.034	0.0156480
732.112	0.0156792
732.190	0.0156241
732.268	0.0155388
732.346	0.0154861
732.424	0.0157961
732.503	0.0156165
732.581	0.0154570
732.659	0.0155730
732.737	0.0155196
732.815	0.0154635
732.893	0.0154480
732.971	0.0155254
733.049	0.0154244
733.128	0.0154008
733.206	0.0155206
733.284	0.0154392
733.362	0.0155515
733.440	0.0154671
733.518	0.0155694
733.596	0.0154594
733.674	0.0153960
733.753	0.0154594
733.831	0.0154271
733.909	0.0155549
733.987	0.0155595
734.065	0.0154823
734.143	0.0155561
734.221	0.0155133
734.299	0.0155563
734.378	0.0154908
734.456	0.0155712
734.534	0.0155161
734.612	0.0154666
734.690	0.0155725
734.768	0.0156964
734.846	0.0157059
734.924	0.0156967
735.003	0.0155930
735.081	0.0155504
735.159	0.0154821
735.237	0.0157486
735.315	0.0157557
735.393	0.0156235
735.471	0.0155071
735.549	0.0158008
735.628	0.0157105
735.706	0.0155840
735.784	0.0155115
735.862	0.0156206
735.940	0.0155658
736.018	0.0155552
736.096	0.0155823
736.174	0.0155679
736.253	0.0155949
736.331	0.0157323
736.409	0.0155016
736.487	0.0155766
736.565	0.0156429
736.643	0.0155295
736.721	0.0155616
736.799	0.0155486
736.878	0.0154949
736.956	0.0156615
737.034	0.0156371
737.112	0.0155744
737.190	0.0155546
737.268	0.0155817
737.346	0.0157590
737.424	0.0157582
737.503	0.0156107
737.581	0.0157139
737.659	0.0156781
737.737	0.0155446
737.815	0.0155987
737.893	0.0158048
737.971	0.0157516
738.049	0.0156872
738.128	0.0155912
738.206	0.0156298
738.284	0.0156024
738.362	0.0157211
738.440	0.0156805
738.518	0.0155850
738.596	0.0155515
738.674	0.0155360
738.753	0.0156195
738.831	0.0155438
738.909	0.0155851
738.987	0.0156825
739.065	0.0155695
739.143	0.0155560
739.221	0.0156265
739.299	0.0156802
739.378	0.0156364
739.456	0.0155662
739.534	0.0155144
739.612	0.0155474
739.690	0.0156746
739.768	0.0155542
739.846	0.0156210
739.924	0.0154986
740.003	0.0156658
740.081	0.0157206
740.159	0.0156194
740.237	0.0155545
740.315	0.0155966
740.393	0.0155391
740.471	0.0155676
740.549	0.0156246
740.628	0.0155018
740.706	0.0156216
740.784	0.0154428
740.862	0.0155392
740.940	0.0155261
741.018	0.0154713
741.096	0.0155012
741.174	0.0154732
741.253	0.0155373
741.331	0.0155473
741.409	0.0155331
741.487	0.0155910
741.565	0.0155158
741.643	0.0155874
741.721	0.0156636
741.799	0.0155364
741.878	0.0156768
741.956	0.0157211
742.034	0.0157564
742.112	0.0156503
742.190	0.0157291
742.268	0.0154565
742.346	0.0155524
742.424	0.0156715
742.503	0.0155965
742.581	0.0156399
742.659	0.0156069
742.737	0.0155385
742.815	0.0156583
742.893	0.0156442
742.971	0.0155829
743.049	0.0155917
743.128	0.0155486
743.206	0.0155557
743.284	0.0155656
743.362	0.0156084
743.440	0.0155565
743.518	0.0154586
743.596	0.0154707
743.674	0.0156454
743.753	0.0157095
743.831	0.0156359
743.909	0.0154497
743.987	0.0154793
744.065	0.0156371
744.143	0.0157858
744.221	0.0155991
744.299	0.0155625
744.378	0.0156851
744.456	0.0155999
744.534	0.0155280
744.612	0.0156234
744.690	0.0156752
744.768	0.0155255
744.846	0.0155507
744.924	0.0154705
745.003	0.0156236
745.081	0.0154912
745.159	0.0154045
745.237	0.0156604
745.315	0.0155264
745.393	0.0155060
745.471	0.0154530
745.549	0.0156352
745.628	0.0156366
745.706	0.0155176
745.784	0.0154520
745.862	0.0154094
745.940	0.0155885
746.018	0.0154540
746.096	0.0154945
746.174	0.0153762
746.253	0.0154279
746.331	0.0154676
746.409	0.0154063
746.487	0.0154066
746.565	0.0154559
746.643	0.0154434
746.721	0.0154835
746.799	0.0155093
746.878	0.0156531
746.956	0.0155476
747.034	0.0155019
747.112	0.0155521
747.190	0.0155957
747.268	0.0156255
747.346	0.0155741
747.424	0.0156387
747.503	0.0155930
747.581	0.0154651
747.659	0.0157488
747.737	0.0154614
747.815	0.0156035
747.893	0.0156071
747.971	0.0155489
748.049	0.0154501
748.128	0.0155098
748.206	0.0154012
748.284	0.0153673
748.362	0.0153771
748.440	0.0154069
748.518	0.0152388
748.596	0.0155744
748.674	0.0152827
748.753	0.0153128
748.831	0.0153797
748.909	0.0155147
748.987	0.0155158
749.065	0.0154646
749.143	0.0153809
749.221	0.0154510
749.299	0.0155186
749.378	0.0155626
749.456	0.0154270
749.534	0.0155627
749.612	0.0154087
749.690	0.0154559
749.768	0.0155532
749.846	0.0155357
749.924	0.0154369
750.003	0.0155051
750.081	0.0154655
750.159	0.0153584
750.237	0.0155522
750.315	0.0154401
750.393	0.0155749
750.471	0.0155103
750.549	0.0154926
750.628	0.0155521
750.706	0.0155853
750.784	0.0156275
750.862	0.0154807
750.940	0.0155343
751.018	0.0156683
751.096	0.0156422
751.174	0.0155826
751.253	0.0154873
751.331	0.0155827
751.409	0.0155795
751.487	0.0154730
751.565	0.0155865
751.643	0.0155366
751.721	0.0154971
751.799	0.0155745
751.878	0.0156141
751.956	0.0154861
752.034	0.0154922
752.112	0.0156060
752.190	0.0156150
752.268	0.0156178
752.346	0.0155033
752.424	0.0155711
752.503	0.0155384
752.581	0.0156123
752.659	0.0154998
752.737	0.0156217
752.815	0.0154802
752.893	0.0155934
752.971	0.0155215
753.049	0.0153196
753.128	0.0155121
753.206	0.0155821
753.284	0.0154226
753.362	0.0154573
753.440	0.0156448
753.518	0.0154713
753.596	0.0153552
753.674	0.0152050
753.753	0.0154313
753.831	0.0154298
753.909	0.0154263
753.987	0.0154137
754.065	0.0154424
754.143	0.0155754
754.221	0.0154368
754.299	0.0155174
754.378	0.0154192
754.456	0.0155066
754.534	0.0156281
754.612	0.0154198
754.690	0.0155134
754.768	0.0154466
754.846	0.0154937
754.924	0.0155936
755.003	0.0155795
755.081	0.0156231
755.159	0.0156322
755.237	0.0156625
755.315	0.0155183
755.393	0.0154938
755.471	0.0155943
755.549	0.0155296
755.628	0.0155546
755.706	0.0155609
755.784	0.0155400
755.862	0.0156971
755.940	0.0158222
756.018	0.0156470
756.096	0.0155711
756.174	0.0155477
756.253	0.0156139
756.331	0.0156933
756.409	0.0156180
756.487	0.0155891
756.565	0.0156261
756.643	0.0156816
756.721	0.0155869
756.799	0.0155954
756.878	0.0154043
756.956	0.0155917
757.034	0.0157016
757.112	0.0155489
757.190	0.0156844
757.268	0.0157143
757.346	0.0157359
757.424	0.0156940
757.503	0.0154436
757.581	0.0155937
757.659	0.0156470
757.737	0.0154735
757.815	0.0156210
757.893	0.0157330
757.971	0.0155661
758.049	0.0155772
758.128	0.0156158
758.206	0.0155756
758.284	0.0156705
758.362	0.0156500
758.440	0.0155169
758.518	0.0155495
758.596	0.0156673
758.674	0.0157040
758.753	0.0156860
758.831	0.0155767
758.909	0.0156520
758.987	0.0155146
759.065	0.0155614
759.143	0.0155941
759.221	0.0157026
759.299	0.0155904
759.378	0.0157334
759.456	0.0156696
759.534	0.0156301
759.612	0.0157050
759.690	0.0157404
759.768	0.0156121
759.846	0.0157049
759.924	0.0156417
760.003	0.0155423
760.081	0.0157661
760.159	0.0157235
760.237	0.0155846
760.315	0.0155833
760.393	0.0156948
760.471	0.0157619
760.549	0.0155746
760.628	0.0155272
760.706	0.0157311
760.784	0.0156233
760.862	0.0156742
760.940	0.0155846
761.018	0.0157446
761.096	0.0156391
761.174	0.0155087
761.253	0.0156802
761.331	0.0155157
761.409	0.0157041
761.487	0.0157454
761.565	0.0155813
761.643	0.0155196
761.721	0.0157687
761.799	0.0155994
761.878	0.0156569
761.956	0.0156287
762.034	0.0156081
762.112	0.0156925
762.190	0.0155355
762.268	0.0155045
762.346	0.0155573
762.424	0.0156325
762.503	0.0156069
762.581	0.0155861
762.659	0.0155450
762.737	0.0156596
762.815	0.0155466
762.893	0.0155473
762.971	0.0157339
763.049	0.0154762
763.128	0.0155441
763.206	0.0156503
763.284	0.0155706
763.362	0.0155022
763.440	0.0155677
763.518	0.0155344
763.596	0.0155012
763.674	0.0155746
763.753	0.0156255
763.831	0.0155312
763.909	0.0156209
763.987	0.0155573
764.065	0.0154626
764.143	0.0154952
764.221	0.0156134
764.299	0.0155624
764.378	0.0156697
764.456	0.0155864
764.534	0.0155389
764.612	0.0155329
764.690	0.0155285
764.768	0.0154675
764.846	0.0155186
764.924	0.0155003
765.003	0.0155846
765.081	0.0156194
765.159	0.0156359
765.237	0.0154492
765.315	0.0155451
765.393	0.0155929
765.471	0.0156239
765.549	0.0156019
765.628	0.0156942
765.706	0.0155888
765.784	0.0156605
765.862	0.0155934
765.940	0.0157256
766.018	0.0155319
766.096	0.0155339
766.174	0.0157410
766.253	0.0155976
766.331	0.0155611
766.409	0.0156358
766.487	0.0154857
766.565	0.0155309
766.643	0.0155261
766.721	0.0156034
766.799	0.0154965
766.878	0.0155891
766.956	0.0154930
767.034	0.0155582
767.112	0.0155209
767.190	0.0156227
767.268	0.0155434
767.346	0.0154801
767.424	0.0154664
767.503	0.0154974
767.581	0.0156145
767.659	0.0156780
767.737	0.0154381
767.815	0.0155678
767.893	0.0155831
767.971	0.0154992
768.049	0.0154927
768.128	0.0155676
768.206	0.0154815
768.284	0.0154682
768.362	0.0156065
768.440	0.0155723
768.518	0.0156244
768.596	0.0154327
768.674	0.0155469
768.753	0.0155748
768.831	0.0155544
768.909	0.0154876
768.987	0.0155566
769.065	0.0155634
769.143	0.0155055
769.221	0.0155933
769.299	0.0154883
769.378	0.0153652
769.456	0.0154258
769.534	0.0155101
769.612	0.0154692
769.690	0.0155214
769.768	0.0155952
769.846	0.0154121
769.924	0.0155238
770.003	0.0155422
770.081	0.0155053
770.159	0.0153256
770.237	0.0154824
770.315	0.0154648
770.393	0.0154668
770.471	0.0154179
770.549	0.0155489
770.628	0.0154593
770.706	0.0155145
770.784	0.0155119
770.862	0.0154653
770.940	0.0155415
771.018	0.0153358
771.096	0.0156222
771.174	0.0154714
771.253	0.0154396
771.331	0.0154261
771.409	0.0154649
771.487	0.0154486
771.565	0.0156255
771.643	0.0155837
771.721	0.0155866
771.799	0.0154915
771.878	0.0154234
771.956	0.0154309
772.034	0.0155386
772.112	0.0153513
772.190	0.0154593
772.268	0.0154727
772.346	0.0156213
772.424	0.0155431
772.503	0.0155161
772.581	0.0154925
772.659	0.0154556
772.737	0.0153929
772.815	0.0153786
772.893	0.0155270
772.971	0.0154614
773.049	0.0154571
773.128	0.0153704
773.206	0.0154457
773.284	0.0155241
773.362	0.0154989
773.440	0.0154718
773.518	0.0155751
773.596	0.0156554
773.674	0.0155351
773.753	0.0155303
773.831	0.0155474
773.909	0.0156453
773.987	0.0157018
774.065	0.0155725
774.143	0.0154980
774.221	0.0154971
774.299	0.0154778
774.378	0.0155948
774.456	0.0155855
774.534	0.0157643
774.612	0.0155782
774.690	0.0155128
774.768	0.0154772
774.846	0.0156052
774.924	0.0154331
775.003	0.0156407
775.081	0.0154389
775.159	0.0154755
775.237	0.0155348
775.315	0.0153472
775.393	0.0156097
775.471	0.0156222
775.549	0.0154899
775.628	0.0154458
775.706	0.0155643
775.784	0.0154962
775.862	0.0154650
775.940	0.0154744
776.018	0.0155795
776.096	0.0154097
776.174	0.0154931
776.253	0.0155528
776.331	0.0156604
776.409	0.0156212
776.487	0.0156763
776.565	0.0156328
776.643	0.0155666
776.721	0.0155868
776.799	0.0155574
776.878	0.0155895
776.956	0.0155348
777.034	0.0156644
777.112	0.0157668
777.190	0.0154677
777.268	0.0154194
777.346	0.0156937
777.424	0.0155499
777.503	0.0154791
777.581	0.0156993
777.659	0.0155917
777.737	0.0154991
777.815	0.0156950
777.893	0.0157208
777.971	0.0156204
778.049	0.0156496
778.128	0.0155075
778.206	0.0156388
778.284	0.0156462
778.362	0.0156085
778.440	0.0155909
778.518	0.0157276
778.596	0.0156675
778.674	0.0154432
778.753	0.0156187
778.831	0.0156913
778.909	0.0156087
778.987	0.0155329
779.065	0.0156618
779.143	0.0154610
779.221	0.0154691
779.299	0.0155604
779.378	0.0156338
779.456	0.0154749
779.534	0.0155319
779.612	0.0155232
779.690	0.0155972
779.768	0.0153914
779.846	0.0154771
779.924	0.0155276
780.003	0.0157287
780.081	0.0155512
780.159	0.0155698
780.237	0.0156091
780.315	0.0156339
780.393	0.0156662
780.471	0.0155678
780.549	0.0155119
780.628	0.0154850
780.706	0.0155666
780.784	0.0156767
780.862	0.0156601
780.940	0.0155328
781.018	0.0154625
781.096	0.0156769
781.174	0.0156079
781.253	0.0155853
781.331	0.0155618
781.409	0.0156530
781.487	0.0156983
781.565	0.0156168
781.643	0.0155714
781.721	0.0157207
781.799	0.0155222
781.878	0.0155100
781.956	0.0156098
782.034	0.0156110
782.112	0.0155637
782.190	0.0155674
782.268	0.0155714
782.346	0.0155452
782.424	0.0155287
782.503	0.0156583
782.581	0.0156924
782.659	0.0155909
782.737	0.0157308
782.815	0.0155975
782.893	0.0156463
782.971	0.0156519
783.049	0.0156610
783.128	0.0156476
783.206	0.0157578
783.284	0.0157739
783.362	0.0157796
783.440	0.0157768
783.518	0.0156701
783.596	0.0156693
783.674	0.0157113
783.753	0.0157806
783.831	0.0156571
783.909	0.0157746
783.987	0.0157875
784.065	0.0156522
784.143	0.0156955
784.221	0.0157660
784.299	0.0156195
784.378	0.0156836
784.456	0.0156913
784.534	0.0156675
784.612	0.0158493
784.690	0.0157111
784.768	0.0156158
784.846	0.0157548
784.924	0.0157102
785.003	0.0156422
785.081	0.0156557
785.159	0.0157233
785.237	0.0156493
785.315	0.0156643
785.393	0.0155069
785.471	0.0156673
785.549	0.0155521
785.628	0.0156821
785.706	0.0156325
785.784	0.0156176
785.862	0.0155875
785.940	0.0156692
786.018	0.0156330
786.096	0.0156446
786.174	0.0155833
786.253	0.0155605
786.331	0.0155402
786.409	0.0154513
786.487	0.0155048
786.565	0.0155702
786.643	0.0155186
786.721	0.0155581
786.799	0.0154800
786.878	0.0154058
786.956	0.0155478
787.034	0.0155162
787.112	0.0154571
787.190	0.0155326
787.268	0.0155889
787.346	0.0154591
787.424	0.0155800
787.503	0.0156487
787.581	0.0154652
787.659	0.0154970
787.737	0.0154171
787.815	0.0153815
787.893	0.0155404
787.971	0.0154991
788.049	0.0154846
788.128	0.0154399
788.206	0.0155962
788.284	0.0155070
788.362	0.0156061
788.440	0.0154071
788.518	0.0154758
788.596	0.0154810
788.674	0.0154913
788.753	0.0155399
788.831	0.0154530
788.909	0.0154046
788.987	0.0154771
789.065	0.0155173
789.143	0.0154144
789.221	0.0154565
789.299	0.0155096
789.378	0.0156123
789.456	0.0155672
789.534	0.0154759
789.612	0.0154427
789.690	0.0157050
789.768	0.0155108
789.846	0.0155133
789.924	0.0154965
790.003	0.0156341
790.081	0.0155326
790.159	0.0155933
790.237	0.0156036
790.315	0.0156530
790.393	0.0155537
790.471	0.0155732
790.549	0.0155825
790.628	0.0154330
790.706	0.0156268
790.784	0.0155500
790.862	0.0156467
790.940	0.0155609
791.018	0.0155738
791.096	0.0156093
791.174	0.0156213
791.253	0.0155090
791.331	0.0156601
791.409	0.0155244
791.487	0.0155648
791.565	0.0155262
791.643	0.0154939
791.721	0.0155418
791.799	0.0154678
791.878	0.0155562
791.956	0.0155576
792.034	0.0154146
792.112	0.0156056
792.190	0.0155810
792.268	0.0155113
792.346	0.0154129
792.424	0.0155473
792.503	0.0154390
792.581	0.0154778
792.659	0.0154757
792.737	0.0152965
792.815	0.0154388
792.893	0.0154623
792.971	0.0153996
793.049	0.0153778
793.128	0.0155217
793.206	0.0152975
793.284	0.0153438
793.362	0.0153609
793.440	0.0155917
793.518	0.0155514
793.596	0.0153993
793.674	0.0154198
793.753	0.0155520
793.831	0.0154626
793.909	0.0154906
793.987	0.0154792
794.065	0.0155276
794.143	0.0154461
794.221	0.0155994
794.299	0.0156045
794.378	0.0154916
794.456	0.0154652
794.534	0.0154762
794.612	0.0153572
794.690	0.0154692
794.768	0.0153699
794.846	0.0155074
794.924	0.0154247
795.003	0.0154906
795.081	0.0153976
795.159	0.0154103
795.237	0.0154613
795.315	0.0154182
795.393	0.0155688
795.471	0.0153968
795.549	0.0154033
795.628	0.0155216
795.706	0.0154808
795.784	0.0155889
795.862	0.0154932
795.940	0.0154702
796.018	0.0154592
796.096	0.0154774
796.174	0.0156159
796.253	0.0153727
796.331	0.0155550
796.409	0.0153461
796.487	0.0154807
796.565	0.0154109
796.643	0.0154860
796.721	0.0155581
796.799	0.0154895
796.878	0.0155754
796.956	0.0155706
797.034	0.0157166
797.112	0.0154732
797.190	0.0154423
797.268	0.0153983
797.346	0.0154723
797.424	0.0156033
797.503	0.0156840
797.581	0.0156054
797.659	0.0155922
797.737	0.0156003
797.815	0.0155827
797.893	0.0157318
797.971	0.0156547
798.049	0.0155965
798.128	0.0155824
798.206	0.0156399
798.284	0.0156984
798.362	0.0156065
798.440	0.0156730
798.518	0.0156687
798.596	0.0157448
798.674	0.0157391
798.753	0.0155951
798.831	0.0156873
798.909	0.0155350
798.987	0.0155479
799.065	0.0155957
799.143	0.0156127
799.221	0.0156402
799.299	0.0155479
799.378	0.0154887
799.456	0.0155769
799.534	0.0155418
799.612	0.0155515
799.690	0.0155898
799.768	0.0156026
799.846	0.0157069
799.924	0.0155798
800.003	0.0154890
800.081	0.0154984
800.159	0.0156186
800.237	0.0157390
800.315	0.0154664
800.393	0.0154794
800.471	0.0156119
800.549	0.0155364
800.628	0.0154879
800.706	0.0155910
800.784	0.0154761
800.862	0.0153198
800.940	0.0156621
801.018	0.0156765
801.096	0.0155650
801.174	0.0154197
801.253	0.0156261
801.331	0.0155614
801.409	0.0155455
801.487	0.0155293
801.565	0.0155792
801.643	0.0156039
801.721	0.0155390
801.799	0.0156872
801.878	0.0156754
801.956	0.0156532
802.034	0.0156221
802.112	0.0156030
802.190	0.0154115
802.268	0.0155933
802.346	0.0156165
802.424	0.0157036
802.503	0.0155299
802.581	0.0154830
802.659	0.0156079
802.737	0.0155521
802.815	0.0156150
802.893	0.0156113
802.971	0.0156800
803.049	0.0156180
803.128	0.0157253
803.206	0.0156548
803.284	0.0156322
803.362	0.0156046
803.440	0.0155048
803.518	0.0156283
803.596	0.0154715
803.674	0.0156229
803.753	0.0156510
803.831	0.0155643
803.909	0.0157119
803.987	0.0156135
804.065	0.0155006
804.143	0.0156894
804.221	0.0156412
804.299	0.0156594
804.378	0.0157050
804.456	0.0157264
804.534	0.0155583
804.612	0.0154881
804.690	0.0156351
804.768	0.0156095
804.846	0.0157164
804.924	0.0156115
805.003	0.0157434
805.081	0.0157806
805.159	0.0157932
805.237	0.0156857
805.315	0.0157385
805.393	0.0157260
805.471	0.0157262
805.549	0.0155930
805.628	0.0156785
805.706	0.0157259
805.784	0.0157845
805.862	0.0156537
805.940	0.0157408
806.018	0.0156487
806.096	0.0156657
806.174	0.0156654
806.253	0.0157409
806.331	0.0156902
806.409	0.0157367
806.487	0.0157013
806.565	0.0156863
806.643	0.0156225
806.721	0.0156786
806.799	0.0156242
806.878	0.0155595
806.956	0.0156334
807.034	0.0157114
807.112	0.0156766
807.190	0.0155746
807.268	0.0156499
807.346	0.0156116
807.424	0.0154488
807.503	0.0155700
807.581	0.0155301
807.659	0.0155978
807.737	0.0155158
807.815	0.0155465
807.893	0.0155667
807.971	0.0155170
808.049	0.0154365
808.128	0.0155545
808.206	0.0155225
808.284	0.0154833
808.362	0.0155260
808.440	0.0155117
808.518	0.0155386
808.596	0.0155765
808.674	0.0154448
808.753	0.0155675
808.831	0.0154324
808.909	0.0154439
808.987	0.0155245
809.065	0.0154815
809.143	0.0155519
809.221	0.0154351
809.299	0.0154469
809.378	0.0154079
809.456	0.0155786
809.534	0.0154321
809.612	0.0155186
809.690	0.0154939
809.768	0.0154031
809.846	0.0155576
809.924	0.0154393
810.003	0.0155488
810.081	0.0155058
810.159	0.0156200
810.237	0.0155847
810.315	0.0155070
810.393	0.0155667
810.471	0.0156999
810.549	0.0154838
810.628	0.0155431
810.706	0.0156211
810.784	0.0157059
810.862	0.0156286
810.940	0.0156178
811.018	0.0155513
811.096	0.0155956
811.174	0.0156065
811.253	0.0155892
811.331	0.0156421
811.409	0.0156268
811.487	0.0155502
811.565	0.0155764
811.643	0.0155585
811.721	0.0154894
811.799	0.0156047
811.878	0.0155649
811.956	0.0156555
812.034	0.0155927
812.112	0.0155356
812.190	0.0155265
812.268	0.0154846
812.346	0.0155264
812.424	0.0155753
812.503	0.0155397
812.581	0.0154195
812.659	0.0153773
812.737	0.0155066
812.815	0.0155978
812.893	0.0154118
812.971	0.0155170
813.049	0.0154867
813.128	0.0154540
813.206	0.0154273
813.284	0.0154137
813.362	0.0154649
813.440	0.0155116
813.518	0.0154436
813.596	0.0154773
813.674	0.0155486
813.753	0.0153597
813.831	0.0154402
813.909	0.0156439
813.987	0.0154705
814.065	0.0155332
814.143	0.0154795
814.221	0.0154532
814.299	0.0155334
814.378	0.0155250
814.456	0.0155281
814.534	0.0154823
814.612	0.0153612
814.690	0.0155769
814.768	0.0154829
814.846	0.0155237
814.924	0.0155950
815.003	0.0154811
815.081	0.0155234
815.159	0.0155508
815.237	0.0154980
815.315	0.0155359
815.393	0.0156025
815.471	0.0156262
815.549	0.0156833
815.628	0.0155520
815.706	0.0156246
815.784	0.0155326
815.862	0.0155445
815.940	0.0155747
816.018	0.0157635
816.096	0.0156355
816.174	0.0154493
816.253	0.0155060
816.331	0.0155350
816.409	0.0155769
816.487	0.0156039
816.565	0.0155029
816.643	0.0154636
816.721	0.0154804
816.799	0.0155173
816.878	0.0154838
816.956	0.0155476
817.034	0.0155435
817.112	0.0154547
817.190	0.0154867
817.268	0.0155489
817.346	0.0155167
817.424	0.0155097
817.503	0.0154794
817.581	0.0153725
817.659	0.0154816
817.737	0.0154854
817.815	0.0154321
817.893	0.0153519
817.971	0.0154576
818.049	0.0154504
818.128	0.0154646
818.206	0.0155561
818.284	0.0155782
818.362	0.0155624
818.440	0.0155304
818.518	0.0155385
818.596	0.0155347
818.674	0.0155694
818.753	0.0154818
818.831	0.0155656
818.909	0.0153932
818.987	0.0155067
819.065	0.0155133
819.143	0.0154636
819.221	0.0154932
819.299	0.0153818
819.378	0.0155856
819.456	0.0155489
819.534	0.0156305
819.612	0.0154690
819.690	0.0155815
819.768	0.0155319
819.846	0.0156173
819.924	0.0154900
820.003	0.0155297
820.081	0.0157204
820.159	0.0155025
820.237	0.0155672
820.315	0.0157314
820.393	0.0155677
820.471	0.0156151
820.549	0.0156383
820.628	0.0155442
820.706	0.0155068
820.784	0.0156268
820.862	0.0156190
820.940	0.0155473
821.018	0.0156129
821.096	0.0156049
821.174	0.0154717
821.253	0.0155727
821.331	0.0155943
821.409	0.0155164
821.487	0.0156902
821.565	0.0155833
821.643	0.0155270
821.721	0.0156619
821.799	0.0156461
821.878	0.0156653
821.956	0.0154526
822.034	0.0156361
822.112	0.0155450
822.190	0.0154670
822.268	0.0155100
822.346	0.0155269
822.424	0.0156261
822.503	0.0155709
822.581	0.0154810
822.659	0.0155057
822.737	0.0155505
822.815	0.0155190
822.893	0.0155808
822.971	0.0154607
823.049	0.0154568
823.128	0.0154667
823.206	0.0155252
823.284	0.0155586
823.362	0.0155785
823.440	0.0156161
823.518	0.0155135
823.596	0.0154771
823.674	0.0154485
823.753	0.0155527
823.831	0.0155730
823.909	0.0154576
823.987	0.0156461
824.065	0.0155412
824.143	0.0155996
824.221	0.0155564
824.299	0.0155129
824.378	0.0154689
824.456	0.0155666
824.534	0.0155308
824.612	0.0155402
824.690	0.0155649
824.768	0.0154762
824.846	0.0154462
824.924	0.0154963
825.003	0.0156947
825.081	0.0155063
825.159	0.0155943
825.237	0.0154681
825.315	0.0156012
825.393	0.0157478
825.471	0.0155366
825.549	0.0155695
825.628	0.0156713
825.706	0.0157314
825.784	0.0158061
825.862	0.0156860
825.940	0.0155215
826.018	0.0155605
826.096	0.0155787
826.174	0.0156027
826.253	0.0157169
826.331	0.0157198
826.409	0.0154945
826.487	0.0155376
826.565	0.0155214
826.643	0.0154910
826.721	0.0154971
826.799	0.0155977
826.878	0.0156078
826.956	0.0155105
827.034	0.0156090
827.112	0.0155696
827.190	0.0155109
827.268	0.0155735
827.346	0.0156824
827.424	0.0157825
827.503	0.0155751
827.581	0.0155592
827.659	0.0155582
827.737	0.0156532
827.815	0.0155054
827.893	0.0154588
827.971	0.0155228
828.049	0.0154692
828.128	0.0155749
828.206	0.0156406
828.284	0.0156179
828.362	0.0156039
828.440	0.0155830
828.518	0.0154719
828.596	0.0153879
828.674	0.0156074
828.753	0.0155061
828.831	0.0155538
828.909	0.0154769
828.987	0.0157196
829.065	0.0155163
829.143	0.0154958
829.221	0.0155287
829.299	0.0155673
829.378	0.0155887
829.456	0.0156030
829.534	0.0154285
829.612	0.0154488
829.690	0.0154930
829.768	0.0156059
829.846	0.0156596
829.924	0.0154901
830.003	0.0154732
830.081	0.0156260
830.159	0.0156530
830.237	0.0155946
830.315	0.0155665
830.393	0.0155531
830.471	0.0155195
830.549	0.0156504
830.628	0.0155566
830.706	0.0155849
830.784	0.0154858
830.862	0.0156191
830.940	0.0155369
831.018	0.0155415
831.096	0.0156367
831.174	0.0156934
831.253	0.0156084
831.331	0.0155428
831.409	0.0156737
831.487	0.0156853
831.565	0.0155736
831.643	0.0157124
831.721	0.0156390
831.799	0.0157134
831.878	0.0155985
831.956	0.0156763
832.034	0.0156685
832.112	0.0155615
832.190	0.0156268
832.268	0.0156598
832.346	0.0156667
832.424	0.0157210
832.503	0.0156570
832.581	0.0157065
832.659	0.0156855
832.737	0.0156402
832.815	0.0155724
832.893	0.0157121
832.971	0.0156171
833.049	0.0156216
833.128	0.0157558
833.206	0.0155843
833.284	0.0156030
833.362	0.0156145
833.440	0.0155319
833.518	0.0155737
833.596	0.0156873
833.674	0.0156467
833.753	0.0156698
833.831	0.0156555
833.909	0.0156041
833.987	0.0155939
834.065	0.0157214
834.143	0.0157258
834.221	0.0155766
834.299	0.0153685
834.378	0.0155955
834.456	0.0156252
834.534	0.0156912
834.612	0.0154781
834.690	0.0156468
834.768	0.0156007
834.846	0.0156199
834.924	0.0155932
835.003	0.0156110
835.081	0.0156110
835.159	0.0155795
835.237	0.0156046
835.315	0.0155568
835.393	0.0156569
835.471	0.0155377
835.549	0.0153912
835.628	0.0155759
835.706	0.0156805
835.784	0.0156098
835.862	0.0154932
835.940	0.0155812
836.018	0.0155577
836.096	0.0156638
836.174	0.0155667
836.253	0.0154706
836.331	0.0155519
836.409	0.0155382
836.487	0.0155842
836.565	0.0154955
836.643	0.0154685
836.721	0.0154218
836.799	0.0155518
836.878	0.0155653
836.956	0.0155148
837.034	0.0155392
837.112	0.0157153
837.190	0.0155697
837.268	0.0154100
837.346	0.0155312
837.424	0.0155364
837.503	0.0155527
837.581	0.0156024
837.659	0.0156235
837.737	0.0154803
837.815	0.0155916
837.893	0.0155540
837.971	0.0154118
838.049	0.0156064
838.128	0.0156155
838.206	0.0155159
838.284	0.0155727
838.362	0.0157604
838.440	0.0154633
838.518	0.0156133
838.596	0.0157025
838.674	0.0155652
838.753	0.0155284
838.831	0.0155291
838.909	0.0156575
838.987	0.0155908
839.065	0.0155785
839.143	0.0156306
839.221	0.0155516
839.299	0.0155103
839.378	0.0155629
839.456	0.0157096
839.534	0.0156521
839.612	0.0156818
839.690	0.0155998
839.768	0.0157130
839.846	0.0156242
839.924	0.0156490
840.003	0.0155872
840.081	0.0157302
840.159	0.0156011
840.237	0.0156047
840.315	0.0158105
840.393	0.0157520
840.471	0.0156592
840.549	0.0155489
840.628	0.0155771
840.706	0.0155942
840.784	0.0156724
840.862	0.0156923
840.940	0.0156006
841.018	0.0156725
841.096	0.0156060
841.174	0.0156616
841.253	0.0157711
841.331	0.0155679
841.409	0.0155624
841.487	0.0155540
841.565	0.0156374
841.643	0.0156930
841.721	0.0155962
841.799	0.0155831
841.878	0.0156360
841.956	0.0155650
842.034	0.0155836
842.112	0.0156856
842.190	0.0155803
842.268	0.0155558
842.346	0.0156174
842.424	0.0154893
842.503	0.0155701
842.581	0.0155356
842.659	0.0156382
842.737	0.0155786
842.815	0.0155596
842.893	0.0156051
842.971	0.0155239
843.049	0.0154116
843.128	0.0155531
843.206	0.0154959
843.284	0.0155280
843.362	0.0153642
843.440	0.0154096
843.518	0.0154657
843.596	0.0154990
843.674	0.0154700
843.753	0.0154382
843.831	0.0154167
843.909	0.0153850
843.987	0.0154973
844.065	0.0154509
844.143	0.0154517
844.221	0.0155425
844.299	0.0153024
844.378	0.0153921
844.456	0.0154640
844.534	0.0155560
844.612	0.0154689
844.690	0.0154343
844.768	0.0153938
844.846	0.0152873
844.924	0.0154596
845.003	0.0153902
845.081	0.0153082
845.159	0.0154932
845.237	0.0155022
845.315	0.0154791
845.393	0.0154717
845.471	0.0155008
845.549	0.0155694
845.628	0.0154386
845.706	0.0154317
845.784	0.0154333
845.862	0.0155322
845.940	0.0155775
846.018	0.0155764
846.096	0.0155015
846.174	0.0154952
846.253	0.0155697
846.331	0.0156094
846.409	0.0156797
846.487	0.0155940
846.565	0.0156583
846.643	0.0157387
846.721	0.0155864
846.799	0.0156088
846.878	0.0156068
846.956	0.0155330
847.034	0.0155933
847.112	0.0155963
847.190	0.0155787
847.268	0.0156580
847.346	0.0156033
847.424	0.0155604
847.503	0.0155252
847.581	0.0154793
847.659	0.0155183
847.737	0.0154488
847.815	0.0155640
847.893	0.0154268
847.971	0.0154798
848.049	0.0155394
848.128	0.0156344
848.206	0.0155754
848.284	0.0154965
848.362	0.0155293
848.440	0.0156269
848.518	0.0155635
848.596	0.0155624
848.674	0.0156797
848.753	0.0155427
848.831	0.0155698
848.909	0.0155943
848.987	0.0155173
849.065	0.0155539
849.143	0.0156370
849.221	0.0155160
849.299	0.0156419
849.378	0.0158132
849.456	0.0155667
849.534	0.0155164
849.612	0.0155190
849.690	0.0156259
849.768	0.0154877
849.846	0.0155666
849.924	0.0156689
850.003	0.0156657
850.081	0.0156087
850.159	0.0154913
850.237	0.0156934
850.315	0.0156709
850.393	0.0154988
850.471	0.0156345
850.549	0.0155244
850.628	0.0155508
850.706	0.0155116
850.784	0.0155910
850.862	0.0155865
850.940	0.0154665
851.018	0.0154952
851.096	0.0155504
851.174	0.0156644
851.253	0.0154985
851.331	0.0153570
851.409	0.0155367
851.487	0.0155430
851.565	0.0156013
851.643	0.0155797
851.721	0.0155584
851.799	0.0155276
851.878	0.0155233
851.956	0.0156667
852.034	0.0155869
852.112	0.0154465
852.190	0.0155762
852.268	0.0155624
852.346	0.0155670
852.424	0.0155298
852.503	0.0154372
852.581	0.0154953
852.659	0.0154305
852.737	0.0155257
852.815	0.0155863
852.893	0.0153405
852.971	0.0154128
853.049	0.0154599
853.128	0.0154144
853.206	0.0155806
853.284	0.0155415
853.362	0.0154186
853.440	0.0155516
853.518	0.0154340
853.596	0.0154653
853.674	0.0156760
853.753	0.0155763
853.831	0.0156252
853.909	0.0156602
853.987	0.0157018
854.065	0.0157016
854.143	0.0156986
854.221	0.0156896
854.299	0.0156542
854.378	0.0158189
854.456	0.0157236
854.534	0.0156307
854.612	0.0156010
854.690	0.0156155
854.768	0.0157166
854.846	0.0157054
854.924	0.0157084
855.003	0.0156607
855.081	0.0157140
855.159	0.0156274
855.237	0.0156822
855.315	0.0156394
855.393	0.0156032
855.471	0.0156528
855.549	0.0155473
855.628	0.0156683
855.706	0.0155524
855.784	0.0155019
855.862	0.0157058
855.940	0.0157561
856.018	0.0156966
856.096	0.0156882
856.174	0.0156629
856.253	0.0156403
856.331	0.0157757
856.409	0.0157567
856.487	0.0156528
856.565	0.0156773
856.643	0.0156446
856.721	0.0157104
856.799	0.0157000
856.878	0.0156660
856.956	0.0156246
857.034	0.0156331
857.112	0.0157000
857.190	0.0155383
857.268	0.0155656
857.346	0.0156382
857.424	0.0156692
857.503	0.0157195
857.581	0.0156271
857.659	0.0155701
857.737	0.0156891
857.815	0.0156617
857.893	0.0155735
857.971	0.0156200
858.049	0.0155793
858.128	0.0157414
858.206	0.0156149
858.284	0.0155303
858.362	0.0155541
858.440	0.0155671
858.518	0.0155512
858.596	0.0156476
858.674	0.0156594
858.753	0.0156126
858.831	0.0157217
858.909	0.0157349
858.987	0.0155997
859.065	0.0155584
859.143	0.0155223
859.221	0.0155441
859.299	0.0156359
859.378	0.0156876
859.456	0.0155437
859.534	0.0154549
859.612	0.0156648
859.690	0.0154609
859.768	0.0156032
859.846	0.0154971
859.924	0.0154697
860.003	0.0154977
860.081	0.0155378
860.159	0.0155326
860.237	0.0155310
860.315	0.0154481
860.393	0.0154158
860.471	0.0155484
860.549	0.0155617
860.628	0.0155165
860.706	0.0154588
860.784	0.0155509
860.862	0.0154576
860.940	0.0156858
861.018	0.0156095
861.096	0.0155503
861.174	0.0154865
861.253	0.0156133
861.331	0.0157175
861.409	0.0156241
861.487	0.0156447
861.565	0.0155837
861.643	0.0155933
861.721	0.0155827
861.799	0.0156676
861.878	0.0155537
861.956	0.0155654
862.034	0.0155220
862.112	0.0156094
862.190	0.0157301
862.268	0.0156250
862.346	0.0155092
862.424	0.0154997
862.503	0.0155385
862.581	0.0156783
862.659	0.0156329
862.737	0.0157281
862.815	0.0156879
862.893	0.0157336
862.971	0.0156155
863.049	0.0156614
863.128	0.0155776
863.206	0.0155811
863.284	0.0157959
863.362	0.0156648
863.440	0.0157017
863.518	0.0156728
863.596	0.0155946
863.674	0.0156249
863.753	0.0155776
863.831	0.0157633
863.909	0.0155565
863.987	0.0157185
864.065	0.0157526
864.143	0.0156145
864.221	0.0156157
864.299	0.0156818
864.378	0.0155162
864.456	0.0155714
864.534	0.0155986
864.612	0.0156168
864.690	0.0156380
864.768	0.0154431
864.846	0.0156222
864.924	0.0157211
865.003	0.0155511
865.081	0.0154572
865.159	0.0155985
865.237	0.0156615
865.315	0.0155024
865.393	0.0154876
865.471	0.0156478
865.549	0.0156229
865.628	0.0154944
865.706	0.0154704
865.784	0.0155109
865.862	0.0155832
865.940	0.0155369
866.018	0.0156342
866.096	0.0154916
866.174	0.0155334
866.253	0.0155864
866.331	0.0156962
866.409	0.0155345
866.487	0.0157444
866.565	0.0153719
866.643	0.0154562
866.721	0.0155705
866.799	0.0156051
866.878	0.0155905
866.956	0.0155399
867.034	0.0155605
867.112	0.0155566
867.190	0.0156570
867.268	0.0155074
867.346	0.0153791
867.424	0.0156039
867.503	0.0155479
867.581	0.0154730
867.659	0.0155097
867.737	0.0154707
867.815	0.0154001
867.893	0.0154794
867.971	0.0155654
868.049	0.0156306
868.128	0.0155595
868.206	0.0154787
868.284	0.0155071
868.362	0.0156374
868.440	0.0156178
868.518	0.0154573
868.596	0.0153793
868.674	0.0155217
868.753	0.0154845
868.831	0.0155141
868.909	0.0156440
868.987	0.0154082
869.065	0.0155539
869.143	0.0155925
869.221	0.0155408
869.299	0.0155595
869.378	0.0155101
869.456	0.0156429
869.534	0.0156310
869.612	0.0155712
869.690	0.0153883
869.768	0.0154679
869.846	0.0156287
869.924	0.0155853
870.003	0.0154770
870.081	0.0155293
870.159	0.0154723
870.237	0.0153984
870.315	0.0154060
870.393	0.0155341
870.471	0.0155530
870.549	0.0154778
870.628	0.0154677
870.706	0.0156394
870.784	0.0155058
870.862	0.0154701
870.940	0.0155885
871.018	0.0155107
871.096	0.0155773
871.174	0.0155698
871.253	0.0153500
871.331	0.0154746
871.409	0.0154670
871.487	0.0155288
871.565	0.0155727
871.643	0.0154342
871.721	0.0155015
871.799	0.0155094
871.878	0.0155713
871.956	0.0156322
872.034	0.0155150
872.112	0.0154797
872.190	0.0154828
872.268	0.0156172
872.346	0.0155345
872.424	0.0154455
872.503	0.0155026
872.581	0.0154379
872.659	0.0155003
872.737	0.0154981
872.815	0.0155287
872.893	0.0155119
872.971	0.0156138
873.049	0.0156284
873.128	0.0153857
873.206	0.0153354
873.284	0.0154919
873.362	0.0154842
873.440	0.0153481
873.518	0.0154953
873.596	0.0154739
873.674	0.0154520
873.753	0.0154126
873.831	0.0153972
873.909	0.0155236
873.987	0.0154769
874.065	0.0152877
874.143	0.0153188
874.221	0.0155755
874.299	0.0155209
874.378	0.0154404
874.456	0.0155809
874.534	0.0154016
874.612	0.0154138
874.690	0.0154496
874.768	0.0154258
874.846	0.0153789
874.924	0.0153929
875.003	0.0155276
875.081	0.0155511
875.159	0.0154799
875.237	0.0154827
875.315	0.0153962
875.393	0.0154072
875.471	0.0153388
875.549	0.0156087
875.628	0.0155479
875.706	0.0154149
875.784	0.0154884
875.862	0.0154867
875.940	0.0154701
876.018	0.0155066
876.096	0.0155269
876.174	0.0154389
876.253	0.0155931
876.331	0.0156087
876.409	0.0155260
876.487	0.0155505
876.565	0.0155398
876.643	0.0154380
876.721	0.0155244
876.799	0.0156622
876.878	0.0155685
876.956	0.0153964
877.034	0.0156135
877.112	0.0154708
877.190	0.0155089
877.268	0.0155083
877.346	0.0155568
877.424	0.0156318
877.503	0.0155070
877.581	0.0154590
877.659	0.0155247
877.737	0.0155129
877.815	0.0156107
877.893	0.0155706
877.971	0.0156683
878.049	0.0155170
878.128	0.0154301
878.206	0.0154114
878.284	0.0156624
878.362	0.0157844
878.440	0.0155787
878.518	0.0154502
878.596	0.0155011
878.674	0.0156034
878.753	0.0156547
878.831	0.0156267
878.909	0.0155611
878.987	0.0156708
879.065	0.0156481
879.143	0.0154822
879.221	0.0155493
879.299	0.0155917
879.378	0.0156371
879.456	0.0156048
879.534	0.0157341
879.612	0.0156311
879.690	0.0157749
879.768	0.0157241
879.846	0.0156077
879.924	0.0156231
880.003	0.0156618
880.081	0.0156081
880.159	0.0154713
880.237	0.0156206
880.315	0.0155942
880.393	0.0156624
880.471	0.0156902
880.549	0.0156721
880.628	0.0156019
880.706	0.0155502
880.784	0.0155525
880.862	0.0156622
880.940	0.0155532
881.018	0.0156660
881.096	0.0156293
881.174	0.0155841
881.253	0.0157372
881.331	0.0156401
881.409	0.0157153
881.487	0.0155265
881.565	0.0155623
881.643	0.0155644
881.721	0.0156499
881.799	0.0156196
881.878	0.0155980
881.956	0.0155745
882.034	0.0156802
882.112	0.0155184
882.190	0.0156528
882.268	0.0155362
882.346	0.0155599
882.424	0.0155059
882.503	0.0156580
882.581	0.0157074
882.659	0.0156597
882.737	0.0156654
882.815	0.0156585
882.893	0.0156618
882.971	0.0155534
883.049	0.0157346
883.128	0.0156331
883.206	0.0156419
883.284	0.0154974
883.362	0.0156193
883.440	0.0156790
883.518	0.0154073
883.596	0.0156176
883.674	0.0155525
883.753	0.0155397
883.831	0.0156123
883.909	0.0154948
883.987	0.0155287
884.065	0.0154511
884.143	0.0155404
884.221	0.0155529
884.299	0.0155873
884.378	0.0154855
884.456	0.0155313
884.534	0.0154662
884.612	0.0155817
884.690	0.0153977
884.768	0.0154896
884.846	0.0155509
884.924	0.0155762
885.003	0.0156466
885.081	0.0156192
885.159	0.0156619
885.237	0.0156214
885.315	0.0156786
885.393	0.0155623
885.471	0.0156372
885.549	0.0155734
885.628	0.0157107
885.706	0.0156238
885.784	0.0156063
885.862	0.0155835
885.940	0.0156395
886.018	0.0156515
886.096	0.0156935
886.174	0.0156866
886.253	0.0158174
886.331	0.0156851
886.409	0.0156321
886.487	0.0156134
886.565	0.0155682
886.643	0.0156805
886.721	0.0156351
886.799	0.0157655
886.878	0.0156657
886.956	0.0156451
887.034	0.0155940
887.112	0.0157253
887.190	0.0156142
887.268	0.0155656
887.346	0.0156386
887.424	0.0156747
887.503	0.0157001
887.581	0.0156114
887.659	0.0156629
887.737	0.0156606
887.815	0.0155695
887.893	0.0155669
887.971	0.0155536
888.049	0.0157183
888.128	0.0155560
888.206	0.0154659
888.284	0.0155894
888.362	0.0155688
888.440	0.0155054
888.518	0.0155602
888.596	0.0155777
888.674	0.0154826
888.753	0.0154650
888.831	0.0156474
888.909	0.0155225
888.987	0.0156032
889.065	0.0155501
889.143	0.0154751
889.221	0.0155263
889.299	0.0155026
889.378	0.0154913
889.456	0.0155383
889.534	0.0155535
889.612	0.0155721
889.690	0.0155412
889.768	0.0155441
889.846	0.0156418
889.924	0.0155392
890.003	0.0155036
890.081	0.0154726
890.159	0.0154920
890.237	0.0154770
890.315	0.0154129
890.393	0.0154488
890.471	0.0154617
890.549	0.0155054
890.628	0.0154997
890.706	0.0154645
890.784	0.0155343
890.862	0.0154493
890.940	0.0154542
891.018	0.0154470
891.096	0.0153074
891.174	0.0153702
891.253	0.0153388
891.331	0.0155068
891.409	0.0153958
891.487	0.0154189
891.565	0.0152966
891.643	0.0153828
891.721	0.0154539
891.799	0.0153856
891.878	0.0154154
891.956	0.0153603
892.034	0.0153814
892.112	0.0153682
892.190	0.0153965
892.268	0.0154630
892.346	0.0153436
892.424	0.0153215
892.503	0.0155714
892.581	0.0154684
892.659	0.0154102
892.737	0.0154632
892.815	0.0154974
892.893	0.0154613
892.971	0.0155719
893.049	0.0155415
893.128	0.0157102
893.206	0.0155367
893.284	0.0155277
893.362	0.0155673
893.440	0.0156162
893.518	0.0155109
893.596	0.0154166
893.674	0.0155859
893.753	0.0154861
893.831	0.0154884
893.909	0.0156770
893.987	0.0155260
894.065	0.0155012
894.143	0.0155377
894.221	0.0154698
894.299	0.0155348
894.378	0.0155122
894.456	0.0154996
894.534	0.0155217
894.612	0.0155328
894.690	0.0155009
894.768	0.0155959
894.846	0.0155831
894.924	0.0154562
895.003	0.0155651
895.081	0.0155742
895.159	0.0155448
895.237	0.0153644
895.315	0.0154745
895.393	0.0155749
895.471	0.0154256
895.549	0.0157024
895.628	0.0155119
895.706	0.0154709
895.784	0.0154487
895.862	0.0154089
895.940	0.0156734
896.018	0.0154771
896.096	0.0154929
896.174	0.0154482
896.253	0.0154240
896.331	0.0153974
896.409	0.0155185
896.487	0.0155111
896.565	0.0154667
896.643	0.0154524
896.721	0.0155223
896.799	0.0155611
896.878	0.0155190
896.956	0.0155972
897.034	0.0155195
897.112	0.0155405
897.190	0.0155691
897.268	0.0156586
897.346	0.0155910
897.424	0.0154781
897.503	0.0156258
897.581	0.0156717
897.659	0.0155163
897.737	0.0155349
897.815	0.0155740
897.893	0.0155369
897.971	0.0155061
898.049	0.0155450
898.128	0.0154535
898.206	0.0155149
898.284	0.0156332
898.362	0.0156063
898.440	0.0155466
898.518	0.0154228
898.596	0.0154710
898.674	0.0156091
898.753	0.0155978
898.831	0.0154832
898.909	0.0155526
898.987	0.0155183
899.065	0.0155835
899.143	0.0155644
899.221	0.0155724
899.299	0.0154949
899.378	0.0154990
899.456	0.0154923
899.534	0.0155132
899.612	0.0154322
899.690	0.0153542
899.768	0.0156630
899.846	0.0155479
899.924	0.0154906
900.003	0.0154936
900.081	0.0154913
900.159	0.0154312
900.237	0.0155639
900.315	0.0155232
900.393	0.0155014
900.471	0.0155499
900.549	0.0153790
900.628	0.0154772
900.706	0.0155381
900.784	0.0156300
900.862	0.0156370
900.940	0.0156489
901.018	0.0156750
901.096	0.0156087
901.174	0.0156554
901.253	0.0156747
901.331	0.0156992
901.409	0.0155403
901.487	0.0156424
901.565	0.0156679
901.643	0.0156707
901.721	0.0156854
901.799	0.0156355
901.878	0.0156339
901.956	0.0156675
902.034	0.0156301
902.112	0.0156123
902.190	0.0157297
902.268	0.0155370
902.346	0.0156853
902.424	0.0155713
902.503	0.0156000
902.581	0.0155918
902.659	0.0155847
902.737	0.0156701
902.815	0.0156262
902.893	0.0155875
902.971	0.0156546
903.049	0.0156932
903.128	0.0154731
903.206	0.0155693
903.284	0.0157149
903.362	0.0156370
903.440	0.0155665
903.518	0.0155328
903.596	0.0155244
903.674	0.0155009
903.753	0.0155382
903.831	0.0155270
903.909	0.0155032
903.987	0.0156133
904.065	0.0154664
904.143	0.0155078
904.221	0.0154570
904.299	0.0154000
904.378	0.0154228
904.456	0.0155965
904.534	0.0154999
904.612	0.0156164
904.690	0.0153902
904.768	0.0155486
904.846	0.0155593
904.924	0.0155760
905.003	0.0153871
905.081	0.0155231
905.159	0.0155883
905.237	0.0155779
905.315	0.0155826
905.393	0.0154717
905.471	0.0155540
905.549	0.0154328
905.628	0.0154659
905.706	0.0154808
905.784	0.0155311
905.862	0.0155759
905.940	0.0154446
906.018	0.0155776
906.096	0.0156093
906.174	0.0154739
906.253	0.0155100
906.331	0.0154030
906.409	0.0155795
906.487	0.0156305
906.565	0.0154227
906.643	0.0155831
906.721	0.0155605
906.799	0.0154712
906.878	0.0154984
906.956	0.0156351
907.034	0.0156104
907.112	0.0156023
907.190	0.0157344
907.268	0.0156757
907.346	0.0156646
907.424	0.0156551
907.503	0.0155598
907.581	0.0156252
907.659	0.0156246
907.737	0.0155851
907.815	0.0157063
907.893	0.0156598
907.971	0.0155997
908.049	0.0154755
908.128	0.0156084
908.206	0.0156759
908.284	0.0156396
908.362	0.0154793
908.440	0.0154094
908.518	0.0154993
908.596	0.0156075
908.674	0.0156011
908.753	0.0154558
908.831	0.0155016
908.909	0.0155999
908.987	0.0154649
909.065	0.0154977
909.143	0.0154323
909.221	0.0154477
909.299	0.0155663
909.378	0.0155902
909.456	0.0155311
909.534	0.0155370
909.612	0.0155267
909.690	0.0154822
909.768	0.0155033
909.846	0.0156518
909.924	0.0154770
910.003	0.0155741
910.081	0.0154118
910.159	0.0155685
910.237	0.0154568
910.315	0.0155976
910.393	0.0154776
910.471	0.0155843
910.549	0.0155612
910.628	0.0156080
910.706	0.0156197
910.784	0.0155535
910.862	0.0155869
910.940	0.0155273
911.018	0.0155902
911.096	0.0156465
911.174	0.0153693
911.253	0.0154967
911.331	0.0154877
911.409	0.0155490
911.487	0.0156338
911.565	0.0153910
911.643	0.0156229
911.721	0.0156183
911.799	0.0155998
911.878	0.0154982
911.956	0.0155878
912.034	0.0155695
912.112	0.0155608
912.190	0.0155456
912.268	0.0154195
912.346	0.0154677
912.424	0.0155716
912.503	0.0155264
912.581	0.0154446
912.659	0.0155724
912.737	0.0155338
912.815	0.0154187
912.893	0.0154440
912.971	0.0155928
913.049	0.0154352
913.128	0.0154606
913.206	0.0154168
913.284	0.0156310
913.362	0.0156231
913.440	0.0156012
913.518	0.0155679
913.596	0.0156536
913.674	0.0155225
913.753	0.0156454
913.831	0.0155198
913.909	0.0155296
913.987	0.0156504
914.065	0.0156754
914.143	0.0154549
914.221	0.0154999
914.299	0.0154621
914.378	0.0155334
914.456	0.0155038
914.534	0.0157550
914.612	0.0154336
914.690	0.0155264
914.768	0.0155081
914.846	0.0157417
914.924	0.0155056
915.003	0.0154051
915.081	0.0156099
915.159	0.0155920
915.237	0.0154042
915.315	0.0156444
915.393	0.0156799
915.471	0.0156873
915.549	0.0154993
915.628	0.0155894
915.706	0.0155633
915.784	0.0154562
915.862	0.0154217
915.940	0.0155730
916.018	0.0154704
916.096	0.0154702
916.174	0.0155652
916.253	0.0153654
916.331	0.0155913
916.409	0.0154655
916.487	0.0155548
916.565	0.0155886
916.643	0.0154752
916.721	0.0155042
916.799	0.0154615
916.878	0.0154996
916.956	0.0154870
917.034	0.0155592
917.112	0.0154985
917.190	0.0155253
917.268	0.0153892
917.346	0.0154619
917.424	0.0155046
917.503	0.0155079
917.581	0.0155434
917.659	0.0155156
917.737	0.0156460
917.815	0.0155491
917.893	0.0155130
917.971	0.0155072
918.049	0.0155732
918.128	0.0154630
918.206	0.0155348
918.284	0.0155708
918.362	0.0155790
918.440	0.0157580
918.518	0.0155025
918.596	0.0154766
918.674	0.0156139
918.753	0.0155422
918.831	0.0154575
918.909	0.0156111
918.987	0.0154185
919.065	0.0156979
919.143	0.0155108
919.221	0.0157116
919.299	0.0157015
919.378	0.0156359
919.456	0.0155607
919.534	0.0154237
919.612	0.0155746
919.690	0.0155363
919.768	0.0155972
919.846	0.0156991
919.924	0.0156061
920.003	0.0155771
920.081	0.0156550
920.159	0.0155962
920.237	0.0154775
920.315	0.0154621
920.393	0.0157140
920.471	0.0154760
920.549	0.0155113
920.628	0.0155069
920.706	0.0155462
920.784	0.0155064
920.862	0.0156211
920.940	0.0156370
921.018	0.0156335
921.096	0.0155651
921.174	0.0154929
921.253	0.0155115
921.331	0.0156900
921.409	0.0156935
921.487	0.0155945
921.565	0.0156811
921.643	0.0155318
921.721	0.0155605
921.799	0.0156191
921.878	0.0155605
921.956	0.0155863
922.034	0.0155254
922.112	0.0156066
922.190	0.0155555
922.268	0.0154527
922.346	0.0155413
922.424	0.0154532
922.503	0.0154868
922.581	0.0155701
922.659	0.0155617
922.737	0.0156111
922.815	0.0156257
922.893	0.0156161
922.971	0.0155316
923.049	0.0155544
923.128	0.0156467
923.206	0.0153550
923.284	0.0155669
923.362	0.0156256
923.440	0.0156248
923.518	0.0156459
923.596	0.0155911
923.674	0.0156549
923.753	0.0157397
923.831	0.0156633
923.909	0.0156327
923.987	0.0156196
924.065	0.0155379
924.143	0.0154902
924.221	0.0156013
924.299	0.0156044
924.378	0.0155795
924.456	0.0156083
924.534	0.0155366
924.612	0.0155874
924.690	0.0156277
924.768	0.0155957
924.846	0.0156414
924.924	0.0154170
925.003	0.0154226
925.081	0.0156416
925.159	0.0156242
925.237	0.0154914
925.315	0.0154558
925.393	0.0156628
925.471	0.0155877
925.549	0.0155016
925.628	0.0154491
925.706	0.0155355
925.784	0.0155851
925.862	0.0156060
925.940	0.0156118
926.018	0.0156086
926.096	0.0156164
926.174	0.0156533
926.253	0.0155570
926.331	0.0155737
926.409	0.0156022
926.487	0.0156372
926.565	0.0155405
926.643	0.0155206
926.721	0.0155253
926.799	0.0155639
926.878	0.0155532
926.956	0.0155058
927.034	0.0154389
927.112	0.0155170
927.190	0.0154967
927.268	0.0155749
927.346	0.0155335
927.424	0.0155544
927.503	0.0155944
927.581	0.0155572
927.659	0.0155391
927.737	0.0155437
927.815	0.0154642
927.893	0.0154871
927.971	0.0156718
928.049	0.0156509
928.128	0.0155434
928.206	0.0155196
928.284	0.0155421
928.362	0.0156385
928.440	0.0156239
928.518	0.0156940
928.596	0.0154634
928.674	0.0155193
928.753	0.0154681
928.831	0.0153960
928.909	0.0156191
928.987	0.0155257
929.065	0.0154796
929.143	0.0155503
929.221	0.0153800
929.299	0.0154693
929.378	0.0154411
929.456	0.0154825
929.534	0.0153789
929.612	0.0154412
929.690	0.0154112
929.768	0.0154158
929.846	0.0154801
929.924	0.0155348
930.003	0.0155445
930.081	0.0153986
930.159	0.0154374
930.237	0.0155370
930.315	0.0156195
930.393	0.0155949
930.471	0.0155650
930.549	0.0154214
930.628	0.0154568
930.706	0.0154002
930.784	0.0155666
930.862	0.0154377
930.940	0.0155215
931.018	0.0154312
931.096	0.0155903
931.174	0.0154704
931.253	0.0154738
931.331	0.0155411
931.409	0.0153790
931.487	0.0154633
931.565	0.0155134
931.643	0.0155106
931.721	0.0153584
931.799	0.0154720
931.878	0.0154577
931.956	0.0154391
932.034	0.0154677
932.112	0.0155350
932.190	0.0154631
932.268	0.0155666
932.346	0.0155140
932.424	0.0155367
932.503	0.0154823
932.581	0.0156783
932.659	0.0155125
932.737	0.0154949
932.815	0.0155507
932.893	0.0155434
932.971	0.0154977
933.049	0.0155836
933.128	0.0156493
933.206	0.0156160
933.284	0.0156420
933.362	0.0156963
933.440	0.0155104
933.518	0.0156187
933.596	0.0154875
933.674	0.0154721
933.753	0.0156767
933.831	0.0155736
933.909	0.0155472
933.987	0.0155293
934.065	0.0157961
934.143	0.0155798
934.221	0.0155702
934.299	0.0156273
934.378	0.0156429
934.456	0.0156538
934.534	0.0156530
934.612	0.0155464
934.690	0.0154897
934.768	0.0155167
934.846	0.0155751
934.924	0.0154803
935.003	0.0155183
935.081	0.0155656
935.159	0.0155087
935.237	0.0154128
935.315	0.0155235
935.393	0.0155074
935.471	0.0154570
935.549	0.0155045
935.628	0.0155635
935.706	0.0155482
935.784	0.0156596
935.862	0.0155489
935.940	0.0154581
936.018	0.0155305
936.096	0.0155563
936.174	0.0156891
936.253	0.0156574
936.331	0.0155251
936.409	0.0155122
936.487	0.0156771
936.565	0.0155526
936.643	0.0154826
936.721	0.0156522
936.799	0.0158206
936.878	0.0155621
936.956	0.0155564
937.034	0.0156347
937.112	0.0155164
937.190	0.0155520
937.268	0.0155163
937.346	0.0155655
937.424	0.0155684
937.503	0.0155422
937.581	0.0156802
937.659	0.0154827
937.737	0.0156675
937.815	0.0153902
937.893	0.0155475
937.971	0.0155640
938.049	0.0156337
938.128	0.0156432
938.206	0.0156073
938.284	0.0156050
938.362	0.0155482
938.440	0.0154414
938.518	0.0156394
938.596	0.0156376
938.674	0.0156710
938.753	0.0156251
938.831	0.0157014
938.909	0.0155267
938.987	0.0157817
939.065	0.0156549
939.143	0.0156255
939.221	0.0155737
939.299	0.0157203
939.378	0.0156853
939.456	0.0156203
939.534	0.0156293
939.612	0.0155596
939.690	0.0155617
939.768	0.0155012
939.846	0.0155090
939.924	0.0154806
940.003	0.0156057
940.081	0.0155694
940.159	0.0156060
940.237	0.0155549
940.315	0.0155261
940.393	0.0155013
940.471	0.0155805
940.549	0.0155785
940.628	0.0155198
940.706	0.0155033
940.784	0.0155280
940.862	0.0155092
940.940	0.0156293
941.018	0.0157022
941.096	0.0155989
941.174	0.0155452
941.253	0.0155608
941.331	0.0155518
941.409	0.0154961
941.487	0.0155847
941.565	0.0155853
941.643	0.0156474
941.721	0.0156348
941.799	0.0156150
941.878	0.0156216
941.956	0.0155466
942.034	0.0156702
942.112	0.0155960
942.190	0.0156042
942.268	0.0156532
942.346	0.0155643
942.424	0.0156091
942.503	0.0155430
942.581	0.0155906
942.659	0.0155787
942.737	0.0156236
942.815	0.0156190
942.893	0.0155785
942.971	0.0156047
943.049	0.0156777
943.128	0.0155955
943.206	0.0155920
943.284	0.0156677
943.362	0.0155147
943.440	0.0155058
943.518	0.0156908
943.596	0.0155028
943.674	0.0156325
943.753	0.0157179
943.831	0.0156615
943.909	0.0155733
943.987	0.0156090
944.065	0.0155293
944.143	0.0155816
944.221	0.0156709
944.299	0.0155782
944.378	0.0155763
944.456	0.0155379
944.534	0.0155305
944.612	0.0155389
944.690	0.0155241
944.768	0.0154725
944.846	0.0154256
944.924	0.0156316
945.003	0.0156927
945.081	0.0155579
945.159	0.0154546
945.237	0.0155786
945.315	0.0155080
945.393	0.0155629
945.471	0.0155370
945.549	0.0154491
945.628	0.0155246
945.706	0.0155932
945.784	0.0155875
945.862	0.0154929
945.940	0.0155390
946.018	0.0155061
946.096	0.0154955
946.174	0.0154789
946.253	0.0155650
946.331	0.0155734
946.409	0.0156137
946.487	0.0156825
946.565	0.0156091
946.643	0.0154919
946.721	0.0155251
946.799	0.0156150
946.878	0.0156979
946.956	0.0156091
947.034	0.0156424
947.112	0.0156345
947.190	0.0155862
947.268	0.0155672
947.346	0.0156586
947.424	0.0156260
947.503	0.0156048
947.581	0.0155456
947.659	0.0156405
947.737	0.0156731
947.815	0.0157461
947.893	0.0156800
947.971	0.0155827
948.049	0.0155954
948.128	0.0156356
948.206	0.0156348
948.284	0.0156635
948.362	0.0156656
948.440	0.0157504
948.518	0.0155008
948.596	0.0157087
948.674	0.0157216
948.753	0.0156425
948.831	0.0156316
948.909	0.0156116
948.987	0.0156680
949.065	0.0157941
949.143	0.0155318
949.221	0.0155714
949.299	0.0155609
949.378	0.0155844
949.456	0.0156339
949.534	0.0155962
949.612	0.0155789
949.690	0.0156483
949.768	0.0155067
949.846	0.0155039
949.924	0.0155356
