05/19/2022	00:54:34	Ver.	4.1	UNKNOWN
Optical Delay	630.002507	Delta X		0.078125	Sweeps	1	Scan Rate	0/0
Coordinates	Axis 1	NaN	Axis 2	NaN	Axis 3	NaN	Axis 4	NaN	Axis 5	NaN	Axis 6	0.000000
TX Power	0.000000	RX Power	0.000000

630.003	0.0157957
630.081	0.0158637
630.159	0.0157674
630.237	0.0155597
630.315	0.0157515
630.393	0.0158010
630.471	0.0158192
630.549	0.0157553
630.628	0.0157388
630.706	0.0157743
630.784	0.0157446
630.862	0.0158812
630.940	0.0156955
631.018	0.0158022
631.096	0.0157216
631.174	0.0158368
631.253	0.0157623
631.331	0.0156753
631.409	0.0157529
631.487	0.0157597
631.565	0.0157520
631.643	0.0157251
631.721	0.0156922
631.799	0.0157571
631.878	0.0158083
631.956	0.0156042
632.034	0.0156486
632.112	0.0156406
632.190	0.0157643
632.268	0.0156826
632.346	0.0155228
632.424	0.0155676
632.503	0.0158049
632.581	0.0156876
632.659	0.0157755
632.737	0.0155925
632.815	0.0157706
632.893	0.0157021
632.971	0.0158219
633.049	0.0157086
633.128	0.0156702
633.206	0.0158195
633.284	0.0156975
633.362	0.0157641
633.440	0.0156763
633.518	0.0158193
633.596	0.0158528
633.674	0.0158575
633.753	0.0158743
633.831	0.0160644
633.909	0.0158664
633.987	0.0159238
634.065	0.0157974
634.143	0.0158456
634.221	0.0159913
634.299	0.0158146
634.378	0.0157774
634.456	0.0158318
634.534	0.0157746
634.612	0.0158924
634.690	0.0158281
634.768	0.0157806
634.846	0.0156765
634.924	0.0156448
635.003	0.0158041
635.081	0.0158219
635.159	0.0156840
635.237	0.0157561
635.315	0.0157227
635.393	0.0158324
635.471	0.0157077
635.549	0.0155843
635.628	0.0158619
635.706	0.0158885
635.784	0.0158136
635.862	0.0158700
635.940	0.0157709
636.018	0.0159183
636.096	0.0158168
636.174	0.0159557
636.253	0.0158654
636.331	0.0158065
636.409	0.0157171
636.487	0.0157905
636.565	0.0158519
636.643	0.0158010
636.721	0.0158894
636.799	0.0157381
636.878	0.0156478
636.956	0.0157914
637.034	0.0159488
637.112	0.0158269
637.190	0.0158573
637.268	0.0159763
637.346	0.0159962
637.424	0.0157974
637.503	0.0158086
637.581	0.0158729
637.659	0.0159425
637.737	0.0159093
637.815	0.0160438
637.893	0.0159340
637.971	0.0157896
638.049	0.0158672
638.128	0.0158058
638.206	0.0157563
638.284	0.0156925
638.362	0.0157665
638.440	0.0157772
638.518	0.0156161
638.596	0.0155950
638.674	0.0157231
638.753	0.0156896
638.831	0.0156624
638.909	0.0156187
638.987	0.0156618
639.065	0.0156777
639.143	0.0157730
639.221	0.0157655
639.299	0.0157169
639.378	0.0157721
639.456	0.0157392
639.534	0.0157899
639.612	0.0157261
639.690	0.0157966
639.768	0.0156580
639.846	0.0156839
639.924	0.0156380
640.003	0.0156245
640.081	0.0156676
640.159	0.0156561
640.237	0.0157104
640.315	0.0156123
640.393	0.0156739
640.471	0.0155995
640.549	0.0156559
640.628	0.0156092
640.706	0.0157573
640.784	0.0158605
640.862	0.0158086
640.940	0.0158635
641.018	0.0158063
641.096	0.0157813
641.174	0.0157530
641.253	0.0158441
641.331	0.0156753
641.409	0.0158601
641.487	0.0158356
641.565	0.0158102
641.643	0.0158582
641.721	0.0158623
641.799	0.0157481
641.878	0.0156760
641.956	0.0158781
642.034	0.0157701
642.112	0.0157455
642.190	0.0157740
642.268	0.0158787
642.346	0.0157793
642.424	0.0159006
642.503	0.0156565
642.581	0.0157579
642.659	0.0157875
642.737	0.0157395
642.815	0.0157914
642.893	0.0156745
642.971	0.0156689
643.049	0.0156967
643.128	0.0156859
643.206	0.0158237
643.284	0.0156224
643.362	0.0155536
643.440	0.0157296
643.518	0.0155903
643.596	0.0157574
643.674	0.0157777
643.753	0.0158958
643.831	0.0158096
643.909	0.0158877
643.987	0.0158242
644.065	0.0156470
644.143	0.0159441
644.221	0.0160123
644.299	0.0158660
644.378	0.0159012
644.456	0.0157244
644.534	0.0158821
644.612	0.0158470
644.690	0.0158480
644.768	0.0157365
644.846	0.0157092
644.924	0.0155999
645.003	0.0157567
645.081	0.0154710
645.159	0.0154442
645.237	0.0156995
645.315	0.0157389
645.393	0.0155486
645.471	0.0157087
645.549	0.0157098
645.628	0.0157689
645.706	0.0157022
645.784	0.0157183
645.862	0.0158361
645.940	0.0158139
646.018	0.0157789
646.096	0.0158908
646.174	0.0158807
646.253	0.0160061
646.331	0.0159036
646.409	0.0158319
646.487	0.0158012
646.565	0.0158804
646.643	0.0158238
646.721	0.0157760
646.799	0.0157846
646.878	0.0155854
646.956	0.0157290
647.034	0.0155318
647.112	0.0155421
647.190	0.0155537
647.268	0.0155498
647.346	0.0155315
647.424	0.0156070
647.503	0.0154514
647.581	0.0155915
647.659	0.0157183
647.737	0.0156801
647.815	0.0157300
647.893	0.0157619
647.971	0.0157170
648.049	0.0156679
648.128	0.0156467
648.206	0.0157558
648.284	0.0157850
648.362	0.0159530
648.440	0.0158313
648.518	0.0157738
648.596	0.0157687
648.674	0.0157802
648.753	0.0158765
648.831	0.0159007
648.909	0.0157153
648.987	0.0157434
649.065	0.0157753
649.143	0.0158067
649.221	0.0158499
649.299	0.0159310
649.378	0.0157575
649.456	0.0157434
649.534	0.0158256
649.612	0.0157719
649.690	0.0158405
649.768	0.0156576
649.846	0.0158646
649.924	0.0158001
650.003	0.0156882
650.081	0.0157740
650.159	0.0157200
650.237	0.0157665
650.315	0.0158504
650.393	0.0157371
650.471	0.0157016
650.549	0.0157952
650.628	0.0158513
650.706	0.0156252
650.784	0.0156406
650.862	0.0158681
650.940	0.0160069
651.018	0.0158833
651.096	0.0159048
651.174	0.0160194
651.253	0.0160107
651.331	0.0160218
651.409	0.0160191
651.487	0.0160445
651.565	0.0161066
651.643	0.0160319
651.721	0.0158753
651.799	0.0158618
651.878	0.0159208
651.956	0.0160583
652.034	0.0158648
652.112	0.0157778
652.190	0.0157497
652.268	0.0157939
652.346	0.0158356
652.424	0.0157145
652.503	0.0157666
652.581	0.0156596
652.659	0.0156719
652.737	0.0156625
652.815	0.0157770
652.893	0.0158382
652.971	0.0157480
653.049	0.0157941
653.128	0.0157814
653.206	0.0157867
653.284	0.0157941
653.362	0.0159153
653.440	0.0159122
653.518	0.0159657
653.596	0.0159731
653.674	0.0159144
653.753	0.0159667
653.831	0.0159038
653.909	0.0157898
653.987	0.0158201
654.065	0.0159684
654.143	0.0157277
654.221	0.0157427
654.299	0.0158172
654.378	0.0158442
654.456	0.0156069
654.534	0.0158189
654.612	0.0156516
654.690	0.0157767
654.768	0.0158217
654.846	0.0155814
654.924	0.0156993
655.003	0.0156739
655.081	0.0157520
655.159	0.0158192
655.237	0.0158740
655.315	0.0159037
655.393	0.0157953
655.471	0.0158711
655.549	0.0158790
655.628	0.0159878
655.706	0.0158160
655.784	0.0157275
655.862	0.0157949
655.940	0.0159073
656.018	0.0160768
656.096	0.0157027
656.174	0.0158376
656.253	0.0158773
656.331	0.0157628
656.409	0.0156414
656.487	0.0156543
656.565	0.0157552
656.643	0.0157341
656.721	0.0155791
656.799	0.0156809
656.878	0.0157550
656.956	0.0157307
657.034	0.0156696
657.112	0.0157811
657.190	0.0157028
657.268	0.0156470
657.346	0.0157594
657.424	0.0157438
657.503	0.0157287
657.581	0.0158045
657.659	0.0157249
657.737	0.0156963
657.815	0.0158354
657.893	0.0157611
657.971	0.0158110
658.049	0.0158912
658.128	0.0158274
658.206	0.0157839
658.284	0.0159318
658.362	0.0159722
658.440	0.0158842
658.518	0.0158818
658.596	0.0159085
658.674	0.0159466
658.753	0.0159172
658.831	0.0159017
658.909	0.0159739
658.987	0.0158402
659.065	0.0157520
659.143	0.0157963
659.221	0.0157542
659.299	0.0158929
659.378	0.0156428
659.456	0.0156819
659.534	0.0157125
659.612	0.0157396
659.690	0.0156765
659.768	0.0157620
659.846	0.0157137
659.924	0.0155823
660.003	0.0155887
660.081	0.0157706
660.159	0.0155482
660.237	0.0155537
660.315	0.0154996
660.393	0.0155428
660.471	0.0154408
660.549	0.0154041
660.628	0.0155357
660.706	0.0154959
660.784	0.0154851
660.862	0.0153416
660.940	0.0155676
661.018	0.0154949
661.096	0.0155476
661.174	0.0156795
661.253	0.0157802
661.331	0.0157260
661.409	0.0157300
661.487	0.0158495
661.565	0.0157267
661.643	0.0157973
661.721	0.0157076
661.799	0.0159772
661.878	0.0159293
661.956	0.0158894
662.034	0.0159148
662.112	0.0158247
662.190	0.0158804
662.268	0.0159003
662.346	0.0159450
662.424	0.0160606
662.503	0.0158882
662.581	0.0159254
662.659	0.0159252
662.737	0.0159132
662.815	0.0159479
662.893	0.0159656
662.971	0.0159767
663.049	0.0158356
663.128	0.0159296
663.206	0.0159928
663.284	0.0159895
663.362	0.0159860
663.440	0.0159135
663.518	0.0158218
663.596	0.0157814
663.674	0.0159203
663.753	0.0159311
663.831	0.0158148
663.909	0.0156361
663.987	0.0156515
664.065	0.0155580
664.143	0.0155171
664.221	0.0155167
664.299	0.0155336
664.378	0.0154642
664.456	0.0153838
664.534	0.0154427
664.612	0.0155283
664.690	0.0155729
664.768	0.0155299
664.846	0.0154149
664.924	0.0153862
665.003	0.0154728
665.081	0.0153959
665.159	0.0154517
665.237	0.0155248
665.315	0.0154436
665.393	0.0153640
665.471	0.0155132
665.549	0.0156149
665.628	0.0157064
665.706	0.0156026
665.784	0.0156123
665.862	0.0156344
665.940	0.0156658
666.018	0.0157716
666.096	0.0158849
666.174	0.0159598
666.253	0.0159344
666.331	0.0159197
666.409	0.0159906
666.487	0.0160419
666.565	0.0161085
666.643	0.0160538
666.721	0.0160494
666.799	0.0161292
666.878	0.0160681
666.956	0.0161212
667.034	0.0161038
667.112	0.0160941
667.190	0.0159899
667.268	0.0161954
667.346	0.0159985
667.424	0.0161565
667.503	0.0160542
667.581	0.0160347
667.659	0.0160202
667.737	0.0160010
667.815	0.0159592
667.893	0.0161229
667.971	0.0159526
668.049	0.0159502
668.128	0.0160100
668.206	0.0159755
668.284	0.0157388
668.362	0.0157685
668.440	0.0158514
668.518	0.0159255
668.596	0.0156708
668.674	0.0156333
668.753	0.0155600
668.831	0.0155190
668.909	0.0156690
668.987	0.0156538
669.065	0.0155035
669.143	0.0154037
669.221	0.0154886
669.299	0.0155302
669.378	0.0155299
669.456	0.0155332
669.534	0.0155909
669.612	0.0155029
669.690	0.0155093
669.768	0.0155756
669.846	0.0156562
669.924	0.0157053
670.003	0.0155663
670.081	0.0154774
670.159	0.0158846
670.237	0.0157463
670.315	0.0158830
670.393	0.0159181
670.471	0.0159199
670.549	0.0160234
670.628	0.0160703
670.706	0.0159161
670.784	0.0161913
670.862	0.0160886
670.940	0.0161073
671.018	0.0161201
671.096	0.0160545
671.174	0.0161212
671.253	0.0161881
671.331	0.0162144
671.409	0.0160818
671.487	0.0160574
671.565	0.0159377
671.643	0.0160934
671.721	0.0158877
671.799	0.0158017
671.878	0.0158225
671.956	0.0158174
672.034	0.0159132
672.112	0.0157652
672.190	0.0157778
672.268	0.0156609
672.346	0.0158029
672.424	0.0157554
672.503	0.0157424
672.581	0.0158441
672.659	0.0157838
672.737	0.0158342
672.815	0.0158566
672.893	0.0158193
672.971	0.0160161
673.049	0.0160171
673.128	0.0160470
673.206	0.0159774
673.284	0.0157753
673.362	0.0158471
673.440	0.0159761
673.518	0.0160480
673.596	0.0160291
673.674	0.0158929
673.753	0.0159721
673.831	0.0158810
673.909	0.0158243
673.987	0.0158217
674.065	0.0157509
674.143	0.0158253
674.221	0.0158114
674.299	0.0157372
674.378	0.0157906
674.456	0.0156485
674.534	0.0156171
674.612	0.0156184
674.690	0.0157494
674.768	0.0155370
674.846	0.0154648
674.924	0.0154529
675.003	0.0156744
675.081	0.0155641
675.159	0.0155421
675.237	0.0154684
675.315	0.0155125
675.393	0.0155602
675.471	0.0157049
675.549	0.0157092
675.628	0.0156189
675.706	0.0157585
675.784	0.0157117
675.862	0.0156809
675.940	0.0156744
676.018	0.0156828
676.096	0.0156776
676.174	0.0155965
676.253	0.0155120
676.331	0.0156812
676.409	0.0157259
676.487	0.0156349
676.565	0.0157887
676.643	0.0155766
676.721	0.0156548
676.799	0.0156284
676.878	0.0157056
676.956	0.0157349
677.034	0.0156795
677.112	0.0157555
677.190	0.0158715
677.268	0.0157921
677.346	0.0158171
677.424	0.0157591
677.503	0.0158359
677.581	0.0158020
677.659	0.0158194
677.737	0.0159627
677.815	0.0159798
677.893	0.0157756
677.971	0.0157807
678.049	0.0158466
678.128	0.0158818
678.206	0.0158916
678.284	0.0158219
678.362	0.0159107
678.440	0.0159698
678.518	0.0159121
678.596	0.0158433
678.674	0.0158387
678.753	0.0158071
678.831	0.0158998
678.909	0.0159893
678.987	0.0159130
679.065	0.0159215
679.143	0.0159966
679.221	0.0159536
679.299	0.0159199
679.378	0.0160249
679.456	0.0159878
679.534	0.0158624
679.612	0.0158212
679.690	0.0158340
679.768	0.0158713
679.846	0.0157296
679.924	0.0157370
680.003	0.0157224
680.081	0.0157426
680.159	0.0155503
680.237	0.0156660
680.315	0.0155357
680.393	0.0155307
680.471	0.0156097
680.549	0.0154900
680.628	0.0156773
680.706	0.0157037
680.784	0.0156361
680.862	0.0156914
680.940	0.0157606
681.018	0.0156400
681.096	0.0157778
681.174	0.0157211
681.253	0.0157521
681.331	0.0158077
681.409	0.0158498
681.487	0.0157274
681.565	0.0156419
681.643	0.0156990
681.721	0.0157762
681.799	0.0157147
681.878	0.0157638
681.956	0.0157777
682.034	0.0157891
682.112	0.0157006
682.190	0.0158157
682.268	0.0156733
682.346	0.0158463
682.424	0.0156708
682.503	0.0158006
682.581	0.0156599
682.659	0.0155543
682.737	0.0157693
682.815	0.0157921
682.893	0.0157979
682.971	0.0156076
683.049	0.0157449
683.128	0.0157700
683.206	0.0157623
683.284	0.0157637
683.362	0.0158218
683.440	0.0158186
683.518	0.0158819
683.596	0.0158475
683.674	0.0159198
683.753	0.0159435
683.831	0.0158567
683.909	0.0159232
683.987	0.0160480
684.065	0.0160194
684.143	0.0159248
684.221	0.0158984
684.299	0.0158127
684.378	0.0158898
684.456	0.0157078
684.534	0.0158016
684.612	0.0156955
684.690	0.0156712
684.768	0.0157444
684.846	0.0155859
684.924	0.0154514
685.003	0.0156547
685.081	0.0155459
685.159	0.0154025
685.237	0.0155613
685.315	0.0154802
685.393	0.0154768
685.471	0.0154929
685.549	0.0154227
685.628	0.0153393
685.706	0.0155634
685.784	0.0156387
685.862	0.0154167
685.940	0.0156161
686.018	0.0155749
686.096	0.0155710
686.174	0.0156703
686.253	0.0156314
686.331	0.0157855
686.409	0.0157535
686.487	0.0156166
686.565	0.0157678
686.643	0.0159403
686.721	0.0159451
686.799	0.0159053
686.878	0.0159418
686.956	0.0159055
687.034	0.0160352
687.112	0.0159562
687.190	0.0160595
687.268	0.0159562
687.346	0.0160541
687.424	0.0161355
687.503	0.0160825
687.581	0.0160400
687.659	0.0160201
687.737	0.0159806
687.815	0.0159020
687.893	0.0159785
687.971	0.0160468
688.049	0.0159307
688.128	0.0158623
688.206	0.0159448
688.284	0.0158728
688.362	0.0158199
688.440	0.0159485
688.518	0.0158775
688.596	0.0158642
688.674	0.0157802
688.753	0.0159397
688.831	0.0158673
688.909	0.0159149
688.987	0.0158002
689.065	0.0157478
689.143	0.0157401
689.221	0.0157713
689.299	0.0157929
689.378	0.0157605
689.456	0.0158684
689.534	0.0156549
689.612	0.0156345
689.690	0.0155111
689.768	0.0155450
689.846	0.0154535
689.924	0.0155460
690.003	0.0153861
690.081	0.0153545
690.159	0.0154285
690.237	0.0153975
690.315	0.0154057
690.393	0.0155849
690.471	0.0154816
690.549	0.0155590
690.628	0.0155991
690.706	0.0157181
690.784	0.0156374
690.862	0.0156894
690.940	0.0158095
691.018	0.0158374
691.096	0.0159238
691.174	0.0158652
691.253	0.0159230
691.331	0.0159323
691.409	0.0158754
691.487	0.0159325
691.565	0.0159630
691.643	0.0160603
691.721	0.0161824
691.799	0.0160212
691.878	0.0161331
691.956	0.0161625
692.034	0.0160215
692.112	0.0159396
692.190	0.0160310
692.268	0.0159731
692.346	0.0158519
692.424	0.0158463
692.503	0.0159450
692.581	0.0157650
692.659	0.0156789
692.737	0.0156646
692.815	0.0156696
692.893	0.0154989
692.971	0.0155067
693.049	0.0154845
693.128	0.0155136
693.206	0.0157358
693.284	0.0155878
693.362	0.0157420
693.440	0.0156889
693.518	0.0156017
693.596	0.0157329
693.674	0.0158995
693.753	0.0158719
693.831	0.0157638
693.909	0.0158840
693.987	0.0159132
694.065	0.0158780
694.143	0.0158475
694.221	0.0158112
694.299	0.0159108
694.378	0.0158495
694.456	0.0156770
694.534	0.0157639
694.612	0.0158833
694.690	0.0157423
694.768	0.0158656
694.846	0.0157569
694.924	0.0156693
695.003	0.0156946
695.081	0.0156967
695.159	0.0157851
695.237	0.0157509
695.315	0.0158794
695.393	0.0159945
695.471	0.0158161
695.549	0.0158901
695.628	0.0158609
695.706	0.0159753
695.784	0.0159330
695.862	0.0158728
695.940	0.0158681
696.018	0.0158433
696.096	0.0157671
696.174	0.0157250
696.253	0.0157855
696.331	0.0157283
696.409	0.0156561
696.487	0.0155396
696.565	0.0155714
696.643	0.0154984
696.721	0.0153732
696.799	0.0154697
696.878	0.0155297
696.956	0.0155389
697.034	0.0153204
697.112	0.0153717
697.190	0.0154181
697.268	0.0154131
697.346	0.0153188
697.424	0.0154970
697.503	0.0154636
697.581	0.0155250
697.659	0.0156208
697.737	0.0156242
697.815	0.0157118
697.893	0.0157104
697.971	0.0156930
698.049	0.0158632
698.128	0.0159701
698.206	0.0159188
698.284	0.0160642
698.362	0.0160568
698.440	0.0160702
698.518	0.0159843
698.596	0.0161001
698.674	0.0160835
698.753	0.0162146
698.831	0.0162812
698.909	0.0161905
698.987	0.0161876
699.065	0.0161497
699.143	0.0160879
699.221	0.0159911
699.299	0.0159272
699.378	0.0159064
699.456	0.0158828
699.534	0.0158031
699.612	0.0157486
699.690	0.0156944
699.768	0.0157281
699.846	0.0155532
699.924	0.0155305
700.003	0.0155582
700.081	0.0155982
700.159	0.0156013
700.237	0.0154945
700.315	0.0155257
700.393	0.0156879
700.471	0.0157413
700.549	0.0157340
700.628	0.0157816
700.706	0.0157288
700.784	0.0159081
700.862	0.0158121
700.940	0.0157988
701.018	0.0157967
701.096	0.0157560
701.174	0.0157050
701.253	0.0156842
701.331	0.0157874
701.409	0.0156100
701.487	0.0157961
701.565	0.0157716
701.643	0.0155568
701.721	0.0156925
701.799	0.0157561
701.878	0.0157487
701.956	0.0157050
702.034	0.0157401
702.112	0.0157597
702.190	0.0157178
702.268	0.0158613
702.346	0.0158685
702.424	0.0157696
702.503	0.0158693
702.581	0.0159151
702.659	0.0158873
702.737	0.0159379
702.815	0.0159022
702.893	0.0159241
702.971	0.0159480
703.049	0.0159498
703.128	0.0159067
703.206	0.0158812
703.284	0.0158541
703.362	0.0159457
703.440	0.0158447
703.518	0.0158167
703.596	0.0157554
703.674	0.0156900
703.753	0.0157662
703.831	0.0157249
703.909	0.0155757
703.987	0.0155944
704.065	0.0154678
704.143	0.0155782
704.221	0.0154890
704.299	0.0155986
704.378	0.0154836
704.456	0.0154898
704.534	0.0155997
704.612	0.0153746
704.690	0.0155016
704.768	0.0156995
704.846	0.0156168
704.924	0.0156287
705.003	0.0156142
705.081	0.0154478
705.159	0.0156954
705.237	0.0158155
705.315	0.0158710
705.393	0.0158011
705.471	0.0157883
705.549	0.0158022
705.628	0.0157505
705.706	0.0157703
705.784	0.0159075
705.862	0.0159153
705.940	0.0158353
706.018	0.0158251
706.096	0.0157423
706.174	0.0156917
706.253	0.0157442
706.331	0.0157934
706.409	0.0158339
706.487	0.0157462
706.565	0.0157410
706.643	0.0156651
706.721	0.0155964
706.799	0.0157726
706.878	0.0158163
706.956	0.0157363
707.034	0.0158179
707.112	0.0157698
707.190	0.0159138
707.268	0.0160529
707.346	0.0160144
707.424	0.0157655
707.503	0.0158617
707.581	0.0157896
707.659	0.0157360
707.737	0.0158102
707.815	0.0157400
707.893	0.0156911
707.971	0.0157093
708.049	0.0155618
708.128	0.0156667
708.206	0.0156004
708.284	0.0155189
708.362	0.0155856
708.440	0.0153889
708.518	0.0155696
708.596	0.0156812
708.674	0.0154532
708.753	0.0155635
708.831	0.0156160
708.909	0.0155928
708.987	0.0154921
709.065	0.0156527
709.143	0.0157752
709.221	0.0156576
709.299	0.0157858
709.378	0.0158297
709.456	0.0157278
709.534	0.0157687
709.612	0.0158801
709.690	0.0159700
709.768	0.0158963
709.846	0.0158183
709.924	0.0159684
710.003	0.0159488
710.081	0.0158772
710.159	0.0159395
710.237	0.0160278
710.315	0.0159100
710.393	0.0157670
710.471	0.0158896
710.549	0.0158261
710.628	0.0157924
710.706	0.0159590
710.784	0.0159013
710.862	0.0158963
710.940	0.0158354
711.018	0.0159406
711.096	0.0158334
711.174	0.0159785
711.253	0.0158601
711.331	0.0159017
711.409	0.0160577
711.487	0.0159709
711.565	0.0159308
711.643	0.0158521
711.721	0.0158646
711.799	0.0159136
711.878	0.0158629
711.956	0.0158165
712.034	0.0157150
712.112	0.0157835
712.190	0.0155843
712.268	0.0155450
712.346	0.0156665
712.424	0.0159068
712.503	0.0155824
712.581	0.0154474
712.659	0.0154980
712.737	0.0156391
712.815	0.0156933
712.893	0.0156166
712.971	0.0156404
713.049	0.0156799
713.128	0.0156944
713.206	0.0157578
713.284	0.0158526
713.362	0.0156966
713.440	0.0158172
713.518	0.0158716
713.596	0.0158661
713.674	0.0157858
713.753	0.0158717
713.831	0.0159476
713.909	0.0159838
713.987	0.0158001
714.065	0.0159140
714.143	0.0159092
714.221	0.0158041
714.299	0.0157507
714.378	0.0157134
714.456	0.0155431
714.534	0.0158070
714.612	0.0158008
714.690	0.0156741
714.768	0.0157412
714.846	0.0156342
714.924	0.0156299
715.003	0.0156105
715.081	0.0156106
715.159	0.0157252
715.237	0.0156175
715.315	0.0156280
715.393	0.0157809
715.471	0.0156900
715.549	0.0157659
715.628	0.0156950
715.706	0.0157821
715.784	0.0157944
715.862	0.0158795
715.940	0.0159072
716.018	0.0158492
716.096	0.0157524
716.174	0.0159602
716.253	0.0158878
716.331	0.0158519
716.409	0.0157423
716.487	0.0158293
716.565	0.0156763
716.643	0.0157164
716.721	0.0159295
716.799	0.0158015
716.878	0.0158313
716.956	0.0159284
717.034	0.0158775
717.112	0.0158837
717.190	0.0158298
717.268	0.0158088
717.346	0.0158487
717.424	0.0159039
717.503	0.0157127
717.581	0.0157072
717.659	0.0157452
717.737	0.0157779
717.815	0.0157375
717.893	0.0157384
717.971	0.0156242
718.049	0.0157087
718.128	0.0158066
718.206	0.0157367
718.284	0.0156982
718.362	0.0157631
718.440	0.0157507
718.518	0.0157092
718.596	0.0156996
718.674	0.0156441
718.753	0.0157188
718.831	0.0157505
718.909	0.0156088
718.987	0.0155431
719.065	0.0156016
719.143	0.0155776
719.221	0.0155424
719.299	0.0155642
719.378	0.0157043
719.456	0.0157467
719.534	0.0156666
719.612	0.0156062
719.690	0.0156433
719.768	0.0156463
719.846	0.0154692
719.924	0.0156071
720.003	0.0156287
720.081	0.0154436
720.159	0.0155730
720.237	0.0155759
720.315	0.0154159
720.393	0.0156004
720.471	0.0156333
720.549	0.0156423
720.628	0.0155466
720.706	0.0155860
720.784	0.0156561
720.862	0.0157261
720.940	0.0156469
721.018	0.0156402
721.096	0.0159427
721.174	0.0157105
721.253	0.0157637
721.331	0.0157403
721.409	0.0158483
721.487	0.0159202
721.565	0.0158036
721.643	0.0159999
721.721	0.0158364
721.799	0.0158551
721.878	0.0157599
721.956	0.0157390
722.034	0.0156744
722.112	0.0156522
722.190	0.0157300
722.268	0.0157950
722.346	0.0156034
722.424	0.0156630
722.503	0.0155925
722.581	0.0157333
722.659	0.0155859
722.737	0.0157597
722.815	0.0157404
722.893	0.0158448
722.971	0.0158737
723.049	0.0158859
723.128	0.0157733
723.206	0.0156474
723.284	0.0158664
723.362	0.0157668
723.440	0.0157725
723.518	0.0157783
723.596	0.0156750
723.674	0.0157661
723.753	0.0159017
723.831	0.0156696
723.909	0.0157310
723.987	0.0157391
724.065	0.0157678
724.143	0.0157635
724.221	0.0157608
724.299	0.0158138
724.378	0.0158374
724.456	0.0157596
724.534	0.0157369
724.612	0.0158543
724.690	0.0157232
724.768	0.0157639
724.846	0.0156510
724.924	0.0156699
725.003	0.0157285
725.081	0.0158117
725.159	0.0157922
725.237	0.0156885
725.315	0.0157157
725.393	0.0156850
725.471	0.0156899
725.549	0.0158604
725.628	0.0158951
725.706	0.0158772
725.784	0.0157536
725.862	0.0157814
725.940	0.0158446
726.018	0.0157718
726.096	0.0158549
726.174	0.0158139
726.253	0.0158063
726.331	0.0158150
726.409	0.0157910
726.487	0.0156390
726.565	0.0155685
726.643	0.0155967
726.721	0.0157186
726.799	0.0157113
726.878	0.0155885
726.956	0.0156830
727.034	0.0156913
727.112	0.0156987
727.190	0.0156652
727.268	0.0156393
727.346	0.0157695
727.424	0.0158176
727.503	0.0158996
727.581	0.0159031
727.659	0.0158694
727.737	0.0158650
727.815	0.0158935
727.893	0.0158485
727.971	0.0158385
728.049	0.0158656
728.128	0.0157774
728.206	0.0157384
728.284	0.0157494
728.362	0.0157299
728.440	0.0157118
728.518	0.0158358
728.596	0.0156283
728.674	0.0156640
728.753	0.0158113
728.831	0.0157788
728.909	0.0156698
728.987	0.0156953
729.065	0.0157178
729.143	0.0159954
729.221	0.0159352
729.299	0.0159206
729.378	0.0158907
729.456	0.0159743
729.534	0.0158278
729.612	0.0158920
729.690	0.0158589
729.768	0.0159692
729.846	0.0160034
729.924	0.0158807
730.003	0.0158419
730.081	0.0158750
730.159	0.0158781
730.237	0.0158115
730.315	0.0158047
730.393	0.0158981
730.471	0.0158252
730.549	0.0156847
730.628	0.0158998
730.706	0.0158427
730.784	0.0159459
730.862	0.0157612
730.940	0.0158564
731.018	0.0159698
731.096	0.0157840
731.174	0.0158443
731.253	0.0158173
731.331	0.0157881
731.409	0.0158639
731.487	0.0158070
731.565	0.0157996
731.643	0.0158651
731.721	0.0158561
731.799	0.0158453
731.878	0.0158086
731.956	0.0157703
732.034	0.0157858
732.112	0.0158774
732.190	0.0158403
732.268	0.0158632
732.346	0.0156845
732.424	0.0158472
732.503	0.0159892
732.581	0.0158776
732.659	0.0158974
732.737	0.0158059
732.815	0.0159292
732.893	0.0158757
732.971	0.0157383
733.049	0.0157954
733.128	0.0157256
733.206	0.0158325
733.284	0.0158194
733.362	0.0158801
733.440	0.0158427
733.518	0.0157563
733.596	0.0157823
733.674	0.0158832
733.753	0.0157795
733.831	0.0158543
733.909	0.0157794
733.987	0.0157146
734.065	0.0158556
734.143	0.0157881
734.221	0.0157541
734.299	0.0158294
734.378	0.0156831
734.456	0.0158212
734.534	0.0156873
734.612	0.0158213
734.690	0.0157050
734.768	0.0157070
734.846	0.0157710
734.924	0.0158295
735.003	0.0158855
735.081	0.0159690
735.159	0.0158369
735.237	0.0158511
735.315	0.0159190
735.393	0.0159068
735.471	0.0159344
735.549	0.0158409
735.628	0.0159286
735.706	0.0157946
735.784	0.0159319
735.862	0.0158790
735.940	0.0159036
736.018	0.0157276
736.096	0.0157912
736.174	0.0156771
736.253	0.0157889
736.331	0.0156100
736.409	0.0157069
736.487	0.0157710
736.565	0.0156545
736.643	0.0157287
736.721	0.0156973
736.799	0.0157324
736.878	0.0157343
736.956	0.0156361
737.034	0.0156944
737.112	0.0157870
737.190	0.0157439
737.268	0.0158092
737.346	0.0158067
737.424	0.0158326
737.503	0.0156734
737.581	0.0158044
737.659	0.0156894
737.737	0.0155914
737.815	0.0156097
737.893	0.0156275
737.971	0.0155978
738.049	0.0156240
738.128	0.0156579
738.206	0.0156796
738.284	0.0157607
738.362	0.0156389
738.440	0.0155750
738.518	0.0156790
738.596	0.0156364
738.674	0.0156801
738.753	0.0157508
738.831	0.0157303
738.909	0.0156582
738.987	0.0156779
739.065	0.0156491
739.143	0.0157564
739.221	0.0156823
739.299	0.0156021
739.378	0.0156384
739.456	0.0157302
739.534	0.0156521
739.612	0.0157379
739.690	0.0156440
739.768	0.0157117
739.846	0.0158569
739.924	0.0157140
740.003	0.0158549
740.081	0.0157629
740.159	0.0157898
740.237	0.0157765
740.315	0.0157636
740.393	0.0156384
740.471	0.0157267
740.549	0.0157219
740.628	0.0156906
740.706	0.0157687
740.784	0.0158159
740.862	0.0156563
740.940	0.0155617
741.018	0.0157751
741.096	0.0157678
741.174	0.0157288
741.253	0.0155550
741.331	0.0156908
741.409	0.0158685
741.487	0.0156430
741.565	0.0157164
741.643	0.0158659
741.721	0.0158486
741.799	0.0158463
741.878	0.0157594
741.956	0.0158195
742.034	0.0156949
742.112	0.0158022
742.190	0.0157500
742.268	0.0157891
742.346	0.0157997
742.424	0.0157188
742.503	0.0157571
742.581	0.0158446
742.659	0.0158109
742.737	0.0157128
742.815	0.0157553
742.893	0.0158894
742.971	0.0158389
743.049	0.0157106
743.128	0.0156557
743.206	0.0157790
743.284	0.0157895
743.362	0.0157926
743.440	0.0158630
743.518	0.0158283
743.596	0.0155988
743.674	0.0156121
743.753	0.0157487
743.831	0.0155509
743.909	0.0157833
743.987	0.0157668
744.065	0.0157959
744.143	0.0156759
744.221	0.0157534
744.299	0.0157444
744.378	0.0157710
744.456	0.0156596
744.534	0.0157247
744.612	0.0157122
744.690	0.0158247
744.768	0.0157482
744.846	0.0156717
744.924	0.0157449
745.003	0.0157952
745.081	0.0156866
745.159	0.0156823
745.237	0.0156322
745.315	0.0158324
745.393	0.0156829
745.471	0.0157199
745.549	0.0156689
745.628	0.0156739
745.706	0.0156906
745.784	0.0156448
745.862	0.0157553
745.940	0.0157335
746.018	0.0157433
746.096	0.0157968
746.174	0.0157111
746.253	0.0158051
746.331	0.0157156
746.409	0.0157536
746.487	0.0158727
746.565	0.0158730
746.643	0.0157991
746.721	0.0158891
746.799	0.0158124
746.878	0.0158855
746.956	0.0158021
747.034	0.0157900
747.112	0.0157817
747.190	0.0158615
747.268	0.0157960
747.346	0.0158076
747.424	0.0158142
747.503	0.0158323
747.581	0.0158620
747.659	0.0157398
747.737	0.0156639
747.815	0.0156407
747.893	0.0156731
747.971	0.0157861
748.049	0.0157452
748.128	0.0156982
748.206	0.0157961
748.284	0.0157682
748.362	0.0156556
748.440	0.0157078
748.518	0.0157466
748.596	0.0156606
748.674	0.0157830
748.753	0.0155764
748.831	0.0157056
748.909	0.0158080
748.987	0.0157705
749.065	0.0156824
749.143	0.0157417
749.221	0.0155588
749.299	0.0157681
749.378	0.0159051
749.456	0.0159317
749.534	0.0158171
749.612	0.0158173
749.690	0.0159179
749.768	0.0158104
749.846	0.0159304
749.924	0.0158823
750.003	0.0158132
750.081	0.0157842
750.159	0.0157578
750.237	0.0158131
750.315	0.0157097
750.393	0.0157407
750.471	0.0158151
750.549	0.0158324
750.628	0.0157695
750.706	0.0159405
750.784	0.0160110
750.862	0.0158911
750.940	0.0158779
751.018	0.0159209
751.096	0.0159899
751.174	0.0159997
751.253	0.0159192
751.331	0.0160018
751.409	0.0159991
751.487	0.0158572
751.565	0.0158530
751.643	0.0158485
751.721	0.0158370
751.799	0.0157080
751.878	0.0158815
751.956	0.0157246
752.034	0.0158382
752.112	0.0158556
752.190	0.0156636
752.268	0.0157820
752.346	0.0157407
752.424	0.0158007
752.503	0.0158074
752.581	0.0157344
752.659	0.0156563
752.737	0.0156902
752.815	0.0158448
752.893	0.0158691
752.971	0.0156921
753.049	0.0158239
753.128	0.0159201
753.206	0.0158994
753.284	0.0157949
753.362	0.0158356
753.440	0.0158786
753.518	0.0158317
753.596	0.0157822
753.674	0.0158013
753.753	0.0158777
753.831	0.0157410
753.909	0.0158622
753.987	0.0157652
754.065	0.0157587
754.143	0.0157623
754.221	0.0157282
754.299	0.0157905
754.378	0.0157413
754.456	0.0157437
754.534	0.0157820
754.612	0.0158465
754.690	0.0157358
754.768	0.0157511
754.846	0.0156977
754.924	0.0158659
755.003	0.0157594
755.081	0.0158545
755.159	0.0158505
755.237	0.0157989
755.315	0.0158592
755.393	0.0157474
755.471	0.0157516
755.549	0.0157424
755.628	0.0158035
755.706	0.0158412
755.784	0.0158611
755.862	0.0158815
755.940	0.0158150
756.018	0.0159760
756.096	0.0159151
756.174	0.0159445
756.253	0.0158064
756.331	0.0159568
756.409	0.0158882
756.487	0.0158073
756.565	0.0159856
756.643	0.0159451
756.721	0.0158904
756.799	0.0159531
756.878	0.0159859
756.956	0.0158024
757.034	0.0159216
757.112	0.0160793
757.190	0.0159338
757.268	0.0158877
757.346	0.0159251
757.424	0.0159349
757.503	0.0157838
757.581	0.0158647
757.659	0.0158493
757.737	0.0157977
757.815	0.0158752
757.893	0.0158631
757.971	0.0158477
758.049	0.0157353
758.128	0.0159009
758.206	0.0158659
758.284	0.0157931
758.362	0.0158593
758.440	0.0157069
758.518	0.0157371
758.596	0.0157941
758.674	0.0158364
758.753	0.0158005
758.831	0.0156688
758.909	0.0157845
758.987	0.0158617
759.065	0.0158798
759.143	0.0157462
759.221	0.0158093
759.299	0.0156995
759.378	0.0157079
759.456	0.0158031
759.534	0.0157165
759.612	0.0157576
759.690	0.0157201
759.768	0.0156967
759.846	0.0156901
759.924	0.0157137
760.003	0.0157681
760.081	0.0157651
760.159	0.0156768
760.237	0.0157431
760.315	0.0155913
760.393	0.0157948
760.471	0.0158343
760.549	0.0158737
760.628	0.0158091
760.706	0.0157355
760.784	0.0156400
760.862	0.0156854
760.940	0.0157227
761.018	0.0156689
761.096	0.0156354
761.174	0.0157987
761.253	0.0156696
761.331	0.0156786
761.409	0.0156639
761.487	0.0156683
761.565	0.0156438
761.643	0.0156551
761.721	0.0157420
761.799	0.0157169
761.878	0.0156931
761.956	0.0156612
762.034	0.0157236
762.112	0.0156216
762.190	0.0156388
762.268	0.0156241
762.346	0.0156625
762.424	0.0156570
762.503	0.0157516
762.581	0.0155513
762.659	0.0156168
762.737	0.0157432
762.815	0.0156798
762.893	0.0157043
762.971	0.0156879
763.049	0.0158659
763.128	0.0157443
763.206	0.0157909
763.284	0.0156958
763.362	0.0157906
763.440	0.0157525
763.518	0.0156590
763.596	0.0157093
763.674	0.0156713
763.753	0.0156622
763.831	0.0157659
763.909	0.0156765
763.987	0.0157652
764.065	0.0158590
764.143	0.0156844
764.221	0.0157339
764.299	0.0157528
764.378	0.0156744
764.456	0.0157046
764.534	0.0155875
764.612	0.0157357
764.690	0.0157845
764.768	0.0158267
764.846	0.0158766
764.924	0.0157331
765.003	0.0157482
765.081	0.0157253
765.159	0.0157251
765.237	0.0157040
765.315	0.0157643
765.393	0.0158695
765.471	0.0156854
765.549	0.0157697
765.628	0.0159167
765.706	0.0157558
765.784	0.0157375
765.862	0.0157757
765.940	0.0158233
766.018	0.0158932
766.096	0.0157641
766.174	0.0157822
766.253	0.0157113
766.331	0.0155648
766.409	0.0158500
766.487	0.0157881
766.565	0.0158326
766.643	0.0158688
766.721	0.0158340
766.799	0.0157249
766.878	0.0157119
766.956	0.0159139
767.034	0.0157734
767.112	0.0157578
767.190	0.0157330
767.268	0.0158037
767.346	0.0158949
767.424	0.0158166
767.503	0.0158347
767.581	0.0158441
767.659	0.0156449
767.737	0.0157851
767.815	0.0157142
767.893	0.0159201
767.971	0.0156734
768.049	0.0156509
768.128	0.0157544
768.206	0.0156987
768.284	0.0156593
768.362	0.0156712
768.440	0.0157702
768.518	0.0157611
768.596	0.0156567
768.674	0.0157505
768.753	0.0156866
768.831	0.0157944
768.909	0.0156628
768.987	0.0156738
769.065	0.0156384
769.143	0.0156905
769.221	0.0157166
769.299	0.0158065
769.378	0.0156712
769.456	0.0156479
769.534	0.0157098
769.612	0.0157697
769.690	0.0157138
769.768	0.0158652
769.846	0.0157338
769.924	0.0156729
770.003	0.0157917
770.081	0.0156936
770.159	0.0157315
770.237	0.0157356
770.315	0.0158987
770.393	0.0157293
770.471	0.0158956
770.549	0.0158713
770.628	0.0157753
770.706	0.0159114
770.784	0.0158640
770.862	0.0158694
770.940	0.0158102
771.018	0.0158802
771.096	0.0158124
771.174	0.0157844
771.253	0.0157844
771.331	0.0158942
771.409	0.0157339
771.487	0.0157793
771.565	0.0159609
771.643	0.0158556
771.721	0.0158101
771.799	0.0157552
771.878	0.0158048
771.956	0.0158124
772.034	0.0158454
772.112	0.0157642
772.190	0.0157270
772.268	0.0158080
772.346	0.0157727
772.424	0.0157278
772.503	0.0158347
772.581	0.0158424
772.659	0.0157950
772.737	0.0159070
772.815	0.0159395
772.893	0.0158846
772.971	0.0157586
773.049	0.0160210
773.128	0.0161575
773.206	0.0158446
773.284	0.0158459
773.362	0.0160145
773.440	0.0160094
773.518	0.0159457
773.596	0.0158802
773.674	0.0159258
773.753	0.0159450
773.831	0.0158262
773.909	0.0158706
773.987	0.0160363
774.065	0.0158070
774.143	0.0158147
774.221	0.0158544
774.299	0.0159242
774.378	0.0158120
774.456	0.0157973
774.534	0.0159396
774.612	0.0158804
774.690	0.0158238
774.768	0.0158024
774.846	0.0158447
774.924	0.0158290
775.003	0.0159693
775.081	0.0157947
775.159	0.0157028
775.237	0.0157144
775.315	0.0158250
775.393	0.0157230
775.471	0.0158378
775.549	0.0159824
775.628	0.0159027
775.706	0.0157484
775.784	0.0158187
775.862	0.0159185
775.940	0.0158178
776.018	0.0157037
776.096	0.0157376
776.174	0.0157464
776.253	0.0158537
776.331	0.0158586
776.409	0.0158527
776.487	0.0158402
776.565	0.0158775
776.643	0.0159895
776.721	0.0158513
776.799	0.0157222
776.878	0.0159523
776.956	0.0158370
777.034	0.0159741
777.112	0.0158539
777.190	0.0158691
777.268	0.0158757
777.346	0.0158691
777.424	0.0158094
777.503	0.0157205
777.581	0.0157883
777.659	0.0157513
777.737	0.0158791
777.815	0.0157520
777.893	0.0158072
777.971	0.0156393
778.049	0.0157001
778.128	0.0157691
778.206	0.0157136
778.284	0.0156920
778.362	0.0158115
778.440	0.0155786
778.518	0.0157936
778.596	0.0158319
778.674	0.0157800
778.753	0.0158630
778.831	0.0158464
778.909	0.0157872
778.987	0.0156139
779.065	0.0158013
779.143	0.0158553
779.221	0.0157388
779.299	0.0157352
779.378	0.0158249
779.456	0.0157861
779.534	0.0157316
779.612	0.0158543
779.690	0.0156766
779.768	0.0156048
779.846	0.0157158
779.924	0.0156744
780.003	0.0157661
780.081	0.0157698
780.159	0.0156511
780.237	0.0156780
780.315	0.0155714
780.393	0.0155817
780.471	0.0156395
780.549	0.0157249
780.628	0.0156245
780.706	0.0157600
780.784	0.0157877
780.862	0.0156306
780.940	0.0157234
781.018	0.0157323
781.096	0.0156079
781.174	0.0156553
781.253	0.0157059
781.331	0.0157178
781.409	0.0157604
781.487	0.0157430
781.565	0.0156899
781.643	0.0156691
781.721	0.0157537
781.799	0.0157147
781.878	0.0157026
781.956	0.0156490
782.034	0.0155486
782.112	0.0156400
782.190	0.0157182
782.268	0.0157480
782.346	0.0158012
782.424	0.0157353
782.503	0.0157352
782.581	0.0158355
782.659	0.0157537
782.737	0.0157509
782.815	0.0158588
782.893	0.0157513
782.971	0.0158051
783.049	0.0157526
783.128	0.0158014
783.206	0.0157590
783.284	0.0158165
783.362	0.0159012
783.440	0.0156711
783.518	0.0155849
783.596	0.0156982
783.674	0.0158538
783.753	0.0158487
783.831	0.0158440
783.909	0.0158320
783.987	0.0158595
784.065	0.0158214
784.143	0.0157317
784.221	0.0156723
784.299	0.0156628
784.378	0.0156909
784.456	0.0157625
784.534	0.0157543
784.612	0.0157825
784.690	0.0157272
784.768	0.0157634
784.846	0.0157936
784.924	0.0156849
785.003	0.0156934
785.081	0.0157545
785.159	0.0156200
785.237	0.0157085
785.315	0.0155444
785.393	0.0156739
785.471	0.0157427
785.549	0.0156319
785.628	0.0158395
785.706	0.0157227
785.784	0.0155698
785.862	0.0157364
785.940	0.0156240
786.018	0.0155721
786.096	0.0155832
786.174	0.0156387
786.253	0.0156445
786.331	0.0156473
786.409	0.0156818
786.487	0.0155554
786.565	0.0156216
786.643	0.0155375
786.721	0.0154057
786.799	0.0155820
786.878	0.0155193
786.956	0.0154679
787.034	0.0157033
787.112	0.0155306
787.190	0.0156213
787.268	0.0155732
787.346	0.0156075
787.424	0.0156022
787.503	0.0155169
787.581	0.0157730
787.659	0.0155984
787.737	0.0155765
787.815	0.0157050
787.893	0.0156641
787.971	0.0156470
788.049	0.0155539
788.128	0.0157257
788.206	0.0155255
788.284	0.0156128
788.362	0.0157317
788.440	0.0156079
788.518	0.0157202
788.596	0.0157690
788.674	0.0157275
788.753	0.0156741
788.831	0.0157892
788.909	0.0157746
788.987	0.0157249
789.065	0.0158347
789.143	0.0158313
789.221	0.0158912
789.299	0.0158173
789.378	0.0158045
789.456	0.0158257
789.534	0.0158784
789.612	0.0158676
789.690	0.0157938
789.768	0.0156876
789.846	0.0156599
789.924	0.0157054
790.003	0.0157370
790.081	0.0158422
790.159	0.0158053
790.237	0.0158755
790.315	0.0157939
790.393	0.0157338
790.471	0.0158319
790.549	0.0158916
790.628	0.0160150
790.706	0.0159367
790.784	0.0159419
790.862	0.0160637
790.940	0.0159585
791.018	0.0159871
791.096	0.0159685
791.174	0.0159788
791.253	0.0160294
791.331	0.0157994
791.409	0.0159096
791.487	0.0158180
791.565	0.0158433
791.643	0.0158236
791.721	0.0159241
791.799	0.0160416
791.878	0.0158557
791.956	0.0158450
792.034	0.0159091
792.112	0.0158109
792.190	0.0157568
792.268	0.0157269
792.346	0.0158691
792.424	0.0158603
792.503	0.0156979
792.581	0.0157527
792.659	0.0158940
792.737	0.0158325
792.815	0.0157204
792.893	0.0158450
792.971	0.0158877
793.049	0.0158155
793.128	0.0158707
793.206	0.0157739
793.284	0.0158571
793.362	0.0158687
793.440	0.0157324
793.518	0.0156812
793.596	0.0157664
793.674	0.0158125
793.753	0.0156333
793.831	0.0156939
793.909	0.0156333
793.987	0.0156953
794.065	0.0157171
794.143	0.0157118
794.221	0.0158276
794.299	0.0157944
794.378	0.0158413
794.456	0.0156739
794.534	0.0157503
794.612	0.0157139
794.690	0.0157078
794.768	0.0158101
794.846	0.0157117
794.924	0.0157646
795.003	0.0157786
795.081	0.0157465
795.159	0.0158038
795.237	0.0157207
795.315	0.0157433
795.393	0.0157431
795.471	0.0156574
795.549	0.0158304
795.628	0.0159282
795.706	0.0157534
795.784	0.0158090
795.862	0.0158668
795.940	0.0156932
796.018	0.0159018
796.096	0.0157645
796.174	0.0159081
796.253	0.0158516
796.331	0.0157843
796.409	0.0158817
796.487	0.0158730
796.565	0.0158494
796.643	0.0160143
796.721	0.0158179
796.799	0.0160170
796.878	0.0158870
796.956	0.0159298
797.034	0.0159063
797.112	0.0159578
797.190	0.0158852
797.268	0.0160128
797.346	0.0159979
797.424	0.0159815
797.503	0.0157675
797.581	0.0161486
797.659	0.0160423
797.737	0.0159988
797.815	0.0159880
797.893	0.0160172
797.971	0.0160406
798.049	0.0161044
798.128	0.0159424
798.206	0.0159442
798.284	0.0160125
798.362	0.0158792
798.440	0.0159149
798.518	0.0160148
798.596	0.0159163
798.674	0.0160009
798.753	0.0161880
798.831	0.0159103
798.909	0.0159961
798.987	0.0159461
799.065	0.0160898
799.143	0.0159681
799.221	0.0159703
799.299	0.0159218
799.378	0.0158842
799.456	0.0159669
799.534	0.0158463
799.612	0.0159560
799.690	0.0159957
799.768	0.0159763
799.846	0.0157558
799.924	0.0159602
800.003	0.0159880
800.081	0.0158417
800.159	0.0157567
800.237	0.0159785
800.315	0.0159352
800.393	0.0158744
800.471	0.0158125
800.549	0.0158401
800.628	0.0157024
800.706	0.0158394
800.784	0.0158571
800.862	0.0158330
800.940	0.0156849
801.018	0.0157929
801.096	0.0157769
801.174	0.0157380
801.253	0.0157750
801.331	0.0157954
801.409	0.0158955
801.487	0.0158263
801.565	0.0157443
801.643	0.0157298
801.721	0.0158027
801.799	0.0157688
801.878	0.0158012
801.956	0.0157165
802.034	0.0156598
802.112	0.0156895
802.190	0.0157088
802.268	0.0157274
802.346	0.0156530
802.424	0.0156551
802.503	0.0155841
802.581	0.0156001
802.659	0.0157447
802.737	0.0156448
802.815	0.0156210
802.893	0.0155517
802.971	0.0155270
803.049	0.0158110
803.128	0.0156852
803.206	0.0156796
803.284	0.0156197
803.362	0.0155409
803.440	0.0157198
803.518	0.0156516
803.596	0.0155693
803.674	0.0156499
803.753	0.0156976
803.831	0.0157544
803.909	0.0156683
803.987	0.0157001
804.065	0.0156003
804.143	0.0157690
804.221	0.0156670
804.299	0.0157160
804.378	0.0156916
804.456	0.0156790
804.534	0.0158205
804.612	0.0156520
804.690	0.0157203
804.768	0.0158988
804.846	0.0157298
804.924	0.0157214
805.003	0.0157858
805.081	0.0158553
805.159	0.0158144
805.237	0.0158189
805.315	0.0157922
805.393	0.0158743
805.471	0.0157524
805.549	0.0158163
805.628	0.0159038
805.706	0.0159320
805.784	0.0158173
805.862	0.0157790
805.940	0.0156250
806.018	0.0157045
806.096	0.0158418
806.174	0.0158491
806.253	0.0158244
806.331	0.0156553
806.409	0.0157583
806.487	0.0156753
806.565	0.0157934
806.643	0.0156525
806.721	0.0157382
806.799	0.0156761
806.878	0.0156631
806.956	0.0156503
807.034	0.0156238
807.112	0.0156982
807.190	0.0157526
807.268	0.0155831
807.346	0.0157159
807.424	0.0155299
807.503	0.0155904
807.581	0.0156612
807.659	0.0156107
807.737	0.0156245
807.815	0.0156894
807.893	0.0156097
807.971	0.0155788
808.049	0.0156391
808.128	0.0157710
808.206	0.0156846
808.284	0.0157019
808.362	0.0156741
808.440	0.0156736
808.518	0.0155492
808.596	0.0155742
808.674	0.0157253
808.753	0.0156937
808.831	0.0155521
808.909	0.0156037
808.987	0.0158074
809.065	0.0156227
809.143	0.0155112
809.221	0.0157101
809.299	0.0155540
809.378	0.0156355
809.456	0.0156799
809.534	0.0157513
809.612	0.0155827
809.690	0.0155725
809.768	0.0157100
809.846	0.0157053
809.924	0.0157966
810.003	0.0156216
810.081	0.0156280
810.159	0.0157014
810.237	0.0158775
810.315	0.0157446
810.393	0.0157355
810.471	0.0158169
810.549	0.0157299
810.628	0.0157343
810.706	0.0156467
810.784	0.0157207
810.862	0.0157131
810.940	0.0157169
811.018	0.0157352
811.096	0.0156134
811.174	0.0158118
811.253	0.0156786
811.331	0.0157935
811.409	0.0158453
811.487	0.0157758
811.565	0.0158213
811.643	0.0157674
811.721	0.0156841
811.799	0.0157260
811.878	0.0158455
811.956	0.0157631
812.034	0.0157844
812.112	0.0158688
812.190	0.0156867
812.268	0.0156983
812.346	0.0156862
812.424	0.0157668
812.503	0.0157823
812.581	0.0157413
812.659	0.0156586
812.737	0.0158223
812.815	0.0158385
812.893	0.0157315
812.971	0.0157336
813.049	0.0158060
813.128	0.0156973
813.206	0.0157975
813.284	0.0158408
813.362	0.0158568
813.440	0.0157744
813.518	0.0159931
813.596	0.0158636
813.674	0.0157085
813.753	0.0159109
813.831	0.0159704
813.909	0.0158160
813.987	0.0158933
814.065	0.0158251
814.143	0.0158765
814.221	0.0159956
814.299	0.0159580
814.378	0.0158146
814.456	0.0158644
814.534	0.0159351
814.612	0.0159097
814.690	0.0159048
814.768	0.0157543
814.846	0.0158602
814.924	0.0158267
815.003	0.0157308
815.081	0.0157455
815.159	0.0159033
815.237	0.0158104
815.315	0.0157111
815.393	0.0158898
815.471	0.0157651
815.549	0.0157861
815.628	0.0157318
815.706	0.0157632
815.784	0.0157638
815.862	0.0157929
815.940	0.0157540
816.018	0.0157260
816.096	0.0157258
816.174	0.0157584
816.253	0.0157795
816.331	0.0157837
816.409	0.0157586
816.487	0.0158369
816.565	0.0157389
816.643	0.0158099
816.721	0.0157518
816.799	0.0157465
816.878	0.0157169
816.956	0.0157363
817.034	0.0157034
817.112	0.0158670
817.190	0.0157234
817.268	0.0156848
817.346	0.0157085
817.424	0.0158147
817.503	0.0157918
817.581	0.0158155
817.659	0.0158865
817.737	0.0157498
817.815	0.0158162
817.893	0.0157587
817.971	0.0156991
818.049	0.0156840
818.128	0.0156749
818.206	0.0156338
818.284	0.0158726
818.362	0.0157490
818.440	0.0157316
818.518	0.0156917
818.596	0.0158190
818.674	0.0157658
818.753	0.0156909
818.831	0.0156915
818.909	0.0157800
818.987	0.0157845
819.065	0.0158289
819.143	0.0157477
819.221	0.0158152
819.299	0.0158768
819.378	0.0157603
819.456	0.0158167
819.534	0.0158523
819.612	0.0156563
819.690	0.0157916
819.768	0.0157025
819.846	0.0157272
819.924	0.0158220
820.003	0.0158453
820.081	0.0156203
820.159	0.0157943
820.237	0.0157227
820.315	0.0158250
820.393	0.0159462
820.471	0.0157903
820.549	0.0158401
820.628	0.0158344
820.706	0.0157661
820.784	0.0158073
820.862	0.0158458
820.940	0.0157638
821.018	0.0157940
821.096	0.0160298
821.174	0.0159490
821.253	0.0159766
821.331	0.0157664
821.409	0.0158743
821.487	0.0159092
821.565	0.0158203
821.643	0.0159432
821.721	0.0157957
821.799	0.0158733
821.878	0.0158380
821.956	0.0158543
822.034	0.0157835
822.112	0.0158244
822.190	0.0157467
822.268	0.0157967
822.346	0.0157802
822.424	0.0156207
822.503	0.0157792
822.581	0.0158475
822.659	0.0157917
822.737	0.0158501
822.815	0.0157263
822.893	0.0156894
822.971	0.0157669
823.049	0.0157874
823.128	0.0157120
823.206	0.0158811
823.284	0.0157300
823.362	0.0157951
823.440	0.0158680
823.518	0.0157874
823.596	0.0157819
823.674	0.0157970
823.753	0.0159054
823.831	0.0159097
823.909	0.0158778
823.987	0.0157320
824.065	0.0157932
824.143	0.0158699
824.221	0.0158759
824.299	0.0158958
824.378	0.0158350
824.456	0.0157625
824.534	0.0158239
824.612	0.0157825
824.690	0.0158472
824.768	0.0158031
824.846	0.0158753
824.924	0.0156477
825.003	0.0158397
825.081	0.0158287
825.159	0.0159955
825.237	0.0158903
825.315	0.0158289
825.393	0.0159651
825.471	0.0158767
825.549	0.0159074
825.628	0.0159119
825.706	0.0159695
825.784	0.0158746
825.862	0.0158987
825.940	0.0158398
826.018	0.0158147
826.096	0.0156739
826.174	0.0158693
826.253	0.0157282
826.331	0.0157993
826.409	0.0157920
826.487	0.0157945
826.565	0.0159039
826.643	0.0158691
826.721	0.0157946
826.799	0.0157706
826.878	0.0157766
826.956	0.0157683
827.034	0.0157419
827.112	0.0158463
827.190	0.0158423
827.268	0.0157951
827.346	0.0159402
827.424	0.0157802
827.503	0.0157175
827.581	0.0158651
827.659	0.0158636
827.737	0.0157543
827.815	0.0157841
827.893	0.0157389
827.971	0.0157130
828.049	0.0157616
828.128	0.0158302
828.206	0.0158553
828.284	0.0156717
828.362	0.0157455
828.440	0.0158736
828.518	0.0157626
828.596	0.0156362
828.674	0.0157525
828.753	0.0158862
828.831	0.0158240
828.909	0.0156829
828.987	0.0156947
829.065	0.0158952
829.143	0.0157466
829.221	0.0158956
829.299	0.0158092
829.378	0.0159396
829.456	0.0157984
829.534	0.0157937
829.612	0.0159123
829.690	0.0157361
829.768	0.0157977
829.846	0.0157657
829.924	0.0157370
830.003	0.0157630
830.081	0.0158073
830.159	0.0159679
830.237	0.0157918
830.315	0.0158418
830.393	0.0158078
830.471	0.0158463
830.549	0.0158186
830.628	0.0157726
830.706	0.0158897
830.784	0.0158704
830.862	0.0158957
830.940	0.0159042
831.018	0.0157584
831.096	0.0157950
831.174	0.0158453
831.253	0.0159602
831.331	0.0157677
831.409	0.0157183
831.487	0.0158464
831.565	0.0157658
831.643	0.0158304
831.721	0.0157204
831.799	0.0159464
831.878	0.0158383
831.956	0.0159021
832.034	0.0159328
832.112	0.0158112
832.190	0.0159563
832.268	0.0158927
832.346	0.0158503
832.424	0.0158582
832.503	0.0159441
832.581	0.0157673
832.659	0.0159114
832.737	0.0158448
832.815	0.0158628
832.893	0.0159111
832.971	0.0158572
833.049	0.0157539
833.128	0.0158076
833.206	0.0157481
833.284	0.0157973
833.362	0.0156971
833.440	0.0158524
833.518	0.0158908
833.596	0.0159384
833.674	0.0158369
833.753	0.0158625
833.831	0.0158837
833.909	0.0157552
833.987	0.0158418
834.065	0.0158773
834.143	0.0157636
834.221	0.0158287
834.299	0.0157980
834.378	0.0157652
834.456	0.0156565
834.534	0.0157761
834.612	0.0157473
834.690	0.0157822
834.768	0.0156481
834.846	0.0156763
834.924	0.0156871
835.003	0.0156385
835.081	0.0157175
835.159	0.0156772
835.237	0.0157870
835.315	0.0155763
835.393	0.0155914
835.471	0.0157572
835.549	0.0157806
835.628	0.0157687
835.706	0.0157844
835.784	0.0156993
835.862	0.0157819
835.940	0.0156873
836.018	0.0157887
836.096	0.0158987
836.174	0.0157129
836.253	0.0155965
836.331	0.0156114
836.409	0.0157784
836.487	0.0159309
836.565	0.0157764
836.643	0.0156806
836.721	0.0157518
836.799	0.0156879
836.878	0.0156699
836.956	0.0157203
837.034	0.0156380
837.112	0.0156654
837.190	0.0157170
837.268	0.0156586
837.346	0.0157712
837.424	0.0156416
837.503	0.0157644
837.581	0.0157352
837.659	0.0157491
837.737	0.0156814
837.815	0.0156342
837.893	0.0157541
837.971	0.0157404
838.049	0.0155917
838.128	0.0156754
838.206	0.0155428
838.284	0.0156171
838.362	0.0157381
838.440	0.0156133
838.518	0.0156567
838.596	0.0157504
838.674	0.0156151
838.753	0.0155128
838.831	0.0156780
838.909	0.0156251
838.987	0.0154501
839.065	0.0155682
839.143	0.0156836
839.221	0.0157009
839.299	0.0158022
839.378	0.0157581
839.456	0.0157013
839.534	0.0158533
839.612	0.0157596
839.690	0.0156721
839.768	0.0157405
839.846	0.0156805
839.924	0.0156994
840.003	0.0156229
840.081	0.0158020
840.159	0.0158610
840.237	0.0155930
840.315	0.0158131
840.393	0.0158215
840.471	0.0156252
840.549	0.0156952
840.628	0.0159466
840.706	0.0159387
840.784	0.0159275
840.862	0.0158429
840.940	0.0156718
841.018	0.0158109
841.096	0.0158091
841.174	0.0157849
841.253	0.0157174
841.331	0.0158456
841.409	0.0158892
841.487	0.0159010
841.565	0.0158382
841.643	0.0158453
841.721	0.0157910
841.799	0.0158254
841.878	0.0156811
841.956	0.0156626
842.034	0.0155513
842.112	0.0155241
842.190	0.0157328
842.268	0.0156898
842.346	0.0156994
842.424	0.0155819
842.503	0.0155740
842.581	0.0156197
842.659	0.0155992
842.737	0.0155860
842.815	0.0155142
842.893	0.0157240
842.971	0.0156028
843.049	0.0157542
843.128	0.0156268
843.206	0.0156557
843.284	0.0156628
843.362	0.0154285
843.440	0.0156764
843.518	0.0157681
843.596	0.0157370
843.674	0.0156328
843.753	0.0155974
843.831	0.0156366
843.909	0.0158778
843.987	0.0157668
844.065	0.0156535
844.143	0.0158096
844.221	0.0157224
844.299	0.0157615
844.378	0.0157209
844.456	0.0157214
844.534	0.0157639
844.612	0.0157025
844.690	0.0158250
844.768	0.0157590
844.846	0.0156731
844.924	0.0157681
845.003	0.0158178
845.081	0.0157955
845.159	0.0158464
845.237	0.0158463
845.315	0.0157804
845.393	0.0158480
845.471	0.0159505
845.549	0.0157996
845.628	0.0159343
845.706	0.0158590
845.784	0.0158600
845.862	0.0158540
845.940	0.0158762
846.018	0.0158481
846.096	0.0157758
846.174	0.0158856
846.253	0.0158039
846.331	0.0158531
846.409	0.0157747
846.487	0.0158308
846.565	0.0158498
846.643	0.0159218
846.721	0.0157704
846.799	0.0158901
846.878	0.0158213
846.956	0.0158949
847.034	0.0157142
847.112	0.0158621
847.190	0.0158485
847.268	0.0157938
847.346	0.0159587
847.424	0.0158541
847.503	0.0157214
847.581	0.0158603
847.659	0.0157452
847.737	0.0157644
847.815	0.0157236
847.893	0.0158424
847.971	0.0158099
848.049	0.0157376
848.128	0.0158119
848.206	0.0158894
848.284	0.0158743
848.362	0.0158996
848.440	0.0157866
848.518	0.0159363
848.596	0.0159417
848.674	0.0159917
848.753	0.0159071
848.831	0.0159200
848.909	0.0159386
848.987	0.0157691
849.065	0.0157258
849.143	0.0158243
849.221	0.0158852
849.299	0.0159312
849.378	0.0157383
849.456	0.0157043
849.534	0.0159701
849.612	0.0158753
849.690	0.0158811
849.768	0.0156970
849.846	0.0157932
849.924	0.0157271
850.003	0.0158047
850.081	0.0158084
850.159	0.0158030
850.237	0.0156676
850.315	0.0158415
850.393	0.0158583
850.471	0.0158801
850.549	0.0156832
850.628	0.0156477
850.706	0.0158589
850.784	0.0157535
850.862	0.0156640
850.940	0.0157453
851.018	0.0158200
851.096	0.0157924
851.174	0.0157063
851.253	0.0157037
851.331	0.0158250
851.409	0.0158978
851.487	0.0158645
851.565	0.0158521
851.643	0.0157776
851.721	0.0158237
851.799	0.0157526
851.878	0.0158234
851.956	0.0156570
852.034	0.0158369
852.112	0.0157819
852.190	0.0156819
852.268	0.0156255
852.346	0.0156744
852.424	0.0158645
852.503	0.0158291
852.581	0.0156429
852.659	0.0158213
852.737	0.0156924
852.815	0.0158928
852.893	0.0157876
852.971	0.0158992
853.049	0.0157984
853.128	0.0158769
853.206	0.0158233
853.284	0.0158377
853.362	0.0157814
853.440	0.0158268
853.518	0.0157851
853.596	0.0157702
853.674	0.0159617
853.753	0.0157605
853.831	0.0158700
853.909	0.0158830
853.987	0.0159225
854.065	0.0159332
854.143	0.0158176
854.221	0.0159750
854.299	0.0157409
854.378	0.0158974
854.456	0.0159156
854.534	0.0157349
854.612	0.0158575
854.690	0.0158543
854.768	0.0158144
854.846	0.0159297
854.924	0.0158731
855.003	0.0158344
855.081	0.0159902
855.159	0.0158405
855.237	0.0157824
855.315	0.0158274
855.393	0.0158021
855.471	0.0157415
855.549	0.0159512
855.628	0.0158686
855.706	0.0158110
855.784	0.0158502
855.862	0.0158351
855.940	0.0157858
856.018	0.0158999
856.096	0.0158158
856.174	0.0158530
856.253	0.0158466
856.331	0.0157862
856.409	0.0158739
856.487	0.0158747
856.565	0.0158901
856.643	0.0159061
856.721	0.0159823
856.799	0.0158503
856.878	0.0158222
856.956	0.0157176
857.034	0.0158858
857.112	0.0159213
857.190	0.0158012
857.268	0.0158145
857.346	0.0158767
857.424	0.0158336
857.503	0.0158271
857.581	0.0158404
857.659	0.0157317
857.737	0.0158739
857.815	0.0157534
857.893	0.0157925
857.971	0.0158988
858.049	0.0157025
858.128	0.0157447
858.206	0.0155982
858.284	0.0157611
858.362	0.0157452
858.440	0.0157410
858.518	0.0156798
858.596	0.0157280
858.674	0.0156719
858.753	0.0156033
858.831	0.0158425
858.909	0.0157609
858.987	0.0155616
859.065	0.0157658
859.143	0.0156831
859.221	0.0156364
859.299	0.0156919
859.378	0.0157140
859.456	0.0157258
859.534	0.0155826
859.612	0.0157488
859.690	0.0157427
859.768	0.0157019
859.846	0.0158060
859.924	0.0157638
860.003	0.0156312
860.081	0.0157928
860.159	0.0157684
860.237	0.0157210
860.315	0.0156772
860.393	0.0156429
860.471	0.0157927
860.549	0.0156961
860.628	0.0157652
860.706	0.0158126
860.784	0.0157088
860.862	0.0156306
860.940	0.0156575
861.018	0.0158175
861.096	0.0157760
861.174	0.0157785
861.253	0.0158503
861.331	0.0157562
861.409	0.0158760
861.487	0.0156792
861.565	0.0156889
861.643	0.0157530
861.721	0.0157098
861.799	0.0155876
861.878	0.0155798
861.956	0.0157510
862.034	0.0157188
862.112	0.0157197
862.190	0.0158192
862.268	0.0156905
862.346	0.0157496
862.424	0.0158017
862.503	0.0156715
862.581	0.0157560
862.659	0.0158219
862.737	0.0157365
862.815	0.0158113
862.893	0.0157087
862.971	0.0157957
863.049	0.0157009
863.128	0.0156921
863.206	0.0157027
863.284	0.0157271
863.362	0.0156499
863.440	0.0156432
863.518	0.0156431
863.596	0.0156089
863.674	0.0157044
863.753	0.0157957
863.831	0.0156702
863.909	0.0156635
863.987	0.0157134
864.065	0.0156465
864.143	0.0156232
864.221	0.0156013
864.299	0.0156248
864.378	0.0155487
864.456	0.0156577
864.534	0.0155562
864.612	0.0156091
864.690	0.0156085
864.768	0.0155489
864.846	0.0154830
864.924	0.0155921
865.003	0.0155679
865.081	0.0156015
865.159	0.0155937
865.237	0.0155614
865.315	0.0156683
865.393	0.0156837
865.471	0.0157847
865.549	0.0155454
865.628	0.0155753
865.706	0.0156171
865.784	0.0157384
865.862	0.0155907
865.940	0.0155698
866.018	0.0156544
866.096	0.0157175
866.174	0.0155135
866.253	0.0155920
866.331	0.0155538
866.409	0.0155518
866.487	0.0157937
866.565	0.0158327
866.643	0.0156204
866.721	0.0155907
866.799	0.0154975
866.878	0.0154808
866.956	0.0154834
867.034	0.0154959
867.112	0.0156132
867.190	0.0156393
867.268	0.0155352
867.346	0.0156432
867.424	0.0156411
867.503	0.0156065
867.581	0.0155652
867.659	0.0157172
867.737	0.0155752
867.815	0.0154964
867.893	0.0156858
867.971	0.0157047
868.049	0.0155516
868.128	0.0156398
868.206	0.0157853
868.284	0.0157352
868.362	0.0156242
868.440	0.0156939
868.518	0.0157370
868.596	0.0158361
868.674	0.0158128
868.753	0.0156681
868.831	0.0156999
868.909	0.0157629
868.987	0.0157964
869.065	0.0157588
869.143	0.0157542
869.221	0.0157584
869.299	0.0157898
869.378	0.0156499
869.456	0.0157666
869.534	0.0158218
869.612	0.0157800
869.690	0.0158350
869.768	0.0156293
869.846	0.0157023
869.924	0.0156965
870.003	0.0157510
870.081	0.0158169
870.159	0.0158192
870.237	0.0156334
870.315	0.0157996
870.393	0.0157893
870.471	0.0157472
870.549	0.0158135
870.628	0.0156746
870.706	0.0158360
870.784	0.0158451
870.862	0.0158609
870.940	0.0158978
871.018	0.0157368
871.096	0.0157983
871.174	0.0159168
871.253	0.0158503
871.331	0.0157565
871.409	0.0158982
871.487	0.0158766
871.565	0.0157683
871.643	0.0158321
871.721	0.0157593
871.799	0.0158382
871.878	0.0157523
871.956	0.0159091
872.034	0.0158969
872.112	0.0157150
872.190	0.0157393
872.268	0.0158695
872.346	0.0157323
872.424	0.0157648
872.503	0.0158214
872.581	0.0157760
872.659	0.0157912
872.737	0.0157462
872.815	0.0158752
872.893	0.0157169
872.971	0.0157706
873.049	0.0159150
873.128	0.0158364
873.206	0.0157904
873.284	0.0159197
873.362	0.0158052
873.440	0.0157130
873.518	0.0157744
873.596	0.0158982
873.674	0.0157614
873.753	0.0158849
873.831	0.0158674
873.909	0.0157123
873.987	0.0157543
874.065	0.0158874
874.143	0.0158675
874.221	0.0158091
874.299	0.0157765
874.378	0.0157184
874.456	0.0158408
874.534	0.0158494
874.612	0.0156880
874.690	0.0158294
874.768	0.0158298
874.846	0.0157732
874.924	0.0159061
875.003	0.0158919
875.081	0.0158966
875.159	0.0158926
875.237	0.0157966
875.315	0.0158690
875.393	0.0159209
875.471	0.0159736
875.549	0.0159575
875.628	0.0159476
875.706	0.0158341
875.784	0.0159252
875.862	0.0160242
875.940	0.0159308
876.018	0.0158546
876.096	0.0159581
876.174	0.0159096
876.253	0.0158676
876.331	0.0159066
876.409	0.0159830
876.487	0.0158253
876.565	0.0158334
876.643	0.0158794
876.721	0.0158675
876.799	0.0158342
876.878	0.0158707
876.956	0.0157925
877.034	0.0159514
877.112	0.0156806
877.190	0.0158177
877.268	0.0157545
877.346	0.0158332
877.424	0.0157220
877.503	0.0157476
877.581	0.0158658
877.659	0.0159245
877.737	0.0156918
877.815	0.0157948
877.893	0.0157729
877.971	0.0156873
878.049	0.0158646
878.128	0.0158280
878.206	0.0158293
878.284	0.0157761
878.362	0.0158631
878.440	0.0158997
878.518	0.0159477
878.596	0.0158942
878.674	0.0159373
878.753	0.0158585
878.831	0.0159026
878.909	0.0160358
878.987	0.0158563
879.065	0.0158826
879.143	0.0159573
879.221	0.0158812
879.299	0.0158733
879.378	0.0158236
879.456	0.0160243
879.534	0.0159171
879.612	0.0157798
879.690	0.0158986
879.768	0.0158252
879.846	0.0157895
879.924	0.0160394
880.003	0.0158697
880.081	0.0158189
880.159	0.0158961
880.237	0.0159283
880.315	0.0158491
880.393	0.0156770
880.471	0.0158082
880.549	0.0157879
880.628	0.0158514
880.706	0.0158246
880.784	0.0157017
880.862	0.0156371
880.940	0.0157578
881.018	0.0156820
881.096	0.0157497
881.174	0.0157542
881.253	0.0156609
881.331	0.0156934
881.409	0.0156615
881.487	0.0155662
881.565	0.0157585
881.643	0.0156214
881.721	0.0156368
881.799	0.0156046
881.878	0.0156059
881.956	0.0157721
882.034	0.0156038
882.112	0.0156469
882.190	0.0158164
882.268	0.0155804
882.346	0.0157259
882.424	0.0157327
882.503	0.0157301
882.581	0.0156692
882.659	0.0155878
882.737	0.0159051
882.815	0.0158469
882.893	0.0158005
882.971	0.0157933
883.049	0.0157208
883.128	0.0156589
883.206	0.0156862
883.284	0.0157003
883.362	0.0158634
883.440	0.0158091
883.518	0.0157438
883.596	0.0157481
883.674	0.0160010
883.753	0.0156839
883.831	0.0156006
883.909	0.0158564
883.987	0.0156944
884.065	0.0155626
884.143	0.0157896
884.221	0.0156696
884.299	0.0157153
884.378	0.0156946
884.456	0.0156469
884.534	0.0157115
884.612	0.0156009
884.690	0.0156483
884.768	0.0157953
884.846	0.0157745
884.924	0.0156456
885.003	0.0157002
885.081	0.0156673
885.159	0.0156120
885.237	0.0156371
885.315	0.0157233
885.393	0.0157254
885.471	0.0156890
885.549	0.0156348
885.628	0.0156415
885.706	0.0157332
885.784	0.0156702
885.862	0.0157665
885.940	0.0157041
886.018	0.0155527
886.096	0.0156001
886.174	0.0156998
886.253	0.0157465
886.331	0.0156380
886.409	0.0156469
886.487	0.0156755
886.565	0.0156361
886.643	0.0156095
886.721	0.0157104
886.799	0.0156336
886.878	0.0157449
886.956	0.0157864
887.034	0.0157025
887.112	0.0156172
887.190	0.0156085
887.268	0.0155692
887.346	0.0157301
887.424	0.0156925
887.503	0.0156756
887.581	0.0156792
887.659	0.0155745
887.737	0.0156818
887.815	0.0155388
887.893	0.0155265
887.971	0.0157867
888.049	0.0156090
888.128	0.0156112
888.206	0.0155269
888.284	0.0155814
888.362	0.0156784
888.440	0.0155595
888.518	0.0155401
888.596	0.0155457
888.674	0.0157030
888.753	0.0156947
888.831	0.0156534
888.909	0.0156461
888.987	0.0157113
889.065	0.0157956
889.143	0.0155740
889.221	0.0157907
889.299	0.0157954
889.378	0.0157826
889.456	0.0156567
889.534	0.0157399
889.612	0.0156973
889.690	0.0158224
889.768	0.0157144
889.846	0.0157102
889.924	0.0158016
890.003	0.0157273
890.081	0.0158276
890.159	0.0157233
890.237	0.0156123
890.315	0.0157713
890.393	0.0157962
890.471	0.0156862
890.549	0.0156875
890.628	0.0157541
890.706	0.0157298
890.784	0.0156884
890.862	0.0156558
890.940	0.0157040
891.018	0.0157054
891.096	0.0155796
891.174	0.0157001
891.253	0.0156085
891.331	0.0158330
891.409	0.0156807
891.487	0.0156771
891.565	0.0156613
891.643	0.0156064
891.721	0.0157375
891.799	0.0157695
891.878	0.0157036
891.956	0.0157113
892.034	0.0157647
892.112	0.0157668
892.190	0.0155981
892.268	0.0157720
892.346	0.0158702
892.424	0.0157930
892.503	0.0157362
892.581	0.0158478
892.659	0.0158292
892.737	0.0159166
892.815	0.0157127
892.893	0.0157088
892.971	0.0157572
893.049	0.0158468
893.128	0.0159537
893.206	0.0159983
893.284	0.0158661
893.362	0.0158401
893.440	0.0158585
893.518	0.0158385
893.596	0.0158092
893.674	0.0158321
893.753	0.0158002
893.831	0.0158050
893.909	0.0159559
893.987	0.0159795
894.065	0.0158787
894.143	0.0158018
894.221	0.0158376
894.299	0.0159100
894.378	0.0158075
894.456	0.0158849
894.534	0.0159163
894.612	0.0156787
894.690	0.0157488
894.768	0.0158318
894.846	0.0158260
894.924	0.0158603
895.003	0.0158425
895.081	0.0157751
895.159	0.0158318
895.237	0.0158560
895.315	0.0157962
895.393	0.0158032
895.471	0.0158043
895.549	0.0157632
895.628	0.0158511
895.706	0.0158107
895.784	0.0158904
895.862	0.0158910
895.940	0.0158928
896.018	0.0159148
896.096	0.0157958
896.174	0.0158063
896.253	0.0158925
896.331	0.0158135
896.409	0.0158414
896.487	0.0157599
896.565	0.0157990
896.643	0.0158112
896.721	0.0155627
896.799	0.0158130
896.878	0.0157773
896.956	0.0157986
897.034	0.0159306
897.112	0.0158376
897.190	0.0157516
897.268	0.0156696
897.346	0.0157222
897.424	0.0157735
897.503	0.0157010
897.581	0.0157723
897.659	0.0158376
897.737	0.0157442
897.815	0.0157981
897.893	0.0157727
897.971	0.0157990
898.049	0.0157844
898.128	0.0157760
898.206	0.0156917
898.284	0.0156266
898.362	0.0157492
898.440	0.0157388
898.518	0.0157081
898.596	0.0159694
898.674	0.0157120
898.753	0.0157098
898.831	0.0157002
898.909	0.0157673
898.987	0.0156846
899.065	0.0156871
899.143	0.0157348
899.221	0.0158395
899.299	0.0158294
899.378	0.0157398
899.456	0.0157390
899.534	0.0156741
899.612	0.0157112
899.690	0.0156938
899.768	0.0158602
899.846	0.0156563
899.924	0.0159048
900.003	0.0158350
900.081	0.0157669
900.159	0.0156831
900.237	0.0157365
900.315	0.0157425
900.393	0.0157210
900.471	0.0157906
900.549	0.0158721
900.628	0.0157971
900.706	0.0159108
900.784	0.0159546
900.862	0.0156943
900.940	0.0158652
901.018	0.0159434
901.096	0.0156789
901.174	0.0158624
901.253	0.0159115
901.331	0.0158996
901.409	0.0159091
901.487	0.0158427
901.565	0.0158629
901.643	0.0158452
901.721	0.0159843
901.799	0.0158717
901.878	0.0159243
901.956	0.0158842
902.034	0.0158671
902.112	0.0159478
902.190	0.0157601
902.268	0.0160148
902.346	0.0158635
902.424	0.0157518
902.503	0.0158012
902.581	0.0158601
902.659	0.0159000
902.737	0.0159412
902.815	0.0157822
902.893	0.0159019
902.971	0.0158659
903.049	0.0157188
903.128	0.0158439
903.206	0.0157414
903.284	0.0157651
903.362	0.0158333
903.440	0.0158087
903.518	0.0157508
903.596	0.0156844
903.674	0.0157619
903.753	0.0156911
903.831	0.0157999
903.909	0.0158115
903.987	0.0158561
904.065	0.0157484
904.143	0.0157864
904.221	0.0157693
904.299	0.0157776
904.378	0.0157002
904.456	0.0157106
904.534	0.0157502
904.612	0.0157182
904.690	0.0156810
904.768	0.0156561
904.846	0.0156620
904.924	0.0157341
905.003	0.0156379
905.081	0.0157231
905.159	0.0158285
905.237	0.0157116
905.315	0.0157001
905.393	0.0158163
905.471	0.0158334
905.549	0.0156238
905.628	0.0156145
905.706	0.0157344
905.784	0.0157647
905.862	0.0157352
905.940	0.0156429
906.018	0.0157365
906.096	0.0157440
906.174	0.0156458
906.253	0.0157864
906.331	0.0156707
906.409	0.0158578
906.487	0.0157823
906.565	0.0158192
906.643	0.0158260
906.721	0.0157677
906.799	0.0157520
906.878	0.0155814
906.956	0.0157033
907.034	0.0157986
907.112	0.0158200
907.190	0.0158982
907.268	0.0158748
907.346	0.0157682
907.424	0.0157847
907.503	0.0159472
907.581	0.0158622
907.659	0.0158320
907.737	0.0160172
907.815	0.0157862
907.893	0.0158283
907.971	0.0159777
908.049	0.0157839
908.128	0.0157930
908.206	0.0156218
908.284	0.0157841
908.362	0.0157908
908.440	0.0157201
908.518	0.0156745
908.596	0.0158105
908.674	0.0157243
908.753	0.0157082
908.831	0.0156570
908.909	0.0155643
908.987	0.0157316
909.065	0.0158016
909.143	0.0158125
909.221	0.0155707
909.299	0.0156797
909.378	0.0157649
909.456	0.0156749
909.534	0.0156194
909.612	0.0155692
909.690	0.0156646
909.768	0.0156966
909.846	0.0157372
909.924	0.0158086
910.003	0.0156561
910.081	0.0157035
910.159	0.0157511
910.237	0.0157438
910.315	0.0157453
910.393	0.0157185
910.471	0.0157174
910.549	0.0157878
910.628	0.0157582
910.706	0.0156693
910.784	0.0156569
910.862	0.0157910
910.940	0.0157310
911.018	0.0157487
911.096	0.0158158
911.174	0.0156757
911.253	0.0157407
911.331	0.0158961
911.409	0.0157301
911.487	0.0155061
911.565	0.0156065
911.643	0.0156474
911.721	0.0157652
911.799	0.0157168
911.878	0.0156307
911.956	0.0156042
912.034	0.0157537
912.112	0.0155813
912.190	0.0156133
912.268	0.0157020
912.346	0.0157178
912.424	0.0158221
912.503	0.0156505
912.581	0.0158350
912.659	0.0157590
912.737	0.0157688
912.815	0.0156646
912.893	0.0156772
912.971	0.0157866
913.049	0.0157108
913.128	0.0158162
913.206	0.0159533
913.284	0.0157368
913.362	0.0157001
913.440	0.0158213
913.518	0.0158148
913.596	0.0157415
913.674	0.0158635
913.753	0.0157986
913.831	0.0157363
913.909	0.0157664
913.987	0.0157197
914.065	0.0158577
914.143	0.0158158
914.221	0.0157138
914.299	0.0156681
914.378	0.0157581
914.456	0.0157695
914.534	0.0158194
914.612	0.0158300
914.690	0.0158147
914.768	0.0158588
914.846	0.0158064
914.924	0.0158245
915.003	0.0157816
915.081	0.0156503
915.159	0.0156089
915.237	0.0157767
915.315	0.0156870
915.393	0.0157994
915.471	0.0157793
915.549	0.0158265
915.628	0.0157845
915.706	0.0157792
915.784	0.0157507
915.862	0.0157458
915.940	0.0157172
916.018	0.0156972
916.096	0.0157912
916.174	0.0157918
916.253	0.0157630
916.331	0.0157886
916.409	0.0156551
916.487	0.0157319
916.565	0.0158053
916.643	0.0158729
916.721	0.0157385
916.799	0.0158423
916.878	0.0158461
916.956	0.0157622
917.034	0.0158011
917.112	0.0158144
917.190	0.0158971
917.268	0.0157578
917.346	0.0158080
917.424	0.0156186
917.503	0.0158238
917.581	0.0158885
917.659	0.0157923
917.737	0.0159217
917.815	0.0159052
917.893	0.0157162
917.971	0.0158386
918.049	0.0157523
918.128	0.0157314
918.206	0.0158474
918.284	0.0156841
918.362	0.0158311
918.440	0.0157441
918.518	0.0156194
918.596	0.0157207
918.674	0.0157384
918.753	0.0158096
918.831	0.0158339
918.909	0.0157998
918.987	0.0156673
919.065	0.0158044
919.143	0.0159179
919.221	0.0158113
919.299	0.0158199
919.378	0.0158050
919.456	0.0157928
919.534	0.0157342
919.612	0.0157628
919.690	0.0157194
919.768	0.0157860
919.846	0.0158125
919.924	0.0157735
920.003	0.0158806
920.081	0.0158276
920.159	0.0157940
920.237	0.0157278
920.315	0.0157323
920.393	0.0157713
920.471	0.0159042
920.549	0.0159039
920.628	0.0158754
920.706	0.0157855
920.784	0.0159005
920.862	0.0158846
920.940	0.0157791
921.018	0.0157278
921.096	0.0158720
921.174	0.0159056
921.253	0.0158929
921.331	0.0157885
921.409	0.0158234
921.487	0.0158171
921.565	0.0158250
921.643	0.0157389
921.721	0.0157169
921.799	0.0158351
921.878	0.0158474
921.956	0.0157264
922.034	0.0157088
922.112	0.0158072
922.190	0.0158086
922.268	0.0156367
922.346	0.0158139
922.424	0.0157265
922.503	0.0155963
922.581	0.0156892
922.659	0.0156951
922.737	0.0157220
922.815	0.0157379
922.893	0.0157190
922.971	0.0157413
923.049	0.0156506
923.128	0.0157098
923.206	0.0156889
923.284	0.0156953
923.362	0.0157259
923.440	0.0157062
923.518	0.0157739
923.596	0.0156413
923.674	0.0157293
923.753	0.0156710
923.831	0.0156909
923.909	0.0155901
923.987	0.0158008
924.065	0.0155882
924.143	0.0157056
924.221	0.0155899
924.299	0.0155711
924.378	0.0157703
924.456	0.0157426
924.534	0.0157190
924.612	0.0158014
924.690	0.0156326
924.768	0.0156728
924.846	0.0157011
924.924	0.0158326
925.003	0.0156981
925.081	0.0156657
925.159	0.0156181
925.237	0.0157225
925.315	0.0157848
925.393	0.0156442
925.471	0.0157462
925.549	0.0157019
925.628	0.0156554
925.706	0.0157195
925.784	0.0156987
925.862	0.0156490
925.940	0.0155547
926.018	0.0156564
926.096	0.0157609
926.174	0.0157241
926.253	0.0156384
926.331	0.0156969
926.409	0.0156783
926.487	0.0157471
926.565	0.0157412
926.643	0.0156443
926.721	0.0156618
926.799	0.0157449
926.878	0.0156164
926.956	0.0157573
927.034	0.0157372
927.112	0.0157153
927.190	0.0157288
927.268	0.0158712
927.346	0.0156832
927.424	0.0157944
927.503	0.0158187
927.581	0.0157532
927.659	0.0159184
927.737	0.0158158
927.815	0.0157795
927.893	0.0157964
927.971	0.0158858
928.049	0.0158336
928.128	0.0157972
928.206	0.0155875
928.284	0.0157680
928.362	0.0157932
928.440	0.0158658
928.518	0.0158627
928.596	0.0157203
928.674	0.0157297
928.753	0.0158371
928.831	0.0159023
928.909	0.0159387
928.987	0.0158259
929.065	0.0159209
929.143	0.0158913
929.221	0.0158384
929.299	0.0158065
929.378	0.0159236
929.456	0.0157825
929.534	0.0158132
929.612	0.0158652
929.690	0.0158746
929.768	0.0157139
929.846	0.0156547
929.924	0.0158112
930.003	0.0157415
930.081	0.0157943
930.159	0.0157777
930.237	0.0158337
930.315	0.0155806
930.393	0.0157221
930.471	0.0158406
930.549	0.0156689
930.628	0.0156749
930.706	0.0159563
930.784	0.0157489
930.862	0.0156823
930.940	0.0157492
931.018	0.0158834
931.096	0.0159028
931.174	0.0158547
931.253	0.0158021
931.331	0.0158990
931.409	0.0158626
931.487	0.0158882
931.565	0.0158431
931.643	0.0158058
931.721	0.0157014
931.799	0.0157329
931.878	0.0158316
931.956	0.0158048
932.034	0.0156610
932.112	0.0157166
932.190	0.0156666
932.268	0.0157542
932.346	0.0157105
932.424	0.0156081
932.503	0.0157315
932.581	0.0157092
932.659	0.0158768
932.737	0.0157165
932.815	0.0155678
932.893	0.0158675
932.971	0.0158215
933.049	0.0158099
933.128	0.0157811
933.206	0.0158588
933.284	0.0157402
933.362	0.0158472
933.440	0.0157645
933.518	0.0158311
933.596	0.0156875
933.674	0.0157733
933.753	0.0157994
933.831	0.0158627
933.909	0.0157806
933.987	0.0158804
934.065	0.0158598
934.143	0.0159232
934.221	0.0158376
934.299	0.0158118
934.378	0.0157191
934.456	0.0157480
934.534	0.0158081
934.612	0.0156844
934.690	0.0158928
934.768	0.0157487
934.846	0.0157934
934.924	0.0158932
935.003	0.0158201
935.081	0.0157216
935.159	0.0159232
935.237	0.0157817
935.315	0.0159581
935.393	0.0157703
935.471	0.0159027
935.549	0.0158806
935.628	0.0159206
935.706	0.0158617
935.784	0.0157448
935.862	0.0157767
935.940	0.0158562
936.018	0.0158306
936.096	0.0157460
936.174	0.0158210
936.253	0.0158290
936.331	0.0157928
936.409	0.0157549
936.487	0.0159028
936.565	0.0158186
936.643	0.0157555
936.721	0.0158334
936.799	0.0156881
936.878	0.0156584
936.956	0.0158640
937.034	0.0158845
937.112	0.0157577
937.190	0.0157349
937.268	0.0158769
937.346	0.0158688
937.424	0.0157947
937.503	0.0158382
937.581	0.0158691
937.659	0.0158533
937.737	0.0158899
937.815	0.0157011
937.893	0.0157493
937.971	0.0159721
938.049	0.0160060
938.128	0.0157746
938.206	0.0158175
938.284	0.0158607
938.362	0.0157099
938.440	0.0156959
938.518	0.0156759
938.596	0.0157366
938.674	0.0157015
938.753	0.0157759
938.831	0.0158781
938.909	0.0157776
938.987	0.0159162
939.065	0.0157415
939.143	0.0156768
939.221	0.0157922
939.299	0.0157631
939.378	0.0156837
939.456	0.0158289
939.534	0.0157188
939.612	0.0156880
939.690	0.0156640
939.768	0.0157848
939.846	0.0157614
939.924	0.0157975
940.003	0.0156653
940.081	0.0156306
940.159	0.0155564
940.237	0.0156792
940.315	0.0157108
940.393	0.0156369
940.471	0.0157291
940.549	0.0157047
940.628	0.0157594
940.706	0.0157665
940.784	0.0156052
940.862	0.0156748
940.940	0.0158663
941.018	0.0157005
941.096	0.0156866
941.174	0.0156864
941.253	0.0156643
941.331	0.0157067
941.409	0.0156883
941.487	0.0157928
941.565	0.0159048
941.643	0.0157642
941.721	0.0157849
941.799	0.0158894
941.878	0.0157431
941.956	0.0157440
942.034	0.0157889
942.112	0.0156811
942.190	0.0158562
942.268	0.0159010
942.346	0.0158156
942.424	0.0157708
942.503	0.0158186
942.581	0.0158472
942.659	0.0158688
942.737	0.0158135
942.815	0.0157590
942.893	0.0156469
942.971	0.0156705
943.049	0.0157461
943.128	0.0157351
943.206	0.0157367
943.284	0.0157800
943.362	0.0157594
943.440	0.0157590
943.518	0.0157657
943.596	0.0158673
943.674	0.0156705
943.753	0.0158014
943.831	0.0158884
943.909	0.0158534
943.987	0.0157933
944.065	0.0157933
944.143	0.0158205
944.221	0.0158070
944.299	0.0157972
944.378	0.0159325
944.456	0.0159252
944.534	0.0157869
944.612	0.0157970
944.690	0.0158450
944.768	0.0158485
944.846	0.0158619
944.924	0.0158871
945.003	0.0157200
945.081	0.0157675
945.159	0.0157465
945.237	0.0157428
945.315	0.0158743
945.393	0.0158240
945.471	0.0158833
945.549	0.0157954
945.628	0.0157954
945.706	0.0158245
945.784	0.0156468
945.862	0.0157836
945.940	0.0157697
946.018	0.0158556
946.096	0.0157293
946.174	0.0157779
946.253	0.0158623
946.331	0.0157815
946.409	0.0158169
946.487	0.0157895
946.565	0.0157915
946.643	0.0157592
946.721	0.0158136
946.799	0.0159022
946.878	0.0158282
946.956	0.0158684
947.034	0.0157046
947.112	0.0157481
947.190	0.0157990
947.268	0.0158404
947.346	0.0157872
947.424	0.0157230
947.503	0.0157034
947.581	0.0157973
947.659	0.0156730
947.737	0.0158939
947.815	0.0157628
947.893	0.0157870
947.971	0.0157581
948.049	0.0157017
948.128	0.0158153
948.206	0.0157832
948.284	0.0157457
948.362	0.0157812
948.440	0.0158657
948.518	0.0159151
948.596	0.0158990
948.674	0.0157564
948.753	0.0157458
948.831	0.0156832
948.909	0.0156710
948.987	0.0157801
949.065	0.0158701
949.143	0.0157705
949.221	0.0159420
949.299	0.0157770
949.378	0.0158338
949.456	0.0157630
949.534	0.0157874
949.612	0.0157627
949.690	0.0156834
949.768	0.0157838
949.846	0.0157537
949.924	0.0158394
