05/19/2022	00:56:04	Ver.	4.1	UNKNOWN
Optical Delay	630.002507	Delta X		0.078125	Sweeps	1	Scan Rate	0/0
Coordinates	Axis 1	NaN	Axis 2	NaN	Axis 3	NaN	Axis 4	NaN	Axis 5	NaN	Axis 6	0.000000
TX Power	0.000000	RX Power	0.000000

630.003	0.0159595
630.081	0.0158340
630.159	0.0158552
630.237	0.0158795
630.315	0.0161158
630.393	0.0160336
630.471	0.0158253
630.549	0.0158930
630.628	0.0158752
630.706	0.0158485
630.784	0.0158559
630.862	0.0158333
630.940	0.0159859
631.018	0.0160405
631.096	0.0158839
631.174	0.0159209
631.253	0.0158701
631.331	0.0159781
631.409	0.0160766
631.487	0.0160525
631.565	0.0159260
631.643	0.0158423
631.721	0.0160127
631.799	0.0158158
631.878	0.0158584
631.956	0.0160560
632.034	0.0159250
632.112	0.0159137
632.190	0.0160150
632.268	0.0159322
632.346	0.0160349
632.424	0.0160686
632.503	0.0159294
632.581	0.0160300
632.659	0.0159254
632.737	0.0160658
632.815	0.0159722
632.893	0.0158826
632.971	0.0158995
633.049	0.0160208
633.128	0.0159750
633.206	0.0160368
633.284	0.0160026
633.362	0.0159828
633.440	0.0159749
633.518	0.0159267
633.596	0.0159031
633.674	0.0159238
633.753	0.0158775
633.831	0.0160658
633.909	0.0160046
633.987	0.0159332
634.065	0.0160729
634.143	0.0161120
634.221	0.0159787
634.299	0.0160836
634.378	0.0159687
634.456	0.0161310
634.534	0.0160889
634.612	0.0161102
634.690	0.0159233
634.768	0.0160323
634.846	0.0160657
634.924	0.0161370
635.003	0.0160260
635.081	0.0160349
635.159	0.0160745
635.237	0.0159666
635.315	0.0159929
635.393	0.0160586
635.471	0.0160337
635.549	0.0158727
635.628	0.0159724
635.706	0.0160577
635.784	0.0159747
635.862	0.0160974
635.940	0.0160033
636.018	0.0159162
636.096	0.0160336
636.174	0.0161517
636.253	0.0161843
636.331	0.0160947
636.409	0.0160391
636.487	0.0161697
636.565	0.0161400
636.643	0.0161217
636.721	0.0161438
636.799	0.0161149
636.878	0.0160496
636.956	0.0162527
637.034	0.0160751
637.112	0.0159896
637.190	0.0160015
637.268	0.0161051
637.346	0.0161404
637.424	0.0159464
637.503	0.0159653
637.581	0.0159820
637.659	0.0161430
637.737	0.0160066
637.815	0.0158114
637.893	0.0160690
637.971	0.0159519
638.049	0.0159870
638.128	0.0160636
638.206	0.0159722
638.284	0.0159467
638.362	0.0160153
638.440	0.0160219
638.518	0.0159758
638.596	0.0161846
638.674	0.0160307
638.753	0.0159246
638.831	0.0160934
638.909	0.0160058
638.987	0.0160574
639.065	0.0159235
639.143	0.0160089
639.221	0.0159206
639.299	0.0161257
639.378	0.0159953
639.456	0.0158900
639.534	0.0160709
639.612	0.0159265
639.690	0.0158365
639.768	0.0160735
639.846	0.0160883
639.924	0.0159273
640.003	0.0160120
640.081	0.0162306
640.159	0.0158861
640.237	0.0160030
640.315	0.0160238
640.393	0.0159547
640.471	0.0160443
640.549	0.0160496
640.628	0.0160445
640.706	0.0159736
640.784	0.0160564
640.862	0.0160165
640.940	0.0159985
641.018	0.0160956
641.096	0.0159771
641.174	0.0161728
641.253	0.0160377
641.331	0.0160439
641.409	0.0159659
641.487	0.0160435
641.565	0.0160917
641.643	0.0160207
641.721	0.0160081
641.799	0.0160213
641.878	0.0161128
641.956	0.0160384
642.034	0.0160881
642.112	0.0160371
642.190	0.0159740
642.268	0.0160186
642.346	0.0159786
642.424	0.0159455
642.503	0.0160627
642.581	0.0159882
642.659	0.0159669
642.737	0.0159202
642.815	0.0159473
642.893	0.0158553
642.971	0.0160487
643.049	0.0158482
643.128	0.0158765
643.206	0.0158643
643.284	0.0158874
643.362	0.0159331
643.440	0.0158911
643.518	0.0158913
643.596	0.0159471
643.674	0.0159142
643.753	0.0160129
643.831	0.0158839
643.909	0.0159199
643.987	0.0160513
644.065	0.0160004
644.143	0.0159111
644.221	0.0158993
644.299	0.0159592
644.378	0.0159821
644.456	0.0159403
644.534	0.0159684
644.612	0.0158511
644.690	0.0159238
644.768	0.0159966
644.846	0.0159553
644.924	0.0160286
645.003	0.0160590
645.081	0.0160226
645.159	0.0158868
645.237	0.0159814
645.315	0.0160387
645.393	0.0161427
645.471	0.0159887
645.549	0.0158889
645.628	0.0160096
645.706	0.0162370
645.784	0.0159849
645.862	0.0160693
645.940	0.0160587
646.018	0.0158938
646.096	0.0158952
646.174	0.0160096
646.253	0.0159472
646.331	0.0159598
646.409	0.0159147
646.487	0.0158850
646.565	0.0158236
646.643	0.0157343
646.721	0.0158060
646.799	0.0158321
646.878	0.0158430
646.956	0.0157449
647.034	0.0159084
647.112	0.0159174
647.190	0.0159130
647.268	0.0158044
647.346	0.0158913
647.424	0.0159905
647.503	0.0160310
647.581	0.0160942
647.659	0.0159695
647.737	0.0159706
647.815	0.0160056
647.893	0.0160206
647.971	0.0160371
648.049	0.0159319
648.128	0.0159404
648.206	0.0159580
648.284	0.0159769
648.362	0.0160101
648.440	0.0159922
648.518	0.0159004
648.596	0.0159840
648.674	0.0158439
648.753	0.0159354
648.831	0.0160048
648.909	0.0159879
648.987	0.0159310
649.065	0.0159895
649.143	0.0159518
649.221	0.0158806
649.299	0.0157970
649.378	0.0159216
649.456	0.0160259
649.534	0.0157816
649.612	0.0159595
649.690	0.0159716
649.768	0.0159148
649.846	0.0158702
649.924	0.0157970
650.003	0.0159534
650.081	0.0158709
650.159	0.0158962
650.237	0.0158605
650.315	0.0158003
650.393	0.0158428
650.471	0.0158966
650.549	0.0158515
650.628	0.0159506
650.706	0.0160683
650.784	0.0159913
650.862	0.0159238
650.940	0.0159275
651.018	0.0158958
651.096	0.0159560
651.174	0.0158939
651.253	0.0158533
651.331	0.0161205
651.409	0.0158929
651.487	0.0158976
651.565	0.0160054
651.643	0.0160439
651.721	0.0158798
651.799	0.0158535
651.878	0.0160847
651.956	0.0159707
652.034	0.0160464
652.112	0.0160908
652.190	0.0159660
652.268	0.0160955
652.346	0.0159267
652.424	0.0160574
652.503	0.0161221
652.581	0.0159766
652.659	0.0158076
652.737	0.0159125
652.815	0.0158481
652.893	0.0160007
652.971	0.0160601
653.049	0.0159988
653.128	0.0159527
653.206	0.0160375
653.284	0.0160000
653.362	0.0159642
653.440	0.0160684
653.518	0.0160527
653.596	0.0158879
653.674	0.0159141
653.753	0.0159513
653.831	0.0159593
653.909	0.0159503
653.987	0.0161153
654.065	0.0161260
654.143	0.0158228
654.221	0.0158002
654.299	0.0158950
654.378	0.0158354
654.456	0.0159194
654.534	0.0158754
654.612	0.0160282
654.690	0.0159606
654.768	0.0159505
654.846	0.0159881
654.924	0.0159962
655.003	0.0160419
655.081	0.0161169
655.159	0.0160382
655.237	0.0161059
655.315	0.0160802
655.393	0.0161057
655.471	0.0161219
655.549	0.0161658
655.628	0.0161374
655.706	0.0161066
655.784	0.0162341
655.862	0.0161707
655.940	0.0160897
656.018	0.0162012
656.096	0.0160474
656.174	0.0160598
656.253	0.0161504
656.331	0.0160320
656.409	0.0161237
656.487	0.0161918
656.565	0.0161986
656.643	0.0160476
656.721	0.0160046
656.799	0.0161404
656.878	0.0160196
656.956	0.0160130
657.034	0.0161176
657.112	0.0160048
657.190	0.0160585
657.268	0.0159430
657.346	0.0158640
657.424	0.0159315
657.503	0.0160277
657.581	0.0160896
657.659	0.0160022
657.737	0.0158541
657.815	0.0159147
657.893	0.0158044
657.971	0.0160275
658.049	0.0159623
658.128	0.0159451
658.206	0.0159218
658.284	0.0159117
658.362	0.0160242
658.440	0.0159879
658.518	0.0159785
658.596	0.0160467
658.674	0.0160962
658.753	0.0159641
658.831	0.0161252
658.909	0.0161968
658.987	0.0161235
659.065	0.0161105
659.143	0.0161883
659.221	0.0163416
659.299	0.0161576
659.378	0.0162434
659.456	0.0162964
659.534	0.0161713
659.612	0.0162556
659.690	0.0162325
659.768	0.0162227
659.846	0.0159662
659.924	0.0162623
660.003	0.0161780
660.081	0.0160252
660.159	0.0160726
660.237	0.0159448
660.315	0.0159456
660.393	0.0158804
660.471	0.0158429
660.549	0.0158141
660.628	0.0159145
660.706	0.0158859
660.784	0.0157600
660.862	0.0158382
660.940	0.0158216
661.018	0.0157974
661.096	0.0157593
661.174	0.0155382
661.253	0.0156325
661.331	0.0158176
661.409	0.0157247
661.487	0.0158556
661.565	0.0157934
661.643	0.0157545
661.721	0.0158657
661.799	0.0159089
661.878	0.0156923
661.956	0.0157966
662.034	0.0160456
662.112	0.0158842
662.190	0.0160227
662.268	0.0159552
662.346	0.0159473
662.424	0.0160933
662.503	0.0159530
662.581	0.0158443
662.659	0.0161672
662.737	0.0161366
662.815	0.0160466
662.893	0.0160974
662.971	0.0161954
663.049	0.0160983
663.128	0.0161835
663.206	0.0162668
663.284	0.0161156
663.362	0.0161597
663.440	0.0161598
663.518	0.0162088
663.596	0.0161192
663.674	0.0161231
663.753	0.0161769
663.831	0.0161137
663.909	0.0161150
663.987	0.0161338
664.065	0.0161407
664.143	0.0161616
664.221	0.0160894
664.299	0.0161295
664.378	0.0161246
664.456	0.0162252
664.534	0.0161018
664.612	0.0160004
664.690	0.0162015
664.768	0.0161794
664.846	0.0160745
664.924	0.0160522
665.003	0.0160066
665.081	0.0160426
665.159	0.0160210
665.237	0.0159167
665.315	0.0159353
665.393	0.0159856
665.471	0.0157893
665.549	0.0157916
665.628	0.0157977
665.706	0.0157501
665.784	0.0157231
665.862	0.0155978
665.940	0.0157391
666.018	0.0157541
666.096	0.0156351
666.174	0.0157105
666.253	0.0156532
666.331	0.0156445
666.409	0.0157060
666.487	0.0156497
666.565	0.0157429
666.643	0.0156945
666.721	0.0156763
666.799	0.0158083
666.878	0.0157813
666.956	0.0158070
667.034	0.0158555
667.112	0.0158543
667.190	0.0158796
667.268	0.0159430
667.346	0.0159071
667.424	0.0158998
667.503	0.0158805
667.581	0.0159437
667.659	0.0159752
667.737	0.0159585
667.815	0.0159773
667.893	0.0159449
667.971	0.0159677
668.049	0.0159740
668.128	0.0161299
668.206	0.0160131
668.284	0.0159934
668.362	0.0160875
668.440	0.0162041
668.518	0.0160717
668.596	0.0162292
668.674	0.0162091
668.753	0.0160774
668.831	0.0161071
668.909	0.0161781
668.987	0.0162795
669.065	0.0163567
669.143	0.0163953
669.221	0.0164478
669.299	0.0163604
669.378	0.0164142
669.456	0.0164685
669.534	0.0164510
669.612	0.0163718
669.690	0.0163514
669.768	0.0164005
669.846	0.0162782
669.924	0.0161755
670.003	0.0161414
670.081	0.0161169
670.159	0.0162161
670.237	0.0159537
670.315	0.0159176
670.393	0.0157935
670.471	0.0158929
670.549	0.0157811
670.628	0.0156441
670.706	0.0156940
670.784	0.0156940
670.862	0.0157756
670.940	0.0156943
671.018	0.0156876
671.096	0.0154272
671.174	0.0155100
671.253	0.0156407
671.331	0.0155509
671.409	0.0155556
671.487	0.0154523
671.565	0.0156973
671.643	0.0157012
671.721	0.0156771
671.799	0.0158290
671.878	0.0158620
671.956	0.0159029
672.034	0.0158648
672.112	0.0159045
672.190	0.0159199
672.268	0.0160865
672.346	0.0161477
672.424	0.0160590
672.503	0.0160889
672.581	0.0159507
672.659	0.0160977
672.737	0.0161806
672.815	0.0161330
672.893	0.0161612
672.971	0.0161639
673.049	0.0160548
673.128	0.0161726
673.206	0.0161841
673.284	0.0159427
673.362	0.0159953
673.440	0.0161559
673.518	0.0161039
673.596	0.0159781
673.674	0.0160207
673.753	0.0159078
673.831	0.0159141
673.909	0.0159084
673.987	0.0158829
674.065	0.0158492
674.143	0.0157611
674.221	0.0158345
674.299	0.0157573
674.378	0.0158299
674.456	0.0158395
674.534	0.0158714
674.612	0.0159798
674.690	0.0158303
674.768	0.0159641
674.846	0.0159362
674.924	0.0160576
675.003	0.0159826
675.081	0.0160462
675.159	0.0161745
675.237	0.0161474
675.315	0.0161549
675.393	0.0161508
675.471	0.0163261
675.549	0.0162571
675.628	0.0162920
675.706	0.0163670
675.784	0.0160844
675.862	0.0162923
675.940	0.0161185
676.018	0.0161337
676.096	0.0162021
676.174	0.0160480
676.253	0.0159328
676.331	0.0159921
676.409	0.0160696
676.487	0.0159315
676.565	0.0160303
676.643	0.0158997
676.721	0.0158265
676.799	0.0158770
676.878	0.0160297
676.956	0.0157917
677.034	0.0156860
677.112	0.0157881
677.190	0.0156410
677.268	0.0157563
677.346	0.0158151
677.424	0.0157587
677.503	0.0157337
677.581	0.0159386
677.659	0.0156203
677.737	0.0156328
677.815	0.0156505
677.893	0.0156846
677.971	0.0157563
678.049	0.0156243
678.128	0.0156496
678.206	0.0156575
678.284	0.0157899
678.362	0.0156546
678.440	0.0157511
678.518	0.0158820
678.596	0.0158906
678.674	0.0159234
678.753	0.0158767
678.831	0.0160347
678.909	0.0159952
678.987	0.0160110
679.065	0.0159542
679.143	0.0159715
679.221	0.0160133
679.299	0.0161346
679.378	0.0160812
679.456	0.0162436
679.534	0.0162002
679.612	0.0163029
679.690	0.0162213
679.768	0.0164884
679.846	0.0164649
679.924	0.0163004
680.003	0.0164104
680.081	0.0166113
680.159	0.0163917
680.237	0.0163023
680.315	0.0164854
680.393	0.0165329
680.471	0.0163567
680.549	0.0162551
680.628	0.0162770
680.706	0.0163232
680.784	0.0161877
680.862	0.0163660
680.940	0.0161048
681.018	0.0159407
681.096	0.0160743
681.174	0.0160072
681.253	0.0161155
681.331	0.0159014
681.409	0.0157375
681.487	0.0156812
681.565	0.0157375
681.643	0.0157399
681.721	0.0155679
681.799	0.0156242
681.878	0.0155868
681.956	0.0155061
682.034	0.0154525
682.112	0.0155621
682.190	0.0155865
682.268	0.0155457
682.346	0.0157260
682.424	0.0156931
682.503	0.0156635
682.581	0.0157750
682.659	0.0158081
682.737	0.0158960
682.815	0.0159162
682.893	0.0158532
682.971	0.0159662
683.049	0.0158596
683.128	0.0160034
683.206	0.0158984
683.284	0.0159019
683.362	0.0160844
683.440	0.0160464
683.518	0.0160796
683.596	0.0161433
683.674	0.0160957
683.753	0.0162229
683.831	0.0161635
683.909	0.0161200
683.987	0.0159879
684.065	0.0160140
684.143	0.0161322
684.221	0.0160329
684.299	0.0160324
684.378	0.0160695
684.456	0.0159830
684.534	0.0159914
684.612	0.0160125
684.690	0.0160374
684.768	0.0160350
684.846	0.0160373
684.924	0.0159694
685.003	0.0158931
685.081	0.0159022
685.159	0.0158609
685.237	0.0157024
685.315	0.0158273
685.393	0.0159283
685.471	0.0158300
685.549	0.0156924
685.628	0.0156632
685.706	0.0156686
685.784	0.0157548
685.862	0.0156295
685.940	0.0157475
686.018	0.0158606
686.096	0.0159209
686.174	0.0158152
686.253	0.0159519
686.331	0.0161105
686.409	0.0159978
686.487	0.0159194
686.565	0.0159785
686.643	0.0160674
686.721	0.0161150
686.799	0.0160573
686.878	0.0162121
686.956	0.0161209
687.034	0.0161744
687.112	0.0159900
687.190	0.0162264
687.268	0.0162211
687.346	0.0161261
687.424	0.0160314
687.503	0.0160628
687.581	0.0160741
687.659	0.0159351
687.737	0.0159142
687.815	0.0160242
687.893	0.0158844
687.971	0.0158985
688.049	0.0157961
688.128	0.0158267
688.206	0.0158138
688.284	0.0156944
688.362	0.0156196
688.440	0.0156902
688.518	0.0158501
688.596	0.0156927
688.674	0.0156830
688.753	0.0156200
688.831	0.0154959
688.909	0.0155370
688.987	0.0155133
689.065	0.0156457
689.143	0.0157735
689.221	0.0158318
689.299	0.0157484
689.378	0.0157456
689.456	0.0157143
689.534	0.0159213
689.612	0.0159215
689.690	0.0158931
689.768	0.0159090
689.846	0.0161226
689.924	0.0160970
690.003	0.0160626
690.081	0.0159935
690.159	0.0161955
690.237	0.0161519
690.315	0.0161075
690.393	0.0161610
690.471	0.0162036
690.549	0.0162280
690.628	0.0160989
690.706	0.0161743
690.784	0.0160505
690.862	0.0160690
690.940	0.0161702
691.018	0.0159782
691.096	0.0159401
691.174	0.0159216
691.253	0.0161147
691.331	0.0160668
691.409	0.0160054
691.487	0.0159842
691.565	0.0159705
691.643	0.0159600
691.721	0.0159631
691.799	0.0158266
691.878	0.0157495
691.956	0.0159014
692.034	0.0158711
692.112	0.0158042
692.190	0.0157572
692.268	0.0157458
692.346	0.0157233
692.424	0.0156597
692.503	0.0158077
692.581	0.0158832
692.659	0.0157808
692.737	0.0157248
692.815	0.0157899
692.893	0.0157822
692.971	0.0159361
693.049	0.0157186
693.128	0.0158714
693.206	0.0159815
693.284	0.0159296
693.362	0.0158945
693.440	0.0159547
693.518	0.0160003
693.596	0.0159534
693.674	0.0160397
693.753	0.0158208
693.831	0.0157658
693.909	0.0159933
693.987	0.0159720
694.065	0.0159749
694.143	0.0158656
694.221	0.0159268
694.299	0.0160615
694.378	0.0160146
694.456	0.0159583
694.534	0.0160965
694.612	0.0161163
694.690	0.0159518
694.768	0.0160590
694.846	0.0162137
694.924	0.0161552
695.003	0.0162794
695.081	0.0162295
695.159	0.0161947
695.237	0.0162156
695.315	0.0162086
695.393	0.0162154
695.471	0.0161878
695.549	0.0162534
695.628	0.0161623
695.706	0.0161972
695.784	0.0161160
695.862	0.0161204
695.940	0.0159650
696.018	0.0159761
696.096	0.0160394
696.174	0.0158994
696.253	0.0158765
696.331	0.0158400
696.409	0.0158486
696.487	0.0156255
696.565	0.0159670
696.643	0.0157713
696.721	0.0158175
696.799	0.0157715
696.878	0.0157800
696.956	0.0158744
697.034	0.0159116
697.112	0.0159534
697.190	0.0158822
697.268	0.0159718
697.346	0.0159998
697.424	0.0161308
697.503	0.0159863
697.581	0.0160574
697.659	0.0161210
697.737	0.0160513
697.815	0.0161272
697.893	0.0162405
697.971	0.0160587
698.049	0.0160616
698.128	0.0161803
698.206	0.0160710
698.284	0.0161649
698.362	0.0161349
698.440	0.0161331
698.518	0.0160898
698.596	0.0161610
698.674	0.0161420
698.753	0.0160069
698.831	0.0159418
698.909	0.0161664
698.987	0.0159325
699.065	0.0159380
699.143	0.0159884
699.221	0.0159385
699.299	0.0159621
699.378	0.0159874
699.456	0.0160029
699.534	0.0159775
699.612	0.0158511
699.690	0.0157479
699.768	0.0157953
699.846	0.0159171
699.924	0.0159174
700.003	0.0158780
700.081	0.0158169
700.159	0.0159328
700.237	0.0160843
700.315	0.0159734
700.393	0.0161038
700.471	0.0159845
700.549	0.0158270
700.628	0.0160397
700.706	0.0159967
700.784	0.0160041
700.862	0.0160677
700.940	0.0160508
701.018	0.0160017
701.096	0.0159980
701.174	0.0158221
701.253	0.0159605
701.331	0.0159431
701.409	0.0159244
701.487	0.0158493
701.565	0.0158891
701.643	0.0159138
701.721	0.0159190
701.799	0.0159377
701.878	0.0159764
701.956	0.0159099
702.034	0.0159609
702.112	0.0158337
702.190	0.0158149
702.268	0.0158342
702.346	0.0158691
702.424	0.0161353
702.503	0.0158937
702.581	0.0158881
702.659	0.0158215
702.737	0.0160188
702.815	0.0160680
702.893	0.0159290
702.971	0.0159264
703.049	0.0161003
703.128	0.0161023
703.206	0.0160056
703.284	0.0160118
703.362	0.0159650
703.440	0.0161347
703.518	0.0160226
703.596	0.0160732
703.674	0.0160256
703.753	0.0159860
703.831	0.0160712
703.909	0.0161299
703.987	0.0160254
704.065	0.0159606
704.143	0.0160445
704.221	0.0159972
704.299	0.0160393
704.378	0.0159544
704.456	0.0158025
704.534	0.0158283
704.612	0.0160911
704.690	0.0158236
704.768	0.0159840
704.846	0.0159635
704.924	0.0160078
705.003	0.0158676
705.081	0.0158813
705.159	0.0159008
705.237	0.0158701
705.315	0.0159125
705.393	0.0158762
705.471	0.0158204
705.549	0.0159052
705.628	0.0157639
705.706	0.0157088
705.784	0.0158336
705.862	0.0157262
705.940	0.0158381
706.018	0.0157011
706.096	0.0156823
706.174	0.0156657
706.253	0.0157266
706.331	0.0158497
706.409	0.0156540
706.487	0.0156591
706.565	0.0156905
706.643	0.0157449
706.721	0.0158009
706.799	0.0159135
706.878	0.0158193
706.956	0.0159357
707.034	0.0159519
707.112	0.0159600
707.190	0.0159612
707.268	0.0161134
707.346	0.0160679
707.424	0.0160787
707.503	0.0160395
707.581	0.0161847
707.659	0.0161607
707.737	0.0162148
707.815	0.0161957
707.893	0.0160413
707.971	0.0162495
708.049	0.0161154
708.128	0.0161223
708.206	0.0159925
708.284	0.0159261
708.362	0.0160617
708.440	0.0161105
708.518	0.0160403
708.596	0.0159720
708.674	0.0160635
708.753	0.0159391
708.831	0.0159042
708.909	0.0159912
708.987	0.0159418
709.065	0.0158817
709.143	0.0159432
709.221	0.0159097
709.299	0.0159701
709.378	0.0159332
709.456	0.0158805
709.534	0.0158863
709.612	0.0159615
709.690	0.0160208
709.768	0.0156708
709.846	0.0159641
709.924	0.0158391
710.003	0.0158132
710.081	0.0159458
710.159	0.0158492
710.237	0.0157748
710.315	0.0159468
710.393	0.0157950
710.471	0.0156285
710.549	0.0158843
710.628	0.0158386
710.706	0.0156232
710.784	0.0157627
710.862	0.0158589
710.940	0.0158206
711.018	0.0159048
711.096	0.0159918
711.174	0.0159329
711.253	0.0158761
711.331	0.0158282
711.409	0.0159633
711.487	0.0160136
711.565	0.0159341
711.643	0.0160200
711.721	0.0161117
711.799	0.0159318
711.878	0.0159724
711.956	0.0158916
712.034	0.0161245
712.112	0.0161924
712.190	0.0161407
712.268	0.0162106
712.346	0.0161958
712.424	0.0162256
712.503	0.0160535
712.581	0.0160964
712.659	0.0160171
712.737	0.0160703
712.815	0.0162868
712.893	0.0162506
712.971	0.0160664
713.049	0.0162460
713.128	0.0161108
713.206	0.0161967
713.284	0.0160835
713.362	0.0161018
713.440	0.0161047
713.518	0.0160071
713.596	0.0158713
713.674	0.0158711
713.753	0.0159538
713.831	0.0158967
713.909	0.0159214
713.987	0.0159184
714.065	0.0159880
714.143	0.0157880
714.221	0.0157867
714.299	0.0158939
714.378	0.0159503
714.456	0.0159376
714.534	0.0157854
714.612	0.0157959
714.690	0.0157731
714.768	0.0157675
714.846	0.0158530
714.924	0.0158535
715.003	0.0157497
715.081	0.0157621
715.159	0.0158859
715.237	0.0158132
715.315	0.0161363
715.393	0.0160073
715.471	0.0161537
715.549	0.0160970
715.628	0.0161039
715.706	0.0161856
715.784	0.0161714
715.862	0.0162701
715.940	0.0161130
716.018	0.0161526
716.096	0.0160201
716.174	0.0161837
716.253	0.0161684
716.331	0.0161160
716.409	0.0160033
716.487	0.0161034
716.565	0.0159861
716.643	0.0160191
716.721	0.0160192
716.799	0.0159390
716.878	0.0159242
716.956	0.0160493
717.034	0.0159277
717.112	0.0158325
717.190	0.0157748
717.268	0.0159703
717.346	0.0160026
717.424	0.0160623
717.503	0.0158447
717.581	0.0159364
717.659	0.0159756
717.737	0.0159770
717.815	0.0159806
717.893	0.0160011
717.971	0.0160664
718.049	0.0159872
718.128	0.0159776
718.206	0.0160181
718.284	0.0160609
718.362	0.0159716
718.440	0.0159637
718.518	0.0160082
718.596	0.0157488
718.674	0.0158341
718.753	0.0160565
718.831	0.0159852
718.909	0.0157541
718.987	0.0159408
719.065	0.0158979
719.143	0.0159715
719.221	0.0160300
719.299	0.0160805
719.378	0.0160096
719.456	0.0160820
719.534	0.0161040
719.612	0.0161167
719.690	0.0161101
719.768	0.0160529
719.846	0.0159391
719.924	0.0160208
720.003	0.0159141
720.081	0.0160175
720.159	0.0161954
720.237	0.0161292
720.315	0.0161015
720.393	0.0159618
720.471	0.0161681
720.549	0.0161396
720.628	0.0161079
720.706	0.0160831
720.784	0.0160397
720.862	0.0159347
720.940	0.0159593
721.018	0.0160899
721.096	0.0159355
721.174	0.0159767
721.253	0.0160368
721.331	0.0160303
721.409	0.0159476
721.487	0.0158939
721.565	0.0158530
721.643	0.0159071
721.721	0.0159062
721.799	0.0158431
721.878	0.0158858
721.956	0.0157929
722.034	0.0160110
722.112	0.0159190
722.190	0.0160629
722.268	0.0160767
722.346	0.0160518
722.424	0.0158538
722.503	0.0161636
722.581	0.0160603
722.659	0.0162431
722.737	0.0162431
722.815	0.0159939
722.893	0.0161459
722.971	0.0161414
723.049	0.0160707
723.128	0.0161443
723.206	0.0160689
723.284	0.0160785
723.362	0.0161401
723.440	0.0161636
723.518	0.0160663
723.596	0.0162035
723.674	0.0160562
723.753	0.0162036
723.831	0.0162134
723.909	0.0160178
723.987	0.0159297
724.065	0.0160061
724.143	0.0162579
724.221	0.0160252
724.299	0.0160308
724.378	0.0159888
724.456	0.0159193
724.534	0.0161085
724.612	0.0159879
724.690	0.0159043
724.768	0.0158689
724.846	0.0160458
724.924	0.0160148
725.003	0.0159683
725.081	0.0160390
725.159	0.0159041
725.237	0.0158893
725.315	0.0160050
725.393	0.0160641
725.471	0.0159568
725.549	0.0159447
725.628	0.0159987
725.706	0.0161112
725.784	0.0159129
725.862	0.0159840
725.940	0.0159774
726.018	0.0160709
726.096	0.0160827
726.174	0.0159741
726.253	0.0159872
726.331	0.0158044
726.409	0.0159394
726.487	0.0159454
726.565	0.0161242
726.643	0.0159339
726.721	0.0158475
726.799	0.0160052
726.878	0.0161064
726.956	0.0159848
727.034	0.0160255
727.112	0.0161218
727.190	0.0160282
727.268	0.0161217
727.346	0.0160143
727.424	0.0160925
727.503	0.0159672
727.581	0.0160361
727.659	0.0161860
727.737	0.0159435
727.815	0.0160837
727.893	0.0160191
727.971	0.0160880
728.049	0.0160294
728.128	0.0157762
728.206	0.0158773
728.284	0.0158656
728.362	0.0158199
728.440	0.0159543
728.518	0.0158553
728.596	0.0159962
728.674	0.0159123
728.753	0.0158698
728.831	0.0158115
728.909	0.0158086
728.987	0.0158318
729.065	0.0158408
729.143	0.0158321
729.221	0.0157703
729.299	0.0158739
729.378	0.0158014
729.456	0.0157336
729.534	0.0158661
729.612	0.0158356
729.690	0.0158821
729.768	0.0157502
729.846	0.0157899
729.924	0.0158807
730.003	0.0160653
730.081	0.0159203
730.159	0.0160068
730.237	0.0158368
730.315	0.0158752
730.393	0.0160329
730.471	0.0158771
730.549	0.0159142
730.628	0.0159824
730.706	0.0159518
730.784	0.0158961
730.862	0.0160686
730.940	0.0159447
731.018	0.0160120
731.096	0.0160547
731.174	0.0159818
731.253	0.0160596
731.331	0.0159976
731.409	0.0160184
731.487	0.0159425
731.565	0.0160091
731.643	0.0161594
731.721	0.0161425
731.799	0.0160437
731.878	0.0159904
731.956	0.0159619
732.034	0.0161340
732.112	0.0160226
732.190	0.0159819
732.268	0.0160204
732.346	0.0160778
732.424	0.0160347
732.503	0.0160001
732.581	0.0159855
732.659	0.0158646
732.737	0.0158782
732.815	0.0157668
732.893	0.0159697
732.971	0.0158906
733.049	0.0158672
733.128	0.0158706
733.206	0.0159492
733.284	0.0159502
733.362	0.0157341
733.440	0.0158859
733.518	0.0159440
733.596	0.0160602
733.674	0.0160851
733.753	0.0157630
733.831	0.0158485
733.909	0.0160075
733.987	0.0158518
734.065	0.0157504
734.143	0.0158796
734.221	0.0158561
734.299	0.0159106
734.378	0.0159219
734.456	0.0158769
734.534	0.0159579
734.612	0.0159590
734.690	0.0159306
734.768	0.0159408
734.846	0.0160352
734.924	0.0161149
735.003	0.0159952
735.081	0.0160232
735.159	0.0160431
735.237	0.0160777
735.315	0.0159998
735.393	0.0159608
735.471	0.0159985
735.549	0.0160867
735.628	0.0159733
735.706	0.0159073
735.784	0.0158866
735.862	0.0159708
735.940	0.0158766
736.018	0.0160355
736.096	0.0158965
736.174	0.0158827
736.253	0.0159977
736.331	0.0159715
736.409	0.0159626
736.487	0.0160368
736.565	0.0160152
736.643	0.0159675
736.721	0.0161497
736.799	0.0160893
736.878	0.0159816
736.956	0.0161237
737.034	0.0160826
737.112	0.0160888
737.190	0.0160089
737.268	0.0159947
737.346	0.0160432
737.424	0.0158851
737.503	0.0159229
737.581	0.0159266
737.659	0.0159167
737.737	0.0160520
737.815	0.0159189
737.893	0.0157245
737.971	0.0159756
738.049	0.0159246
738.128	0.0158567
738.206	0.0158626
738.284	0.0158127
738.362	0.0158439
738.440	0.0158274
738.518	0.0158923
738.596	0.0158369
738.674	0.0159184
738.753	0.0160295
738.831	0.0158522
738.909	0.0158669
738.987	0.0160081
739.065	0.0158495
739.143	0.0159473
739.221	0.0159399
739.299	0.0159737
739.378	0.0158537
739.456	0.0159023
739.534	0.0159192
739.612	0.0159842
739.690	0.0159969
739.768	0.0160806
739.846	0.0159615
739.924	0.0158330
740.003	0.0159942
740.081	0.0160045
740.159	0.0160699
740.237	0.0159868
740.315	0.0160175
740.393	0.0159872
740.471	0.0159881
740.549	0.0158058
740.628	0.0160145
740.706	0.0159898
740.784	0.0160574
740.862	0.0160343
740.940	0.0159488
741.018	0.0159983
741.096	0.0159270
741.174	0.0159830
741.253	0.0159374
741.331	0.0160519
741.409	0.0160699
741.487	0.0160841
741.565	0.0158662
741.643	0.0159816
741.721	0.0159593
741.799	0.0159784
741.878	0.0159359
741.956	0.0159266
742.034	0.0161028
742.112	0.0160339
742.190	0.0160232
742.268	0.0160016
742.346	0.0160105
742.424	0.0159111
742.503	0.0159597
742.581	0.0161311
742.659	0.0159209
742.737	0.0160480
742.815	0.0159770
742.893	0.0160740
742.971	0.0160119
743.049	0.0160638
743.128	0.0159621
743.206	0.0161208
743.284	0.0160229
743.362	0.0159275
743.440	0.0159515
743.518	0.0159253
743.596	0.0160728
743.674	0.0159713
743.753	0.0158881
743.831	0.0159179
743.909	0.0158047
743.987	0.0159433
744.065	0.0159650
744.143	0.0159657
744.221	0.0159180
744.299	0.0159090
744.378	0.0159534
744.456	0.0160223
744.534	0.0159328
744.612	0.0158894
744.690	0.0160107
744.768	0.0159004
744.846	0.0159871
744.924	0.0160160
745.003	0.0157961
745.081	0.0158479
745.159	0.0159779
745.237	0.0159505
745.315	0.0158578
745.393	0.0160169
745.471	0.0158980
745.549	0.0159604
745.628	0.0158788
745.706	0.0159518
745.784	0.0159861
745.862	0.0160860
745.940	0.0159308
746.018	0.0159337
746.096	0.0159571
746.174	0.0160757
746.253	0.0159776
746.331	0.0159333
746.409	0.0159629
746.487	0.0160573
746.565	0.0160878
746.643	0.0159326
746.721	0.0159770
746.799	0.0159981
746.878	0.0160543
746.956	0.0161362
747.034	0.0159904
747.112	0.0158999
747.190	0.0159499
747.268	0.0159975
747.346	0.0160407
747.424	0.0159486
747.503	0.0160626
747.581	0.0160450
747.659	0.0161910
747.737	0.0159997
747.815	0.0160886
747.893	0.0158647
747.971	0.0158807
748.049	0.0158625
748.128	0.0159338
748.206	0.0160516
748.284	0.0158485
748.362	0.0158833
748.440	0.0160304
748.518	0.0160412
748.596	0.0159309
748.674	0.0158905
748.753	0.0159488
748.831	0.0158502
748.909	0.0157671
748.987	0.0158406
749.065	0.0158257
749.143	0.0159177
749.221	0.0158297
749.299	0.0158878
749.378	0.0159497
749.456	0.0157507
749.534	0.0157696
749.612	0.0158646
749.690	0.0159447
749.768	0.0157553
749.846	0.0157484
749.924	0.0157202
750.003	0.0158936
750.081	0.0158192
750.159	0.0159015
750.237	0.0158112
750.315	0.0157073
750.393	0.0157453
750.471	0.0158514
750.549	0.0158664
750.628	0.0159748
750.706	0.0158913
750.784	0.0158855
750.862	0.0158723
750.940	0.0158941
751.018	0.0158347
751.096	0.0159111
751.174	0.0160504
751.253	0.0158896
751.331	0.0160174
751.409	0.0158852
751.487	0.0160736
751.565	0.0159869
751.643	0.0158455
751.721	0.0159138
751.799	0.0160264
751.878	0.0160804
751.956	0.0159361
752.034	0.0159308
752.112	0.0159705
752.190	0.0160263
752.268	0.0160055
752.346	0.0159673
752.424	0.0158645
752.503	0.0159145
752.581	0.0159394
752.659	0.0160835
752.737	0.0159299
752.815	0.0159116
752.893	0.0158781
752.971	0.0157970
753.049	0.0158695
753.128	0.0157880
753.206	0.0158925
753.284	0.0157165
753.362	0.0158209
753.440	0.0158501
753.518	0.0159225
753.596	0.0160267
753.674	0.0159699
753.753	0.0160133
753.831	0.0159067
753.909	0.0158176
753.987	0.0159314
754.065	0.0159774
754.143	0.0158317
754.221	0.0158864
754.299	0.0158994
754.378	0.0158778
754.456	0.0159828
754.534	0.0159077
754.612	0.0159337
754.690	0.0158405
754.768	0.0158676
754.846	0.0160294
754.924	0.0159023
755.003	0.0158069
755.081	0.0160016
755.159	0.0159837
755.237	0.0160227
755.315	0.0159700
755.393	0.0160254
755.471	0.0160467
755.549	0.0160608
755.628	0.0160133
755.706	0.0158685
755.784	0.0159257
755.862	0.0160679
755.940	0.0158223
756.018	0.0159402
756.096	0.0159583
756.174	0.0158695
756.253	0.0158974
756.331	0.0158475
756.409	0.0159427
756.487	0.0159602
756.565	0.0158624
756.643	0.0159892
756.721	0.0161467
756.799	0.0159884
756.878	0.0159397
756.956	0.0159601
757.034	0.0159365
757.112	0.0160239
757.190	0.0159051
757.268	0.0158875
757.346	0.0160828
757.424	0.0159419
757.503	0.0159282
757.581	0.0159185
757.659	0.0160731
757.737	0.0158706
757.815	0.0159427
757.893	0.0159131
757.971	0.0158601
758.049	0.0159594
758.128	0.0159871
758.206	0.0159519
758.284	0.0158418
758.362	0.0158725
758.440	0.0160137
758.518	0.0157112
758.596	0.0159034
758.674	0.0159918
758.753	0.0159818
758.831	0.0158936
758.909	0.0160016
758.987	0.0158652
759.065	0.0159229
759.143	0.0159456
759.221	0.0160163
759.299	0.0160008
759.378	0.0160101
759.456	0.0159745
759.534	0.0159673
759.612	0.0159953
759.690	0.0160049
759.768	0.0159789
759.846	0.0160631
759.924	0.0161018
760.003	0.0161118
760.081	0.0161025
760.159	0.0159937
760.237	0.0160358
760.315	0.0160354
760.393	0.0159817
760.471	0.0159326
760.549	0.0159978
760.628	0.0158990
760.706	0.0159022
760.784	0.0160461
760.862	0.0161240
760.940	0.0160612
761.018	0.0161745
761.096	0.0160467
761.174	0.0160467
761.253	0.0160751
761.331	0.0159858
761.409	0.0161254
761.487	0.0160978
761.565	0.0161157
761.643	0.0159952
761.721	0.0161124
761.799	0.0159845
761.878	0.0159228
761.956	0.0159707
762.034	0.0158644
762.112	0.0159753
762.190	0.0160268
762.268	0.0160412
762.346	0.0159064
762.424	0.0159133
762.503	0.0159857
762.581	0.0158682
762.659	0.0160604
762.737	0.0158260
762.815	0.0158682
762.893	0.0157807
762.971	0.0159085
763.049	0.0159828
763.128	0.0158937
763.206	0.0159187
763.284	0.0159391
763.362	0.0160053
763.440	0.0159568
763.518	0.0158926
763.596	0.0159061
763.674	0.0158674
763.753	0.0160297
763.831	0.0159321
763.909	0.0158284
763.987	0.0160195
764.065	0.0160357
764.143	0.0160128
764.221	0.0160283
764.299	0.0160577
764.378	0.0161499
764.456	0.0159724
764.534	0.0160913
764.612	0.0159623
764.690	0.0160744
764.768	0.0161542
764.846	0.0159740
764.924	0.0159783
765.003	0.0160766
765.081	0.0160067
765.159	0.0159671
765.237	0.0160318
765.315	0.0160179
765.393	0.0159355
765.471	0.0160107
765.549	0.0161214
765.628	0.0160198
765.706	0.0160866
765.784	0.0160376
765.862	0.0159840
765.940	0.0161598
766.018	0.0160194
766.096	0.0160564
766.174	0.0160522
766.253	0.0159718
766.331	0.0161675
766.409	0.0161070
766.487	0.0161115
766.565	0.0161752
766.643	0.0161703
766.721	0.0160265
766.799	0.0159811
766.878	0.0161391
766.956	0.0160610
767.034	0.0160083
767.112	0.0160017
767.190	0.0160829
767.268	0.0160781
767.346	0.0160559
767.424	0.0159703
767.503	0.0159941
767.581	0.0159605
767.659	0.0160284
767.737	0.0162579
767.815	0.0161335
767.893	0.0160577
767.971	0.0160257
768.049	0.0159503
768.128	0.0159151
768.206	0.0160770
768.284	0.0160449
768.362	0.0160122
768.440	0.0160112
768.518	0.0157884
768.596	0.0158563
768.674	0.0160703
768.753	0.0159844
768.831	0.0158889
768.909	0.0160387
768.987	0.0159993
769.065	0.0159193
769.143	0.0159987
769.221	0.0160107
769.299	0.0160822
769.378	0.0160921
769.456	0.0160310
769.534	0.0159436
769.612	0.0159500
769.690	0.0159156
769.768	0.0160534
769.846	0.0160545
769.924	0.0159423
770.003	0.0159453
770.081	0.0159807
770.159	0.0160853
770.237	0.0160285
770.315	0.0160456
770.393	0.0160332
770.471	0.0160860
770.549	0.0161407
770.628	0.0160047
770.706	0.0161539
770.784	0.0159286
770.862	0.0159029
770.940	0.0160286
771.018	0.0159956
771.096	0.0158548
771.174	0.0158604
771.253	0.0159020
771.331	0.0158568
771.409	0.0160720
771.487	0.0160427
771.565	0.0159615
771.643	0.0159103
771.721	0.0160521
771.799	0.0158968
771.878	0.0158982
771.956	0.0160467
772.034	0.0157771
772.112	0.0158695
772.190	0.0158872
772.268	0.0159946
772.346	0.0159418
772.424	0.0158589
772.503	0.0160397
772.581	0.0159144
772.659	0.0158920
772.737	0.0158090
772.815	0.0156960
772.893	0.0159483
772.971	0.0158491
773.049	0.0158458
773.128	0.0158872
773.206	0.0159013
773.284	0.0159033
773.362	0.0158108
773.440	0.0158237
773.518	0.0159991
773.596	0.0159499
773.674	0.0157599
773.753	0.0158708
773.831	0.0157014
773.909	0.0157392
773.987	0.0158940
774.065	0.0159732
774.143	0.0160120
774.221	0.0160734
774.299	0.0158820
774.378	0.0158854
774.456	0.0158969
774.534	0.0158856
774.612	0.0157809
774.690	0.0157800
774.768	0.0159210
774.846	0.0157220
774.924	0.0158244
775.003	0.0158598
775.081	0.0157336
775.159	0.0157768
775.237	0.0157602
775.315	0.0158160
775.393	0.0159364
775.471	0.0158694
775.549	0.0159174
775.628	0.0159193
775.706	0.0158779
775.784	0.0158232
775.862	0.0158624
775.940	0.0159258
776.018	0.0158945
776.096	0.0159203
776.174	0.0158784
776.253	0.0160805
776.331	0.0160680
776.409	0.0158867
776.487	0.0159997
776.565	0.0160196
776.643	0.0160690
776.721	0.0159842
776.799	0.0159522
776.878	0.0158852
776.956	0.0159336
777.034	0.0158741
777.112	0.0159188
777.190	0.0159785
777.268	0.0159061
777.346	0.0160369
777.424	0.0159089
777.503	0.0160458
777.581	0.0159708
777.659	0.0158776
777.737	0.0159009
777.815	0.0158438
777.893	0.0159915
777.971	0.0159135
778.049	0.0160084
778.128	0.0158810
778.206	0.0158859
778.284	0.0158837
778.362	0.0158427
778.440	0.0158777
778.518	0.0159883
778.596	0.0159991
778.674	0.0157767
778.753	0.0159157
778.831	0.0159607
778.909	0.0157827
778.987	0.0159053
779.065	0.0160115
779.143	0.0158071
779.221	0.0158795
779.299	0.0159409
779.378	0.0158371
779.456	0.0159138
779.534	0.0158189
779.612	0.0159057
779.690	0.0159505
779.768	0.0158875
779.846	0.0157901
779.924	0.0158279
780.003	0.0157220
780.081	0.0158067
780.159	0.0159115
780.237	0.0159266
780.315	0.0159194
780.393	0.0158997
780.471	0.0160737
780.549	0.0159748
780.628	0.0157974
780.706	0.0158080
780.784	0.0160764
780.862	0.0159224
780.940	0.0158112
781.018	0.0161157
781.096	0.0159448
781.174	0.0160859
781.253	0.0160455
781.331	0.0160059
781.409	0.0158338
781.487	0.0159577
781.565	0.0159841
781.643	0.0158849
781.721	0.0157780
781.799	0.0159277
781.878	0.0158715
781.956	0.0158933
782.034	0.0159018
782.112	0.0159521
782.190	0.0158482
782.268	0.0159319
782.346	0.0159538
782.424	0.0159763
782.503	0.0159853
782.581	0.0159703
782.659	0.0160464
782.737	0.0160188
782.815	0.0161056
782.893	0.0159325
782.971	0.0160614
783.049	0.0160730
783.128	0.0160142
783.206	0.0161266
783.284	0.0161438
783.362	0.0160942
783.440	0.0160629
783.518	0.0160296
783.596	0.0161197
783.674	0.0161302
783.753	0.0160607
783.831	0.0160986
783.909	0.0160379
783.987	0.0161530
784.065	0.0160638
784.143	0.0161182
784.221	0.0160632
784.299	0.0161639
784.378	0.0161197
784.456	0.0159281
784.534	0.0159619
784.612	0.0159365
784.690	0.0160095
784.768	0.0160645
784.846	0.0159801
784.924	0.0159856
785.003	0.0160934
785.081	0.0160321
785.159	0.0160915
785.237	0.0160963
785.315	0.0160651
785.393	0.0160087
785.471	0.0159277
785.549	0.0158971
785.628	0.0160029
785.706	0.0159605
785.784	0.0159814
785.862	0.0161401
785.940	0.0159315
786.018	0.0159996
786.096	0.0160094
786.174	0.0160728
786.253	0.0160497
786.331	0.0159158
786.409	0.0160209
786.487	0.0158781
786.565	0.0159834
786.643	0.0161458
786.721	0.0159478
786.799	0.0159518
786.878	0.0158588
786.956	0.0159180
787.034	0.0158788
787.112	0.0159840
787.190	0.0161102
787.268	0.0159459
787.346	0.0159238
787.424	0.0160284
787.503	0.0160992
787.581	0.0159144
787.659	0.0159476
787.737	0.0159796
787.815	0.0160480
787.893	0.0159795
787.971	0.0161099
788.049	0.0160031
788.128	0.0159586
788.206	0.0159317
788.284	0.0159560
788.362	0.0161067
788.440	0.0161652
788.518	0.0159562
788.596	0.0159341
788.674	0.0160474
788.753	0.0159192
788.831	0.0159133
788.909	0.0158763
788.987	0.0159178
789.065	0.0159529
789.143	0.0159846
789.221	0.0159991
789.299	0.0159740
789.378	0.0160551
789.456	0.0161637
789.534	0.0160184
789.612	0.0159926
789.690	0.0159981
789.768	0.0161038
789.846	0.0160637
789.924	0.0161526
790.003	0.0160941
790.081	0.0162595
790.159	0.0161409
790.237	0.0161376
790.315	0.0160869
790.393	0.0161249
790.471	0.0160484
790.549	0.0162033
790.628	0.0160410
790.706	0.0160368
790.784	0.0161758
790.862	0.0160664
790.940	0.0161583
791.018	0.0161537
791.096	0.0160518
791.174	0.0161279
791.253	0.0161044
791.331	0.0161353
791.409	0.0160350
791.487	0.0160520
791.565	0.0161659
791.643	0.0160403
791.721	0.0162226
791.799	0.0161513
791.878	0.0161106
791.956	0.0160631
792.034	0.0160198
792.112	0.0160580
792.190	0.0160016
792.268	0.0159966
792.346	0.0160509
792.424	0.0160589
792.503	0.0159861
792.581	0.0160374
792.659	0.0159882
792.737	0.0159123
792.815	0.0159451
792.893	0.0159519
792.971	0.0158444
793.049	0.0159643
793.128	0.0159270
793.206	0.0158850
793.284	0.0159044
793.362	0.0157600
793.440	0.0158927
793.518	0.0158167
793.596	0.0158972
793.674	0.0158826
793.753	0.0158519
793.831	0.0158573
793.909	0.0158665
793.987	0.0158009
794.065	0.0159236
794.143	0.0159145
794.221	0.0158892
794.299	0.0158051
794.378	0.0158233
794.456	0.0158406
794.534	0.0159324
794.612	0.0159353
794.690	0.0158098
794.768	0.0159138
794.846	0.0158566
794.924	0.0159795
795.003	0.0158511
795.081	0.0159458
795.159	0.0159402
795.237	0.0161044
795.315	0.0159841
795.393	0.0160645
795.471	0.0160027
795.549	0.0160801
795.628	0.0159631
795.706	0.0160210
795.784	0.0159707
795.862	0.0159480
795.940	0.0159680
796.018	0.0159905
796.096	0.0160102
796.174	0.0161274
796.253	0.0161060
796.331	0.0159338
796.409	0.0160580
796.487	0.0161828
796.565	0.0161145
796.643	0.0161813
796.721	0.0161581
796.799	0.0162754
796.878	0.0161407
796.956	0.0159194
797.034	0.0160857
797.112	0.0160503
797.190	0.0158809
797.268	0.0160414
797.346	0.0161332
797.424	0.0162450
797.503	0.0160383
797.581	0.0160870
797.659	0.0161372
797.737	0.0160983
797.815	0.0161819
797.893	0.0159858
797.971	0.0160674
798.049	0.0159850
798.128	0.0160854
798.206	0.0160298
798.284	0.0159235
798.362	0.0159908
798.440	0.0158780
798.518	0.0159357
798.596	0.0159930
798.674	0.0159589
798.753	0.0160174
798.831	0.0160139
798.909	0.0159598
798.987	0.0159487
799.065	0.0159335
799.143	0.0159821
799.221	0.0159119
799.299	0.0159888
799.378	0.0160817
799.456	0.0160146
799.534	0.0159007
799.612	0.0158607
799.690	0.0160142
799.768	0.0158303
799.846	0.0160125
799.924	0.0159489
800.003	0.0159223
800.081	0.0159485
800.159	0.0158903
800.237	0.0159109
800.315	0.0157420
800.393	0.0158536
800.471	0.0158456
800.549	0.0160342
800.628	0.0158710
800.706	0.0157879
800.784	0.0158127
800.862	0.0159274
800.940	0.0158949
801.018	0.0160018
801.096	0.0160232
801.174	0.0159215
801.253	0.0158125
801.331	0.0159565
801.409	0.0160432
801.487	0.0158931
801.565	0.0160246
801.643	0.0158985
801.721	0.0160542
801.799	0.0160157
801.878	0.0160429
801.956	0.0160619
802.034	0.0159927
802.112	0.0159520
802.190	0.0160030
802.268	0.0160191
802.346	0.0159939
802.424	0.0160502
802.503	0.0160789
802.581	0.0161874
802.659	0.0161476
802.737	0.0160609
802.815	0.0160052
802.893	0.0159459
802.971	0.0160586
803.049	0.0160041
803.128	0.0160426
803.206	0.0159528
803.284	0.0159667
803.362	0.0160241
803.440	0.0160350
803.518	0.0161068
803.596	0.0160392
803.674	0.0159884
803.753	0.0159399
803.831	0.0161337
803.909	0.0160728
803.987	0.0160908
804.065	0.0159985
804.143	0.0159806
804.221	0.0159624
804.299	0.0159514
804.378	0.0158773
804.456	0.0159653
804.534	0.0159258
804.612	0.0158476
804.690	0.0158385
804.768	0.0159988
804.846	0.0158999
804.924	0.0158541
805.003	0.0159242
805.081	0.0159544
805.159	0.0158628
805.237	0.0158650
805.315	0.0159566
805.393	0.0159541
805.471	0.0158386
805.549	0.0159767
805.628	0.0157967
805.706	0.0157499
805.784	0.0157485
805.862	0.0159118
805.940	0.0156911
806.018	0.0158087
806.096	0.0160122
806.174	0.0159740
806.253	0.0157967
806.331	0.0157911
806.409	0.0159827
806.487	0.0158788
806.565	0.0157302
806.643	0.0157105
806.721	0.0159692
806.799	0.0158192
806.878	0.0157300
806.956	0.0157628
807.034	0.0157729
807.112	0.0159069
807.190	0.0158314
807.268	0.0158579
807.346	0.0157206
807.424	0.0158777
807.503	0.0159286
807.581	0.0157309
807.659	0.0158155
807.737	0.0157930
807.815	0.0158109
807.893	0.0158096
807.971	0.0158255
808.049	0.0158801
808.128	0.0157420
808.206	0.0158121
808.284	0.0156657
808.362	0.0159339
808.440	0.0160640
808.518	0.0159443
808.596	0.0158853
808.674	0.0159350
808.753	0.0159956
808.831	0.0159788
808.909	0.0159209
808.987	0.0159690
809.065	0.0160254
809.143	0.0158735
809.221	0.0160207
809.299	0.0159554
809.378	0.0158988
809.456	0.0160084
809.534	0.0160501
809.612	0.0160012
809.690	0.0161161
809.768	0.0159671
809.846	0.0159821
809.924	0.0159639
810.003	0.0160483
810.081	0.0160833
810.159	0.0161047
810.237	0.0160534
810.315	0.0161024
810.393	0.0159750
810.471	0.0159736
810.549	0.0159373
810.628	0.0161332
810.706	0.0162045
810.784	0.0161240
810.862	0.0161686
810.940	0.0161156
811.018	0.0160451
811.096	0.0160931
811.174	0.0160077
811.253	0.0160282
811.331	0.0158674
811.409	0.0160832
811.487	0.0160620
811.565	0.0160185
811.643	0.0159509
811.721	0.0160201
811.799	0.0161375
811.878	0.0160017
811.956	0.0160989
812.034	0.0161191
812.112	0.0161294
812.190	0.0159905
812.268	0.0160326
812.346	0.0160691
812.424	0.0158730
812.503	0.0159679
812.581	0.0160020
812.659	0.0159920
812.737	0.0158514
812.815	0.0159391
812.893	0.0160320
812.971	0.0160145
813.049	0.0159586
813.128	0.0160811
813.206	0.0160152
813.284	0.0159502
813.362	0.0161076
813.440	0.0160560
813.518	0.0159621
813.596	0.0159463
813.674	0.0159138
813.753	0.0160217
813.831	0.0160370
813.909	0.0159805
813.987	0.0158459
814.065	0.0159727
814.143	0.0160478
814.221	0.0158737
814.299	0.0160961
814.378	0.0160592
814.456	0.0158649
814.534	0.0159911
814.612	0.0160424
814.690	0.0159574
814.768	0.0159376
814.846	0.0160358
814.924	0.0158805
815.003	0.0158762
815.081	0.0160902
815.159	0.0159382
815.237	0.0160215
815.315	0.0159576
815.393	0.0159669
815.471	0.0160361
815.549	0.0159371
815.628	0.0160317
815.706	0.0160480
815.784	0.0160452
815.862	0.0160124
815.940	0.0159643
816.018	0.0158642
816.096	0.0160122
816.174	0.0161169
816.253	0.0160104
816.331	0.0159634
816.409	0.0159593
816.487	0.0159996
816.565	0.0159275
816.643	0.0158659
816.721	0.0161304
816.799	0.0159377
816.878	0.0158409
816.956	0.0160622
817.034	0.0159576
817.112	0.0160619
817.190	0.0159485
817.268	0.0159667
817.346	0.0161681
817.424	0.0160632
817.503	0.0159797
817.581	0.0160857
817.659	0.0159940
817.737	0.0159258
817.815	0.0160860
817.893	0.0159425
817.971	0.0160471
818.049	0.0161419
818.128	0.0160527
818.206	0.0161707
818.284	0.0160640
818.362	0.0160262
818.440	0.0160566
818.518	0.0161775
818.596	0.0160392
818.674	0.0160591
818.753	0.0160204
818.831	0.0161697
818.909	0.0159975
818.987	0.0160600
819.065	0.0162896
819.143	0.0160792
819.221	0.0161269
819.299	0.0162168
819.378	0.0160394
819.456	0.0160674
819.534	0.0161670
819.612	0.0161604
819.690	0.0160521
819.768	0.0162400
819.846	0.0163137
819.924	0.0161945
820.003	0.0160767
820.081	0.0160601
820.159	0.0162710
820.237	0.0162108
820.315	0.0161265
820.393	0.0162170
820.471	0.0161430
820.549	0.0161000
820.628	0.0160953
820.706	0.0161764
820.784	0.0161978
820.862	0.0161408
820.940	0.0160813
821.018	0.0160686
821.096	0.0160178
821.174	0.0160481
821.253	0.0159792
821.331	0.0159283
821.409	0.0159708
821.487	0.0160429
821.565	0.0159646
821.643	0.0158715
821.721	0.0159383
821.799	0.0159277
821.878	0.0159717
821.956	0.0159092
822.034	0.0159917
822.112	0.0158583
822.190	0.0160479
822.268	0.0158704
822.346	0.0159615
822.424	0.0159216
822.503	0.0159519
822.581	0.0160836
822.659	0.0159644
822.737	0.0159070
822.815	0.0158899
822.893	0.0157706
822.971	0.0158491
823.049	0.0159407
823.128	0.0159563
823.206	0.0158893
823.284	0.0157703
823.362	0.0157881
823.440	0.0159458
823.518	0.0158476
823.596	0.0159804
823.674	0.0158692
823.753	0.0160004
823.831	0.0160162
823.909	0.0159846
823.987	0.0159766
824.065	0.0159265
824.143	0.0159631
824.221	0.0159641
824.299	0.0160333
824.378	0.0160502
824.456	0.0159718
824.534	0.0159965
824.612	0.0161150
824.690	0.0160567
824.768	0.0161273
824.846	0.0161238
824.924	0.0160390
825.003	0.0159726
825.081	0.0160800
825.159	0.0161458
825.237	0.0160152
825.315	0.0160413
825.393	0.0160779
825.471	0.0161266
825.549	0.0160775
825.628	0.0161064
825.706	0.0160645
825.784	0.0162095
825.862	0.0161242
825.940	0.0161372
826.018	0.0160237
826.096	0.0161275
826.174	0.0161463
826.253	0.0161362
826.331	0.0161925
826.409	0.0161324
826.487	0.0160749
826.565	0.0160894
826.643	0.0161504
826.721	0.0161794
826.799	0.0161861
826.878	0.0161137
826.956	0.0160184
827.034	0.0160255
827.112	0.0160137
827.190	0.0160438
827.268	0.0161533
827.346	0.0160220
827.424	0.0159367
827.503	0.0160679
827.581	0.0161401
827.659	0.0159917
827.737	0.0160268
827.815	0.0159991
827.893	0.0159503
827.971	0.0160361
828.049	0.0159591
828.128	0.0159991
828.206	0.0159867
828.284	0.0158785
828.362	0.0159418
828.440	0.0159077
828.518	0.0158180
828.596	0.0158385
828.674	0.0160313
828.753	0.0159029
828.831	0.0158767
828.909	0.0159401
828.987	0.0157832
829.065	0.0158916
829.143	0.0158221
829.221	0.0158089
829.299	0.0158045
829.378	0.0157865
829.456	0.0158376
829.534	0.0157713
829.612	0.0156347
829.690	0.0157846
829.768	0.0157868
829.846	0.0156438
829.924	0.0157054
830.003	0.0157478
830.081	0.0156556
830.159	0.0157867
830.237	0.0156124
830.315	0.0157407
830.393	0.0158149
830.471	0.0156605
830.549	0.0158112
830.628	0.0158279
830.706	0.0158170
830.784	0.0157610
830.862	0.0158498
830.940	0.0158299
831.018	0.0157825
831.096	0.0157730
831.174	0.0157993
831.253	0.0158274
831.331	0.0157478
831.409	0.0158572
831.487	0.0157335
831.565	0.0157726
831.643	0.0157983
831.721	0.0158678
831.799	0.0158670
831.878	0.0157360
831.956	0.0157912
832.034	0.0157916
832.112	0.0158961
832.190	0.0157606
832.268	0.0159003
832.346	0.0156705
832.424	0.0158170
832.503	0.0158579
832.581	0.0158450
832.659	0.0158572
832.737	0.0158049
832.815	0.0159028
832.893	0.0157906
832.971	0.0157351
833.049	0.0157223
833.128	0.0158238
833.206	0.0158345
833.284	0.0157936
833.362	0.0159006
833.440	0.0159930
833.518	0.0158432
833.596	0.0158208
833.674	0.0159691
833.753	0.0158007
833.831	0.0158966
833.909	0.0158954
833.987	0.0160252
834.065	0.0160564
834.143	0.0159900
834.221	0.0159211
834.299	0.0158725
834.378	0.0159921
834.456	0.0160053
834.534	0.0160229
834.612	0.0159628
834.690	0.0159145
834.768	0.0159638
834.846	0.0159895
834.924	0.0159531
835.003	0.0159278
835.081	0.0159839
835.159	0.0159089
835.237	0.0159986
835.315	0.0158526
835.393	0.0157512
835.471	0.0160442
835.549	0.0159590
835.628	0.0159305
835.706	0.0157866
835.784	0.0160374
835.862	0.0158868
835.940	0.0158766
836.018	0.0158881
836.096	0.0158220
836.174	0.0160137
836.253	0.0158895
836.331	0.0157963
836.409	0.0158763
836.487	0.0158912
836.565	0.0159308
836.643	0.0157523
836.721	0.0156802
836.799	0.0159763
836.878	0.0158974
836.956	0.0158706
837.034	0.0158733
837.112	0.0157957
837.190	0.0157259
837.268	0.0159924
837.346	0.0158276
837.424	0.0158981
837.503	0.0158063
837.581	0.0157936
837.659	0.0158082
837.737	0.0159158
837.815	0.0159609
837.893	0.0158792
837.971	0.0159535
838.049	0.0157166
838.128	0.0159454
838.206	0.0158227
838.284	0.0158961
838.362	0.0158265
838.440	0.0159357
838.518	0.0158453
838.596	0.0158175
838.674	0.0158540
838.753	0.0159927
838.831	0.0159421
838.909	0.0158984
838.987	0.0158882
839.065	0.0159809
839.143	0.0159401
839.221	0.0158997
839.299	0.0158918
839.378	0.0161505
839.456	0.0159771
839.534	0.0158745
839.612	0.0158107
839.690	0.0159850
839.768	0.0159121
839.846	0.0159826
839.924	0.0158929
840.003	0.0159653
840.081	0.0160793
840.159	0.0159905
840.237	0.0160456
840.315	0.0160360
840.393	0.0161287
840.471	0.0160351
840.549	0.0160136
840.628	0.0161143
840.706	0.0160936
840.784	0.0161211
840.862	0.0160854
840.940	0.0160159
841.018	0.0160624
841.096	0.0160374
841.174	0.0159437
841.253	0.0161140
841.331	0.0160954
841.409	0.0160501
841.487	0.0160402
841.565	0.0160446
841.643	0.0160851
841.721	0.0160680
841.799	0.0161567
841.878	0.0161887
841.956	0.0160189
842.034	0.0159850
842.112	0.0160170
842.190	0.0159287
842.268	0.0160434
842.346	0.0160551
842.424	0.0160734
842.503	0.0161073
842.581	0.0160693
842.659	0.0159824
842.737	0.0161501
842.815	0.0160396
842.893	0.0160442
842.971	0.0160175
843.049	0.0160299
843.128	0.0162118
843.206	0.0159594
843.284	0.0160639
843.362	0.0160449
843.440	0.0160001
843.518	0.0160854
843.596	0.0160901
843.674	0.0159766
843.753	0.0159816
843.831	0.0159583
843.909	0.0159393
843.987	0.0160366
844.065	0.0158297
844.143	0.0159720
844.221	0.0160307
844.299	0.0158479
844.378	0.0160181
844.456	0.0159111
844.534	0.0159642
844.612	0.0159440
844.690	0.0159727
844.768	0.0158691
844.846	0.0159959
844.924	0.0160444
845.003	0.0159732
845.081	0.0160775
845.159	0.0160126
845.237	0.0159386
845.315	0.0158559
845.393	0.0159185
845.471	0.0159571
845.549	0.0159724
845.628	0.0158424
845.706	0.0159299
845.784	0.0159513
845.862	0.0158935
845.940	0.0159319
846.018	0.0158919
846.096	0.0159702
846.174	0.0159026
846.253	0.0158927
846.331	0.0159644
846.409	0.0159570
846.487	0.0159102
846.565	0.0158835
846.643	0.0159487
846.721	0.0159223
846.799	0.0159926
846.878	0.0159727
846.956	0.0159959
847.034	0.0159811
847.112	0.0160562
847.190	0.0161323
847.268	0.0160400
847.346	0.0161017
847.424	0.0159873
847.503	0.0158815
847.581	0.0160152
847.659	0.0159554
847.737	0.0159595
847.815	0.0159772
847.893	0.0160499
847.971	0.0160462
848.049	0.0158435
848.128	0.0158140
848.206	0.0160218
848.284	0.0161756
848.362	0.0161400
848.440	0.0161312
848.518	0.0159645
848.596	0.0159326
848.674	0.0160518
848.753	0.0158492
848.831	0.0160106
848.909	0.0161903
848.987	0.0160419
849.065	0.0161050
849.143	0.0158918
849.221	0.0159927
849.299	0.0159651
849.378	0.0159200
849.456	0.0159762
849.534	0.0159689
849.612	0.0159460
849.690	0.0158098
849.768	0.0158475
849.846	0.0159525
849.924	0.0158834
850.003	0.0159947
850.081	0.0158811
850.159	0.0158389
850.237	0.0158544
850.315	0.0158274
850.393	0.0160246
850.471	0.0158711
850.549	0.0159647
850.628	0.0159608
850.706	0.0159572
850.784	0.0159138
850.862	0.0160940
850.940	0.0159321
851.018	0.0160365
851.096	0.0160046
851.174	0.0158333
851.253	0.0159551
851.331	0.0158894
851.409	0.0160570
851.487	0.0159251
851.565	0.0159485
851.643	0.0159878
851.721	0.0158757
851.799	0.0158641
851.878	0.0159598
851.956	0.0159229
852.034	0.0159677
852.112	0.0158563
852.190	0.0159663
852.268	0.0158525
852.346	0.0159169
852.424	0.0158821
852.503	0.0159070
852.581	0.0159969
852.659	0.0160277
852.737	0.0159414
852.815	0.0159292
852.893	0.0158603
852.971	0.0157488
853.049	0.0158900
853.128	0.0158731
853.206	0.0159483
853.284	0.0158695
853.362	0.0159365
853.440	0.0158344
853.518	0.0158877
853.596	0.0159640
853.674	0.0160818
853.753	0.0160242
853.831	0.0158967
853.909	0.0157924
853.987	0.0158315
854.065	0.0159082
854.143	0.0158248
854.221	0.0158512
854.299	0.0158768
854.378	0.0158908
854.456	0.0157781
854.534	0.0159363
854.612	0.0158263
854.690	0.0158949
854.768	0.0158306
854.846	0.0158424
854.924	0.0158469
855.003	0.0157588
855.081	0.0159289
855.159	0.0159264
855.237	0.0157555
855.315	0.0158028
855.393	0.0158069
855.471	0.0159364
855.549	0.0158835
855.628	0.0158456
855.706	0.0159034
855.784	0.0159097
855.862	0.0158922
855.940	0.0157502
856.018	0.0158856
856.096	0.0158862
856.174	0.0157717
856.253	0.0159187
856.331	0.0159841
856.409	0.0159874
856.487	0.0159490
856.565	0.0158668
856.643	0.0157797
856.721	0.0160117
856.799	0.0158975
856.878	0.0158858
856.956	0.0159155
857.034	0.0158546
857.112	0.0158545
857.190	0.0159477
857.268	0.0159887
857.346	0.0159336
857.424	0.0158931
857.503	0.0159685
857.581	0.0159864
857.659	0.0158538
857.737	0.0160287
857.815	0.0159553
857.893	0.0158604
857.971	0.0159965
858.049	0.0159490
858.128	0.0160291
858.206	0.0158792
858.284	0.0157970
858.362	0.0158694
858.440	0.0158898
858.518	0.0158970
858.596	0.0158863
858.674	0.0160094
858.753	0.0159273
858.831	0.0159316
858.909	0.0159383
858.987	0.0160172
859.065	0.0160027
859.143	0.0159734
859.221	0.0160146
859.299	0.0159081
859.378	0.0159306
859.456	0.0158610
859.534	0.0159664
859.612	0.0159001
859.690	0.0159983
859.768	0.0159244
859.846	0.0160476
859.924	0.0160287
860.003	0.0158893
860.081	0.0160112
860.159	0.0159603
860.237	0.0159940
860.315	0.0159669
860.393	0.0159005
860.471	0.0158924
860.549	0.0158570
860.628	0.0158879
860.706	0.0157352
860.784	0.0158182
860.862	0.0158610
860.940	0.0159003
861.018	0.0158450
861.096	0.0160188
861.174	0.0157677
861.253	0.0158356
861.331	0.0158394
861.409	0.0159619
861.487	0.0159801
861.565	0.0158601
861.643	0.0159381
861.721	0.0159544
861.799	0.0158813
861.878	0.0160629
861.956	0.0158971
862.034	0.0159080
862.112	0.0159952
862.190	0.0159327
862.268	0.0159010
862.346	0.0159035
862.424	0.0159419
862.503	0.0159320
862.581	0.0158393
862.659	0.0159229
862.737	0.0160965
862.815	0.0159907
862.893	0.0159130
862.971	0.0159502
863.049	0.0158882
863.128	0.0158383
863.206	0.0159064
863.284	0.0159928
863.362	0.0159187
863.440	0.0159364
863.518	0.0158483
863.596	0.0159453
863.674	0.0158954
863.753	0.0159267
863.831	0.0159904
863.909	0.0159163
863.987	0.0158691
864.065	0.0160714
864.143	0.0160132
864.221	0.0159512
864.299	0.0160958
864.378	0.0160098
864.456	0.0161723
864.534	0.0160400
864.612	0.0160574
864.690	0.0160583
864.768	0.0160294
864.846	0.0159016
864.924	0.0160601
865.003	0.0160600
865.081	0.0160641
865.159	0.0160485
865.237	0.0161131
865.315	0.0160427
865.393	0.0160683
865.471	0.0161539
865.549	0.0160028
865.628	0.0159724
865.706	0.0161621
865.784	0.0160660
865.862	0.0160114
865.940	0.0159623
866.018	0.0159608
866.096	0.0159298
866.174	0.0159235
866.253	0.0158915
866.331	0.0160302
866.409	0.0161433
866.487	0.0160195
866.565	0.0159918
866.643	0.0160891
866.721	0.0159807
866.799	0.0159184
866.878	0.0159279
866.956	0.0159866
867.034	0.0159768
867.112	0.0160284
867.190	0.0159853
867.268	0.0160414
867.346	0.0160597
867.424	0.0159750
867.503	0.0160836
867.581	0.0161784
867.659	0.0161418
867.737	0.0160241
867.815	0.0160995
867.893	0.0160661
867.971	0.0160761
868.049	0.0158942
868.128	0.0160275
868.206	0.0160567
868.284	0.0159853
868.362	0.0160023
868.440	0.0159344
868.518	0.0160435
868.596	0.0161050
868.674	0.0159557
868.753	0.0159120
868.831	0.0159980
868.909	0.0160229
868.987	0.0159592
869.065	0.0159360
869.143	0.0159435
869.221	0.0159402
869.299	0.0159560
869.378	0.0160731
869.456	0.0159939
869.534	0.0159120
869.612	0.0158578
869.690	0.0158278
869.768	0.0159550
869.846	0.0160399
869.924	0.0159023
870.003	0.0160773
870.081	0.0159534
870.159	0.0159747
870.237	0.0160500
870.315	0.0159412
870.393	0.0160546
870.471	0.0159721
870.549	0.0160104
870.628	0.0158917
870.706	0.0160105
870.784	0.0160131
870.862	0.0159882
870.940	0.0159512
871.018	0.0159880
871.096	0.0161386
871.174	0.0160226
871.253	0.0159462
871.331	0.0160369
871.409	0.0161058
871.487	0.0160381
871.565	0.0161230
871.643	0.0160806
871.721	0.0160271
871.799	0.0160540
871.878	0.0162109
871.956	0.0159445
872.034	0.0161268
872.112	0.0160379
872.190	0.0160381
872.268	0.0160489
872.346	0.0159781
872.424	0.0160303
872.503	0.0158643
872.581	0.0160749
872.659	0.0161507
872.737	0.0160863
872.815	0.0160060
872.893	0.0159648
872.971	0.0159119
873.049	0.0160021
873.128	0.0159872
873.206	0.0159991
873.284	0.0160932
873.362	0.0160214
873.440	0.0160184
873.518	0.0160160
873.596	0.0159638
873.674	0.0159550
873.753	0.0160855
873.831	0.0160170
873.909	0.0158682
873.987	0.0159754
874.065	0.0160203
874.143	0.0159586
874.221	0.0158561
874.299	0.0158591
874.378	0.0160281
874.456	0.0159788
874.534	0.0158640
874.612	0.0159108
874.690	0.0159115
874.768	0.0158646
874.846	0.0158861
874.924	0.0158628
875.003	0.0157940
875.081	0.0160315
875.159	0.0159712
875.237	0.0158549
875.315	0.0160152
875.393	0.0159977
875.471	0.0159681
875.549	0.0158490
875.628	0.0160128
875.706	0.0158781
875.784	0.0159981
875.862	0.0159855
875.940	0.0160403
876.018	0.0160444
876.096	0.0160600
876.174	0.0159701
876.253	0.0159477
876.331	0.0158883
876.409	0.0158507
876.487	0.0159092
876.565	0.0159984
876.643	0.0158794
876.721	0.0158918
876.799	0.0160272
876.878	0.0159373
876.956	0.0158663
877.034	0.0159406
877.112	0.0158001
877.190	0.0159916
877.268	0.0159219
877.346	0.0159629
877.424	0.0158965
877.503	0.0157779
877.581	0.0160429
877.659	0.0159747
877.737	0.0157923
877.815	0.0159145
877.893	0.0159747
877.971	0.0160403
878.049	0.0159028
878.128	0.0157757
878.206	0.0160165
878.284	0.0158085
878.362	0.0159556
878.440	0.0159814
878.518	0.0158998
878.596	0.0159599
878.674	0.0158935
878.753	0.0158511
878.831	0.0160583
878.909	0.0158584
878.987	0.0156466
879.065	0.0159093
879.143	0.0158855
879.221	0.0157726
879.299	0.0158897
879.378	0.0158690
879.456	0.0157593
879.534	0.0158499
879.612	0.0159617
879.690	0.0158687
879.768	0.0158844
879.846	0.0158666
879.924	0.0158527
880.003	0.0159027
880.081	0.0159860
880.159	0.0158717
880.237	0.0159560
880.315	0.0159325
880.393	0.0159675
880.471	0.0160769
880.549	0.0159658
880.628	0.0160912
880.706	0.0162070
880.784	0.0159412
880.862	0.0160017
880.940	0.0159437
881.018	0.0160551
881.096	0.0160999
881.174	0.0161178
881.253	0.0159894
881.331	0.0161893
881.409	0.0161050
881.487	0.0159552
881.565	0.0160757
881.643	0.0161109
881.721	0.0162469
881.799	0.0159283
881.878	0.0161339
881.956	0.0161292
882.034	0.0160435
882.112	0.0160246
882.190	0.0160998
882.268	0.0160729
882.346	0.0160573
882.424	0.0158842
882.503	0.0159263
882.581	0.0160422
882.659	0.0159830
882.737	0.0160034
882.815	0.0160882
882.893	0.0161360
882.971	0.0160925
883.049	0.0159201
883.128	0.0160252
883.206	0.0160841
883.284	0.0160182
883.362	0.0159691
883.440	0.0160114
883.518	0.0160700
883.596	0.0161389
883.674	0.0160317
883.753	0.0159487
883.831	0.0160677
883.909	0.0160289
883.987	0.0159947
884.065	0.0159998
884.143	0.0159331
884.221	0.0160150
884.299	0.0160477
884.378	0.0160441
884.456	0.0160791
884.534	0.0160894
884.612	0.0159549
884.690	0.0160023
884.768	0.0161319
884.846	0.0159319
884.924	0.0160767
885.003	0.0160882
885.081	0.0160332
885.159	0.0160717
885.237	0.0161285
885.315	0.0160165
885.393	0.0160877
885.471	0.0160087
885.549	0.0159681
885.628	0.0159513
885.706	0.0160225
885.784	0.0160117
885.862	0.0159768
885.940	0.0160752
886.018	0.0160685
886.096	0.0160186
886.174	0.0159998
886.253	0.0159864
886.331	0.0159711
886.409	0.0160037
886.487	0.0160998
886.565	0.0161244
886.643	0.0161093
886.721	0.0160344
886.799	0.0159721
886.878	0.0159957
886.956	0.0159548
887.034	0.0160528
887.112	0.0160406
887.190	0.0159635
887.268	0.0161596
887.346	0.0161045
887.424	0.0160332
887.503	0.0159911
887.581	0.0160561
887.659	0.0160304
887.737	0.0159557
887.815	0.0159765
887.893	0.0159545
887.971	0.0160526
888.049	0.0159438
888.128	0.0159204
888.206	0.0159687
888.284	0.0159911
888.362	0.0159604
888.440	0.0158721
888.518	0.0160312
888.596	0.0158774
888.674	0.0159562
888.753	0.0160202
888.831	0.0159012
888.909	0.0159237
888.987	0.0160297
889.065	0.0160175
889.143	0.0159356
889.221	0.0158332
889.299	0.0157772
889.378	0.0160384
889.456	0.0159059
889.534	0.0159150
889.612	0.0159854
889.690	0.0159943
889.768	0.0160255
889.846	0.0158438
889.924	0.0158005
890.003	0.0159101
890.081	0.0158704
890.159	0.0159625
890.237	0.0159686
890.315	0.0159585
890.393	0.0161044
890.471	0.0159940
890.549	0.0158718
890.628	0.0158652
890.706	0.0159452
890.784	0.0158560
890.862	0.0159383
890.940	0.0159635
891.018	0.0159742
891.096	0.0159006
891.174	0.0159064
891.253	0.0159612
891.331	0.0159823
891.409	0.0160552
891.487	0.0160777
891.565	0.0159441
891.643	0.0160704
891.721	0.0159618
891.799	0.0160683
891.878	0.0159740
891.956	0.0159864
892.034	0.0160345
892.112	0.0160223
892.190	0.0159049
892.268	0.0160352
892.346	0.0159776
892.424	0.0159914
892.503	0.0161625
892.581	0.0159049
892.659	0.0159872
892.737	0.0160091
892.815	0.0161084
892.893	0.0159733
892.971	0.0157691
893.049	0.0160232
893.128	0.0159209
893.206	0.0157936
893.284	0.0157820
893.362	0.0158872
893.440	0.0159084
893.518	0.0159995
893.596	0.0159213
893.674	0.0158823
893.753	0.0158424
893.831	0.0160182
893.909	0.0159862
893.987	0.0159720
894.065	0.0159827
894.143	0.0159325
894.221	0.0158959
894.299	0.0158858
894.378	0.0159153
894.456	0.0160179
894.534	0.0160077
894.612	0.0158978
894.690	0.0158427
894.768	0.0159529
894.846	0.0160837
894.924	0.0159725
895.003	0.0159837
895.081	0.0159142
895.159	0.0158803
895.237	0.0158130
895.315	0.0159355
895.393	0.0158650
895.471	0.0158686
895.549	0.0158207
895.628	0.0159231
895.706	0.0160027
895.784	0.0160347
895.862	0.0159919
895.940	0.0160576
896.018	0.0158963
896.096	0.0159182
896.174	0.0159878
896.253	0.0159432
896.331	0.0159118
896.409	0.0160067
896.487	0.0159196
896.565	0.0160913
896.643	0.0160254
896.721	0.0160403
896.799	0.0160876
896.878	0.0159336
896.956	0.0159857
897.034	0.0161835
897.112	0.0160897
897.190	0.0160846
897.268	0.0159735
897.346	0.0160925
897.424	0.0161819
897.503	0.0159523
897.581	0.0160390
897.659	0.0158680
897.737	0.0160032
897.815	0.0160186
897.893	0.0160892
897.971	0.0159554
898.049	0.0160749
898.128	0.0162109
898.206	0.0161034
898.284	0.0160354
898.362	0.0160439
898.440	0.0159515
898.518	0.0159998
898.596	0.0161346
898.674	0.0161704
898.753	0.0161358
898.831	0.0160326
898.909	0.0159994
898.987	0.0159157
899.065	0.0160616
899.143	0.0160810
899.221	0.0160347
899.299	0.0160281
899.378	0.0160152
899.456	0.0161461
899.534	0.0161012
899.612	0.0159663
899.690	0.0159009
899.768	0.0160825
899.846	0.0161146
899.924	0.0159995
900.003	0.0161718
900.081	0.0160702
900.159	0.0160342
900.237	0.0159615
900.315	0.0159866
900.393	0.0159144
900.471	0.0159537
900.549	0.0159760
900.628	0.0159950
900.706	0.0159298
900.784	0.0159483
900.862	0.0159052
900.940	0.0160182
901.018	0.0158979
901.096	0.0159142
901.174	0.0160011
901.253	0.0158745
901.331	0.0159071
901.409	0.0160120
901.487	0.0157401
901.565	0.0159018
901.643	0.0159862
901.721	0.0159848
901.799	0.0158532
901.878	0.0159086
901.956	0.0159703
902.034	0.0159422
902.112	0.0159435
902.190	0.0159784
902.268	0.0159272
902.346	0.0159846
902.424	0.0159252
902.503	0.0159483
902.581	0.0158797
902.659	0.0161300
902.737	0.0159550
902.815	0.0160259
902.893	0.0159211
902.971	0.0159760
903.049	0.0159828
903.128	0.0158892
903.206	0.0159328
903.284	0.0160786
903.362	0.0160012
903.440	0.0158765
903.518	0.0159583
903.596	0.0160441
903.674	0.0160339
903.753	0.0158273
903.831	0.0159023
903.909	0.0160590
903.987	0.0161097
904.065	0.0159995
904.143	0.0159662
904.221	0.0159078
904.299	0.0160066
904.378	0.0160601
904.456	0.0159473
904.534	0.0159081
904.612	0.0160381
904.690	0.0160477
904.768	0.0158960
904.846	0.0159914
904.924	0.0159745
905.003	0.0158453
905.081	0.0160582
905.159	0.0160239
905.237	0.0159860
905.315	0.0159899
905.393	0.0159791
905.471	0.0158896
905.549	0.0159270
905.628	0.0160226
905.706	0.0160699
905.784	0.0160629
905.862	0.0159333
905.940	0.0158924
906.018	0.0160300
906.096	0.0159625
906.174	0.0159798
906.253	0.0160706
906.331	0.0159763
906.409	0.0159473
906.487	0.0159955
906.565	0.0160421
906.643	0.0160472
906.721	0.0159681
906.799	0.0160665
906.878	0.0160855
906.956	0.0160496
907.034	0.0159760
907.112	0.0160362
907.190	0.0161826
907.268	0.0159830
907.346	0.0159680
907.424	0.0160516
907.503	0.0161880
907.581	0.0160555
907.659	0.0160389
907.737	0.0160259
907.815	0.0160377
907.893	0.0159872
907.971	0.0159409
908.049	0.0158097
908.128	0.0159650
908.206	0.0161056
908.284	0.0158807
908.362	0.0158364
908.440	0.0158976
908.518	0.0159456
908.596	0.0160147
908.674	0.0158551
908.753	0.0159267
908.831	0.0160102
908.909	0.0158444
908.987	0.0158146
909.065	0.0157047
909.143	0.0159621
909.221	0.0158340
909.299	0.0157840
909.378	0.0158148
909.456	0.0158492
909.534	0.0160122
909.612	0.0159864
909.690	0.0158627
909.768	0.0159265
909.846	0.0159563
909.924	0.0159383
910.003	0.0159857
910.081	0.0160310
910.159	0.0160196
910.237	0.0158328
910.315	0.0158273
910.393	0.0159295
910.471	0.0161994
910.549	0.0159269
910.628	0.0160101
910.706	0.0158723
910.784	0.0159441
910.862	0.0161028
910.940	0.0160619
911.018	0.0160041
911.096	0.0160964
911.174	0.0159862
911.253	0.0161896
911.331	0.0161073
911.409	0.0161096
911.487	0.0160123
911.565	0.0160489
911.643	0.0161327
911.721	0.0161585
911.799	0.0159400
911.878	0.0161602
911.956	0.0160494
912.034	0.0159972
912.112	0.0159348
912.190	0.0161202
912.268	0.0159604
912.346	0.0160363
912.424	0.0161186
912.503	0.0159908
912.581	0.0159839
912.659	0.0160690
912.737	0.0161910
912.815	0.0160945
912.893	0.0160914
912.971	0.0161052
913.049	0.0160345
913.128	0.0161604
913.206	0.0161261
913.284	0.0160675
913.362	0.0161153
913.440	0.0160303
913.518	0.0161205
913.596	0.0161223
913.674	0.0159922
913.753	0.0160970
913.831	0.0161007
913.909	0.0161725
913.987	0.0160918
914.065	0.0160545
914.143	0.0160436
914.221	0.0160878
914.299	0.0160555
914.378	0.0159737
914.456	0.0160738
914.534	0.0160869
914.612	0.0160843
914.690	0.0160245
914.768	0.0159631
914.846	0.0160753
914.924	0.0160163
915.003	0.0160255
915.081	0.0158903
915.159	0.0159283
915.237	0.0160760
915.315	0.0160704
915.393	0.0159118
915.471	0.0159830
915.549	0.0158509
915.628	0.0159180
915.706	0.0159605
915.784	0.0160516
915.862	0.0158731
915.940	0.0159125
916.018	0.0160227
916.096	0.0160186
916.174	0.0159863
916.253	0.0160956
916.331	0.0160348
916.409	0.0158971
916.487	0.0160280
916.565	0.0159682
916.643	0.0160215
916.721	0.0160445
916.799	0.0161784
916.878	0.0159711
916.956	0.0160325
917.034	0.0159264
917.112	0.0158450
917.190	0.0159499
917.268	0.0159023
917.346	0.0160564
917.424	0.0159851
917.503	0.0159707
917.581	0.0159267
917.659	0.0158968
917.737	0.0159821
917.815	0.0159373
917.893	0.0160471
917.971	0.0158925
918.049	0.0157848
918.128	0.0159095
918.206	0.0159515
918.284	0.0159120
918.362	0.0159023
918.440	0.0158160
918.518	0.0159086
918.596	0.0158591
918.674	0.0158388
918.753	0.0159577
918.831	0.0158004
918.909	0.0158145
918.987	0.0158804
919.065	0.0158431
919.143	0.0159324
919.221	0.0157909
919.299	0.0159397
919.378	0.0160029
919.456	0.0159201
919.534	0.0157403
919.612	0.0160634
919.690	0.0159051
919.768	0.0160328
919.846	0.0159206
919.924	0.0158811
920.003	0.0159016
920.081	0.0160594
920.159	0.0160630
920.237	0.0160433
920.315	0.0159960
920.393	0.0158128
920.471	0.0159657
920.549	0.0160492
920.628	0.0159936
920.706	0.0159616
920.784	0.0160352
920.862	0.0160999
920.940	0.0160358
921.018	0.0160308
921.096	0.0161574
921.174	0.0159991
921.253	0.0159902
921.331	0.0161430
921.409	0.0159359
921.487	0.0160925
921.565	0.0160736
921.643	0.0160645
921.721	0.0161124
921.799	0.0160892
921.878	0.0159730
921.956	0.0159413
922.034	0.0159033
922.112	0.0160679
922.190	0.0158752
922.268	0.0158859
922.346	0.0158848
922.424	0.0159505
922.503	0.0158940
922.581	0.0158971
922.659	0.0158958
922.737	0.0158471
922.815	0.0157531
922.893	0.0156608
922.971	0.0157470
923.049	0.0158828
923.128	0.0159982
923.206	0.0158385
923.284	0.0157215
923.362	0.0157502
923.440	0.0159424
923.518	0.0159091
923.596	0.0156049
923.674	0.0158588
923.753	0.0159643
923.831	0.0157884
923.909	0.0157886
923.987	0.0157006
924.065	0.0159222
924.143	0.0157535
924.221	0.0158256
924.299	0.0158443
924.378	0.0159322
924.456	0.0158871
924.534	0.0158187
924.612	0.0157868
924.690	0.0158057
924.768	0.0158563
924.846	0.0159412
924.924	0.0160498
925.003	0.0159098
925.081	0.0159427
925.159	0.0159956
925.237	0.0160591
925.315	0.0159332
925.393	0.0158904
925.471	0.0159172
925.549	0.0160370
925.628	0.0160441
925.706	0.0158871
925.784	0.0160854
925.862	0.0160797
925.940	0.0159009
926.018	0.0159754
926.096	0.0159693
926.174	0.0159819
926.253	0.0160126
926.331	0.0159284
926.409	0.0159055
926.487	0.0159023
926.565	0.0158993
926.643	0.0158427
926.721	0.0159456
926.799	0.0160126
926.878	0.0158537
926.956	0.0158281
927.034	0.0158878
927.112	0.0158419
927.190	0.0157813
927.268	0.0158576
927.346	0.0158293
927.424	0.0159111
927.503	0.0158309
927.581	0.0159571
927.659	0.0158929
927.737	0.0157684
927.815	0.0158353
927.893	0.0158320
927.971	0.0159362
928.049	0.0158925
928.128	0.0157991
928.206	0.0158901
928.284	0.0158270
928.362	0.0158978
928.440	0.0158466
928.518	0.0157922
928.596	0.0158466
928.674	0.0158627
928.753	0.0159539
928.831	0.0159669
928.909	0.0158207
928.987	0.0159781
929.065	0.0158718
929.143	0.0158485
929.221	0.0158961
929.299	0.0158730
929.378	0.0158347
929.456	0.0159244
929.534	0.0158430
929.612	0.0159666
929.690	0.0159595
929.768	0.0159878
929.846	0.0159684
929.924	0.0159934
930.003	0.0159625
930.081	0.0160970
930.159	0.0159457
930.237	0.0161237
930.315	0.0160895
930.393	0.0160136
930.471	0.0160483
930.549	0.0160304
930.628	0.0160943
930.706	0.0161262
930.784	0.0160185
930.862	0.0161018
930.940	0.0161034
931.018	0.0161523
931.096	0.0160207
931.174	0.0160004
931.253	0.0160524
931.331	0.0159581
931.409	0.0159467
931.487	0.0159867
931.565	0.0159928
931.643	0.0160360
931.721	0.0160992
931.799	0.0158607
931.878	0.0159983
931.956	0.0158520
932.034	0.0159115
932.112	0.0158707
932.190	0.0159620
932.268	0.0159325
932.346	0.0158311
932.424	0.0157498
932.503	0.0158909
932.581	0.0159827
932.659	0.0160249
932.737	0.0158241
932.815	0.0157556
932.893	0.0159988
932.971	0.0159443
933.049	0.0157516
933.128	0.0158907
933.206	0.0159257
933.284	0.0157793
933.362	0.0160248
933.440	0.0157283
933.518	0.0160106
933.596	0.0159354
933.674	0.0158319
933.753	0.0158273
933.831	0.0159342
933.909	0.0158482
933.987	0.0158820
934.065	0.0159264
934.143	0.0157468
934.221	0.0159618
934.299	0.0158652
934.378	0.0159445
934.456	0.0157792
934.534	0.0159131
934.612	0.0159808
934.690	0.0159192
934.768	0.0159045
934.846	0.0159516
934.924	0.0159838
935.003	0.0160497
935.081	0.0158234
935.159	0.0158777
935.237	0.0159980
935.315	0.0159946
935.393	0.0160506
935.471	0.0159296
935.549	0.0160163
935.628	0.0159892
935.706	0.0160722
935.784	0.0157813
935.862	0.0158546
935.940	0.0160876
936.018	0.0158411
936.096	0.0158825
936.174	0.0158396
936.253	0.0159269
936.331	0.0160231
936.409	0.0160526
936.487	0.0160325
936.565	0.0159763
936.643	0.0159546
936.721	0.0158957
936.799	0.0160349
936.878	0.0160111
936.956	0.0160841
937.034	0.0159689
937.112	0.0159392
937.190	0.0160341
937.268	0.0158971
937.346	0.0160443
937.424	0.0158781
937.503	0.0158968
937.581	0.0159832
937.659	0.0160489
937.737	0.0159574
937.815	0.0160917
937.893	0.0160254
937.971	0.0158531
938.049	0.0159093
938.128	0.0158451
938.206	0.0159460
938.284	0.0159100
938.362	0.0159241
938.440	0.0159832
938.518	0.0159930
938.596	0.0159298
938.674	0.0160350
938.753	0.0158812
938.831	0.0158537
938.909	0.0159103
938.987	0.0159402
939.065	0.0158350
939.143	0.0158665
939.221	0.0159212
939.299	0.0159261
939.378	0.0159467
939.456	0.0158822
939.534	0.0158703
939.612	0.0159934
939.690	0.0158765
939.768	0.0158311
939.846	0.0159492
939.924	0.0158752
940.003	0.0160825
940.081	0.0158585
940.159	0.0158606
940.237	0.0159566
940.315	0.0159154
940.393	0.0159331
940.471	0.0159065
940.549	0.0159796
940.628	0.0159264
940.706	0.0159253
940.784	0.0160708
940.862	0.0159979
940.940	0.0158694
941.018	0.0160017
941.096	0.0158848
941.174	0.0159871
941.253	0.0159988
941.331	0.0157024
941.409	0.0159122
941.487	0.0158727
941.565	0.0159480
941.643	0.0159975
941.721	0.0159182
941.799	0.0159206
941.878	0.0158637
941.956	0.0160195
942.034	0.0159183
942.112	0.0159354
942.190	0.0160202
942.268	0.0159118
942.346	0.0159663
942.424	0.0161217
942.503	0.0160493
942.581	0.0158269
942.659	0.0159884
942.737	0.0159248
942.815	0.0160179
942.893	0.0161520
942.971	0.0160781
943.049	0.0159882
943.128	0.0161491
943.206	0.0159618
943.284	0.0158639
943.362	0.0159367
943.440	0.0159811
943.518	0.0158994
943.596	0.0159695
943.674	0.0159778
943.753	0.0159550
943.831	0.0158976
943.909	0.0158952
943.987	0.0159383
944.065	0.0160126
944.143	0.0158250
944.221	0.0158403
944.299	0.0160475
944.378	0.0159223
944.456	0.0159640
944.534	0.0159256
944.612	0.0159077
944.690	0.0158987
944.768	0.0159698
944.846	0.0159149
944.924	0.0158073
945.003	0.0157578
945.081	0.0159586
945.159	0.0157539
945.237	0.0159636
945.315	0.0159779
945.393	0.0158642
945.471	0.0158961
945.549	0.0159018
945.628	0.0158477
945.706	0.0158311
945.784	0.0157606
945.862	0.0158616
945.940	0.0158276
946.018	0.0157259
946.096	0.0159250
946.174	0.0159060
946.253	0.0158750
946.331	0.0159737
946.409	0.0158591
946.487	0.0158369
946.565	0.0160165
946.643	0.0158340
946.721	0.0158024
946.799	0.0158593
946.878	0.0158752
946.956	0.0158572
947.034	0.0158634
947.112	0.0158282
947.190	0.0157864
947.268	0.0159429
947.346	0.0158825
947.424	0.0156868
947.503	0.0157888
947.581	0.0159988
947.659	0.0158258
947.737	0.0159827
947.815	0.0160295
947.893	0.0158412
947.971	0.0158566
948.049	0.0158294
948.128	0.0158451
948.206	0.0159447
948.284	0.0159841
948.362	0.0159451
948.440	0.0158393
948.518	0.0159450
948.596	0.0159202
948.674	0.0158727
948.753	0.0159771
948.831	0.0159364
948.909	0.0158795
948.987	0.0158780
949.065	0.0158511
949.143	0.0158827
949.221	0.0159954
949.299	0.0159410
949.378	0.0158554
949.456	0.0158364
949.534	0.0158870
949.612	0.0157982
949.690	0.0158260
949.768	0.0159757
949.846	0.0159185
949.924	0.0157706
