05/19/2022	00:56:19	Ver.	4.1	UNKNOWN
Optical Delay	630.002507	Delta X		0.078125	Sweeps	1	Scan Rate	0/0
Coordinates	Axis 1	NaN	Axis 2	NaN	Axis 3	NaN	Axis 4	NaN	Axis 5	NaN	Axis 6	0.000000
TX Power	0.000000	RX Power	0.000000

630.003	0.0164795
630.081	0.0164756
630.159	0.0165920
630.237	0.0164655
630.315	0.0165353
630.393	0.0165224
630.471	0.0165529
630.549	0.0165754
630.628	0.0165736
630.706	0.0164952
630.784	0.0165335
630.862	0.0164886
630.940	0.0166534
631.018	0.0165026
631.096	0.0165801
631.174	0.0165943
631.253	0.0166178
631.331	0.0165755
631.409	0.0165759
631.487	0.0164783
631.565	0.0165033
631.643	0.0165010
631.721	0.0164969
631.799	0.0165157
631.878	0.0166024
631.956	0.0164944
632.034	0.0165877
632.112	0.0165833
632.190	0.0166047
632.268	0.0165868
632.346	0.0165738
632.424	0.0166595
632.503	0.0165101
632.581	0.0166201
632.659	0.0166216
632.737	0.0165572
632.815	0.0164907
632.893	0.0166411
632.971	0.0166100
633.049	0.0165478
633.128	0.0165189
633.206	0.0166189
633.284	0.0165044
633.362	0.0165136
633.440	0.0165577
633.518	0.0164757
633.596	0.0165029
633.674	0.0164764
633.753	0.0164434
633.831	0.0164391
633.909	0.0164996
633.987	0.0164672
634.065	0.0165037
634.143	0.0164478
634.221	0.0165906
634.299	0.0165919
634.378	0.0165636
634.456	0.0165347
634.534	0.0166313
634.612	0.0165907
634.690	0.0164731
634.768	0.0166161
634.846	0.0166022
634.924	0.0166949
635.003	0.0166225
635.081	0.0166222
635.159	0.0165653
635.237	0.0165254
635.315	0.0166670
635.393	0.0166316
635.471	0.0165280
635.549	0.0165980
635.628	0.0164779
635.706	0.0164597
635.784	0.0164404
635.862	0.0165208
635.940	0.0165752
636.018	0.0164214
636.096	0.0164734
636.174	0.0164539
636.253	0.0164174
636.331	0.0165321
636.409	0.0165369
636.487	0.0164468
636.565	0.0165692
636.643	0.0165397
636.721	0.0165806
636.799	0.0166426
636.878	0.0166611
636.956	0.0164985
637.034	0.0164766
637.112	0.0164843
637.190	0.0165672
637.268	0.0164997
637.346	0.0165479
637.424	0.0165421
637.503	0.0164421
637.581	0.0164696
637.659	0.0165691
637.737	0.0165407
637.815	0.0166851
637.893	0.0165099
637.971	0.0163283
638.049	0.0166306
638.128	0.0166096
638.206	0.0164655
638.284	0.0165575
638.362	0.0164854
638.440	0.0163343
638.518	0.0163380
638.596	0.0165001
638.674	0.0166029
638.753	0.0165797
638.831	0.0164029
638.909	0.0165002
638.987	0.0163615
639.065	0.0164243
639.143	0.0164685
639.221	0.0165065
639.299	0.0163931
639.378	0.0164072
639.456	0.0165336
639.534	0.0164703
639.612	0.0164826
639.690	0.0163634
639.768	0.0164232
639.846	0.0163645
639.924	0.0164468
640.003	0.0164351
640.081	0.0164946
640.159	0.0165733
640.237	0.0164962
640.315	0.0163612
640.393	0.0165164
640.471	0.0164589
640.549	0.0163499
640.628	0.0164441
640.706	0.0164310
640.784	0.0163963
640.862	0.0164283
640.940	0.0165368
641.018	0.0164579
641.096	0.0164964
641.174	0.0163276
641.253	0.0164833
641.331	0.0164707
641.409	0.0164955
641.487	0.0164844
641.565	0.0164399
641.643	0.0165585
641.721	0.0164407
641.799	0.0165534
641.878	0.0165004
641.956	0.0164082
642.034	0.0164661
642.112	0.0164420
642.190	0.0164821
642.268	0.0165256
642.346	0.0165257
642.424	0.0165017
642.503	0.0165257
642.581	0.0164264
642.659	0.0163873
642.737	0.0164481
642.815	0.0163942
642.893	0.0164957
642.971	0.0163593
643.049	0.0163699
643.128	0.0163872
643.206	0.0162443
643.284	0.0164634
643.362	0.0164205
643.440	0.0164324
643.518	0.0165002
643.596	0.0163376
643.674	0.0164632
643.753	0.0165637
643.831	0.0165131
643.909	0.0165568
643.987	0.0165165
644.065	0.0164092
644.143	0.0163615
644.221	0.0164919
644.299	0.0165932
644.378	0.0165684
644.456	0.0165815
644.534	0.0163789
644.612	0.0164751
644.690	0.0164086
644.768	0.0163043
644.846	0.0163555
644.924	0.0163236
645.003	0.0164720
645.081	0.0164459
645.159	0.0163322
645.237	0.0163534
645.315	0.0163335
645.393	0.0162952
645.471	0.0164661
645.549	0.0163324
645.628	0.0163280
645.706	0.0165317
645.784	0.0163093
645.862	0.0163774
645.940	0.0163851
646.018	0.0163785
646.096	0.0163609
646.174	0.0162967
646.253	0.0165058
646.331	0.0163642
646.409	0.0163736
646.487	0.0164399
646.565	0.0164029
646.643	0.0163802
646.721	0.0165082
646.799	0.0165694
646.878	0.0164811
646.956	0.0165022
647.034	0.0164898
647.112	0.0166395
647.190	0.0165042
647.268	0.0165699
647.346	0.0164391
647.424	0.0165170
647.503	0.0165166
647.581	0.0165154
647.659	0.0165150
647.737	0.0165511
647.815	0.0165221
647.893	0.0165634
647.971	0.0166064
648.049	0.0166411
648.128	0.0164635
648.206	0.0165088
648.284	0.0164709
648.362	0.0164471
648.440	0.0164732
648.518	0.0164715
648.596	0.0163625
648.674	0.0165124
648.753	0.0165346
648.831	0.0162805
648.909	0.0164735
648.987	0.0164542
649.065	0.0163702
649.143	0.0164474
649.221	0.0163708
649.299	0.0164792
649.378	0.0164993
649.456	0.0165189
649.534	0.0164771
649.612	0.0164715
649.690	0.0163374
649.768	0.0165804
649.846	0.0165168
649.924	0.0163745
650.003	0.0165339
650.081	0.0165167
650.159	0.0164902
650.237	0.0164886
650.315	0.0165256
650.393	0.0165345
650.471	0.0166313
650.549	0.0166664
650.628	0.0164677
650.706	0.0165740
650.784	0.0165659
650.862	0.0166441
650.940	0.0164854
651.018	0.0165384
651.096	0.0165866
651.174	0.0165706
651.253	0.0165508
651.331	0.0166238
651.409	0.0166987
651.487	0.0166441
651.565	0.0165034
651.643	0.0164229
651.721	0.0166862
651.799	0.0166093
651.878	0.0165406
651.956	0.0165500
652.034	0.0165889
652.112	0.0165409
652.190	0.0166304
652.268	0.0165306
652.346	0.0165559
652.424	0.0166092
652.503	0.0166073
652.581	0.0165172
652.659	0.0164748
652.737	0.0164531
652.815	0.0163792
652.893	0.0165282
652.971	0.0164720
653.049	0.0164588
653.128	0.0164735
653.206	0.0165376
653.284	0.0164675
653.362	0.0164281
653.440	0.0164395
653.518	0.0166035
653.596	0.0164568
653.674	0.0164223
653.753	0.0164905
653.831	0.0165633
653.909	0.0165324
653.987	0.0164334
654.065	0.0163741
654.143	0.0165192
654.221	0.0164761
654.299	0.0164530
654.378	0.0164280
654.456	0.0164613
654.534	0.0164777
654.612	0.0165000
654.690	0.0166468
654.768	0.0166229
654.846	0.0165901
654.924	0.0165054
655.003	0.0165669
655.081	0.0167278
655.159	0.0166702
655.237	0.0166341
655.315	0.0167461
655.393	0.0166844
655.471	0.0165139
655.549	0.0165869
655.628	0.0165792
655.706	0.0165768
655.784	0.0167224
655.862	0.0166219
655.940	0.0165710
656.018	0.0165654
656.096	0.0165388
656.174	0.0162951
656.253	0.0164909
656.331	0.0164996
656.409	0.0163954
656.487	0.0164691
656.565	0.0163886
656.643	0.0162899
656.721	0.0162979
656.799	0.0162633
656.878	0.0162300
656.956	0.0163304
657.034	0.0164111
657.112	0.0163128
657.190	0.0164526
657.268	0.0163592
657.346	0.0164801
657.424	0.0163168
657.503	0.0164403
657.581	0.0163885
657.659	0.0164627
657.737	0.0164161
657.815	0.0164889
657.893	0.0164460
657.971	0.0165851
658.049	0.0166161
658.128	0.0164622
658.206	0.0166147
658.284	0.0166445
658.362	0.0165673
658.440	0.0167856
658.518	0.0166740
658.596	0.0166332
658.674	0.0166932
658.753	0.0167169
658.831	0.0165604
658.909	0.0165889
658.987	0.0166608
659.065	0.0166132
659.143	0.0166235
659.221	0.0166445
659.299	0.0165740
659.378	0.0164343
659.456	0.0165654
659.534	0.0164906
659.612	0.0164539
659.690	0.0163721
659.768	0.0164699
659.846	0.0164069
659.924	0.0164081
660.003	0.0162621
660.081	0.0162783
660.159	0.0163187
660.237	0.0163183
660.315	0.0162739
660.393	0.0162230
660.471	0.0161983
660.549	0.0160982
660.628	0.0163049
660.706	0.0163116
660.784	0.0163966
660.862	0.0163108
660.940	0.0162171
661.018	0.0161751
661.096	0.0164709
661.174	0.0163569
661.253	0.0164831
661.331	0.0164860
661.409	0.0164220
661.487	0.0166107
661.565	0.0165702
661.643	0.0165112
661.721	0.0165292
661.799	0.0166606
661.878	0.0165911
661.956	0.0165233
662.034	0.0166333
662.112	0.0167364
662.190	0.0166225
662.268	0.0167484
662.346	0.0166533
662.424	0.0166628
662.503	0.0165175
662.581	0.0165546
662.659	0.0166794
662.737	0.0166540
662.815	0.0165639
662.893	0.0166367
662.971	0.0166793
663.049	0.0167109
663.128	0.0167034
663.206	0.0164790
663.284	0.0165188
663.362	0.0166053
663.440	0.0164495
663.518	0.0165483
663.596	0.0165038
663.674	0.0166196
663.753	0.0164938
663.831	0.0165475
663.909	0.0165408
663.987	0.0165529
664.065	0.0164749
664.143	0.0165930
664.221	0.0166297
664.299	0.0164798
664.378	0.0164969
664.456	0.0166396
664.534	0.0165461
664.612	0.0165177
664.690	0.0165284
664.768	0.0164596
664.846	0.0164176
664.924	0.0162422
665.003	0.0164085
665.081	0.0161897
665.159	0.0162127
665.237	0.0162145
665.315	0.0163031
665.393	0.0162189
665.471	0.0162724
665.549	0.0161473
665.628	0.0160425
665.706	0.0160788
665.784	0.0161942
665.862	0.0161403
665.940	0.0160624
666.018	0.0161816
666.096	0.0161923
666.174	0.0163064
666.253	0.0163484
666.331	0.0161748
666.409	0.0163104
666.487	0.0164355
666.565	0.0164482
666.643	0.0165202
666.721	0.0163482
666.799	0.0162822
666.878	0.0165099
666.956	0.0163893
667.034	0.0166042
667.112	0.0164828
667.190	0.0165969
667.268	0.0165203
667.346	0.0164906
667.424	0.0165744
667.503	0.0166476
667.581	0.0165869
667.659	0.0165597
667.737	0.0165990
667.815	0.0165694
667.893	0.0165270
667.971	0.0167255
668.049	0.0167280
668.128	0.0167146
668.206	0.0167192
668.284	0.0166850
668.362	0.0167881
668.440	0.0167393
668.518	0.0168716
668.596	0.0167259
668.674	0.0168222
668.753	0.0167891
668.831	0.0167509
668.909	0.0168346
668.987	0.0167852
669.065	0.0167256
669.143	0.0168597
669.221	0.0166720
669.299	0.0166351
669.378	0.0168768
669.456	0.0166671
669.534	0.0166143
669.612	0.0165624
669.690	0.0166078
669.768	0.0163950
669.846	0.0164404
669.924	0.0163032
670.003	0.0162713
670.081	0.0162017
670.159	0.0161314
670.237	0.0160937
670.315	0.0159709
670.393	0.0159079
670.471	0.0159946
670.549	0.0159578
670.628	0.0159573
670.706	0.0160085
670.784	0.0158816
670.862	0.0159959
670.940	0.0159801
671.018	0.0160153
671.096	0.0161250
671.174	0.0159914
671.253	0.0161447
671.331	0.0163820
671.409	0.0162880
671.487	0.0162676
671.565	0.0162823
671.643	0.0164620
671.721	0.0163740
671.799	0.0163807
671.878	0.0164802
671.956	0.0167194
672.034	0.0165582
672.112	0.0165488
672.190	0.0166590
672.268	0.0167699
672.346	0.0167825
672.424	0.0168137
672.503	0.0165860
672.581	0.0167944
672.659	0.0168121
672.737	0.0168425
672.815	0.0168220
672.893	0.0168271
672.971	0.0168259
673.049	0.0167751
673.128	0.0167395
673.206	0.0165634
673.284	0.0166213
673.362	0.0166854
673.440	0.0165311
673.518	0.0165379
673.596	0.0164143
673.674	0.0163638
673.753	0.0162948
673.831	0.0164049
673.909	0.0163948
673.987	0.0163135
674.065	0.0163216
674.143	0.0163558
674.221	0.0163640
674.299	0.0163261
674.378	0.0164298
674.456	0.0164850
674.534	0.0164750
674.612	0.0164836
674.690	0.0164300
674.768	0.0164646
674.846	0.0164355
674.924	0.0166093
675.003	0.0165304
675.081	0.0167594
675.159	0.0169353
675.237	0.0166398
675.315	0.0165749
675.393	0.0166923
675.471	0.0167211
675.549	0.0167287
675.628	0.0165664
675.706	0.0166969
675.784	0.0165424
675.862	0.0164975
675.940	0.0166333
676.018	0.0165304
676.096	0.0164462
676.174	0.0164790
676.253	0.0162732
676.331	0.0163300
676.409	0.0164166
676.487	0.0162726
676.565	0.0161736
676.643	0.0162659
676.721	0.0163184
676.799	0.0163595
676.878	0.0161630
676.956	0.0162954
677.034	0.0161604
677.112	0.0162388
677.190	0.0162599
677.268	0.0161040
677.346	0.0160917
677.424	0.0162034
677.503	0.0160860
677.581	0.0161827
677.659	0.0163674
677.737	0.0162260
677.815	0.0162983
677.893	0.0162181
677.971	0.0162603
678.049	0.0162117
678.128	0.0162502
678.206	0.0162593
678.284	0.0164470
678.362	0.0162529
678.440	0.0162970
678.518	0.0163664
678.596	0.0162984
678.674	0.0166363
678.753	0.0165064
678.831	0.0165594
678.909	0.0165961
678.987	0.0165758
679.065	0.0166711
679.143	0.0167063
679.221	0.0165714
679.299	0.0167117
679.378	0.0169308
679.456	0.0168245
679.534	0.0168444
679.612	0.0169096
679.690	0.0168327
679.768	0.0169418
679.846	0.0169568
679.924	0.0169778
680.003	0.0168941
680.081	0.0169022
680.159	0.0168280
680.237	0.0167626
680.315	0.0167597
680.393	0.0167554
680.471	0.0166020
680.549	0.0166468
680.628	0.0165489
680.706	0.0166252
680.784	0.0164384
680.862	0.0163845
680.940	0.0164078
681.018	0.0160595
681.096	0.0161244
681.174	0.0161008
681.253	0.0159419
681.331	0.0160576
681.409	0.0160690
681.487	0.0160702
681.565	0.0159451
681.643	0.0160085
681.721	0.0159573
681.799	0.0159132
681.878	0.0159987
681.956	0.0160191
682.034	0.0159978
682.112	0.0159740
682.190	0.0161674
682.268	0.0161472
682.346	0.0162592
682.424	0.0161934
682.503	0.0162093
682.581	0.0162363
682.659	0.0164738
682.737	0.0164761
682.815	0.0164780
682.893	0.0166399
682.971	0.0165596
683.049	0.0165259
683.128	0.0166130
683.206	0.0165330
683.284	0.0166073
683.362	0.0165427
683.440	0.0166485
683.518	0.0166392
683.596	0.0166664
683.674	0.0167986
683.753	0.0165531
683.831	0.0165223
683.909	0.0165533
683.987	0.0165327
684.065	0.0166316
684.143	0.0165141
684.221	0.0164655
684.299	0.0167104
684.378	0.0164886
684.456	0.0164924
684.534	0.0164097
684.612	0.0165281
684.690	0.0164483
684.768	0.0162325
684.846	0.0161719
684.924	0.0163763
685.003	0.0163151
685.081	0.0161699
685.159	0.0162128
685.237	0.0161671
685.315	0.0161179
685.393	0.0163361
685.471	0.0163100
685.549	0.0161367
685.628	0.0161495
685.706	0.0162003
685.784	0.0162996
685.862	0.0162781
685.940	0.0162124
686.018	0.0162085
686.096	0.0162286
686.174	0.0163786
686.253	0.0163894
686.331	0.0164339
686.409	0.0164774
686.487	0.0165118
686.565	0.0164982
686.643	0.0163599
686.721	0.0166334
686.799	0.0166092
686.878	0.0167482
686.956	0.0166383
687.034	0.0166287
687.112	0.0165884
687.190	0.0166531
687.268	0.0166428
687.346	0.0165558
687.424	0.0166129
687.503	0.0165225
687.581	0.0164867
687.659	0.0165196
687.737	0.0165359
687.815	0.0165169
687.893	0.0164309
687.971	0.0165108
688.049	0.0163211
688.128	0.0163163
688.206	0.0163334
688.284	0.0163526
688.362	0.0162090
688.440	0.0161868
688.518	0.0162194
688.596	0.0162138
688.674	0.0162483
688.753	0.0161121
688.831	0.0162648
688.909	0.0162727
688.987	0.0163281
689.065	0.0163269
689.143	0.0164371
689.221	0.0163729
689.299	0.0164851
689.378	0.0163377
689.456	0.0164202
689.534	0.0164841
689.612	0.0165232
689.690	0.0166181
689.768	0.0166373
689.846	0.0165841
689.924	0.0167163
690.003	0.0166369
690.081	0.0167034
690.159	0.0167683
690.237	0.0166994
690.315	0.0167137
690.393	0.0167498
690.471	0.0166685
690.549	0.0167045
690.628	0.0167368
690.706	0.0168273
690.784	0.0167811
690.862	0.0165644
690.940	0.0166230
691.018	0.0166868
691.096	0.0166130
691.174	0.0166477
691.253	0.0164771
691.331	0.0166084
691.409	0.0165266
691.487	0.0164294
691.565	0.0164342
691.643	0.0164651
691.721	0.0163907
691.799	0.0163770
691.878	0.0163217
691.956	0.0162714
692.034	0.0163859
692.112	0.0162989
692.190	0.0163451
692.268	0.0161663
692.346	0.0162677
692.424	0.0163293
692.503	0.0161610
692.581	0.0162943
692.659	0.0162168
692.737	0.0162356
692.815	0.0162218
692.893	0.0162811
692.971	0.0163337
693.049	0.0164639
693.128	0.0162878
693.206	0.0164259
693.284	0.0163180
693.362	0.0164544
693.440	0.0164697
693.518	0.0165474
693.596	0.0165356
693.674	0.0166550
693.753	0.0165118
693.831	0.0164828
693.909	0.0165568
693.987	0.0165867
694.065	0.0164421
694.143	0.0163929
694.221	0.0166193
694.299	0.0165170
694.378	0.0165211
694.456	0.0166760
694.534	0.0166248
694.612	0.0166190
694.690	0.0165897
694.768	0.0166417
694.846	0.0167459
694.924	0.0166737
695.003	0.0165499
695.081	0.0165952
695.159	0.0167358
695.237	0.0167775
695.315	0.0166674
695.393	0.0165524
695.471	0.0166246
695.549	0.0166195
695.628	0.0166666
695.706	0.0166205
695.784	0.0164610
695.862	0.0164960
695.940	0.0164786
696.018	0.0165175
696.096	0.0163943
696.174	0.0162705
696.253	0.0163200
696.331	0.0163984
696.409	0.0163354
696.487	0.0165427
696.565	0.0162051
696.643	0.0162967
696.721	0.0162634
696.799	0.0163220
696.878	0.0162663
696.956	0.0162376
697.034	0.0163120
697.112	0.0165221
697.190	0.0164108
697.268	0.0164562
697.346	0.0164146
697.424	0.0164832
697.503	0.0165613
697.581	0.0164584
697.659	0.0165765
697.737	0.0166963
697.815	0.0165923
697.893	0.0166656
697.971	0.0166666
698.049	0.0165446
698.128	0.0167091
698.206	0.0165479
698.284	0.0166088
698.362	0.0165693
698.440	0.0165623
698.518	0.0166148
698.596	0.0163663
698.674	0.0163611
698.753	0.0164992
698.831	0.0163957
698.909	0.0164233
698.987	0.0163310
699.065	0.0162980
699.143	0.0162031
699.221	0.0161872
699.299	0.0161861
699.378	0.0162104
699.456	0.0162460
699.534	0.0162247
699.612	0.0160946
699.690	0.0162341
699.768	0.0163109
699.846	0.0164557
699.924	0.0163879
700.003	0.0163303
700.081	0.0163913
700.159	0.0163947
700.237	0.0164268
700.315	0.0165182
700.393	0.0163905
700.471	0.0165192
700.549	0.0166242
700.628	0.0164491
700.706	0.0165137
700.784	0.0166233
700.862	0.0165934
700.940	0.0166027
701.018	0.0165576
701.096	0.0163868
701.174	0.0163903
701.253	0.0165406
701.331	0.0165865
701.409	0.0165710
701.487	0.0164854
701.565	0.0163239
701.643	0.0163110
701.721	0.0162244
701.799	0.0161350
701.878	0.0163831
701.956	0.0161787
702.034	0.0162550
702.112	0.0162889
702.190	0.0162312
702.268	0.0162246
702.346	0.0163771
702.424	0.0163209
702.503	0.0165277
702.581	0.0162805
702.659	0.0164294
702.737	0.0165730
702.815	0.0166122
702.893	0.0166022
702.971	0.0165861
703.049	0.0166362
703.128	0.0167027
703.206	0.0165932
703.284	0.0166709
703.362	0.0166468
703.440	0.0166569
703.518	0.0167246
703.596	0.0166808
703.674	0.0165893
703.753	0.0164384
703.831	0.0166140
703.909	0.0165678
703.987	0.0164917
704.065	0.0165271
704.143	0.0165547
704.221	0.0166049
704.299	0.0165769
704.378	0.0165110
704.456	0.0165421
704.534	0.0165051
704.612	0.0164796
704.690	0.0164729
704.768	0.0165696
704.846	0.0163310
704.924	0.0165227
705.003	0.0164508
705.081	0.0165958
705.159	0.0163580
705.237	0.0164909
705.315	0.0164340
705.393	0.0163730
705.471	0.0163767
705.549	0.0164706
705.628	0.0164021
705.706	0.0163882
705.784	0.0163850
705.862	0.0164006
705.940	0.0163414
706.018	0.0162485
706.096	0.0163048
706.174	0.0162637
706.253	0.0162063
706.331	0.0161221
706.409	0.0162345
706.487	0.0162476
706.565	0.0163147
706.643	0.0163622
706.721	0.0162392
706.799	0.0163059
706.878	0.0164518
706.956	0.0162953
707.034	0.0163610
707.112	0.0164947
707.190	0.0165398
707.268	0.0165986
707.346	0.0165987
707.424	0.0166814
707.503	0.0166792
707.581	0.0166634
707.659	0.0165943
707.737	0.0165976
707.815	0.0167600
707.893	0.0166941
707.971	0.0166864
708.049	0.0166689
708.128	0.0165903
708.206	0.0166853
708.284	0.0166595
708.362	0.0163975
708.440	0.0166335
708.518	0.0165384
708.596	0.0165729
708.674	0.0165464
708.753	0.0165460
708.831	0.0165941
708.909	0.0164471
708.987	0.0165384
709.065	0.0165440
709.143	0.0165884
709.221	0.0165462
709.299	0.0164464
709.378	0.0165620
709.456	0.0163957
709.534	0.0163901
709.612	0.0166325
709.690	0.0165802
709.768	0.0164535
709.846	0.0164773
709.924	0.0163434
710.003	0.0163573
710.081	0.0164828
710.159	0.0163083
710.237	0.0164474
710.315	0.0163355
710.393	0.0162673
710.471	0.0162989
710.549	0.0163118
710.628	0.0163410
710.706	0.0161906
710.784	0.0162332
710.862	0.0161693
710.940	0.0163043
711.018	0.0162430
711.096	0.0164173
711.174	0.0164452
711.253	0.0163412
711.331	0.0164638
711.409	0.0166164
711.487	0.0165478
711.565	0.0164452
711.643	0.0165453
711.721	0.0164648
711.799	0.0166491
711.878	0.0165544
711.956	0.0168363
712.034	0.0167813
712.112	0.0166843
712.190	0.0166522
712.268	0.0168063
712.346	0.0167341
712.424	0.0166404
712.503	0.0166287
712.581	0.0166302
712.659	0.0166537
712.737	0.0167390
712.815	0.0167016
712.893	0.0165675
712.971	0.0167366
713.049	0.0166862
713.128	0.0165722
713.206	0.0166586
713.284	0.0166433
713.362	0.0165689
713.440	0.0164214
713.518	0.0166514
713.596	0.0164294
713.674	0.0163502
713.753	0.0163182
713.831	0.0164804
713.909	0.0163009
713.987	0.0164106
714.065	0.0163282
714.143	0.0163142
714.221	0.0161636
714.299	0.0161866
714.378	0.0162166
714.456	0.0162594
714.534	0.0162387
714.612	0.0163066
714.690	0.0162968
714.768	0.0162023
714.846	0.0164095
714.924	0.0161936
715.003	0.0163408
715.081	0.0162749
715.159	0.0163758
715.237	0.0165163
715.315	0.0165356
715.393	0.0163910
715.471	0.0164353
715.549	0.0165828
715.628	0.0164495
715.706	0.0166959
715.784	0.0167585
715.862	0.0165207
715.940	0.0165619
716.018	0.0164639
716.096	0.0166283
716.174	0.0167565
716.253	0.0168047
716.331	0.0166572
716.409	0.0167689
716.487	0.0168243
716.565	0.0166034
716.643	0.0166459
716.721	0.0165054
716.799	0.0166052
716.878	0.0167290
716.956	0.0165865
717.034	0.0166885
717.112	0.0165744
717.190	0.0165210
717.268	0.0166530
717.346	0.0166053
717.424	0.0165412
717.503	0.0166017
717.581	0.0166764
717.659	0.0165754
717.737	0.0166851
717.815	0.0166588
717.893	0.0166148
717.971	0.0165901
718.049	0.0165954
718.128	0.0165405
718.206	0.0166398
718.284	0.0166538
718.362	0.0167262
718.440	0.0165146
718.518	0.0165866
718.596	0.0165468
718.674	0.0164539
718.753	0.0164650
718.831	0.0164243
718.909	0.0164151
718.987	0.0163609
719.065	0.0164256
719.143	0.0164972
719.221	0.0165386
719.299	0.0166103
719.378	0.0164517
719.456	0.0165417
719.534	0.0164833
719.612	0.0165297
719.690	0.0164709
719.768	0.0164946
719.846	0.0165955
719.924	0.0165865
720.003	0.0165047
720.081	0.0166142
720.159	0.0165749
720.237	0.0165324
720.315	0.0166479
720.393	0.0166209
720.471	0.0166077
720.549	0.0165414
720.628	0.0164785
720.706	0.0163924
720.784	0.0164244
720.862	0.0164725
720.940	0.0163721
721.018	0.0165190
721.096	0.0164515
721.174	0.0165076
721.253	0.0165386
721.331	0.0163919
721.409	0.0163904
721.487	0.0164566
721.565	0.0163669
721.643	0.0164904
721.721	0.0164587
721.799	0.0164510
721.878	0.0164742
721.956	0.0164133
722.034	0.0163974
722.112	0.0163885
722.190	0.0164272
722.268	0.0163901
722.346	0.0165002
722.424	0.0164351
722.503	0.0163602
722.581	0.0164881
722.659	0.0164078
722.737	0.0164442
722.815	0.0164361
722.893	0.0164758
722.971	0.0164053
723.049	0.0164833
723.128	0.0164658
723.206	0.0165796
723.284	0.0164903
723.362	0.0163932
723.440	0.0165955
723.518	0.0165137
723.596	0.0164923
723.674	0.0164783
723.753	0.0162532
723.831	0.0166241
723.909	0.0165877
723.987	0.0164210
724.065	0.0162657
724.143	0.0164393
724.221	0.0164149
724.299	0.0164597
724.378	0.0165284
724.456	0.0164523
724.534	0.0165540
724.612	0.0165197
724.690	0.0165559
724.768	0.0164331
724.846	0.0163386
724.924	0.0165336
725.003	0.0164471
725.081	0.0162870
725.159	0.0164615
725.237	0.0165114
725.315	0.0163634
725.393	0.0162159
725.471	0.0163699
725.549	0.0165120
725.628	0.0163825
725.706	0.0163865
725.784	0.0165166
725.862	0.0164232
725.940	0.0165094
726.018	0.0164964
726.096	0.0165032
726.174	0.0163842
726.253	0.0165175
726.331	0.0164663
726.409	0.0164761
726.487	0.0163944
726.565	0.0165997
726.643	0.0165485
726.721	0.0164164
726.799	0.0164252
726.878	0.0165465
726.956	0.0164826
727.034	0.0163994
727.112	0.0164046
727.190	0.0164809
727.268	0.0163955
727.346	0.0165172
727.424	0.0164740
727.503	0.0164645
727.581	0.0165291
727.659	0.0164289
727.737	0.0163762
727.815	0.0165440
727.893	0.0164754
727.971	0.0164306
728.049	0.0163615
728.128	0.0164249
728.206	0.0163571
728.284	0.0163689
728.362	0.0163570
728.440	0.0165640
728.518	0.0163860
728.596	0.0164017
728.674	0.0162773
728.753	0.0163939
728.831	0.0165392
728.909	0.0164462
728.987	0.0163696
729.065	0.0164202
729.143	0.0162495
729.221	0.0164938
729.299	0.0165518
729.378	0.0164531
729.456	0.0164161
729.534	0.0164698
729.612	0.0164503
729.690	0.0163814
729.768	0.0163934
729.846	0.0164675
729.924	0.0164766
730.003	0.0163951
730.081	0.0166216
730.159	0.0164630
730.237	0.0164178
730.315	0.0165137
730.393	0.0165214
730.471	0.0165809
730.549	0.0166471
730.628	0.0165868
730.706	0.0164977
730.784	0.0165730
730.862	0.0167393
730.940	0.0166196
731.018	0.0167249
731.096	0.0166536
731.174	0.0165986
731.253	0.0165732
731.331	0.0166146
731.409	0.0166534
731.487	0.0166096
731.565	0.0165527
731.643	0.0165528
731.721	0.0166413
731.799	0.0166801
731.878	0.0166136
731.956	0.0164386
732.034	0.0166137
732.112	0.0164221
732.190	0.0163308
732.268	0.0167745
732.346	0.0166754
732.424	0.0165116
732.503	0.0164375
732.581	0.0165385
732.659	0.0164204
732.737	0.0165216
732.815	0.0166385
732.893	0.0164449
732.971	0.0164227
733.049	0.0165260
733.128	0.0164856
733.206	0.0164338
733.284	0.0163894
733.362	0.0164305
733.440	0.0164328
733.518	0.0164900
733.596	0.0163232
733.674	0.0163199
733.753	0.0163776
733.831	0.0164418
733.909	0.0163311
733.987	0.0164234
734.065	0.0165063
734.143	0.0163669
734.221	0.0163790
734.299	0.0163859
734.378	0.0163542
734.456	0.0164056
734.534	0.0162571
734.612	0.0163887
734.690	0.0164433
734.768	0.0164973
734.846	0.0164247
734.924	0.0163577
735.003	0.0164343
735.081	0.0164121
735.159	0.0165484
735.237	0.0165765
735.315	0.0165361
735.393	0.0165608
735.471	0.0165439
735.549	0.0165742
735.628	0.0166721
735.706	0.0165039
735.784	0.0164741
735.862	0.0165109
735.940	0.0166008
736.018	0.0165174
736.096	0.0164806
736.174	0.0163798
736.253	0.0164835
736.331	0.0163817
736.409	0.0163728
736.487	0.0165057
736.565	0.0164741
736.643	0.0164697
736.721	0.0164981
736.799	0.0165099
736.878	0.0165245
736.956	0.0166016
737.034	0.0165514
737.112	0.0166610
737.190	0.0165019
737.268	0.0166428
737.346	0.0165151
737.424	0.0165902
737.503	0.0165164
737.581	0.0165223
737.659	0.0165540
737.737	0.0165278
737.815	0.0166917
737.893	0.0165002
737.971	0.0165495
738.049	0.0165382
738.128	0.0164328
738.206	0.0165658
738.284	0.0164298
738.362	0.0164662
738.440	0.0164426
738.518	0.0164524
738.596	0.0165747
738.674	0.0165397
738.753	0.0164902
738.831	0.0164306
738.909	0.0164558
738.987	0.0164323
739.065	0.0165337
739.143	0.0165554
739.221	0.0165667
739.299	0.0165569
739.378	0.0164138
739.456	0.0164702
739.534	0.0164192
739.612	0.0164035
739.690	0.0164373
739.768	0.0164276
739.846	0.0164555
739.924	0.0163806
740.003	0.0162492
740.081	0.0163322
740.159	0.0165221
740.237	0.0163965
740.315	0.0165067
740.393	0.0164369
740.471	0.0163491
740.549	0.0163473
740.628	0.0163843
740.706	0.0162816
740.784	0.0165064
740.862	0.0164434
740.940	0.0165128
741.018	0.0165834
741.096	0.0165190
741.174	0.0163342
741.253	0.0165097
741.331	0.0165192
741.409	0.0164880
741.487	0.0165058
741.565	0.0163501
741.643	0.0165108
741.721	0.0164462
741.799	0.0166476
741.878	0.0164671
741.956	0.0164472
742.034	0.0164472
742.112	0.0163911
742.190	0.0164965
742.268	0.0164086
742.346	0.0162888
742.424	0.0164350
742.503	0.0164043
742.581	0.0164375
742.659	0.0164053
742.737	0.0163777
742.815	0.0163226
742.893	0.0163542
742.971	0.0163656
743.049	0.0163435
743.128	0.0162914
743.206	0.0164227
743.284	0.0162788
743.362	0.0163054
743.440	0.0163429
743.518	0.0164063
743.596	0.0165157
743.674	0.0164489
743.753	0.0163193
743.831	0.0162569
743.909	0.0164587
743.987	0.0165186
744.065	0.0163090
744.143	0.0163951
744.221	0.0165635
744.299	0.0163558
744.378	0.0164078
744.456	0.0163710
744.534	0.0162752
744.612	0.0164331
744.690	0.0163990
744.768	0.0162729
744.846	0.0162893
744.924	0.0162615
745.003	0.0164629
745.081	0.0163530
745.159	0.0165005
745.237	0.0164496
745.315	0.0164152
745.393	0.0163452
745.471	0.0164530
745.549	0.0164437
745.628	0.0166164
745.706	0.0164040
745.784	0.0164017
745.862	0.0163479
745.940	0.0163247
746.018	0.0164194
746.096	0.0164436
746.174	0.0163037
746.253	0.0163774
746.331	0.0164130
746.409	0.0163665
746.487	0.0163396
746.565	0.0163831
746.643	0.0164236
746.721	0.0164268
746.799	0.0163449
746.878	0.0164783
746.956	0.0165077
747.034	0.0164818
747.112	0.0164719
747.190	0.0164996
747.268	0.0163877
747.346	0.0164679
747.424	0.0164991
747.503	0.0164505
747.581	0.0163920
747.659	0.0164354
747.737	0.0164321
747.815	0.0164811
747.893	0.0163535
747.971	0.0163132
748.049	0.0163472
748.128	0.0164509
748.206	0.0164193
748.284	0.0164865
748.362	0.0165115
748.440	0.0163765
748.518	0.0162395
748.596	0.0164208
748.674	0.0163331
748.753	0.0163584
748.831	0.0164283
748.909	0.0164035
748.987	0.0163760
749.065	0.0163316
749.143	0.0164086
749.221	0.0165170
749.299	0.0164468
749.378	0.0163208
749.456	0.0164848
749.534	0.0163665
749.612	0.0164423
749.690	0.0164649
749.768	0.0164243
749.846	0.0164248
749.924	0.0164176
750.003	0.0163179
750.081	0.0164838
750.159	0.0164363
750.237	0.0163548
750.315	0.0164739
750.393	0.0163712
750.471	0.0163138
750.549	0.0163190
750.628	0.0163039
750.706	0.0164400
750.784	0.0163953
750.862	0.0163390
750.940	0.0164801
751.018	0.0163626
751.096	0.0163296
751.174	0.0165368
751.253	0.0163696
751.331	0.0164298
751.409	0.0164331
751.487	0.0164788
751.565	0.0165638
751.643	0.0165147
751.721	0.0165223
751.799	0.0164545
751.878	0.0165480
751.956	0.0164375
752.034	0.0164633
752.112	0.0164802
752.190	0.0165214
752.268	0.0165898
752.346	0.0164391
752.424	0.0163648
752.503	0.0162968
752.581	0.0163390
752.659	0.0164560
752.737	0.0163503
752.815	0.0164133
752.893	0.0163128
752.971	0.0164647
753.049	0.0165134
753.128	0.0163510
753.206	0.0163963
753.284	0.0165032
753.362	0.0165262
753.440	0.0164738
753.518	0.0163154
753.596	0.0166315
753.674	0.0165778
753.753	0.0164997
753.831	0.0164592
753.909	0.0165418
753.987	0.0164620
754.065	0.0164667
754.143	0.0164852
754.221	0.0165734
754.299	0.0165340
754.378	0.0164878
754.456	0.0165597
754.534	0.0164227
754.612	0.0165115
754.690	0.0166716
754.768	0.0166206
754.846	0.0164658
754.924	0.0165714
755.003	0.0165524
755.081	0.0165918
755.159	0.0164285
755.237	0.0165533
755.315	0.0165489
755.393	0.0164497
755.471	0.0164941
755.549	0.0163215
755.628	0.0164484
755.706	0.0165320
755.784	0.0164668
755.862	0.0164322
755.940	0.0164977
756.018	0.0163993
756.096	0.0165303
756.174	0.0163744
756.253	0.0165274
756.331	0.0164184
756.409	0.0163847
756.487	0.0164480
756.565	0.0164916
756.643	0.0162580
756.721	0.0163504
756.799	0.0165300
756.878	0.0165372
756.956	0.0164452
757.034	0.0165855
757.112	0.0164046
757.190	0.0164963
757.268	0.0165083
757.346	0.0164791
757.424	0.0164174
757.503	0.0166606
757.581	0.0164954
757.659	0.0164854
757.737	0.0164195
757.815	0.0164304
757.893	0.0164183
757.971	0.0164624
758.049	0.0165333
758.128	0.0165005
758.206	0.0164769
758.284	0.0164750
758.362	0.0165184
758.440	0.0165799
758.518	0.0165286
758.596	0.0165884
758.674	0.0166836
758.753	0.0164193
758.831	0.0164314
758.909	0.0165292
758.987	0.0166227
759.065	0.0165875
759.143	0.0165371
759.221	0.0164067
759.299	0.0164838
759.378	0.0165656
759.456	0.0163447
759.534	0.0163603
759.612	0.0164478
759.690	0.0163986
759.768	0.0165354
759.846	0.0167229
759.924	0.0164162
760.003	0.0166123
760.081	0.0165830
760.159	0.0165987
760.237	0.0165662
760.315	0.0165647
760.393	0.0165646
760.471	0.0165062
760.549	0.0166303
760.628	0.0165437
760.706	0.0165984
760.784	0.0163836
760.862	0.0165873
760.940	0.0165084
761.018	0.0166087
761.096	0.0165009
761.174	0.0165273
761.253	0.0165076
761.331	0.0164351
761.409	0.0165636
761.487	0.0164435
761.565	0.0165558
761.643	0.0165639
761.721	0.0165156
761.799	0.0166060
761.878	0.0165838
761.956	0.0165334
762.034	0.0165686
762.112	0.0164634
762.190	0.0164606
762.268	0.0165130
762.346	0.0165948
762.424	0.0166093
762.503	0.0163608
762.581	0.0163649
762.659	0.0165582
762.737	0.0164677
762.815	0.0164928
762.893	0.0163029
762.971	0.0163702
763.049	0.0164120
763.128	0.0163892
763.206	0.0164641
763.284	0.0165593
763.362	0.0165242
763.440	0.0165643
763.518	0.0163783
763.596	0.0164392
763.674	0.0164742
763.753	0.0163925
763.831	0.0164994
763.909	0.0163851
763.987	0.0164101
764.065	0.0163947
764.143	0.0165482
764.221	0.0165338
764.299	0.0164815
764.378	0.0164635
764.456	0.0164562
764.534	0.0164167
764.612	0.0165043
764.690	0.0163918
764.768	0.0164870
764.846	0.0165405
764.924	0.0165130
765.003	0.0165095
765.081	0.0164661
765.159	0.0165280
765.237	0.0164825
765.315	0.0165353
765.393	0.0163599
765.471	0.0166268
765.549	0.0164929
765.628	0.0163242
765.706	0.0165037
765.784	0.0166737
765.862	0.0165595
765.940	0.0163972
766.018	0.0164269
766.096	0.0164880
766.174	0.0163539
766.253	0.0163848
766.331	0.0164019
766.409	0.0162789
766.487	0.0163605
766.565	0.0162450
766.643	0.0164202
766.721	0.0163889
766.799	0.0162868
766.878	0.0164626
766.956	0.0164718
767.034	0.0164474
767.112	0.0163351
767.190	0.0162844
767.268	0.0163879
767.346	0.0164757
767.424	0.0162992
767.503	0.0163681
767.581	0.0164796
767.659	0.0163134
767.737	0.0163223
767.815	0.0163412
767.893	0.0163406
767.971	0.0162576
768.049	0.0162710
768.128	0.0163918
768.206	0.0163843
768.284	0.0163680
768.362	0.0162603
768.440	0.0164516
768.518	0.0163912
768.596	0.0162053
768.674	0.0163702
768.753	0.0163656
768.831	0.0162850
768.909	0.0162957
768.987	0.0162265
769.065	0.0163705
769.143	0.0163166
769.221	0.0163340
769.299	0.0163564
769.378	0.0162484
769.456	0.0163868
769.534	0.0164023
769.612	0.0164287
769.690	0.0163454
769.768	0.0163922
769.846	0.0163927
769.924	0.0164204
770.003	0.0165082
770.081	0.0164288
770.159	0.0163393
770.237	0.0163251
770.315	0.0164043
770.393	0.0162988
770.471	0.0162712
770.549	0.0164342
770.628	0.0163342
770.706	0.0163959
770.784	0.0163248
770.862	0.0161356
770.940	0.0163283
771.018	0.0163115
771.096	0.0164012
771.174	0.0164226
771.253	0.0162661
771.331	0.0164017
771.409	0.0163235
771.487	0.0163035
771.565	0.0161955
771.643	0.0164110
771.721	0.0163112
771.799	0.0164037
771.878	0.0162586
771.956	0.0163784
772.034	0.0163776
772.112	0.0162344
772.190	0.0163185
772.268	0.0165507
772.346	0.0163770
772.424	0.0162397
772.503	0.0162442
772.581	0.0164156
772.659	0.0164332
772.737	0.0164069
772.815	0.0163201
772.893	0.0164458
772.971	0.0164502
773.049	0.0163172
773.128	0.0163374
773.206	0.0163545
773.284	0.0163744
773.362	0.0163793
773.440	0.0163637
773.518	0.0163902
773.596	0.0164419
773.674	0.0163638
773.753	0.0162630
773.831	0.0162437
773.909	0.0163271
773.987	0.0163678
774.065	0.0163681
774.143	0.0163647
774.221	0.0164410
774.299	0.0164672
774.378	0.0163708
774.456	0.0163644
774.534	0.0164199
774.612	0.0162762
774.690	0.0163012
774.768	0.0165728
774.846	0.0164100
774.924	0.0164213
775.003	0.0164079
775.081	0.0163393
775.159	0.0163968
775.237	0.0163963
775.315	0.0164851
775.393	0.0162968
775.471	0.0165267
775.549	0.0163659
775.628	0.0163040
775.706	0.0163938
775.784	0.0165228
775.862	0.0165842
775.940	0.0164307
776.018	0.0163664
776.096	0.0164468
776.174	0.0164310
776.253	0.0164949
776.331	0.0165974
776.409	0.0165408
776.487	0.0166456
776.565	0.0166026
776.643	0.0164768
776.721	0.0165676
776.799	0.0165728
776.878	0.0165139
776.956	0.0164983
777.034	0.0165197
777.112	0.0166016
777.190	0.0164420
777.268	0.0165508
777.346	0.0165070
777.424	0.0165923
777.503	0.0165563
777.581	0.0165327
777.659	0.0165195
777.737	0.0164114
777.815	0.0165079
777.893	0.0164130
777.971	0.0163999
778.049	0.0166242
778.128	0.0165160
778.206	0.0164910
778.284	0.0165037
778.362	0.0164027
778.440	0.0164548
778.518	0.0163961
778.596	0.0163668
778.674	0.0164179
778.753	0.0163863
778.831	0.0164857
778.909	0.0163317
778.987	0.0163689
779.065	0.0165332
779.143	0.0165340
779.221	0.0164563
779.299	0.0163914
779.378	0.0164726
779.456	0.0164963
779.534	0.0164996
779.612	0.0165910
779.690	0.0164365
779.768	0.0165024
779.846	0.0165238
779.924	0.0164541
780.003	0.0164162
780.081	0.0164787
780.159	0.0166245
780.237	0.0164737
780.315	0.0164292
780.393	0.0165624
780.471	0.0165068
780.549	0.0166157
780.628	0.0165686
780.706	0.0166326
780.784	0.0165912
780.862	0.0165360
780.940	0.0166092
781.018	0.0166413
781.096	0.0163714
781.174	0.0165160
781.253	0.0165194
781.331	0.0165135
781.409	0.0165904
781.487	0.0165224
781.565	0.0164664
781.643	0.0165020
781.721	0.0165273
781.799	0.0166567
781.878	0.0164278
781.956	0.0165085
782.034	0.0164954
782.112	0.0165394
782.190	0.0165029
782.268	0.0164536
782.346	0.0164286
782.424	0.0166167
782.503	0.0167589
782.581	0.0163839
782.659	0.0164665
782.737	0.0164230
782.815	0.0165747
782.893	0.0164890
782.971	0.0165739
783.049	0.0165267
783.128	0.0164935
783.206	0.0165576
783.284	0.0165574
783.362	0.0167120
783.440	0.0165195
783.518	0.0165024
783.596	0.0165002
783.674	0.0165414
783.753	0.0166172
783.831	0.0165102
783.909	0.0165255
783.987	0.0165579
784.065	0.0164080
784.143	0.0163281
784.221	0.0164991
784.299	0.0164263
784.378	0.0164665
784.456	0.0164918
784.534	0.0164326
784.612	0.0163016
784.690	0.0164627
784.768	0.0165109
784.846	0.0164794
784.924	0.0165501
785.003	0.0165605
785.081	0.0163728
785.159	0.0165285
785.237	0.0163403
785.315	0.0163906
785.393	0.0165729
785.471	0.0166026
785.549	0.0164877
785.628	0.0163941
785.706	0.0165103
785.784	0.0164713
785.862	0.0164463
785.940	0.0164165
786.018	0.0163573
786.096	0.0164952
786.174	0.0163508
786.253	0.0164791
786.331	0.0164285
786.409	0.0164957
786.487	0.0165928
786.565	0.0166326
786.643	0.0164634
786.721	0.0165357
786.799	0.0164769
786.878	0.0164785
786.956	0.0165137
787.034	0.0164780
787.112	0.0164561
787.190	0.0164926
787.268	0.0165658
787.346	0.0164903
787.424	0.0164576
787.503	0.0164516
787.581	0.0164517
787.659	0.0165408
787.737	0.0165430
787.815	0.0164557
787.893	0.0165404
787.971	0.0163838
788.049	0.0164304
788.128	0.0164390
788.206	0.0164875
788.284	0.0165667
788.362	0.0164465
788.440	0.0165695
788.518	0.0166040
788.596	0.0165826
788.674	0.0165806
788.753	0.0165575
788.831	0.0165372
788.909	0.0165762
788.987	0.0164668
789.065	0.0163840
789.143	0.0165102
789.221	0.0164803
789.299	0.0165677
789.378	0.0165926
789.456	0.0166051
789.534	0.0164005
789.612	0.0165531
789.690	0.0165430
789.768	0.0165792
789.846	0.0164693
789.924	0.0165234
790.003	0.0165801
790.081	0.0167327
790.159	0.0167356
790.237	0.0165630
790.315	0.0166813
790.393	0.0165276
790.471	0.0166039
790.549	0.0166682
790.628	0.0165815
790.706	0.0165949
790.784	0.0166767
790.862	0.0165701
790.940	0.0165419
791.018	0.0165852
791.096	0.0166650
791.174	0.0165359
791.253	0.0165059
791.331	0.0165938
791.409	0.0166693
791.487	0.0164025
791.565	0.0165005
791.643	0.0166667
791.721	0.0165197
791.799	0.0165429
791.878	0.0164795
791.956	0.0164505
792.034	0.0162930
792.112	0.0163970
792.190	0.0165683
792.268	0.0163075
792.346	0.0163428
792.424	0.0164284
792.503	0.0164758
792.581	0.0165250
792.659	0.0163686
792.737	0.0163467
792.815	0.0162328
792.893	0.0163152
792.971	0.0163728
793.049	0.0162168
793.128	0.0164568
793.206	0.0164808
793.284	0.0163762
793.362	0.0164326
793.440	0.0164596
793.518	0.0163548
793.596	0.0163659
793.674	0.0164150
793.753	0.0164685
793.831	0.0163966
793.909	0.0163228
793.987	0.0162061
794.065	0.0163996
794.143	0.0165093
794.221	0.0164394
794.299	0.0164341
794.378	0.0163872
794.456	0.0163834
794.534	0.0164385
794.612	0.0164439
794.690	0.0164854
794.768	0.0165440
794.846	0.0165674
794.924	0.0164817
795.003	0.0165128
795.081	0.0164015
795.159	0.0162861
795.237	0.0163976
795.315	0.0164931
795.393	0.0164892
795.471	0.0165818
795.549	0.0165885
795.628	0.0164759
795.706	0.0165323
795.784	0.0165289
795.862	0.0164248
795.940	0.0165897
796.018	0.0165533
796.096	0.0165368
796.174	0.0164526
796.253	0.0166521
796.331	0.0166050
796.409	0.0165765
796.487	0.0164962
796.565	0.0166603
796.643	0.0166263
796.721	0.0166462
796.799	0.0165111
796.878	0.0165307
796.956	0.0165822
797.034	0.0164935
797.112	0.0164878
797.190	0.0164214
797.268	0.0165543
797.346	0.0166476
797.424	0.0165258
797.503	0.0165858
797.581	0.0164731
797.659	0.0164900
797.737	0.0164268
797.815	0.0165136
797.893	0.0165318
797.971	0.0165140
798.049	0.0164958
798.128	0.0164720
798.206	0.0164379
798.284	0.0164204
798.362	0.0163832
798.440	0.0165228
798.518	0.0164346
798.596	0.0164126
798.674	0.0163404
798.753	0.0163570
798.831	0.0163907
798.909	0.0164345
798.987	0.0163367
799.065	0.0164244
799.143	0.0164931
799.221	0.0164296
799.299	0.0164021
799.378	0.0163268
799.456	0.0162075
799.534	0.0163270
799.612	0.0163602
799.690	0.0162937
799.768	0.0162594
799.846	0.0162597
799.924	0.0162278
800.003	0.0163018
800.081	0.0162231
800.159	0.0163081
800.237	0.0162648
800.315	0.0163603
800.393	0.0163715
800.471	0.0163158
800.549	0.0162326
800.628	0.0162647
800.706	0.0161349
800.784	0.0162013
800.862	0.0162597
800.940	0.0163203
801.018	0.0163451
801.096	0.0163499
801.174	0.0162886
801.253	0.0163577
801.331	0.0163199
801.409	0.0161604
801.487	0.0165174
801.565	0.0165428
801.643	0.0164213
801.721	0.0164594
801.799	0.0164635
801.878	0.0164151
801.956	0.0164893
802.034	0.0165960
802.112	0.0164589
802.190	0.0164455
802.268	0.0165760
802.346	0.0164053
802.424	0.0165459
802.503	0.0165679
802.581	0.0165900
802.659	0.0166535
802.737	0.0165977
802.815	0.0164728
802.893	0.0163023
802.971	0.0166444
803.049	0.0166166
803.128	0.0165298
803.206	0.0165828
803.284	0.0165914
803.362	0.0165911
803.440	0.0166201
803.518	0.0166552
803.596	0.0165431
803.674	0.0164513
803.753	0.0163395
803.831	0.0164944
803.909	0.0165948
803.987	0.0165135
804.065	0.0165253
804.143	0.0164666
804.221	0.0163992
804.299	0.0164961
804.378	0.0165885
804.456	0.0164741
804.534	0.0165788
804.612	0.0164693
804.690	0.0164526
804.768	0.0165530
804.846	0.0165382
804.924	0.0164942
805.003	0.0164342
805.081	0.0163876
805.159	0.0164137
805.237	0.0165603
805.315	0.0165282
805.393	0.0164014
805.471	0.0165971
805.549	0.0166319
805.628	0.0165452
805.706	0.0165106
805.784	0.0165561
805.862	0.0165858
805.940	0.0164456
806.018	0.0164178
806.096	0.0165617
806.174	0.0165237
806.253	0.0164661
806.331	0.0164162
806.409	0.0163879
806.487	0.0165012
806.565	0.0165685
806.643	0.0164685
806.721	0.0163806
806.799	0.0164479
806.878	0.0164709
806.956	0.0164041
807.034	0.0163949
807.112	0.0164861
807.190	0.0164516
807.268	0.0165292
807.346	0.0163637
807.424	0.0163105
807.503	0.0163292
807.581	0.0164530
807.659	0.0164685
807.737	0.0163692
807.815	0.0164006
807.893	0.0164566
807.971	0.0165364
808.049	0.0163614
808.128	0.0164368
808.206	0.0164832
808.284	0.0164256
808.362	0.0164359
808.440	0.0164812
808.518	0.0164116
808.596	0.0165383
808.674	0.0164187
808.753	0.0165536
808.831	0.0164981
808.909	0.0164426
808.987	0.0165960
809.065	0.0165733
809.143	0.0167189
809.221	0.0164872
809.299	0.0166435
809.378	0.0166398
809.456	0.0164749
809.534	0.0165076
809.612	0.0166626
809.690	0.0165112
809.768	0.0164984
809.846	0.0163351
809.924	0.0165867
810.003	0.0165017
810.081	0.0165396
810.159	0.0164596
810.237	0.0165285
810.315	0.0166132
810.393	0.0165598
810.471	0.0164688
810.549	0.0165437
810.628	0.0165634
810.706	0.0165752
810.784	0.0164989
810.862	0.0165621
810.940	0.0167627
811.018	0.0164928
811.096	0.0164268
811.174	0.0165012
811.253	0.0165185
811.331	0.0165371
811.409	0.0166567
811.487	0.0165125
811.565	0.0165446
811.643	0.0164732
811.721	0.0165231
811.799	0.0165524
811.878	0.0166223
811.956	0.0165540
812.034	0.0164928
812.112	0.0166438
812.190	0.0164775
812.268	0.0164568
812.346	0.0166715
812.424	0.0166608
812.503	0.0165323
812.581	0.0165071
812.659	0.0165881
812.737	0.0165840
812.815	0.0165982
812.893	0.0167341
812.971	0.0166113
813.049	0.0165115
813.128	0.0165292
813.206	0.0164628
813.284	0.0165995
813.362	0.0164624
813.440	0.0165363
813.518	0.0165557
813.596	0.0166185
813.674	0.0166623
813.753	0.0164983
813.831	0.0165427
813.909	0.0165651
813.987	0.0165495
814.065	0.0166174
814.143	0.0165344
814.221	0.0165617
814.299	0.0164842
814.378	0.0164005
814.456	0.0163757
814.534	0.0164428
814.612	0.0164388
814.690	0.0165625
814.768	0.0164899
814.846	0.0165133
814.924	0.0163384
815.003	0.0166570
815.081	0.0166160
815.159	0.0164179
815.237	0.0165083
815.315	0.0165101
815.393	0.0164886
815.471	0.0165344
815.549	0.0164976
815.628	0.0165665
815.706	0.0164171
815.784	0.0164803
815.862	0.0164871
815.940	0.0165134
816.018	0.0163531
816.096	0.0164442
816.174	0.0165728
816.253	0.0165754
816.331	0.0165488
816.409	0.0165087
816.487	0.0164569
816.565	0.0165273
816.643	0.0165481
816.721	0.0165701
816.799	0.0165262
816.878	0.0164948
816.956	0.0164705
817.034	0.0164812
817.112	0.0165420
817.190	0.0164867
817.268	0.0164912
817.346	0.0165576
817.424	0.0166078
817.503	0.0166571
817.581	0.0164819
817.659	0.0164287
817.737	0.0164281
817.815	0.0165330
817.893	0.0165751
817.971	0.0165366
818.049	0.0164274
818.128	0.0164520
818.206	0.0164724
818.284	0.0163526
818.362	0.0165713
818.440	0.0166241
818.518	0.0165738
818.596	0.0165283
818.674	0.0165224
818.753	0.0163853
818.831	0.0167175
818.909	0.0165819
818.987	0.0165726
819.065	0.0166606
819.143	0.0166609
819.221	0.0165509
819.299	0.0165660
819.378	0.0166380
819.456	0.0165546
819.534	0.0166736
819.612	0.0167576
819.690	0.0166109
819.768	0.0165733
819.846	0.0166563
819.924	0.0167046
820.003	0.0166357
820.081	0.0166258
820.159	0.0165337
820.237	0.0164678
820.315	0.0166127
820.393	0.0166313
820.471	0.0166013
820.549	0.0166226
820.628	0.0165726
820.706	0.0166209
820.784	0.0168098
820.862	0.0166389
820.940	0.0165648
821.018	0.0165853
821.096	0.0164888
821.174	0.0165971
821.253	0.0166443
821.331	0.0165758
821.409	0.0164828
821.487	0.0164032
821.565	0.0165371
821.643	0.0164631
821.721	0.0164667
821.799	0.0164360
821.878	0.0163925
821.956	0.0165460
822.034	0.0164066
822.112	0.0164655
822.190	0.0164644
822.268	0.0164107
822.346	0.0165565
822.424	0.0164347
822.503	0.0164238
822.581	0.0165133
822.659	0.0164023
822.737	0.0163426
822.815	0.0163094
822.893	0.0164804
822.971	0.0163280
823.049	0.0163587
823.128	0.0163700
823.206	0.0163650
823.284	0.0163893
823.362	0.0163658
823.440	0.0164939
823.518	0.0164185
823.596	0.0162080
823.674	0.0164349
823.753	0.0164303
823.831	0.0163537
823.909	0.0165053
823.987	0.0163042
824.065	0.0164602
824.143	0.0164023
824.221	0.0163424
824.299	0.0164447
824.378	0.0163000
824.456	0.0163791
824.534	0.0162372
824.612	0.0163562
824.690	0.0163576
824.768	0.0163387
824.846	0.0163335
824.924	0.0162575
825.003	0.0162399
825.081	0.0163117
825.159	0.0163386
825.237	0.0164531
825.315	0.0163876
825.393	0.0164120
825.471	0.0163908
825.549	0.0164272
825.628	0.0164551
825.706	0.0163384
825.784	0.0163246
825.862	0.0164967
825.940	0.0163394
826.018	0.0163064
826.096	0.0165119
826.174	0.0163414
826.253	0.0162878
826.331	0.0163681
826.409	0.0164288
826.487	0.0163927
826.565	0.0162923
826.643	0.0163581
826.721	0.0164733
826.799	0.0165593
826.878	0.0163937
826.956	0.0163805
827.034	0.0163192
827.112	0.0163238
827.190	0.0164552
827.268	0.0164013
827.346	0.0163982
827.424	0.0163140
827.503	0.0163528
827.581	0.0163852
827.659	0.0164495
827.737	0.0163287
827.815	0.0162328
827.893	0.0164056
827.971	0.0163142
828.049	0.0162479
828.128	0.0164154
828.206	0.0163235
828.284	0.0163503
828.362	0.0164400
828.440	0.0164648
828.518	0.0162213
828.596	0.0163159
828.674	0.0162335
828.753	0.0163755
828.831	0.0163458
828.909	0.0163063
828.987	0.0162370
829.065	0.0162605
829.143	0.0164427
829.221	0.0163567
829.299	0.0163132
829.378	0.0162717
829.456	0.0162134
829.534	0.0161451
829.612	0.0161579
829.690	0.0161637
829.768	0.0163491
829.846	0.0163194
829.924	0.0163659
830.003	0.0163007
830.081	0.0163596
830.159	0.0162241
830.237	0.0162331
830.315	0.0163458
830.393	0.0163410
830.471	0.0163658
830.549	0.0164062
830.628	0.0162556
830.706	0.0162899
830.784	0.0163599
830.862	0.0163890
830.940	0.0165221
831.018	0.0164017
831.096	0.0163012
831.174	0.0162721
831.253	0.0163303
831.331	0.0163177
831.409	0.0163624
831.487	0.0163679
831.565	0.0164575
831.643	0.0163504
831.721	0.0164323
831.799	0.0165479
831.878	0.0165465
831.956	0.0163974
832.034	0.0164130
832.112	0.0162712
832.190	0.0165372
832.268	0.0164464
832.346	0.0163731
832.424	0.0164622
832.503	0.0164600
832.581	0.0164250
832.659	0.0164462
832.737	0.0164922
832.815	0.0165202
832.893	0.0165010
832.971	0.0166460
833.049	0.0164561
833.128	0.0165359
833.206	0.0165220
833.284	0.0165477
833.362	0.0164719
833.440	0.0166325
833.518	0.0166850
833.596	0.0165604
833.674	0.0166084
833.753	0.0167043
833.831	0.0167016
833.909	0.0168041
833.987	0.0166129
834.065	0.0165376
834.143	0.0165752
834.221	0.0167600
834.299	0.0166706
834.378	0.0166647
834.456	0.0165819
834.534	0.0166976
834.612	0.0165701
834.690	0.0165139
834.768	0.0165141
834.846	0.0164904
834.924	0.0165609
835.003	0.0165833
835.081	0.0166351
835.159	0.0165169
835.237	0.0165726
835.315	0.0166824
835.393	0.0166356
835.471	0.0165249
835.549	0.0165508
835.628	0.0164938
835.706	0.0164438
835.784	0.0165490
835.862	0.0164237
835.940	0.0164169
836.018	0.0164451
836.096	0.0165664
836.174	0.0163216
836.253	0.0163561
836.331	0.0165048
836.409	0.0163933
836.487	0.0164021
836.565	0.0165482
836.643	0.0164167
836.721	0.0163744
836.799	0.0165952
836.878	0.0164554
836.956	0.0164309
837.034	0.0164000
837.112	0.0165224
837.190	0.0165974
837.268	0.0165035
837.346	0.0165299
837.424	0.0165121
837.503	0.0164209
837.581	0.0164935
837.659	0.0165801
837.737	0.0164321
837.815	0.0164180
837.893	0.0164597
837.971	0.0165696
838.049	0.0164942
838.128	0.0163802
838.206	0.0164784
838.284	0.0164602
838.362	0.0164264
838.440	0.0163562
838.518	0.0164496
838.596	0.0165423
838.674	0.0163625
838.753	0.0166099
838.831	0.0165120
838.909	0.0165288
838.987	0.0164815
839.065	0.0164724
839.143	0.0164967
839.221	0.0165634
839.299	0.0164523
839.378	0.0165837
839.456	0.0166265
839.534	0.0164548
839.612	0.0164019
839.690	0.0164870
839.768	0.0165102
839.846	0.0165343
839.924	0.0164953
840.003	0.0166876
840.081	0.0166135
840.159	0.0165852
840.237	0.0164739
840.315	0.0165354
840.393	0.0166210
840.471	0.0166451
840.549	0.0165865
840.628	0.0167319
840.706	0.0165433
840.784	0.0166364
840.862	0.0165466
840.940	0.0165543
841.018	0.0165510
841.096	0.0166797
841.174	0.0165907
841.253	0.0165013
841.331	0.0166556
841.409	0.0165967
841.487	0.0165346
841.565	0.0166297
841.643	0.0166312
841.721	0.0164178
841.799	0.0164894
841.878	0.0164504
841.956	0.0165196
842.034	0.0165223
842.112	0.0166228
842.190	0.0165977
842.268	0.0165637
842.346	0.0165300
842.424	0.0162766
842.503	0.0165869
842.581	0.0165729
842.659	0.0165159
842.737	0.0164688
842.815	0.0164751
842.893	0.0164803
842.971	0.0164828
843.049	0.0164683
843.128	0.0164418
843.206	0.0163204
843.284	0.0166216
843.362	0.0164455
843.440	0.0163775
843.518	0.0164649
843.596	0.0164496
843.674	0.0165307
843.753	0.0165475
843.831	0.0165279
843.909	0.0164570
843.987	0.0165135
844.065	0.0166145
844.143	0.0165268
844.221	0.0163771
844.299	0.0164912
844.378	0.0165064
844.456	0.0164654
844.534	0.0164676
844.612	0.0164449
844.690	0.0163985
844.768	0.0164029
844.846	0.0162959
844.924	0.0164392
845.003	0.0163444
845.081	0.0163580
845.159	0.0163251
845.237	0.0163080
845.315	0.0163734
845.393	0.0163048
845.471	0.0162875
845.549	0.0163474
845.628	0.0163007
845.706	0.0163763
845.784	0.0164191
845.862	0.0164256
845.940	0.0162880
846.018	0.0162791
846.096	0.0164435
846.174	0.0163806
846.253	0.0163543
846.331	0.0161586
846.409	0.0163987
846.487	0.0164028
846.565	0.0163208
846.643	0.0163853
846.721	0.0164034
846.799	0.0164433
846.878	0.0163863
846.956	0.0164740
847.034	0.0163696
847.112	0.0163353
847.190	0.0164060
847.268	0.0165214
847.346	0.0163424
847.424	0.0163854
847.503	0.0164633
847.581	0.0164693
847.659	0.0164259
847.737	0.0164922
847.815	0.0165189
847.893	0.0164680
847.971	0.0165193
848.049	0.0165514
848.128	0.0164670
848.206	0.0163828
848.284	0.0164260
848.362	0.0165765
848.440	0.0164435
848.518	0.0164378
848.596	0.0165997
848.674	0.0164041
848.753	0.0165392
848.831	0.0164667
848.909	0.0165252
848.987	0.0164691
849.065	0.0164765
849.143	0.0163637
849.221	0.0164506
849.299	0.0163271
849.378	0.0166088
849.456	0.0164167
849.534	0.0163719
849.612	0.0164219
849.690	0.0164957
849.768	0.0163889
849.846	0.0163255
849.924	0.0164661
850.003	0.0163823
850.081	0.0162547
850.159	0.0164108
850.237	0.0163306
850.315	0.0163647
850.393	0.0163610
850.471	0.0163257
850.549	0.0163342
850.628	0.0164285
850.706	0.0165429
850.784	0.0163604
850.862	0.0162617
850.940	0.0161997
851.018	0.0164390
851.096	0.0164462
851.174	0.0164100
851.253	0.0164035
851.331	0.0164294
851.409	0.0163509
851.487	0.0163225
851.565	0.0162793
851.643	0.0163477
851.721	0.0164710
851.799	0.0164278
851.878	0.0162879
851.956	0.0163292
852.034	0.0164239
852.112	0.0162335
852.190	0.0164357
852.268	0.0162778
852.346	0.0163443
852.424	0.0164339
852.503	0.0163914
852.581	0.0165479
852.659	0.0163306
852.737	0.0162458
852.815	0.0163080
852.893	0.0164857
852.971	0.0163650
853.049	0.0163808
853.128	0.0163139
853.206	0.0164450
853.284	0.0163675
853.362	0.0163139
853.440	0.0163145
853.518	0.0164066
853.596	0.0163474
853.674	0.0164464
853.753	0.0163343
853.831	0.0163824
853.909	0.0163051
853.987	0.0164588
854.065	0.0164162
854.143	0.0163013
854.221	0.0162942
854.299	0.0163460
854.378	0.0163031
854.456	0.0164043
854.534	0.0163145
854.612	0.0162381
854.690	0.0163125
854.768	0.0164770
854.846	0.0163690
854.924	0.0163181
855.003	0.0162715
855.081	0.0162598
855.159	0.0163224
855.237	0.0163828
855.315	0.0164168
855.393	0.0165260
855.471	0.0164786
855.549	0.0164368
855.628	0.0164846
855.706	0.0164677
855.784	0.0164603
855.862	0.0164507
855.940	0.0165414
856.018	0.0164801
856.096	0.0163296
856.174	0.0164848
856.253	0.0164410
856.331	0.0163644
856.409	0.0163602
856.487	0.0163958
856.565	0.0164352
856.643	0.0164735
856.721	0.0164434
856.799	0.0165494
856.878	0.0165131
856.956	0.0164318
857.034	0.0164295
857.112	0.0164269
857.190	0.0163844
857.268	0.0165667
857.346	0.0165487
857.424	0.0165582
857.503	0.0164750
857.581	0.0164935
857.659	0.0164896
857.737	0.0164165
857.815	0.0165976
857.893	0.0165495
857.971	0.0165689
858.049	0.0165226
858.128	0.0165485
858.206	0.0164886
858.284	0.0165901
858.362	0.0166897
858.440	0.0165167
858.518	0.0165267
858.596	0.0166807
858.674	0.0165348
858.753	0.0166325
858.831	0.0166622
858.909	0.0165025
858.987	0.0165662
859.065	0.0165825
859.143	0.0166252
859.221	0.0165561
859.299	0.0165433
859.378	0.0165663
859.456	0.0165601
859.534	0.0165990
859.612	0.0165533
859.690	0.0164537
859.768	0.0165480
859.846	0.0165576
859.924	0.0164194
860.003	0.0163990
860.081	0.0165309
860.159	0.0164558
860.237	0.0164623
860.315	0.0163586
860.393	0.0164232
860.471	0.0164755
860.549	0.0164351
860.628	0.0164794
860.706	0.0164572
860.784	0.0163897
860.862	0.0163553
860.940	0.0163326
861.018	0.0164823
861.096	0.0164616
861.174	0.0164279
861.253	0.0164013
861.331	0.0164579
861.409	0.0163810
861.487	0.0163414
861.565	0.0165917
861.643	0.0164956
861.721	0.0165434
861.799	0.0163010
861.878	0.0165004
861.956	0.0165651
862.034	0.0164910
862.112	0.0164525
862.190	0.0165199
862.268	0.0164748
862.346	0.0164189
862.424	0.0164299
862.503	0.0162415
862.581	0.0165260
862.659	0.0165382
862.737	0.0164429
862.815	0.0164516
862.893	0.0164260
862.971	0.0164616
863.049	0.0165046
863.128	0.0163194
863.206	0.0163771
863.284	0.0165784
863.362	0.0165008
863.440	0.0165690
863.518	0.0165456
863.596	0.0165172
863.674	0.0165813
863.753	0.0165929
863.831	0.0164536
863.909	0.0165002
863.987	0.0165869
864.065	0.0165257
864.143	0.0165993
864.221	0.0165932
864.299	0.0164951
864.378	0.0165247
864.456	0.0164822
864.534	0.0165334
864.612	0.0165512
864.690	0.0166433
864.768	0.0165015
864.846	0.0164910
864.924	0.0164321
865.003	0.0165262
865.081	0.0165802
865.159	0.0164205
865.237	0.0165837
865.315	0.0164532
865.393	0.0165228
865.471	0.0166109
865.549	0.0165833
865.628	0.0163858
865.706	0.0164404
865.784	0.0164036
865.862	0.0164941
865.940	0.0164112
866.018	0.0165051
866.096	0.0164314
866.174	0.0163811
866.253	0.0164970
866.331	0.0164562
866.409	0.0164444
866.487	0.0164739
866.565	0.0165076
866.643	0.0165400
866.721	0.0166584
866.799	0.0164307
866.878	0.0165459
866.956	0.0165796
867.034	0.0165621
867.112	0.0165869
867.190	0.0165566
867.268	0.0164634
867.346	0.0164917
867.424	0.0164993
867.503	0.0165548
867.581	0.0164674
867.659	0.0165276
867.737	0.0165963
867.815	0.0164610
867.893	0.0165063
867.971	0.0164655
868.049	0.0163123
868.128	0.0164305
868.206	0.0164081
868.284	0.0163930
868.362	0.0162680
868.440	0.0164535
868.518	0.0163395
868.596	0.0164202
868.674	0.0164114
868.753	0.0162570
868.831	0.0163038
868.909	0.0163786
868.987	0.0163589
869.065	0.0163907
869.143	0.0162326
869.221	0.0163393
869.299	0.0162664
869.378	0.0163361
869.456	0.0164815
869.534	0.0163896
869.612	0.0163058
869.690	0.0164182
869.768	0.0163556
869.846	0.0164084
869.924	0.0163000
870.003	0.0163933
870.081	0.0164854
870.159	0.0164393
870.237	0.0163575
870.315	0.0164993
870.393	0.0164665
870.471	0.0164899
870.549	0.0164002
870.628	0.0163466
870.706	0.0165373
870.784	0.0165517
870.862	0.0165405
870.940	0.0164840
871.018	0.0164849
871.096	0.0165779
871.174	0.0163929
871.253	0.0163831
871.331	0.0164784
871.409	0.0163747
871.487	0.0165179
871.565	0.0165110
871.643	0.0164884
871.721	0.0164646
871.799	0.0165171
871.878	0.0165132
871.956	0.0164656
872.034	0.0163241
872.112	0.0164241
872.190	0.0164413
872.268	0.0164059
872.346	0.0163163
872.424	0.0163941
872.503	0.0163063
872.581	0.0163581
872.659	0.0163908
872.737	0.0162505
872.815	0.0164407
872.893	0.0164742
872.971	0.0162862
873.049	0.0163924
873.128	0.0163464
873.206	0.0164201
873.284	0.0163439
873.362	0.0162927
873.440	0.0163216
873.518	0.0164406
873.596	0.0164445
873.674	0.0163427
873.753	0.0163842
873.831	0.0163651
873.909	0.0163313
873.987	0.0163922
874.065	0.0164171
874.143	0.0164246
874.221	0.0163963
874.299	0.0162286
874.378	0.0165384
874.456	0.0166085
874.534	0.0164822
874.612	0.0164371
874.690	0.0164508
874.768	0.0164816
874.846	0.0164916
874.924	0.0165100
875.003	0.0165726
875.081	0.0165582
875.159	0.0165343
875.237	0.0165894
875.315	0.0165654
875.393	0.0165831
875.471	0.0164849
875.549	0.0166367
875.628	0.0166950
875.706	0.0165985
875.784	0.0165223
875.862	0.0166463
875.940	0.0165703
876.018	0.0165202
876.096	0.0165481
876.174	0.0165276
876.253	0.0165898
876.331	0.0165304
876.409	0.0165455
876.487	0.0164143
876.565	0.0165541
876.643	0.0163908
876.721	0.0164624
876.799	0.0165093
876.878	0.0164355
876.956	0.0165641
877.034	0.0164629
877.112	0.0164112
877.190	0.0164773
877.268	0.0164772
877.346	0.0165842
877.424	0.0164817
877.503	0.0165396
877.581	0.0165408
877.659	0.0163979
877.737	0.0164951
877.815	0.0165865
877.893	0.0165084
877.971	0.0165552
878.049	0.0165114
878.128	0.0165623
878.206	0.0164963
878.284	0.0166325
878.362	0.0167826
878.440	0.0165560
878.518	0.0165693
878.596	0.0165141
878.674	0.0165247
878.753	0.0165602
878.831	0.0164701
878.909	0.0164633
878.987	0.0167034
879.065	0.0164709
879.143	0.0165581
879.221	0.0165040
879.299	0.0164885
879.378	0.0164801
879.456	0.0165412
879.534	0.0165469
879.612	0.0165466
879.690	0.0165227
879.768	0.0165833
879.846	0.0165324
879.924	0.0165884
880.003	0.0165233
880.081	0.0166677
880.159	0.0164577
880.237	0.0164590
880.315	0.0167617
880.393	0.0165866
880.471	0.0164786
880.549	0.0164137
880.628	0.0164668
880.706	0.0165679
880.784	0.0165503
880.862	0.0165695
880.940	0.0164750
881.018	0.0166394
881.096	0.0165593
881.174	0.0165936
881.253	0.0166276
881.331	0.0165485
881.409	0.0164535
881.487	0.0166748
881.565	0.0165008
881.643	0.0166094
881.721	0.0166615
881.799	0.0164674
881.878	0.0164863
881.956	0.0165681
882.034	0.0165859
882.112	0.0164996
882.190	0.0164767
882.268	0.0164457
882.346	0.0165422
882.424	0.0165500
882.503	0.0164894
882.581	0.0163457
882.659	0.0161862
882.737	0.0164178
882.815	0.0164513
882.893	0.0163842
882.971	0.0165073
883.049	0.0163255
883.128	0.0163225
883.206	0.0164587
883.284	0.0163784
883.362	0.0163542
883.440	0.0163139
883.518	0.0164297
883.596	0.0164708
883.674	0.0164455
883.753	0.0164223
883.831	0.0163739
883.909	0.0162700
883.987	0.0166506
884.065	0.0164877
884.143	0.0163915
884.221	0.0164117
884.299	0.0164518
884.378	0.0164606
884.456	0.0164191
884.534	0.0166000
884.612	0.0165925
884.690	0.0165241
884.768	0.0165019
884.846	0.0165833
884.924	0.0165226
885.003	0.0164175
885.081	0.0165043
885.159	0.0164742
885.237	0.0164639
885.315	0.0164899
885.393	0.0165416
885.471	0.0164789
885.549	0.0164549
885.628	0.0166269
885.706	0.0164724
885.784	0.0163711
885.862	0.0163765
885.940	0.0165508
886.018	0.0164507
886.096	0.0164059
886.174	0.0164291
886.253	0.0163233
886.331	0.0163500
886.409	0.0165746
886.487	0.0163927
886.565	0.0162741
886.643	0.0162488
886.721	0.0163799
886.799	0.0164774
886.878	0.0165298
886.956	0.0163742
887.034	0.0164832
887.112	0.0165302
887.190	0.0163618
887.268	0.0163284
887.346	0.0166166
887.424	0.0165637
887.503	0.0164722
887.581	0.0165486
887.659	0.0163885
887.737	0.0163229
887.815	0.0162904
887.893	0.0164024
887.971	0.0163640
888.049	0.0164330
888.128	0.0165045
888.206	0.0164001
888.284	0.0163912
888.362	0.0164695
888.440	0.0165053
888.518	0.0163849
888.596	0.0163244
888.674	0.0164458
888.753	0.0164368
888.831	0.0163484
888.909	0.0163077
888.987	0.0164455
889.065	0.0164098
889.143	0.0165667
889.221	0.0164679
889.299	0.0165674
889.378	0.0166248
889.456	0.0165393
889.534	0.0163725
889.612	0.0163472
889.690	0.0165996
889.768	0.0164997
889.846	0.0165672
889.924	0.0166164
890.003	0.0164294
890.081	0.0165917
890.159	0.0164538
890.237	0.0164088
890.315	0.0166211
890.393	0.0164302
890.471	0.0166281
890.549	0.0164582
890.628	0.0164836
890.706	0.0165092
890.784	0.0165892
890.862	0.0165696
890.940	0.0164799
891.018	0.0164201
891.096	0.0165601
891.174	0.0166637
891.253	0.0164901
891.331	0.0164878
891.409	0.0165209
891.487	0.0165856
891.565	0.0165703
891.643	0.0166075
891.721	0.0164785
891.799	0.0165939
891.878	0.0167007
891.956	0.0166653
892.034	0.0165743
892.112	0.0165414
892.190	0.0165596
892.268	0.0166526
892.346	0.0166106
892.424	0.0165562
892.503	0.0166135
892.581	0.0166036
892.659	0.0165871
892.737	0.0165340
892.815	0.0165481
892.893	0.0165611
892.971	0.0164726
893.049	0.0164948
893.128	0.0166421
893.206	0.0164472
893.284	0.0163274
893.362	0.0164269
893.440	0.0164837
893.518	0.0164854
893.596	0.0165230
893.674	0.0164501
893.753	0.0164806
893.831	0.0163830
893.909	0.0164922
893.987	0.0165681
894.065	0.0164536
894.143	0.0164722
894.221	0.0164473
894.299	0.0164859
894.378	0.0164478
894.456	0.0165611
894.534	0.0164082
894.612	0.0163453
894.690	0.0164809
894.768	0.0164921
894.846	0.0164586
894.924	0.0163972
895.003	0.0166072
895.081	0.0165858
895.159	0.0163738
895.237	0.0164241
895.315	0.0166279
895.393	0.0164173
895.471	0.0164684
895.549	0.0163898
895.628	0.0165430
895.706	0.0165569
895.784	0.0165039
895.862	0.0163417
895.940	0.0164655
896.018	0.0165427
896.096	0.0163779
896.174	0.0163692
896.253	0.0164907
896.331	0.0165334
896.409	0.0165009
896.487	0.0164690
896.565	0.0164329
896.643	0.0164801
896.721	0.0165643
896.799	0.0165353
896.878	0.0164156
896.956	0.0164684
897.034	0.0165063
897.112	0.0165166
897.190	0.0163442
897.268	0.0164418
897.346	0.0164948
897.424	0.0163728
897.503	0.0164223
897.581	0.0165854
897.659	0.0164632
897.737	0.0164760
897.815	0.0163772
897.893	0.0164811
897.971	0.0164632
898.049	0.0164266
898.128	0.0164259
898.206	0.0165727
898.284	0.0164710
898.362	0.0165562
898.440	0.0165676
898.518	0.0164551
898.596	0.0166061
898.674	0.0165430
898.753	0.0164254
898.831	0.0166560
898.909	0.0165958
898.987	0.0165456
899.065	0.0166343
899.143	0.0166107
899.221	0.0166163
899.299	0.0165515
899.378	0.0166740
899.456	0.0168307
899.534	0.0165940
899.612	0.0165897
899.690	0.0167142
899.768	0.0168541
899.846	0.0165110
899.924	0.0166679
900.003	0.0165100
900.081	0.0164258
900.159	0.0166296
900.237	0.0167178
900.315	0.0165691
900.393	0.0165034
900.471	0.0165149
900.549	0.0165372
900.628	0.0164805
900.706	0.0165810
900.784	0.0165567
900.862	0.0165826
900.940	0.0165878
901.018	0.0165222
901.096	0.0164828
901.174	0.0164517
901.253	0.0164210
901.331	0.0164355
901.409	0.0164234
901.487	0.0164588
901.565	0.0164999
901.643	0.0165150
901.721	0.0164827
901.799	0.0164721
901.878	0.0164910
901.956	0.0165241
902.034	0.0165041
902.112	0.0163439
902.190	0.0165160
902.268	0.0164104
902.346	0.0165077
902.424	0.0165296
902.503	0.0164094
902.581	0.0164832
902.659	0.0163597
902.737	0.0162900
902.815	0.0163775
902.893	0.0163982
902.971	0.0164618
903.049	0.0164262
903.128	0.0163499
903.206	0.0162344
903.284	0.0164148
903.362	0.0164816
903.440	0.0164963
903.518	0.0163827
903.596	0.0165108
903.674	0.0163570
903.753	0.0163669
903.831	0.0164552
903.909	0.0164893
903.987	0.0163744
904.065	0.0164210
904.143	0.0165046
904.221	0.0162425
904.299	0.0164221
904.378	0.0164459
904.456	0.0163114
904.534	0.0163173
904.612	0.0163808
904.690	0.0165593
904.768	0.0164321
904.846	0.0165246
904.924	0.0163992
905.003	0.0163923
905.081	0.0164411
905.159	0.0163408
905.237	0.0164296
905.315	0.0164440
905.393	0.0164178
905.471	0.0163642
905.549	0.0163715
905.628	0.0164792
905.706	0.0164313
905.784	0.0164803
905.862	0.0164788
905.940	0.0163937
906.018	0.0164886
906.096	0.0165114
906.174	0.0165470
906.253	0.0165804
906.331	0.0166100
906.409	0.0163981
906.487	0.0166134
906.565	0.0164941
906.643	0.0164948
906.721	0.0163866
906.799	0.0164177
906.878	0.0164457
906.956	0.0164739
907.034	0.0164976
907.112	0.0165385
907.190	0.0165197
907.268	0.0164779
907.346	0.0165620
907.424	0.0167102
907.503	0.0165193
907.581	0.0165608
907.659	0.0166066
907.737	0.0166786
907.815	0.0165854
907.893	0.0166414
907.971	0.0165917
908.049	0.0165051
908.128	0.0165964
908.206	0.0165842
908.284	0.0166185
908.362	0.0165774
908.440	0.0164367
908.518	0.0163341
908.596	0.0164906
908.674	0.0162831
908.753	0.0164749
908.831	0.0164720
908.909	0.0163189
908.987	0.0163936
909.065	0.0164159
909.143	0.0164516
909.221	0.0163977
909.299	0.0165001
909.378	0.0164534
909.456	0.0163718
909.534	0.0165125
909.612	0.0164549
909.690	0.0163884
909.768	0.0165642
909.846	0.0165405
909.924	0.0164973
910.003	0.0163236
910.081	0.0162754
910.159	0.0163772
910.237	0.0163620
910.315	0.0164804
910.393	0.0164354
910.471	0.0164263
910.549	0.0163969
910.628	0.0164702
910.706	0.0163824
910.784	0.0165052
910.862	0.0162711
910.940	0.0165010
911.018	0.0165096
911.096	0.0164921
911.174	0.0165231
911.253	0.0164030
911.331	0.0164951
911.409	0.0163725
911.487	0.0164849
911.565	0.0164583
911.643	0.0165280
911.721	0.0164890
911.799	0.0163958
911.878	0.0165437
911.956	0.0165504
912.034	0.0164029
912.112	0.0166010
912.190	0.0164600
912.268	0.0165010
912.346	0.0164946
912.424	0.0165079
912.503	0.0164674
912.581	0.0163885
912.659	0.0164995
912.737	0.0165757
912.815	0.0166280
912.893	0.0166754
912.971	0.0164816
913.049	0.0165380
913.128	0.0165015
913.206	0.0165860
913.284	0.0166114
913.362	0.0165727
913.440	0.0164725
913.518	0.0164986
913.596	0.0165387
913.674	0.0165002
913.753	0.0165469
913.831	0.0165453
913.909	0.0165585
913.987	0.0163681
914.065	0.0166007
914.143	0.0164766
914.221	0.0164028
914.299	0.0164964
914.378	0.0166123
914.456	0.0164116
914.534	0.0164676
914.612	0.0163651
914.690	0.0164447
914.768	0.0164016
914.846	0.0163438
914.924	0.0164303
915.003	0.0166394
915.081	0.0165419
915.159	0.0163367
915.237	0.0164698
915.315	0.0163959
915.393	0.0164226
915.471	0.0163541
915.549	0.0163240
915.628	0.0164133
915.706	0.0163645
915.784	0.0165185
915.862	0.0164608
915.940	0.0164594
916.018	0.0164654
916.096	0.0163493
916.174	0.0163599
916.253	0.0163575
916.331	0.0163866
916.409	0.0163235
916.487	0.0163479
916.565	0.0162683
916.643	0.0163647
916.721	0.0163486
916.799	0.0163908
916.878	0.0163052
916.956	0.0163459
917.034	0.0163090
917.112	0.0164201
917.190	0.0164301
917.268	0.0164592
917.346	0.0162917
917.424	0.0163630
917.503	0.0162751
917.581	0.0163432
917.659	0.0163418
917.737	0.0164266
917.815	0.0163441
917.893	0.0163264
917.971	0.0163434
918.049	0.0163897
918.128	0.0163877
918.206	0.0163618
918.284	0.0163567
918.362	0.0163566
918.440	0.0164185
918.518	0.0164464
918.596	0.0163940
918.674	0.0163091
918.753	0.0163183
918.831	0.0162029
918.909	0.0163835
918.987	0.0163532
919.065	0.0163271
919.143	0.0164703
919.221	0.0164031
919.299	0.0164376
919.378	0.0163471
919.456	0.0163911
919.534	0.0163429
919.612	0.0164761
919.690	0.0164452
919.768	0.0165540
919.846	0.0165308
919.924	0.0163147
920.003	0.0163940
920.081	0.0164552
920.159	0.0164957
920.237	0.0163828
920.315	0.0165105
920.393	0.0166315
920.471	0.0165407
920.549	0.0165303
920.628	0.0164618
920.706	0.0164916
920.784	0.0164701
920.862	0.0164132
920.940	0.0165746
921.018	0.0165865
921.096	0.0164451
921.174	0.0165118
921.253	0.0165679
921.331	0.0166948
921.409	0.0166092
921.487	0.0164354
921.565	0.0165138
921.643	0.0165347
921.721	0.0164115
921.799	0.0165559
921.878	0.0166171
921.956	0.0165032
922.034	0.0164031
922.112	0.0164468
922.190	0.0164861
922.268	0.0165005
922.346	0.0166037
922.424	0.0164473
922.503	0.0163893
922.581	0.0164503
922.659	0.0164677
922.737	0.0162905
922.815	0.0163242
922.893	0.0164455
922.971	0.0164130
923.049	0.0162926
923.128	0.0163050
923.206	0.0164789
923.284	0.0164276
923.362	0.0162703
923.440	0.0163295
923.518	0.0164925
923.596	0.0163926
923.674	0.0165234
923.753	0.0164198
923.831	0.0164540
923.909	0.0164085
923.987	0.0163967
924.065	0.0164080
924.143	0.0163972
924.221	0.0164073
924.299	0.0164738
924.378	0.0166611
924.456	0.0165015
924.534	0.0163816
924.612	0.0163628
924.690	0.0164535
924.768	0.0163084
924.846	0.0165308
924.924	0.0165532
925.003	0.0163355
925.081	0.0163610
925.159	0.0164287
925.237	0.0163985
925.315	0.0166292
925.393	0.0165139
925.471	0.0164803
925.549	0.0165155
925.628	0.0165516
925.706	0.0165722
925.784	0.0165519
925.862	0.0165485
925.940	0.0164836
926.018	0.0164802
926.096	0.0164304
926.174	0.0164394
926.253	0.0165856
926.331	0.0166486
926.409	0.0164867
926.487	0.0165157
926.565	0.0164467
926.643	0.0164935
926.721	0.0164359
926.799	0.0165353
926.878	0.0165072
926.956	0.0165031
927.034	0.0164952
927.112	0.0165755
927.190	0.0164451
927.268	0.0164243
927.346	0.0164584
927.424	0.0164043
927.503	0.0163291
927.581	0.0163942
927.659	0.0164285
927.737	0.0162812
927.815	0.0163906
927.893	0.0164753
927.971	0.0164320
928.049	0.0162616
928.128	0.0163110
928.206	0.0164928
928.284	0.0164671
928.362	0.0163853
928.440	0.0164882
928.518	0.0163838
928.596	0.0165002
928.674	0.0164304
928.753	0.0164167
928.831	0.0164329
928.909	0.0164185
928.987	0.0165208
929.065	0.0164165
929.143	0.0164016
929.221	0.0163583
929.299	0.0164148
929.378	0.0164034
929.456	0.0163750
929.534	0.0164793
929.612	0.0165136
929.690	0.0164100
929.768	0.0164710
929.846	0.0164516
929.924	0.0163657
930.003	0.0163775
930.081	0.0164847
930.159	0.0164790
930.237	0.0164684
930.315	0.0163793
930.393	0.0163831
930.471	0.0164173
930.549	0.0164407
930.628	0.0163493
930.706	0.0163575
930.784	0.0164544
930.862	0.0163909
930.940	0.0164522
931.018	0.0165104
931.096	0.0164555
931.174	0.0163991
931.253	0.0164635
931.331	0.0163937
931.409	0.0163980
931.487	0.0162881
931.565	0.0163374
931.643	0.0162996
931.721	0.0162888
931.799	0.0163158
931.878	0.0163702
931.956	0.0163681
932.034	0.0162855
932.112	0.0162969
932.190	0.0162569
932.268	0.0163538
932.346	0.0163568
932.424	0.0162369
932.503	0.0163251
932.581	0.0163278
932.659	0.0162743
932.737	0.0162692
932.815	0.0164687
932.893	0.0163126
932.971	0.0163204
933.049	0.0163262
933.128	0.0163859
933.206	0.0163652
933.284	0.0164230
933.362	0.0163852
933.440	0.0163494
933.518	0.0163757
933.596	0.0165759
933.674	0.0164819
933.753	0.0165307
933.831	0.0164102
933.909	0.0164431
933.987	0.0164148
934.065	0.0165350
934.143	0.0164424
934.221	0.0164964
934.299	0.0164989
934.378	0.0165160
934.456	0.0166463
934.534	0.0163930
934.612	0.0164137
934.690	0.0165239
934.768	0.0165329
934.846	0.0164342
934.924	0.0164233
935.003	0.0165154
935.081	0.0164819
935.159	0.0165794
935.237	0.0165108
935.315	0.0165318
935.393	0.0165470
935.471	0.0165005
935.549	0.0165064
935.628	0.0165572
935.706	0.0164429
935.784	0.0163777
935.862	0.0164534
935.940	0.0163949
936.018	0.0165001
936.096	0.0163863
936.174	0.0164304
936.253	0.0165292
936.331	0.0164810
936.409	0.0164381
936.487	0.0164471
936.565	0.0166299
936.643	0.0164948
936.721	0.0164682
936.799	0.0164295
936.878	0.0164625
936.956	0.0165361
937.034	0.0164323
937.112	0.0164511
937.190	0.0164566
937.268	0.0166010
937.346	0.0165027
937.424	0.0164178
937.503	0.0162896
937.581	0.0164232
937.659	0.0164450
937.737	0.0164005
937.815	0.0164182
937.893	0.0164503
937.971	0.0164864
938.049	0.0163860
938.128	0.0164172
938.206	0.0163453
938.284	0.0162307
938.362	0.0163456
938.440	0.0164494
938.518	0.0162640
938.596	0.0163123
938.674	0.0163254
938.753	0.0162435
938.831	0.0162338
938.909	0.0163898
938.987	0.0162042
939.065	0.0162539
939.143	0.0163629
939.221	0.0162609
939.299	0.0162495
939.378	0.0162761
939.456	0.0163689
939.534	0.0164007
939.612	0.0164194
939.690	0.0162530
939.768	0.0162891
939.846	0.0163556
939.924	0.0164773
940.003	0.0164553
940.081	0.0163686
940.159	0.0163928
940.237	0.0164216
940.315	0.0165176
940.393	0.0164208
940.471	0.0164040
940.549	0.0163096
940.628	0.0163548
940.706	0.0162310
940.784	0.0164471
940.862	0.0164167
940.940	0.0163717
941.018	0.0164495
941.096	0.0164321
941.174	0.0164491
941.253	0.0163525
941.331	0.0163702
941.409	0.0163678
941.487	0.0164550
941.565	0.0163071
941.643	0.0163622
941.721	0.0164779
941.799	0.0163204
941.878	0.0163007
941.956	0.0163971
942.034	0.0164109
942.112	0.0163371
942.190	0.0162075
942.268	0.0163330
942.346	0.0163750
942.424	0.0163713
942.503	0.0164153
942.581	0.0163248
942.659	0.0165004
942.737	0.0163701
942.815	0.0161797
942.893	0.0162369
942.971	0.0163333
943.049	0.0163519
943.128	0.0163515
943.206	0.0162925
943.284	0.0164064
943.362	0.0164400
943.440	0.0162254
943.518	0.0164179
943.596	0.0163620
943.674	0.0162896
943.753	0.0164342
943.831	0.0163758
943.909	0.0164207
943.987	0.0163875
944.065	0.0164040
944.143	0.0164088
944.221	0.0164063
944.299	0.0165244
944.378	0.0165112
944.456	0.0164184
944.534	0.0163622
944.612	0.0164959
944.690	0.0163456
944.768	0.0165048
944.846	0.0163198
944.924	0.0164335
945.003	0.0163746
945.081	0.0163850
945.159	0.0164228
945.237	0.0163926
945.315	0.0162953
945.393	0.0162616
945.471	0.0164256
945.549	0.0164297
945.628	0.0164032
945.706	0.0164264
945.784	0.0163985
945.862	0.0165189
945.940	0.0163993
946.018	0.0165057
946.096	0.0164661
946.174	0.0163198
946.253	0.0164377
946.331	0.0164178
946.409	0.0163873
946.487	0.0163833
946.565	0.0164396
946.643	0.0165400
946.721	0.0164684
946.799	0.0164176
946.878	0.0164157
946.956	0.0165831
947.034	0.0164311
947.112	0.0164973
947.190	0.0165822
947.268	0.0165495
947.346	0.0166235
947.424	0.0164565
947.503	0.0165091
947.581	0.0165904
947.659	0.0165669
947.737	0.0165167
947.815	0.0164889
947.893	0.0165820
947.971	0.0164755
948.049	0.0165638
948.128	0.0165579
948.206	0.0164140
948.284	0.0163778
948.362	0.0164417
948.440	0.0165288
948.518	0.0165170
948.596	0.0164780
948.674	0.0164124
948.753	0.0164727
948.831	0.0163885
948.909	0.0165297
948.987	0.0163915
949.065	0.0164159
949.143	0.0164601
949.221	0.0164588
949.299	0.0162436
949.378	0.0164465
949.456	0.0165855
949.534	0.0163269
949.612	0.0163715
949.690	0.0163515
949.768	0.0162921
949.846	0.0164145
949.924	0.0163830
