05/19/2022	00:58:04	Ver.	4.1	UNKNOWN
Optical Delay	630.002507	Delta X		0.078125	Sweeps	1	Scan Rate	0/0
Coordinates	Axis 1	NaN	Axis 2	NaN	Axis 3	NaN	Axis 4	NaN	Axis 5	NaN	Axis 6	0.000000
TX Power	0.000000	RX Power	0.000000

630.003	0.0165307
630.081	0.0166454
630.159	0.0164906
630.237	0.0165707
630.315	0.0164314
630.393	0.0166017
630.471	0.0164217
630.549	0.0164441
630.628	0.0165622
630.706	0.0165146
630.784	0.0164783
630.862	0.0165550
630.940	0.0164956
631.018	0.0166305
631.096	0.0165695
631.174	0.0165063
631.253	0.0164217
631.331	0.0165012
631.409	0.0164669
631.487	0.0165083
631.565	0.0165585
631.643	0.0167060
631.721	0.0164600
631.799	0.0164774
631.878	0.0166119
631.956	0.0165131
632.034	0.0164646
632.112	0.0163432
632.190	0.0165791
632.268	0.0165337
632.346	0.0164991
632.424	0.0165469
632.503	0.0165039
632.581	0.0165570
632.659	0.0165030
632.737	0.0164244
632.815	0.0165209
632.893	0.0166133
632.971	0.0166145
633.049	0.0165398
633.128	0.0163817
633.206	0.0165924
633.284	0.0165042
633.362	0.0166223
633.440	0.0165524
633.518	0.0165499
633.596	0.0164509
633.674	0.0165504
633.753	0.0164716
633.831	0.0164988
633.909	0.0164966
633.987	0.0164446
634.065	0.0163957
634.143	0.0166418
634.221	0.0164685
634.299	0.0164087
634.378	0.0164133
634.456	0.0163933
634.534	0.0165417
634.612	0.0165242
634.690	0.0163776
634.768	0.0164726
634.846	0.0164826
634.924	0.0163832
635.003	0.0165060
635.081	0.0164464
635.159	0.0165057
635.237	0.0164759
635.315	0.0164892
635.393	0.0165556
635.471	0.0165222
635.549	0.0164888
635.628	0.0164002
635.706	0.0164268
635.784	0.0165618
635.862	0.0164340
635.940	0.0165121
636.018	0.0165070
636.096	0.0165848
636.174	0.0164917
636.253	0.0165332
636.331	0.0164547
636.409	0.0164554
636.487	0.0164408
636.565	0.0164584
636.643	0.0166525
636.721	0.0164628
636.799	0.0164544
636.878	0.0165781
636.956	0.0165102
637.034	0.0164462
637.112	0.0165168
637.190	0.0165051
637.268	0.0164521
637.346	0.0166285
637.424	0.0165142
637.503	0.0164491
637.581	0.0165142
637.659	0.0165237
637.737	0.0165156
637.815	0.0164701
637.893	0.0164758
637.971	0.0164577
638.049	0.0165112
638.128	0.0165783
638.206	0.0164269
638.284	0.0164788
638.362	0.0164682
638.440	0.0164491
638.518	0.0163544
638.596	0.0165220
638.674	0.0164033
638.753	0.0165277
638.831	0.0164191
638.909	0.0165497
638.987	0.0164165
639.065	0.0163692
639.143	0.0165681
639.221	0.0165754
639.299	0.0163433
639.378	0.0164750
639.456	0.0165257
639.534	0.0164672
639.612	0.0164490
639.690	0.0163739
639.768	0.0164218
639.846	0.0166011
639.924	0.0164915
640.003	0.0163839
640.081	0.0163799
640.159	0.0165536
640.237	0.0165198
640.315	0.0165916
640.393	0.0165764
640.471	0.0164246
640.549	0.0165256
640.628	0.0165636
640.706	0.0164556
640.784	0.0164197
640.862	0.0165584
640.940	0.0166283
641.018	0.0164674
641.096	0.0164828
641.174	0.0165988
641.253	0.0163768
641.331	0.0163682
641.409	0.0164378
641.487	0.0165425
641.565	0.0163943
641.643	0.0165007
641.721	0.0163969
641.799	0.0164137
641.878	0.0164285
641.956	0.0163295
642.034	0.0163712
642.112	0.0165225
642.190	0.0165719
642.268	0.0165002
642.346	0.0164616
642.424	0.0165775
642.503	0.0165586
642.581	0.0166432
642.659	0.0167133
642.737	0.0166512
642.815	0.0164970
642.893	0.0165421
642.971	0.0165929
643.049	0.0166475
643.128	0.0166277
643.206	0.0166281
643.284	0.0166597
643.362	0.0164204
643.440	0.0166067
643.518	0.0164959
643.596	0.0165051
643.674	0.0165784
643.753	0.0164368
643.831	0.0165430
643.909	0.0165070
643.987	0.0165705
644.065	0.0165034
644.143	0.0163119
644.221	0.0163717
644.299	0.0164043
644.378	0.0164054
644.456	0.0164182
644.534	0.0164313
644.612	0.0164564
644.690	0.0162551
644.768	0.0163953
644.846	0.0163123
644.924	0.0162961
645.003	0.0163900
645.081	0.0165339
645.159	0.0162695
645.237	0.0163427
645.315	0.0163454
645.393	0.0163116
645.471	0.0164974
645.549	0.0163503
645.628	0.0164846
645.706	0.0163754
645.784	0.0164299
645.862	0.0164883
645.940	0.0165591
646.018	0.0164084
646.096	0.0165349
646.174	0.0165154
646.253	0.0165106
646.331	0.0165125
646.409	0.0166314
646.487	0.0166473
646.565	0.0167573
646.643	0.0166466
646.721	0.0166588
646.799	0.0166631
646.878	0.0166582
646.956	0.0166007
647.034	0.0166177
647.112	0.0166309
647.190	0.0165776
647.268	0.0167135
647.346	0.0166365
647.424	0.0164275
647.503	0.0164662
647.581	0.0165769
647.659	0.0166657
647.737	0.0166143
647.815	0.0164440
647.893	0.0164408
647.971	0.0164533
648.049	0.0164506
648.128	0.0165671
648.206	0.0163853
648.284	0.0165015
648.362	0.0164294
648.440	0.0165257
648.518	0.0166152
648.596	0.0163796
648.674	0.0163850
648.753	0.0164212
648.831	0.0165274
648.909	0.0165170
648.987	0.0164323
649.065	0.0165023
649.143	0.0163883
649.221	0.0163953
649.299	0.0163488
649.378	0.0163555
649.456	0.0162624
649.534	0.0163735
649.612	0.0164868
649.690	0.0163898
649.768	0.0163548
649.846	0.0163445
649.924	0.0163903
650.003	0.0163906
650.081	0.0163685
650.159	0.0165957
650.237	0.0164969
650.315	0.0164217
650.393	0.0165449
650.471	0.0166016
650.549	0.0165028
650.628	0.0165420
650.706	0.0165913
650.784	0.0164971
650.862	0.0166124
650.940	0.0165786
651.018	0.0166336
651.096	0.0166256
651.174	0.0165146
651.253	0.0165977
651.331	0.0166923
651.409	0.0166618
651.487	0.0167575
651.565	0.0166384
651.643	0.0167377
651.721	0.0167162
651.799	0.0167386
651.878	0.0166658
651.956	0.0166669
652.034	0.0165999
652.112	0.0166602
652.190	0.0166876
652.268	0.0166644
652.346	0.0165694
652.424	0.0164000
652.503	0.0165604
652.581	0.0165164
652.659	0.0164968
652.737	0.0164851
652.815	0.0164297
652.893	0.0164251
652.971	0.0165214
653.049	0.0163720
653.128	0.0163647
653.206	0.0163497
653.284	0.0163198
653.362	0.0162935
653.440	0.0164983
653.518	0.0164728
653.596	0.0163007
653.674	0.0163898
653.753	0.0164642
653.831	0.0165048
653.909	0.0163984
653.987	0.0165400
654.065	0.0164728
654.143	0.0164767
654.221	0.0165786
654.299	0.0165449
654.378	0.0166360
654.456	0.0165151
654.534	0.0166101
654.612	0.0164546
654.690	0.0165000
654.768	0.0165176
654.846	0.0165998
654.924	0.0165690
655.003	0.0166611
655.081	0.0165529
655.159	0.0165203
655.237	0.0165598
655.315	0.0163951
655.393	0.0164829
655.471	0.0167033
655.549	0.0166311
655.628	0.0164970
655.706	0.0166123
655.784	0.0165300
655.862	0.0166266
655.940	0.0165026
656.018	0.0164757
656.096	0.0165219
656.174	0.0164281
656.253	0.0165591
656.331	0.0163538
656.409	0.0164693
656.487	0.0164149
656.565	0.0164264
656.643	0.0164418
656.721	0.0164827
656.799	0.0164557
656.878	0.0164103
656.956	0.0164220
657.034	0.0165147
657.112	0.0164525
657.190	0.0164854
657.268	0.0163456
657.346	0.0163086
657.424	0.0164183
657.503	0.0163393
657.581	0.0162898
657.659	0.0163234
657.737	0.0162249
657.815	0.0164149
657.893	0.0164775
657.971	0.0165771
658.049	0.0164237
658.128	0.0164542
658.206	0.0166257
658.284	0.0165331
658.362	0.0164986
658.440	0.0165358
658.518	0.0166543
658.596	0.0166590
658.674	0.0166096
658.753	0.0166788
658.831	0.0168447
658.909	0.0167877
658.987	0.0167079
659.065	0.0167990
659.143	0.0168756
659.221	0.0167654
659.299	0.0167404
659.378	0.0167080
659.456	0.0166369
659.534	0.0167368
659.612	0.0166218
659.690	0.0166077
659.768	0.0165921
659.846	0.0167211
659.924	0.0166360
660.003	0.0164983
660.081	0.0163660
660.159	0.0164283
660.237	0.0164957
660.315	0.0163836
660.393	0.0163345
660.471	0.0164230
660.549	0.0163158
660.628	0.0162484
660.706	0.0163231
660.784	0.0162016
660.862	0.0162222
660.940	0.0162899
661.018	0.0161822
661.096	0.0163161
661.174	0.0160521
661.253	0.0163593
661.331	0.0164275
661.409	0.0163234
661.487	0.0164346
661.565	0.0164924
661.643	0.0164699
661.721	0.0164408
661.799	0.0165066
661.878	0.0164907
661.956	0.0164399
662.034	0.0165382
662.112	0.0164439
662.190	0.0165304
662.268	0.0165501
662.346	0.0165242
662.424	0.0165536
662.503	0.0165400
662.581	0.0166010
662.659	0.0166323
662.737	0.0166373
662.815	0.0165601
662.893	0.0165205
662.971	0.0165749
663.049	0.0164685
663.128	0.0165347
663.206	0.0165891
663.284	0.0166359
663.362	0.0165406
663.440	0.0165398
663.518	0.0166939
663.596	0.0165402
663.674	0.0164288
663.753	0.0165476
663.831	0.0165553
663.909	0.0165959
663.987	0.0165536
664.065	0.0164400
664.143	0.0163659
664.221	0.0164751
664.299	0.0164096
664.378	0.0164883
664.456	0.0165142
664.534	0.0165209
664.612	0.0164665
664.690	0.0163863
664.768	0.0165311
664.846	0.0166737
664.924	0.0164499
665.003	0.0162640
665.081	0.0164008
665.159	0.0165591
665.237	0.0164257
665.315	0.0164620
665.393	0.0164241
665.471	0.0163981
665.549	0.0163359
665.628	0.0163024
665.706	0.0164042
665.784	0.0163851
665.862	0.0165035
665.940	0.0164153
666.018	0.0163510
666.096	0.0165835
666.174	0.0166086
666.253	0.0165156
666.331	0.0164993
666.409	0.0166638
666.487	0.0165814
666.565	0.0165618
666.643	0.0167059
666.721	0.0165465
666.799	0.0166183
666.878	0.0165120
666.956	0.0166420
667.034	0.0166670
667.112	0.0166061
667.190	0.0166503
667.268	0.0166903
667.346	0.0165907
667.424	0.0165175
667.503	0.0164360
667.581	0.0163884
667.659	0.0163569
667.737	0.0163602
667.815	0.0162803
667.893	0.0163334
667.971	0.0163998
668.049	0.0162352
668.128	0.0162865
668.206	0.0161562
668.284	0.0161825
668.362	0.0161446
668.440	0.0161163
668.518	0.0161659
668.596	0.0161735
668.674	0.0161722
668.753	0.0161951
668.831	0.0161708
668.909	0.0162302
668.987	0.0163476
669.065	0.0162646
669.143	0.0164522
669.221	0.0166267
669.299	0.0164690
669.378	0.0166077
669.456	0.0167802
669.534	0.0168272
669.612	0.0169176
669.690	0.0170921
669.768	0.0170849
669.846	0.0169837
669.924	0.0170200
670.003	0.0171067
670.081	0.0171589
670.159	0.0172598
670.237	0.0173194
670.315	0.0171851
670.393	0.0171175
670.471	0.0171281
670.549	0.0171339
670.628	0.0171108
670.706	0.0170460
670.784	0.0170782
670.862	0.0170300
670.940	0.0168838
671.018	0.0167686
671.096	0.0168282
671.174	0.0168484
671.253	0.0165863
671.331	0.0166122
671.409	0.0165616
671.487	0.0164079
671.565	0.0162260
671.643	0.0161813
671.721	0.0161884
671.799	0.0162292
671.878	0.0160227
671.956	0.0160142
672.034	0.0159943
672.112	0.0159874
672.190	0.0159733
672.268	0.0160474
672.346	0.0159972
672.424	0.0159621
672.503	0.0160248
672.581	0.0160973
672.659	0.0160539
672.737	0.0161362
672.815	0.0161903
672.893	0.0160944
672.971	0.0162711
673.049	0.0162659
673.128	0.0162002
673.206	0.0164787
673.284	0.0164354
673.362	0.0162881
673.440	0.0164954
673.518	0.0166416
673.596	0.0165835
673.674	0.0165096
673.753	0.0166747
673.831	0.0168081
673.909	0.0167410
673.987	0.0167599
674.065	0.0167544
674.143	0.0168661
674.221	0.0168666
674.299	0.0168037
674.378	0.0167810
674.456	0.0168233
674.534	0.0168825
674.612	0.0168852
674.690	0.0168578
674.768	0.0169207
674.846	0.0169333
674.924	0.0167297
675.003	0.0168559
675.081	0.0167542
675.159	0.0167950
675.237	0.0167088
675.315	0.0167770
675.393	0.0166872
675.471	0.0165984
675.549	0.0166350
675.628	0.0166985
675.706	0.0165599
675.784	0.0166344
675.862	0.0165688
675.940	0.0165487
676.018	0.0165648
676.096	0.0165620
676.174	0.0165479
676.253	0.0166588
676.331	0.0166603
676.409	0.0165223
676.487	0.0165387
676.565	0.0164810
676.643	0.0165491
676.721	0.0164547
676.799	0.0164730
676.878	0.0165015
676.956	0.0164095
677.034	0.0165072
677.112	0.0166301
677.190	0.0167549
677.268	0.0165284
677.346	0.0164954
677.424	0.0166741
677.503	0.0167376
677.581	0.0167097
677.659	0.0164413
677.737	0.0166962
677.815	0.0165701
677.893	0.0165096
677.971	0.0166119
678.049	0.0165170
678.128	0.0164069
678.206	0.0164057
678.284	0.0165428
678.362	0.0163168
678.440	0.0164698
678.518	0.0164747
678.596	0.0164325
678.674	0.0163270
678.753	0.0163757
678.831	0.0161512
678.909	0.0163294
678.987	0.0162668
679.065	0.0161623
679.143	0.0162333
679.221	0.0163892
679.299	0.0162128
679.378	0.0161604
679.456	0.0162051
679.534	0.0162318
679.612	0.0162178
679.690	0.0163793
679.768	0.0162988
679.846	0.0162287
679.924	0.0162537
680.003	0.0163197
680.081	0.0162869
680.159	0.0163752
680.237	0.0164080
680.315	0.0163978
680.393	0.0165377
680.471	0.0165768
680.549	0.0164501
680.628	0.0164124
680.706	0.0164852
680.784	0.0165299
680.862	0.0166270
680.940	0.0166815
681.018	0.0168548
681.096	0.0167972
681.174	0.0168460
681.253	0.0167773
681.331	0.0167947
681.409	0.0167872
681.487	0.0170020
681.565	0.0170718
681.643	0.0170332
681.721	0.0169514
681.799	0.0169411
681.878	0.0170989
681.956	0.0169589
682.034	0.0170537
682.112	0.0170309
682.190	0.0169717
682.268	0.0170303
682.346	0.0170990
682.424	0.0170223
682.503	0.0169446
682.581	0.0168994
682.659	0.0169443
682.737	0.0169933
682.815	0.0168634
682.893	0.0165679
682.971	0.0166847
683.049	0.0167213
683.128	0.0165677
683.206	0.0165997
683.284	0.0164457
683.362	0.0164129
683.440	0.0164177
683.518	0.0163016
683.596	0.0162859
683.674	0.0162263
683.753	0.0161192
683.831	0.0162080
683.909	0.0162854
683.987	0.0161647
684.065	0.0161422
684.143	0.0160780
684.221	0.0161770
684.299	0.0161869
684.378	0.0161291
684.456	0.0160917
684.534	0.0161395
684.612	0.0162354
684.690	0.0163943
684.768	0.0161912
684.846	0.0163619
684.924	0.0164025
685.003	0.0164323
685.081	0.0166185
685.159	0.0164255
685.237	0.0165263
685.315	0.0165456
685.393	0.0165839
685.471	0.0166160
685.549	0.0166538
685.628	0.0166660
685.706	0.0166543
685.784	0.0167299
685.862	0.0167813
685.940	0.0167817
686.018	0.0168617
686.096	0.0169611
686.174	0.0168049
686.253	0.0168690
686.331	0.0169891
686.409	0.0169849
686.487	0.0169878
686.565	0.0170340
686.643	0.0168741
686.721	0.0168327
686.799	0.0168777
686.878	0.0168438
686.956	0.0167986
687.034	0.0167952
687.112	0.0167255
687.190	0.0167923
687.268	0.0166429
687.346	0.0166020
687.424	0.0165955
687.503	0.0165279
687.581	0.0166689
687.659	0.0163383
687.737	0.0165385
687.815	0.0165742
687.893	0.0162814
687.971	0.0163916
688.049	0.0164446
688.128	0.0163850
688.206	0.0162714
688.284	0.0162532
688.362	0.0162348
688.440	0.0162990
688.518	0.0162189
688.596	0.0162371
688.674	0.0163474
688.753	0.0161523
688.831	0.0162387
688.909	0.0162208
688.987	0.0163705
689.065	0.0161253
689.143	0.0162784
689.221	0.0163914
689.299	0.0163390
689.378	0.0164039
689.456	0.0166197
689.534	0.0164699
689.612	0.0164716
689.690	0.0166092
689.768	0.0166869
689.846	0.0167149
689.924	0.0166725
690.003	0.0166373
690.081	0.0166142
690.159	0.0168459
690.237	0.0167242
690.315	0.0167212
690.393	0.0167023
690.471	0.0167120
690.549	0.0166901
690.628	0.0167994
690.706	0.0166059
690.784	0.0165253
690.862	0.0167069
690.940	0.0167569
691.018	0.0167959
691.096	0.0167690
691.174	0.0168929
691.253	0.0167772
691.331	0.0165884
691.409	0.0166414
691.487	0.0166126
691.565	0.0166751
691.643	0.0165855
691.721	0.0165523
691.799	0.0164593
691.878	0.0165260
691.956	0.0163826
692.034	0.0165392
692.112	0.0164643
692.190	0.0164005
692.268	0.0165631
692.346	0.0164016
692.424	0.0163732
692.503	0.0163151
692.581	0.0164386
692.659	0.0163649
692.737	0.0163402
692.815	0.0163065
692.893	0.0163449
692.971	0.0164586
693.049	0.0164194
693.128	0.0163505
693.206	0.0164493
693.284	0.0165167
693.362	0.0164756
693.440	0.0164948
693.518	0.0164920
693.596	0.0165091
693.674	0.0166821
693.753	0.0167204
693.831	0.0167004
693.909	0.0169234
693.987	0.0168216
694.065	0.0167441
694.143	0.0167288
694.221	0.0168409
694.299	0.0168563
694.378	0.0167899
694.456	0.0167650
694.534	0.0166952
694.612	0.0167245
694.690	0.0168549
694.768	0.0167207
694.846	0.0167039
694.924	0.0167353
695.003	0.0166831
695.081	0.0167762
695.159	0.0166273
695.237	0.0165976
695.315	0.0165938
695.393	0.0166356
695.471	0.0165416
695.549	0.0165646
695.628	0.0164107
695.706	0.0165007
695.784	0.0164607
695.862	0.0166237
695.940	0.0164132
696.018	0.0164528
696.096	0.0164906
696.174	0.0163335
696.253	0.0162843
696.331	0.0164887
696.409	0.0165220
696.487	0.0164860
696.565	0.0164502
696.643	0.0163860
696.721	0.0162525
696.799	0.0163512
696.878	0.0163510
696.956	0.0163315
697.034	0.0163899
697.112	0.0162527
697.190	0.0163620
697.268	0.0164168
697.346	0.0163509
697.424	0.0164151
697.503	0.0163240
697.581	0.0163867
697.659	0.0163571
697.737	0.0164248
697.815	0.0164636
697.893	0.0164777
697.971	0.0164467
698.049	0.0165907
698.128	0.0164288
698.206	0.0165047
698.284	0.0164447
698.362	0.0165497
698.440	0.0163902
698.518	0.0165302
698.596	0.0165604
698.674	0.0167346
698.753	0.0166431
698.831	0.0165632
698.909	0.0166223
698.987	0.0167449
699.065	0.0167064
699.143	0.0167041
699.221	0.0165285
699.299	0.0165826
699.378	0.0165987
699.456	0.0165729
699.534	0.0167287
699.612	0.0165484
699.690	0.0165662
699.768	0.0166064
699.846	0.0165592
699.924	0.0164854
700.003	0.0165816
700.081	0.0166537
700.159	0.0166391
700.237	0.0164838
700.315	0.0166518
700.393	0.0163517
700.471	0.0163936
700.549	0.0162933
700.628	0.0165224
700.706	0.0164526
700.784	0.0163501
700.862	0.0163556
700.940	0.0163168
701.018	0.0164186
701.096	0.0163718
701.174	0.0165223
701.253	0.0165109
701.331	0.0164942
701.409	0.0164648
701.487	0.0164456
701.565	0.0164014
701.643	0.0163668
701.721	0.0164995
701.799	0.0162753
701.878	0.0165117
701.956	0.0164671
702.034	0.0164002
702.112	0.0164935
702.190	0.0166077
702.268	0.0163860
702.346	0.0165295
702.424	0.0164437
702.503	0.0165150
702.581	0.0166533
702.659	0.0166121
702.737	0.0165211
702.815	0.0166542
702.893	0.0166783
702.971	0.0166559
703.049	0.0167410
703.128	0.0166669
703.206	0.0167638
703.284	0.0168035
703.362	0.0167075
703.440	0.0166393
703.518	0.0167544
703.596	0.0166772
703.674	0.0166566
703.753	0.0166830
703.831	0.0165002
703.909	0.0165649
703.987	0.0165693
704.065	0.0164713
704.143	0.0166149
704.221	0.0165811
704.299	0.0164883
704.378	0.0164332
704.456	0.0165775
704.534	0.0165898
704.612	0.0163900
704.690	0.0165909
704.768	0.0165891
704.846	0.0164887
704.924	0.0166303
705.003	0.0165402
705.081	0.0164584
705.159	0.0166397
705.237	0.0164604
705.315	0.0165710
705.393	0.0166214
705.471	0.0164920
705.549	0.0165148
705.628	0.0166208
705.706	0.0166584
705.784	0.0165228
705.862	0.0165173
705.940	0.0165871
706.018	0.0164779
706.096	0.0165405
706.174	0.0165280
706.253	0.0164556
706.331	0.0166405
706.409	0.0163964
706.487	0.0164287
706.565	0.0165672
706.643	0.0166087
706.721	0.0165232
706.799	0.0165795
706.878	0.0165197
706.956	0.0165920
707.034	0.0165694
707.112	0.0165437
707.190	0.0165034
707.268	0.0165626
707.346	0.0165405
707.424	0.0165181
707.503	0.0165244
707.581	0.0165675
707.659	0.0165185
707.737	0.0166092
707.815	0.0165110
707.893	0.0166284
707.971	0.0166529
708.049	0.0166705
708.128	0.0165659
708.206	0.0167107
708.284	0.0166018
708.362	0.0166010
708.440	0.0167265
708.518	0.0166167
708.596	0.0167854
708.674	0.0167191
708.753	0.0166534
708.831	0.0165173
708.909	0.0166697
708.987	0.0168541
709.065	0.0166070
709.143	0.0167569
709.221	0.0165587
709.299	0.0165144
709.378	0.0167217
709.456	0.0165307
709.534	0.0165986
709.612	0.0166292
709.690	0.0166665
709.768	0.0166297
709.846	0.0165881
709.924	0.0164177
710.003	0.0165665
710.081	0.0164568
710.159	0.0164722
710.237	0.0165410
710.315	0.0164796
710.393	0.0166103
710.471	0.0164043
710.549	0.0166312
710.628	0.0164992
710.706	0.0165535
710.784	0.0166013
710.862	0.0167212
710.940	0.0165041
711.018	0.0165094
711.096	0.0165127
711.174	0.0165259
711.253	0.0165392
711.331	0.0165157
711.409	0.0165239
711.487	0.0165237
711.565	0.0165464
711.643	0.0165227
711.721	0.0164091
711.799	0.0166935
711.878	0.0164828
711.956	0.0163923
712.034	0.0164612
712.112	0.0164407
712.190	0.0165642
712.268	0.0164768
712.346	0.0165453
712.424	0.0164919
712.503	0.0165268
712.581	0.0165778
712.659	0.0166012
712.737	0.0164505
712.815	0.0166486
712.893	0.0165472
712.971	0.0165766
713.049	0.0165040
713.128	0.0166677
713.206	0.0165765
713.284	0.0165653
713.362	0.0165879
713.440	0.0166513
713.518	0.0167047
713.596	0.0167680
713.674	0.0166563
713.753	0.0166127
713.831	0.0167101
713.909	0.0167110
713.987	0.0166203
714.065	0.0166657
714.143	0.0166515
714.221	0.0166714
714.299	0.0165755
714.378	0.0166261
714.456	0.0166496
714.534	0.0165585
714.612	0.0164746
714.690	0.0165789
714.768	0.0165189
714.846	0.0164938
714.924	0.0164041
715.003	0.0164733
715.081	0.0164943
715.159	0.0165385
715.237	0.0164445
715.315	0.0164645
715.393	0.0163785
715.471	0.0164849
715.549	0.0164849
715.628	0.0163640
715.706	0.0162911
715.784	0.0163257
715.862	0.0163017
715.940	0.0163103
716.018	0.0162469
716.096	0.0163411
716.174	0.0162512
716.253	0.0162581
716.331	0.0163470
716.409	0.0162922
716.487	0.0162604
716.565	0.0162487
716.643	0.0163773
716.721	0.0163553
716.799	0.0163518
716.878	0.0163865
716.956	0.0165047
717.034	0.0165161
717.112	0.0164759
717.190	0.0165710
717.268	0.0165555
717.346	0.0165276
717.424	0.0163625
717.503	0.0164941
717.581	0.0165636
717.659	0.0163889
717.737	0.0165030
717.815	0.0165298
717.893	0.0165650
717.971	0.0166338
718.049	0.0166356
718.128	0.0165719
718.206	0.0165929
718.284	0.0164944
718.362	0.0166536
718.440	0.0166025
718.518	0.0165660
718.596	0.0165930
718.674	0.0165155
718.753	0.0166996
718.831	0.0166132
718.909	0.0167155
718.987	0.0165363
719.065	0.0166577
719.143	0.0166267
719.221	0.0164820
719.299	0.0164718
719.378	0.0164668
719.456	0.0165106
719.534	0.0165267
719.612	0.0165211
719.690	0.0164044
719.768	0.0163799
719.846	0.0163906
719.924	0.0163658
720.003	0.0163731
720.081	0.0164346
720.159	0.0164107
720.237	0.0163752
720.315	0.0163824
720.393	0.0164697
720.471	0.0163940
720.549	0.0165147
720.628	0.0164764
720.706	0.0164567
720.784	0.0165250
720.862	0.0163690
720.940	0.0162815
721.018	0.0163840
721.096	0.0165154
721.174	0.0164065
721.253	0.0165976
721.331	0.0164265
721.409	0.0164661
721.487	0.0165347
721.565	0.0165567
721.643	0.0163319
721.721	0.0165373
721.799	0.0165908
721.878	0.0165049
721.956	0.0166362
722.034	0.0165760
722.112	0.0166056
722.190	0.0164527
722.268	0.0164780
722.346	0.0165485
722.424	0.0166032
722.503	0.0166874
722.581	0.0165931
722.659	0.0166922
722.737	0.0167213
722.815	0.0165014
722.893	0.0167040
722.971	0.0165914
723.049	0.0164069
723.128	0.0165148
723.206	0.0167015
723.284	0.0165866
723.362	0.0165462
723.440	0.0164521
723.518	0.0163763
723.596	0.0164176
723.674	0.0164420
723.753	0.0164571
723.831	0.0164433
723.909	0.0164554
723.987	0.0164806
724.065	0.0164279
724.143	0.0163237
724.221	0.0162279
724.299	0.0163587
724.378	0.0162835
724.456	0.0164056
724.534	0.0165368
724.612	0.0164878
724.690	0.0164944
724.768	0.0165236
724.846	0.0164932
724.924	0.0164653
725.003	0.0165499
725.081	0.0166135
725.159	0.0166752
725.237	0.0164413
725.315	0.0164237
725.393	0.0165273
725.471	0.0165244
725.549	0.0165516
725.628	0.0163735
725.706	0.0165486
725.784	0.0165665
725.862	0.0165726
725.940	0.0165700
726.018	0.0165825
726.096	0.0165734
726.174	0.0166504
726.253	0.0165338
726.331	0.0166366
726.409	0.0165649
726.487	0.0164247
726.565	0.0164795
726.643	0.0165322
726.721	0.0165910
726.799	0.0165740
726.878	0.0167182
726.956	0.0165452
727.034	0.0164913
727.112	0.0165005
727.190	0.0166736
727.268	0.0165668
727.346	0.0166451
727.424	0.0166376
727.503	0.0164996
727.581	0.0165142
727.659	0.0165042
727.737	0.0165006
727.815	0.0166597
727.893	0.0165591
727.971	0.0164646
728.049	0.0166273
728.128	0.0165253
728.206	0.0165529
728.284	0.0164697
728.362	0.0166392
728.440	0.0165616
728.518	0.0164777
728.596	0.0166177
728.674	0.0166028
728.753	0.0165338
728.831	0.0166676
728.909	0.0164994
728.987	0.0163938
729.065	0.0164799
729.143	0.0166374
729.221	0.0166593
729.299	0.0165169
729.378	0.0164073
729.456	0.0165173
729.534	0.0164041
729.612	0.0165117
729.690	0.0165900
729.768	0.0164256
729.846	0.0164099
729.924	0.0163361
730.003	0.0164143
730.081	0.0165967
730.159	0.0165089
730.237	0.0165025
730.315	0.0164956
730.393	0.0165498
730.471	0.0163962
730.549	0.0165098
730.628	0.0165213
730.706	0.0165530
730.784	0.0165037
730.862	0.0165616
730.940	0.0165721
731.018	0.0165371
731.096	0.0164566
731.174	0.0164935
731.253	0.0166365
731.331	0.0164735
731.409	0.0164757
731.487	0.0164301
731.565	0.0165265
731.643	0.0163977
731.721	0.0166146
731.799	0.0165427
731.878	0.0164803
731.956	0.0164060
732.034	0.0164137
732.112	0.0166196
732.190	0.0166120
732.268	0.0164877
732.346	0.0164299
732.424	0.0164687
732.503	0.0164742
732.581	0.0164261
732.659	0.0163915
732.737	0.0165001
732.815	0.0164412
732.893	0.0165259
732.971	0.0164396
733.049	0.0164018
733.128	0.0164721
733.206	0.0163540
733.284	0.0163716
733.362	0.0164116
733.440	0.0162855
733.518	0.0161860
733.596	0.0163860
733.674	0.0163412
733.753	0.0163066
733.831	0.0163758
733.909	0.0163357
733.987	0.0164043
734.065	0.0162207
734.143	0.0164114
734.221	0.0163678
734.299	0.0164742
734.378	0.0164064
734.456	0.0164088
734.534	0.0163792
734.612	0.0163902
734.690	0.0163440
734.768	0.0164172
734.846	0.0164461
734.924	0.0165032
735.003	0.0164987
735.081	0.0166433
735.159	0.0164450
735.237	0.0163660
735.315	0.0164998
735.393	0.0165932
735.471	0.0164749
735.549	0.0164656
735.628	0.0163963
735.706	0.0163597
735.784	0.0165169
735.862	0.0165292
735.940	0.0164675
736.018	0.0164909
736.096	0.0165768
736.174	0.0165253
736.253	0.0165902
736.331	0.0165742
736.409	0.0167220
736.487	0.0164730
736.565	0.0164288
736.643	0.0165657
736.721	0.0166124
736.799	0.0166704
736.878	0.0165028
736.956	0.0165691
737.034	0.0165599
737.112	0.0167209
737.190	0.0164766
737.268	0.0166402
737.346	0.0166504
737.424	0.0165807
737.503	0.0165037
737.581	0.0165657
737.659	0.0166032
737.737	0.0162906
737.815	0.0165641
737.893	0.0165037
737.971	0.0164362
738.049	0.0165250
738.128	0.0164922
738.206	0.0164819
738.284	0.0165373
738.362	0.0164606
738.440	0.0165919
738.518	0.0164501
738.596	0.0162975
738.674	0.0164315
738.753	0.0165002
738.831	0.0164030
738.909	0.0164882
738.987	0.0165643
739.065	0.0165028
739.143	0.0163558
739.221	0.0164886
739.299	0.0165213
739.378	0.0163467
739.456	0.0164486
739.534	0.0163947
739.612	0.0164887
739.690	0.0164410
739.768	0.0164779
739.846	0.0164492
739.924	0.0163634
740.003	0.0164184
740.081	0.0164572
740.159	0.0162964
740.237	0.0163980
740.315	0.0164294
740.393	0.0164787
740.471	0.0164297
740.549	0.0163373
740.628	0.0165540
740.706	0.0163851
740.784	0.0163490
740.862	0.0165039
740.940	0.0165244
741.018	0.0165023
741.096	0.0166129
741.174	0.0165829
741.253	0.0164801
741.331	0.0165519
741.409	0.0165163
741.487	0.0165299
741.565	0.0165290
741.643	0.0165726
741.721	0.0165573
741.799	0.0165460
741.878	0.0165419
741.956	0.0166300
742.034	0.0165022
742.112	0.0165555
742.190	0.0166438
742.268	0.0166269
742.346	0.0165169
742.424	0.0166093
742.503	0.0166822
742.581	0.0167054
742.659	0.0165257
742.737	0.0167564
742.815	0.0167310
742.893	0.0166988
742.971	0.0167762
743.049	0.0166094
743.128	0.0167706
743.206	0.0166784
743.284	0.0166718
743.362	0.0165463
743.440	0.0165547
743.518	0.0165742
743.596	0.0164714
743.674	0.0164695
743.753	0.0166634
743.831	0.0164485
743.909	0.0164462
743.987	0.0166046
744.065	0.0164916
744.143	0.0166013
744.221	0.0165625
744.299	0.0165392
744.378	0.0164596
744.456	0.0166186
744.534	0.0165417
744.612	0.0165837
744.690	0.0166660
744.768	0.0165854
744.846	0.0165588
744.924	0.0166006
745.003	0.0165302
745.081	0.0166008
745.159	0.0165491
745.237	0.0165139
745.315	0.0166267
745.393	0.0165565
745.471	0.0165125
745.549	0.0165206
745.628	0.0165586
745.706	0.0165450
745.784	0.0165645
745.862	0.0165883
745.940	0.0166267
746.018	0.0165811
746.096	0.0165125
746.174	0.0165998
746.253	0.0164575
746.331	0.0164317
746.409	0.0164503
746.487	0.0164677
746.565	0.0164110
746.643	0.0166245
746.721	0.0164356
746.799	0.0165198
746.878	0.0165594
746.956	0.0164917
747.034	0.0164383
747.112	0.0166310
747.190	0.0165182
747.268	0.0165148
747.346	0.0165527
747.424	0.0164891
747.503	0.0165279
747.581	0.0166557
747.659	0.0166166
747.737	0.0163580
747.815	0.0166300
747.893	0.0164608
747.971	0.0165076
748.049	0.0165160
748.128	0.0165266
748.206	0.0164246
748.284	0.0163859
748.362	0.0165027
748.440	0.0165182
748.518	0.0164330
748.596	0.0164431
748.674	0.0165005
748.753	0.0164445
748.831	0.0163643
748.909	0.0165221
748.987	0.0165803
749.065	0.0165974
749.143	0.0165871
749.221	0.0166073
749.299	0.0164669
749.378	0.0166441
749.456	0.0166918
749.534	0.0166212
749.612	0.0165161
749.690	0.0164957
749.768	0.0166534
749.846	0.0166679
749.924	0.0165462
750.003	0.0165000
750.081	0.0165610
750.159	0.0166254
750.237	0.0165614
750.315	0.0166446
750.393	0.0166657
750.471	0.0166869
750.549	0.0166362
750.628	0.0165222
750.706	0.0166304
750.784	0.0165929
750.862	0.0166238
750.940	0.0165182
751.018	0.0165584
751.096	0.0166374
751.174	0.0166135
751.253	0.0166803
751.331	0.0165906
751.409	0.0165867
751.487	0.0167067
751.565	0.0165235
751.643	0.0166218
751.721	0.0166766
751.799	0.0165613
751.878	0.0165640
751.956	0.0164867
752.034	0.0165964
752.112	0.0166762
752.190	0.0165474
752.268	0.0166228
752.346	0.0166384
752.424	0.0165392
752.503	0.0165311
752.581	0.0166548
752.659	0.0164981
752.737	0.0165718
752.815	0.0166453
752.893	0.0165672
752.971	0.0166090
753.049	0.0165019
753.128	0.0165234
753.206	0.0166425
753.284	0.0164952
753.362	0.0163523
753.440	0.0164918
753.518	0.0165940
753.596	0.0164935
753.674	0.0164748
753.753	0.0164746
753.831	0.0165189
753.909	0.0165460
753.987	0.0166542
754.065	0.0166051
754.143	0.0165287
754.221	0.0164727
754.299	0.0165427
754.378	0.0165970
754.456	0.0165987
754.534	0.0165463
754.612	0.0165509
754.690	0.0163807
754.768	0.0165148
754.846	0.0165655
754.924	0.0165922
755.003	0.0163868
755.081	0.0164777
755.159	0.0166183
755.237	0.0165310
755.315	0.0164336
755.393	0.0165131
755.471	0.0164565
755.549	0.0164709
755.628	0.0164712
755.706	0.0164862
755.784	0.0165829
755.862	0.0164660
755.940	0.0165709
756.018	0.0165906
756.096	0.0164426
756.174	0.0165333
756.253	0.0166391
756.331	0.0164564
756.409	0.0164541
756.487	0.0166785
756.565	0.0165046
756.643	0.0166044
756.721	0.0164444
756.799	0.0164511
756.878	0.0166122
756.956	0.0166544
757.034	0.0167265
757.112	0.0166163
757.190	0.0165279
757.268	0.0165453
757.346	0.0166310
757.424	0.0166691
757.503	0.0164283
757.581	0.0166325
757.659	0.0165611
757.737	0.0164422
757.815	0.0165495
757.893	0.0166129
757.971	0.0165215
758.049	0.0166069
758.128	0.0165382
758.206	0.0165601
758.284	0.0165108
758.362	0.0165345
758.440	0.0165605
758.518	0.0164148
758.596	0.0165194
758.674	0.0164547
758.753	0.0164808
758.831	0.0165884
758.909	0.0165672
758.987	0.0164735
759.065	0.0164869
759.143	0.0163981
759.221	0.0163818
759.299	0.0165955
759.378	0.0165407
759.456	0.0163726
759.534	0.0164733
759.612	0.0163454
759.690	0.0164835
759.768	0.0164964
759.846	0.0164367
759.924	0.0165156
760.003	0.0163258
760.081	0.0164892
760.159	0.0165810
760.237	0.0164957
760.315	0.0165586
760.393	0.0165569
760.471	0.0165086
760.549	0.0164189
760.628	0.0165881
760.706	0.0165564
760.784	0.0165400
760.862	0.0164430
760.940	0.0165431
761.018	0.0165514
761.096	0.0165475
761.174	0.0165273
761.253	0.0165485
761.331	0.0166354
761.409	0.0164748
761.487	0.0166308
761.565	0.0165781
761.643	0.0164863
761.721	0.0165063
761.799	0.0165176
761.878	0.0164464
761.956	0.0165340
762.034	0.0165330
762.112	0.0166369
762.190	0.0164932
762.268	0.0164606
762.346	0.0163907
762.424	0.0164735
762.503	0.0165897
762.581	0.0164713
762.659	0.0164410
762.737	0.0164127
762.815	0.0165845
762.893	0.0164663
762.971	0.0163255
763.049	0.0164187
763.128	0.0165572
763.206	0.0165582
763.284	0.0163641
763.362	0.0164632
763.440	0.0164561
763.518	0.0165543
763.596	0.0166328
763.674	0.0164600
763.753	0.0164421
763.831	0.0166707
763.909	0.0166364
763.987	0.0164887
764.065	0.0165485
764.143	0.0165951
764.221	0.0164932
764.299	0.0165511
764.378	0.0166158
764.456	0.0165176
764.534	0.0164632
764.612	0.0164792
764.690	0.0164671
764.768	0.0165056
764.846	0.0164367
764.924	0.0165923
765.003	0.0165936
765.081	0.0166137
765.159	0.0165042
765.237	0.0165564
765.315	0.0166090
765.393	0.0165028
765.471	0.0166036
765.549	0.0165417
765.628	0.0165378
765.706	0.0164454
765.784	0.0166603
765.862	0.0166146
765.940	0.0165286
766.018	0.0164796
766.096	0.0164147
766.174	0.0165576
766.253	0.0164713
766.331	0.0164867
766.409	0.0165891
766.487	0.0165352
766.565	0.0165143
766.643	0.0165238
766.721	0.0165826
766.799	0.0165405
766.878	0.0164671
766.956	0.0166635
767.034	0.0166972
767.112	0.0166228
767.190	0.0166077
767.268	0.0165543
767.346	0.0166634
767.424	0.0167513
767.503	0.0166248
767.581	0.0166026
767.659	0.0165987
767.737	0.0165976
767.815	0.0165820
767.893	0.0164569
767.971	0.0165140
768.049	0.0164735
768.128	0.0166698
768.206	0.0165351
768.284	0.0164725
768.362	0.0165388
768.440	0.0165120
768.518	0.0163790
768.596	0.0165616
768.674	0.0164636
768.753	0.0166755
768.831	0.0164026
768.909	0.0164270
768.987	0.0164370
769.065	0.0166134
769.143	0.0166084
769.221	0.0165057
769.299	0.0165164
769.378	0.0166684
769.456	0.0164638
769.534	0.0164309
769.612	0.0164420
769.690	0.0164188
769.768	0.0165484
769.846	0.0166149
769.924	0.0164251
770.003	0.0165138
770.081	0.0165408
770.159	0.0165667
770.237	0.0164943
770.315	0.0164972
770.393	0.0164419
770.471	0.0165365
770.549	0.0164193
770.628	0.0166384
770.706	0.0165788
770.784	0.0164838
770.862	0.0165906
770.940	0.0166730
771.018	0.0166963
771.096	0.0167053
771.174	0.0165975
771.253	0.0165087
771.331	0.0167414
771.409	0.0166388
771.487	0.0165695
771.565	0.0167919
771.643	0.0167036
771.721	0.0165298
771.799	0.0166167
771.878	0.0168574
771.956	0.0166807
772.034	0.0166898
772.112	0.0166058
772.190	0.0166537
772.268	0.0167235
772.346	0.0167573
772.424	0.0166706
772.503	0.0167659
772.581	0.0166270
772.659	0.0167285
772.737	0.0166756
772.815	0.0166860
772.893	0.0167219
772.971	0.0165981
773.049	0.0166731
773.128	0.0165027
773.206	0.0164308
773.284	0.0166698
773.362	0.0166660
773.440	0.0165585
773.518	0.0166028
773.596	0.0165228
773.674	0.0165492
773.753	0.0165958
773.831	0.0166216
773.909	0.0166001
773.987	0.0166323
774.065	0.0164577
774.143	0.0165795
774.221	0.0164554
774.299	0.0164679
774.378	0.0166293
774.456	0.0165854
774.534	0.0164691
774.612	0.0165158
774.690	0.0165415
774.768	0.0163750
774.846	0.0165360
774.924	0.0166599
775.003	0.0166906
775.081	0.0164927
775.159	0.0164706
775.237	0.0165219
775.315	0.0164954
775.393	0.0165345
775.471	0.0165869
775.549	0.0164108
775.628	0.0166055
775.706	0.0164989
775.784	0.0164967
775.862	0.0164215
775.940	0.0163177
776.018	0.0164874
776.096	0.0164380
776.174	0.0163780
776.253	0.0165344
776.331	0.0164745
776.409	0.0163676
776.487	0.0164714
776.565	0.0166165
776.643	0.0165221
776.721	0.0166044
776.799	0.0166529
776.878	0.0164862
776.956	0.0164909
777.034	0.0165741
777.112	0.0166216
777.190	0.0165490
777.268	0.0165411
777.346	0.0165434
777.424	0.0166698
777.503	0.0166013
777.581	0.0166581
777.659	0.0166996
777.737	0.0166592
777.815	0.0166864
777.893	0.0166289
777.971	0.0164903
778.049	0.0165822
778.128	0.0165842
778.206	0.0166060
778.284	0.0165706
778.362	0.0165507
778.440	0.0165736
778.518	0.0166598
778.596	0.0165802
778.674	0.0165166
778.753	0.0166893
778.831	0.0165788
778.909	0.0166744
778.987	0.0164143
779.065	0.0165533
779.143	0.0165840
779.221	0.0165842
779.299	0.0166238
779.378	0.0165770
779.456	0.0166073
779.534	0.0164404
779.612	0.0164022
779.690	0.0165759
779.768	0.0164594
779.846	0.0165447
779.924	0.0163850
780.003	0.0166135
780.081	0.0165172
780.159	0.0165099
780.237	0.0166328
780.315	0.0165270
780.393	0.0165767
780.471	0.0165561
780.549	0.0165572
780.628	0.0165031
780.706	0.0164148
780.784	0.0164948
780.862	0.0165401
780.940	0.0164217
781.018	0.0165518
781.096	0.0166250
781.174	0.0165623
781.253	0.0164815
781.331	0.0165301
781.409	0.0163599
781.487	0.0165227
781.565	0.0165099
781.643	0.0164870
781.721	0.0164301
781.799	0.0164990
781.878	0.0166846
781.956	0.0165754
782.034	0.0164752
782.112	0.0165723
782.190	0.0166013
782.268	0.0166081
782.346	0.0164784
782.424	0.0165405
782.503	0.0166702
782.581	0.0167046
782.659	0.0166441
782.737	0.0165595
782.815	0.0166869
782.893	0.0166321
782.971	0.0166219
783.049	0.0165791
783.128	0.0166404
783.206	0.0167058
783.284	0.0165387
783.362	0.0165749
783.440	0.0164643
783.518	0.0166074
783.596	0.0166126
783.674	0.0166020
783.753	0.0165700
783.831	0.0165508
783.909	0.0167356
783.987	0.0166006
784.065	0.0165461
784.143	0.0164926
784.221	0.0166098
784.299	0.0165462
784.378	0.0165430
784.456	0.0166210
784.534	0.0165108
784.612	0.0166676
784.690	0.0166575
784.768	0.0164771
784.846	0.0163913
784.924	0.0164451
785.003	0.0164347
785.081	0.0165712
785.159	0.0164713
785.237	0.0164486
785.315	0.0165054
785.393	0.0164632
785.471	0.0165528
785.549	0.0165269
785.628	0.0164544
785.706	0.0165419
785.784	0.0165488
785.862	0.0165508
785.940	0.0166444
786.018	0.0166866
786.096	0.0166527
786.174	0.0166280
786.253	0.0165359
786.331	0.0166950
786.409	0.0165569
786.487	0.0166940
786.565	0.0166797
786.643	0.0166676
786.721	0.0165747
786.799	0.0166595
786.878	0.0165298
786.956	0.0165436
787.034	0.0165434
787.112	0.0165401
787.190	0.0166643
787.268	0.0166591
787.346	0.0165797
787.424	0.0165573
787.503	0.0166433
787.581	0.0165974
787.659	0.0165682
787.737	0.0165594
787.815	0.0165205
787.893	0.0165862
787.971	0.0166747
788.049	0.0166357
788.128	0.0165118
788.206	0.0166235
788.284	0.0163901
788.362	0.0164885
788.440	0.0165921
788.518	0.0166198
788.596	0.0167081
788.674	0.0164960
788.753	0.0165362
788.831	0.0166721
788.909	0.0166234
788.987	0.0163309
789.065	0.0164687
789.143	0.0165553
789.221	0.0166074
789.299	0.0166388
789.378	0.0165021
789.456	0.0167133
789.534	0.0164634
789.612	0.0164263
789.690	0.0165444
789.768	0.0164599
789.846	0.0164707
789.924	0.0165263
790.003	0.0165175
790.081	0.0166481
790.159	0.0166474
790.237	0.0164655
790.315	0.0165542
790.393	0.0164901
790.471	0.0165514
790.549	0.0166192
790.628	0.0164947
790.706	0.0165008
790.784	0.0165531
790.862	0.0164047
790.940	0.0164389
791.018	0.0166148
791.096	0.0165450
791.174	0.0164420
791.253	0.0165068
791.331	0.0164703
791.409	0.0164487
791.487	0.0163736
791.565	0.0165244
791.643	0.0163140
791.721	0.0163911
791.799	0.0163469
791.878	0.0164411
791.956	0.0164676
792.034	0.0163444
792.112	0.0165452
792.190	0.0164185
792.268	0.0164763
792.346	0.0164903
792.424	0.0164408
792.503	0.0164484
792.581	0.0164891
792.659	0.0165282
792.737	0.0165207
792.815	0.0164294
792.893	0.0164229
792.971	0.0164517
793.049	0.0164027
793.128	0.0163496
793.206	0.0164946
793.284	0.0164440
793.362	0.0165227
793.440	0.0164666
793.518	0.0164964
793.596	0.0164788
793.674	0.0164266
793.753	0.0163842
793.831	0.0163329
793.909	0.0165238
793.987	0.0164677
794.065	0.0164555
794.143	0.0164474
794.221	0.0166909
794.299	0.0164532
794.378	0.0165132
794.456	0.0164183
794.534	0.0164761
794.612	0.0166167
794.690	0.0165319
794.768	0.0165423
794.846	0.0165975
794.924	0.0165771
795.003	0.0164790
795.081	0.0164808
795.159	0.0166072
795.237	0.0164601
795.315	0.0164018
795.393	0.0164738
795.471	0.0164706
795.549	0.0164919
795.628	0.0165247
795.706	0.0165630
795.784	0.0165426
795.862	0.0165529
795.940	0.0164870
796.018	0.0166013
796.096	0.0165375
796.174	0.0165362
796.253	0.0164648
796.331	0.0165396
796.409	0.0166309
796.487	0.0165418
796.565	0.0164600
796.643	0.0164291
796.721	0.0166521
796.799	0.0166014
796.878	0.0167096
796.956	0.0166015
797.034	0.0165643
797.112	0.0166532
797.190	0.0165424
797.268	0.0164553
797.346	0.0165176
797.424	0.0164848
797.503	0.0164439
797.581	0.0164141
797.659	0.0163992
797.737	0.0166473
797.815	0.0165863
797.893	0.0164606
797.971	0.0164164
798.049	0.0164676
798.128	0.0164635
798.206	0.0164548
798.284	0.0164790
798.362	0.0165667
798.440	0.0164261
798.518	0.0165146
798.596	0.0164674
798.674	0.0164036
798.753	0.0165629
798.831	0.0164822
798.909	0.0165183
798.987	0.0164519
799.065	0.0164829
799.143	0.0163729
799.221	0.0164458
799.299	0.0163020
799.378	0.0164636
799.456	0.0164989
799.534	0.0165166
799.612	0.0164509
799.690	0.0165023
799.768	0.0164994
799.846	0.0164687
799.924	0.0165292
800.003	0.0163312
800.081	0.0164684
800.159	0.0165290
800.237	0.0165997
800.315	0.0164438
800.393	0.0165179
800.471	0.0165508
800.549	0.0164216
800.628	0.0165347
800.706	0.0165792
800.784	0.0164533
800.862	0.0166220
800.940	0.0165897
801.018	0.0166599
801.096	0.0165267
801.174	0.0166497
801.253	0.0165399
801.331	0.0164531
801.409	0.0165038
801.487	0.0166851
801.565	0.0165656
801.643	0.0165584
801.721	0.0167308
801.799	0.0165410
801.878	0.0166022
801.956	0.0165422
802.034	0.0165713
802.112	0.0166412
802.190	0.0166817
802.268	0.0165869
802.346	0.0165400
802.424	0.0165617
802.503	0.0166160
802.581	0.0165961
802.659	0.0165208
802.737	0.0166945
802.815	0.0165843
802.893	0.0166418
802.971	0.0165850
803.049	0.0167124
803.128	0.0166175
803.206	0.0166730
803.284	0.0166064
803.362	0.0166561
803.440	0.0165296
803.518	0.0166302
803.596	0.0167580
803.674	0.0167457
803.753	0.0166312
803.831	0.0166592
803.909	0.0166027
803.987	0.0165714
804.065	0.0166840
804.143	0.0166390
804.221	0.0165852
804.299	0.0166311
804.378	0.0166198
804.456	0.0166939
804.534	0.0166080
804.612	0.0165470
804.690	0.0166523
804.768	0.0166663
804.846	0.0165717
804.924	0.0164884
805.003	0.0166045
805.081	0.0166192
805.159	0.0165687
805.237	0.0165215
805.315	0.0165217
805.393	0.0163802
805.471	0.0165203
805.549	0.0165141
805.628	0.0164198
805.706	0.0164079
805.784	0.0164561
805.862	0.0164343
805.940	0.0163171
806.018	0.0164478
806.096	0.0164043
806.174	0.0163971
806.253	0.0164094
806.331	0.0163902
806.409	0.0163888
806.487	0.0164111
806.565	0.0162432
806.643	0.0165078
806.721	0.0164515
806.799	0.0163912
806.878	0.0163825
806.956	0.0165070
807.034	0.0164182
807.112	0.0165446
807.190	0.0164293
807.268	0.0163712
807.346	0.0165163
807.424	0.0164090
807.503	0.0165814
807.581	0.0163860
807.659	0.0164420
807.737	0.0166605
807.815	0.0163111
807.893	0.0163415
807.971	0.0165895
808.049	0.0165586
808.128	0.0164632
808.206	0.0165623
808.284	0.0166008
808.362	0.0165469
808.440	0.0164785
808.518	0.0165705
808.596	0.0165394
808.674	0.0167774
808.753	0.0166601
808.831	0.0165821
808.909	0.0166211
808.987	0.0164711
809.065	0.0164642
809.143	0.0165221
809.221	0.0166712
809.299	0.0165538
809.378	0.0164797
809.456	0.0165411
809.534	0.0167663
809.612	0.0167255
809.690	0.0166526
809.768	0.0165790
809.846	0.0166824
809.924	0.0165498
810.003	0.0166640
810.081	0.0166824
810.159	0.0165569
810.237	0.0165337
810.315	0.0166284
810.393	0.0165257
810.471	0.0165273
810.549	0.0165800
810.628	0.0165839
810.706	0.0166187
810.784	0.0165353
810.862	0.0165012
810.940	0.0165263
811.018	0.0166041
811.096	0.0165339
811.174	0.0164948
811.253	0.0165288
811.331	0.0166058
811.409	0.0165810
811.487	0.0165730
811.565	0.0164674
811.643	0.0165164
811.721	0.0164894
811.799	0.0165723
811.878	0.0164402
811.956	0.0164182
812.034	0.0163802
812.112	0.0164420
812.190	0.0164329
812.268	0.0163872
812.346	0.0163202
812.424	0.0164066
812.503	0.0164319
812.581	0.0163982
812.659	0.0163347
812.737	0.0163480
812.815	0.0163459
812.893	0.0163026
812.971	0.0164051
813.049	0.0163488
813.128	0.0162766
813.206	0.0164357
813.284	0.0162933
813.362	0.0163201
813.440	0.0163430
813.518	0.0162682
813.596	0.0163754
813.674	0.0163113
813.753	0.0163874
813.831	0.0163132
813.909	0.0163582
813.987	0.0163519
814.065	0.0163220
814.143	0.0163918
814.221	0.0164571
814.299	0.0162757
814.378	0.0161936
814.456	0.0163815
814.534	0.0162965
814.612	0.0164137
814.690	0.0164523
814.768	0.0163243
814.846	0.0162705
814.924	0.0165743
815.003	0.0165649
815.081	0.0163272
815.159	0.0163693
815.237	0.0164914
815.315	0.0164209
815.393	0.0165235
815.471	0.0164670
815.549	0.0165589
815.628	0.0164103
815.706	0.0164313
815.784	0.0165714
815.862	0.0163857
815.940	0.0163936
816.018	0.0165386
816.096	0.0165082
816.174	0.0165250
816.253	0.0163841
816.331	0.0165614
816.409	0.0164935
816.487	0.0165173
816.565	0.0164599
816.643	0.0165334
816.721	0.0164082
816.799	0.0164877
816.878	0.0165413
816.956	0.0165038
817.034	0.0164153
817.112	0.0165674
817.190	0.0164460
817.268	0.0165725
817.346	0.0164567
817.424	0.0164708
817.503	0.0164285
817.581	0.0164659
817.659	0.0165367
817.737	0.0165235
817.815	0.0164503
817.893	0.0163920
817.971	0.0164670
818.049	0.0165032
818.128	0.0163598
818.206	0.0165121
818.284	0.0165668
818.362	0.0163385
818.440	0.0164824
818.518	0.0166755
818.596	0.0164651
818.674	0.0165443
818.753	0.0163482
818.831	0.0163768
818.909	0.0164268
818.987	0.0165302
819.065	0.0163851
819.143	0.0164980
819.221	0.0165338
819.299	0.0164528
819.378	0.0163065
819.456	0.0163564
819.534	0.0164853
819.612	0.0165146
819.690	0.0163923
819.768	0.0163951
819.846	0.0163254
819.924	0.0165141
820.003	0.0163395
820.081	0.0163683
820.159	0.0163410
820.237	0.0164488
820.315	0.0163656
820.393	0.0163898
820.471	0.0164774
820.549	0.0164213
820.628	0.0163892
820.706	0.0163947
820.784	0.0164609
820.862	0.0165870
820.940	0.0163863
821.018	0.0164481
821.096	0.0165339
821.174	0.0164863
821.253	0.0164948
821.331	0.0165956
821.409	0.0165673
821.487	0.0164883
821.565	0.0164890
821.643	0.0164114
821.721	0.0165579
821.799	0.0165096
821.878	0.0166012
821.956	0.0164854
822.034	0.0165006
822.112	0.0164704
822.190	0.0164382
822.268	0.0165038
822.346	0.0165237
822.424	0.0165665
822.503	0.0165282
822.581	0.0166262
822.659	0.0163777
822.737	0.0165366
822.815	0.0166005
822.893	0.0164666
822.971	0.0165298
823.049	0.0165709
823.128	0.0165730
823.206	0.0165703
823.284	0.0166081
823.362	0.0164622
823.440	0.0165899
823.518	0.0166674
823.596	0.0166109
823.674	0.0166063
823.753	0.0166582
823.831	0.0166420
823.909	0.0165833
823.987	0.0165730
824.065	0.0165089
824.143	0.0166282
824.221	0.0165196
824.299	0.0165900
824.378	0.0166006
824.456	0.0165749
824.534	0.0165728
824.612	0.0166238
824.690	0.0167324
824.768	0.0168116
824.846	0.0166653
824.924	0.0164781
825.003	0.0167068
825.081	0.0166497
825.159	0.0165572
825.237	0.0165516
825.315	0.0164536
825.393	0.0165509
825.471	0.0165992
825.549	0.0164954
825.628	0.0165675
825.706	0.0165767
825.784	0.0164861
825.862	0.0165390
825.940	0.0165834
826.018	0.0166015
826.096	0.0165260
826.174	0.0165770
826.253	0.0165285
826.331	0.0165654
826.409	0.0164887
826.487	0.0165809
826.565	0.0165351
826.643	0.0164731
826.721	0.0163245
826.799	0.0165015
826.878	0.0165186
826.956	0.0164786
827.034	0.0164988
827.112	0.0164936
827.190	0.0164699
827.268	0.0163825
827.346	0.0165180
827.424	0.0164207
827.503	0.0165205
827.581	0.0164261
827.659	0.0164633
827.737	0.0164063
827.815	0.0164737
827.893	0.0165154
827.971	0.0164196
828.049	0.0166812
828.128	0.0165027
828.206	0.0165625
828.284	0.0164483
828.362	0.0165441
828.440	0.0165688
828.518	0.0166466
828.596	0.0164343
828.674	0.0164092
828.753	0.0164948
828.831	0.0164987
828.909	0.0164674
828.987	0.0167365
829.065	0.0166613
829.143	0.0166187
829.221	0.0165613
829.299	0.0165556
829.378	0.0166934
829.456	0.0165383
829.534	0.0164574
829.612	0.0165888
829.690	0.0165248
829.768	0.0166238
829.846	0.0164747
829.924	0.0166628
830.003	0.0167218
830.081	0.0165751
830.159	0.0164816
830.237	0.0165691
830.315	0.0165707
830.393	0.0166225
830.471	0.0164845
830.549	0.0166095
830.628	0.0165755
830.706	0.0166859
830.784	0.0164091
830.862	0.0166542
830.940	0.0166399
831.018	0.0164549
831.096	0.0164121
831.174	0.0167377
831.253	0.0165942
831.331	0.0164986
831.409	0.0164591
831.487	0.0164877
831.565	0.0166093
831.643	0.0166130
831.721	0.0165224
831.799	0.0166064
831.878	0.0166670
831.956	0.0164917
832.034	0.0165657
832.112	0.0165829
832.190	0.0165820
832.268	0.0165192
832.346	0.0165805
832.424	0.0165421
832.503	0.0166433
832.581	0.0165077
832.659	0.0165588
832.737	0.0164685
832.815	0.0165903
832.893	0.0166717
832.971	0.0165346
833.049	0.0165661
833.128	0.0163898
833.206	0.0164732
833.284	0.0164935
833.362	0.0165041
833.440	0.0166518
833.518	0.0165102
833.596	0.0164804
833.674	0.0166527
833.753	0.0165713
833.831	0.0163889
833.909	0.0164402
833.987	0.0165664
834.065	0.0165616
834.143	0.0165299
834.221	0.0165215
834.299	0.0165549
834.378	0.0164636
834.456	0.0164905
834.534	0.0164651
834.612	0.0164609
834.690	0.0164571
834.768	0.0163223
834.846	0.0164098
834.924	0.0165411
835.003	0.0164330
835.081	0.0164655
835.159	0.0165234
835.237	0.0165031
835.315	0.0165546
835.393	0.0165569
835.471	0.0165397
835.549	0.0165279
835.628	0.0165393
835.706	0.0165490
835.784	0.0164996
835.862	0.0165353
835.940	0.0166338
836.018	0.0164880
836.096	0.0164865
836.174	0.0165370
836.253	0.0164748
836.331	0.0163571
836.409	0.0165166
836.487	0.0165504
836.565	0.0166169
836.643	0.0166628
836.721	0.0165372
836.799	0.0165650
836.878	0.0164964
836.956	0.0166158
837.034	0.0166621
837.112	0.0165501
837.190	0.0166058
837.268	0.0165099
837.346	0.0164178
837.424	0.0165373
837.503	0.0166675
837.581	0.0164830
837.659	0.0165005
837.737	0.0164905
837.815	0.0165264
837.893	0.0165875
837.971	0.0164699
838.049	0.0164645
838.128	0.0164999
838.206	0.0165889
838.284	0.0164341
838.362	0.0164638
838.440	0.0164939
838.518	0.0164782
838.596	0.0165288
838.674	0.0164565
838.753	0.0165121
838.831	0.0165320
838.909	0.0165092
838.987	0.0166204
839.065	0.0164304
839.143	0.0163271
839.221	0.0165891
839.299	0.0164613
839.378	0.0164638
839.456	0.0164029
839.534	0.0165987
839.612	0.0165326
839.690	0.0165825
839.768	0.0167061
839.846	0.0164423
839.924	0.0164277
840.003	0.0165332
840.081	0.0164536
840.159	0.0166361
840.237	0.0165694
840.315	0.0164634
840.393	0.0166111
840.471	0.0166032
840.549	0.0165918
840.628	0.0165769
840.706	0.0166207
840.784	0.0165816
840.862	0.0166556
840.940	0.0166579
841.018	0.0164861
841.096	0.0164680
841.174	0.0165453
841.253	0.0164552
841.331	0.0166191
841.409	0.0165517
841.487	0.0166201
841.565	0.0164251
841.643	0.0163568
841.721	0.0165070
841.799	0.0164171
841.878	0.0164490
841.956	0.0165413
842.034	0.0164063
842.112	0.0166278
842.190	0.0164377
842.268	0.0163973
842.346	0.0165142
842.424	0.0164927
842.503	0.0165814
842.581	0.0165123
842.659	0.0163744
842.737	0.0165802
842.815	0.0164738
842.893	0.0165189
842.971	0.0165741
843.049	0.0163965
843.128	0.0163551
843.206	0.0165221
843.284	0.0165219
843.362	0.0165031
843.440	0.0165291
843.518	0.0164764
843.596	0.0165301
843.674	0.0165371
843.753	0.0165954
843.831	0.0165784
843.909	0.0166717
843.987	0.0165990
844.065	0.0165871
844.143	0.0165757
844.221	0.0164749
844.299	0.0165721
844.378	0.0166134
844.456	0.0168416
844.534	0.0165563
844.612	0.0165076
844.690	0.0167644
844.768	0.0165289
844.846	0.0165417
844.924	0.0167165
845.003	0.0165023
845.081	0.0164864
845.159	0.0165627
845.237	0.0164559
845.315	0.0167060
845.393	0.0165657
845.471	0.0166488
845.549	0.0165009
845.628	0.0165395
845.706	0.0165115
845.784	0.0166540
845.862	0.0165525
845.940	0.0165345
846.018	0.0165589
846.096	0.0165388
846.174	0.0164525
846.253	0.0165695
846.331	0.0167287
846.409	0.0165764
846.487	0.0165780
846.565	0.0166278
846.643	0.0165233
846.721	0.0166252
846.799	0.0166110
846.878	0.0166259
846.956	0.0166824
847.034	0.0166134
847.112	0.0165229
847.190	0.0164181
847.268	0.0165620
847.346	0.0165894
847.424	0.0166042
847.503	0.0166095
847.581	0.0165759
847.659	0.0165611
847.737	0.0165600
847.815	0.0164732
847.893	0.0166501
847.971	0.0164903
848.049	0.0165681
848.128	0.0167007
848.206	0.0165434
848.284	0.0164883
848.362	0.0165105
848.440	0.0165590
848.518	0.0165431
848.596	0.0166848
848.674	0.0165331
848.753	0.0165340
848.831	0.0166471
848.909	0.0166087
848.987	0.0164925
849.065	0.0164127
849.143	0.0164376
849.221	0.0165057
849.299	0.0164597
849.378	0.0164932
849.456	0.0164790
849.534	0.0164945
849.612	0.0163897
849.690	0.0163623
849.768	0.0164188
849.846	0.0165634
849.924	0.0165475
850.003	0.0164798
850.081	0.0164674
850.159	0.0165676
850.237	0.0164169
850.315	0.0164511
850.393	0.0166068
850.471	0.0163574
850.549	0.0164425
850.628	0.0164605
850.706	0.0164833
850.784	0.0165241
850.862	0.0165164
850.940	0.0166080
851.018	0.0164519
851.096	0.0164294
851.174	0.0166623
851.253	0.0165992
851.331	0.0164805
851.409	0.0164977
851.487	0.0164961
851.565	0.0165169
851.643	0.0164428
851.721	0.0165241
851.799	0.0164860
851.878	0.0164756
851.956	0.0165564
852.034	0.0164013
852.112	0.0164445
852.190	0.0165085
852.268	0.0163397
852.346	0.0163505
852.424	0.0165083
852.503	0.0164055
852.581	0.0163906
852.659	0.0165681
852.737	0.0166630
852.815	0.0164314
852.893	0.0164258
852.971	0.0164908
853.049	0.0164369
853.128	0.0165342
853.206	0.0164799
853.284	0.0164531
853.362	0.0165437
853.440	0.0165501
853.518	0.0166373
853.596	0.0164862
853.674	0.0166834
853.753	0.0166980
853.831	0.0165350
853.909	0.0165010
853.987	0.0166656
854.065	0.0166344
854.143	0.0165601
854.221	0.0166998
854.299	0.0166886
854.378	0.0166066
854.456	0.0166356
854.534	0.0166119
854.612	0.0166409
854.690	0.0166439
854.768	0.0167266
854.846	0.0165746
854.924	0.0166425
855.003	0.0166879
855.081	0.0166689
855.159	0.0167175
855.237	0.0165778
855.315	0.0165813
855.393	0.0164797
855.471	0.0165614
855.549	0.0165778
855.628	0.0166159
855.706	0.0164582
855.784	0.0165684
855.862	0.0164753
855.940	0.0164613
856.018	0.0165985
856.096	0.0165704
856.174	0.0164710
856.253	0.0164734
856.331	0.0165386
856.409	0.0166133
856.487	0.0164492
856.565	0.0165012
856.643	0.0165461
856.721	0.0166833
856.799	0.0165710
856.878	0.0165592
856.956	0.0165518
857.034	0.0165707
857.112	0.0165749
857.190	0.0165854
857.268	0.0164740
857.346	0.0165458
857.424	0.0166358
857.503	0.0166142
857.581	0.0166582
857.659	0.0165611
857.737	0.0165913
857.815	0.0165723
857.893	0.0165604
857.971	0.0166152
858.049	0.0165397
858.128	0.0165784
858.206	0.0165473
858.284	0.0166000
858.362	0.0166196
858.440	0.0166464
858.518	0.0166236
858.596	0.0165469
858.674	0.0166117
858.753	0.0165352
858.831	0.0166763
858.909	0.0166594
858.987	0.0165434
859.065	0.0165485
859.143	0.0167385
859.221	0.0165825
859.299	0.0165338
859.378	0.0165242
859.456	0.0166606
859.534	0.0165639
859.612	0.0165624
859.690	0.0166247
859.768	0.0165528
859.846	0.0166436
859.924	0.0165783
860.003	0.0166319
860.081	0.0166197
860.159	0.0166461
860.237	0.0165904
860.315	0.0166386
860.393	0.0166790
860.471	0.0166378
860.549	0.0166750
860.628	0.0166794
860.706	0.0167941
860.784	0.0167487
860.862	0.0166861
860.940	0.0166290
861.018	0.0166635
861.096	0.0166874
861.174	0.0166814
861.253	0.0166866
861.331	0.0165179
861.409	0.0166305
861.487	0.0166984
861.565	0.0166422
861.643	0.0166238
861.721	0.0166249
861.799	0.0166364
861.878	0.0167349
861.956	0.0166447
862.034	0.0166193
862.112	0.0167992
862.190	0.0167123
862.268	0.0166884
862.346	0.0166492
862.424	0.0166031
862.503	0.0166915
862.581	0.0166315
862.659	0.0166769
862.737	0.0167099
862.815	0.0166366
862.893	0.0166856
862.971	0.0166835
863.049	0.0165856
863.128	0.0166854
863.206	0.0165228
863.284	0.0165082
863.362	0.0166495
863.440	0.0165784
863.518	0.0166031
863.596	0.0166912
863.674	0.0166550
863.753	0.0166049
863.831	0.0166589
863.909	0.0166833
863.987	0.0166387
864.065	0.0164491
864.143	0.0165543
864.221	0.0166863
864.299	0.0166069
864.378	0.0165138
864.456	0.0164573
864.534	0.0164321
864.612	0.0165375
864.690	0.0166102
864.768	0.0166861
864.846	0.0166116
864.924	0.0166188
865.003	0.0166415
865.081	0.0166489
865.159	0.0166198
865.237	0.0166312
865.315	0.0166251
865.393	0.0166337
865.471	0.0166755
865.549	0.0165816
865.628	0.0166091
865.706	0.0165874
865.784	0.0166040
865.862	0.0165967
865.940	0.0165753
866.018	0.0166924
866.096	0.0165977
866.174	0.0166374
866.253	0.0166434
866.331	0.0165987
866.409	0.0166923
866.487	0.0165557
866.565	0.0166022
866.643	0.0165922
866.721	0.0166518
866.799	0.0166423
866.878	0.0165160
866.956	0.0165795
867.034	0.0166635
867.112	0.0166170
867.190	0.0167120
867.268	0.0165236
867.346	0.0166630
867.424	0.0167197
867.503	0.0167109
867.581	0.0165898
867.659	0.0165955
867.737	0.0166319
867.815	0.0165101
867.893	0.0165217
867.971	0.0164973
868.049	0.0166628
868.128	0.0165627
868.206	0.0164967
868.284	0.0166739
868.362	0.0164510
868.440	0.0165368
868.518	0.0165067
868.596	0.0166137
868.674	0.0166515
868.753	0.0165537
868.831	0.0165450
868.909	0.0164391
868.987	0.0164558
869.065	0.0165354
869.143	0.0165580
869.221	0.0164367
869.299	0.0164458
869.378	0.0164613
869.456	0.0164326
869.534	0.0166461
869.612	0.0165799
869.690	0.0164526
869.768	0.0163581
869.846	0.0164180
869.924	0.0165114
870.003	0.0163772
870.081	0.0164104
870.159	0.0164343
870.237	0.0165147
870.315	0.0164533
870.393	0.0165254
870.471	0.0163409
870.549	0.0164330
870.628	0.0165359
870.706	0.0164916
870.784	0.0164992
870.862	0.0165127
870.940	0.0166098
871.018	0.0164941
871.096	0.0164692
871.174	0.0165385
871.253	0.0166332
871.331	0.0165350
871.409	0.0166140
871.487	0.0166274
871.565	0.0165495
871.643	0.0165624
871.721	0.0166581
871.799	0.0165256
871.878	0.0166457
871.956	0.0166745
872.034	0.0167612
872.112	0.0167566
872.190	0.0167629
872.268	0.0167187
872.346	0.0163722
872.424	0.0166564
872.503	0.0166366
872.581	0.0166710
872.659	0.0165655
872.737	0.0165094
872.815	0.0165380
872.893	0.0165308
872.971	0.0166019
873.049	0.0165028
873.128	0.0164763
873.206	0.0166061
873.284	0.0165488
873.362	0.0165793
873.440	0.0165779
873.518	0.0166529
873.596	0.0166007
873.674	0.0163767
873.753	0.0165319
873.831	0.0163940
873.909	0.0163343
873.987	0.0165173
874.065	0.0164778
874.143	0.0165173
874.221	0.0166275
874.299	0.0164145
874.378	0.0163022
874.456	0.0165888
874.534	0.0164846
874.612	0.0166256
874.690	0.0164909
874.768	0.0164303
874.846	0.0164456
874.924	0.0164350
875.003	0.0165212
875.081	0.0164790
875.159	0.0163171
875.237	0.0164955
875.315	0.0163856
875.393	0.0165273
875.471	0.0166052
875.549	0.0166697
875.628	0.0165714
875.706	0.0165190
875.784	0.0165115
875.862	0.0165888
875.940	0.0166859
876.018	0.0166485
876.096	0.0165221
876.174	0.0166063
876.253	0.0165990
876.331	0.0167102
876.409	0.0166430
876.487	0.0165201
876.565	0.0165036
876.643	0.0165435
876.721	0.0166188
876.799	0.0166064
876.878	0.0165632
876.956	0.0164981
877.034	0.0165480
877.112	0.0164890
877.190	0.0165028
877.268	0.0164671
877.346	0.0164525
877.424	0.0164884
877.503	0.0166185
877.581	0.0164970
877.659	0.0164447
877.737	0.0166020
877.815	0.0165745
877.893	0.0164970
877.971	0.0163182
878.049	0.0164177
878.128	0.0163909
878.206	0.0165005
878.284	0.0164831
878.362	0.0166049
878.440	0.0165683
878.518	0.0163960
878.596	0.0163617
878.674	0.0164596
878.753	0.0165740
878.831	0.0162788
878.909	0.0164179
878.987	0.0164938
879.065	0.0164904
879.143	0.0165327
879.221	0.0164072
879.299	0.0165045
879.378	0.0163993
879.456	0.0164804
879.534	0.0166214
879.612	0.0165470
879.690	0.0166091
879.768	0.0166168
879.846	0.0165384
879.924	0.0165088
880.003	0.0166290
880.081	0.0166082
880.159	0.0164963
880.237	0.0166543
880.315	0.0165654
880.393	0.0165320
880.471	0.0166886
880.549	0.0165700
880.628	0.0165529
880.706	0.0164572
880.784	0.0164963
880.862	0.0164836
880.940	0.0165183
881.018	0.0165957
881.096	0.0165642
881.174	0.0166505
881.253	0.0166025
881.331	0.0165340
881.409	0.0164790
881.487	0.0166151
881.565	0.0165578
881.643	0.0165486
881.721	0.0165517
881.799	0.0165012
881.878	0.0164935
881.956	0.0166077
882.034	0.0166131
882.112	0.0164917
882.190	0.0165027
882.268	0.0166521
882.346	0.0164948
882.424	0.0166139
882.503	0.0166825
882.581	0.0166370
882.659	0.0165719
882.737	0.0166344
882.815	0.0166477
882.893	0.0166810
882.971	0.0166467
883.049	0.0164311
883.128	0.0166177
883.206	0.0167119
883.284	0.0164781
883.362	0.0165163
883.440	0.0166973
883.518	0.0165793
883.596	0.0164822
883.674	0.0165627
883.753	0.0165277
883.831	0.0164082
883.909	0.0165875
883.987	0.0165369
884.065	0.0166397
884.143	0.0165950
884.221	0.0167241
884.299	0.0165519
884.378	0.0165652
884.456	0.0167010
884.534	0.0167153
884.612	0.0165923
884.690	0.0166218
884.768	0.0164043
884.846	0.0165201
884.924	0.0166592
885.003	0.0166361
885.081	0.0165937
885.159	0.0165678
885.237	0.0166304
885.315	0.0164581
885.393	0.0165254
885.471	0.0165499
885.549	0.0164743
885.628	0.0166086
885.706	0.0164703
885.784	0.0166012
885.862	0.0166726
885.940	0.0165711
886.018	0.0164903
886.096	0.0165101
886.174	0.0166225
886.253	0.0166827
886.331	0.0165631
886.409	0.0166555
886.487	0.0165290
886.565	0.0165511
886.643	0.0165403
886.721	0.0164764
886.799	0.0166228
886.878	0.0166338
886.956	0.0165469
887.034	0.0165675
887.112	0.0165914
887.190	0.0165498
887.268	0.0165240
887.346	0.0166708
887.424	0.0165517
887.503	0.0165452
887.581	0.0165466
887.659	0.0166150
887.737	0.0166803
887.815	0.0166944
887.893	0.0165834
887.971	0.0165719
888.049	0.0166845
888.128	0.0165738
888.206	0.0166164
888.284	0.0166048
888.362	0.0164888
888.440	0.0165407
888.518	0.0165517
888.596	0.0164843
888.674	0.0165594
888.753	0.0165787
888.831	0.0165458
888.909	0.0166047
888.987	0.0164686
889.065	0.0165610
889.143	0.0165887
889.221	0.0165874
889.299	0.0165908
889.378	0.0166425
889.456	0.0165022
889.534	0.0165005
889.612	0.0166753
889.690	0.0167110
889.768	0.0166060
889.846	0.0165849
889.924	0.0165648
890.003	0.0166259
890.081	0.0166498
890.159	0.0166453
890.237	0.0165737
890.315	0.0166653
890.393	0.0167015
890.471	0.0166128
890.549	0.0165664
890.628	0.0166774
890.706	0.0165668
890.784	0.0165357
890.862	0.0165115
890.940	0.0166717
891.018	0.0166054
891.096	0.0166075
891.174	0.0166019
891.253	0.0164925
891.331	0.0166004
891.409	0.0165556
891.487	0.0165503
891.565	0.0165662
891.643	0.0165002
891.721	0.0165028
891.799	0.0164642
891.878	0.0164820
891.956	0.0165989
892.034	0.0165759
892.112	0.0166216
892.190	0.0165952
892.268	0.0166045
892.346	0.0165527
892.424	0.0164654
892.503	0.0165870
892.581	0.0165331
892.659	0.0163521
892.737	0.0164458
892.815	0.0165211
892.893	0.0165320
892.971	0.0163110
893.049	0.0164352
893.128	0.0164830
893.206	0.0163042
893.284	0.0164970
893.362	0.0164299
893.440	0.0164008
893.518	0.0162862
893.596	0.0163206
893.674	0.0164236
893.753	0.0165162
893.831	0.0163837
893.909	0.0164013
893.987	0.0164685
894.065	0.0165009
894.143	0.0165156
894.221	0.0163482
894.299	0.0164922
894.378	0.0164231
894.456	0.0165534
894.534	0.0164078
894.612	0.0163660
894.690	0.0163221
894.768	0.0163869
894.846	0.0163852
894.924	0.0165334
895.003	0.0163973
895.081	0.0163017
895.159	0.0164117
895.237	0.0163838
895.315	0.0164806
895.393	0.0162431
895.471	0.0164886
895.549	0.0165179
895.628	0.0162718
895.706	0.0162824
895.784	0.0163863
895.862	0.0164843
895.940	0.0163783
896.018	0.0162654
896.096	0.0163877
896.174	0.0165018
896.253	0.0163723
896.331	0.0164024
896.409	0.0164836
896.487	0.0163303
896.565	0.0164709
896.643	0.0164826
896.721	0.0164494
896.799	0.0165187
896.878	0.0164828
896.956	0.0163517
897.034	0.0165159
897.112	0.0165971
897.190	0.0166401
897.268	0.0163813
897.346	0.0165943
897.424	0.0164321
897.503	0.0166215
897.581	0.0165845
897.659	0.0164124
897.737	0.0164874
897.815	0.0164500
897.893	0.0165813
897.971	0.0165097
898.049	0.0165359
898.128	0.0165140
898.206	0.0165401
898.284	0.0165561
898.362	0.0165733
898.440	0.0165939
898.518	0.0164742
898.596	0.0166161
898.674	0.0163933
898.753	0.0165509
898.831	0.0165968
898.909	0.0166285
898.987	0.0165351
899.065	0.0166193
899.143	0.0166743
899.221	0.0165955
899.299	0.0165891
899.378	0.0165855
899.456	0.0166840
899.534	0.0164661
899.612	0.0166899
899.690	0.0167515
899.768	0.0165437
899.846	0.0165325
899.924	0.0164041
900.003	0.0165279
900.081	0.0165475
900.159	0.0164608
900.237	0.0163622
900.315	0.0165315
900.393	0.0165648
900.471	0.0164745
900.549	0.0165335
900.628	0.0164317
900.706	0.0165503
900.784	0.0165092
900.862	0.0164363
900.940	0.0163580
901.018	0.0163294
901.096	0.0165027
901.174	0.0166105
901.253	0.0164707
901.331	0.0164880
901.409	0.0165672
901.487	0.0163896
901.565	0.0164836
901.643	0.0164947
901.721	0.0164853
901.799	0.0164831
901.878	0.0164528
901.956	0.0163912
902.034	0.0164040
902.112	0.0165528
902.190	0.0165610
902.268	0.0164671
902.346	0.0164603
902.424	0.0165532
902.503	0.0166461
902.581	0.0165601
902.659	0.0165749
902.737	0.0166010
902.815	0.0165841
902.893	0.0165939
902.971	0.0166225
903.049	0.0166930
903.128	0.0165376
903.206	0.0164880
903.284	0.0164819
903.362	0.0164632
903.440	0.0165929
903.518	0.0165261
903.596	0.0164382
903.674	0.0164803
903.753	0.0166806
903.831	0.0164745
903.909	0.0166566
903.987	0.0165216
904.065	0.0164288
904.143	0.0165604
904.221	0.0165581
904.299	0.0164673
904.378	0.0164361
904.456	0.0164245
904.534	0.0164883
904.612	0.0163412
904.690	0.0164117
904.768	0.0165134
904.846	0.0164738
904.924	0.0163434
905.003	0.0163417
905.081	0.0164173
905.159	0.0164725
905.237	0.0164410
905.315	0.0164511
905.393	0.0164361
905.471	0.0163348
905.549	0.0164342
905.628	0.0164631
905.706	0.0164143
905.784	0.0163776
905.862	0.0163404
905.940	0.0163255
906.018	0.0163863
906.096	0.0164822
906.174	0.0164330
906.253	0.0165206
906.331	0.0163852
906.409	0.0164435
906.487	0.0164236
906.565	0.0164438
906.643	0.0164754
906.721	0.0165324
906.799	0.0165370
906.878	0.0163576
906.956	0.0165166
907.034	0.0164513
907.112	0.0165339
907.190	0.0163091
907.268	0.0163929
907.346	0.0164506
907.424	0.0165192
907.503	0.0163735
907.581	0.0163214
907.659	0.0162691
907.737	0.0163768
907.815	0.0163764
907.893	0.0164124
907.971	0.0163162
908.049	0.0164515
908.128	0.0164375
908.206	0.0164380
908.284	0.0164000
908.362	0.0165645
908.440	0.0163400
908.518	0.0164236
908.596	0.0166607
908.674	0.0164296
908.753	0.0163924
908.831	0.0163852
908.909	0.0162805
908.987	0.0163806
909.065	0.0164874
909.143	0.0163753
909.221	0.0162787
909.299	0.0163170
909.378	0.0164639
909.456	0.0165179
909.534	0.0164302
909.612	0.0164378
909.690	0.0165012
909.768	0.0164971
909.846	0.0166066
909.924	0.0166093
910.003	0.0164050
910.081	0.0165411
910.159	0.0163850
910.237	0.0163109
910.315	0.0164201
910.393	0.0164633
910.471	0.0165366
910.549	0.0164321
910.628	0.0164201
910.706	0.0164524
910.784	0.0165063
910.862	0.0165720
910.940	0.0165346
911.018	0.0164603
911.096	0.0164944
911.174	0.0165765
911.253	0.0164981
911.331	0.0164956
911.409	0.0165669
911.487	0.0166146
911.565	0.0164165
911.643	0.0165930
911.721	0.0166524
911.799	0.0165442
911.878	0.0165716
911.956	0.0164938
912.034	0.0166036
912.112	0.0165477
912.190	0.0163796
912.268	0.0164935
912.346	0.0165079
912.424	0.0165913
912.503	0.0166062
912.581	0.0165186
912.659	0.0164864
912.737	0.0164273
912.815	0.0165540
912.893	0.0166250
912.971	0.0164606
913.049	0.0165009
913.128	0.0165704
913.206	0.0166333
913.284	0.0165668
913.362	0.0165391
913.440	0.0163441
913.518	0.0165195
913.596	0.0164546
913.674	0.0164947
913.753	0.0165601
913.831	0.0164513
913.909	0.0164805
913.987	0.0165251
914.065	0.0165074
914.143	0.0164761
914.221	0.0163340
914.299	0.0164206
914.378	0.0164087
914.456	0.0163616
914.534	0.0165437
914.612	0.0164363
914.690	0.0164688
914.768	0.0164952
914.846	0.0164823
914.924	0.0164487
915.003	0.0164407
915.081	0.0163176
915.159	0.0164687
915.237	0.0164766
915.315	0.0165668
915.393	0.0164290
915.471	0.0164542
915.549	0.0164196
915.628	0.0163898
915.706	0.0164153
915.784	0.0164646
915.862	0.0164548
915.940	0.0163662
916.018	0.0165418
916.096	0.0164324
916.174	0.0164639
916.253	0.0164023
916.331	0.0164908
916.409	0.0165488
916.487	0.0163478
916.565	0.0165533
916.643	0.0166749
916.721	0.0165923
916.799	0.0165429
916.878	0.0165494
916.956	0.0165733
917.034	0.0166110
917.112	0.0164532
917.190	0.0165870
917.268	0.0165573
917.346	0.0165318
917.424	0.0166064
917.503	0.0166512
917.581	0.0164373
917.659	0.0164675
917.737	0.0165160
917.815	0.0165839
917.893	0.0166181
917.971	0.0166237
918.049	0.0165284
918.128	0.0164536
918.206	0.0166485
918.284	0.0165923
918.362	0.0165310
918.440	0.0165073
918.518	0.0165651
918.596	0.0164918
918.674	0.0165580
918.753	0.0165533
918.831	0.0164942
918.909	0.0164379
918.987	0.0164794
919.065	0.0165715
919.143	0.0165897
919.221	0.0164560
919.299	0.0166681
919.378	0.0164986
919.456	0.0165194
919.534	0.0163826
919.612	0.0165668
919.690	0.0164978
919.768	0.0166314
919.846	0.0164494
919.924	0.0164129
920.003	0.0166724
920.081	0.0164799
920.159	0.0165357
920.237	0.0164991
920.315	0.0165869
920.393	0.0166383
920.471	0.0165837
920.549	0.0165446
920.628	0.0164371
920.706	0.0165836
920.784	0.0166387
920.862	0.0165906
920.940	0.0164803
921.018	0.0164702
921.096	0.0165442
921.174	0.0165328
921.253	0.0165706
921.331	0.0165868
921.409	0.0165597
921.487	0.0164463
921.565	0.0165759
921.643	0.0166158
921.721	0.0165459
921.799	0.0166617
921.878	0.0166935
921.956	0.0164232
922.034	0.0167003
922.112	0.0166459
922.190	0.0165945
922.268	0.0165586
922.346	0.0165715
922.424	0.0165631
922.503	0.0165588
922.581	0.0165837
922.659	0.0165579
922.737	0.0164317
922.815	0.0166388
922.893	0.0165626
922.971	0.0164103
923.049	0.0163173
923.128	0.0164928
923.206	0.0164249
923.284	0.0164965
923.362	0.0164410
923.440	0.0164331
923.518	0.0164905
923.596	0.0164436
923.674	0.0164636
923.753	0.0165527
923.831	0.0165097
923.909	0.0164542
923.987	0.0165778
924.065	0.0164767
924.143	0.0163799
924.221	0.0165378
924.299	0.0164297
924.378	0.0165799
924.456	0.0166502
924.534	0.0166098
924.612	0.0166007
924.690	0.0164524
924.768	0.0165644
924.846	0.0165595
924.924	0.0166341
925.003	0.0166748
925.081	0.0165613
925.159	0.0165566
925.237	0.0166193
925.315	0.0166364
925.393	0.0165659
925.471	0.0165626
925.549	0.0164217
925.628	0.0165034
925.706	0.0165446
925.784	0.0167724
925.862	0.0165251
925.940	0.0163725
926.018	0.0164591
926.096	0.0166124
926.174	0.0166348
926.253	0.0164194
926.331	0.0166456
926.409	0.0166238
926.487	0.0165917
926.565	0.0165742
926.643	0.0164977
926.721	0.0166068
926.799	0.0165778
926.878	0.0165898
926.956	0.0165395
927.034	0.0165356
927.112	0.0166908
927.190	0.0165332
927.268	0.0164027
927.346	0.0164639
927.424	0.0164587
927.503	0.0164227
927.581	0.0165144
927.659	0.0165230
927.737	0.0165331
927.815	0.0164796
927.893	0.0164619
927.971	0.0165170
928.049	0.0165079
928.128	0.0164928
928.206	0.0164932
928.284	0.0165813
928.362	0.0165776
928.440	0.0165051
928.518	0.0165012
928.596	0.0165334
928.674	0.0165185
928.753	0.0165510
928.831	0.0165521
928.909	0.0164560
928.987	0.0163774
929.065	0.0165256
929.143	0.0164139
929.221	0.0163503
929.299	0.0164506
929.378	0.0165636
929.456	0.0163678
929.534	0.0164040
929.612	0.0165186
929.690	0.0164752
929.768	0.0163197
929.846	0.0163608
929.924	0.0164632
930.003	0.0164702
930.081	0.0162878
930.159	0.0165690
930.237	0.0166058
930.315	0.0163880
930.393	0.0164703
930.471	0.0164862
930.549	0.0164883
930.628	0.0165035
930.706	0.0163739
930.784	0.0164394
930.862	0.0165836
930.940	0.0163766
931.018	0.0164415
931.096	0.0164999
931.174	0.0165616
931.253	0.0165045
931.331	0.0164890
931.409	0.0165939
931.487	0.0164375
931.565	0.0165814
931.643	0.0164131
931.721	0.0165148
931.799	0.0166660
931.878	0.0165959
931.956	0.0165762
932.034	0.0165405
932.112	0.0165590
932.190	0.0165968
932.268	0.0166648
932.346	0.0165792
932.424	0.0165572
932.503	0.0165036
932.581	0.0166460
932.659	0.0166101
932.737	0.0166322
932.815	0.0167123
932.893	0.0164499
932.971	0.0165096
933.049	0.0165544
933.128	0.0165295
933.206	0.0165285
933.284	0.0165874
933.362	0.0166788
933.440	0.0166005
933.518	0.0165318
933.596	0.0164983
933.674	0.0166545
933.753	0.0166280
933.831	0.0166355
933.909	0.0165883
933.987	0.0166714
934.065	0.0165820
934.143	0.0164674
934.221	0.0166082
934.299	0.0165182
934.378	0.0166000
934.456	0.0167213
934.534	0.0165163
934.612	0.0165839
934.690	0.0165915
934.768	0.0165284
934.846	0.0165997
934.924	0.0166609
935.003	0.0166544
935.081	0.0165707
935.159	0.0165246
935.237	0.0164807
935.315	0.0166344
935.393	0.0166443
935.471	0.0167278
935.549	0.0165916
935.628	0.0164963
935.706	0.0166291
935.784	0.0165926
935.862	0.0165295
935.940	0.0164143
936.018	0.0165919
936.096	0.0165702
936.174	0.0165001
936.253	0.0164223
936.331	0.0165083
936.409	0.0164224
936.487	0.0165902
936.565	0.0164125
936.643	0.0165030
936.721	0.0165645
936.799	0.0164484
936.878	0.0164988
936.956	0.0165412
937.034	0.0164794
937.112	0.0164897
937.190	0.0164883
937.268	0.0165456
937.346	0.0165264
937.424	0.0164422
937.503	0.0165186
937.581	0.0165521
937.659	0.0164806
937.737	0.0164644
937.815	0.0164318
937.893	0.0164899
937.971	0.0165420
938.049	0.0166716
938.128	0.0165478
938.206	0.0164336
938.284	0.0166279
938.362	0.0166735
938.440	0.0165878
938.518	0.0165804
938.596	0.0164924
938.674	0.0165472
938.753	0.0165537
938.831	0.0166325
938.909	0.0165543
938.987	0.0165101
939.065	0.0166265
939.143	0.0166175
939.221	0.0166644
939.299	0.0167069
939.378	0.0166033
939.456	0.0164862
939.534	0.0166281
939.612	0.0165541
939.690	0.0165749
939.768	0.0165982
939.846	0.0166381
939.924	0.0165585
940.003	0.0165021
940.081	0.0167215
940.159	0.0165804
940.237	0.0164666
940.315	0.0165617
940.393	0.0165738
940.471	0.0164529
940.549	0.0165298
940.628	0.0166783
940.706	0.0166412
940.784	0.0165506
940.862	0.0166132
940.940	0.0165028
941.018	0.0164951
941.096	0.0165289
941.174	0.0166383
941.253	0.0165072
941.331	0.0165797
941.409	0.0166324
941.487	0.0166422
941.565	0.0164777
941.643	0.0165845
941.721	0.0165646
941.799	0.0164425
941.878	0.0166760
941.956	0.0167639
942.034	0.0165605
942.112	0.0165225
942.190	0.0166137
942.268	0.0165559
942.346	0.0164800
942.424	0.0164431
942.503	0.0166160
942.581	0.0166137
942.659	0.0166468
942.737	0.0165788
942.815	0.0166128
942.893	0.0166861
942.971	0.0165768
943.049	0.0165511
943.128	0.0165853
943.206	0.0165064
943.284	0.0165497
943.362	0.0166437
943.440	0.0166246
943.518	0.0166219
943.596	0.0165743
943.674	0.0167093
943.753	0.0165246
943.831	0.0167565
943.909	0.0166534
943.987	0.0166786
944.065	0.0165129
944.143	0.0166248
944.221	0.0166004
944.299	0.0165981
944.378	0.0165618
944.456	0.0166029
944.534	0.0166686
944.612	0.0166188
944.690	0.0165573
944.768	0.0164200
944.846	0.0165430
944.924	0.0165742
945.003	0.0165180
945.081	0.0166541
945.159	0.0165725
945.237	0.0165987
945.315	0.0164454
945.393	0.0165733
945.471	0.0165659
945.549	0.0165968
945.628	0.0164888
945.706	0.0164769
945.784	0.0165031
945.862	0.0164378
945.940	0.0164892
946.018	0.0164635
946.096	0.0165707
946.174	0.0165568
946.253	0.0165475
946.331	0.0165089
946.409	0.0164803
946.487	0.0163747
946.565	0.0165124
946.643	0.0165565
946.721	0.0164609
946.799	0.0165247
946.878	0.0165119
946.956	0.0165360
947.034	0.0165082
947.112	0.0166651
947.190	0.0165784
947.268	0.0165586
947.346	0.0166405
947.424	0.0166242
947.503	0.0165099
947.581	0.0165759
947.659	0.0166743
947.737	0.0166389
947.815	0.0165839
947.893	0.0167852
947.971	0.0165239
948.049	0.0166096
948.128	0.0165723
948.206	0.0166216
948.284	0.0165098
948.362	0.0164880
948.440	0.0164421
948.518	0.0165644
948.596	0.0165469
948.674	0.0164001
948.753	0.0164314
948.831	0.0165408
948.909	0.0164790
948.987	0.0164870
949.065	0.0164079
949.143	0.0164546
949.221	0.0165940
949.299	0.0164606
949.378	0.0163596
949.456	0.0164497
949.534	0.0165868
949.612	0.0164819
949.690	0.0163362
949.768	0.0164785
949.846	0.0165514
949.924	0.0166077
