05/03/2022	20:40:48	Ver.	4.1	UNKNOWN
Optical Delay	660.003261	Delta X		0.078125	Sweeps	1	Scan Rate	0/0
Coordinates	Axis 1	NaN	Axis 2	NaN	Axis 3	NaN	Axis 4	NaN	Axis 5	NaN	Axis 6	0.000000
TX Power	0.000000	RX Power	0.000000

660.003	0.0134267
660.081	0.0135109
660.160	0.0134762
660.238	0.0134706
660.316	0.0134837
660.394	0.0134126
660.472	0.0135040
660.550	0.0134649
660.628	0.0135698
660.706	0.0136275
660.785	0.0135831
660.863	0.0134883
660.941	0.0134757
661.019	0.0136243
661.097	0.0135780
661.175	0.0135790
661.253	0.0135658
661.331	0.0134666
661.410	0.0135686
661.488	0.0135767
661.566	0.0136472
661.644	0.0136423
661.722	0.0135068
661.800	0.0136425
661.878	0.0135818
661.956	0.0135031
662.035	0.0134706
662.113	0.0134958
662.191	0.0136189
662.269	0.0135543
662.347	0.0135030
662.425	0.0135923
662.503	0.0135227
662.581	0.0135495
662.660	0.0136704
662.738	0.0136599
662.816	0.0136698
662.894	0.0135708
662.972	0.0133562
663.050	0.0136892
663.128	0.0136208
663.206	0.0134957
663.285	0.0135484
663.363	0.0135484
663.441	0.0133746
663.519	0.0134733
663.597	0.0134769
663.675	0.0134727
663.753	0.0135602
663.831	0.0134133
663.910	0.0134309
663.988	0.0133857
664.066	0.0135890
664.144	0.0134344
664.222	0.0135057
664.300	0.0133755
664.378	0.0133509
664.456	0.0135254
664.535	0.0135567
664.613	0.0134268
664.691	0.0135152
664.769	0.0133951
664.847	0.0134222
664.925	0.0134985
665.003	0.0133684
665.081	0.0134519
665.160	0.0133656
665.238	0.0132816
665.316	0.0132967
665.394	0.0133335
665.472	0.0133056
665.550	0.0132758
665.628	0.0133842
665.706	0.0133501
665.785	0.0132016
665.863	0.0134210
665.941	0.0133046
666.019	0.0132730
666.097	0.0133051
666.175	0.0132864
666.253	0.0134255
666.331	0.0133727
666.410	0.0134699
666.488	0.0135085
666.566	0.0133789
666.644	0.0134575
666.722	0.0133624
666.800	0.0132571
666.878	0.0131721
666.956	0.0133946
667.035	0.0134342
667.113	0.0133265
667.191	0.0131664
667.269	0.0132260
667.347	0.0134092
667.425	0.0132349
667.503	0.0132933
667.581	0.0134423
667.660	0.0133295
667.738	0.0132699
667.816	0.0132531
667.894	0.0131680
667.972	0.0133040
668.050	0.0134219
668.128	0.0132690
668.206	0.0132630
668.285	0.0131377
668.363	0.0133347
668.441	0.0132618
668.519	0.0134570
668.597	0.0134354
668.675	0.0133273
668.753	0.0132391
668.831	0.0133726
668.910	0.0133604
668.988	0.0134431
669.066	0.0134447
669.144	0.0132175
669.222	0.0133286
669.300	0.0133732
669.378	0.0133784
669.456	0.0133917
669.535	0.0132726
669.613	0.0134354
669.691	0.0134082
669.769	0.0133740
669.847	0.0134048
669.925	0.0134345
670.003	0.0133788
670.081	0.0134222
670.160	0.0132645
670.238	0.0132465
670.316	0.0133284
670.394	0.0132818
670.472	0.0133882
670.550	0.0134048
670.628	0.0132500
670.706	0.0132951
670.785	0.0133546
670.863	0.0133006
670.941	0.0132810
671.019	0.0132642
671.097	0.0132592
671.175	0.0132525
671.253	0.0133032
671.331	0.0132630
671.410	0.0132220
671.488	0.0132165
671.566	0.0132165
671.644	0.0131104
671.722	0.0131482
671.800	0.0132035
671.878	0.0132449
671.956	0.0132852
672.035	0.0132864
672.113	0.0132339
672.191	0.0131784
672.269	0.0131145
672.347	0.0131795
672.425	0.0132903
672.503	0.0131818
672.581	0.0132201
672.660	0.0132904
672.738	0.0131857
672.816	0.0132497
672.894	0.0133286
672.972	0.0131335
673.050	0.0133801
673.128	0.0132414
673.206	0.0131477
673.285	0.0132687
673.363	0.0131392
673.441	0.0133253
673.519	0.0132063
673.597	0.0132516
673.675	0.0133086
673.753	0.0132037
673.831	0.0132086
673.910	0.0132182
673.988	0.0132294
674.066	0.0132110
674.144	0.0132080
674.222	0.0131350
674.300	0.0132928
674.378	0.0133752
674.456	0.0133256
674.535	0.0131287
674.613	0.0133281
674.691	0.0133540
674.769	0.0133821
674.847	0.0132116
674.925	0.0132374
675.003	0.0132290
675.081	0.0134301
675.160	0.0132767
675.238	0.0133060
675.316	0.0133761
675.394	0.0133311
675.472	0.0133895
675.550	0.0132930
675.628	0.0131910
675.706	0.0134276
675.785	0.0134246
675.863	0.0133727
675.941	0.0133968
676.019	0.0132233
676.097	0.0133105
676.175	0.0134413
676.253	0.0132766
676.331	0.0132195
676.410	0.0134763
676.488	0.0133237
676.566	0.0133353
676.644	0.0134905
676.722	0.0135040
676.800	0.0132842
676.878	0.0132845
676.956	0.0133825
677.035	0.0133863
677.113	0.0134517
677.191	0.0135054
677.269	0.0133916
677.347	0.0134130
677.425	0.0134032
677.503	0.0133527
677.581	0.0133836
677.660	0.0133189
677.738	0.0133295
677.816	0.0134135
677.894	0.0134795
677.972	0.0133486
678.050	0.0132940
678.128	0.0133664
678.206	0.0134288
678.285	0.0134131
678.363	0.0134070
678.441	0.0132741
678.519	0.0133064
678.597	0.0133394
678.675	0.0133797
678.753	0.0134521
678.831	0.0134078
678.910	0.0133789
678.988	0.0134011
679.066	0.0132993
679.144	0.0135001
679.222	0.0135307
679.300	0.0133743
679.378	0.0134788
679.456	0.0135403
679.535	0.0136143
679.613	0.0134045
679.691	0.0135007
679.769	0.0135104
679.847	0.0136299
679.925	0.0135875
680.003	0.0136029
680.081	0.0134812
680.160	0.0136720
680.238	0.0135029
680.316	0.0134478
680.394	0.0135284
680.472	0.0135839
680.550	0.0135038
680.628	0.0134868
680.706	0.0135203
680.785	0.0134751
680.863	0.0134684
680.941	0.0133907
681.019	0.0134409
681.097	0.0134406
681.175	0.0135547
681.253	0.0135225
681.331	0.0135491
681.410	0.0132745
681.488	0.0134930
681.566	0.0134703
681.644	0.0133886
681.722	0.0135007
681.800	0.0134115
681.878	0.0133921
681.956	0.0133603
682.035	0.0133367
682.113	0.0134175
682.191	0.0133967
682.269	0.0134804
682.347	0.0134702
682.425	0.0133385
682.503	0.0135259
682.581	0.0136120
682.660	0.0135528
682.738	0.0135799
682.816	0.0136015
682.894	0.0135509
682.972	0.0137399
683.050	0.0135363
683.128	0.0137164
683.206	0.0136801
683.285	0.0137041
683.363	0.0136378
683.441	0.0135661
683.519	0.0137168
683.597	0.0136912
683.675	0.0136584
683.753	0.0136462
683.831	0.0135194
683.910	0.0136417
683.988	0.0138328
684.066	0.0137241
684.144	0.0135529
684.222	0.0136648
684.300	0.0137591
684.378	0.0137041
684.456	0.0136977
684.535	0.0137549
684.613	0.0138181
684.691	0.0137806
684.769	0.0135562
684.847	0.0135498
684.925	0.0136245
685.003	0.0135812
685.081	0.0135915
685.160	0.0136641
685.238	0.0136160
685.316	0.0135153
685.394	0.0134798
685.472	0.0133867
685.550	0.0134376
685.628	0.0134599
685.706	0.0134780
685.785	0.0135981
685.863	0.0134573
685.941	0.0134206
686.019	0.0133615
686.097	0.0134495
686.175	0.0133922
686.253	0.0134447
686.331	0.0135914
686.410	0.0132818
686.488	0.0133485
686.566	0.0134205
686.644	0.0134200
686.722	0.0133678
686.800	0.0133361
686.878	0.0135619
686.956	0.0135249
687.035	0.0133414
687.113	0.0133817
687.191	0.0133726
687.269	0.0133868
687.347	0.0133164
687.425	0.0134249
687.503	0.0133654
687.581	0.0134623
687.660	0.0133720
687.738	0.0134102
687.816	0.0134402
687.894	0.0134420
687.972	0.0133517
688.050	0.0134034
688.128	0.0134990
688.206	0.0134634
688.285	0.0135896
688.363	0.0134156
688.441	0.0134606
688.519	0.0133644
688.597	0.0134754
688.675	0.0134801
688.753	0.0134678
688.831	0.0133771
688.910	0.0133855
688.988	0.0135013
689.066	0.0134795
689.144	0.0134720
689.222	0.0134223
689.300	0.0134901
689.378	0.0133707
689.456	0.0133739
689.535	0.0134806
689.613	0.0133919
689.691	0.0133401
689.769	0.0134386
689.847	0.0132833
689.925	0.0132268
690.003	0.0133321
690.081	0.0134213
690.160	0.0133127
690.238	0.0132136
690.316	0.0131244
690.394	0.0130893
690.472	0.0130702
690.550	0.0130418
690.628	0.0131307
690.706	0.0132639
690.785	0.0132256
690.863	0.0132414
690.941	0.0132889
691.019	0.0132204
691.097	0.0132762
691.175	0.0133212
691.253	0.0133263
691.331	0.0134310
691.410	0.0134786
691.488	0.0133244
691.566	0.0133257
691.644	0.0134464
691.722	0.0134807
691.800	0.0134206
691.878	0.0135712
691.956	0.0135332
692.035	0.0135704
692.113	0.0134745
692.191	0.0133689
692.269	0.0134576
692.347	0.0134043
692.425	0.0132644
692.503	0.0133150
692.581	0.0132471
692.660	0.0132627
692.738	0.0132764
692.816	0.0131953
692.894	0.0130983
692.972	0.0131996
693.050	0.0130577
693.128	0.0131708
693.206	0.0132160
693.285	0.0132112
693.363	0.0132150
693.441	0.0132698
693.519	0.0132990
693.597	0.0132504
693.675	0.0133055
693.753	0.0133856
693.831	0.0132369
693.910	0.0133590
693.988	0.0134428
694.066	0.0133737
694.144	0.0133832
694.222	0.0134943
694.300	0.0132193
694.378	0.0131177
694.456	0.0131393
694.535	0.0131894
694.613	0.0133958
694.691	0.0132869
694.769	0.0132207
694.847	0.0132288
694.925	0.0132948
695.003	0.0131858
695.081	0.0133165
695.160	0.0133286
695.238	0.0132975
695.316	0.0133038
695.394	0.0134182
695.472	0.0134049
695.550	0.0133375
695.628	0.0132122
695.706	0.0132404
695.785	0.0131662
695.863	0.0132124
695.941	0.0130364
696.019	0.0131380
696.097	0.0131543
696.175	0.0131097
696.253	0.0130256
696.331	0.0131521
696.410	0.0131400
696.488	0.0131598
696.566	0.0131085
696.644	0.0131409
696.722	0.0130634
696.800	0.0132794
696.878	0.0132700
696.956	0.0132732
697.035	0.0133150
697.113	0.0132578
697.191	0.0134038
697.269	0.0134667
697.347	0.0134563
697.425	0.0134840
697.503	0.0136719
697.581	0.0136140
697.660	0.0134110
697.738	0.0136092
697.816	0.0135734
697.894	0.0134597
697.972	0.0134805
698.050	0.0134856
698.128	0.0134270
698.206	0.0134082
698.285	0.0133765
698.363	0.0131740
698.441	0.0133206
698.519	0.0131856
698.597	0.0131921
698.675	0.0131713
698.753	0.0132772
698.831	0.0133776
698.910	0.0133626
698.988	0.0134971
699.066	0.0135362
699.144	0.0135930
699.222	0.0134779
699.300	0.0136069
699.378	0.0136805
699.456	0.0137196
699.535	0.0137312
699.613	0.0137487
699.691	0.0138407
699.769	0.0137489
699.847	0.0136710
699.925	0.0135648
700.003	0.0136981
700.081	0.0135602
700.160	0.0135184
700.238	0.0134015
700.316	0.0132104
700.394	0.0133174
700.472	0.0132003
700.550	0.0132504
700.628	0.0133079
700.706	0.0131213
700.785	0.0132867
700.863	0.0133579
700.941	0.0133358
701.019	0.0133170
701.097	0.0134718
701.175	0.0133409
701.253	0.0133812
701.331	0.0133684
701.410	0.0132890
701.488	0.0134688
701.566	0.0133286
701.644	0.0133217
701.722	0.0132685
701.800	0.0132761
701.878	0.0132762
701.956	0.0132906
702.035	0.0132767
702.113	0.0133306
702.191	0.0132943
702.269	0.0132668
702.347	0.0132474
702.425	0.0132623
702.503	0.0133072
702.581	0.0133012
702.660	0.0133102
702.738	0.0134457
702.816	0.0135216
702.894	0.0134457
702.972	0.0133465
703.050	0.0133222
703.128	0.0133193
703.206	0.0133917
703.285	0.0133244
703.363	0.0132269
703.441	0.0132850
703.519	0.0132046
703.597	0.0132400
703.675	0.0133142
703.753	0.0132745
703.831	0.0133620
703.910	0.0132717
703.988	0.0133322
704.066	0.0135226
704.144	0.0133631
704.222	0.0134191
704.300	0.0133853
704.378	0.0135065
704.456	0.0133484
704.535	0.0134785
704.613	0.0135853
704.691	0.0134784
704.769	0.0132713
704.847	0.0134716
704.925	0.0135815
705.003	0.0133476
705.081	0.0132726
705.160	0.0133448
705.238	0.0134076
705.316	0.0134302
705.394	0.0134358
705.472	0.0134096
705.550	0.0135818
705.628	0.0135207
705.706	0.0134547
705.785	0.0134505
705.863	0.0136373
705.941	0.0135897
706.019	0.0134708
706.097	0.0134506
706.175	0.0136300
706.253	0.0134624
706.331	0.0134196
706.410	0.0133405
706.488	0.0133475
706.566	0.0131418
706.644	0.0133025
706.722	0.0132539
706.800	0.0134380
706.878	0.0133776
706.956	0.0134423
707.035	0.0135473
707.113	0.0136655
707.191	0.0136896
707.269	0.0135394
707.347	0.0135547
707.425	0.0136074
707.503	0.0135710
707.581	0.0135773
707.660	0.0134476
707.738	0.0135211
707.816	0.0134308
707.894	0.0133904
707.972	0.0134585
708.050	0.0133058
708.128	0.0133572
708.206	0.0132323
708.285	0.0131852
708.363	0.0131786
708.441	0.0133251
708.519	0.0132204
708.597	0.0132063
708.675	0.0131753
708.753	0.0132559
708.831	0.0133424
708.910	0.0133333
708.988	0.0132977
709.066	0.0133705
709.144	0.0134283
709.222	0.0133144
709.300	0.0131913
709.378	0.0132053
709.456	0.0133129
709.535	0.0131871
709.613	0.0132365
709.691	0.0132163
709.769	0.0132823
709.847	0.0132972
709.925	0.0132590
710.003	0.0133263
710.081	0.0132034
710.160	0.0134639
710.238	0.0134499
710.316	0.0134327
710.394	0.0134811
710.472	0.0134389
710.550	0.0135425
710.628	0.0136429
710.706	0.0134721
710.785	0.0133770
710.863	0.0134618
710.941	0.0133917
711.019	0.0133894
711.097	0.0134211
711.175	0.0133130
711.253	0.0132368
711.331	0.0132899
711.410	0.0132506
711.488	0.0131734
711.566	0.0134261
711.644	0.0133381
711.722	0.0133208
711.800	0.0134372
711.878	0.0135901
711.956	0.0134297
712.035	0.0134173
712.113	0.0135027
712.191	0.0135925
712.269	0.0134715
712.347	0.0133816
712.425	0.0134995
712.503	0.0135315
712.581	0.0133938
712.660	0.0133145
712.738	0.0131946
712.816	0.0132164
712.894	0.0132979
712.972	0.0130829
713.050	0.0132240
713.128	0.0132083
713.206	0.0132373
713.285	0.0131776
713.363	0.0133552
713.441	0.0133561
713.519	0.0133005
713.597	0.0134493
713.675	0.0134975
713.753	0.0135699
713.831	0.0135940
713.910	0.0135699
713.988	0.0136559
714.066	0.0135764
714.144	0.0135469
714.222	0.0134769
714.300	0.0134629
714.378	0.0133720
714.456	0.0132355
714.535	0.0132828
714.613	0.0131703
714.691	0.0131056
714.769	0.0131298
714.847	0.0130146
714.925	0.0131902
715.003	0.0130647
715.081	0.0132126
715.160	0.0133292
715.238	0.0132066
715.316	0.0132224
715.394	0.0133096
715.472	0.0134381
715.550	0.0132923
715.628	0.0134411
715.706	0.0132604
715.785	0.0134229
715.863	0.0133896
715.941	0.0131810
716.019	0.0133032
716.097	0.0132686
716.175	0.0132904
716.253	0.0132314
716.331	0.0132408
716.410	0.0132787
716.488	0.0132052
716.566	0.0132668
716.644	0.0133380
716.722	0.0134492
716.800	0.0133780
716.878	0.0133475
716.956	0.0133756
717.035	0.0132884
717.113	0.0135042
717.191	0.0136449
717.269	0.0135538
717.347	0.0135466
717.425	0.0134673
717.503	0.0134644
717.581	0.0135897
717.660	0.0134552
717.738	0.0134968
717.816	0.0134594
717.894	0.0134647
717.972	0.0134575
718.050	0.0135893
718.128	0.0135854
718.206	0.0135015
718.285	0.0135548
718.363	0.0136357
718.441	0.0135589
718.519	0.0135590
718.597	0.0136152
718.675	0.0135629
718.753	0.0133282
718.831	0.0135586
718.910	0.0132943
718.988	0.0133042
719.066	0.0133524
719.144	0.0132666
719.222	0.0132482
719.300	0.0131989
719.378	0.0133029
719.456	0.0133738
719.535	0.0133230
719.613	0.0131730
719.691	0.0132684
719.769	0.0133311
719.847	0.0133698
719.925	0.0134226
720.003	0.0131429
720.081	0.0132435
720.160	0.0134377
720.238	0.0133735
720.316	0.0135647
720.394	0.0133743
720.472	0.0134171
720.550	0.0134116
720.628	0.0134013
720.706	0.0133343
720.785	0.0135394
720.863	0.0133980
720.941	0.0132333
721.019	0.0134116
721.097	0.0133402
721.175	0.0134415
721.253	0.0133040
721.331	0.0132127
721.410	0.0131112
721.488	0.0131264
721.566	0.0131165
721.644	0.0132049
721.722	0.0130924
721.800	0.0132533
721.878	0.0132647
721.956	0.0132233
722.035	0.0133220
722.113	0.0131875
722.191	0.0133287
722.269	0.0133059
722.347	0.0132052
722.425	0.0132581
722.503	0.0133342
722.581	0.0131905
722.660	0.0133041
722.738	0.0131633
722.816	0.0132127
722.894	0.0132760
722.972	0.0132664
723.050	0.0134803
723.128	0.0134725
723.206	0.0133116
723.285	0.0133593
723.363	0.0134161
723.441	0.0133192
723.519	0.0135175
723.597	0.0134543
723.675	0.0134373
723.753	0.0135523
723.831	0.0135675
723.910	0.0133813
723.988	0.0135298
724.066	0.0135115
724.144	0.0134201
724.222	0.0135279
724.300	0.0135260
724.378	0.0136968
724.456	0.0136490
724.535	0.0136378
724.613	0.0136058
724.691	0.0135325
724.769	0.0136102
724.847	0.0136790
724.925	0.0136220
725.003	0.0135336
725.081	0.0135329
725.160	0.0135632
725.238	0.0133974
725.316	0.0135064
725.394	0.0135285
725.472	0.0133820
725.550	0.0134721
725.628	0.0134328
725.706	0.0134875
725.785	0.0133575
725.863	0.0132899
725.941	0.0134860
726.019	0.0133715
726.097	0.0133796
726.175	0.0134518
726.253	0.0135260
726.331	0.0134683
726.410	0.0133510
726.488	0.0133474
726.566	0.0134292
726.644	0.0133846
726.722	0.0135158
726.800	0.0134557
726.878	0.0134399
726.956	0.0134236
727.035	0.0134032
727.113	0.0134344
727.191	0.0133466
727.269	0.0132568
727.347	0.0133101
727.425	0.0133801
727.503	0.0132467
727.581	0.0134138
727.660	0.0135509
727.738	0.0133704
727.816	0.0132972
727.894	0.0132970
727.972	0.0132413
728.050	0.0131610
728.128	0.0131133
728.206	0.0130074
728.285	0.0131248
728.363	0.0130618
728.441	0.0130995
728.519	0.0131351
728.597	0.0131065
728.675	0.0130743
728.753	0.0131979
728.831	0.0131684
728.910	0.0131702
728.988	0.0132433
729.066	0.0131431
729.144	0.0132034
729.222	0.0131847
729.300	0.0130994
729.378	0.0131963
729.456	0.0131315
729.535	0.0130663
729.613	0.0129977
729.691	0.0130900
729.769	0.0130984
729.847	0.0129594
729.925	0.0129381
730.003	0.0130298
730.081	0.0132896
730.160	0.0132449
730.238	0.0132301
730.316	0.0132591
730.394	0.0133444
730.472	0.0133859
730.550	0.0135688
730.628	0.0134185
730.706	0.0134083
730.785	0.0134104
730.863	0.0136919
730.941	0.0136308
731.019	0.0134742
731.097	0.0135797
731.175	0.0135814
731.253	0.0135093
731.331	0.0135988
731.410	0.0135765
731.488	0.0136845
731.566	0.0136942
731.644	0.0135681
731.722	0.0134857
731.800	0.0135612
731.878	0.0135809
731.956	0.0136405
732.035	0.0134595
732.113	0.0135337
732.191	0.0134998
732.269	0.0134998
732.347	0.0133518
732.425	0.0134947
732.503	0.0134615
732.581	0.0133860
732.660	0.0133136
732.738	0.0132862
732.816	0.0135216
732.894	0.0134048
732.972	0.0134258
733.050	0.0134123
733.128	0.0135406
733.206	0.0135367
733.285	0.0134408
733.363	0.0133485
733.441	0.0135389
733.519	0.0135360
733.597	0.0134569
733.675	0.0134161
733.753	0.0133995
733.831	0.0134686
733.910	0.0135133
733.988	0.0134163
734.066	0.0134431
734.144	0.0134226
734.222	0.0134924
734.300	0.0134949
734.378	0.0135352
734.456	0.0133785
734.535	0.0133841
734.613	0.0134404
734.691	0.0135040
734.769	0.0134071
734.847	0.0132675
734.925	0.0134052
735.003	0.0133408
735.081	0.0132147
735.160	0.0132523
735.238	0.0131767
735.316	0.0131119
735.394	0.0132851
735.472	0.0131844
735.550	0.0133207
735.628	0.0133302
735.706	0.0132505
735.785	0.0133803
735.863	0.0133155
735.941	0.0131590
736.019	0.0133325
736.097	0.0133092
736.175	0.0133472
736.253	0.0133508
736.331	0.0133041
736.410	0.0132360
736.488	0.0131915
736.566	0.0131754
736.644	0.0130885
736.722	0.0132735
736.800	0.0132782
736.878	0.0132167
736.956	0.0131985
737.035	0.0133118
737.113	0.0135210
737.191	0.0134628
737.269	0.0134028
737.347	0.0134364
737.425	0.0135679
737.503	0.0137016
737.581	0.0137471
737.660	0.0136219
737.738	0.0137680
737.816	0.0137468
737.894	0.0136713
737.972	0.0138200
738.050	0.0138571
738.128	0.0138056
738.206	0.0137388
738.285	0.0136826
738.363	0.0137967
738.441	0.0139068
738.519	0.0137855
738.597	0.0136826
738.675	0.0136792
738.753	0.0137756
738.831	0.0137608
738.910	0.0135406
738.988	0.0135596
739.066	0.0134141
739.144	0.0135372
739.222	0.0135708
739.300	0.0135323
739.378	0.0134551
739.456	0.0134949
739.535	0.0133812
739.613	0.0132529
739.691	0.0134430
739.769	0.0135148
739.847	0.0133272
739.925	0.0134217
740.003	0.0133971
740.081	0.0134729
740.160	0.0133445
740.238	0.0133715
740.316	0.0133980
740.394	0.0134438
740.472	0.0133713
740.550	0.0135327
740.628	0.0133606
740.706	0.0134126
740.785	0.0133085
740.863	0.0134389
740.941	0.0135179
741.019	0.0134350
741.097	0.0134492
741.175	0.0133251
741.253	0.0133867
741.331	0.0133631
741.410	0.0134254
741.488	0.0134416
741.566	0.0133181
741.644	0.0134275
741.722	0.0132363
741.800	0.0133073
741.878	0.0132777
741.956	0.0132462
742.035	0.0132072
742.113	0.0131810
742.191	0.0133356
742.269	0.0133289
742.347	0.0133939
742.425	0.0134179
742.503	0.0134436
742.581	0.0133752
742.660	0.0134736
742.738	0.0134253
742.816	0.0134453
742.894	0.0132360
742.972	0.0132925
743.050	0.0133412
743.128	0.0133949
743.206	0.0133119
743.285	0.0133496
743.363	0.0133709
743.441	0.0133985
743.519	0.0132355
743.597	0.0132967
743.675	0.0133694
743.753	0.0133773
743.831	0.0132544
743.910	0.0134229
743.988	0.0134917
744.066	0.0135463
744.144	0.0135505
744.222	0.0135570
744.300	0.0135588
744.378	0.0137840
744.456	0.0138060
744.535	0.0138650
744.613	0.0138335
744.691	0.0138913
744.769	0.0137845
744.847	0.0137586
744.925	0.0137277
745.003	0.0137658
745.081	0.0136319
745.160	0.0138023
745.238	0.0137717
745.316	0.0137754
745.394	0.0137897
745.472	0.0136839
745.550	0.0136816
745.628	0.0137868
745.706	0.0137170
745.785	0.0135745
745.863	0.0135223
745.941	0.0135107
746.019	0.0135246
746.097	0.0134431
746.175	0.0135043
746.253	0.0134576
746.331	0.0134544
746.410	0.0134051
746.488	0.0133034
746.566	0.0133250
746.644	0.0131870
746.722	0.0132852
746.800	0.0131293
746.878	0.0133279
746.956	0.0132057
747.035	0.0131934
747.113	0.0131236
747.191	0.0131402
747.269	0.0133562
747.347	0.0131850
747.425	0.0134271
747.503	0.0131078
747.581	0.0132007
747.660	0.0132616
747.738	0.0134145
747.816	0.0133240
747.894	0.0132677
747.972	0.0132455
748.050	0.0133185
748.128	0.0133553
748.206	0.0133253
748.285	0.0132957
748.363	0.0131256
748.441	0.0132249
748.519	0.0133195
748.597	0.0132688
748.675	0.0131034
748.753	0.0131339
748.831	0.0131551
748.910	0.0131936
748.988	0.0132107
749.066	0.0132625
749.144	0.0131342
749.222	0.0132125
749.300	0.0131550
749.378	0.0131554
749.456	0.0132838
749.535	0.0132957
749.613	0.0131308
749.691	0.0130205
749.769	0.0133119
749.847	0.0132300
749.925	0.0132215
750.003	0.0131944
750.081	0.0132013
750.160	0.0130404
750.238	0.0131726
750.316	0.0131379
750.394	0.0131497
750.472	0.0131649
750.550	0.0131423
750.628	0.0131495
750.706	0.0132195
750.785	0.0131483
750.863	0.0132857
750.941	0.0133304
751.019	0.0133704
751.097	0.0135086
751.175	0.0133933
751.253	0.0134528
751.331	0.0134588
751.410	0.0135916
751.488	0.0135158
751.566	0.0136363
751.644	0.0136795
751.722	0.0137053
751.800	0.0136272
751.878	0.0137251
751.956	0.0136962
752.035	0.0136573
752.113	0.0137867
752.191	0.0136974
752.269	0.0137224
752.347	0.0136926
752.425	0.0136033
752.503	0.0138074
752.581	0.0136658
752.660	0.0135398
752.738	0.0135118
752.816	0.0134811
752.894	0.0134074
752.972	0.0136272
753.050	0.0134451
753.128	0.0135046
753.206	0.0132594
753.285	0.0133630
753.363	0.0132365
753.441	0.0131728
753.519	0.0132688
753.597	0.0131934
753.675	0.0131677
753.753	0.0130519
753.831	0.0130890
753.910	0.0132240
753.988	0.0132577
754.066	0.0133636
754.144	0.0131581
754.222	0.0133701
754.300	0.0132153
754.378	0.0131861
754.456	0.0133037
754.535	0.0132695
754.613	0.0132874
754.691	0.0132797
754.769	0.0133493
754.847	0.0132913
754.925	0.0132259
755.003	0.0132160
755.081	0.0132773
755.160	0.0133061
755.238	0.0132368
755.316	0.0133553
755.394	0.0132764
755.472	0.0131229
755.550	0.0132613
755.628	0.0133562
755.706	0.0133582
755.785	0.0132838
755.863	0.0133786
755.941	0.0135722
756.019	0.0134204
756.097	0.0132233
756.175	0.0133114
756.253	0.0134174
756.331	0.0135101
756.410	0.0134850
756.488	0.0133897
756.566	0.0132269
756.644	0.0133628
756.722	0.0132787
756.800	0.0132423
756.878	0.0133772
756.956	0.0133784
757.035	0.0133012
757.113	0.0132843
757.191	0.0132845
757.269	0.0134053
757.347	0.0133611
757.425	0.0134676
757.503	0.0134041
757.581	0.0135091
757.660	0.0135615
757.738	0.0134863
757.816	0.0135250
757.894	0.0135800
757.972	0.0136133
758.050	0.0135190
758.128	0.0136573
758.206	0.0135964
758.285	0.0135741
758.363	0.0137383
758.441	0.0137366
758.519	0.0139168
758.597	0.0137909
758.675	0.0138231
758.753	0.0139760
758.831	0.0137789
758.910	0.0138960
758.988	0.0138674
759.066	0.0138813
759.144	0.0137451
759.222	0.0139039
759.300	0.0138293
759.378	0.0137181
759.456	0.0137801
759.535	0.0137807
759.613	0.0135834
759.691	0.0135634
759.769	0.0136311
759.847	0.0134959
759.925	0.0135600
760.003	0.0135183
760.081	0.0134737
760.160	0.0134820
760.238	0.0134267
760.316	0.0132830
760.394	0.0134068
760.472	0.0132418
760.550	0.0133376
760.628	0.0133355
760.706	0.0132628
760.785	0.0132861
760.863	0.0132452
760.941	0.0135445
761.019	0.0132807
761.097	0.0133717
761.175	0.0132509
761.253	0.0133696
761.331	0.0133926
761.410	0.0133581
761.488	0.0133921
761.566	0.0133977
761.644	0.0135390
761.722	0.0133624
761.800	0.0133318
761.878	0.0132329
761.956	0.0131361
762.035	0.0132635
762.113	0.0133198
762.191	0.0133418
762.269	0.0133660
762.347	0.0133978
762.425	0.0132941
762.503	0.0132908
762.581	0.0133120
762.660	0.0133839
762.738	0.0132825
762.816	0.0133743
762.894	0.0133598
762.972	0.0133324
763.050	0.0133987
763.128	0.0134597
763.206	0.0133731
763.285	0.0133360
763.363	0.0134101
763.441	0.0132931
763.519	0.0133232
763.597	0.0132742
763.675	0.0133862
763.753	0.0134052
763.831	0.0133845
763.910	0.0132694
763.988	0.0132649
764.066	0.0133171
764.144	0.0134012
764.222	0.0134042
764.300	0.0133527
764.378	0.0134267
764.456	0.0133289
764.535	0.0133773
764.613	0.0135613
764.691	0.0135611
764.769	0.0135848
764.847	0.0135204
764.925	0.0136747
765.003	0.0137060
765.081	0.0137838
765.160	0.0137585
765.238	0.0137544
765.316	0.0137294
765.394	0.0139388
765.472	0.0138480
765.550	0.0139767
765.628	0.0139724
765.706	0.0139387
765.785	0.0139244
765.863	0.0138473
765.941	0.0138494
766.019	0.0137527
766.097	0.0139314
766.175	0.0139375
766.253	0.0137873
766.331	0.0136600
766.410	0.0136687
766.488	0.0138416
766.566	0.0135857
766.644	0.0135555
766.722	0.0135238
766.800	0.0136843
766.878	0.0136704
766.956	0.0135136
767.035	0.0135201
767.113	0.0134102
767.191	0.0134927
767.269	0.0133216
767.347	0.0133833
767.425	0.0134814
767.503	0.0134364
767.581	0.0133009
767.660	0.0132514
767.738	0.0133273
767.816	0.0132492
767.894	0.0133084
767.972	0.0132856
768.050	0.0132169
768.128	0.0132495
768.206	0.0131896
768.285	0.0131087
768.363	0.0132353
768.441	0.0132211
768.519	0.0132345
768.597	0.0132628
768.675	0.0133718
768.753	0.0132762
768.831	0.0131721
768.910	0.0132498
768.988	0.0131453
769.066	0.0132226
769.144	0.0132720
769.222	0.0130785
769.300	0.0131261
769.378	0.0132372
769.456	0.0132816
769.535	0.0132592
769.613	0.0133797
769.691	0.0132554
769.769	0.0131702
769.847	0.0132143
769.925	0.0134263
770.003	0.0132519
770.081	0.0131786
770.160	0.0134325
770.238	0.0132021
770.316	0.0132528
770.394	0.0131444
770.472	0.0131770
770.550	0.0131860
770.628	0.0134116
770.706	0.0130998
770.785	0.0130170
770.863	0.0132133
770.941	0.0133356
771.019	0.0134113
771.097	0.0132278
771.175	0.0132445
771.253	0.0131438
771.331	0.0133466
771.410	0.0133124
771.488	0.0134222
771.566	0.0134755
771.644	0.0135056
771.722	0.0134421
771.800	0.0133942
771.878	0.0135725
771.956	0.0136599
772.035	0.0136510
772.113	0.0136781
772.191	0.0135342
772.269	0.0137769
772.347	0.0137296
772.425	0.0138017
772.503	0.0137665
772.581	0.0136657
772.660	0.0136758
772.738	0.0137601
772.816	0.0138436
772.894	0.0136823
772.972	0.0135255
773.050	0.0138071
773.128	0.0137617
773.206	0.0136185
773.285	0.0135735
773.363	0.0135811
773.441	0.0135003
773.519	0.0135207
773.597	0.0134207
773.675	0.0133606
773.753	0.0133616
773.831	0.0133595
773.910	0.0133237
773.988	0.0134066
774.066	0.0133499
774.144	0.0132874
774.222	0.0131693
774.300	0.0132676
774.378	0.0132664
774.456	0.0133112
774.535	0.0133069
774.613	0.0131570
774.691	0.0132419
774.769	0.0132978
774.847	0.0132811
774.925	0.0130548
775.003	0.0133663
775.081	0.0132104
775.160	0.0130675
775.238	0.0131999
775.316	0.0132871
775.394	0.0131201
775.472	0.0131039
775.550	0.0129569
775.628	0.0131442
775.706	0.0131992
775.785	0.0131384
775.863	0.0130753
775.941	0.0132236
776.019	0.0132046
776.097	0.0132322
776.175	0.0132175
776.253	0.0131158
776.331	0.0132224
776.410	0.0133894
776.488	0.0133608
776.566	0.0131346
776.644	0.0132385
776.722	0.0132291
776.800	0.0133059
776.878	0.0132607
776.956	0.0133938
777.035	0.0132183
777.113	0.0131593
777.191	0.0131963
777.269	0.0130765
777.347	0.0132281
777.425	0.0130564
777.503	0.0131377
777.581	0.0132078
777.660	0.0132006
777.738	0.0130412
777.816	0.0131103
777.894	0.0132353
777.972	0.0130846
778.050	0.0132993
778.128	0.0132803
778.206	0.0133433
778.285	0.0131744
778.363	0.0131493
778.441	0.0133658
778.519	0.0134406
778.597	0.0134478
778.675	0.0134174
778.753	0.0134875
778.831	0.0132941
778.910	0.0135139
778.988	0.0136417
779.066	0.0135791
779.144	0.0136124
779.222	0.0136501
779.300	0.0135877
779.378	0.0136736
779.456	0.0138023
779.535	0.0137251
779.613	0.0136200
779.691	0.0136532
779.769	0.0135963
779.847	0.0136570
779.925	0.0135638
780.003	0.0136448
780.081	0.0135219
780.160	0.0136416
780.238	0.0136569
780.316	0.0135828
780.394	0.0135956
780.472	0.0135419
780.550	0.0135677
780.628	0.0134168
780.706	0.0133624
780.785	0.0137070
780.863	0.0134731
780.941	0.0133359
781.019	0.0134394
781.097	0.0133328
781.175	0.0133224
781.253	0.0133632
781.331	0.0133303
781.410	0.0134073
781.488	0.0132970
781.566	0.0132931
781.644	0.0132938
781.722	0.0133543
781.800	0.0133401
781.878	0.0131733
781.956	0.0132446
782.035	0.0132909
782.113	0.0133053
782.191	0.0131281
782.269	0.0133615
782.347	0.0132716
782.425	0.0131725
782.503	0.0131673
782.581	0.0132300
782.660	0.0132678
782.738	0.0132375
782.816	0.0132504
782.894	0.0133714
782.972	0.0132253
783.050	0.0133141
783.128	0.0133326
783.206	0.0134807
783.285	0.0134554
783.363	0.0134116
783.441	0.0134416
783.519	0.0134532
783.597	0.0134306
783.675	0.0135087
783.753	0.0135187
783.831	0.0135194
783.910	0.0134016
783.988	0.0134000
784.066	0.0133484
784.144	0.0132406
784.222	0.0134267
784.300	0.0135265
784.378	0.0134460
784.456	0.0133618
784.535	0.0134130
784.613	0.0133592
784.691	0.0133849
784.769	0.0133142
784.847	0.0133595
784.925	0.0134552
785.003	0.0134282
785.081	0.0135397
785.160	0.0136648
785.238	0.0136105
785.316	0.0136868
785.394	0.0135400
785.472	0.0136274
785.550	0.0137264
785.628	0.0136354
785.706	0.0137193
785.785	0.0137185
785.863	0.0136565
785.941	0.0136729
786.019	0.0138481
786.097	0.0137894
786.175	0.0138037
786.253	0.0137806
786.331	0.0137969
786.410	0.0136978
786.488	0.0137392
786.566	0.0137130
786.644	0.0136961
786.722	0.0136861
786.800	0.0136667
786.878	0.0135841
786.956	0.0134200
787.035	0.0134614
787.113	0.0135528
787.191	0.0134113
787.269	0.0135782
787.347	0.0136288
787.425	0.0134557
787.503	0.0134445
787.581	0.0134026
787.660	0.0134308
787.738	0.0135742
787.816	0.0133830
787.894	0.0133205
787.972	0.0133649
788.050	0.0132319
788.128	0.0133354
788.206	0.0133492
788.285	0.0132842
788.363	0.0132661
788.441	0.0133472
788.519	0.0133195
788.597	0.0132488
788.675	0.0133388
788.753	0.0132471
788.831	0.0131512
788.910	0.0133376
788.988	0.0133544
789.066	0.0133068
789.144	0.0132831
789.222	0.0132716
789.300	0.0133889
789.378	0.0133848
789.456	0.0131986
789.535	0.0132214
789.613	0.0133230
789.691	0.0133801
789.769	0.0133743
789.847	0.0132859
789.925	0.0132802
790.003	0.0132918
790.081	0.0134032
790.160	0.0133276
790.238	0.0133643
790.316	0.0133917
790.394	0.0133711
790.472	0.0135883
790.550	0.0134185
790.628	0.0134331
790.706	0.0134080
790.785	0.0133146
790.863	0.0135474
790.941	0.0134302
791.019	0.0133313
791.097	0.0134261
791.175	0.0133794
791.253	0.0131783
791.331	0.0133394
791.410	0.0133322
791.488	0.0131964
791.566	0.0132158
791.644	0.0132014
791.722	0.0132139
791.800	0.0133233
791.878	0.0133780
791.956	0.0134371
792.035	0.0133903
792.113	0.0133175
792.191	0.0133820
792.269	0.0134566
792.347	0.0134209
792.425	0.0134455
792.503	0.0135015
792.581	0.0133530
792.660	0.0135291
792.738	0.0135719
792.816	0.0136296
792.894	0.0136455
792.972	0.0136411
793.050	0.0136845
793.128	0.0136856
793.206	0.0136872
793.285	0.0137099
793.363	0.0135559
793.441	0.0137656
793.519	0.0136150
793.597	0.0135493
793.675	0.0134811
793.753	0.0134531
793.831	0.0135722
793.910	0.0134958
793.988	0.0134014
794.066	0.0134749
794.144	0.0133614
794.222	0.0132995
794.300	0.0132536
794.378	0.0133068
794.456	0.0132409
794.535	0.0133466
794.613	0.0132697
794.691	0.0132586
794.769	0.0133528
794.847	0.0133600
794.925	0.0131948
795.003	0.0133186
795.081	0.0132578
795.160	0.0132294
795.238	0.0131223
795.316	0.0132003
795.394	0.0133331
795.472	0.0132328
795.550	0.0132884
795.628	0.0132282
795.706	0.0132316
795.785	0.0132412
795.863	0.0132626
795.941	0.0132905
796.019	0.0131190
796.097	0.0132054
796.175	0.0131419
796.253	0.0131363
796.331	0.0130281
796.410	0.0132484
796.488	0.0132460
796.566	0.0131797
796.644	0.0131139
796.722	0.0131709
796.800	0.0131000
796.878	0.0131667
796.956	0.0131049
797.035	0.0130753
797.113	0.0131742
797.191	0.0132540
797.269	0.0132846
797.347	0.0132673
797.425	0.0133803
797.503	0.0133485
797.581	0.0132899
797.660	0.0132751
797.738	0.0133231
797.816	0.0133447
797.894	0.0131876
797.972	0.0132977
798.050	0.0133214
798.128	0.0132457
798.206	0.0131747
798.285	0.0131121
798.363	0.0131246
798.441	0.0132094
798.519	0.0131866
798.597	0.0132605
798.675	0.0131677
798.753	0.0133069
798.831	0.0134024
798.910	0.0133517
798.988	0.0134612
799.066	0.0133901
799.144	0.0135715
799.222	0.0135540
799.300	0.0134674
799.378	0.0135680
799.456	0.0135715
799.535	0.0136837
799.613	0.0137803
799.691	0.0137052
799.769	0.0136916
799.847	0.0138383
799.925	0.0137481
800.003	0.0137212
800.081	0.0137582
800.160	0.0137547
800.238	0.0136493
800.316	0.0137267
800.394	0.0136585
800.472	0.0136730
800.550	0.0136768
800.628	0.0138009
800.706	0.0136990
800.785	0.0135936
800.863	0.0136381
800.941	0.0135368
801.019	0.0133939
801.097	0.0135902
801.175	0.0136533
801.253	0.0134872
801.331	0.0134766
801.410	0.0135478
801.488	0.0133843
801.566	0.0132841
801.644	0.0134699
801.722	0.0134469
801.800	0.0133881
801.878	0.0135204
801.956	0.0133776
802.035	0.0133436
802.113	0.0134045
802.191	0.0132295
802.269	0.0133543
802.347	0.0132519
802.425	0.0133472
802.503	0.0134612
802.581	0.0132530
802.660	0.0133975
802.738	0.0133240
802.816	0.0132978
802.894	0.0133701
802.972	0.0134255
803.050	0.0132465
803.128	0.0134641
803.206	0.0131590
803.285	0.0131783
803.363	0.0132865
803.441	0.0131535
803.519	0.0131357
803.597	0.0131631
803.675	0.0132275
803.753	0.0132493
803.831	0.0132568
803.910	0.0132153
803.988	0.0132106
804.066	0.0132439
804.144	0.0132184
804.222	0.0131827
804.300	0.0130970
804.378	0.0131696
804.456	0.0133114
804.535	0.0132536
804.613	0.0131103
804.691	0.0131445
804.769	0.0130458
804.847	0.0132551
804.925	0.0131654
805.003	0.0131047
805.081	0.0131471
805.160	0.0131039
805.238	0.0131963
805.316	0.0129671
805.394	0.0130616
805.472	0.0130553
805.550	0.0130647
805.628	0.0130343
805.706	0.0131100
805.785	0.0131403
805.863	0.0132042
805.941	0.0131762
806.019	0.0131336
806.097	0.0132200
806.175	0.0134390
806.253	0.0133216
806.331	0.0133562
806.410	0.0133953
806.488	0.0134714
806.566	0.0134414
806.644	0.0134554
806.722	0.0135414
806.800	0.0135622
806.878	0.0135995
806.956	0.0136034
807.035	0.0136523
807.113	0.0138269
807.191	0.0137295
807.269	0.0135777
807.347	0.0138049
807.425	0.0136858
807.503	0.0136077
807.581	0.0136731
807.660	0.0137196
807.738	0.0134999
807.816	0.0135103
807.894	0.0136755
807.972	0.0135617
808.050	0.0134427
808.128	0.0135638
808.206	0.0135617
808.285	0.0134396
808.363	0.0133275
808.441	0.0134095
808.519	0.0133003
808.597	0.0134462
808.675	0.0133530
808.753	0.0133273
808.831	0.0131318
808.910	0.0131934
808.988	0.0132220
809.066	0.0131243
809.144	0.0132363
809.222	0.0132864
809.300	0.0132574
809.378	0.0133163
809.456	0.0131855
809.535	0.0132496
809.613	0.0132121
809.691	0.0133540
809.769	0.0134077
809.847	0.0133615
809.925	0.0133491
810.003	0.0132889
810.081	0.0133831
810.160	0.0134312
810.238	0.0133532
810.316	0.0134718
810.394	0.0133686
810.472	0.0133865
810.550	0.0133401
810.628	0.0135211
810.706	0.0134071
810.785	0.0134764
810.863	0.0133977
810.941	0.0134893
811.019	0.0133878
811.097	0.0134336
811.175	0.0135480
811.253	0.0133952
811.331	0.0134086
811.410	0.0135157
811.488	0.0134834
811.566	0.0135535
811.644	0.0135014
811.722	0.0134946
811.800	0.0133536
811.878	0.0133750
811.956	0.0135092
812.035	0.0135718
812.113	0.0134113
812.191	0.0134129
812.269	0.0133920
812.347	0.0135350
812.425	0.0132617
812.503	0.0134503
812.581	0.0133633
812.660	0.0134213
812.738	0.0135190
812.816	0.0134924
812.894	0.0135293
812.972	0.0134660
813.050	0.0135323
813.128	0.0134705
813.206	0.0134732
813.285	0.0136638
813.363	0.0136883
813.441	0.0137006
813.519	0.0135773
813.597	0.0136794
813.675	0.0138794
813.753	0.0136824
813.831	0.0136645
813.910	0.0138269
813.988	0.0137997
814.066	0.0139683
814.144	0.0138917
814.222	0.0139072
814.300	0.0137753
814.378	0.0138493
814.456	0.0136889
814.535	0.0138082
814.613	0.0137480
814.691	0.0137379
814.769	0.0136885
814.847	0.0136890
814.925	0.0135659
815.003	0.0137253
815.081	0.0135591
815.160	0.0135158
815.238	0.0135395
815.316	0.0135091
815.394	0.0134729
815.472	0.0134163
815.550	0.0133562
815.628	0.0133470
815.706	0.0134811
815.785	0.0133630
815.863	0.0133880
815.941	0.0133521
816.019	0.0133987
816.097	0.0133056
816.175	0.0132262
816.253	0.0131894
816.331	0.0132001
816.410	0.0132749
816.488	0.0132103
816.566	0.0131844
816.644	0.0133593
816.722	0.0132841
816.800	0.0132912
816.878	0.0133936
816.956	0.0134206
817.035	0.0132980
817.113	0.0132132
817.191	0.0133263
817.269	0.0132990
817.347	0.0133380
817.425	0.0132359
817.503	0.0133321
817.581	0.0132166
817.660	0.0133237
817.738	0.0132958
817.816	0.0132946
817.894	0.0135294
817.972	0.0135462
818.050	0.0134246
818.128	0.0134457
818.206	0.0133984
818.285	0.0134940
818.363	0.0134833
818.441	0.0135163
818.519	0.0134273
818.597	0.0135558
818.675	0.0134420
818.753	0.0133279
818.831	0.0134000
818.910	0.0132748
818.988	0.0133752
819.066	0.0132862
819.144	0.0132878
819.222	0.0132437
819.300	0.0132214
819.378	0.0132920
819.456	0.0132690
819.535	0.0132020
819.613	0.0132095
819.691	0.0131696
819.769	0.0132616
819.847	0.0132970
819.925	0.0132963
820.003	0.0132883
820.081	0.0133611
820.160	0.0133286
820.238	0.0135609
820.316	0.0134835
820.394	0.0133411
820.472	0.0134837
820.550	0.0135005
820.628	0.0134438
820.706	0.0136304
820.785	0.0136805
820.863	0.0136135
820.941	0.0138167
821.019	0.0136754
821.097	0.0137856
821.175	0.0138473
821.253	0.0136150
821.331	0.0137073
821.410	0.0137009
821.488	0.0137008
821.566	0.0137666
821.644	0.0136543
821.722	0.0137527
821.800	0.0135925
821.878	0.0135075
821.956	0.0134499
822.035	0.0134310
822.113	0.0133292
822.191	0.0135504
822.269	0.0134621
822.347	0.0134092
822.425	0.0133517
822.503	0.0132869
822.581	0.0132735
822.660	0.0133340
822.738	0.0132635
822.816	0.0133141
822.894	0.0133389
822.972	0.0133703
823.050	0.0131728
823.128	0.0131490
823.206	0.0130457
823.285	0.0131218
823.363	0.0131424
823.441	0.0131979
823.519	0.0131041
823.597	0.0131126
823.675	0.0129648
823.753	0.0130812
823.831	0.0132022
823.910	0.0130924
823.988	0.0131941
824.066	0.0132122
824.144	0.0130318
824.222	0.0130902
824.300	0.0132738
824.378	0.0130865
824.456	0.0132121
824.535	0.0130604
824.613	0.0131760
824.691	0.0131234
824.769	0.0131513
824.847	0.0131805
824.925	0.0132085
825.003	0.0131640
825.081	0.0131756
825.160	0.0132228
825.238	0.0132673
825.316	0.0132432
825.394	0.0133389
825.472	0.0134884
825.550	0.0133232
825.628	0.0132269
825.706	0.0134356
825.785	0.0132387
825.863	0.0132439
825.941	0.0132584
826.019	0.0132085
826.097	0.0132457
826.175	0.0133480
826.253	0.0131667
826.331	0.0132679
826.410	0.0131328
826.488	0.0131750
826.566	0.0130641
826.644	0.0131516
826.722	0.0132509
826.800	0.0131807
826.878	0.0132922
826.956	0.0131615
827.035	0.0133883
827.113	0.0134036
827.191	0.0133697
827.269	0.0133427
827.347	0.0134735
827.425	0.0135800
827.503	0.0136428
827.581	0.0136520
827.660	0.0136305
827.738	0.0137069
827.816	0.0137315
827.894	0.0137221
827.972	0.0137632
828.050	0.0137474
828.128	0.0137698
828.206	0.0139067
828.285	0.0139390
828.363	0.0138032
828.441	0.0136581
828.519	0.0138281
828.597	0.0137956
828.675	0.0137532
828.753	0.0136168
828.831	0.0137080
828.910	0.0137383
828.988	0.0135489
829.066	0.0134713
829.144	0.0134955
829.222	0.0134258
829.300	0.0134662
829.378	0.0133306
829.456	0.0133151
829.535	0.0133380
829.613	0.0132075
829.691	0.0132605
829.769	0.0133082
829.847	0.0133625
829.925	0.0131994
830.003	0.0132551
830.081	0.0132222
830.160	0.0131650
830.238	0.0131865
830.316	0.0131814
830.394	0.0131285
830.472	0.0132479
830.550	0.0130634
830.628	0.0130596
830.706	0.0133239
830.785	0.0130262
830.863	0.0130202
830.941	0.0130407
831.019	0.0131013
831.097	0.0130028
831.175	0.0130154
831.253	0.0130226
831.331	0.0130405
831.410	0.0130749
831.488	0.0131169
831.566	0.0131787
831.644	0.0131502
831.722	0.0129544
831.800	0.0130069
831.878	0.0131499
831.956	0.0132263
832.035	0.0132595
832.113	0.0131352
832.191	0.0131973
832.269	0.0132240
832.347	0.0131602
832.425	0.0131650
832.503	0.0132808
832.581	0.0133176
832.660	0.0134401
832.738	0.0133804
832.816	0.0133754
832.894	0.0132830
832.972	0.0134298
833.050	0.0133024
833.128	0.0133363
833.206	0.0132974
833.285	0.0132900
833.363	0.0132276
833.441	0.0133932
833.519	0.0133809
833.597	0.0132857
833.675	0.0134205
833.753	0.0133700
833.831	0.0134258
833.910	0.0133583
833.988	0.0136078
834.066	0.0134454
834.144	0.0133968
834.222	0.0134182
834.300	0.0134655
834.378	0.0135976
834.456	0.0136565
834.535	0.0137013
834.613	0.0136288
834.691	0.0137173
834.769	0.0137215
834.847	0.0137456
834.925	0.0137311
835.003	0.0137296
835.081	0.0139052
835.160	0.0138213
835.238	0.0137411
835.316	0.0139749
835.394	0.0138607
835.472	0.0140096
835.550	0.0138347
835.628	0.0136689
835.706	0.0138058
835.785	0.0137288
835.863	0.0136888
835.941	0.0138358
836.019	0.0137489
836.097	0.0135651
836.175	0.0135125
836.253	0.0136176
836.331	0.0136198
836.410	0.0135342
836.488	0.0136036
836.566	0.0133068
836.644	0.0133270
836.722	0.0134135
836.800	0.0132998
836.878	0.0132403
836.956	0.0134757
837.035	0.0133248
837.113	0.0132352
837.191	0.0132563
837.269	0.0134122
837.347	0.0132041
837.425	0.0131509
837.503	0.0131371
837.581	0.0131307
837.660	0.0133556
837.738	0.0132496
837.816	0.0131820
837.894	0.0132938
837.972	0.0131105
838.050	0.0131300
838.128	0.0133101
838.206	0.0133635
838.285	0.0132934
838.363	0.0133025
838.441	0.0132118
838.519	0.0133633
838.597	0.0134132
838.675	0.0132865
838.753	0.0133250
838.831	0.0133428
838.910	0.0132610
838.988	0.0133630
839.066	0.0134777
839.144	0.0133475
839.222	0.0131172
839.300	0.0132751
839.378	0.0134435
839.456	0.0133459
839.535	0.0133815
839.613	0.0134261
839.691	0.0135708
839.769	0.0135196
839.847	0.0135388
839.925	0.0136184
840.003	0.0135783
840.081	0.0135797
840.160	0.0134554
840.238	0.0134962
840.316	0.0134552
840.394	0.0133717
840.472	0.0134243
840.550	0.0134639
840.628	0.0135397
840.706	0.0133157
840.785	0.0132928
840.863	0.0133666
840.941	0.0133639
841.019	0.0133076
841.097	0.0133872
841.175	0.0132991
841.253	0.0133193
841.331	0.0131850
841.410	0.0134409
841.488	0.0134024
841.566	0.0134248
841.644	0.0133559
841.722	0.0133968
841.800	0.0134126
841.878	0.0134922
841.956	0.0135069
842.035	0.0136082
842.113	0.0134723
842.191	0.0136523
842.269	0.0135845
842.347	0.0136217
842.425	0.0136590
842.503	0.0136938
842.581	0.0136445
842.660	0.0135802
842.738	0.0136693
842.816	0.0136096
842.894	0.0135793
842.972	0.0135414
843.050	0.0134341
843.128	0.0135215
843.206	0.0135412
843.285	0.0132461
843.363	0.0132818
843.441	0.0132741
843.519	0.0132355
843.597	0.0133543
843.675	0.0132845
843.753	0.0132838
843.831	0.0132117
843.910	0.0131647
843.988	0.0131936
844.066	0.0132194
844.144	0.0131400
844.222	0.0132832
844.300	0.0132088
844.378	0.0131857
844.456	0.0131461
844.535	0.0131142
844.613	0.0133331
844.691	0.0132257
844.769	0.0131876
844.847	0.0131289
844.925	0.0130830
845.003	0.0131979
845.081	0.0132633
845.160	0.0132579
845.238	0.0133151
845.316	0.0134086
845.394	0.0131741
845.472	0.0131668
845.550	0.0132643
845.628	0.0132539
845.706	0.0133080
845.785	0.0132726
845.863	0.0131848
845.941	0.0133399
846.019	0.0133860
846.097	0.0132418
846.175	0.0134757
846.253	0.0134090
846.331	0.0133061
846.410	0.0133543
846.488	0.0134830
846.566	0.0135646
846.644	0.0135873
846.722	0.0135445
846.800	0.0135416
846.878	0.0135126
846.956	0.0134609
847.035	0.0133774
847.113	0.0136075
847.191	0.0135541
847.269	0.0134625
847.347	0.0135500
847.425	0.0132951
847.503	0.0134368
847.581	0.0133719
847.660	0.0133741
847.738	0.0135011
847.816	0.0134459
847.894	0.0132703
847.972	0.0132456
848.050	0.0131860
848.128	0.0132745
848.206	0.0132411
848.285	0.0133046
848.363	0.0133649
848.441	0.0132665
848.519	0.0133364
848.597	0.0133717
848.675	0.0133430
848.753	0.0133821
848.831	0.0133530
848.910	0.0135160
848.988	0.0136042
849.066	0.0134981
849.144	0.0136654
849.222	0.0134969
849.300	0.0136803
849.378	0.0137400
849.456	0.0137412
849.535	0.0138515
849.613	0.0137936
849.691	0.0137884
849.769	0.0137302
849.847	0.0138000
849.925	0.0136908
850.003	0.0136359
850.081	0.0135996
850.160	0.0135116
850.238	0.0136726
850.316	0.0136435
850.394	0.0135187
850.472	0.0135385
850.550	0.0135263
850.628	0.0134576
850.706	0.0134211
850.785	0.0135415
850.863	0.0135122
850.941	0.0134706
851.019	0.0135497
851.097	0.0134035
851.175	0.0134544
851.253	0.0133516
851.331	0.0133448
851.410	0.0134180
851.488	0.0134869
851.566	0.0133283
851.644	0.0132854
851.722	0.0133515
851.800	0.0133231
851.878	0.0132909
851.956	0.0131658
852.035	0.0131943
852.113	0.0133828
852.191	0.0134171
852.269	0.0132799
852.347	0.0133776
852.425	0.0131832
852.503	0.0131789
852.581	0.0132864
852.660	0.0132721
852.738	0.0133645
852.816	0.0132044
852.894	0.0132979
852.972	0.0134320
853.050	0.0133558
853.128	0.0132182
853.206	0.0133823
853.285	0.0132960
853.363	0.0132748
853.441	0.0133282
853.519	0.0132491
853.597	0.0133086
853.675	0.0133289
853.753	0.0133657
853.831	0.0133987
853.910	0.0133710
853.988	0.0132518
854.066	0.0132808
854.144	0.0134892
854.222	0.0134000
854.300	0.0132394
854.378	0.0132796
854.456	0.0130615
854.535	0.0132301
854.613	0.0132617
854.691	0.0131797
854.769	0.0131446
854.847	0.0131166
854.925	0.0131096
855.003	0.0131470
855.081	0.0131907
855.160	0.0131792
855.238	0.0129739
855.316	0.0130222
855.394	0.0131017
855.472	0.0131379
855.550	0.0131685
855.628	0.0131560
855.706	0.0131395
855.785	0.0132982
855.863	0.0131140
855.941	0.0132548
856.019	0.0133397
856.097	0.0133846
856.175	0.0133427
856.253	0.0134370
856.331	0.0135346
856.410	0.0135685
856.488	0.0136121
856.566	0.0136303
856.644	0.0136504
856.722	0.0136286
856.800	0.0136798
856.878	0.0137284
856.956	0.0137910
857.035	0.0137935
857.113	0.0137120
857.191	0.0135777
857.269	0.0135954
857.347	0.0136105
857.425	0.0135365
857.503	0.0136482
857.581	0.0135558
857.660	0.0136504
857.738	0.0134302
857.816	0.0134473
857.894	0.0134468
857.972	0.0135380
858.050	0.0133708
858.128	0.0133247
858.206	0.0135452
858.285	0.0134090
858.363	0.0134885
858.441	0.0133861
858.519	0.0135239
858.597	0.0134526
858.675	0.0133463
858.753	0.0133920
858.831	0.0135124
858.910	0.0133532
858.988	0.0133681
859.066	0.0133315
859.144	0.0132136
859.222	0.0132616
859.300	0.0133663
859.378	0.0133075
859.456	0.0132137
859.535	0.0132031
859.613	0.0131384
859.691	0.0132916
859.769	0.0131647
859.847	0.0131779
859.925	0.0132386
860.003	0.0132838
860.081	0.0132061
860.160	0.0133304
860.238	0.0133522
860.316	0.0132745
860.394	0.0131722
860.472	0.0131483
860.550	0.0132581
860.628	0.0131558
860.706	0.0132140
860.785	0.0133469
860.863	0.0133095
860.941	0.0132161
861.019	0.0134217
861.097	0.0133790
861.175	0.0131887
861.253	0.0133215
861.331	0.0134820
861.410	0.0135032
861.488	0.0133521
861.566	0.0132550
861.644	0.0133237
861.722	0.0133694
861.800	0.0134032
861.878	0.0133224
861.956	0.0132430
862.035	0.0131788
862.113	0.0133697
862.191	0.0132174
862.269	0.0133190
862.347	0.0132193
862.425	0.0133733
862.503	0.0133639
862.581	0.0133686
862.660	0.0132648
862.738	0.0133986
862.816	0.0132182
862.894	0.0134122
862.972	0.0132572
863.050	0.0134161
863.128	0.0135609
863.206	0.0135136
863.285	0.0135294
863.363	0.0133565
863.441	0.0135791
863.519	0.0136892
863.597	0.0136993
863.675	0.0138184
863.753	0.0137283
863.831	0.0138726
863.910	0.0138355
863.988	0.0138600
864.066	0.0137474
864.144	0.0138247
864.222	0.0138231
864.300	0.0137830
864.378	0.0138694
864.456	0.0137830
864.535	0.0137527
864.613	0.0137185
864.691	0.0135268
864.769	0.0136794
864.847	0.0137125
864.925	0.0137103
865.003	0.0135857
865.081	0.0135593
865.160	0.0135401
865.238	0.0135522
865.316	0.0136058
865.394	0.0134081
865.472	0.0135316
865.550	0.0135442
865.628	0.0134734
865.706	0.0133316
865.785	0.0134539
865.863	0.0133546
865.941	0.0133184
866.019	0.0132519
866.097	0.0134733
866.175	0.0134032
866.253	0.0132349
866.331	0.0132581
866.410	0.0133217
866.488	0.0132724
866.566	0.0132481
866.644	0.0132038
866.722	0.0131680
866.800	0.0132461
866.878	0.0132587
866.956	0.0131136
867.035	0.0131818
867.113	0.0132600
867.191	0.0130997
867.269	0.0132129
867.347	0.0131816
867.425	0.0131081
867.503	0.0131475
867.581	0.0133040
867.660	0.0132671
867.738	0.0133302
867.816	0.0131963
867.894	0.0133260
867.972	0.0133559
868.050	0.0134255
868.128	0.0133530
868.206	0.0135198
868.285	0.0133559
868.363	0.0135440
868.441	0.0135067
868.519	0.0135856
868.597	0.0134480
868.675	0.0134749
868.753	0.0135825
868.831	0.0135773
868.910	0.0133917
868.988	0.0135673
869.066	0.0135854
869.144	0.0135177
869.222	0.0134843
869.300	0.0134178
869.378	0.0135318
869.456	0.0134127
869.535	0.0134579
869.613	0.0134985
869.691	0.0134002
869.769	0.0135495
869.847	0.0135680
869.925	0.0134830
870.003	0.0134687
870.081	0.0135600
870.160	0.0135960
870.238	0.0136462
870.316	0.0136232
870.394	0.0137444
870.472	0.0136882
870.550	0.0137121
870.628	0.0137652
870.706	0.0137559
870.785	0.0138241
870.863	0.0138500
870.941	0.0138919
871.019	0.0137765
871.097	0.0138061
871.175	0.0139700
871.253	0.0140019
871.331	0.0138255
871.410	0.0137123
871.488	0.0138045
871.566	0.0136893
871.644	0.0135905
871.722	0.0135953
871.800	0.0136572
871.878	0.0135667
871.956	0.0137439
872.035	0.0135543
872.113	0.0134142
872.191	0.0133894
872.269	0.0134300
872.347	0.0133429
872.425	0.0134214
872.503	0.0134053
872.581	0.0133347
872.660	0.0132988
872.738	0.0133391
872.816	0.0133597
872.894	0.0131374
872.972	0.0132225
873.050	0.0132238
873.128	0.0132399
873.206	0.0133179
873.285	0.0132642
873.363	0.0132359
873.441	0.0133054
873.519	0.0132846
873.597	0.0131971
873.675	0.0132422
873.753	0.0132742
873.831	0.0132677
873.910	0.0131419
873.988	0.0132134
874.066	0.0131321
874.144	0.0133189
874.222	0.0131583
874.300	0.0131391
874.378	0.0132128
874.456	0.0131579
874.535	0.0130589
874.613	0.0131429
874.691	0.0131202
874.769	0.0132204
874.847	0.0132870
874.925	0.0132858
875.003	0.0132955
875.081	0.0133388
875.160	0.0132967
875.238	0.0133652
875.316	0.0133685
875.394	0.0134885
875.472	0.0134721
875.550	0.0133231
875.628	0.0134729
875.706	0.0134283
875.785	0.0132977
875.863	0.0134708
875.941	0.0136372
876.019	0.0135349
876.097	0.0134613
876.175	0.0133857
876.253	0.0133935
876.331	0.0133517
876.410	0.0135354
876.488	0.0135292
876.566	0.0134964
876.644	0.0133659
876.722	0.0133699
876.800	0.0133647
876.878	0.0133094
876.956	0.0133158
877.035	0.0133556
877.113	0.0134972
877.191	0.0135150
877.269	0.0133892
877.347	0.0134271
877.425	0.0134487
877.503	0.0134528
877.581	0.0135766
877.660	0.0135558
877.738	0.0135454
877.816	0.0136472
877.894	0.0137190
877.972	0.0137058
878.050	0.0137293
878.128	0.0136257
878.206	0.0136772
878.285	0.0138020
878.363	0.0137500
878.441	0.0137876
878.519	0.0138222
878.597	0.0136320
878.675	0.0135793
878.753	0.0136494
878.831	0.0136086
878.910	0.0134745
878.988	0.0134919
879.066	0.0135872
879.144	0.0135281
879.222	0.0133491
879.300	0.0134289
879.378	0.0134734
879.456	0.0134235
879.535	0.0134226
879.613	0.0133431
879.691	0.0132755
879.769	0.0131042
879.847	0.0132932
879.925	0.0133360
880.003	0.0132554
880.081	0.0131210
880.160	0.0130463
880.238	0.0132416
880.316	0.0132951
880.394	0.0130865
880.472	0.0130862
880.550	0.0133078
880.628	0.0131902
880.706	0.0132047
880.785	0.0131668
880.863	0.0130874
880.941	0.0132566
881.019	0.0131239
881.097	0.0130199
881.175	0.0130749
881.253	0.0131602
881.331	0.0129869
881.410	0.0133034
881.488	0.0132494
881.566	0.0131306
881.644	0.0131947
881.722	0.0133060
881.800	0.0131155
881.878	0.0130737
881.956	0.0131924
882.035	0.0133062
882.113	0.0132654
882.191	0.0132677
882.269	0.0132446
882.347	0.0132909
882.425	0.0134161
882.503	0.0133876
882.581	0.0133495
882.660	0.0132355
882.738	0.0134797
882.816	0.0133450
882.894	0.0133978
882.972	0.0133743
883.050	0.0132956
883.128	0.0133748
883.206	0.0133018
883.285	0.0133426
883.363	0.0132771
883.441	0.0132658
883.519	0.0133101
883.597	0.0133206
883.675	0.0132732
883.753	0.0132687
883.831	0.0132809
883.910	0.0133079
883.988	0.0133462
884.066	0.0133839
884.144	0.0132805
884.222	0.0131931
884.300	0.0133638
884.378	0.0132975
884.456	0.0134646
884.535	0.0135533
884.613	0.0135214
884.691	0.0134933
884.769	0.0136557
884.847	0.0135958
884.925	0.0136371
885.003	0.0136673
885.081	0.0136558
885.160	0.0138258
885.238	0.0138512
885.316	0.0136856
885.394	0.0137759
885.472	0.0138483
885.550	0.0140012
885.628	0.0138668
885.706	0.0137305
885.785	0.0137722
885.863	0.0138312
885.941	0.0137019
886.019	0.0137024
886.097	0.0137041
886.175	0.0136839
886.253	0.0136172
886.331	0.0135144
886.410	0.0134818
886.488	0.0135011
886.566	0.0133398
886.644	0.0133440
886.722	0.0134917
886.800	0.0133508
886.878	0.0132302
886.956	0.0133759
887.035	0.0132947
887.113	0.0133208
887.191	0.0134361
887.269	0.0132705
887.347	0.0132517
887.425	0.0132390
887.503	0.0132846
887.581	0.0132417
887.660	0.0133527
887.738	0.0132339
887.816	0.0132027
887.894	0.0133202
887.972	0.0132532
888.050	0.0132563
888.128	0.0133925
888.206	0.0133591
888.285	0.0132253
888.363	0.0132141
888.441	0.0131444
888.519	0.0132385
888.597	0.0131820
888.675	0.0132443
888.753	0.0132299
888.831	0.0132924
888.910	0.0134226
888.988	0.0133177
889.066	0.0131900
889.144	0.0132849
889.222	0.0133932
889.300	0.0133286
889.378	0.0133133
889.456	0.0133303
889.535	0.0135176
889.613	0.0135402
889.691	0.0134396
889.769	0.0134807
889.847	0.0135132
889.925	0.0134939
890.003	0.0136140
890.081	0.0136251
890.160	0.0134432
890.238	0.0136655
890.316	0.0135906
890.394	0.0135590
890.472	0.0134304
890.550	0.0134922
890.628	0.0133331
890.706	0.0134300
890.785	0.0135444
890.863	0.0134489
890.941	0.0134692
891.019	0.0135131
891.097	0.0132767
891.175	0.0133401
891.253	0.0133946
891.331	0.0133969
891.410	0.0133613
891.488	0.0134691
891.566	0.0134233
891.644	0.0135708
891.722	0.0135685
891.800	0.0133694
891.878	0.0135103
891.956	0.0135461
892.035	0.0136296
892.113	0.0136720
892.191	0.0136685
892.269	0.0137889
892.347	0.0136372
892.425	0.0137124
892.503	0.0137765
892.581	0.0138840
892.660	0.0138861
892.738	0.0137550
892.816	0.0136924
892.894	0.0137128
892.972	0.0138457
893.050	0.0138239
893.128	0.0136861
893.206	0.0136024
893.285	0.0134916
893.363	0.0137910
893.441	0.0135151
893.519	0.0134550
893.597	0.0135303
893.675	0.0134390
893.753	0.0134081
893.831	0.0135060
893.910	0.0133822
893.988	0.0133092
894.066	0.0134398
894.144	0.0132726
894.222	0.0133506
894.300	0.0131895
894.378	0.0131705
894.456	0.0130818
894.535	0.0131477
894.613	0.0130383
894.691	0.0130802
894.769	0.0131283
894.847	0.0130994
894.925	0.0131390
895.003	0.0130637
895.081	0.0131431
895.160	0.0129372
895.238	0.0129816
895.316	0.0131042
895.394	0.0129896
895.472	0.0130034
895.550	0.0130814
895.628	0.0131091
895.706	0.0130695
895.785	0.0131554
895.863	0.0129777
895.941	0.0131087
896.019	0.0132899
896.097	0.0131508
896.175	0.0129930
896.253	0.0132243
896.331	0.0131889
896.410	0.0132478
896.488	0.0134290
896.566	0.0132082
896.644	0.0132526
896.722	0.0133397
896.800	0.0134540
896.878	0.0134885
896.956	0.0134720
897.035	0.0136423
897.113	0.0135528
897.191	0.0135737
897.269	0.0135059
897.347	0.0134522
897.425	0.0135735
897.503	0.0136173
897.581	0.0136249
897.660	0.0135045
897.738	0.0132721
897.816	0.0134126
897.894	0.0134282
897.972	0.0134813
898.050	0.0134663
898.128	0.0134225
898.206	0.0133702
898.285	0.0133236
898.363	0.0133926
898.441	0.0134653
898.519	0.0135070
898.597	0.0134066
898.675	0.0133811
898.753	0.0133045
898.831	0.0135492
898.910	0.0134017
898.988	0.0135065
899.066	0.0135068
899.144	0.0133792
899.222	0.0134921
899.300	0.0135075
899.378	0.0134919
899.456	0.0134187
899.535	0.0135587
899.613	0.0135866
899.691	0.0136246
899.769	0.0135822
899.847	0.0136832
899.925	0.0135717
900.003	0.0135126
900.081	0.0136481
900.160	0.0135180
900.238	0.0135350
900.316	0.0134248
900.394	0.0134139
900.472	0.0134492
900.550	0.0134985
900.628	0.0134313
900.706	0.0132882
900.785	0.0133967
900.863	0.0132501
900.941	0.0133042
901.019	0.0134017
901.097	0.0133424
901.175	0.0132641
901.253	0.0131847
901.331	0.0132467
901.410	0.0132318
901.488	0.0132641
901.566	0.0132024
901.644	0.0131702
901.722	0.0132085
901.800	0.0132188
901.878	0.0131601
901.956	0.0132735
902.035	0.0133321
902.113	0.0132098
902.191	0.0131871
902.269	0.0132265
902.347	0.0133566
902.425	0.0132300
902.503	0.0132603
902.581	0.0132523
902.660	0.0130824
902.738	0.0129712
902.816	0.0132443
902.894	0.0133678
902.972	0.0131406
903.050	0.0133392
903.128	0.0132577
903.206	0.0133838
903.285	0.0135326
903.363	0.0132913
903.441	0.0132924
903.519	0.0135080
903.597	0.0133923
903.675	0.0135313
903.753	0.0134289
903.831	0.0134625
903.910	0.0135883
903.988	0.0134713
904.066	0.0132881
904.144	0.0136298
904.222	0.0135744
904.300	0.0134554
904.378	0.0134717
904.456	0.0135470
904.535	0.0135603
904.613	0.0134300
904.691	0.0135265
904.769	0.0134380
904.847	0.0133951
904.925	0.0133916
905.003	0.0134039
905.081	0.0134372
905.160	0.0133902
905.238	0.0133772
905.316	0.0132767
905.394	0.0131682
905.472	0.0132626
905.550	0.0132552
905.628	0.0133320
905.706	0.0132417
905.785	0.0132481
905.863	0.0131995
905.941	0.0133327
906.019	0.0133286
906.097	0.0132692
906.175	0.0132823
906.253	0.0133823
906.331	0.0134014
906.410	0.0134250
906.488	0.0135281
906.566	0.0136298
906.644	0.0137183
906.722	0.0137025
906.800	0.0135056
906.878	0.0136064
906.956	0.0136677
907.035	0.0135744
907.113	0.0136644
907.191	0.0135018
907.269	0.0135753
907.347	0.0137102
907.425	0.0135924
907.503	0.0136063
907.581	0.0136235
907.660	0.0135764
907.738	0.0137694
907.816	0.0135268
907.894	0.0134712
907.972	0.0135854
908.050	0.0135651
908.128	0.0135347
908.206	0.0134886
908.285	0.0134617
908.363	0.0135143
908.441	0.0133432
908.519	0.0134880
908.597	0.0133588
908.675	0.0133092
908.753	0.0132465
908.831	0.0132988
908.910	0.0133491
908.988	0.0132471
909.066	0.0132645
909.144	0.0131966
909.222	0.0132048
909.300	0.0133714
909.378	0.0131906
909.456	0.0132243
909.535	0.0132179
909.613	0.0131472
909.691	0.0132012
909.769	0.0132835
909.847	0.0132400
909.925	0.0132679
910.003	0.0131220
910.081	0.0132426
910.160	0.0131938
910.238	0.0131756
910.316	0.0132871
910.394	0.0132713
910.472	0.0130760
910.550	0.0133064
910.628	0.0133644
910.706	0.0133339
910.785	0.0134876
910.863	0.0134074
910.941	0.0133124
911.019	0.0133544
911.097	0.0134383
911.175	0.0134470
911.253	0.0134930
911.331	0.0135602
911.410	0.0135027
911.488	0.0135478
911.566	0.0135081
911.644	0.0135378
911.722	0.0135097
911.800	0.0134476
911.878	0.0134078
911.956	0.0135103
912.035	0.0134963
912.113	0.0135011
912.191	0.0134609
912.269	0.0135903
912.347	0.0135380
912.425	0.0133452
912.503	0.0134061
912.581	0.0133430
912.660	0.0134064
912.738	0.0134210
912.816	0.0134292
912.894	0.0132927
912.972	0.0133373
913.050	0.0134081
913.128	0.0133565
913.206	0.0134788
913.285	0.0133440
913.363	0.0133337
913.441	0.0134966
913.519	0.0134743
913.597	0.0134110
913.675	0.0133566
913.753	0.0136351
913.831	0.0137048
913.910	0.0135269
913.988	0.0134621
914.066	0.0136465
914.144	0.0136707
914.222	0.0136036
914.300	0.0137831
914.378	0.0137413
914.456	0.0136394
914.535	0.0136762
914.613	0.0134708
914.691	0.0136209
914.769	0.0135530
914.847	0.0134292
914.925	0.0135355
915.003	0.0133962
915.081	0.0132976
915.160	0.0133456
915.238	0.0133710
915.316	0.0132389
915.394	0.0131551
915.472	0.0133408
915.550	0.0132925
915.628	0.0131879
915.706	0.0131740
915.785	0.0131698
915.863	0.0132181
915.941	0.0132857
916.019	0.0132079
916.097	0.0133788
916.175	0.0131981
916.253	0.0132256
916.331	0.0131773
916.410	0.0131256
916.488	0.0132370
916.566	0.0131692
916.644	0.0132725
916.722	0.0131281
916.800	0.0131673
916.878	0.0131910
916.956	0.0131561
917.035	0.0131352
917.113	0.0132969
917.191	0.0131637
917.269	0.0131538
917.347	0.0132088
917.425	0.0131744
917.503	0.0132256
917.581	0.0131735
917.660	0.0133379
917.738	0.0134096
917.816	0.0134422
917.894	0.0133085
917.972	0.0132578
918.050	0.0134410
918.128	0.0134235
918.206	0.0134137
918.285	0.0133695
918.363	0.0134259
918.441	0.0133546
918.519	0.0134654
918.597	0.0134711
918.675	0.0134071
918.753	0.0134521
918.831	0.0134641
918.910	0.0134139
918.988	0.0135104
919.066	0.0134756
919.144	0.0134013
919.222	0.0134938
919.300	0.0134254
919.378	0.0133647
919.456	0.0134010
919.535	0.0133192
919.613	0.0132769
919.691	0.0133423
919.769	0.0134032
919.847	0.0132774
919.925	0.0132422
920.003	0.0132716
920.081	0.0133255
920.160	0.0133917
920.238	0.0134058
920.316	0.0133488
920.394	0.0131988
920.472	0.0133168
920.550	0.0133868
920.628	0.0133772
920.706	0.0133055
920.785	0.0133910
920.863	0.0134617
920.941	0.0134943
921.019	0.0134576
921.097	0.0134808
921.175	0.0136185
921.253	0.0135803
921.331	0.0136157
921.410	0.0134251
921.488	0.0136565
921.566	0.0137062
921.644	0.0137688
921.722	0.0136742
921.800	0.0138841
921.878	0.0137583
921.956	0.0136433
922.035	0.0137498
922.113	0.0136707
922.191	0.0136826
922.269	0.0135062
922.347	0.0136113
922.425	0.0136063
922.503	0.0135979
922.581	0.0134312
922.660	0.0135773
922.738	0.0136568
922.816	0.0135289
922.894	0.0136464
922.972	0.0134496
923.050	0.0135368
923.128	0.0133481
923.206	0.0132661
923.285	0.0134012
923.363	0.0133530
923.441	0.0132783
923.519	0.0132970
923.597	0.0132388
923.675	0.0131718
923.753	0.0132386
923.831	0.0133752
923.910	0.0131757
923.988	0.0131661
924.066	0.0130956
924.144	0.0131296
924.222	0.0131367
924.300	0.0131830
924.378	0.0131226
924.456	0.0130852
924.535	0.0132628
924.613	0.0131950
924.691	0.0131062
924.769	0.0132211
924.847	0.0132623
924.925	0.0132057
925.003	0.0131850
925.081	0.0130724
925.160	0.0132875
925.238	0.0132003
925.316	0.0130965
925.394	0.0131899
925.472	0.0132227
925.550	0.0132600
925.628	0.0132746
925.706	0.0132462
925.785	0.0133089
925.863	0.0133256
925.941	0.0132642
926.019	0.0134320
926.097	0.0133923
926.175	0.0135230
926.253	0.0134129
926.331	0.0133826
926.410	0.0134209
926.488	0.0134606
926.566	0.0134718
926.644	0.0133595
926.722	0.0133272
926.800	0.0134000
926.878	0.0134901
926.956	0.0134391
927.035	0.0134344
927.113	0.0133157
927.191	0.0134260
927.269	0.0134265
927.347	0.0134292
927.425	0.0133057
927.503	0.0133743
927.581	0.0135167
927.660	0.0134882
927.738	0.0133791
927.816	0.0133653
927.894	0.0134557
927.972	0.0136110
928.050	0.0136080
928.128	0.0133841
928.206	0.0136451
928.285	0.0137314
928.363	0.0136757
928.441	0.0135289
928.519	0.0136800
928.597	0.0137073
928.675	0.0136864
928.753	0.0136353
928.831	0.0139063
928.910	0.0137094
928.988	0.0135748
929.066	0.0136407
929.144	0.0137140
929.222	0.0135458
929.300	0.0135848
929.378	0.0136280
929.456	0.0133420
929.535	0.0135586
929.613	0.0135402
929.691	0.0133901
929.769	0.0134258
929.847	0.0133317
929.925	0.0131409
930.003	0.0133281
930.081	0.0132355
930.160	0.0133337
930.238	0.0132394
930.316	0.0132104
930.394	0.0131449
930.472	0.0130409
930.550	0.0133118
930.628	0.0133142
930.706	0.0130708
930.785	0.0130486
930.863	0.0130288
930.941	0.0132207
931.019	0.0133360
931.097	0.0131422
931.175	0.0130873
931.253	0.0130791
931.331	0.0131161
931.410	0.0131393
931.488	0.0131772
931.566	0.0131511
931.644	0.0131432
931.722	0.0129949
931.800	0.0131138
931.878	0.0131907
931.956	0.0131506
932.035	0.0132136
932.113	0.0132018
932.191	0.0131793
932.269	0.0131374
932.347	0.0132055
932.425	0.0131316
932.503	0.0131994
932.581	0.0133095
932.660	0.0132927
932.738	0.0133704
932.816	0.0133118
932.894	0.0133858
932.972	0.0134247
933.050	0.0134260
933.128	0.0133423
933.206	0.0135147
933.285	0.0134148
933.363	0.0134606
933.441	0.0135542
933.519	0.0134599
933.597	0.0134858
933.675	0.0134630
933.753	0.0134798
933.831	0.0134415
933.910	0.0135666
933.988	0.0136298
934.066	0.0134887
934.144	0.0134489
934.222	0.0135535
934.300	0.0136086
934.378	0.0134628
934.456	0.0133745
934.535	0.0135971
934.613	0.0134552
934.691	0.0134393
934.769	0.0134327
934.847	0.0133843
934.925	0.0133801
935.003	0.0135056
935.081	0.0132787
935.160	0.0134025
935.238	0.0135323
935.316	0.0135034
935.394	0.0134081
935.472	0.0135349
935.550	0.0135326
935.628	0.0135268
935.706	0.0135197
935.785	0.0135076
935.863	0.0135801
935.941	0.0135574
936.019	0.0136515
936.097	0.0136574
936.175	0.0135677
936.253	0.0136345
936.331	0.0137461
936.410	0.0137035
936.488	0.0135240
936.566	0.0135923
936.644	0.0135535
936.722	0.0134484
936.800	0.0134139
936.878	0.0134750
936.956	0.0135614
937.035	0.0135006
937.113	0.0134293
937.191	0.0136127
937.269	0.0134198
937.347	0.0134884
937.425	0.0135786
937.503	0.0134245
937.581	0.0134099
937.660	0.0135538
937.738	0.0135537
937.816	0.0134444
937.894	0.0135506
937.972	0.0134026
938.050	0.0135057
938.128	0.0135819
938.206	0.0135796
938.285	0.0135578
938.363	0.0135454
938.441	0.0135771
938.519	0.0134094
938.597	0.0135402
938.675	0.0135463
938.753	0.0136050
938.831	0.0136248
938.910	0.0136131
938.988	0.0136184
939.066	0.0134704
939.144	0.0135062
939.222	0.0135520
939.300	0.0134869
939.378	0.0134445
939.456	0.0133392
939.535	0.0135706
939.613	0.0135502
939.691	0.0134255
939.769	0.0134780
939.847	0.0133887
939.925	0.0133441
940.003	0.0134410
940.081	0.0135921
940.160	0.0135079
940.238	0.0134410
940.316	0.0134959
940.394	0.0135568
940.472	0.0134508
940.550	0.0135788
940.628	0.0135229
940.706	0.0136379
940.785	0.0134802
940.863	0.0134858
940.941	0.0134777
941.019	0.0134155
941.097	0.0135109
941.175	0.0132232
941.253	0.0133021
941.331	0.0133623
941.410	0.0134136
941.488	0.0132610
941.566	0.0132134
941.644	0.0131052
941.722	0.0131979
941.800	0.0132106
941.878	0.0130648
941.956	0.0130027
942.035	0.0131520
942.113	0.0131201
942.191	0.0130743
942.269	0.0130972
942.347	0.0131779
942.425	0.0132034
942.503	0.0132036
942.581	0.0131711
942.660	0.0132224
942.738	0.0132455
942.816	0.0133499
942.894	0.0133876
942.972	0.0134249
943.050	0.0134988
943.128	0.0135217
943.206	0.0133721
943.285	0.0133837
943.363	0.0135662
943.441	0.0134074
943.519	0.0135530
943.597	0.0135112
943.675	0.0135789
943.753	0.0133604
943.831	0.0134483
943.910	0.0134861
943.988	0.0133976
944.066	0.0134612
944.144	0.0134858
944.222	0.0135522
944.300	0.0134329
944.378	0.0133116
944.456	0.0133639
944.535	0.0135518
944.613	0.0134765
944.691	0.0136234
944.769	0.0135067
944.847	0.0136642
944.925	0.0135391
945.003	0.0133948
945.081	0.0134817
945.160	0.0135280
945.238	0.0135145
945.316	0.0135878
945.394	0.0135256
945.472	0.0134428
945.550	0.0134475
945.628	0.0136015
945.706	0.0135329
945.785	0.0135368
945.863	0.0134174
945.941	0.0134901
946.019	0.0133414
946.097	0.0135343
946.175	0.0134579
946.253	0.0135078
946.331	0.0134405
946.410	0.0133621
946.488	0.0133361
946.566	0.0133111
946.644	0.0133307
946.722	0.0133719
946.800	0.0132874
946.878	0.0134082
946.956	0.0133224
947.035	0.0133057
947.113	0.0131924
947.191	0.0133183
947.269	0.0133004
947.347	0.0133997
947.425	0.0133273
947.503	0.0133484
947.581	0.0131702
947.660	0.0133506
947.738	0.0133032
947.816	0.0133958
947.894	0.0133366
947.972	0.0133048
948.050	0.0133355
948.128	0.0133080
948.206	0.0133236
948.285	0.0134366
948.363	0.0133535
948.441	0.0133519
948.519	0.0131731
948.597	0.0132132
948.675	0.0131376
948.753	0.0131611
948.831	0.0132095
948.910	0.0129727
948.988	0.0131101
949.066	0.0131120
949.144	0.0131032
949.222	0.0129694
949.300	0.0130258
949.378	0.0131503
949.456	0.0131804
949.535	0.0132044
949.613	0.0132754
949.691	0.0132463
949.769	0.0131768
949.847	0.0132999
949.925	0.0133350
950.003	0.0132937
950.081	0.0134307
950.160	0.0133495
950.238	0.0133643
950.316	0.0135510
950.394	0.0135429
950.472	0.0134735
950.550	0.0134634
950.628	0.0135358
950.706	0.0136481
950.785	0.0135168
950.863	0.0134634
950.941	0.0135219
951.019	0.0135931
951.097	0.0136109
951.175	0.0134467
951.253	0.0133925
951.331	0.0136024
951.410	0.0134679
951.488	0.0134183
951.566	0.0134204
951.644	0.0135352
951.722	0.0133232
951.800	0.0133266
951.878	0.0133223
951.956	0.0132520
952.035	0.0133011
952.113	0.0133188
952.191	0.0133160
952.269	0.0131630
952.347	0.0132804
952.425	0.0131248
952.503	0.0130746
952.581	0.0132406
952.660	0.0132505
952.738	0.0131431
952.816	0.0130988
952.894	0.0132292
952.972	0.0132449
953.050	0.0131546
953.128	0.0131895
953.206	0.0131007
953.285	0.0132912
953.363	0.0130994
953.441	0.0130260
953.519	0.0129973
953.597	0.0129385
953.675	0.0130897
953.753	0.0130291
953.831	0.0130117
953.910	0.0131036
953.988	0.0129991
954.066	0.0130545
954.144	0.0129999
954.222	0.0130195
954.300	0.0131520
954.378	0.0131827
954.456	0.0130792
954.535	0.0131203
954.613	0.0132887
954.691	0.0131882
954.769	0.0131914
954.847	0.0133325
954.925	0.0134023
955.003	0.0134548
955.081	0.0132810
955.160	0.0134562
955.238	0.0134076
955.316	0.0135445
955.394	0.0134766
955.472	0.0134656
955.550	0.0133190
955.628	0.0133955
955.706	0.0135024
955.785	0.0134625
955.863	0.0134374
955.941	0.0133728
956.019	0.0133042
956.097	0.0134174
956.175	0.0132857
956.253	0.0133274
956.331	0.0132997
956.410	0.0131322
956.488	0.0132271
956.566	0.0131848
956.644	0.0132523
956.722	0.0132859
956.800	0.0133059
956.878	0.0133573
956.956	0.0132432
957.035	0.0132704
957.113	0.0132883
957.191	0.0133572
957.269	0.0134055
957.347	0.0133398
957.425	0.0135019
957.503	0.0135021
957.581	0.0135179
957.660	0.0136135
957.738	0.0136174
957.816	0.0135658
957.894	0.0135164
957.972	0.0135755
958.050	0.0137153
958.128	0.0136988
958.206	0.0136963
958.285	0.0137392
958.363	0.0136076
958.441	0.0136516
958.519	0.0136443
958.597	0.0136898
958.675	0.0136041
958.753	0.0135339
958.831	0.0136053
958.910	0.0135852
958.988	0.0136863
959.066	0.0136600
959.144	0.0135083
959.222	0.0136195
959.300	0.0136732
959.378	0.0136838
959.456	0.0135966
959.535	0.0135207
959.613	0.0136338
959.691	0.0136722
959.769	0.0133380
959.847	0.0134758
959.925	0.0137090
960.003	0.0135065
960.081	0.0134692
960.160	0.0135253
960.238	0.0133068
960.316	0.0133491
960.394	0.0133631
960.472	0.0132952
960.550	0.0132232
960.628	0.0132526
960.706	0.0131728
960.785	0.0132146
960.863	0.0133276
960.941	0.0130625
961.019	0.0131670
961.097	0.0133785
961.175	0.0132228
961.253	0.0131562
961.331	0.0131836
961.410	0.0131174
961.488	0.0131724
961.566	0.0132318
961.644	0.0131691
961.722	0.0132040
961.800	0.0132089
961.878	0.0132990
961.956	0.0133421
962.035	0.0132841
962.113	0.0131172
962.191	0.0132685
962.269	0.0134792
962.347	0.0133640
962.425	0.0133855
962.503	0.0134433
962.581	0.0135098
962.660	0.0134623
962.738	0.0135409
962.816	0.0136202
962.894	0.0134814
962.972	0.0135237
963.050	0.0134863
963.128	0.0134690
963.206	0.0136241
963.285	0.0135231
963.363	0.0136211
963.441	0.0135523
963.519	0.0134456
963.597	0.0136378
963.675	0.0135706
963.753	0.0136374
963.831	0.0136060
963.910	0.0135480
963.988	0.0135601
964.066	0.0135581
964.144	0.0134995
964.222	0.0137702
964.300	0.0138509
964.378	0.0137239
964.456	0.0136223
964.535	0.0136307
964.613	0.0138199
964.691	0.0137388
964.769	0.0138241
964.847	0.0138087
964.925	0.0137195
965.003	0.0137419
965.081	0.0138567
965.160	0.0138561
965.238	0.0138356
965.316	0.0138447
965.394	0.0137606
965.472	0.0138056
965.550	0.0138329
965.628	0.0138118
965.706	0.0136416
965.785	0.0137689
965.863	0.0137988
965.941	0.0136040
966.019	0.0136404
966.097	0.0136481
966.175	0.0135319
966.253	0.0136948
966.331	0.0135852
966.410	0.0134803
966.488	0.0134872
966.566	0.0134613
966.644	0.0134045
966.722	0.0134634
966.800	0.0134072
966.878	0.0132725
966.956	0.0132381
967.035	0.0134048
967.113	0.0131783
967.191	0.0131718
967.269	0.0131415
967.347	0.0133553
967.425	0.0132625
967.503	0.0131538
967.581	0.0131934
967.660	0.0132315
967.738	0.0130756
967.816	0.0131346
967.894	0.0130524
967.972	0.0130936
968.050	0.0130920
968.128	0.0130282
968.206	0.0131350
968.285	0.0131518
968.363	0.0131659
968.441	0.0131123
968.519	0.0131979
968.597	0.0131554
968.675	0.0131563
968.753	0.0131606
968.831	0.0132716
968.910	0.0131589
968.988	0.0132719
969.066	0.0133280
969.144	0.0134483
969.222	0.0133254
969.300	0.0132526
969.378	0.0133199
969.456	0.0133587
969.535	0.0133176
969.613	0.0133332
969.691	0.0134949
969.769	0.0134296
969.847	0.0133088
969.925	0.0133759
970.003	0.0134130
970.081	0.0134999
970.160	0.0134131
970.238	0.0132998
970.316	0.0133433
970.394	0.0133971
970.472	0.0133131
970.550	0.0133213
970.628	0.0133010
970.706	0.0132798
970.785	0.0133586
970.863	0.0132668
970.941	0.0132953
971.019	0.0132372
971.097	0.0130709
971.175	0.0133374
971.253	0.0132615
971.331	0.0131621
971.410	0.0130974
971.488	0.0132253
971.566	0.0131881
971.644	0.0132872
971.722	0.0132710
971.800	0.0132326
971.878	0.0132393
971.956	0.0131260
972.035	0.0133147
972.113	0.0132989
972.191	0.0134180
972.269	0.0133107
972.347	0.0134089
972.425	0.0134222
972.503	0.0133971
972.581	0.0133017
972.660	0.0133537
972.738	0.0132948
972.816	0.0133730
972.894	0.0133359
972.972	0.0134303
973.050	0.0132712
973.128	0.0133305
973.206	0.0132941
973.285	0.0132928
973.363	0.0133191
973.441	0.0133531
973.519	0.0133501
973.597	0.0133025
973.675	0.0133433
973.753	0.0132571
973.831	0.0133112
973.910	0.0131386
973.988	0.0132671
974.066	0.0131525
974.144	0.0132603
974.222	0.0131025
974.300	0.0132139
974.378	0.0131284
974.456	0.0130849
974.535	0.0131600
974.613	0.0130917
974.691	0.0132753
974.769	0.0130630
974.847	0.0132502
974.925	0.0130882
975.003	0.0133313
975.081	0.0131055
975.160	0.0131247
975.238	0.0130854
975.316	0.0132404
975.394	0.0131022
975.472	0.0130533
975.550	0.0132714
975.628	0.0133153
975.706	0.0131435
975.785	0.0132567
975.863	0.0132199
975.941	0.0132066
976.019	0.0131812
976.097	0.0131505
976.175	0.0132226
976.253	0.0132926
976.331	0.0131915
976.410	0.0132603
976.488	0.0132065
976.566	0.0134047
976.644	0.0130985
976.722	0.0133475
976.800	0.0133281
976.878	0.0133263
976.956	0.0133176
977.035	0.0133388
977.113	0.0133581
977.191	0.0133527
977.269	0.0132093
977.347	0.0133588
977.425	0.0134225
977.503	0.0133954
977.581	0.0133165
977.660	0.0134235
977.738	0.0131922
977.816	0.0132268
977.894	0.0131573
977.972	0.0132298
978.050	0.0132100
978.128	0.0132304
978.206	0.0132821
978.285	0.0131992
978.363	0.0131581
978.441	0.0132095
978.519	0.0132458
978.597	0.0131406
978.675	0.0132494
978.753	0.0132018
978.831	0.0131530
978.910	0.0132849
978.988	0.0132369
979.066	0.0133705
979.144	0.0132687
979.222	0.0133494
979.300	0.0134029
979.378	0.0134165
979.456	0.0133170
979.535	0.0132993
979.613	0.0135174
979.691	0.0134322
979.769	0.0135031
979.847	0.0135732
979.925	0.0134647
