05/03/2022	20:42:43	Ver.	4.1	UNKNOWN
Optical Delay	660.003261	Delta X		0.078125	Sweeps	1	Scan Rate	0/0
Coordinates	Axis 1	NaN	Axis 2	NaN	Axis 3	NaN	Axis 4	NaN	Axis 5	NaN	Axis 6	0.000000
TX Power	0.000000	RX Power	0.000000

660.003	0.0137720
660.081	0.0137775
660.160	0.0137423
660.238	0.0137195
660.316	0.0137832
660.394	0.0137700
660.472	0.0136895
660.550	0.0137614
660.628	0.0136815
660.706	0.0137031
660.785	0.0137888
660.863	0.0138770
660.941	0.0137428
661.019	0.0137942
661.097	0.0137182
661.175	0.0137910
661.253	0.0137875
661.331	0.0137930
661.410	0.0137675
661.488	0.0137501
661.566	0.0137878
661.644	0.0138660
661.722	0.0138146
661.800	0.0138482
661.878	0.0138097
661.956	0.0137269
662.035	0.0137059
662.113	0.0137645
662.191	0.0137399
662.269	0.0137199
662.347	0.0138566
662.425	0.0137366
662.503	0.0138412
662.581	0.0137671
662.660	0.0138010
662.738	0.0138398
662.816	0.0137310
662.894	0.0137241
662.972	0.0137982
663.050	0.0137411
663.128	0.0138655
663.206	0.0138220
663.285	0.0137483
663.363	0.0137945
663.441	0.0138265
663.519	0.0137717
663.597	0.0137581
663.675	0.0138643
663.753	0.0139960
663.831	0.0138171
663.910	0.0137383
663.988	0.0138344
664.066	0.0137199
664.144	0.0137347
664.222	0.0137062
664.300	0.0137307
664.378	0.0137596
664.456	0.0136624
664.535	0.0137364
664.613	0.0136944
664.691	0.0139015
664.769	0.0136478
664.847	0.0139314
664.925	0.0137861
665.003	0.0137763
665.081	0.0137908
665.160	0.0137525
665.238	0.0139037
665.316	0.0137943
665.394	0.0138298
665.472	0.0138532
665.550	0.0138812
665.628	0.0138670
665.706	0.0137373
665.785	0.0137904
665.863	0.0137925
665.941	0.0136466
666.019	0.0138087
666.097	0.0136977
666.175	0.0137218
666.253	0.0137507
666.331	0.0137234
666.410	0.0138360
666.488	0.0136585
666.566	0.0137025
666.644	0.0137475
666.722	0.0137280
666.800	0.0136703
666.878	0.0136613
666.956	0.0136678
667.035	0.0137366
667.113	0.0137912
667.191	0.0139953
667.269	0.0137934
667.347	0.0136407
667.425	0.0136435
667.503	0.0138213
667.581	0.0137357
667.660	0.0138208
667.738	0.0137944
667.816	0.0137662
667.894	0.0138631
667.972	0.0137343
668.050	0.0138107
668.128	0.0137576
668.206	0.0138239
668.285	0.0138406
668.363	0.0138773
668.441	0.0137387
668.519	0.0137286
668.597	0.0138873
668.675	0.0139445
668.753	0.0137370
668.831	0.0136436
668.910	0.0137320
668.988	0.0138013
669.066	0.0138641
669.144	0.0138529
669.222	0.0138290
669.300	0.0137342
669.378	0.0137999
669.456	0.0138686
669.535	0.0139787
669.613	0.0138449
669.691	0.0137673
669.769	0.0136738
669.847	0.0138004
669.925	0.0138445
670.003	0.0138474
670.081	0.0137438
670.160	0.0137428
670.238	0.0138158
670.316	0.0137238
670.394	0.0137499
670.472	0.0138153
670.550	0.0137854
670.628	0.0138757
670.706	0.0137903
670.785	0.0138743
670.863	0.0138235
670.941	0.0136327
671.019	0.0137563
671.097	0.0137919
671.175	0.0139429
671.253	0.0138824
671.331	0.0138805
671.410	0.0139337
671.488	0.0138670
671.566	0.0137607
671.644	0.0138445
671.722	0.0137946
671.800	0.0138046
671.878	0.0138841
671.956	0.0137994
672.035	0.0139715
672.113	0.0138121
672.191	0.0138335
672.269	0.0137978
672.347	0.0137608
672.425	0.0137742
672.503	0.0138268
672.581	0.0137041
672.660	0.0137323
672.738	0.0139008
672.816	0.0139008
672.894	0.0138411
672.972	0.0138753
673.050	0.0137631
673.128	0.0138052
673.206	0.0138357
673.285	0.0138786
673.363	0.0138539
673.441	0.0138448
673.519	0.0137987
673.597	0.0139374
673.675	0.0139504
673.753	0.0139248
673.831	0.0138738
673.910	0.0139682
673.988	0.0138268
674.066	0.0138756
674.144	0.0137756
674.222	0.0140030
674.300	0.0138876
674.378	0.0138670
674.456	0.0138400
674.535	0.0138002
674.613	0.0138228
674.691	0.0137683
674.769	0.0139285
674.847	0.0138306
674.925	0.0136678
675.003	0.0138647
675.081	0.0138673
675.160	0.0139404
675.238	0.0137650
675.316	0.0137560
675.394	0.0139679
675.472	0.0137759
675.550	0.0137449
675.628	0.0139561
675.706	0.0138915
675.785	0.0137936
675.863	0.0139188
675.941	0.0138133
676.019	0.0138407
676.097	0.0139286
676.175	0.0137885
676.253	0.0138136
676.331	0.0138705
676.410	0.0139546
676.488	0.0138458
676.566	0.0137946
676.644	0.0139245
676.722	0.0138966
676.800	0.0136794
676.878	0.0139752
676.956	0.0139347
677.035	0.0139409
677.113	0.0139178
677.191	0.0138084
677.269	0.0139188
677.347	0.0139704
677.425	0.0139993
677.503	0.0137435
677.581	0.0136342
677.660	0.0136942
677.738	0.0138328
677.816	0.0137342
677.894	0.0139280
677.972	0.0136900
678.050	0.0137569
678.128	0.0137781
678.206	0.0136543
678.285	0.0136263
678.363	0.0136797
678.441	0.0135921
678.519	0.0137036
678.597	0.0137897
678.675	0.0135629
678.753	0.0136620
678.831	0.0137333
678.910	0.0136481
678.988	0.0136304
679.066	0.0136388
679.144	0.0136251
679.222	0.0136316
679.300	0.0137219
679.378	0.0137553
679.456	0.0136766
679.535	0.0138141
679.613	0.0138126
679.691	0.0137563
679.769	0.0137623
679.847	0.0137891
679.925	0.0138150
680.003	0.0137500
680.081	0.0137899
680.160	0.0137834
680.238	0.0137917
680.316	0.0137050
680.394	0.0137407
680.472	0.0137769
680.550	0.0136790
680.628	0.0138423
680.706	0.0138351
680.785	0.0138030
680.863	0.0138293
680.941	0.0137235
681.019	0.0138134
681.097	0.0137355
681.175	0.0137846
681.253	0.0138516
681.331	0.0139787
681.410	0.0137157
681.488	0.0137828
681.566	0.0138898
681.644	0.0137922
681.722	0.0136255
681.800	0.0137147
681.878	0.0137878
681.956	0.0137911
682.035	0.0136935
682.113	0.0136155
682.191	0.0138111
682.269	0.0137434
682.347	0.0135323
682.425	0.0135424
682.503	0.0135376
682.581	0.0136969
682.660	0.0136411
682.738	0.0135178
682.816	0.0135346
682.894	0.0135811
682.972	0.0135056
683.050	0.0136350
683.128	0.0137111
683.206	0.0136734
683.285	0.0134285
683.363	0.0134539
683.441	0.0135505
683.519	0.0136345
683.597	0.0136948
683.675	0.0135609
683.753	0.0137594
683.831	0.0135033
683.910	0.0136521
683.988	0.0137244
684.066	0.0136723
684.144	0.0136041
684.222	0.0137153
684.300	0.0138248
684.378	0.0136280
684.456	0.0137138
684.535	0.0136454
684.613	0.0137959
684.691	0.0137402
684.769	0.0138200
684.847	0.0137463
684.925	0.0136637
685.003	0.0136301
685.081	0.0138293
685.160	0.0137907
685.238	0.0137257
685.316	0.0138086
685.394	0.0138848
685.472	0.0139130
685.550	0.0137045
685.628	0.0137887
685.706	0.0136722
685.785	0.0137849
685.863	0.0137971
685.941	0.0138450
686.019	0.0136725
686.097	0.0136207
686.175	0.0137322
686.253	0.0137334
686.331	0.0136972
686.410	0.0135466
686.488	0.0135807
686.566	0.0138988
686.644	0.0136243
686.722	0.0136398
686.800	0.0137298
686.878	0.0135599
686.956	0.0135653
687.035	0.0134026
687.113	0.0135284
687.191	0.0135117
687.269	0.0135512
687.347	0.0135908
687.425	0.0136354
687.503	0.0134959
687.581	0.0135957
687.660	0.0133667
687.738	0.0136075
687.816	0.0136153
687.894	0.0135340
687.972	0.0136268
688.050	0.0135096
688.128	0.0135629
688.206	0.0136017
688.285	0.0134898
688.363	0.0136781
688.441	0.0136470
688.519	0.0138417
688.597	0.0138421
688.675	0.0137293
688.753	0.0137160
688.831	0.0137349
688.910	0.0137128
688.988	0.0136832
689.066	0.0136563
689.144	0.0137500
689.222	0.0137621
689.300	0.0137115
689.378	0.0137115
689.456	0.0137094
689.535	0.0138334
689.613	0.0137275
689.691	0.0135812
689.769	0.0136488
689.847	0.0136348
689.925	0.0136273
690.003	0.0135934
690.081	0.0138071
690.160	0.0136754
690.238	0.0137763
690.316	0.0136955
690.394	0.0136494
690.472	0.0136369
690.550	0.0136822
690.628	0.0135709
690.706	0.0135642
690.785	0.0136931
690.863	0.0136954
690.941	0.0137446
691.019	0.0135713
691.097	0.0136868
691.175	0.0137553
691.253	0.0137971
691.331	0.0137568
691.410	0.0136754
691.488	0.0135896
691.566	0.0136529
691.644	0.0136981
691.722	0.0136282
691.800	0.0138515
691.878	0.0137371
691.956	0.0137490
692.035	0.0136912
692.113	0.0136856
692.191	0.0138144
692.269	0.0139091
692.347	0.0138192
692.425	0.0137643
692.503	0.0136604
692.581	0.0136175
692.660	0.0137004
692.738	0.0137627
692.816	0.0137326
692.894	0.0137416
692.972	0.0135305
693.050	0.0135747
693.128	0.0136179
693.206	0.0136719
693.285	0.0136855
693.363	0.0137335
693.441	0.0136536
693.519	0.0135712
693.597	0.0137577
693.675	0.0136494
693.753	0.0137116
693.831	0.0135223
693.910	0.0136397
693.988	0.0137672
694.066	0.0136835
694.144	0.0139691
694.222	0.0138399
694.300	0.0138187
694.378	0.0138692
694.456	0.0139584
694.535	0.0139471
694.613	0.0138523
694.691	0.0139146
694.769	0.0139476
694.847	0.0138426
694.925	0.0138680
695.003	0.0137721
695.081	0.0137606
695.160	0.0136157
695.238	0.0138039
695.316	0.0138319
695.394	0.0136722
695.472	0.0136739
695.550	0.0137459
695.628	0.0138054
695.706	0.0137641
695.785	0.0139245
695.863	0.0139328
695.941	0.0138916
696.019	0.0139123
696.097	0.0140079
696.175	0.0139546
696.253	0.0141914
696.331	0.0140517
696.410	0.0140204
696.488	0.0140034
696.566	0.0140080
696.644	0.0140088
696.722	0.0141092
696.800	0.0139782
696.878	0.0140027
696.956	0.0139774
697.035	0.0139346
697.113	0.0138816
697.191	0.0138236
697.269	0.0138416
697.347	0.0137282
697.425	0.0138511
697.503	0.0137923
697.581	0.0137727
697.660	0.0138319
697.738	0.0139195
697.816	0.0139159
697.894	0.0140453
697.972	0.0140411
698.050	0.0140215
698.128	0.0139981
698.206	0.0140962
698.285	0.0139353
698.363	0.0139389
698.441	0.0140399
698.519	0.0139080
698.597	0.0137946
698.675	0.0137651
698.753	0.0138342
698.831	0.0138794
698.910	0.0138474
698.988	0.0138604
699.066	0.0138091
699.144	0.0138207
699.222	0.0138766
699.300	0.0139492
699.378	0.0140474
699.456	0.0138752
699.535	0.0138293
699.613	0.0138573
699.691	0.0138944
699.769	0.0138198
699.847	0.0138470
699.925	0.0138200
700.003	0.0140208
700.081	0.0138898
700.160	0.0138972
700.238	0.0139284
700.316	0.0138122
700.394	0.0139725
700.472	0.0137144
700.550	0.0138524
700.628	0.0139806
700.706	0.0139870
700.785	0.0139101
700.863	0.0137502
700.941	0.0138682
701.019	0.0138064
701.097	0.0137839
701.175	0.0138721
701.253	0.0137827
701.331	0.0138269
701.410	0.0138084
701.488	0.0137096
701.566	0.0137413
701.644	0.0137036
701.722	0.0136201
701.800	0.0137206
701.878	0.0137482
701.956	0.0136374
702.035	0.0137511
702.113	0.0137913
702.191	0.0139094
702.269	0.0138722
702.347	0.0136230
702.425	0.0137814
702.503	0.0137546
702.581	0.0137599
702.660	0.0136590
702.738	0.0138187
702.816	0.0138987
702.894	0.0137897
702.972	0.0137563
703.050	0.0137471
703.128	0.0137089
703.206	0.0138034
703.285	0.0136506
703.363	0.0135991
703.441	0.0136153
703.519	0.0136154
703.597	0.0136314
703.675	0.0136488
703.753	0.0136782
703.831	0.0137231
703.910	0.0137270
703.988	0.0139880
704.066	0.0140132
704.144	0.0137880
704.222	0.0138045
704.300	0.0138481
704.378	0.0138312
704.456	0.0138158
704.535	0.0138688
704.613	0.0136884
704.691	0.0135901
704.769	0.0136927
704.847	0.0135870
704.925	0.0136160
705.003	0.0135260
705.081	0.0135068
705.160	0.0136915
705.238	0.0136432
705.316	0.0136457
705.394	0.0137048
705.472	0.0136990
705.550	0.0135796
705.628	0.0136896
705.706	0.0137258
705.785	0.0136551
705.863	0.0134824
705.941	0.0136245
706.019	0.0137104
706.097	0.0137080
706.175	0.0136240
706.253	0.0136801
706.331	0.0135543
706.410	0.0136018
706.488	0.0137023
706.566	0.0135162
706.644	0.0135931
706.722	0.0138277
706.800	0.0136929
706.878	0.0138383
706.956	0.0138065
707.035	0.0136995
707.113	0.0138063
707.191	0.0138638
707.269	0.0138627
707.347	0.0138176
707.425	0.0139336
707.503	0.0138979
707.581	0.0138680
707.660	0.0138408
707.738	0.0138980
707.816	0.0137972
707.894	0.0138177
707.972	0.0137531
708.050	0.0135987
708.128	0.0136502
708.206	0.0136074
708.285	0.0135728
708.363	0.0135055
708.441	0.0137161
708.519	0.0136420
708.597	0.0135419
708.675	0.0136424
708.753	0.0135938
708.831	0.0135805
708.910	0.0136850
708.988	0.0136156
709.066	0.0137734
709.144	0.0136753
709.222	0.0137634
709.300	0.0136868
709.378	0.0137971
709.456	0.0136447
709.535	0.0135686
709.613	0.0136227
709.691	0.0136636
709.769	0.0135740
709.847	0.0134034
709.925	0.0135496
710.003	0.0134926
710.081	0.0136044
710.160	0.0135916
710.238	0.0137348
710.316	0.0136536
710.394	0.0137452
710.472	0.0137295
710.550	0.0137038
710.628	0.0137495
710.706	0.0137275
710.785	0.0136161
710.863	0.0138031
710.941	0.0137840
711.019	0.0137335
711.097	0.0137498
711.175	0.0137097
711.253	0.0136475
711.331	0.0135545
711.410	0.0134307
711.488	0.0134128
711.566	0.0135355
711.644	0.0135004
711.722	0.0134265
711.800	0.0135806
711.878	0.0136133
711.956	0.0135371
712.035	0.0134290
712.113	0.0135131
712.191	0.0135535
712.269	0.0134515
712.347	0.0136661
712.425	0.0137427
712.503	0.0136803
712.581	0.0136226
712.660	0.0135876
712.738	0.0136218
712.816	0.0136787
712.894	0.0136642
712.972	0.0136552
713.050	0.0136430
713.128	0.0137222
713.206	0.0135758
713.285	0.0136341
713.363	0.0135656
713.441	0.0137386
713.519	0.0137147
713.597	0.0137337
713.675	0.0136871
713.753	0.0136918
713.831	0.0137436
713.910	0.0137668
713.988	0.0137537
714.066	0.0139178
714.144	0.0139993
714.222	0.0139141
714.300	0.0137524
714.378	0.0137762
714.456	0.0138339
714.535	0.0137549
714.613	0.0138333
714.691	0.0138869
714.769	0.0137873
714.847	0.0138178
714.925	0.0138479
715.003	0.0140350
715.081	0.0138949
715.160	0.0138863
715.238	0.0140198
715.316	0.0140472
715.394	0.0140612
715.472	0.0138982
715.550	0.0137629
715.628	0.0139291
715.706	0.0139308
715.785	0.0140164
715.863	0.0139639
715.941	0.0138374
716.019	0.0138088
716.097	0.0137831
716.175	0.0137599
716.253	0.0139273
716.331	0.0138044
716.410	0.0137429
716.488	0.0137395
716.566	0.0137319
716.644	0.0139693
716.722	0.0137289
716.800	0.0138850
716.878	0.0137582
716.956	0.0137334
717.035	0.0137686
717.113	0.0138155
717.191	0.0139465
717.269	0.0140366
717.347	0.0139334
717.425	0.0140013
717.503	0.0138931
717.581	0.0139293
717.660	0.0139443
717.738	0.0139375
717.816	0.0137402
717.894	0.0138609
717.972	0.0137983
718.050	0.0139329
718.128	0.0137573
718.206	0.0137173
718.285	0.0136079
718.363	0.0137704
718.441	0.0136130
718.519	0.0136745
718.597	0.0136141
718.675	0.0136196
718.753	0.0137082
718.831	0.0137589
718.910	0.0137719
718.988	0.0137844
719.066	0.0136726
719.144	0.0137440
719.222	0.0138750
719.300	0.0138344
719.378	0.0138104
719.456	0.0136551
719.535	0.0136650
719.613	0.0138277
719.691	0.0137930
719.769	0.0136277
719.847	0.0137037
719.925	0.0138208
720.003	0.0137324
720.081	0.0137263
720.160	0.0136153
720.238	0.0138962
720.316	0.0138416
720.394	0.0138470
720.472	0.0138759
720.550	0.0138768
720.628	0.0138328
720.706	0.0139801
720.785	0.0139879
720.863	0.0139128
720.941	0.0139328
721.019	0.0139085
721.097	0.0138966
721.175	0.0140073
721.253	0.0139477
721.331	0.0138834
721.410	0.0139597
721.488	0.0139398
721.566	0.0138634
721.644	0.0138986
721.722	0.0141412
721.800	0.0140543
721.878	0.0140288
721.956	0.0139980
722.035	0.0139838
722.113	0.0141294
722.191	0.0140246
722.269	0.0138037
722.347	0.0138427
722.425	0.0139514
722.503	0.0139317
722.581	0.0139452
722.660	0.0139107
722.738	0.0138972
722.816	0.0138383
722.894	0.0138440
722.972	0.0136483
723.050	0.0139305
723.128	0.0137766
723.206	0.0137051
723.285	0.0137826
723.363	0.0138413
723.441	0.0137502
723.519	0.0140047
723.597	0.0138366
723.675	0.0138979
723.753	0.0138257
723.831	0.0139194
723.910	0.0138393
723.988	0.0139550
724.066	0.0138918
724.144	0.0138593
724.222	0.0137918
724.300	0.0138203
724.378	0.0140122
724.456	0.0138995
724.535	0.0138177
724.613	0.0138511
724.691	0.0138866
724.769	0.0137514
724.847	0.0137893
724.925	0.0137635
725.003	0.0137646
725.081	0.0138036
725.160	0.0137147
725.238	0.0138258
725.316	0.0138349
725.394	0.0138081
725.472	0.0137325
725.550	0.0138240
725.628	0.0139123
725.706	0.0137846
725.785	0.0138076
725.863	0.0138462
725.941	0.0138866
726.019	0.0138600
726.097	0.0138583
726.175	0.0138873
726.253	0.0137305
726.331	0.0136515
726.410	0.0138028
726.488	0.0136267
726.566	0.0136451
726.644	0.0137218
726.722	0.0137447
726.800	0.0136829
726.878	0.0138388
726.956	0.0136677
727.035	0.0136640
727.113	0.0137604
727.191	0.0137675
727.269	0.0139516
727.347	0.0137778
727.425	0.0140659
727.503	0.0137285
727.581	0.0138905
727.660	0.0139595
727.738	0.0138798
727.816	0.0139726
727.894	0.0139331
727.972	0.0140805
728.050	0.0138981
728.128	0.0139551
728.206	0.0139539
728.285	0.0140220
728.363	0.0139235
728.441	0.0141119
728.519	0.0139904
728.597	0.0140554
728.675	0.0139724
728.753	0.0137667
728.831	0.0138651
728.910	0.0138940
728.988	0.0139590
729.066	0.0138844
729.144	0.0137770
729.222	0.0139771
729.300	0.0137770
729.378	0.0138497
729.456	0.0137349
729.535	0.0137682
729.613	0.0138576
729.691	0.0138741
729.769	0.0137638
729.847	0.0138679
729.925	0.0138319
730.003	0.0138966
730.081	0.0137896
730.160	0.0138612
730.238	0.0137756
730.316	0.0138096
730.394	0.0136987
730.472	0.0138215
730.550	0.0137595
730.628	0.0137024
730.706	0.0137610
730.785	0.0137331
730.863	0.0137940
730.941	0.0137008
731.019	0.0136283
731.097	0.0136615
731.175	0.0136950
731.253	0.0137692
731.331	0.0137472
731.410	0.0137098
731.488	0.0138249
731.566	0.0136973
731.644	0.0137470
731.722	0.0135683
731.800	0.0137267
731.878	0.0136756
731.956	0.0137184
732.035	0.0136778
732.113	0.0136626
732.191	0.0136353
732.269	0.0137122
732.347	0.0135736
732.425	0.0135242
732.503	0.0135349
732.581	0.0137176
732.660	0.0137312
732.738	0.0136794
732.816	0.0137085
732.894	0.0137089
732.972	0.0136842
733.050	0.0136590
733.128	0.0136618
733.206	0.0135816
733.285	0.0135886
733.363	0.0136379
733.441	0.0137607
733.519	0.0136404
733.597	0.0135127
733.675	0.0135875
733.753	0.0136921
733.831	0.0136455
733.910	0.0136829
733.988	0.0136594
734.066	0.0138055
734.144	0.0136823
734.222	0.0137521
734.300	0.0138548
734.378	0.0137945
734.456	0.0138182
734.535	0.0139107
734.613	0.0138759
734.691	0.0139779
734.769	0.0140442
734.847	0.0139550
734.925	0.0139386
735.003	0.0139658
735.081	0.0139737
735.160	0.0139304
735.238	0.0139591
735.316	0.0139820
735.394	0.0139949
735.472	0.0138450
735.550	0.0139462
735.628	0.0139225
735.706	0.0139962
735.785	0.0138570
735.863	0.0137849
735.941	0.0140157
736.019	0.0138412
736.097	0.0138226
736.175	0.0138049
736.253	0.0137809
736.331	0.0137790
736.410	0.0137424
736.488	0.0137143
736.566	0.0136981
736.644	0.0136691
736.722	0.0137330
736.800	0.0139294
736.878	0.0136609
736.956	0.0137823
737.035	0.0135873
737.113	0.0137283
737.191	0.0136008
737.269	0.0135615
737.347	0.0137429
737.425	0.0136642
737.503	0.0136882
737.581	0.0137287
737.660	0.0136030
737.738	0.0136461
737.816	0.0136748
737.894	0.0136845
737.972	0.0137510
738.050	0.0136496
738.128	0.0137480
738.206	0.0137153
738.285	0.0136974
738.363	0.0137492
738.441	0.0136895
738.519	0.0137446
738.597	0.0137560
738.675	0.0136559
738.753	0.0136471
738.831	0.0137305
738.910	0.0137009
738.988	0.0137711
739.066	0.0137336
739.144	0.0137907
739.222	0.0138129
739.300	0.0137177
739.378	0.0137441
739.456	0.0136883
739.535	0.0136868
739.613	0.0137015
739.691	0.0138024
739.769	0.0137443
739.847	0.0136845
739.925	0.0136861
740.003	0.0138334
740.081	0.0138625
740.160	0.0136970
740.238	0.0135673
740.316	0.0137305
740.394	0.0136817
740.472	0.0137633
740.550	0.0135662
740.628	0.0136445
740.706	0.0136823
740.785	0.0135099
740.863	0.0136288
740.941	0.0136246
741.019	0.0137224
741.097	0.0138062
741.175	0.0137045
741.253	0.0138004
741.331	0.0138905
741.410	0.0139362
741.488	0.0138232
741.566	0.0139284
741.644	0.0140328
741.722	0.0139517
741.800	0.0138718
741.878	0.0139294
741.956	0.0139379
742.035	0.0140279
742.113	0.0140604
742.191	0.0139749
742.269	0.0140861
742.347	0.0140327
742.425	0.0140115
742.503	0.0139138
742.581	0.0139918
742.660	0.0139571
742.738	0.0139362
742.816	0.0138857
742.894	0.0139581
742.972	0.0139561
743.050	0.0138434
743.128	0.0137371
743.206	0.0138363
743.285	0.0137666
743.363	0.0137387
743.441	0.0137394
743.519	0.0136485
743.597	0.0135328
743.675	0.0137920
743.753	0.0137772
743.831	0.0137096
743.910	0.0137331
743.988	0.0137811
744.066	0.0136840
744.144	0.0137581
744.222	0.0137888
744.300	0.0136148
744.378	0.0137263
744.456	0.0137025
744.535	0.0138116
744.613	0.0137022
744.691	0.0137572
744.769	0.0137790
744.847	0.0137607
744.925	0.0137363
745.003	0.0138748
745.081	0.0137503
745.160	0.0137653
745.238	0.0137891
745.316	0.0136040
745.394	0.0136676
745.472	0.0138245
745.550	0.0137881
745.628	0.0136724
745.706	0.0136716
745.785	0.0136758
745.863	0.0138722
745.941	0.0139388
746.019	0.0137796
746.097	0.0136746
746.175	0.0137009
746.253	0.0138419
746.331	0.0137429
746.410	0.0138618
746.488	0.0137830
746.566	0.0137463
746.644	0.0137344
746.722	0.0137811
746.800	0.0138428
746.878	0.0138309
746.956	0.0138221
747.035	0.0138360
747.113	0.0136205
747.191	0.0137766
747.269	0.0137649
747.347	0.0138004
747.425	0.0136679
747.503	0.0137320
747.581	0.0136249
747.660	0.0136849
747.738	0.0138888
747.816	0.0137453
747.894	0.0136510
747.972	0.0139082
748.050	0.0139171
748.128	0.0138413
748.206	0.0139658
748.285	0.0139939
748.363	0.0140281
748.441	0.0139996
748.519	0.0140771
748.597	0.0140170
748.675	0.0140738
748.753	0.0141093
748.831	0.0141358
748.910	0.0140657
748.988	0.0141910
749.066	0.0142120
749.144	0.0142081
749.222	0.0142267
749.300	0.0141515
749.378	0.0141884
749.456	0.0140508
749.535	0.0139512
749.613	0.0140298
749.691	0.0141096
749.769	0.0140740
749.847	0.0142362
749.925	0.0139964
750.003	0.0140398
750.081	0.0139481
750.160	0.0138898
750.238	0.0138605
750.316	0.0137901
750.394	0.0138680
750.472	0.0137811
750.550	0.0137466
750.628	0.0138427
750.706	0.0138139
750.785	0.0138395
750.863	0.0136863
750.941	0.0139160
751.019	0.0138509
751.097	0.0137627
751.175	0.0137614
751.253	0.0138404
751.331	0.0138143
751.410	0.0137669
751.488	0.0138070
751.566	0.0136981
751.644	0.0138152
751.722	0.0137986
751.800	0.0137421
751.878	0.0137352
751.956	0.0138040
752.035	0.0136702
752.113	0.0136903
752.191	0.0138651
752.269	0.0137442
752.347	0.0138013
752.425	0.0136269
752.503	0.0138470
752.581	0.0137633
752.660	0.0137558
752.738	0.0135884
752.816	0.0136251
752.894	0.0136483
752.972	0.0136639
753.050	0.0136819
753.128	0.0136277
753.206	0.0136728
753.285	0.0135866
753.363	0.0136572
753.441	0.0136792
753.519	0.0136944
753.597	0.0136590
753.675	0.0136961
753.753	0.0136759
753.831	0.0137173
753.910	0.0138059
753.988	0.0136828
754.066	0.0137302
754.144	0.0136436
754.222	0.0136507
754.300	0.0136845
754.378	0.0136753
754.456	0.0136083
754.535	0.0137320
754.613	0.0136687
754.691	0.0136755
754.769	0.0136933
754.847	0.0137274
754.925	0.0136198
755.003	0.0136427
755.081	0.0136731
755.160	0.0137635
755.238	0.0137202
755.316	0.0137797
755.394	0.0138001
755.472	0.0139266
755.550	0.0138981
755.628	0.0138747
755.706	0.0138741
755.785	0.0139864
755.863	0.0139696
755.941	0.0141379
756.019	0.0139304
756.097	0.0140983
756.175	0.0141125
756.253	0.0141061
756.331	0.0140208
756.410	0.0140648
756.488	0.0142136
756.566	0.0141055
756.644	0.0140547
756.722	0.0140683
756.800	0.0140005
756.878	0.0140533
756.956	0.0140207
757.035	0.0139626
757.113	0.0138953
757.191	0.0138514
757.269	0.0138692
757.347	0.0137978
757.425	0.0138826
757.503	0.0136388
757.581	0.0137180
757.660	0.0138357
757.738	0.0135881
757.816	0.0137068
757.894	0.0138167
757.972	0.0136829
758.050	0.0136663
758.128	0.0137139
758.206	0.0136983
758.285	0.0138708
758.363	0.0138902
758.441	0.0136948
758.519	0.0136877
758.597	0.0137431
758.675	0.0138928
758.753	0.0138467
758.831	0.0138463
758.910	0.0136790
758.988	0.0137962
759.066	0.0138368
759.144	0.0136176
759.222	0.0136964
759.300	0.0137420
759.378	0.0137498
759.456	0.0137589
759.535	0.0137959
759.613	0.0136578
759.691	0.0135788
759.769	0.0137656
759.847	0.0137519
759.925	0.0136405
760.003	0.0137415
760.081	0.0136944
760.160	0.0138013
760.238	0.0137627
760.316	0.0137942
760.394	0.0136614
760.472	0.0136740
760.550	0.0137349
760.628	0.0137050
760.706	0.0137789
760.785	0.0136703
760.863	0.0136363
760.941	0.0136958
761.019	0.0137195
761.097	0.0136991
761.175	0.0138250
761.253	0.0135237
761.331	0.0134687
761.410	0.0136623
761.488	0.0136414
761.566	0.0136864
761.644	0.0136189
761.722	0.0136404
761.800	0.0135600
761.878	0.0136547
761.956	0.0134818
762.035	0.0137169
762.113	0.0136774
762.191	0.0136722
762.269	0.0137225
762.347	0.0138285
762.425	0.0137708
762.503	0.0137548
762.581	0.0137684
762.660	0.0137726
762.738	0.0138992
762.816	0.0139319
762.894	0.0138971
762.972	0.0139114
763.050	0.0139056
763.128	0.0139612
763.206	0.0139356
763.285	0.0141876
763.363	0.0141985
763.441	0.0139594
763.519	0.0140005
763.597	0.0140791
763.675	0.0138264
763.753	0.0139856
763.831	0.0139354
763.910	0.0138705
763.988	0.0139101
764.066	0.0138551
764.144	0.0139327
764.222	0.0138573
764.300	0.0136441
764.378	0.0137619
764.456	0.0137206
764.535	0.0136951
764.613	0.0137273
764.691	0.0137943
764.769	0.0135264
764.847	0.0136349
764.925	0.0136689
765.003	0.0135942
765.081	0.0135802
765.160	0.0136389
765.238	0.0136099
765.316	0.0135796
765.394	0.0135980
765.472	0.0135447
765.550	0.0136519
765.628	0.0134912
765.706	0.0135367
765.785	0.0136961
765.863	0.0136102
765.941	0.0137274
766.019	0.0136693
766.097	0.0136003
766.175	0.0136181
766.253	0.0135116
766.331	0.0136424
766.410	0.0135811
766.488	0.0136700
766.566	0.0135880
766.644	0.0137067
766.722	0.0136761
766.800	0.0137611
766.878	0.0136720
766.956	0.0135575
767.035	0.0135782
767.113	0.0137136
767.191	0.0136691
767.269	0.0137689
767.347	0.0137600
767.425	0.0137476
767.503	0.0136801
767.581	0.0137038
767.660	0.0137006
767.738	0.0137543
767.816	0.0136684
767.894	0.0137899
767.972	0.0136855
768.050	0.0137167
768.128	0.0136559
768.206	0.0136182
768.285	0.0137666
768.363	0.0137245
768.441	0.0135847
768.519	0.0135183
768.597	0.0137062
768.675	0.0136707
768.753	0.0137366
768.831	0.0136727
768.910	0.0137507
768.988	0.0137971
769.066	0.0137358
769.144	0.0138193
769.222	0.0137191
769.300	0.0138010
769.378	0.0139783
769.456	0.0138837
769.535	0.0139422
769.613	0.0139867
769.691	0.0139059
769.769	0.0139307
769.847	0.0140542
769.925	0.0139479
770.003	0.0140350
770.081	0.0142288
770.160	0.0141933
770.238	0.0140634
770.316	0.0142924
770.394	0.0142605
770.472	0.0140668
770.550	0.0140905
770.628	0.0141235
770.706	0.0140672
770.785	0.0140649
770.863	0.0139802
770.941	0.0139860
771.019	0.0140366
771.097	0.0139507
771.175	0.0139295
771.253	0.0138177
771.331	0.0138311
771.410	0.0138189
771.488	0.0137265
771.566	0.0138351
771.644	0.0136862
771.722	0.0137769
771.800	0.0137639
771.878	0.0137341
771.956	0.0137087
772.035	0.0136883
772.113	0.0137471
772.191	0.0137730
772.269	0.0135201
772.347	0.0137519
772.425	0.0138858
772.503	0.0136327
772.581	0.0137241
772.660	0.0136487
772.738	0.0136720
772.816	0.0134606
772.894	0.0137103
772.972	0.0138405
773.050	0.0135729
773.128	0.0137261
773.206	0.0137894
773.285	0.0137670
773.363	0.0137124
773.441	0.0136711
773.519	0.0137424
773.597	0.0137669
773.675	0.0138646
773.753	0.0138371
773.831	0.0136949
773.910	0.0137754
773.988	0.0136985
774.066	0.0137096
774.144	0.0138763
774.222	0.0137706
774.300	0.0138701
774.378	0.0138355
774.456	0.0138422
774.535	0.0138960
774.613	0.0138414
774.691	0.0138569
774.769	0.0137540
774.847	0.0138032
774.925	0.0139659
775.003	0.0138995
775.081	0.0137592
775.160	0.0137289
775.238	0.0137280
775.316	0.0138493
775.394	0.0137954
775.472	0.0136966
775.550	0.0138403
775.628	0.0139030
775.706	0.0137719
775.785	0.0137212
775.863	0.0137502
775.941	0.0136545
776.019	0.0138922
776.097	0.0139355
776.175	0.0138871
776.253	0.0137929
776.331	0.0139090
776.410	0.0139442
776.488	0.0139942
776.566	0.0139625
776.644	0.0139630
776.722	0.0140720
776.800	0.0141235
776.878	0.0141254
776.956	0.0141201
777.035	0.0141141
777.113	0.0139926
777.191	0.0142510
777.269	0.0143482
777.347	0.0142495
777.425	0.0141882
777.503	0.0141637
777.581	0.0140897
777.660	0.0140609
777.738	0.0139910
777.816	0.0140045
777.894	0.0140495
777.972	0.0141455
778.050	0.0139438
778.128	0.0139860
778.206	0.0138829
778.285	0.0139838
778.363	0.0139885
778.441	0.0138028
778.519	0.0137310
778.597	0.0137875
778.675	0.0139242
778.753	0.0135970
778.831	0.0137500
778.910	0.0137390
778.988	0.0135996
779.066	0.0135824
779.144	0.0138252
779.222	0.0135541
779.300	0.0134909
779.378	0.0136359
779.456	0.0135753
779.535	0.0135391
779.613	0.0136664
779.691	0.0135833
779.769	0.0135892
779.847	0.0136770
779.925	0.0136887
780.003	0.0135125
780.081	0.0135455
780.160	0.0135885
780.238	0.0135229
780.316	0.0136884
780.394	0.0137444
780.472	0.0136509
780.550	0.0137207
780.628	0.0135525
780.706	0.0135227
780.785	0.0136220
780.863	0.0136624
780.941	0.0137196
781.019	0.0136890
781.097	0.0136825
781.175	0.0137160
781.253	0.0136553
781.331	0.0137070
781.410	0.0135814
781.488	0.0135317
781.566	0.0137663
781.644	0.0137686
781.722	0.0136667
781.800	0.0136232
781.878	0.0137728
781.956	0.0137983
782.035	0.0137577
782.113	0.0135979
782.191	0.0137006
782.269	0.0136313
782.347	0.0134620
782.425	0.0136842
782.503	0.0136771
782.581	0.0135628
782.660	0.0135638
782.738	0.0135118
782.816	0.0135513
782.894	0.0134546
782.972	0.0135454
783.050	0.0137717
783.128	0.0136221
783.206	0.0136440
783.285	0.0136897
783.363	0.0136500
783.441	0.0136182
783.519	0.0136447
783.597	0.0136830
783.675	0.0136823
783.753	0.0137472
783.831	0.0137834
783.910	0.0138367
783.988	0.0137728
784.066	0.0138787
784.144	0.0139886
784.222	0.0140008
784.300	0.0139546
784.378	0.0138956
784.456	0.0139798
784.535	0.0139899
784.613	0.0139547
784.691	0.0138886
784.769	0.0136874
784.847	0.0139523
784.925	0.0138302
785.003	0.0138469
785.081	0.0138084
785.160	0.0137530
785.238	0.0137957
785.316	0.0138079
785.394	0.0136010
785.472	0.0137280
785.550	0.0135876
785.628	0.0136218
785.706	0.0137096
785.785	0.0136311
785.863	0.0137043
785.941	0.0136785
786.019	0.0135659
786.097	0.0136047
786.175	0.0137052
786.253	0.0135991
786.331	0.0134632
786.410	0.0135525
786.488	0.0134896
786.566	0.0134853
786.644	0.0136576
786.722	0.0136488
786.800	0.0136162
786.878	0.0135513
786.956	0.0135481
787.035	0.0136201
787.113	0.0134792
787.191	0.0133993
787.269	0.0135390
787.347	0.0136537
787.425	0.0136835
787.503	0.0136880
787.581	0.0137286
787.660	0.0135854
787.738	0.0136608
787.816	0.0138112
787.894	0.0137051
787.972	0.0137044
788.050	0.0136143
788.128	0.0136636
788.206	0.0136527
788.285	0.0138481
788.363	0.0137715
788.441	0.0138811
788.519	0.0137540
788.597	0.0138245
788.675	0.0138597
788.753	0.0139098
788.831	0.0139066
788.910	0.0138757
788.988	0.0139024
789.066	0.0138417
789.144	0.0137206
789.222	0.0137034
789.300	0.0137352
789.378	0.0138296
789.456	0.0138123
789.535	0.0138116
789.613	0.0137365
789.691	0.0138482
789.769	0.0136996
789.847	0.0138782
789.925	0.0138633
790.003	0.0138271
790.081	0.0139535
790.160	0.0139584
790.238	0.0138148
790.316	0.0138380
790.394	0.0139793
790.472	0.0139845
790.550	0.0139734
790.628	0.0140555
790.706	0.0141935
790.785	0.0141262
790.863	0.0141743
790.941	0.0140399
791.019	0.0141688
791.097	0.0141785
791.175	0.0141879
791.253	0.0141438
791.331	0.0142044
791.410	0.0141388
791.488	0.0142503
791.566	0.0141482
791.644	0.0141743
791.722	0.0141543
791.800	0.0140823
791.878	0.0142382
791.956	0.0141712
792.035	0.0140406
792.113	0.0139899
792.191	0.0141634
792.269	0.0140472
792.347	0.0140120
792.425	0.0139040
792.503	0.0140182
792.581	0.0141119
792.660	0.0140053
792.738	0.0139587
792.816	0.0139126
792.894	0.0138254
792.972	0.0138256
793.050	0.0137485
793.128	0.0138404
793.206	0.0138845
793.285	0.0138161
793.363	0.0137528
793.441	0.0136584
793.519	0.0136726
793.597	0.0137442
793.675	0.0135538
793.753	0.0136550
793.831	0.0136302
793.910	0.0135606
793.988	0.0135172
794.066	0.0135110
794.144	0.0137373
794.222	0.0137762
794.300	0.0136486
794.378	0.0135609
794.456	0.0136092
794.535	0.0136591
794.613	0.0137246
794.691	0.0137269
794.769	0.0136925
794.847	0.0136525
794.925	0.0137378
795.003	0.0137576
795.081	0.0136572
795.160	0.0136994
795.238	0.0137193
795.316	0.0136496
795.394	0.0137705
795.472	0.0137278
795.550	0.0138774
795.628	0.0137181
795.706	0.0136602
795.785	0.0137444
795.863	0.0138290
795.941	0.0138070
796.019	0.0135905
796.097	0.0137769
796.175	0.0136996
796.253	0.0137952
796.331	0.0137896
796.410	0.0137206
796.488	0.0138290
796.566	0.0135698
796.644	0.0136265
796.722	0.0136064
796.800	0.0137120
796.878	0.0135673
796.956	0.0135806
797.035	0.0137164
797.113	0.0136742
797.191	0.0137788
797.269	0.0138317
797.347	0.0137678
797.425	0.0137339
797.503	0.0138309
797.581	0.0137908
797.660	0.0138474
797.738	0.0138949
797.816	0.0138662
797.894	0.0139988
797.972	0.0139212
798.050	0.0138036
798.128	0.0140250
798.206	0.0140148
798.285	0.0139902
798.363	0.0140022
798.441	0.0141486
798.519	0.0140630
798.597	0.0140350
798.675	0.0140455
798.753	0.0141322
798.831	0.0139891
798.910	0.0140835
798.988	0.0140971
799.066	0.0139124
799.144	0.0139259
799.222	0.0140063
799.300	0.0139244
799.378	0.0139448
799.456	0.0138891
799.535	0.0139643
799.613	0.0139863
799.691	0.0139560
799.769	0.0138232
799.847	0.0138422
799.925	0.0139280
800.003	0.0139761
800.081	0.0136866
800.160	0.0138667
800.238	0.0137108
800.316	0.0138807
800.394	0.0137186
800.472	0.0136528
800.550	0.0136785
800.628	0.0137364
800.706	0.0136353
800.785	0.0135382
800.863	0.0137451
800.941	0.0136452
801.019	0.0135323
801.097	0.0135803
801.175	0.0135998
801.253	0.0136619
801.331	0.0136649
801.410	0.0135378
801.488	0.0137056
801.566	0.0136086
801.644	0.0135854
801.722	0.0137125
801.800	0.0135851
801.878	0.0136256
801.956	0.0136041
802.035	0.0137111
802.113	0.0136113
802.191	0.0135923
802.269	0.0137210
802.347	0.0137630
802.425	0.0135491
802.503	0.0137418
802.581	0.0137089
802.660	0.0137442
802.738	0.0136571
802.816	0.0136677
802.894	0.0137644
802.972	0.0136893
803.050	0.0137401
803.128	0.0136472
803.206	0.0136323
803.285	0.0136344
803.363	0.0135853
803.441	0.0135347
803.519	0.0134414
803.597	0.0136596
803.675	0.0136090
803.753	0.0136673
803.831	0.0136137
803.910	0.0136864
803.988	0.0135428
804.066	0.0136646
804.144	0.0136744
804.222	0.0136805
804.300	0.0138298
804.378	0.0137117
804.456	0.0136795
804.535	0.0137244
804.613	0.0137843
804.691	0.0137797
804.769	0.0137917
804.847	0.0138476
804.925	0.0138809
805.003	0.0138937
805.081	0.0138980
805.160	0.0138980
805.238	0.0137932
805.316	0.0138573
805.394	0.0140281
805.472	0.0139484
805.550	0.0139488
805.628	0.0140003
805.706	0.0139783
805.785	0.0139790
805.863	0.0138359
805.941	0.0138520
806.019	0.0139416
806.097	0.0139641
806.175	0.0137846
806.253	0.0136849
806.331	0.0137331
806.410	0.0139203
806.488	0.0138231
806.566	0.0138206
806.644	0.0136533
806.722	0.0137016
806.800	0.0136193
806.878	0.0135519
806.956	0.0138251
807.035	0.0136905
807.113	0.0136240
807.191	0.0137045
807.269	0.0136688
807.347	0.0135821
807.425	0.0136844
807.503	0.0136191
807.581	0.0135774
807.660	0.0136423
807.738	0.0137830
807.816	0.0136085
807.894	0.0133969
807.972	0.0133928
808.050	0.0135458
808.128	0.0135061
808.206	0.0135693
808.285	0.0135267
808.363	0.0135700
808.441	0.0134621
808.519	0.0133535
808.597	0.0135705
808.675	0.0135223
808.753	0.0135450
808.831	0.0135545
808.910	0.0135258
808.988	0.0135310
809.066	0.0136794
809.144	0.0135953
809.222	0.0136310
809.300	0.0135640
809.378	0.0135895
809.456	0.0136066
809.535	0.0135399
809.613	0.0137165
809.691	0.0137077
809.769	0.0136578
809.847	0.0135978
809.925	0.0136549
810.003	0.0136714
810.081	0.0135734
810.160	0.0136862
810.238	0.0136918
810.316	0.0136741
810.394	0.0136115
810.472	0.0136822
810.550	0.0137034
810.628	0.0135516
810.706	0.0134727
810.785	0.0136067
810.863	0.0136456
810.941	0.0136351
811.019	0.0135396
811.097	0.0136803
811.175	0.0136716
811.253	0.0136765
811.331	0.0137942
811.410	0.0138641
811.488	0.0137848
811.566	0.0138818
811.644	0.0137522
811.722	0.0138213
811.800	0.0138597
811.878	0.0139572
811.956	0.0138722
812.035	0.0137437
812.113	0.0139960
812.191	0.0139518
812.269	0.0140379
812.347	0.0139412
812.425	0.0139660
812.503	0.0139765
812.581	0.0140289
812.660	0.0138734
812.738	0.0139523
812.816	0.0140327
812.894	0.0140039
812.972	0.0140059
813.050	0.0139680
813.128	0.0139591
813.206	0.0140604
813.285	0.0140924
813.363	0.0140065
813.441	0.0138602
813.519	0.0139266
813.597	0.0138867
813.675	0.0137426
813.753	0.0138177
813.831	0.0139124
813.910	0.0138428
813.988	0.0137911
814.066	0.0137679
814.144	0.0137723
814.222	0.0139494
814.300	0.0137356
814.378	0.0137009
814.456	0.0137010
814.535	0.0138007
814.613	0.0138242
814.691	0.0137177
814.769	0.0136180
814.847	0.0136269
814.925	0.0136116
815.003	0.0137624
815.081	0.0137106
815.160	0.0136118
815.238	0.0137372
815.316	0.0137666
815.394	0.0136142
815.472	0.0134696
815.550	0.0135634
815.628	0.0136902
815.706	0.0136330
815.785	0.0136184
815.863	0.0135276
815.941	0.0135786
816.019	0.0135220
816.097	0.0137195
816.175	0.0136813
816.253	0.0136670
816.331	0.0136634
816.410	0.0136346
816.488	0.0138204
816.566	0.0138728
816.644	0.0138798
816.722	0.0138101
816.800	0.0138900
816.878	0.0139774
816.956	0.0137749
817.035	0.0138738
817.113	0.0139215
817.191	0.0138914
817.269	0.0139496
817.347	0.0139050
817.425	0.0138654
817.503	0.0140295
817.581	0.0138487
817.660	0.0138947
817.738	0.0139301
817.816	0.0139325
817.894	0.0138725
817.972	0.0139429
818.050	0.0138744
818.128	0.0140027
818.206	0.0140094
818.285	0.0139327
818.363	0.0139377
818.441	0.0138605
818.519	0.0139822
818.597	0.0139574
818.675	0.0140039
818.753	0.0140196
818.831	0.0139125
818.910	0.0140665
818.988	0.0139785
819.066	0.0139411
819.144	0.0139778
819.222	0.0139934
819.300	0.0141000
819.378	0.0141335
819.456	0.0139980
819.535	0.0140649
819.613	0.0140112
819.691	0.0140394
819.769	0.0140264
819.847	0.0139894
819.925	0.0140553
820.003	0.0140374
820.081	0.0140442
820.160	0.0139814
820.238	0.0139272
820.316	0.0139481
820.394	0.0137742
820.472	0.0137444
820.550	0.0139529
820.628	0.0138914
820.706	0.0137217
820.785	0.0138966
820.863	0.0138010
820.941	0.0139085
821.019	0.0138361
821.097	0.0138548
821.175	0.0137189
821.253	0.0137553
821.331	0.0137215
821.410	0.0136916
821.488	0.0137858
821.566	0.0136260
821.644	0.0136285
821.722	0.0135914
821.800	0.0136504
821.878	0.0136784
821.956	0.0137270
822.035	0.0136204
822.113	0.0137096
822.191	0.0136830
822.269	0.0136918
822.347	0.0136793
822.425	0.0136374
822.503	0.0136875
822.581	0.0135049
822.660	0.0136080
822.738	0.0136163
822.816	0.0136434
822.894	0.0138238
822.972	0.0137459
823.050	0.0137018
823.128	0.0138173
823.206	0.0136667
823.285	0.0136636
823.363	0.0136908
823.441	0.0137672
823.519	0.0137763
823.597	0.0138992
823.675	0.0139027
823.753	0.0138879
823.831	0.0137965
823.910	0.0138423
823.988	0.0137868
824.066	0.0139164
824.144	0.0139017
824.222	0.0137537
824.300	0.0139449
824.378	0.0139754
824.456	0.0139845
824.535	0.0139787
824.613	0.0138307
824.691	0.0137992
824.769	0.0138120
824.847	0.0137965
824.925	0.0137196
825.003	0.0137200
825.081	0.0137893
825.160	0.0137752
825.238	0.0137966
825.316	0.0139189
825.394	0.0138303
825.472	0.0139049
825.550	0.0139045
825.628	0.0138290
825.706	0.0137505
825.785	0.0138471
825.863	0.0140178
825.941	0.0139093
826.019	0.0139494
826.097	0.0139412
826.175	0.0140761
826.253	0.0140556
826.331	0.0141304
826.410	0.0138899
826.488	0.0138889
826.566	0.0140273
826.644	0.0140986
826.722	0.0139808
826.800	0.0140733
826.878	0.0140607
826.956	0.0139273
827.035	0.0139777
827.113	0.0139999
827.191	0.0140063
827.269	0.0139277
827.347	0.0139167
827.425	0.0139209
827.503	0.0138499
827.581	0.0137569
827.660	0.0138623
827.738	0.0136834
827.816	0.0136936
827.894	0.0138361
827.972	0.0138017
828.050	0.0137554
828.128	0.0137690
828.206	0.0137388
828.285	0.0137154
828.363	0.0136952
828.441	0.0137053
828.519	0.0136201
828.597	0.0135732
828.675	0.0136520
828.753	0.0136514
828.831	0.0138152
828.910	0.0137881
828.988	0.0135909
829.066	0.0135844
829.144	0.0135477
829.222	0.0137205
829.300	0.0137566
829.378	0.0135458
829.456	0.0137552
829.535	0.0137357
829.613	0.0138028
829.691	0.0137765
829.769	0.0136809
829.847	0.0136120
829.925	0.0135781
830.003	0.0136735
830.081	0.0136844
830.160	0.0136921
830.238	0.0138416
830.316	0.0136265
830.394	0.0135838
830.472	0.0136755
830.550	0.0137312
830.628	0.0137510
830.706	0.0137833
830.785	0.0137181
830.863	0.0136497
830.941	0.0137112
831.019	0.0137704
831.097	0.0137939
831.175	0.0136668
831.253	0.0137208
831.331	0.0137943
831.410	0.0136154
831.488	0.0137630
831.566	0.0137432
831.644	0.0137176
831.722	0.0137968
831.800	0.0136903
831.878	0.0136666
831.956	0.0136437
832.035	0.0136135
832.113	0.0136166
832.191	0.0135822
832.269	0.0136466
832.347	0.0134937
832.425	0.0135767
832.503	0.0136181
832.581	0.0136609
832.660	0.0135906
832.738	0.0135672
832.816	0.0136591
832.894	0.0136594
832.972	0.0136766
833.050	0.0136271
833.128	0.0137032
833.206	0.0137257
833.285	0.0136498
833.363	0.0136752
833.441	0.0137602
833.519	0.0138105
833.597	0.0137374
833.675	0.0138950
833.753	0.0137888
833.831	0.0138651
833.910	0.0137819
833.988	0.0138547
834.066	0.0138550
834.144	0.0138662
834.222	0.0138259
834.300	0.0136939
834.378	0.0137220
834.456	0.0137318
834.535	0.0136023
834.613	0.0136440
834.691	0.0137388
834.769	0.0135955
834.847	0.0134341
834.925	0.0136213
835.003	0.0135690
835.081	0.0134747
835.160	0.0135926
835.238	0.0134501
835.316	0.0136136
835.394	0.0136527
835.472	0.0135293
835.550	0.0135262
835.628	0.0135139
835.706	0.0134771
835.785	0.0134369
835.863	0.0136031
835.941	0.0134824
836.019	0.0136081
836.097	0.0136409
836.175	0.0135236
836.253	0.0136053
836.331	0.0135642
836.410	0.0136891
836.488	0.0136585
836.566	0.0135376
836.644	0.0136966
836.722	0.0136179
836.800	0.0138145
836.878	0.0135585
836.956	0.0135676
837.035	0.0138074
837.113	0.0136751
837.191	0.0137489
837.269	0.0137683
837.347	0.0137288
837.425	0.0137444
837.503	0.0137611
837.581	0.0137595
837.660	0.0137763
837.738	0.0137687
837.816	0.0137350
837.894	0.0137527
837.972	0.0137667
838.050	0.0136212
838.128	0.0137746
838.206	0.0138376
838.285	0.0139072
838.363	0.0138908
838.441	0.0138316
838.519	0.0137168
838.597	0.0139548
838.675	0.0139400
838.753	0.0139918
838.831	0.0139507
838.910	0.0137684
838.988	0.0137193
839.066	0.0139352
839.144	0.0139326
839.222	0.0138617
839.300	0.0138989
839.378	0.0138928
839.456	0.0139247
839.535	0.0138850
839.613	0.0139350
839.691	0.0139330
839.769	0.0139536
839.847	0.0138432
839.925	0.0139925
840.003	0.0140108
840.081	0.0139220
840.160	0.0139491
840.238	0.0140746
840.316	0.0138769
840.394	0.0139796
840.472	0.0140535
840.550	0.0140258
840.628	0.0140279
840.706	0.0141759
840.785	0.0140008
840.863	0.0141664
840.941	0.0140180
841.019	0.0140120
841.097	0.0140772
841.175	0.0141219
841.253	0.0140594
841.331	0.0141609
841.410	0.0140589
841.488	0.0138879
841.566	0.0139391
841.644	0.0139007
841.722	0.0139109
841.800	0.0139115
841.878	0.0137951
841.956	0.0138826
842.035	0.0138839
842.113	0.0138155
842.191	0.0139420
842.269	0.0138901
842.347	0.0140126
842.425	0.0138515
842.503	0.0137164
842.581	0.0137655
842.660	0.0137562
842.738	0.0138657
842.816	0.0138086
842.894	0.0138253
842.972	0.0137486
843.050	0.0138284
843.128	0.0138260
843.206	0.0138977
843.285	0.0139455
843.363	0.0137754
843.441	0.0138414
843.519	0.0137651
843.597	0.0136946
843.675	0.0138586
843.753	0.0138569
843.831	0.0137641
843.910	0.0139465
843.988	0.0137785
844.066	0.0137698
844.144	0.0139329
844.222	0.0138547
844.300	0.0137877
844.378	0.0138967
844.456	0.0138315
844.535	0.0138714
844.613	0.0136411
844.691	0.0137977
844.769	0.0138445
844.847	0.0138800
844.925	0.0138168
845.003	0.0136948
845.081	0.0137604
845.160	0.0138829
845.238	0.0138100
845.316	0.0138274
845.394	0.0138535
845.472	0.0138129
845.550	0.0138750
845.628	0.0138657
845.706	0.0138179
845.785	0.0137782
845.863	0.0139162
845.941	0.0137556
846.019	0.0139758
846.097	0.0137774
846.175	0.0135921
846.253	0.0137260
846.331	0.0137522
846.410	0.0136021
846.488	0.0136224
846.566	0.0137160
846.644	0.0137219
846.722	0.0137379
846.800	0.0137492
846.878	0.0137651
846.956	0.0136976
847.035	0.0136633
847.113	0.0137597
847.191	0.0138080
847.269	0.0138155
847.347	0.0137062
847.425	0.0138857
847.503	0.0138997
847.581	0.0138803
847.660	0.0139778
847.738	0.0138605
847.816	0.0138615
847.894	0.0140508
847.972	0.0139960
848.050	0.0139774
848.128	0.0141140
848.206	0.0141744
848.285	0.0142631
848.363	0.0141132
848.441	0.0139484
848.519	0.0141393
848.597	0.0141118
848.675	0.0140428
848.753	0.0139352
848.831	0.0139748
848.910	0.0139243
848.988	0.0137679
849.066	0.0137940
849.144	0.0137766
849.222	0.0139307
849.300	0.0140103
849.378	0.0137128
849.456	0.0138257
849.535	0.0138319
849.613	0.0139051
849.691	0.0137790
849.769	0.0138201
849.847	0.0137449
849.925	0.0138545
850.003	0.0139244
850.081	0.0137900
850.160	0.0138142
850.238	0.0137173
850.316	0.0137872
850.394	0.0138020
850.472	0.0137897
850.550	0.0138889
850.628	0.0138023
850.706	0.0136333
850.785	0.0136594
850.863	0.0138586
850.941	0.0138280
851.019	0.0137000
851.097	0.0137643
851.175	0.0136955
851.253	0.0136613
851.331	0.0136726
851.410	0.0137009
851.488	0.0137142
851.566	0.0137934
851.644	0.0137893
851.722	0.0137486
851.800	0.0135703
851.878	0.0134184
851.956	0.0138342
852.035	0.0137553
852.113	0.0136164
852.191	0.0137503
852.269	0.0136793
852.347	0.0135793
852.425	0.0137194
852.503	0.0137643
852.581	0.0138025
852.660	0.0136803
852.738	0.0136846
852.816	0.0136609
852.894	0.0137392
852.972	0.0137481
853.050	0.0137307
853.128	0.0136643
853.206	0.0136703
853.285	0.0136112
853.363	0.0135586
853.441	0.0136710
853.519	0.0137960
853.597	0.0136751
853.675	0.0135365
853.753	0.0136333
853.831	0.0136514
853.910	0.0138723
853.988	0.0136525
854.066	0.0138380
854.144	0.0136952
854.222	0.0137466
854.300	0.0137002
854.378	0.0138013
854.456	0.0136794
854.535	0.0136874
854.613	0.0138909
854.691	0.0138447
854.769	0.0138168
854.847	0.0139838
854.925	0.0139887
855.003	0.0138403
855.081	0.0138636
855.160	0.0140256
855.238	0.0139336
855.316	0.0139948
855.394	0.0138937
855.472	0.0139635
855.550	0.0140333
855.628	0.0140363
855.706	0.0140779
855.785	0.0139809
855.863	0.0137988
855.941	0.0138979
856.019	0.0138406
856.097	0.0137791
856.175	0.0135660
856.253	0.0137947
856.331	0.0138299
856.410	0.0137317
856.488	0.0137057
856.566	0.0135542
856.644	0.0136665
856.722	0.0137324
856.800	0.0135834
856.878	0.0136533
856.956	0.0136237
857.035	0.0136996
857.113	0.0136436
857.191	0.0135446
857.269	0.0136308
857.347	0.0135452
857.425	0.0135845
857.503	0.0136240
857.581	0.0136684
857.660	0.0135707
857.738	0.0134850
857.816	0.0135889
857.894	0.0135522
857.972	0.0135541
858.050	0.0136716
858.128	0.0135294
858.206	0.0135817
858.285	0.0136352
858.363	0.0135941
858.441	0.0137560
858.519	0.0136584
858.597	0.0135371
858.675	0.0135089
858.753	0.0136430
858.831	0.0136481
858.910	0.0137598
858.988	0.0137354
859.066	0.0135587
859.144	0.0136907
859.222	0.0136343
859.300	0.0135800
859.378	0.0136643
859.456	0.0137029
859.535	0.0136330
859.613	0.0136816
859.691	0.0136944
859.769	0.0137093
859.847	0.0137800
859.925	0.0137700
860.003	0.0137511
860.081	0.0136963
860.160	0.0137723
860.238	0.0137611
860.316	0.0137254
860.394	0.0138242
860.472	0.0136497
860.550	0.0136153
860.628	0.0137418
860.706	0.0137221
860.785	0.0137044
860.863	0.0135892
860.941	0.0137481
861.019	0.0135780
861.097	0.0136855
861.175	0.0136777
861.253	0.0138064
861.331	0.0137910
861.410	0.0136864
861.488	0.0136973
861.566	0.0137566
861.644	0.0137665
861.722	0.0137465
861.800	0.0138248
861.878	0.0138573
861.956	0.0138563
862.035	0.0139768
862.113	0.0139853
862.191	0.0139635
862.269	0.0139292
862.347	0.0142059
862.425	0.0139918
862.503	0.0140079
862.581	0.0140880
862.660	0.0141103
862.738	0.0139886
862.816	0.0140321
862.894	0.0140820
862.972	0.0139973
863.050	0.0140905
863.128	0.0140717
863.206	0.0138691
863.285	0.0140669
863.363	0.0139320
863.441	0.0137907
863.519	0.0139379
863.597	0.0138780
863.675	0.0139345
863.753	0.0137914
863.831	0.0137990
863.910	0.0138140
863.988	0.0137805
864.066	0.0137878
864.144	0.0138512
864.222	0.0136971
864.300	0.0138687
864.378	0.0137696
864.456	0.0137456
864.535	0.0137929
864.613	0.0137600
864.691	0.0136763
864.769	0.0138730
864.847	0.0138269
864.925	0.0137255
865.003	0.0138029
865.081	0.0137657
865.160	0.0137345
865.238	0.0136817
865.316	0.0136882
865.394	0.0137344
865.472	0.0137642
865.550	0.0135377
865.628	0.0137222
865.706	0.0136362
865.785	0.0136636
865.863	0.0136620
865.941	0.0136195
866.019	0.0137322
866.097	0.0136578
866.175	0.0137602
866.253	0.0138576
866.331	0.0138418
866.410	0.0138085
866.488	0.0138121
866.566	0.0138055
866.644	0.0138236
866.722	0.0137852
866.800	0.0138484
866.878	0.0138337
866.956	0.0139424
867.035	0.0138221
867.113	0.0138730
867.191	0.0139279
867.269	0.0139024
867.347	0.0137958
867.425	0.0139317
867.503	0.0139377
867.581	0.0139935
867.660	0.0138589
867.738	0.0138907
867.816	0.0138068
867.894	0.0137877
867.972	0.0138259
868.050	0.0135681
868.128	0.0136890
868.206	0.0138687
868.285	0.0138120
868.363	0.0137601
868.441	0.0139136
868.519	0.0137677
868.597	0.0137122
868.675	0.0138840
868.753	0.0139381
868.831	0.0138461
868.910	0.0138773
868.988	0.0139290
869.066	0.0139068
869.144	0.0140037
869.222	0.0140598
869.300	0.0140926
869.378	0.0141644
869.456	0.0140804
869.535	0.0140387
869.613	0.0141232
869.691	0.0142603
869.769	0.0141400
869.847	0.0140479
869.925	0.0140977
870.003	0.0140456
870.081	0.0140929
870.160	0.0139981
870.238	0.0140452
870.316	0.0140792
870.394	0.0141103
870.472	0.0139832
870.550	0.0140691
870.628	0.0139922
870.706	0.0139058
870.785	0.0139870
870.863	0.0138744
870.941	0.0137303
871.019	0.0137966
871.097	0.0138501
871.175	0.0138166
871.253	0.0137044
871.331	0.0137807
871.410	0.0139466
871.488	0.0138551
871.566	0.0137557
871.644	0.0138110
871.722	0.0137372
871.800	0.0138146
871.878	0.0137843
871.956	0.0137872
872.035	0.0137312
872.113	0.0138029
872.191	0.0137111
872.269	0.0136951
872.347	0.0137157
872.425	0.0137209
872.503	0.0137273
872.581	0.0137305
872.660	0.0136557
872.738	0.0137663
872.816	0.0135910
872.894	0.0136420
872.972	0.0137130
873.050	0.0135505
873.128	0.0137151
873.206	0.0136471
873.285	0.0135577
873.363	0.0137684
873.441	0.0137707
873.519	0.0136530
873.597	0.0137946
873.675	0.0137835
873.753	0.0137089
873.831	0.0138275
873.910	0.0137912
873.988	0.0138502
874.066	0.0137774
874.144	0.0138264
874.222	0.0138118
874.300	0.0138427
874.378	0.0137846
874.456	0.0139179
874.535	0.0139059
874.613	0.0139859
874.691	0.0138576
874.769	0.0138664
874.847	0.0137222
874.925	0.0137164
875.003	0.0138071
875.081	0.0136281
875.160	0.0136768
875.238	0.0138132
875.316	0.0137267
875.394	0.0137749
875.472	0.0136717
875.550	0.0138200
875.628	0.0138152
875.706	0.0137547
875.785	0.0137283
875.863	0.0138177
875.941	0.0139671
876.019	0.0138503
876.097	0.0138208
876.175	0.0138688
876.253	0.0138960
876.331	0.0138414
876.410	0.0139082
876.488	0.0139302
876.566	0.0140218
876.644	0.0140623
876.722	0.0138435
876.800	0.0139535
876.878	0.0140506
876.956	0.0140941
877.035	0.0139822
877.113	0.0140054
877.191	0.0139527
877.269	0.0140273
877.347	0.0140224
877.425	0.0139191
877.503	0.0139950
877.581	0.0140268
877.660	0.0140022
877.738	0.0138986
877.816	0.0138393
877.894	0.0139478
877.972	0.0139453
878.050	0.0136992
878.128	0.0137463
878.206	0.0137847
878.285	0.0138145
878.363	0.0138510
878.441	0.0137023
878.519	0.0138254
878.597	0.0137663
878.675	0.0139011
878.753	0.0138528
878.831	0.0136003
878.910	0.0137132
878.988	0.0139132
879.066	0.0136925
879.144	0.0137069
879.222	0.0137487
879.300	0.0138399
879.378	0.0137019
879.456	0.0137545
879.535	0.0136860
879.613	0.0137950
879.691	0.0137753
879.769	0.0137497
879.847	0.0135607
879.925	0.0135532
880.003	0.0137437
880.081	0.0137273
880.160	0.0137611
880.238	0.0136698
880.316	0.0136928
880.394	0.0136781
880.472	0.0136443
880.550	0.0137251
880.628	0.0136974
880.706	0.0136772
880.785	0.0136455
880.863	0.0137486
880.941	0.0137618
881.019	0.0135929
881.097	0.0135281
881.175	0.0136770
881.253	0.0137618
881.331	0.0138211
881.410	0.0138344
881.488	0.0137967
881.566	0.0136135
881.644	0.0136671
881.722	0.0136953
881.800	0.0137156
881.878	0.0136753
881.956	0.0138100
882.035	0.0135532
882.113	0.0135850
882.191	0.0136660
882.269	0.0135104
882.347	0.0134328
882.425	0.0135931
882.503	0.0136871
882.581	0.0134832
882.660	0.0136071
882.738	0.0135746
882.816	0.0135715
882.894	0.0135773
882.972	0.0136745
883.050	0.0136174
883.128	0.0137540
883.206	0.0138690
883.285	0.0136890
883.363	0.0137906
883.441	0.0138426
883.519	0.0136893
883.597	0.0138093
883.675	0.0138785
883.753	0.0138081
883.831	0.0140488
883.910	0.0139945
883.988	0.0140424
884.066	0.0139281
884.144	0.0140311
884.222	0.0141111
884.300	0.0140689
884.378	0.0139813
884.456	0.0139871
884.535	0.0140504
884.613	0.0139951
884.691	0.0139526
884.769	0.0139252
884.847	0.0139037
884.925	0.0138757
885.003	0.0138252
885.081	0.0138207
885.160	0.0137626
885.238	0.0139008
885.316	0.0137994
885.394	0.0136925
885.472	0.0137032
885.550	0.0137901
885.628	0.0137184
885.706	0.0137201
885.785	0.0137769
885.863	0.0137551
885.941	0.0138139
886.019	0.0136581
886.097	0.0137392
886.175	0.0136525
886.253	0.0136605
886.331	0.0136417
886.410	0.0137992
886.488	0.0137065
886.566	0.0136748
886.644	0.0136400
886.722	0.0136485
886.800	0.0136996
886.878	0.0137189
886.956	0.0135567
887.035	0.0136474
887.113	0.0137006
887.191	0.0137061
887.269	0.0136137
887.347	0.0137045
887.425	0.0137118
887.503	0.0136959
887.581	0.0138243
887.660	0.0137749
887.738	0.0136156
887.816	0.0135604
887.894	0.0137079
887.972	0.0136348
888.050	0.0135773
888.128	0.0138342
888.206	0.0137156
888.285	0.0137067
888.363	0.0138355
888.441	0.0137865
888.519	0.0137004
888.597	0.0137649
888.675	0.0138543
888.753	0.0139294
888.831	0.0137897
888.910	0.0138235
888.988	0.0137790
889.066	0.0139167
889.144	0.0137778
889.222	0.0135439
889.300	0.0136555
889.378	0.0137905
889.456	0.0137520
889.535	0.0136314
889.613	0.0136924
889.691	0.0137340
889.769	0.0136023
889.847	0.0137122
889.925	0.0136636
890.003	0.0137921
890.081	0.0137873
890.160	0.0136855
890.238	0.0137647
890.316	0.0137883
890.394	0.0137215
890.472	0.0138786
890.550	0.0138544
890.628	0.0138791
890.706	0.0138988
890.785	0.0138326
890.863	0.0137833
890.941	0.0138217
891.019	0.0139036
891.097	0.0139263
891.175	0.0138597
891.253	0.0139826
891.331	0.0140184
891.410	0.0140236
891.488	0.0139669
891.566	0.0139243
891.644	0.0139544
891.722	0.0138338
891.800	0.0138484
891.878	0.0138931
891.956	0.0138829
892.035	0.0139081
892.113	0.0139943
892.191	0.0139636
892.269	0.0138264
892.347	0.0138874
892.425	0.0138647
892.503	0.0138139
892.581	0.0139169
892.660	0.0138763
892.738	0.0139832
892.816	0.0137802
892.894	0.0138106
892.972	0.0138171
893.050	0.0138819
893.128	0.0137576
893.206	0.0138434
893.285	0.0138876
893.363	0.0137772
893.441	0.0137379
893.519	0.0138763
893.597	0.0138107
893.675	0.0137498
893.753	0.0137333
893.831	0.0137682
893.910	0.0138463
893.988	0.0137766
894.066	0.0137099
894.144	0.0137640
894.222	0.0135494
894.300	0.0138303
894.378	0.0135811
894.456	0.0135599
894.535	0.0137793
894.613	0.0138116
894.691	0.0136657
894.769	0.0137685
894.847	0.0138193
894.925	0.0138975
895.003	0.0137389
895.081	0.0136642
895.160	0.0137958
895.238	0.0137667
895.316	0.0137559
895.394	0.0137966
895.472	0.0137914
895.550	0.0137817
895.628	0.0138232
895.706	0.0137949
895.785	0.0138226
895.863	0.0137048
895.941	0.0136703
896.019	0.0138177
896.097	0.0137791
896.175	0.0137500
896.253	0.0136797
896.331	0.0137632
896.410	0.0138417
896.488	0.0137820
896.566	0.0137478
896.644	0.0137163
896.722	0.0136063
896.800	0.0137043
896.878	0.0136835
896.956	0.0137050
897.035	0.0138190
897.113	0.0135870
897.191	0.0136930
897.269	0.0137857
897.347	0.0136915
897.425	0.0137359
897.503	0.0137500
897.581	0.0137189
897.660	0.0137215
897.738	0.0139011
897.816	0.0139777
897.894	0.0139296
897.972	0.0138444
898.050	0.0139370
898.128	0.0138990
898.206	0.0138868
898.285	0.0139636
898.363	0.0139959
898.441	0.0139516
898.519	0.0138730
898.597	0.0140450
898.675	0.0139630
898.753	0.0139247
898.831	0.0140185
898.910	0.0139315
898.988	0.0139603
899.066	0.0139525
899.144	0.0138365
899.222	0.0138911
899.300	0.0138960
899.378	0.0138804
899.456	0.0138432
899.535	0.0138564
899.613	0.0138158
899.691	0.0137711
899.769	0.0138017
899.847	0.0137246
899.925	0.0137619
900.003	0.0138650
900.081	0.0138088
900.160	0.0137479
900.238	0.0138496
900.316	0.0137178
900.394	0.0137974
900.472	0.0137894
900.550	0.0137613
900.628	0.0137665
900.706	0.0137693
900.785	0.0138251
900.863	0.0137348
900.941	0.0137180
901.019	0.0135459
901.097	0.0136175
901.175	0.0137081
901.253	0.0135552
901.331	0.0136404
901.410	0.0137278
901.488	0.0135860
901.566	0.0137232
901.644	0.0138361
901.722	0.0138147
901.800	0.0137783
901.878	0.0137621
901.956	0.0138084
902.035	0.0136268
902.113	0.0136922
902.191	0.0138017
902.269	0.0136957
902.347	0.0137505
902.425	0.0138241
902.503	0.0137972
902.581	0.0136703
902.660	0.0136871
902.738	0.0136736
902.816	0.0137877
902.894	0.0138064
902.972	0.0138309
903.050	0.0138618
903.128	0.0137695
903.206	0.0139359
903.285	0.0138206
903.363	0.0137825
903.441	0.0138387
903.519	0.0138215
903.597	0.0138337
903.675	0.0137982
903.753	0.0137650
903.831	0.0140096
903.910	0.0138686
903.988	0.0136947
904.066	0.0137158
904.144	0.0136742
904.222	0.0137054
904.300	0.0137925
904.378	0.0138049
904.456	0.0136692
904.535	0.0137578
904.613	0.0138722
904.691	0.0137903
904.769	0.0136761
904.847	0.0138209
904.925	0.0137162
905.003	0.0138308
905.081	0.0138795
905.160	0.0137393
905.238	0.0138461
905.316	0.0137454
905.394	0.0138000
905.472	0.0140024
905.550	0.0138910
905.628	0.0139342
905.706	0.0139574
905.785	0.0140163
905.863	0.0139809
905.941	0.0139374
906.019	0.0139534
906.097	0.0140007
906.175	0.0138998
906.253	0.0139648
906.331	0.0139496
906.410	0.0139624
906.488	0.0138286
906.566	0.0137784
906.644	0.0138773
906.722	0.0137856
906.800	0.0136596
906.878	0.0136842
906.956	0.0137811
907.035	0.0136358
907.113	0.0136564
907.191	0.0137580
907.269	0.0137295
907.347	0.0136067
907.425	0.0136587
907.503	0.0135365
907.581	0.0137476
907.660	0.0136148
907.738	0.0135676
907.816	0.0135333
907.894	0.0136204
907.972	0.0136026
908.050	0.0134721
908.128	0.0136604
908.206	0.0137356
908.285	0.0136310
908.363	0.0136623
908.441	0.0136932
908.519	0.0136247
908.597	0.0137212
908.675	0.0137019
908.753	0.0137099
908.831	0.0137220
908.910	0.0137469
908.988	0.0136375
909.066	0.0137502
909.144	0.0137820
909.222	0.0138114
909.300	0.0137913
909.378	0.0136344
909.456	0.0137571
909.535	0.0138648
909.613	0.0138818
909.691	0.0137425
909.769	0.0136845
909.847	0.0137916
909.925	0.0136734
910.003	0.0137221
910.081	0.0137168
910.160	0.0136769
910.238	0.0137279
910.316	0.0138835
910.394	0.0137094
910.472	0.0136633
910.550	0.0138206
910.628	0.0137672
910.706	0.0137681
910.785	0.0137490
910.863	0.0137670
910.941	0.0137914
911.019	0.0136436
911.097	0.0136420
911.175	0.0136369
911.253	0.0137458
911.331	0.0136119
911.410	0.0136680
911.488	0.0136372
911.566	0.0136002
911.644	0.0135499
911.722	0.0136214
911.800	0.0136125
911.878	0.0136464
911.956	0.0136913
912.035	0.0136595
912.113	0.0136327
912.191	0.0136792
912.269	0.0138329
912.347	0.0138008
912.425	0.0136850
912.503	0.0136989
912.581	0.0136887
912.660	0.0137450
912.738	0.0139873
912.816	0.0138610
912.894	0.0137888
912.972	0.0139124
913.050	0.0139418
913.128	0.0140490
913.206	0.0140233
913.285	0.0139272
913.363	0.0141323
913.441	0.0139510
913.519	0.0137756
913.597	0.0138266
913.675	0.0139059
913.753	0.0138456
913.831	0.0138209
913.910	0.0138635
913.988	0.0138107
914.066	0.0136442
914.144	0.0138571
914.222	0.0138175
914.300	0.0139222
914.378	0.0138897
914.456	0.0137169
914.535	0.0137083
914.613	0.0138393
914.691	0.0138844
914.769	0.0137921
914.847	0.0138736
914.925	0.0137965
915.003	0.0140022
915.081	0.0140234
915.160	0.0138003
915.238	0.0138401
915.316	0.0138071
915.394	0.0139482
915.472	0.0139847
915.550	0.0139871
915.628	0.0139664
915.706	0.0140147
915.785	0.0139833
915.863	0.0139876
915.941	0.0139091
916.019	0.0139733
916.097	0.0140459
916.175	0.0138450
916.253	0.0138824
916.331	0.0138972
916.410	0.0138920
916.488	0.0138486
916.566	0.0138440
916.644	0.0139783
916.722	0.0139259
916.800	0.0140390
916.878	0.0138709
916.956	0.0139674
917.035	0.0140131
917.113	0.0138416
917.191	0.0140049
917.269	0.0140260
917.347	0.0140093
917.425	0.0139267
917.503	0.0139059
917.581	0.0140459
917.660	0.0137814
917.738	0.0138857
917.816	0.0139568
917.894	0.0139075
917.972	0.0137958
918.050	0.0138877
918.128	0.0138451
918.206	0.0139120
918.285	0.0137888
918.363	0.0138673
918.441	0.0139322
918.519	0.0138374
918.597	0.0136873
918.675	0.0137515
918.753	0.0138908
918.831	0.0138251
918.910	0.0138052
918.988	0.0139594
919.066	0.0137821
919.144	0.0136395
919.222	0.0138127
919.300	0.0137099
919.378	0.0138239
919.456	0.0137823
919.535	0.0137806
919.613	0.0138198
919.691	0.0139068
919.769	0.0138771
919.847	0.0139099
919.925	0.0140342
920.003	0.0138190
920.081	0.0139178
920.160	0.0139424
920.238	0.0140691
920.316	0.0141392
920.394	0.0139686
920.472	0.0141722
920.550	0.0141476
920.628	0.0141488
920.706	0.0140231
920.785	0.0139828
920.863	0.0140078
920.941	0.0140157
921.019	0.0140845
921.097	0.0140171
921.175	0.0140319
921.253	0.0139034
921.331	0.0139237
921.410	0.0140027
921.488	0.0138660
921.566	0.0138854
921.644	0.0139674
921.722	0.0140520
921.800	0.0140569
921.878	0.0140045
921.956	0.0138525
922.035	0.0139384
922.113	0.0139233
922.191	0.0139162
922.269	0.0139378
922.347	0.0138978
922.425	0.0139977
922.503	0.0140184
922.581	0.0139178
922.660	0.0138360
922.738	0.0139828
922.816	0.0139491
922.894	0.0138933
922.972	0.0138465
923.050	0.0139642
923.128	0.0138200
923.206	0.0138593
923.285	0.0136519
923.363	0.0136436
923.441	0.0137740
923.519	0.0138541
923.597	0.0136716
923.675	0.0137505
923.753	0.0136191
923.831	0.0137148
923.910	0.0136652
923.988	0.0136348
924.066	0.0136789
924.144	0.0137056
924.222	0.0137129
924.300	0.0136417
924.378	0.0135583
924.456	0.0136877
924.535	0.0136668
924.613	0.0136304
924.691	0.0134683
924.769	0.0136594
924.847	0.0137002
924.925	0.0136523
925.003	0.0137301
925.081	0.0137378
925.160	0.0136668
925.238	0.0138017
925.316	0.0137422
925.394	0.0135971
925.472	0.0137132
925.550	0.0137411
925.628	0.0136835
925.706	0.0134571
925.785	0.0134898
925.863	0.0136339
925.941	0.0135067
926.019	0.0135451
926.097	0.0135129
926.175	0.0135924
926.253	0.0135851
926.331	0.0136108
926.410	0.0134940
926.488	0.0134872
926.566	0.0135577
926.644	0.0137172
926.722	0.0137261
926.800	0.0136048
926.878	0.0138451
926.956	0.0136658
927.035	0.0136203
927.113	0.0137789
927.191	0.0139631
927.269	0.0138712
927.347	0.0138303
927.425	0.0138752
927.503	0.0138496
927.581	0.0138474
927.660	0.0138535
927.738	0.0137817
927.816	0.0139370
927.894	0.0138352
927.972	0.0137260
928.050	0.0137953
928.128	0.0139645
928.206	0.0136873
928.285	0.0136550
928.363	0.0137897
928.441	0.0137015
928.519	0.0135525
928.597	0.0135650
928.675	0.0135276
928.753	0.0135218
928.831	0.0136183
928.910	0.0135629
928.988	0.0135075
929.066	0.0136012
929.144	0.0135154
929.222	0.0134604
929.300	0.0134687
929.378	0.0135786
929.456	0.0134965
929.535	0.0134607
929.613	0.0135801
929.691	0.0134998
929.769	0.0135066
929.847	0.0136799
929.925	0.0135581
930.003	0.0136992
930.081	0.0135659
930.160	0.0135229
930.238	0.0133952
930.316	0.0134480
930.394	0.0136263
930.472	0.0135261
930.550	0.0133852
930.628	0.0135316
930.706	0.0136146
930.785	0.0135942
930.863	0.0136292
930.941	0.0134704
931.019	0.0135431
931.097	0.0136982
931.175	0.0136343
931.253	0.0136626
931.331	0.0136584
931.410	0.0136889
931.488	0.0136229
931.566	0.0136972
931.644	0.0137066
931.722	0.0137685
931.800	0.0137200
931.878	0.0136906
931.956	0.0137133
932.035	0.0137729
932.113	0.0138360
932.191	0.0137566
932.269	0.0138175
932.347	0.0138344
932.425	0.0136520
932.503	0.0137986
932.581	0.0138091
932.660	0.0135968
932.738	0.0137634
932.816	0.0138017
932.894	0.0137060
932.972	0.0135533
933.050	0.0137113
933.128	0.0136104
933.206	0.0134937
933.285	0.0136517
933.363	0.0136687
933.441	0.0135783
933.519	0.0134943
933.597	0.0135571
933.675	0.0135825
933.753	0.0135152
933.831	0.0135844
933.910	0.0137120
933.988	0.0137543
934.066	0.0135700
934.144	0.0137273
934.222	0.0137383
934.300	0.0138929
934.378	0.0138818
934.456	0.0137710
934.535	0.0139187
934.613	0.0138939
934.691	0.0138144
934.769	0.0139719
934.847	0.0138898
934.925	0.0141194
935.003	0.0138882
935.081	0.0140218
935.160	0.0140434
935.238	0.0140268
935.316	0.0140765
935.394	0.0140337
935.472	0.0140529
935.550	0.0140298
935.628	0.0138451
935.706	0.0138055
935.785	0.0138773
935.863	0.0139510
935.941	0.0138300
936.019	0.0139267
936.097	0.0139847
936.175	0.0138295
936.253	0.0139326
936.331	0.0138525
936.410	0.0137707
936.488	0.0138877
936.566	0.0138919
936.644	0.0138262
936.722	0.0138610
936.800	0.0138517
936.878	0.0139143
936.956	0.0138449
937.035	0.0138072
937.113	0.0140630
937.191	0.0138435
937.269	0.0137673
937.347	0.0138460
937.425	0.0138605
937.503	0.0138192
937.581	0.0136781
937.660	0.0137235
937.738	0.0137973
937.816	0.0137905
937.894	0.0137740
937.972	0.0136925
938.050	0.0138395
938.128	0.0138170
938.206	0.0137394
938.285	0.0138305
938.363	0.0137189
938.441	0.0137921
938.519	0.0139552
938.597	0.0139169
938.675	0.0138890
938.753	0.0138155
938.831	0.0137366
938.910	0.0138010
938.988	0.0138040
939.066	0.0139088
939.144	0.0137868
939.222	0.0138583
939.300	0.0139598
939.378	0.0137509
939.456	0.0138889
939.535	0.0139041
939.613	0.0137147
939.691	0.0139524
939.769	0.0138815
939.847	0.0137608
939.925	0.0137823
940.003	0.0138389
940.081	0.0139353
940.160	0.0137868
940.238	0.0137817
940.316	0.0137042
940.394	0.0137759
940.472	0.0138628
940.550	0.0137105
940.628	0.0136880
940.706	0.0138272
940.785	0.0137622
940.863	0.0136910
940.941	0.0137762
941.019	0.0138418
941.097	0.0139161
941.175	0.0139708
941.253	0.0138496
941.331	0.0139259
941.410	0.0139996
941.488	0.0140283
941.566	0.0139505
941.644	0.0140308
941.722	0.0141992
941.800	0.0140495
941.878	0.0140434
941.956	0.0140377
942.035	0.0142709
942.113	0.0139686
942.191	0.0141356
942.269	0.0140801
942.347	0.0141203
942.425	0.0141186
942.503	0.0139113
942.581	0.0139812
942.660	0.0140514
942.738	0.0140331
942.816	0.0139497
942.894	0.0138902
942.972	0.0139240
943.050	0.0138707
943.128	0.0137560
943.206	0.0137901
943.285	0.0138164
943.363	0.0138181
943.441	0.0139485
943.519	0.0138943
943.597	0.0137756
943.675	0.0136611
943.753	0.0138068
943.831	0.0138343
943.910	0.0137133
943.988	0.0136700
944.066	0.0137736
944.144	0.0138629
944.222	0.0138412
944.300	0.0137387
944.378	0.0137898
944.456	0.0137811
944.535	0.0136774
944.613	0.0137617
944.691	0.0138338
944.769	0.0136523
944.847	0.0136333
944.925	0.0138113
945.003	0.0138573
945.081	0.0137525
945.160	0.0136757
945.238	0.0138818
945.316	0.0137029
945.394	0.0135603
945.472	0.0138023
945.550	0.0138584
945.628	0.0136551
945.706	0.0137259
945.785	0.0136523
945.863	0.0139146
945.941	0.0137917
946.019	0.0138699
946.097	0.0139091
946.175	0.0137830
946.253	0.0138850
946.331	0.0137047
946.410	0.0138508
946.488	0.0138245
946.566	0.0137901
946.644	0.0138696
946.722	0.0138130
946.800	0.0138857
946.878	0.0137956
946.956	0.0138659
947.035	0.0137394
947.113	0.0137597
947.191	0.0137814
947.269	0.0135695
947.347	0.0137518
947.425	0.0137580
947.503	0.0136684
947.581	0.0137070
947.660	0.0135385
947.738	0.0135962
947.816	0.0135558
947.894	0.0136739
947.972	0.0136350
948.050	0.0135905
948.128	0.0136127
948.206	0.0135493
948.285	0.0135530
948.363	0.0136279
948.441	0.0135590
948.519	0.0137213
948.597	0.0137128
948.675	0.0136446
948.753	0.0137814
948.831	0.0138424
948.910	0.0137408
948.988	0.0137589
949.066	0.0138145
949.144	0.0139040
949.222	0.0137437
949.300	0.0139259
949.378	0.0140272
949.456	0.0140063
949.535	0.0138463
949.613	0.0139056
949.691	0.0140322
949.769	0.0139751
949.847	0.0137838
949.925	0.0139021
950.003	0.0137908
950.081	0.0137963
950.160	0.0138712
950.238	0.0138041
950.316	0.0136687
950.394	0.0137896
950.472	0.0136854
950.550	0.0136382
950.628	0.0136873
950.706	0.0136531
950.785	0.0135688
950.863	0.0136909
950.941	0.0135976
951.019	0.0136451
951.097	0.0137469
951.175	0.0137054
951.253	0.0137281
951.331	0.0135407
951.410	0.0136249
951.488	0.0135551
951.566	0.0137053
951.644	0.0135746
951.722	0.0138461
951.800	0.0136475
951.878	0.0136453
951.956	0.0137408
952.035	0.0136415
952.113	0.0137037
952.191	0.0138544
952.269	0.0136928
952.347	0.0138058
952.425	0.0137294
952.503	0.0136302
952.581	0.0136822
952.660	0.0137434
952.738	0.0138311
952.816	0.0137663
952.894	0.0137015
952.972	0.0137391
953.050	0.0137840
953.128	0.0138627
953.206	0.0137589
953.285	0.0138538
953.363	0.0136449
953.441	0.0138290
953.519	0.0137089
953.597	0.0136890
953.675	0.0137006
953.753	0.0137179
953.831	0.0136958
953.910	0.0138216
953.988	0.0137742
954.066	0.0138165
954.144	0.0136660
954.222	0.0135904
954.300	0.0137634
954.378	0.0136774
954.456	0.0136384
954.535	0.0136787
954.613	0.0136227
954.691	0.0135901
954.769	0.0135719
954.847	0.0136227
954.925	0.0136382
955.003	0.0136922
955.081	0.0135924
955.160	0.0136270
955.238	0.0136648
955.316	0.0136984
955.394	0.0136193
955.472	0.0136491
955.550	0.0137449
955.628	0.0135796
955.706	0.0136819
955.785	0.0137581
955.863	0.0137040
955.941	0.0138544
956.019	0.0137813
956.097	0.0136268
956.175	0.0137814
956.253	0.0139428
956.331	0.0139093
956.410	0.0139539
956.488	0.0139653
956.566	0.0138216
956.644	0.0139751
956.722	0.0140217
956.800	0.0140102
956.878	0.0139603
956.956	0.0139785
957.035	0.0140205
957.113	0.0140548
957.191	0.0138928
957.269	0.0138873
957.347	0.0139493
957.425	0.0139485
957.503	0.0139440
957.581	0.0138383
957.660	0.0138567
957.738	0.0138411
957.816	0.0138986
957.894	0.0138214
957.972	0.0137798
958.050	0.0135911
958.128	0.0138073
958.206	0.0138035
958.285	0.0137616
958.363	0.0138414
958.441	0.0137357
958.519	0.0137570
958.597	0.0137055
958.675	0.0136774
958.753	0.0137463
958.831	0.0137438
958.910	0.0136339
958.988	0.0137126
959.066	0.0137605
959.144	0.0135474
959.222	0.0135706
959.300	0.0136774
959.378	0.0136938
959.456	0.0136022
959.535	0.0134668
959.613	0.0133699
959.691	0.0135942
959.769	0.0137331
959.847	0.0133138
959.925	0.0134184
960.003	0.0135641
960.081	0.0135947
960.160	0.0136361
960.238	0.0135012
960.316	0.0134665
960.394	0.0136177
960.472	0.0134865
960.550	0.0138020
960.628	0.0134817
960.706	0.0136072
960.785	0.0137436
960.863	0.0134861
960.941	0.0136443
961.019	0.0136448
961.097	0.0136589
961.175	0.0136603
961.253	0.0136399
961.331	0.0136815
961.410	0.0136572
961.488	0.0136607
961.566	0.0135337
961.644	0.0136520
961.722	0.0136262
961.800	0.0136299
961.878	0.0136036
961.956	0.0136075
962.035	0.0136764
962.113	0.0136843
962.191	0.0136794
962.269	0.0136922
962.347	0.0137395
962.425	0.0137076
962.503	0.0136641
962.581	0.0137850
962.660	0.0137663
962.738	0.0136819
962.816	0.0137938
962.894	0.0139214
962.972	0.0138703
963.050	0.0139809
963.128	0.0139606
963.206	0.0139907
963.285	0.0140469
963.363	0.0140339
963.441	0.0140427
963.519	0.0140457
963.597	0.0140835
963.675	0.0141373
963.753	0.0142075
963.831	0.0141697
963.910	0.0139407
963.988	0.0141312
964.066	0.0141424
964.144	0.0141218
964.222	0.0141518
964.300	0.0141555
964.378	0.0140215
964.456	0.0139954
964.535	0.0141649
964.613	0.0140819
964.691	0.0139874
964.769	0.0141907
964.847	0.0139766
964.925	0.0138994
965.003	0.0140334
965.081	0.0140002
965.160	0.0139294
965.238	0.0138744
965.316	0.0139658
965.394	0.0138902
965.472	0.0138244
965.550	0.0138696
965.628	0.0138770
965.706	0.0137991
965.785	0.0137525
965.863	0.0138779
965.941	0.0138385
966.019	0.0137617
966.097	0.0138194
966.175	0.0137807
966.253	0.0137688
966.331	0.0137511
966.410	0.0137183
966.488	0.0137502
966.566	0.0136654
966.644	0.0136717
966.722	0.0137224
966.800	0.0136824
966.878	0.0137482
966.956	0.0137275
967.035	0.0138492
967.113	0.0137049
967.191	0.0136612
967.269	0.0136216
967.347	0.0138084
967.425	0.0135699
967.503	0.0136629
967.581	0.0137333
967.660	0.0136049
967.738	0.0137439
967.816	0.0137221
967.894	0.0136325
967.972	0.0137395
968.050	0.0138153
968.128	0.0136731
968.206	0.0138579
968.285	0.0138976
968.363	0.0138464
968.441	0.0136650
968.519	0.0136848
968.597	0.0138224
968.675	0.0138825
968.753	0.0138317
968.831	0.0137106
968.910	0.0138165
968.988	0.0138852
969.066	0.0138206
969.144	0.0137420
969.222	0.0135510
969.300	0.0137573
969.378	0.0138084
969.456	0.0137389
969.535	0.0136912
969.613	0.0137185
969.691	0.0136964
969.769	0.0136963
969.847	0.0138098
969.925	0.0137505
970.003	0.0136295
970.081	0.0137649
970.160	0.0138366
970.238	0.0136353
970.316	0.0137986
970.394	0.0137045
970.472	0.0137581
970.550	0.0137005
970.628	0.0138395
970.706	0.0137521
970.785	0.0137656
970.863	0.0137406
970.941	0.0138441
971.019	0.0137898
971.097	0.0137234
971.175	0.0138882
971.253	0.0137872
971.331	0.0139356
971.410	0.0139416
971.488	0.0139503
971.566	0.0138551
971.644	0.0138206
971.722	0.0138482
971.800	0.0136707
971.878	0.0136530
971.956	0.0136172
972.035	0.0136496
972.113	0.0137735
972.191	0.0136121
972.269	0.0136316
972.347	0.0135670
972.425	0.0136110
972.503	0.0136024
972.581	0.0135178
972.660	0.0134971
972.738	0.0135291
972.816	0.0136436
972.894	0.0136474
972.972	0.0136472
973.050	0.0135766
973.128	0.0134873
973.206	0.0135403
973.285	0.0136020
973.363	0.0135255
973.441	0.0135928
973.519	0.0135940
973.597	0.0137284
973.675	0.0135336
973.753	0.0136060
973.831	0.0136221
973.910	0.0137248
973.988	0.0137441
974.066	0.0136089
974.144	0.0135609
974.222	0.0136104
974.300	0.0137081
974.378	0.0135889
974.456	0.0136458
974.535	0.0136680
974.613	0.0136321
974.691	0.0136177
974.769	0.0137782
974.847	0.0136280
974.925	0.0135961
975.003	0.0136543
975.081	0.0137373
975.160	0.0136253
975.238	0.0138046
975.316	0.0137000
975.394	0.0138555
975.472	0.0137549
975.550	0.0136803
975.628	0.0136395
975.706	0.0138062
975.785	0.0137906
975.863	0.0138439
975.941	0.0138644
976.019	0.0139133
976.097	0.0138931
976.175	0.0138229
976.253	0.0138129
976.331	0.0137266
976.410	0.0138221
976.488	0.0137091
976.566	0.0138625
976.644	0.0138494
976.722	0.0136001
976.800	0.0137502
976.878	0.0138227
976.956	0.0137471
977.035	0.0137072
977.113	0.0136086
977.191	0.0137575
977.269	0.0138131
977.347	0.0136687
977.425	0.0137178
977.503	0.0136530
977.581	0.0138033
977.660	0.0137347
977.738	0.0136708
977.816	0.0137341
977.894	0.0139150
977.972	0.0137909
978.050	0.0138653
978.128	0.0137930
978.206	0.0138344
978.285	0.0139969
978.363	0.0138426
978.441	0.0138582
978.519	0.0138436
978.597	0.0139229
978.675	0.0138268
978.753	0.0138355
978.831	0.0140133
978.910	0.0140504
978.988	0.0139503
979.066	0.0138049
979.144	0.0139363
979.222	0.0139906
979.300	0.0139971
979.378	0.0139716
979.456	0.0139716
979.535	0.0140828
979.613	0.0139196
979.691	0.0140181
979.769	0.0141016
979.847	0.0139096
979.925	0.0138078
