05/03/2022	20:44:58	Ver.	4.1	UNKNOWN
Optical Delay	660.003261	Delta X		0.078125	Sweeps	1	Scan Rate	0/0
Coordinates	Axis 1	NaN	Axis 2	NaN	Axis 3	NaN	Axis 4	NaN	Axis 5	NaN	Axis 6	0.000000
TX Power	0.000000	RX Power	0.000000

660.003	0.0136597
660.081	0.0136530
660.160	0.0136816
660.238	0.0136607
660.316	0.0136002
660.394	0.0136038
660.472	0.0135835
660.550	0.0137565
660.628	0.0136497
660.706	0.0137972
660.785	0.0136399
660.863	0.0135732
660.941	0.0136819
661.019	0.0137409
661.097	0.0135236
661.175	0.0135264
661.253	0.0137383
661.331	0.0136012
661.410	0.0135426
661.488	0.0135725
661.566	0.0135371
661.644	0.0138146
661.722	0.0136202
661.800	0.0135964
661.878	0.0137342
661.956	0.0137268
662.035	0.0136492
662.113	0.0136078
662.191	0.0137425
662.269	0.0137381
662.347	0.0136387
662.425	0.0136533
662.503	0.0136361
662.581	0.0136000
662.660	0.0137903
662.738	0.0136942
662.816	0.0137431
662.894	0.0137954
662.972	0.0136858
663.050	0.0136420
663.128	0.0137164
663.206	0.0138077
663.285	0.0138242
663.363	0.0138013
663.441	0.0136455
663.519	0.0135937
663.597	0.0135825
663.675	0.0135439
663.753	0.0137259
663.831	0.0137864
663.910	0.0137246
663.988	0.0136407
664.066	0.0138001
664.144	0.0136784
664.222	0.0137459
664.300	0.0135460
664.378	0.0135516
664.456	0.0136738
664.535	0.0136216
664.613	0.0136945
664.691	0.0135945
664.769	0.0136565
664.847	0.0137275
664.925	0.0136815
665.003	0.0136243
665.081	0.0135515
665.160	0.0135136
665.238	0.0134658
665.316	0.0136887
665.394	0.0136206
665.472	0.0134897
665.550	0.0135276
665.628	0.0135674
665.706	0.0136929
665.785	0.0135832
665.863	0.0135178
665.941	0.0134454
666.019	0.0137097
666.097	0.0136385
666.175	0.0134625
666.253	0.0136124
666.331	0.0135107
666.410	0.0134912
666.488	0.0136835
666.566	0.0136184
666.644	0.0136928
666.722	0.0136233
666.800	0.0136755
666.878	0.0135361
666.956	0.0136224
667.035	0.0135997
667.113	0.0135409
667.191	0.0135144
667.269	0.0135570
667.347	0.0135086
667.425	0.0135920
667.503	0.0137510
667.581	0.0136147
667.660	0.0135352
667.738	0.0135323
667.816	0.0136227
667.894	0.0136115
667.972	0.0136082
668.050	0.0136803
668.128	0.0136508
668.206	0.0136559
668.285	0.0134966
668.363	0.0136479
668.441	0.0136813
668.519	0.0137091
668.597	0.0136199
668.675	0.0135128
668.753	0.0136031
668.831	0.0136958
668.910	0.0136266
668.988	0.0136858
669.066	0.0136927
669.144	0.0136436
669.222	0.0137385
669.300	0.0137006
669.378	0.0136599
669.456	0.0138143
669.535	0.0137377
669.613	0.0137394
669.691	0.0136401
669.769	0.0135470
669.847	0.0136080
669.925	0.0136253
670.003	0.0138661
670.081	0.0136629
670.160	0.0136108
670.238	0.0137370
670.316	0.0136176
670.394	0.0137713
670.472	0.0136897
670.550	0.0136515
670.628	0.0137192
670.706	0.0136539
670.785	0.0135720
670.863	0.0136864
670.941	0.0136723
671.019	0.0137165
671.097	0.0136760
671.175	0.0135931
671.253	0.0135519
671.331	0.0136721
671.410	0.0135847
671.488	0.0137390
671.566	0.0137886
671.644	0.0137299
671.722	0.0137339
671.800	0.0136805
671.878	0.0136512
671.956	0.0135785
672.035	0.0137720
672.113	0.0136668
672.191	0.0137386
672.269	0.0138099
672.347	0.0137727
672.425	0.0136590
672.503	0.0135922
672.581	0.0136465
672.660	0.0137444
672.738	0.0136662
672.816	0.0136586
672.894	0.0134699
672.972	0.0136464
673.050	0.0136900
673.128	0.0136611
673.206	0.0137400
673.285	0.0137344
673.363	0.0137103
673.441	0.0137920
673.519	0.0136962
673.597	0.0137135
673.675	0.0135845
673.753	0.0135719
673.831	0.0136768
673.910	0.0135464
673.988	0.0135899
674.066	0.0136732
674.144	0.0136764
674.222	0.0136411
674.300	0.0136654
674.378	0.0137049
674.456	0.0138031
674.535	0.0136903
674.613	0.0135729
674.691	0.0137331
674.769	0.0136842
674.847	0.0136201
674.925	0.0138046
675.003	0.0138028
675.081	0.0137610
675.160	0.0137231
675.238	0.0137827
675.316	0.0137887
675.394	0.0136944
675.472	0.0137968
675.550	0.0138647
675.628	0.0136255
675.706	0.0137964
675.785	0.0137417
675.863	0.0135621
675.941	0.0137182
676.019	0.0137246
676.097	0.0136658
676.175	0.0136897
676.253	0.0137160
676.331	0.0137894
676.410	0.0136842
676.488	0.0136647
676.566	0.0136180
676.644	0.0137213
676.722	0.0136849
676.800	0.0136121
676.878	0.0136563
676.956	0.0138190
677.035	0.0135615
677.113	0.0135768
677.191	0.0136081
677.269	0.0136362
677.347	0.0136156
677.425	0.0135791
677.503	0.0136710
677.581	0.0136975
677.660	0.0137317
677.738	0.0135703
677.816	0.0137038
677.894	0.0137085
677.972	0.0136389
678.050	0.0137707
678.128	0.0137585
678.206	0.0138558
678.285	0.0137543
678.363	0.0138768
678.441	0.0136982
678.519	0.0137586
678.597	0.0136845
678.675	0.0136395
678.753	0.0136926
678.831	0.0137536
678.910	0.0136678
678.988	0.0136913
679.066	0.0137020
679.144	0.0136743
679.222	0.0137094
679.300	0.0137016
679.378	0.0136596
679.456	0.0137132
679.535	0.0137693
679.613	0.0136025
679.691	0.0137182
679.769	0.0136981
679.847	0.0136351
679.925	0.0135562
680.003	0.0137106
680.081	0.0136823
680.160	0.0136377
680.238	0.0136428
680.316	0.0135970
680.394	0.0135102
680.472	0.0136185
680.550	0.0135378
680.628	0.0134675
680.706	0.0134481
680.785	0.0135493
680.863	0.0136004
680.941	0.0135032
681.019	0.0135741
681.097	0.0135297
681.175	0.0134543
681.253	0.0135011
681.331	0.0136118
681.410	0.0135158
681.488	0.0134336
681.566	0.0134270
681.644	0.0134526
681.722	0.0135201
681.800	0.0135696
681.878	0.0135320
681.956	0.0135454
682.035	0.0135414
682.113	0.0136180
682.191	0.0135136
682.269	0.0134797
682.347	0.0134481
682.425	0.0135000
682.503	0.0136491
682.581	0.0136292
682.660	0.0136052
682.738	0.0136048
682.816	0.0137247
682.894	0.0135671
682.972	0.0136689
683.050	0.0136845
683.128	0.0137584
683.206	0.0136126
683.285	0.0136467
683.363	0.0137398
683.441	0.0136292
683.519	0.0136916
683.597	0.0136688
683.675	0.0137233
683.753	0.0137038
683.831	0.0137550
683.910	0.0137387
683.988	0.0135431
684.066	0.0135817
684.144	0.0136635
684.222	0.0136922
684.300	0.0136665
684.378	0.0136116
684.456	0.0134853
684.535	0.0136604
684.613	0.0136362
684.691	0.0135972
684.769	0.0135305
684.847	0.0134372
684.925	0.0136463
685.003	0.0135943
685.081	0.0135706
685.160	0.0134809
685.238	0.0136653
685.316	0.0135719
685.394	0.0134148
685.472	0.0134218
685.550	0.0135457
685.628	0.0134739
685.706	0.0134991
685.785	0.0134207
685.863	0.0135053
685.941	0.0135600
686.019	0.0133792
686.097	0.0133600
686.175	0.0134985
686.253	0.0135676
686.331	0.0135211
686.410	0.0134795
686.488	0.0135864
686.566	0.0135793
686.644	0.0136648
686.722	0.0136113
686.800	0.0135632
686.878	0.0136325
686.956	0.0135008
687.035	0.0136234
687.113	0.0135577
687.191	0.0134618
687.269	0.0135883
687.347	0.0136507
687.425	0.0134843
687.503	0.0136583
687.581	0.0135441
687.660	0.0136500
687.738	0.0135995
687.816	0.0136507
687.894	0.0135538
687.972	0.0136142
688.050	0.0137022
688.128	0.0135588
688.206	0.0134280
688.285	0.0134521
688.363	0.0136390
688.441	0.0135607
688.519	0.0136086
688.597	0.0135573
688.675	0.0134608
688.753	0.0136317
688.831	0.0136156
688.910	0.0134784
688.988	0.0136297
689.066	0.0136286
689.144	0.0136424
689.222	0.0136122
689.300	0.0136250
689.378	0.0137917
689.456	0.0136931
689.535	0.0136747
689.613	0.0137797
689.691	0.0136189
689.769	0.0137305
689.847	0.0137453
689.925	0.0136524
690.003	0.0137005
690.081	0.0136548
690.160	0.0136278
690.238	0.0137453
690.316	0.0136050
690.394	0.0136526
690.472	0.0135775
690.550	0.0135975
690.628	0.0137044
690.706	0.0137051
690.785	0.0136887
690.863	0.0136304
690.941	0.0136179
691.019	0.0134631
691.097	0.0136063
691.175	0.0136761
691.253	0.0134885
691.331	0.0135296
691.410	0.0136380
691.488	0.0135780
691.566	0.0135246
691.644	0.0135666
691.722	0.0134523
691.800	0.0135735
691.878	0.0136172
691.956	0.0135329
692.035	0.0135748
692.113	0.0136163
692.191	0.0135374
692.269	0.0137727
692.347	0.0136479
692.425	0.0136073
692.503	0.0136430
692.581	0.0136197
692.660	0.0136722
692.738	0.0136896
692.816	0.0135932
692.894	0.0137172
692.972	0.0138222
693.050	0.0136037
693.128	0.0137734
693.206	0.0136578
693.285	0.0136903
693.363	0.0136183
693.441	0.0135804
693.519	0.0135712
693.597	0.0134071
693.675	0.0134861
693.753	0.0134843
693.831	0.0136234
693.910	0.0135825
693.988	0.0135873
694.066	0.0134930
694.144	0.0136064
694.222	0.0137807
694.300	0.0135447
694.378	0.0135931
694.456	0.0137773
694.535	0.0136328
694.613	0.0138348
694.691	0.0138316
694.769	0.0138340
694.847	0.0137785
694.925	0.0136861
695.003	0.0137447
695.081	0.0138309
695.160	0.0138342
695.238	0.0137368
695.316	0.0138254
695.394	0.0139455
695.472	0.0138255
695.550	0.0136624
695.628	0.0138216
695.706	0.0135983
695.785	0.0137515
695.863	0.0137365
695.941	0.0137717
696.019	0.0136520
696.097	0.0137031
696.175	0.0137635
696.253	0.0137623
696.331	0.0135754
696.410	0.0136213
696.488	0.0137283
696.566	0.0138457
696.644	0.0136822
696.722	0.0137964
696.800	0.0137406
696.878	0.0137389
696.956	0.0137271
697.035	0.0137264
697.113	0.0137661
697.191	0.0137555
697.269	0.0136477
697.347	0.0137424
697.425	0.0135547
697.503	0.0136949
697.581	0.0135046
697.660	0.0137283
697.738	0.0135352
697.816	0.0137562
697.894	0.0136681
697.972	0.0137730
698.050	0.0137591
698.128	0.0138027
698.206	0.0138006
698.285	0.0137437
698.363	0.0138247
698.441	0.0138560
698.519	0.0138273
698.597	0.0138501
698.675	0.0137735
698.753	0.0136474
698.831	0.0138714
698.910	0.0138113
698.988	0.0136847
699.066	0.0137104
699.144	0.0136730
699.222	0.0136439
699.300	0.0135419
699.378	0.0136779
699.456	0.0136599
699.535	0.0136389
699.613	0.0136229
699.691	0.0135530
699.769	0.0135073
699.847	0.0134513
699.925	0.0135429
700.003	0.0136082
700.081	0.0135942
700.160	0.0135872
700.238	0.0135157
700.316	0.0135406
700.394	0.0137527
700.472	0.0137552
700.550	0.0138606
700.628	0.0138086
700.706	0.0137820
700.785	0.0138405
700.863	0.0138963
700.941	0.0137160
701.019	0.0138454
701.097	0.0137202
701.175	0.0136749
701.253	0.0136694
701.331	0.0136988
701.410	0.0136241
701.488	0.0135437
701.566	0.0136897
701.644	0.0135368
701.722	0.0135512
701.800	0.0136627
701.878	0.0133653
701.956	0.0133115
702.035	0.0134889
702.113	0.0134845
702.191	0.0135297
702.269	0.0135908
702.347	0.0135783
702.425	0.0135569
702.503	0.0137202
702.581	0.0136521
702.660	0.0136922
702.738	0.0135622
702.816	0.0136955
702.894	0.0136438
702.972	0.0135825
703.050	0.0137024
703.128	0.0136320
703.206	0.0133760
703.285	0.0135207
703.363	0.0135239
703.441	0.0133981
703.519	0.0133319
703.597	0.0132937
703.675	0.0133643
703.753	0.0133849
703.831	0.0133369
703.910	0.0133872
703.988	0.0134876
704.066	0.0133658
704.144	0.0133344
704.222	0.0135252
704.300	0.0135363
704.378	0.0135259
704.456	0.0135161
704.535	0.0134880
704.613	0.0136235
704.691	0.0136866
704.769	0.0135461
704.847	0.0136687
704.925	0.0135985
705.003	0.0135239
705.081	0.0134914
705.160	0.0134041
705.238	0.0135197
705.316	0.0134274
705.394	0.0135138
705.472	0.0134821
705.550	0.0134698
705.628	0.0135593
705.706	0.0135417
705.785	0.0137128
705.863	0.0136220
705.941	0.0135954
706.019	0.0137199
706.097	0.0136174
706.175	0.0137547
706.253	0.0136978
706.331	0.0137663
706.410	0.0137007
706.488	0.0137229
706.566	0.0135559
706.644	0.0135397
706.722	0.0135643
706.800	0.0137410
706.878	0.0136398
706.956	0.0135011
707.035	0.0136082
707.113	0.0135764
707.191	0.0136164
707.269	0.0136149
707.347	0.0135232
707.425	0.0135686
707.503	0.0135410
707.581	0.0134528
707.660	0.0135714
707.738	0.0136160
707.816	0.0136044
707.894	0.0134177
707.972	0.0134557
708.050	0.0135855
708.128	0.0135574
708.206	0.0137411
708.285	0.0134960
708.363	0.0135822
708.441	0.0137023
708.519	0.0136196
708.597	0.0136717
708.675	0.0136494
708.753	0.0135234
708.831	0.0135789
708.910	0.0136044
708.988	0.0138125
709.066	0.0136331
709.144	0.0135271
709.222	0.0135735
709.300	0.0136297
709.378	0.0136330
709.456	0.0135530
709.535	0.0136477
709.613	0.0136704
709.691	0.0135927
709.769	0.0135670
709.847	0.0134293
709.925	0.0134344
710.003	0.0135062
710.081	0.0135441
710.160	0.0135313
710.238	0.0135527
710.316	0.0135777
710.394	0.0135111
710.472	0.0135038
710.550	0.0136343
710.628	0.0135427
710.706	0.0134886
710.785	0.0136122
710.863	0.0135139
710.941	0.0135712
711.019	0.0136040
711.097	0.0136184
711.175	0.0134892
711.253	0.0134161
711.331	0.0135077
711.410	0.0134888
711.488	0.0136160
711.566	0.0136338
711.644	0.0136982
711.722	0.0136584
711.800	0.0135316
711.878	0.0135534
711.956	0.0136278
712.035	0.0135928
712.113	0.0137244
712.191	0.0138087
712.269	0.0136785
712.347	0.0136401
712.425	0.0137601
712.503	0.0136535
712.581	0.0137268
712.660	0.0136504
712.738	0.0136514
712.816	0.0137232
712.894	0.0137869
712.972	0.0136972
713.050	0.0137333
713.128	0.0136793
713.206	0.0137168
713.285	0.0137320
713.363	0.0136588
713.441	0.0136819
713.519	0.0138187
713.597	0.0136980
713.675	0.0136573
713.753	0.0138183
713.831	0.0136009
713.910	0.0136481
713.988	0.0137469
714.066	0.0136959
714.144	0.0137823
714.222	0.0137572
714.300	0.0135542
714.378	0.0137039
714.456	0.0137798
714.535	0.0137722
714.613	0.0137079
714.691	0.0136904
714.769	0.0136520
714.847	0.0136204
714.925	0.0137247
715.003	0.0136330
715.081	0.0136513
715.160	0.0136803
715.238	0.0134909
715.316	0.0137058
715.394	0.0136755
715.472	0.0135687
715.550	0.0137025
715.628	0.0138123
715.706	0.0135745
715.785	0.0136428
715.863	0.0136261
715.941	0.0136478
716.019	0.0138332
716.097	0.0138863
716.175	0.0136299
716.253	0.0136863
716.331	0.0137746
716.410	0.0135896
716.488	0.0138992
716.566	0.0134774
716.644	0.0134770
716.722	0.0135416
716.800	0.0135071
716.878	0.0136483
716.956	0.0135732
717.035	0.0136160
717.113	0.0135646
717.191	0.0136118
717.269	0.0136619
717.347	0.0136645
717.425	0.0136140
717.503	0.0136882
717.581	0.0137208
717.660	0.0139247
717.738	0.0137392
717.816	0.0138088
717.894	0.0137112
717.972	0.0135529
718.050	0.0136472
718.128	0.0136530
718.206	0.0135111
718.285	0.0137122
718.363	0.0136856
718.441	0.0138147
718.519	0.0135922
718.597	0.0136739
718.675	0.0137505
718.753	0.0136163
718.831	0.0136682
718.910	0.0137435
718.988	0.0137788
719.066	0.0138134
719.144	0.0137393
719.222	0.0137640
719.300	0.0137223
719.378	0.0137687
719.456	0.0138255
719.535	0.0137384
719.613	0.0138194
719.691	0.0138739
719.769	0.0136681
719.847	0.0138754
719.925	0.0138976
720.003	0.0138573
720.081	0.0138219
720.160	0.0138152
720.238	0.0139118
720.316	0.0137891
720.394	0.0138922
720.472	0.0138633
720.550	0.0138624
720.628	0.0137614
720.706	0.0138546
720.785	0.0138051
720.863	0.0138927
720.941	0.0136903
721.019	0.0136150
721.097	0.0137923
721.175	0.0137731
721.253	0.0136655
721.331	0.0137406
721.410	0.0137878
721.488	0.0138538
721.566	0.0137547
721.644	0.0138491
721.722	0.0137086
721.800	0.0137342
721.878	0.0136591
721.956	0.0136192
722.035	0.0136825
722.113	0.0137014
722.191	0.0136911
722.269	0.0136884
722.347	0.0136743
722.425	0.0136805
722.503	0.0137041
722.581	0.0135912
722.660	0.0137955
722.738	0.0137257
722.816	0.0137149
722.894	0.0135308
722.972	0.0135694
723.050	0.0137119
723.128	0.0136063
723.206	0.0135599
723.285	0.0136037
723.363	0.0135189
723.441	0.0136171
723.519	0.0135350
723.597	0.0135442
723.675	0.0136651
723.753	0.0136624
723.831	0.0136283
723.910	0.0136430
723.988	0.0135281
724.066	0.0135508
724.144	0.0136137
724.222	0.0135944
724.300	0.0137048
724.378	0.0137324
724.456	0.0135758
724.535	0.0135893
724.613	0.0135561
724.691	0.0136169
724.769	0.0135360
724.847	0.0135658
724.925	0.0136397
725.003	0.0135376
725.081	0.0134784
725.160	0.0135979
725.238	0.0135767
725.316	0.0134889
725.394	0.0135024
725.472	0.0134399
725.550	0.0134052
725.628	0.0135356
725.706	0.0136336
725.785	0.0135371
725.863	0.0135960
725.941	0.0137773
726.019	0.0136428
726.097	0.0135537
726.175	0.0135250
726.253	0.0137096
726.331	0.0136544
726.410	0.0136217
726.488	0.0135513
726.566	0.0136135
726.644	0.0136462
726.722	0.0136620
726.800	0.0137270
726.878	0.0136520
726.956	0.0137429
727.035	0.0135811
727.113	0.0136804
727.191	0.0137010
727.269	0.0137569
727.347	0.0137791
727.425	0.0136418
727.503	0.0135673
727.581	0.0137517
727.660	0.0136082
727.738	0.0136951
727.816	0.0137020
727.894	0.0134230
727.972	0.0135522
728.050	0.0135246
728.128	0.0135253
728.206	0.0135049
728.285	0.0136157
728.363	0.0135532
728.441	0.0134981
728.519	0.0135678
728.597	0.0136061
728.675	0.0134904
728.753	0.0135269
728.831	0.0136335
728.910	0.0135672
728.988	0.0136501
729.066	0.0137411
729.144	0.0135374
729.222	0.0134962
729.300	0.0136300
729.378	0.0136418
729.456	0.0135216
729.535	0.0134837
729.613	0.0136780
729.691	0.0136036
729.769	0.0135540
729.847	0.0136384
729.925	0.0136062
730.003	0.0136505
730.081	0.0135336
730.160	0.0135960
730.238	0.0136402
730.316	0.0136557
730.394	0.0135312
730.472	0.0135208
730.550	0.0134714
730.628	0.0134451
730.706	0.0136069
730.785	0.0133949
730.863	0.0136227
730.941	0.0135513
731.019	0.0135722
731.097	0.0135000
731.175	0.0134072
731.253	0.0136619
731.331	0.0136390
731.410	0.0135606
731.488	0.0135140
731.566	0.0136979
731.644	0.0136314
731.722	0.0135923
731.800	0.0136499
731.878	0.0135352
731.956	0.0136319
732.035	0.0135558
732.113	0.0136012
732.191	0.0135701
732.269	0.0135594
732.347	0.0134501
732.425	0.0137257
732.503	0.0136907
732.581	0.0136069
732.660	0.0135640
732.738	0.0135894
732.816	0.0136507
732.894	0.0136739
732.972	0.0136706
733.050	0.0137742
733.128	0.0137366
733.206	0.0137966
733.285	0.0138030
733.363	0.0137857
733.441	0.0137557
733.519	0.0139263
733.597	0.0137418
733.675	0.0137663
733.753	0.0138492
733.831	0.0138626
733.910	0.0138776
733.988	0.0139346
734.066	0.0138210
734.144	0.0138603
734.222	0.0139465
734.300	0.0138118
734.378	0.0138210
734.456	0.0137759
734.535	0.0138347
734.613	0.0137453
734.691	0.0138885
734.769	0.0138170
734.847	0.0136759
734.925	0.0135920
735.003	0.0136499
735.081	0.0136662
735.160	0.0137025
735.238	0.0135212
735.316	0.0135949
735.394	0.0137482
735.472	0.0138275
735.550	0.0135907
735.628	0.0137741
735.706	0.0137733
735.785	0.0135697
735.863	0.0136863
735.941	0.0136751
736.019	0.0136899
736.097	0.0136205
736.175	0.0136745
736.253	0.0136507
736.331	0.0137065
736.410	0.0136581
736.488	0.0137031
736.566	0.0137271
736.644	0.0138062
736.722	0.0136386
736.800	0.0136091
736.878	0.0137778
736.956	0.0136085
737.035	0.0136070
737.113	0.0136767
737.191	0.0137697
737.269	0.0136331
737.347	0.0135572
737.425	0.0137662
737.503	0.0134592
737.581	0.0136855
737.660	0.0137884
737.738	0.0135487
737.816	0.0135593
737.894	0.0136581
737.972	0.0137341
738.050	0.0137374
738.128	0.0136019
738.206	0.0137112
738.285	0.0136685
738.363	0.0137102
738.441	0.0137148
738.519	0.0135886
738.597	0.0136993
738.675	0.0136744
738.753	0.0137627
738.831	0.0138279
738.910	0.0136545
738.988	0.0136064
739.066	0.0136756
739.144	0.0136393
739.222	0.0137173
739.300	0.0137231
739.378	0.0135574
739.456	0.0136110
739.535	0.0134494
739.613	0.0135012
739.691	0.0137058
739.769	0.0136559
739.847	0.0137286
739.925	0.0136489
740.003	0.0136630
740.081	0.0137309
740.160	0.0138650
740.238	0.0137153
740.316	0.0137944
740.394	0.0138104
740.472	0.0137998
740.550	0.0138660
740.628	0.0138542
740.706	0.0138661
740.785	0.0138719
740.863	0.0138921
740.941	0.0139597
741.019	0.0138241
741.097	0.0139124
741.175	0.0138857
741.253	0.0138565
741.331	0.0139271
741.410	0.0138982
741.488	0.0137597
741.566	0.0138198
741.644	0.0139014
741.722	0.0138460
741.800	0.0138295
741.878	0.0139406
741.956	0.0138195
742.035	0.0138130
742.113	0.0137082
742.191	0.0136636
742.269	0.0137598
742.347	0.0137026
742.425	0.0136670
742.503	0.0136562
742.581	0.0136643
742.660	0.0137627
742.738	0.0137967
742.816	0.0137022
742.894	0.0135873
742.972	0.0137455
743.050	0.0135937
743.128	0.0136198
743.206	0.0136962
743.285	0.0137327
743.363	0.0136537
743.441	0.0136792
743.519	0.0136497
743.597	0.0137173
743.675	0.0136776
743.753	0.0136773
743.831	0.0137246
743.910	0.0136977
743.988	0.0136350
744.066	0.0136266
744.144	0.0136593
744.222	0.0136297
744.300	0.0136823
744.378	0.0137595
744.456	0.0135562
744.535	0.0136855
744.613	0.0137278
744.691	0.0136434
744.769	0.0135003
744.847	0.0137754
744.925	0.0136155
745.003	0.0135819
745.081	0.0136101
745.160	0.0135336
745.238	0.0135883
745.316	0.0134359
745.394	0.0135004
745.472	0.0133576
745.550	0.0135402
745.628	0.0136291
745.706	0.0135443
745.785	0.0135200
745.863	0.0136370
745.941	0.0135574
746.019	0.0135240
746.097	0.0135257
746.175	0.0136354
746.253	0.0135641
746.331	0.0134369
746.410	0.0134795
746.488	0.0135193
746.566	0.0133964
746.644	0.0134863
746.722	0.0135297
746.800	0.0133060
746.878	0.0136713
746.956	0.0135509
747.035	0.0135552
747.113	0.0136196
747.191	0.0136024
747.269	0.0137031
747.347	0.0136118
747.425	0.0136899
747.503	0.0135798
747.581	0.0136906
747.660	0.0136779
747.738	0.0136285
747.816	0.0137949
747.894	0.0137518
747.972	0.0137341
748.050	0.0136048
748.128	0.0136256
748.206	0.0137589
748.285	0.0136963
748.363	0.0137438
748.441	0.0137503
748.519	0.0137032
748.597	0.0136229
748.675	0.0136572
748.753	0.0135658
748.831	0.0135635
748.910	0.0134928
748.988	0.0135065
749.066	0.0137561
749.144	0.0134506
749.222	0.0135909
749.300	0.0136018
749.378	0.0134623
749.456	0.0134135
749.535	0.0135960
749.613	0.0136349
749.691	0.0134808
749.769	0.0134608
749.847	0.0135857
749.925	0.0134251
750.003	0.0134772
750.081	0.0135321
750.160	0.0134927
750.238	0.0135189
750.316	0.0135950
750.394	0.0135964
750.472	0.0135758
750.550	0.0135334
750.628	0.0135116
750.706	0.0135488
750.785	0.0134214
750.863	0.0136429
750.941	0.0135933
751.019	0.0135316
751.097	0.0135323
751.175	0.0134244
751.253	0.0134531
751.331	0.0136022
751.410	0.0135810
751.488	0.0133883
751.566	0.0136538
751.644	0.0135062
751.722	0.0135108
751.800	0.0134280
751.878	0.0134989
751.956	0.0135497
752.035	0.0135670
752.113	0.0135732
752.191	0.0136174
752.269	0.0135988
752.347	0.0134135
752.425	0.0135191
752.503	0.0134405
752.581	0.0134966
752.660	0.0135390
752.738	0.0135358
752.816	0.0135224
752.894	0.0134918
752.972	0.0135788
753.050	0.0136237
753.128	0.0136221
753.206	0.0136172
753.285	0.0135159
753.363	0.0136374
753.441	0.0135684
753.519	0.0134209
753.597	0.0135010
753.675	0.0136842
753.753	0.0137029
753.831	0.0135417
753.910	0.0136504
753.988	0.0136283
754.066	0.0135737
754.144	0.0137160
754.222	0.0136621
754.300	0.0136388
754.378	0.0137353
754.456	0.0137881
754.535	0.0137705
754.613	0.0138287
754.691	0.0138552
754.769	0.0137687
754.847	0.0138120
754.925	0.0137827
755.003	0.0138458
755.081	0.0139006
755.160	0.0138194
755.238	0.0139279
755.316	0.0139185
755.394	0.0138815
755.472	0.0138918
755.550	0.0138007
755.628	0.0138558
755.706	0.0138571
755.785	0.0137406
755.863	0.0137934
755.941	0.0136708
756.019	0.0137597
756.097	0.0137238
756.175	0.0137479
756.253	0.0135852
756.331	0.0136158
756.410	0.0135893
756.488	0.0135841
756.566	0.0137028
756.644	0.0136549
756.722	0.0136098
756.800	0.0135906
756.878	0.0135726
756.956	0.0137310
757.035	0.0137196
757.113	0.0136370
757.191	0.0135693
757.269	0.0135931
757.347	0.0136358
757.425	0.0137091
757.503	0.0135846
757.581	0.0135175
757.660	0.0137142
757.738	0.0137811
757.816	0.0136766
757.894	0.0135876
757.972	0.0136897
758.050	0.0135678
758.128	0.0136607
758.206	0.0135838
758.285	0.0136025
758.363	0.0136235
758.441	0.0134414
758.519	0.0134835
758.597	0.0135452
758.675	0.0135361
758.753	0.0134536
758.831	0.0135056
758.910	0.0135771
758.988	0.0135246
759.066	0.0135281
759.144	0.0136729
759.222	0.0135552
759.300	0.0135703
759.378	0.0134844
759.456	0.0134624
759.535	0.0136116
759.613	0.0135707
759.691	0.0135458
759.769	0.0134503
759.847	0.0134341
759.925	0.0134380
760.003	0.0135957
760.081	0.0134995
760.160	0.0135917
760.238	0.0135474
760.316	0.0136266
760.394	0.0136180
760.472	0.0136495
760.550	0.0137695
760.628	0.0136026
760.706	0.0136435
760.785	0.0134533
760.863	0.0134644
760.941	0.0135745
761.019	0.0135598
761.097	0.0136134
761.175	0.0135474
761.253	0.0136884
761.331	0.0137064
761.410	0.0136848
761.488	0.0137788
761.566	0.0136864
761.644	0.0137737
761.722	0.0137578
761.800	0.0138033
761.878	0.0138126
761.956	0.0137772
762.035	0.0139056
762.113	0.0138298
762.191	0.0139644
762.269	0.0139565
762.347	0.0138137
762.425	0.0137929
762.503	0.0139027
762.581	0.0139400
762.660	0.0138223
762.738	0.0138318
762.816	0.0139982
762.894	0.0139153
762.972	0.0137118
763.050	0.0137528
763.128	0.0138862
763.206	0.0136984
763.285	0.0136433
763.363	0.0137874
763.441	0.0137991
763.519	0.0138061
763.597	0.0136469
763.675	0.0135707
763.753	0.0137370
763.831	0.0136116
763.910	0.0135608
763.988	0.0136273
764.066	0.0136965
764.144	0.0136142
764.222	0.0135639
764.300	0.0136582
764.378	0.0137022
764.456	0.0135636
764.535	0.0136107
764.613	0.0135561
764.691	0.0135892
764.769	0.0136798
764.847	0.0137034
764.925	0.0137044
765.003	0.0135250
765.081	0.0134760
765.160	0.0136465
765.238	0.0136586
765.316	0.0135810
765.394	0.0134540
765.472	0.0135540
765.550	0.0135985
765.628	0.0136076
765.706	0.0134727
765.785	0.0134395
765.863	0.0136869
765.941	0.0135870
766.019	0.0135381
766.097	0.0136785
766.175	0.0134861
766.253	0.0136922
766.331	0.0135249
766.410	0.0136590
766.488	0.0135538
766.566	0.0136230
766.644	0.0134996
766.722	0.0134145
766.800	0.0135374
766.878	0.0135623
766.956	0.0136080
767.035	0.0136287
767.113	0.0134837
767.191	0.0134838
767.269	0.0135164
767.347	0.0137030
767.425	0.0135944
767.503	0.0134809
767.581	0.0134588
767.660	0.0134915
767.738	0.0136207
767.816	0.0137283
767.894	0.0136104
767.972	0.0137195
768.050	0.0135744
768.128	0.0134394
768.206	0.0135318
768.285	0.0136529
768.363	0.0135609
768.441	0.0135793
768.519	0.0136595
768.597	0.0136920
768.675	0.0138028
768.753	0.0137503
768.831	0.0136931
768.910	0.0136389
768.988	0.0137287
769.066	0.0138486
769.144	0.0138199
769.222	0.0137861
769.300	0.0138383
769.378	0.0138711
769.456	0.0138477
769.535	0.0139029
769.613	0.0138837
769.691	0.0139370
769.769	0.0139664
769.847	0.0139699
769.925	0.0137784
770.003	0.0138554
770.081	0.0139761
770.160	0.0137601
770.238	0.0137805
770.316	0.0138008
770.394	0.0137895
770.472	0.0137891
770.550	0.0136911
770.628	0.0136938
770.706	0.0136308
770.785	0.0136484
770.863	0.0137251
770.941	0.0135723
771.019	0.0135257
771.097	0.0135954
771.175	0.0136678
771.253	0.0136811
771.331	0.0134361
771.410	0.0135759
771.488	0.0135663
771.566	0.0135632
771.644	0.0136220
771.722	0.0135722
771.800	0.0135973
771.878	0.0134813
771.956	0.0134026
772.035	0.0137449
772.113	0.0135133
772.191	0.0135651
772.269	0.0136450
772.347	0.0135332
772.425	0.0135600
772.503	0.0135949
772.581	0.0136137
772.660	0.0135364
772.738	0.0133280
772.816	0.0135126
772.894	0.0136388
772.972	0.0135170
773.050	0.0135669
773.128	0.0135085
773.206	0.0134121
773.285	0.0134758
773.363	0.0134917
773.441	0.0134233
773.519	0.0136117
773.597	0.0134769
773.675	0.0135567
773.753	0.0135516
773.831	0.0134931
773.910	0.0136366
773.988	0.0134911
774.066	0.0135432
774.144	0.0137164
774.222	0.0135886
774.300	0.0135551
774.378	0.0135243
774.456	0.0135253
774.535	0.0136252
774.613	0.0136626
774.691	0.0135412
774.769	0.0135238
774.847	0.0134849
774.925	0.0133650
775.003	0.0135847
775.081	0.0135880
775.160	0.0134907
775.238	0.0134972
775.316	0.0134483
775.394	0.0135030
775.472	0.0135712
775.550	0.0136051
775.628	0.0135454
775.706	0.0135944
775.785	0.0137730
775.863	0.0136344
775.941	0.0137175
776.019	0.0137922
776.097	0.0136912
776.175	0.0136436
776.253	0.0137795
776.331	0.0137684
776.410	0.0138288
776.488	0.0139342
776.566	0.0137566
776.644	0.0138822
776.722	0.0139052
776.800	0.0138679
776.878	0.0139064
776.956	0.0138477
777.035	0.0138433
777.113	0.0138225
777.191	0.0137748
777.269	0.0136155
777.347	0.0138667
777.425	0.0139027
777.503	0.0136838
777.581	0.0136546
777.660	0.0136948
777.738	0.0136648
777.816	0.0137038
777.894	0.0136476
777.972	0.0135503
778.050	0.0136681
778.128	0.0135970
778.206	0.0134443
778.285	0.0136381
778.363	0.0136427
778.441	0.0135843
778.519	0.0136095
778.597	0.0135010
778.675	0.0135040
778.753	0.0135593
778.831	0.0136915
778.910	0.0136258
778.988	0.0137009
779.066	0.0135587
779.144	0.0135310
779.222	0.0137273
779.300	0.0136268
779.378	0.0136475
779.456	0.0136703
779.535	0.0135822
779.613	0.0136430
779.691	0.0136024
779.769	0.0135373
779.847	0.0136852
779.925	0.0135281
780.003	0.0135873
780.081	0.0135471
780.160	0.0135934
780.238	0.0135349
780.316	0.0135850
780.394	0.0136044
780.472	0.0136518
780.550	0.0135849
780.628	0.0134481
780.706	0.0134113
780.785	0.0135833
780.863	0.0135120
780.941	0.0135462
781.019	0.0136305
781.097	0.0134991
781.175	0.0135111
781.253	0.0136116
781.331	0.0135284
781.410	0.0134509
781.488	0.0134426
781.566	0.0135032
781.644	0.0134913
781.722	0.0136170
781.800	0.0136513
781.878	0.0135372
781.956	0.0133704
782.035	0.0134512
782.113	0.0134664
782.191	0.0135490
782.269	0.0132659
782.347	0.0135213
782.425	0.0135419
782.503	0.0133431
782.581	0.0134652
782.660	0.0135439
782.738	0.0136162
782.816	0.0134712
782.894	0.0135283
782.972	0.0135970
783.050	0.0134942
783.128	0.0136548
783.206	0.0136905
783.285	0.0136645
783.363	0.0135897
783.441	0.0135664
783.519	0.0138541
783.597	0.0138412
783.675	0.0137469
783.753	0.0137352
783.831	0.0137863
783.910	0.0138338
783.988	0.0138539
784.066	0.0138390
784.144	0.0137183
784.222	0.0137383
784.300	0.0137501
784.378	0.0138440
784.456	0.0138570
784.535	0.0138200
784.613	0.0137487
784.691	0.0138535
784.769	0.0137692
784.847	0.0137919
784.925	0.0136134
785.003	0.0135910
785.081	0.0136736
785.160	0.0135099
785.238	0.0135999
785.316	0.0135483
785.394	0.0135490
785.472	0.0134547
785.550	0.0134808
785.628	0.0135669
785.706	0.0135835
785.785	0.0134801
785.863	0.0133343
785.941	0.0134278
786.019	0.0134176
786.097	0.0135825
786.175	0.0134957
786.253	0.0134835
786.331	0.0134424
786.410	0.0134888
786.488	0.0135371
786.566	0.0135886
786.644	0.0133746
786.722	0.0134110
786.800	0.0134029
786.878	0.0133900
786.956	0.0135485
787.035	0.0134261
787.113	0.0134728
787.191	0.0133926
787.269	0.0133196
787.347	0.0134250
787.425	0.0135271
787.503	0.0134933
787.581	0.0135037
787.660	0.0133897
787.738	0.0134978
787.816	0.0135568
787.894	0.0133128
787.972	0.0135762
788.050	0.0135278
788.128	0.0134436
788.206	0.0134887
788.285	0.0136751
788.363	0.0135287
788.441	0.0135025
788.519	0.0135986
788.597	0.0136371
788.675	0.0135877
788.753	0.0135719
788.831	0.0137788
788.910	0.0136782
788.988	0.0135763
789.066	0.0135578
789.144	0.0134657
789.222	0.0135240
789.300	0.0135194
789.378	0.0135463
789.456	0.0134235
789.535	0.0135314
789.613	0.0135337
789.691	0.0136161
789.769	0.0135239
789.847	0.0136372
789.925	0.0136738
790.003	0.0136993
790.081	0.0137157
790.160	0.0137324
790.238	0.0137195
790.316	0.0136357
790.394	0.0136662
790.472	0.0138237
790.550	0.0138702
790.628	0.0137484
790.706	0.0138882
790.785	0.0140292
790.863	0.0137963
790.941	0.0139277
791.019	0.0138250
791.097	0.0138986
791.175	0.0138589
791.253	0.0140332
791.331	0.0140019
791.410	0.0138992
791.488	0.0139718
791.566	0.0139307
791.644	0.0137049
791.722	0.0137816
791.800	0.0138377
791.878	0.0138623
791.956	0.0137222
792.035	0.0136729
792.113	0.0138842
792.191	0.0137340
792.269	0.0137051
792.347	0.0136838
792.425	0.0136224
792.503	0.0135744
792.581	0.0136256
792.660	0.0135833
792.738	0.0134862
792.816	0.0137036
792.894	0.0135854
792.972	0.0136134
793.050	0.0136544
793.128	0.0135576
793.206	0.0136509
793.285	0.0136145
793.363	0.0134110
793.441	0.0135502
793.519	0.0135593
793.597	0.0137492
793.675	0.0134903
793.753	0.0135426
793.831	0.0136435
793.910	0.0135950
793.988	0.0135732
794.066	0.0135160
794.144	0.0134658
794.222	0.0135228
794.300	0.0136365
794.378	0.0135152
794.456	0.0133720
794.535	0.0135677
794.613	0.0135106
794.691	0.0136486
794.769	0.0136378
794.847	0.0136234
794.925	0.0136987
795.003	0.0136249
795.081	0.0136617
795.160	0.0136577
795.238	0.0135535
795.316	0.0134864
795.394	0.0136526
795.472	0.0136685
795.550	0.0135361
795.628	0.0136494
795.706	0.0136354
795.785	0.0135252
795.863	0.0135866
795.941	0.0136687
796.019	0.0136011
796.097	0.0135919
796.175	0.0135419
796.253	0.0137176
796.331	0.0135558
796.410	0.0134744
796.488	0.0136031
796.566	0.0134924
796.644	0.0135775
796.722	0.0135656
796.800	0.0135905
796.878	0.0135355
796.956	0.0134918
797.035	0.0136333
797.113	0.0136240
797.191	0.0134271
797.269	0.0136375
797.347	0.0134842
797.425	0.0134922
797.503	0.0136330
797.581	0.0135448
797.660	0.0136926
797.738	0.0137312
797.816	0.0136543
797.894	0.0136948
797.972	0.0137882
798.050	0.0137779
798.128	0.0137971
798.206	0.0139255
798.285	0.0136815
798.363	0.0138312
798.441	0.0138953
798.519	0.0138764
798.597	0.0138608
798.675	0.0138637
798.753	0.0137929
798.831	0.0137607
798.910	0.0138435
798.988	0.0139042
799.066	0.0136127
799.144	0.0136659
799.222	0.0136401
799.300	0.0135972
799.378	0.0137926
799.456	0.0137526
799.535	0.0135280
799.613	0.0134732
799.691	0.0136135
799.769	0.0134820
799.847	0.0135132
799.925	0.0135099
800.003	0.0134939
800.081	0.0135766
800.160	0.0135062
800.238	0.0134687
800.316	0.0134223
800.394	0.0133984
800.472	0.0135338
800.550	0.0134570
800.628	0.0134735
800.706	0.0134608
800.785	0.0136415
800.863	0.0135844
800.941	0.0135809
801.019	0.0135294
801.097	0.0135206
801.175	0.0135544
801.253	0.0134189
801.331	0.0134098
801.410	0.0134850
801.488	0.0134975
801.566	0.0135519
801.644	0.0135443
801.722	0.0133767
801.800	0.0134373
801.878	0.0134225
801.956	0.0134396
802.035	0.0135660
802.113	0.0135896
802.191	0.0135124
802.269	0.0134487
802.347	0.0135896
802.425	0.0135174
802.503	0.0135426
802.581	0.0135804
802.660	0.0134891
802.738	0.0136222
802.816	0.0136155
802.894	0.0135370
802.972	0.0135359
803.050	0.0137930
803.128	0.0136165
803.206	0.0135008
803.285	0.0136282
803.363	0.0135260
803.441	0.0136128
803.519	0.0135549
803.597	0.0135160
803.675	0.0134283
803.753	0.0134846
803.831	0.0135384
803.910	0.0135085
803.988	0.0133987
804.066	0.0134738
804.144	0.0135697
804.222	0.0135551
804.300	0.0135115
804.378	0.0135234
804.456	0.0135794
804.535	0.0135685
804.613	0.0134451
804.691	0.0136485
804.769	0.0137353
804.847	0.0136105
804.925	0.0135921
805.003	0.0136141
805.081	0.0137259
805.160	0.0137319
805.238	0.0138055
805.316	0.0138180
805.394	0.0136996
805.472	0.0137215
805.550	0.0137917
805.628	0.0137910
805.706	0.0136346
805.785	0.0137696
805.863	0.0139023
805.941	0.0138027
806.019	0.0137881
806.097	0.0137431
806.175	0.0137707
806.253	0.0138966
806.331	0.0137484
806.410	0.0136999
806.488	0.0136375
806.566	0.0137083
806.644	0.0136787
806.722	0.0134036
806.800	0.0135213
806.878	0.0136369
806.956	0.0137391
807.035	0.0135689
807.113	0.0135362
807.191	0.0135190
807.269	0.0135555
807.347	0.0135761
807.425	0.0135622
807.503	0.0135825
807.581	0.0136719
807.660	0.0135984
807.738	0.0135129
807.816	0.0135511
807.894	0.0134696
807.972	0.0134769
808.050	0.0134187
808.128	0.0134570
808.206	0.0134995
808.285	0.0134884
808.363	0.0134297
808.441	0.0135823
808.519	0.0136030
808.597	0.0135802
808.675	0.0137198
808.753	0.0135103
808.831	0.0134575
808.910	0.0135209
808.988	0.0135677
809.066	0.0134846
809.144	0.0134943
809.222	0.0136243
809.300	0.0136782
809.378	0.0135144
809.456	0.0135635
809.535	0.0135348
809.613	0.0135384
809.691	0.0135080
809.769	0.0134754
809.847	0.0135188
809.925	0.0135551
810.003	0.0135998
810.081	0.0136629
810.160	0.0136143
810.238	0.0135493
810.316	0.0135994
810.394	0.0135981
810.472	0.0134895
810.550	0.0136431
810.628	0.0134598
810.706	0.0133380
810.785	0.0135658
810.863	0.0134541
810.941	0.0134447
811.019	0.0134245
811.097	0.0135329
811.175	0.0134197
811.253	0.0134222
811.331	0.0135892
811.410	0.0135553
811.488	0.0135297
811.566	0.0135692
811.644	0.0136028
811.722	0.0135915
811.800	0.0135595
811.878	0.0137022
811.956	0.0137191
812.035	0.0136578
812.113	0.0137613
812.191	0.0137478
812.269	0.0137652
812.347	0.0137669
812.425	0.0138583
812.503	0.0136895
812.581	0.0138281
812.660	0.0137683
812.738	0.0137697
812.816	0.0138345
812.894	0.0137144
812.972	0.0138606
813.050	0.0139346
813.128	0.0138738
813.206	0.0137434
813.285	0.0137399
813.363	0.0137042
813.441	0.0137742
813.519	0.0138948
813.597	0.0137096
813.675	0.0136004
813.753	0.0136224
813.831	0.0135549
813.910	0.0135457
813.988	0.0135483
814.066	0.0136045
814.144	0.0136328
814.222	0.0135677
814.300	0.0134963
814.378	0.0134760
814.456	0.0135448
814.535	0.0134639
814.613	0.0135105
814.691	0.0135300
814.769	0.0135527
814.847	0.0136503
814.925	0.0135319
815.003	0.0135085
815.081	0.0133721
815.160	0.0132643
815.238	0.0136174
815.316	0.0135651
815.394	0.0134409
815.472	0.0135704
815.550	0.0136941
815.628	0.0136363
815.706	0.0134147
815.785	0.0136282
815.863	0.0137466
815.941	0.0136769
816.019	0.0135675
816.097	0.0136686
816.175	0.0137017
816.253	0.0136760
816.331	0.0136907
816.410	0.0137561
816.488	0.0136360
816.566	0.0136182
816.644	0.0137765
816.722	0.0137172
816.800	0.0137463
816.878	0.0138039
816.956	0.0136086
817.035	0.0137181
817.113	0.0138123
817.191	0.0136645
817.269	0.0137541
817.347	0.0137830
817.425	0.0138450
817.503	0.0136588
817.581	0.0137262
817.660	0.0136462
817.738	0.0136202
817.816	0.0137970
817.894	0.0136159
817.972	0.0137428
818.050	0.0137620
818.128	0.0136372
818.206	0.0136685
818.285	0.0135793
818.363	0.0136514
818.441	0.0135670
818.519	0.0137124
818.597	0.0135960
818.675	0.0137339
818.753	0.0136951
818.831	0.0137132
818.910	0.0137243
818.988	0.0137686
819.066	0.0137022
819.144	0.0137939
819.222	0.0136161
819.300	0.0136504
819.378	0.0138095
819.456	0.0136987
819.535	0.0137251
819.613	0.0137535
819.691	0.0137307
819.769	0.0137527
819.847	0.0137613
819.925	0.0137894
820.003	0.0137302
820.081	0.0136512
820.160	0.0139252
820.238	0.0137755
820.316	0.0137630
820.394	0.0137872
820.472	0.0136629
820.550	0.0137221
820.628	0.0136252
820.706	0.0137685
820.785	0.0138111
820.863	0.0136782
820.941	0.0136136
821.019	0.0135228
821.097	0.0136998
821.175	0.0135851
821.253	0.0135486
821.331	0.0135768
821.410	0.0135204
821.488	0.0134809
821.566	0.0135205
821.644	0.0134494
821.722	0.0135094
821.800	0.0134611
821.878	0.0134801
821.956	0.0135883
822.035	0.0133459
822.113	0.0134829
822.191	0.0135117
822.269	0.0134919
822.347	0.0133524
822.425	0.0133942
822.503	0.0134367
822.581	0.0135985
822.660	0.0136568
822.738	0.0135360
822.816	0.0134511
822.894	0.0136639
822.972	0.0136704
823.050	0.0136964
823.128	0.0134980
823.206	0.0135381
823.285	0.0135687
823.363	0.0136517
823.441	0.0136189
823.519	0.0135734
823.597	0.0136044
823.675	0.0135839
823.753	0.0135880
823.831	0.0134814
823.910	0.0134963
823.988	0.0133905
824.066	0.0134514
824.144	0.0135136
824.222	0.0133957
824.300	0.0135244
824.378	0.0134973
824.456	0.0134779
824.535	0.0134967
824.613	0.0135581
824.691	0.0136721
824.769	0.0134940
824.847	0.0135898
824.925	0.0135390
825.003	0.0136335
825.081	0.0135226
825.160	0.0134306
825.238	0.0134425
825.316	0.0134270
825.394	0.0136488
825.472	0.0135887
825.550	0.0134295
825.628	0.0134953
825.706	0.0136355
825.785	0.0136121
825.863	0.0133950
825.941	0.0135092
826.019	0.0134264
826.097	0.0136560
826.175	0.0135551
826.253	0.0134807
826.331	0.0136215
826.410	0.0136614
826.488	0.0137463
826.566	0.0138401
826.644	0.0135652
826.722	0.0137447
826.800	0.0137753
826.878	0.0137815
826.956	0.0137075
827.035	0.0137284
827.113	0.0139485
827.191	0.0138197
827.269	0.0138772
827.347	0.0138457
827.425	0.0138837
827.503	0.0138158
827.581	0.0138467
827.660	0.0138433
827.738	0.0137759
827.816	0.0136845
827.894	0.0137785
827.972	0.0137464
828.050	0.0137751
828.128	0.0137023
828.206	0.0137380
828.285	0.0136771
828.363	0.0135674
828.441	0.0136069
828.519	0.0138110
828.597	0.0137879
828.675	0.0135453
828.753	0.0138362
828.831	0.0136527
828.910	0.0134824
828.988	0.0135957
829.066	0.0136032
829.144	0.0135778
829.222	0.0136223
829.300	0.0135340
829.378	0.0134968
829.456	0.0136562
829.535	0.0135827
829.613	0.0135361
829.691	0.0135958
829.769	0.0134956
829.847	0.0135246
829.925	0.0136422
830.003	0.0135175
830.081	0.0135590
830.160	0.0135453
830.238	0.0136721
830.316	0.0135888
830.394	0.0135107
830.472	0.0134703
830.550	0.0135376
830.628	0.0135403
830.706	0.0134821
830.785	0.0136845
830.863	0.0135345
830.941	0.0135078
831.019	0.0134772
831.097	0.0135817
831.175	0.0136090
831.253	0.0136476
831.331	0.0136775
831.410	0.0136710
831.488	0.0136523
831.566	0.0135227
831.644	0.0137418
831.722	0.0136581
831.800	0.0136008
831.878	0.0136520
831.956	0.0136909
832.035	0.0136515
832.113	0.0136471
832.191	0.0138359
832.269	0.0137148
832.347	0.0136864
832.425	0.0136329
832.503	0.0135812
832.581	0.0135718
832.660	0.0135886
832.738	0.0135085
832.816	0.0135561
832.894	0.0136587
832.972	0.0135014
833.050	0.0136713
833.128	0.0136248
833.206	0.0137510
833.285	0.0136213
833.363	0.0136968
833.441	0.0135628
833.519	0.0136732
833.597	0.0136215
833.675	0.0137234
833.753	0.0136425
833.831	0.0136953
833.910	0.0137922
833.988	0.0136336
834.066	0.0135883
834.144	0.0138503
834.222	0.0137308
834.300	0.0138116
834.378	0.0138842
834.456	0.0137698
834.535	0.0138415
834.613	0.0138564
834.691	0.0138200
834.769	0.0138265
834.847	0.0138906
834.925	0.0138294
835.003	0.0138409
835.081	0.0136922
835.160	0.0136604
835.238	0.0137552
835.316	0.0137410
835.394	0.0135691
835.472	0.0136410
835.550	0.0136027
835.628	0.0136815
835.706	0.0135945
835.785	0.0135691
835.863	0.0136885
835.941	0.0136826
836.019	0.0135503
836.097	0.0137968
836.175	0.0136785
836.253	0.0136557
836.331	0.0137745
836.410	0.0137424
836.488	0.0134596
836.566	0.0134178
836.644	0.0135197
836.722	0.0135556
836.800	0.0135529
836.878	0.0134714
836.956	0.0136498
837.035	0.0135757
837.113	0.0135921
837.191	0.0134363
837.269	0.0135648
837.347	0.0134666
837.425	0.0135698
837.503	0.0136052
837.581	0.0136228
837.660	0.0134832
837.738	0.0136113
837.816	0.0136668
837.894	0.0135188
837.972	0.0136909
838.050	0.0135995
838.128	0.0135806
838.206	0.0136647
838.285	0.0137315
838.363	0.0137419
838.441	0.0137474
838.519	0.0137923
838.597	0.0137117
838.675	0.0135941
838.753	0.0135780
838.831	0.0137590
838.910	0.0136710
838.988	0.0137225
839.066	0.0136380
839.144	0.0136452
839.222	0.0136908
839.300	0.0137368
839.378	0.0136948
839.456	0.0136604
839.535	0.0136945
839.613	0.0135532
839.691	0.0136172
839.769	0.0135872
839.847	0.0136226
839.925	0.0134821
840.003	0.0137641
840.081	0.0137999
840.160	0.0136272
840.238	0.0134293
840.316	0.0136314
840.394	0.0135095
840.472	0.0135559
840.550	0.0135236
840.628	0.0136660
840.706	0.0135353
840.785	0.0135625
840.863	0.0135514
840.941	0.0136243
841.019	0.0136150
841.097	0.0135990
841.175	0.0135897
841.253	0.0135976
841.331	0.0136140
841.410	0.0137170
841.488	0.0138002
841.566	0.0137434
841.644	0.0137059
841.722	0.0138984
841.800	0.0137318
841.878	0.0136852
841.956	0.0138417
842.035	0.0136814
842.113	0.0137427
842.191	0.0137318
842.269	0.0136921
842.347	0.0137338
842.425	0.0137559
842.503	0.0135083
842.581	0.0136990
842.660	0.0136098
842.738	0.0135504
842.816	0.0136232
842.894	0.0135909
842.972	0.0137165
843.050	0.0135700
843.128	0.0135332
843.206	0.0135639
843.285	0.0136504
843.363	0.0136907
843.441	0.0135516
843.519	0.0135062
843.597	0.0136275
843.675	0.0135265
843.753	0.0137000
843.831	0.0136336
843.910	0.0135701
843.988	0.0135567
844.066	0.0135145
844.144	0.0136510
844.222	0.0136266
844.300	0.0135275
844.378	0.0135078
844.456	0.0135269
844.535	0.0134753
844.613	0.0135770
844.691	0.0135223
844.769	0.0135043
844.847	0.0136108
844.925	0.0136370
845.003	0.0135808
845.081	0.0136230
845.160	0.0135230
845.238	0.0135664
845.316	0.0136670
845.394	0.0136693
845.472	0.0135052
845.550	0.0135096
845.628	0.0135249
845.706	0.0135523
845.785	0.0135999
845.863	0.0136398
845.941	0.0137772
846.019	0.0136646
846.097	0.0135456
846.175	0.0135828
846.253	0.0135810
846.331	0.0136946
846.410	0.0135631
846.488	0.0136916
846.566	0.0134797
846.644	0.0135814
846.722	0.0135535
846.800	0.0135141
846.878	0.0134161
846.956	0.0133958
847.035	0.0134547
847.113	0.0134914
847.191	0.0135081
847.269	0.0133730
847.347	0.0135224
847.425	0.0134103
847.503	0.0134804
847.581	0.0134892
847.660	0.0134554
847.738	0.0134342
847.816	0.0135459
847.894	0.0135861
847.972	0.0135655
848.050	0.0136911
848.128	0.0136403
848.206	0.0136812
848.285	0.0136965
848.363	0.0136894
848.441	0.0136404
848.519	0.0137345
848.597	0.0137653
848.675	0.0138181
848.753	0.0137289
848.831	0.0138189
848.910	0.0138457
848.988	0.0138145
849.066	0.0138303
849.144	0.0139594
849.222	0.0137621
849.300	0.0138560
849.378	0.0138019
849.456	0.0137608
849.535	0.0137668
849.613	0.0138441
849.691	0.0136552
849.769	0.0137185
849.847	0.0136764
849.925	0.0136469
850.003	0.0136262
850.081	0.0136394
850.160	0.0137342
850.238	0.0135445
850.316	0.0135154
850.394	0.0137194
850.472	0.0136369
850.550	0.0134966
850.628	0.0134792
850.706	0.0136338
850.785	0.0138189
850.863	0.0136631
850.941	0.0135636
851.019	0.0136392
851.097	0.0136131
851.175	0.0133533
851.253	0.0135265
851.331	0.0136082
851.410	0.0134210
851.488	0.0135928
851.566	0.0135645
851.644	0.0135371
851.722	0.0136666
851.800	0.0134542
851.878	0.0134995
851.956	0.0134718
852.035	0.0134544
852.113	0.0136326
852.191	0.0135986
852.269	0.0135038
852.347	0.0135811
852.425	0.0136371
852.503	0.0135773
852.581	0.0135806
852.660	0.0136459
852.738	0.0136337
852.816	0.0138351
852.894	0.0135965
852.972	0.0136447
853.050	0.0135845
853.128	0.0136357
853.206	0.0136246
853.285	0.0136034
853.363	0.0138132
853.441	0.0137521
853.519	0.0135818
853.597	0.0137466
853.675	0.0137360
853.753	0.0135616
853.831	0.0136056
853.910	0.0135783
853.988	0.0135977
854.066	0.0136700
854.144	0.0136893
854.222	0.0137605
854.300	0.0136807
854.378	0.0135992
854.456	0.0137387
854.535	0.0136609
854.613	0.0138519
854.691	0.0137984
854.769	0.0138024
854.847	0.0136433
854.925	0.0137289
855.003	0.0136344
855.081	0.0137965
855.160	0.0138487
855.238	0.0137813
855.316	0.0138815
855.394	0.0136213
855.472	0.0138326
855.550	0.0139955
855.628	0.0138047
855.706	0.0139943
855.785	0.0138483
855.863	0.0139154
855.941	0.0140840
856.019	0.0139438
856.097	0.0139831
856.175	0.0140586
856.253	0.0140443
856.331	0.0139877
856.410	0.0138566
856.488	0.0138709
856.566	0.0138853
856.644	0.0138953
856.722	0.0138989
856.800	0.0139463
856.878	0.0139122
856.956	0.0138951
857.035	0.0136726
857.113	0.0138308
857.191	0.0137719
857.269	0.0137444
857.347	0.0137685
857.425	0.0138428
857.503	0.0137834
857.581	0.0138277
857.660	0.0137532
857.738	0.0138825
857.816	0.0137317
857.894	0.0136045
857.972	0.0137888
858.050	0.0137869
858.128	0.0137334
858.206	0.0136562
858.285	0.0136572
858.363	0.0137160
858.441	0.0136428
858.519	0.0136031
858.597	0.0136311
858.675	0.0135611
858.753	0.0135530
858.831	0.0137124
858.910	0.0137471
858.988	0.0135883
859.066	0.0134824
859.144	0.0135181
859.222	0.0136572
859.300	0.0136768
859.378	0.0136492
859.456	0.0136342
859.535	0.0136418
859.613	0.0136293
859.691	0.0136271
859.769	0.0135959
859.847	0.0135853
859.925	0.0137202
860.003	0.0136535
860.081	0.0136952
860.160	0.0137358
860.238	0.0135983
860.316	0.0136578
860.394	0.0137096
860.472	0.0137308
860.550	0.0136703
860.628	0.0136681
860.706	0.0136889
860.785	0.0136012
860.863	0.0135966
860.941	0.0135436
861.019	0.0135695
861.097	0.0136080
861.175	0.0136636
861.253	0.0136690
861.331	0.0135028
861.410	0.0135881
861.488	0.0135440
861.566	0.0136428
861.644	0.0136214
861.722	0.0135929
861.800	0.0135545
861.878	0.0137621
861.956	0.0138653
862.035	0.0136854
862.113	0.0136199
862.191	0.0135731
862.269	0.0136556
862.347	0.0137885
862.425	0.0137625
862.503	0.0136948
862.581	0.0138008
862.660	0.0138309
862.738	0.0139342
862.816	0.0138377
862.894	0.0137812
862.972	0.0138943
863.050	0.0137589
863.128	0.0137967
863.206	0.0139211
863.285	0.0139599
863.363	0.0139366
863.441	0.0138722
863.519	0.0139365
863.597	0.0138357
863.675	0.0139765
863.753	0.0140314
863.831	0.0138845
863.910	0.0138759
863.988	0.0137270
864.066	0.0137954
864.144	0.0137206
864.222	0.0137538
864.300	0.0137205
864.378	0.0136948
864.456	0.0137600
864.535	0.0138279
864.613	0.0136475
864.691	0.0136833
864.769	0.0137132
864.847	0.0137219
864.925	0.0137120
865.003	0.0136027
865.081	0.0137477
865.160	0.0135941
865.238	0.0136134
865.316	0.0136789
865.394	0.0137309
865.472	0.0136630
865.550	0.0136258
865.628	0.0137052
865.706	0.0136794
865.785	0.0136677
865.863	0.0136674
865.941	0.0136428
866.019	0.0135097
866.097	0.0136088
866.175	0.0134858
866.253	0.0134129
866.331	0.0136045
866.410	0.0135977
866.488	0.0135287
866.566	0.0135278
866.644	0.0134924
866.722	0.0135371
866.800	0.0135443
866.878	0.0135526
866.956	0.0134647
867.035	0.0134992
867.113	0.0134751
867.191	0.0133711
867.269	0.0134621
867.347	0.0134991
867.425	0.0135306
867.503	0.0135710
867.581	0.0136500
867.660	0.0134930
867.738	0.0136045
867.816	0.0135024
867.894	0.0135274
867.972	0.0135696
868.050	0.0135967
868.128	0.0137034
868.206	0.0136469
868.285	0.0135430
868.363	0.0134532
868.441	0.0134270
868.519	0.0134666
868.597	0.0134261
868.675	0.0135023
868.753	0.0136944
868.831	0.0136496
868.910	0.0135157
868.988	0.0135648
869.066	0.0135390
869.144	0.0136287
869.222	0.0137390
869.300	0.0134784
869.378	0.0135554
869.456	0.0135019
869.535	0.0135376
869.613	0.0134958
869.691	0.0137188
869.769	0.0136526
869.847	0.0136606
869.925	0.0136252
870.003	0.0136587
870.081	0.0137354
870.160	0.0136427
870.238	0.0137767
870.316	0.0136357
870.394	0.0137334
870.472	0.0137562
870.550	0.0138076
870.628	0.0136653
870.706	0.0137240
870.785	0.0137801
870.863	0.0138474
870.941	0.0138209
871.019	0.0136378
871.097	0.0137090
871.175	0.0138002
871.253	0.0136968
871.331	0.0134799
871.410	0.0135108
871.488	0.0136642
871.566	0.0137251
871.644	0.0136990
871.722	0.0136552
871.800	0.0136290
871.878	0.0136992
871.956	0.0136305
872.035	0.0134309
872.113	0.0135377
872.191	0.0137343
872.269	0.0135625
872.347	0.0134795
872.425	0.0135069
872.503	0.0136806
872.581	0.0135415
872.660	0.0136542
872.738	0.0134623
872.816	0.0134868
872.894	0.0134261
872.972	0.0136025
873.050	0.0136661
873.128	0.0134926
873.206	0.0136063
873.285	0.0134109
873.363	0.0134567
873.441	0.0135618
873.519	0.0136060
873.597	0.0135169
873.675	0.0134258
873.753	0.0134101
873.831	0.0134728
873.910	0.0134647
873.988	0.0134821
874.066	0.0134446
874.144	0.0133700
874.222	0.0134507
874.300	0.0134889
874.378	0.0135727
874.456	0.0135854
874.535	0.0133114
874.613	0.0133294
874.691	0.0135320
874.769	0.0135181
874.847	0.0135298
874.925	0.0135268
875.003	0.0135699
875.081	0.0135661
875.160	0.0135332
875.238	0.0134742
875.316	0.0135565
875.394	0.0134548
875.472	0.0135648
875.550	0.0135222
875.628	0.0136799
875.706	0.0135464
875.785	0.0136044
875.863	0.0135892
875.941	0.0135520
876.019	0.0136195
876.097	0.0135420
876.175	0.0134297
876.253	0.0135407
876.331	0.0135788
876.410	0.0134499
876.488	0.0134488
876.566	0.0135983
876.644	0.0135934
876.722	0.0136201
876.800	0.0134650
876.878	0.0134431
876.956	0.0137285
877.035	0.0135350
877.113	0.0136700
877.191	0.0135712
877.269	0.0136337
877.347	0.0138311
877.425	0.0136012
877.503	0.0137590
877.581	0.0138733
877.660	0.0137437
877.738	0.0137304
877.816	0.0137977
877.894	0.0137925
877.972	0.0138324
878.050	0.0138913
878.128	0.0139566
878.206	0.0138838
878.285	0.0138495
878.363	0.0138300
878.441	0.0138192
878.519	0.0138466
878.597	0.0138023
878.675	0.0137292
878.753	0.0138460
878.831	0.0139223
878.910	0.0137841
878.988	0.0136808
879.066	0.0138567
879.144	0.0138403
879.222	0.0137848
879.300	0.0138567
879.378	0.0138126
879.456	0.0137210
879.535	0.0138384
879.613	0.0137926
879.691	0.0136977
879.769	0.0138245
879.847	0.0137896
879.925	0.0137104
880.003	0.0137817
880.081	0.0137856
880.160	0.0137282
880.238	0.0137756
880.316	0.0137478
880.394	0.0136280
880.472	0.0136299
880.550	0.0137217
880.628	0.0138158
880.706	0.0136629
880.785	0.0136149
880.863	0.0135168
880.941	0.0136490
881.019	0.0136073
881.097	0.0135964
881.175	0.0136504
881.253	0.0137830
881.331	0.0136993
881.410	0.0136175
881.488	0.0136729
881.566	0.0135883
881.644	0.0137987
881.722	0.0136681
881.800	0.0136787
881.878	0.0136462
881.956	0.0135552
882.035	0.0135448
882.113	0.0135264
882.191	0.0136190
882.269	0.0135181
882.347	0.0135352
882.425	0.0135483
882.503	0.0136604
882.581	0.0135257
882.660	0.0135778
882.738	0.0135856
882.816	0.0135736
882.894	0.0136273
882.972	0.0133820
883.050	0.0135146
883.128	0.0135007
883.206	0.0134267
883.285	0.0134010
883.363	0.0135206
883.441	0.0135482
883.519	0.0135076
883.597	0.0134556
883.675	0.0135308
883.753	0.0134853
883.831	0.0135294
883.910	0.0134310
883.988	0.0135471
884.066	0.0136138
884.144	0.0135623
884.222	0.0136963
884.300	0.0136566
884.378	0.0135340
884.456	0.0137356
884.535	0.0137037
884.613	0.0137488
884.691	0.0137828
884.769	0.0136649
884.847	0.0138186
884.925	0.0137387
885.003	0.0136562
885.081	0.0137528
885.160	0.0138915
885.238	0.0138572
885.316	0.0138121
885.394	0.0139091
885.472	0.0138846
885.550	0.0137565
885.628	0.0137207
885.706	0.0138683
885.785	0.0138459
885.863	0.0136545
885.941	0.0136375
886.019	0.0138233
886.097	0.0137056
886.175	0.0137479
886.253	0.0136929
886.331	0.0138016
886.410	0.0136644
886.488	0.0134631
886.566	0.0135178
886.644	0.0136105
886.722	0.0136185
886.800	0.0134855
886.878	0.0136832
886.956	0.0135724
887.035	0.0135026
887.113	0.0135885
887.191	0.0136850
887.269	0.0135256
887.347	0.0135094
887.425	0.0137045
887.503	0.0136388
887.581	0.0137199
887.660	0.0136146
887.738	0.0136192
887.816	0.0135332
887.894	0.0135574
887.972	0.0135853
888.050	0.0134451
888.128	0.0135105
888.206	0.0134299
888.285	0.0135352
888.363	0.0134584
888.441	0.0135694
888.519	0.0133584
888.597	0.0134330
888.675	0.0135117
888.753	0.0134460
888.831	0.0134502
888.910	0.0135500
888.988	0.0135162
889.066	0.0135434
889.144	0.0135077
889.222	0.0135645
889.300	0.0134145
889.378	0.0134301
889.456	0.0135392
889.535	0.0135045
889.613	0.0137156
889.691	0.0134609
889.769	0.0135345
889.847	0.0134750
889.925	0.0135026
890.003	0.0136727
890.081	0.0135856
890.160	0.0136628
890.238	0.0134581
890.316	0.0134219
890.394	0.0135907
890.472	0.0135352
890.550	0.0134966
890.628	0.0136189
890.706	0.0135510
890.785	0.0133801
890.863	0.0134136
890.941	0.0137962
891.019	0.0135757
891.097	0.0134978
891.175	0.0135245
891.253	0.0136939
891.331	0.0136390
891.410	0.0138219
891.488	0.0137202
891.566	0.0136363
891.644	0.0136902
891.722	0.0137570
891.800	0.0138392
891.878	0.0137408
891.956	0.0137760
892.035	0.0139316
892.113	0.0140015
892.191	0.0137198
892.269	0.0137977
892.347	0.0138499
892.425	0.0138862
892.503	0.0138812
892.581	0.0139322
892.660	0.0139541
892.738	0.0137878
892.816	0.0138393
892.894	0.0138293
892.972	0.0137407
893.050	0.0138416
893.128	0.0139358
893.206	0.0137949
893.285	0.0135973
893.363	0.0136697
893.441	0.0137117
893.519	0.0135607
893.597	0.0135134
893.675	0.0136920
893.753	0.0137161
893.831	0.0135570
893.910	0.0134650
893.988	0.0135768
894.066	0.0136760
894.144	0.0135824
894.222	0.0134504
894.300	0.0135472
894.378	0.0135023
894.456	0.0136133
894.535	0.0136172
894.613	0.0134664
894.691	0.0134526
894.769	0.0135401
894.847	0.0134159
894.925	0.0135968
895.003	0.0135202
895.081	0.0135193
895.160	0.0136924
895.238	0.0135485
895.316	0.0135388
895.394	0.0135798
895.472	0.0134157
895.550	0.0135016
895.628	0.0135492
895.706	0.0135886
895.785	0.0136131
895.863	0.0136650
895.941	0.0135549
896.019	0.0136488
896.097	0.0135636
896.175	0.0136846
896.253	0.0135574
896.331	0.0135104
896.410	0.0136983
896.488	0.0136920
896.566	0.0137291
896.644	0.0137544
896.722	0.0136267
896.800	0.0136810
896.878	0.0137847
896.956	0.0136867
897.035	0.0136118
897.113	0.0135941
897.191	0.0137985
897.269	0.0137209
897.347	0.0136346
897.425	0.0138575
897.503	0.0136427
897.581	0.0137499
897.660	0.0136141
897.738	0.0134825
897.816	0.0136155
897.894	0.0136522
897.972	0.0137448
898.050	0.0136811
898.128	0.0136571
898.206	0.0135889
898.285	0.0137315
898.363	0.0136789
898.441	0.0137289
898.519	0.0137144
898.597	0.0136813
898.675	0.0135897
898.753	0.0137920
898.831	0.0137751
898.910	0.0137895
898.988	0.0137289
899.066	0.0138862
899.144	0.0138624
899.222	0.0137976
899.300	0.0137387
899.378	0.0138537
899.456	0.0137486
899.535	0.0138947
899.613	0.0138492
899.691	0.0138015
899.769	0.0137309
899.847	0.0138349
899.925	0.0137140
900.003	0.0137057
900.081	0.0137807
900.160	0.0137671
900.238	0.0138342
900.316	0.0135922
900.394	0.0135967
900.472	0.0136099
900.550	0.0135863
900.628	0.0133172
900.706	0.0134677
900.785	0.0134455
900.863	0.0134498
900.941	0.0133885
901.019	0.0133898
901.097	0.0134570
901.175	0.0134461
901.253	0.0135019
901.331	0.0135222
901.410	0.0135519
901.488	0.0134213
901.566	0.0134501
901.644	0.0134885
901.722	0.0134482
901.800	0.0135409
901.878	0.0135716
901.956	0.0134969
902.035	0.0134853
902.113	0.0133999
902.191	0.0136118
902.269	0.0135357
902.347	0.0135038
902.425	0.0134948
902.503	0.0134008
902.581	0.0134567
902.660	0.0135201
902.738	0.0135370
902.816	0.0134389
902.894	0.0134238
902.972	0.0135503
903.050	0.0134727
903.128	0.0135221
903.206	0.0135733
903.285	0.0134589
903.363	0.0134536
903.441	0.0135518
903.519	0.0136249
903.597	0.0135426
903.675	0.0135689
903.753	0.0137215
903.831	0.0134876
903.910	0.0133881
903.988	0.0134673
904.066	0.0135677
904.144	0.0135001
904.222	0.0135258
904.300	0.0133723
904.378	0.0134581
904.456	0.0135181
904.535	0.0134909
904.613	0.0136599
904.691	0.0134998
904.769	0.0134370
904.847	0.0135492
904.925	0.0134780
905.003	0.0133952
905.081	0.0135114
905.160	0.0134906
905.238	0.0134898
905.316	0.0135015
905.394	0.0134097
905.472	0.0136401
905.550	0.0135732
905.628	0.0132855
905.706	0.0135000
905.785	0.0136491
905.863	0.0137417
905.941	0.0135086
906.019	0.0134487
906.097	0.0136308
906.175	0.0136714
906.253	0.0137064
906.331	0.0137796
906.410	0.0137859
906.488	0.0137031
906.566	0.0138324
906.644	0.0137879
906.722	0.0138747
906.800	0.0138371
906.878	0.0136776
906.956	0.0138528
907.035	0.0138895
907.113	0.0139468
907.191	0.0138683
907.269	0.0137337
907.347	0.0138413
907.425	0.0136677
907.503	0.0137231
907.581	0.0138495
907.660	0.0138663
907.738	0.0137482
907.816	0.0137001
907.894	0.0137145
907.972	0.0135982
908.050	0.0135734
908.128	0.0136596
908.206	0.0136937
908.285	0.0136198
908.363	0.0136133
908.441	0.0134864
908.519	0.0135723
908.597	0.0135812
908.675	0.0134625
908.753	0.0136270
908.831	0.0136905
908.910	0.0136897
908.988	0.0136234
909.066	0.0135052
909.144	0.0136157
909.222	0.0135674
909.300	0.0134803
909.378	0.0136429
909.456	0.0135973
909.535	0.0134698
909.613	0.0135355
909.691	0.0135004
909.769	0.0135860
909.847	0.0135976
909.925	0.0134811
910.003	0.0135740
910.081	0.0136028
910.160	0.0135950
910.238	0.0134448
910.316	0.0135297
910.394	0.0135784
910.472	0.0135365
910.550	0.0136171
910.628	0.0136643
910.706	0.0136094
910.785	0.0136109
910.863	0.0136526
910.941	0.0136925
911.019	0.0135758
911.097	0.0137121
911.175	0.0136243
911.253	0.0137919
911.331	0.0138154
911.410	0.0136711
911.488	0.0136665
911.566	0.0136298
911.644	0.0137528
911.722	0.0137134
911.800	0.0138336
911.878	0.0137033
911.956	0.0137463
912.035	0.0138143
912.113	0.0137682
912.191	0.0136510
912.269	0.0136922
912.347	0.0138397
912.425	0.0137082
912.503	0.0136330
912.581	0.0136144
912.660	0.0137169
912.738	0.0138834
912.816	0.0137727
912.894	0.0137872
912.972	0.0137554
913.050	0.0138505
913.128	0.0137689
913.206	0.0137210
913.285	0.0137500
913.363	0.0137588
913.441	0.0138015
913.519	0.0138052
913.597	0.0137263
913.675	0.0139386
913.753	0.0138615
913.831	0.0137722
913.910	0.0137408
913.988	0.0139146
914.066	0.0138256
914.144	0.0137917
914.222	0.0138779
914.300	0.0138070
914.378	0.0138242
914.456	0.0139196
914.535	0.0137728
914.613	0.0138828
914.691	0.0137611
914.769	0.0136426
914.847	0.0135749
914.925	0.0136603
915.003	0.0136067
915.081	0.0135715
915.160	0.0135548
915.238	0.0135751
915.316	0.0136280
915.394	0.0135346
915.472	0.0135159
915.550	0.0135609
915.628	0.0134758
915.706	0.0135438
915.785	0.0135921
915.863	0.0135622
915.941	0.0135004
916.019	0.0133936
916.097	0.0134971
916.175	0.0134899
916.253	0.0134231
916.331	0.0136068
916.410	0.0134912
916.488	0.0137250
916.566	0.0135907
916.644	0.0135486
916.722	0.0135255
916.800	0.0135790
916.878	0.0135632
916.956	0.0137415
917.035	0.0136538
917.113	0.0135782
917.191	0.0134711
917.269	0.0135925
917.347	0.0134616
917.425	0.0134686
917.503	0.0135849
917.581	0.0136735
917.660	0.0136931
917.738	0.0136107
917.816	0.0136048
917.894	0.0135394
917.972	0.0136270
918.050	0.0135812
918.128	0.0136314
918.206	0.0137350
918.285	0.0135567
918.363	0.0134751
918.441	0.0135706
918.519	0.0135434
918.597	0.0135779
918.675	0.0135212
918.753	0.0135889
918.831	0.0135672
918.910	0.0135599
918.988	0.0135086
919.066	0.0135549
919.144	0.0136422
919.222	0.0134838
919.300	0.0135056
919.378	0.0135369
919.456	0.0134979
919.535	0.0135123
919.613	0.0135881
919.691	0.0134003
919.769	0.0133787
919.847	0.0134681
919.925	0.0133620
920.003	0.0134127
920.081	0.0134950
920.160	0.0135518
920.238	0.0133918
920.316	0.0133702
920.394	0.0134150
920.472	0.0134133
920.550	0.0135300
920.628	0.0136305
920.706	0.0134145
920.785	0.0136142
920.863	0.0135124
920.941	0.0136937
921.019	0.0137692
921.097	0.0135863
921.175	0.0137115
921.253	0.0137277
921.331	0.0136779
921.410	0.0138668
921.488	0.0138969
921.566	0.0137411
921.644	0.0138057
921.722	0.0138035
921.800	0.0138340
921.878	0.0138388
921.956	0.0138465
922.035	0.0138175
922.113	0.0138519
922.191	0.0137971
922.269	0.0138091
922.347	0.0137415
922.425	0.0137157
922.503	0.0138046
922.581	0.0137244
922.660	0.0137669
922.738	0.0139374
922.816	0.0137637
922.894	0.0136356
922.972	0.0137268
923.050	0.0136384
923.128	0.0138544
923.206	0.0137928
923.285	0.0136754
923.363	0.0136699
923.441	0.0138341
923.519	0.0138942
923.597	0.0136930
923.675	0.0136600
923.753	0.0137222
923.831	0.0137467
923.910	0.0134862
923.988	0.0135756
924.066	0.0134999
924.144	0.0136464
924.222	0.0136727
924.300	0.0136639
924.378	0.0134280
924.456	0.0134959
924.535	0.0135766
924.613	0.0134308
924.691	0.0135291
924.769	0.0135322
924.847	0.0135530
924.925	0.0134177
925.003	0.0134356
925.081	0.0134319
925.160	0.0134848
925.238	0.0135165
925.316	0.0134514
925.394	0.0135143
925.472	0.0134673
925.550	0.0135184
925.628	0.0135088
925.706	0.0135295
925.785	0.0135786
925.863	0.0134393
925.941	0.0134829
926.019	0.0133577
926.097	0.0132958
926.175	0.0134393
926.253	0.0135014
926.331	0.0135474
926.410	0.0135641
926.488	0.0134927
926.566	0.0134361
926.644	0.0134657
926.722	0.0135045
926.800	0.0135513
926.878	0.0135962
926.956	0.0136493
927.035	0.0135909
927.113	0.0135715
927.191	0.0134592
927.269	0.0135909
927.347	0.0135883
927.425	0.0134212
927.503	0.0136048
927.581	0.0135616
927.660	0.0137101
927.738	0.0134878
927.816	0.0135808
927.894	0.0136053
927.972	0.0135897
928.050	0.0137534
928.128	0.0137064
928.206	0.0136636
928.285	0.0138715
928.363	0.0137601
928.441	0.0136228
928.519	0.0137881
928.597	0.0139136
928.675	0.0138642
928.753	0.0137902
928.831	0.0139037
928.910	0.0138763
928.988	0.0139307
929.066	0.0138320
929.144	0.0138083
929.222	0.0139219
929.300	0.0139657
929.378	0.0138673
929.456	0.0137570
929.535	0.0138680
929.613	0.0139047
929.691	0.0137924
929.769	0.0138013
929.847	0.0138897
929.925	0.0136541
930.003	0.0137821
930.081	0.0137164
930.160	0.0136110
930.238	0.0137868
930.316	0.0137324
930.394	0.0137515
930.472	0.0135696
930.550	0.0137550
930.628	0.0137056
930.706	0.0137469
930.785	0.0136993
930.863	0.0135802
930.941	0.0136201
931.019	0.0136498
931.097	0.0136319
931.175	0.0136623
931.253	0.0136610
931.331	0.0136273
931.410	0.0137669
931.488	0.0136826
931.566	0.0136771
931.644	0.0134798
931.722	0.0136478
931.800	0.0136156
931.878	0.0135812
931.956	0.0135821
932.035	0.0135715
932.113	0.0135728
932.191	0.0136881
932.269	0.0134699
932.347	0.0136260
932.425	0.0137054
932.503	0.0135647
932.581	0.0136596
932.660	0.0135855
932.738	0.0136562
932.816	0.0135728
932.894	0.0135837
932.972	0.0135825
933.050	0.0136354
933.128	0.0135169
933.206	0.0135886
933.285	0.0136819
933.363	0.0135471
933.441	0.0135938
933.519	0.0135410
933.597	0.0135947
933.675	0.0136784
933.753	0.0136928
933.831	0.0137801
933.910	0.0136803
933.988	0.0136104
934.066	0.0135999
934.144	0.0135838
934.222	0.0136401
934.300	0.0136886
934.378	0.0137844
934.456	0.0136729
934.535	0.0136833
934.613	0.0136419
934.691	0.0136064
934.769	0.0134572
934.847	0.0136282
934.925	0.0136914
935.003	0.0135262
935.081	0.0135990
935.160	0.0137490
935.238	0.0135466
935.316	0.0135713
935.394	0.0137923
935.472	0.0136311
935.550	0.0136854
935.628	0.0136021
935.706	0.0136560
935.785	0.0137878
935.863	0.0136984
935.941	0.0137212
936.019	0.0138422
936.097	0.0137160
936.175	0.0137981
936.253	0.0137870
936.331	0.0136856
936.410	0.0137965
936.488	0.0137395
936.566	0.0135212
936.644	0.0137671
936.722	0.0136470
936.800	0.0136661
936.878	0.0136049
936.956	0.0138113
937.035	0.0136186
937.113	0.0136389
937.191	0.0136839
937.269	0.0135890
937.347	0.0135424
937.425	0.0135886
937.503	0.0134939
937.581	0.0136020
937.660	0.0135303
937.738	0.0134833
937.816	0.0135564
937.894	0.0134999
937.972	0.0135553
938.050	0.0136353
938.128	0.0136547
938.206	0.0136539
938.285	0.0136732
938.363	0.0135954
938.441	0.0135345
938.519	0.0135545
938.597	0.0135957
938.675	0.0136115
938.753	0.0137223
938.831	0.0136395
938.910	0.0135065
938.988	0.0136729
939.066	0.0136800
939.144	0.0137180
939.222	0.0136491
939.300	0.0135004
939.378	0.0136810
939.456	0.0136153
939.535	0.0136201
939.613	0.0137021
939.691	0.0135571
939.769	0.0136793
939.847	0.0136209
939.925	0.0136953
940.003	0.0136987
940.081	0.0137673
940.160	0.0138485
940.238	0.0137906
940.316	0.0138812
940.394	0.0136974
940.472	0.0134386
940.550	0.0137057
940.628	0.0138698
940.706	0.0138291
940.785	0.0136440
940.863	0.0138091
940.941	0.0137114
941.019	0.0137340
941.097	0.0138551
941.175	0.0136899
941.253	0.0137415
941.331	0.0138249
941.410	0.0138408
941.488	0.0137465
941.566	0.0137286
941.644	0.0136368
941.722	0.0137901
941.800	0.0137848
941.878	0.0136666
941.956	0.0135924
942.035	0.0136894
942.113	0.0137373
942.191	0.0137190
942.269	0.0136470
942.347	0.0136454
942.425	0.0136353
942.503	0.0135753
942.581	0.0136359
942.660	0.0137993
942.738	0.0137302
942.816	0.0136391
942.894	0.0137266
942.972	0.0137981
943.050	0.0137534
943.128	0.0137601
943.206	0.0136263
943.285	0.0138556
943.363	0.0137786
943.441	0.0137327
943.519	0.0135840
943.597	0.0137834
943.675	0.0136457
943.753	0.0137335
943.831	0.0136087
943.910	0.0136735
943.988	0.0137429
944.066	0.0136343
944.144	0.0136703
944.222	0.0136741
944.300	0.0136336
944.378	0.0135983
944.456	0.0134641
944.535	0.0135964
944.613	0.0135967
944.691	0.0134792
944.769	0.0134443
944.847	0.0135285
944.925	0.0137648
945.003	0.0136143
945.081	0.0135880
945.160	0.0135497
945.238	0.0136713
945.316	0.0137270
945.394	0.0136099
945.472	0.0136124
945.550	0.0135452
945.628	0.0136137
945.706	0.0136755
945.785	0.0134444
945.863	0.0136247
945.941	0.0136984
946.019	0.0135460
946.097	0.0136283
946.175	0.0135437
946.253	0.0136395
946.331	0.0135477
946.410	0.0135299
946.488	0.0134568
946.566	0.0135548
946.644	0.0136108
946.722	0.0134896
946.800	0.0136751
946.878	0.0135816
946.956	0.0135667
947.035	0.0135996
947.113	0.0135249
947.191	0.0136526
947.269	0.0137177
947.347	0.0137051
947.425	0.0135855
947.503	0.0135451
947.581	0.0135606
947.660	0.0134834
947.738	0.0135596
947.816	0.0135342
947.894	0.0134490
947.972	0.0135223
948.050	0.0136124
948.128	0.0136248
948.206	0.0135861
948.285	0.0135033
948.363	0.0135004
948.441	0.0136411
948.519	0.0135622
948.597	0.0136174
948.675	0.0135706
948.753	0.0135007
948.831	0.0135156
948.910	0.0135280
948.988	0.0134049
949.066	0.0134420
949.144	0.0134262
949.222	0.0135117
949.300	0.0134978
949.378	0.0134229
949.456	0.0134742
949.535	0.0134032
949.613	0.0135080
949.691	0.0134223
949.769	0.0133875
949.847	0.0135309
949.925	0.0135853
950.003	0.0134386
950.081	0.0135313
950.160	0.0134470
950.238	0.0135619
950.316	0.0136835
950.394	0.0136279
950.472	0.0135431
950.550	0.0135648
950.628	0.0136701
950.706	0.0136219
950.785	0.0137752
950.863	0.0137435
950.941	0.0137112
951.019	0.0136459
951.097	0.0136581
951.175	0.0138364
951.253	0.0135094
951.331	0.0137379
951.410	0.0137916
951.488	0.0138362
951.566	0.0136868
951.644	0.0136085
951.722	0.0136819
951.800	0.0137683
951.878	0.0136973
951.956	0.0136435
952.035	0.0136729
952.113	0.0136478
952.191	0.0137020
952.269	0.0137354
952.347	0.0137230
952.425	0.0136896
952.503	0.0135093
952.581	0.0136743
952.660	0.0135976
952.738	0.0136182
952.816	0.0137580
952.894	0.0136696
952.972	0.0137373
953.050	0.0135782
953.128	0.0136275
953.206	0.0135965
953.285	0.0136761
953.363	0.0137443
953.441	0.0136980
953.519	0.0137250
953.597	0.0136359
953.675	0.0136057
953.753	0.0135683
953.831	0.0135790
953.910	0.0137005
953.988	0.0134650
954.066	0.0136068
954.144	0.0136022
954.222	0.0135323
954.300	0.0135775
954.378	0.0135376
954.456	0.0135402
954.535	0.0135432
954.613	0.0135236
954.691	0.0134955
954.769	0.0135892
954.847	0.0134630
954.925	0.0136842
955.003	0.0135838
955.081	0.0136980
955.160	0.0135366
955.238	0.0135473
955.316	0.0135686
955.394	0.0135307
955.472	0.0135276
955.550	0.0135622
955.628	0.0136341
955.706	0.0136312
955.785	0.0135245
955.863	0.0134483
955.941	0.0135457
956.019	0.0135194
956.097	0.0136522
956.175	0.0135788
956.253	0.0134856
956.331	0.0136074
956.410	0.0134845
956.488	0.0136117
956.566	0.0135358
956.644	0.0136052
956.722	0.0134490
956.800	0.0134951
956.878	0.0136339
956.956	0.0134959
957.035	0.0135001
957.113	0.0136623
957.191	0.0136060
957.269	0.0137298
957.347	0.0137284
957.425	0.0136246
957.503	0.0135857
957.581	0.0136970
957.660	0.0136864
957.738	0.0136021
957.816	0.0138886
957.894	0.0137361
957.972	0.0135895
958.050	0.0137147
958.128	0.0138933
958.206	0.0138444
958.285	0.0137242
958.363	0.0138627
958.441	0.0138375
958.519	0.0137222
958.597	0.0139030
958.675	0.0138135
958.753	0.0139484
958.831	0.0138820
958.910	0.0138500
958.988	0.0137240
959.066	0.0137054
959.144	0.0138290
959.222	0.0138145
959.300	0.0137200
959.378	0.0138086
959.456	0.0137184
959.535	0.0138613
959.613	0.0138877
959.691	0.0135767
959.769	0.0136964
959.847	0.0138172
959.925	0.0137684
960.003	0.0137194
960.081	0.0136753
960.160	0.0136246
960.238	0.0137832
960.316	0.0136857
960.394	0.0135898
960.472	0.0136069
960.550	0.0135692
960.628	0.0136898
960.706	0.0136671
960.785	0.0135648
960.863	0.0134825
960.941	0.0134705
961.019	0.0134867
961.097	0.0133801
961.175	0.0133573
961.253	0.0133697
961.331	0.0134884
961.410	0.0134514
961.488	0.0135536
961.566	0.0134135
961.644	0.0134240
961.722	0.0132986
961.800	0.0135083
961.878	0.0134361
961.956	0.0134844
962.035	0.0133415
962.113	0.0132726
962.191	0.0134619
962.269	0.0135075
962.347	0.0135708
962.425	0.0135330
962.503	0.0132471
962.581	0.0134709
962.660	0.0135044
962.738	0.0135368
962.816	0.0134050
962.894	0.0133997
962.972	0.0134503
963.050	0.0134670
963.128	0.0135545
963.206	0.0135423
963.285	0.0134100
963.363	0.0134529
963.441	0.0134998
963.519	0.0135651
963.597	0.0136219
963.675	0.0135664
963.753	0.0134916
963.831	0.0134280
963.910	0.0134230
963.988	0.0135854
964.066	0.0136151
964.144	0.0133839
964.222	0.0135394
964.300	0.0135382
964.378	0.0135157
964.456	0.0135184
964.535	0.0137236
964.613	0.0135944
964.691	0.0135825
964.769	0.0136022
964.847	0.0136729
964.925	0.0135809
965.003	0.0135917
965.081	0.0138322
965.160	0.0137701
965.238	0.0137435
965.316	0.0137856
965.394	0.0137495
965.472	0.0138673
965.550	0.0137907
965.628	0.0138092
965.706	0.0136960
965.785	0.0138579
965.863	0.0138620
965.941	0.0138860
966.019	0.0138594
966.097	0.0139022
966.175	0.0137239
966.253	0.0138440
966.331	0.0138827
966.410	0.0137680
966.488	0.0137716
966.566	0.0137943
966.644	0.0138046
966.722	0.0138013
966.800	0.0136205
966.878	0.0136503
966.956	0.0136489
967.035	0.0136883
967.113	0.0136191
967.191	0.0135838
967.269	0.0136086
967.347	0.0135878
967.425	0.0136760
967.503	0.0134965
967.581	0.0135511
967.660	0.0135295
967.738	0.0134300
967.816	0.0135042
967.894	0.0137243
967.972	0.0135839
968.050	0.0135637
968.128	0.0135720
968.206	0.0135755
968.285	0.0136745
968.363	0.0135370
968.441	0.0135724
968.519	0.0134741
968.597	0.0134955
968.675	0.0134951
968.753	0.0135130
968.831	0.0135242
968.910	0.0135392
968.988	0.0135415
969.066	0.0135192
969.144	0.0135856
969.222	0.0136703
969.300	0.0135703
969.378	0.0136637
969.456	0.0135993
969.535	0.0135910
969.613	0.0136810
969.691	0.0135687
969.769	0.0137599
969.847	0.0136510
969.925	0.0136848
970.003	0.0138162
970.081	0.0137427
970.160	0.0137743
970.238	0.0137318
970.316	0.0137673
970.394	0.0137103
970.472	0.0137109
970.550	0.0137992
970.628	0.0136689
970.706	0.0136713
970.785	0.0137502
970.863	0.0137434
970.941	0.0137852
971.019	0.0136337
971.097	0.0136888
971.175	0.0135878
971.253	0.0135835
971.331	0.0137196
971.410	0.0137551
971.488	0.0135091
971.566	0.0136249
971.644	0.0137619
971.722	0.0135387
971.800	0.0134868
971.878	0.0136726
971.956	0.0136677
972.035	0.0135635
972.113	0.0136803
972.191	0.0136636
972.269	0.0137445
972.347	0.0137222
972.425	0.0137756
972.503	0.0136696
972.581	0.0137825
972.660	0.0137640
972.738	0.0137614
972.816	0.0138585
972.894	0.0137606
972.972	0.0137789
973.050	0.0138868
973.128	0.0139466
973.206	0.0138046
973.285	0.0138559
973.363	0.0137186
973.441	0.0136826
973.519	0.0135661
973.597	0.0137830
973.675	0.0136398
973.753	0.0136763
973.831	0.0137914
973.910	0.0136077
973.988	0.0136078
974.066	0.0136230
974.144	0.0136262
974.222	0.0135559
974.300	0.0136218
974.378	0.0135283
974.456	0.0135653
974.535	0.0136359
974.613	0.0135596
974.691	0.0134959
974.769	0.0136290
974.847	0.0136259
974.925	0.0136133
975.003	0.0137074
975.081	0.0136736
975.160	0.0136935
975.238	0.0136278
975.316	0.0137183
975.394	0.0136263
975.472	0.0137330
975.550	0.0137339
975.628	0.0136523
975.706	0.0137170
975.785	0.0135726
975.863	0.0136546
975.941	0.0135358
976.019	0.0134560
976.097	0.0135687
976.175	0.0135490
976.253	0.0136344
976.331	0.0135538
976.410	0.0136320
976.488	0.0136295
976.566	0.0137006
976.644	0.0136871
976.722	0.0136723
976.800	0.0136740
976.878	0.0136432
976.956	0.0136205
977.035	0.0136302
977.113	0.0136942
977.191	0.0136659
977.269	0.0137374
977.347	0.0136876
977.425	0.0136166
977.503	0.0136372
977.581	0.0137048
977.660	0.0136929
977.738	0.0136172
977.816	0.0135823
977.894	0.0137135
977.972	0.0136758
978.050	0.0135812
978.128	0.0137283
978.206	0.0136628
978.285	0.0136111
978.363	0.0135903
978.441	0.0136287
978.519	0.0136578
978.597	0.0135171
978.675	0.0135059
978.753	0.0135736
978.831	0.0135205
978.910	0.0136288
978.988	0.0135933
979.066	0.0135271
979.144	0.0133975
979.222	0.0135931
979.300	0.0136823
979.378	0.0137131
979.456	0.0135420
979.535	0.0135767
979.613	0.0135955
979.691	0.0134893
979.769	0.0136123
979.847	0.0136020
979.925	0.0137653
