06/03/2022	18:29:54	Ver.	4.1	UNKNOWN
Optical Delay	599.995081	Delta X		0.078125	Sweeps	1	Scan Rate	0/0
Coordinates	Axis 1	NaN	Axis 2	NaN	Axis 3	NaN	Axis 4	NaN	Axis 5	NaN	Axis 6	0.000000
TX Power	0.000000	RX Power	0.000000

599.995	0.0180193
600.073	0.0181567
600.151	0.0181053
600.229	0.0180956
600.308	0.0181668
600.386	0.0182767
600.464	0.0182582
600.542	0.0181194
600.620	0.0182043
600.698	0.0181202
600.776	0.0181116
600.854	0.0182997
600.933	0.0180878
601.011	0.0182365
601.089	0.0182697
601.167	0.0182514
601.245	0.0183088
601.323	0.0182223
601.401	0.0181731
601.479	0.0182645
601.558	0.0182108
601.636	0.0182123
601.714	0.0182246
601.792	0.0181641
601.870	0.0182742
601.948	0.0183254
602.026	0.0183515
602.104	0.0182253
602.183	0.0182332
602.261	0.0182047
602.339	0.0183910
602.417	0.0183226
602.495	0.0182706
602.573	0.0182186
602.651	0.0182008
602.729	0.0181695
602.808	0.0181281
602.886	0.0182043
602.964	0.0181840
603.042	0.0180938
603.120	0.0181529
603.198	0.0181036
603.276	0.0181045
603.354	0.0180848
603.433	0.0182170
603.511	0.0182580
603.589	0.0180821
603.667	0.0181094
603.745	0.0182583
603.823	0.0181840
603.901	0.0182755
603.979	0.0180983
604.058	0.0182343
604.136	0.0181694
604.214	0.0182996
604.292	0.0181080
604.370	0.0182294
604.448	0.0181100
604.526	0.0181880
604.604	0.0182319
604.683	0.0180912
604.761	0.0180927
604.839	0.0182246
604.917	0.0181815
604.995	0.0182234
605.073	0.0182673
605.151	0.0180402
605.229	0.0180867
605.308	0.0180453
605.386	0.0181489
605.464	0.0180820
605.542	0.0181289
605.620	0.0181265
605.698	0.0181668
605.776	0.0181743
605.854	0.0181544
605.933	0.0180535
606.011	0.0180417
606.089	0.0181612
606.167	0.0181158
606.245	0.0181256
606.323	0.0181261
606.401	0.0180321
606.479	0.0182487
606.558	0.0181638
606.636	0.0180023
606.714	0.0180289
606.792	0.0181554
606.870	0.0181274
606.948	0.0180126
607.026	0.0180707
607.104	0.0180722
607.183	0.0181213
607.261	0.0182052
607.339	0.0181410
607.417	0.0180136
607.495	0.0182381
607.573	0.0182158
607.651	0.0181413
607.729	0.0181036
607.808	0.0180058
607.886	0.0181884
607.964	0.0180160
608.042	0.0180013
608.120	0.0181170
608.198	0.0181504
608.276	0.0180559
608.354	0.0182167
608.433	0.0181121
608.511	0.0181993
608.589	0.0180981
608.667	0.0181326
608.745	0.0181243
608.823	0.0182699
608.901	0.0181384
608.979	0.0181736
609.058	0.0180569
609.136	0.0180667
609.214	0.0181073
609.292	0.0182299
609.370	0.0182741
609.448	0.0182490
609.526	0.0182433
609.604	0.0182411
609.683	0.0181799
609.761	0.0182232
609.839	0.0182147
609.917	0.0180888
609.995	0.0181886
610.073	0.0182317
610.151	0.0182625
610.229	0.0182262
610.308	0.0181626
610.386	0.0183624
610.464	0.0182343
610.542	0.0181700
610.620	0.0182729
610.698	0.0182797
610.776	0.0182266
610.854	0.0183678
610.933	0.0183494
611.011	0.0183562
611.089	0.0184219
611.167	0.0183232
611.245	0.0182793
611.323	0.0183225
611.401	0.0183324
611.479	0.0182535
611.558	0.0183589
611.636	0.0183450
611.714	0.0183077
611.792	0.0182162
611.870	0.0183588
611.948	0.0183669
612.026	0.0182800
612.104	0.0182507
612.183	0.0181874
612.261	0.0182800
612.339	0.0182124
612.417	0.0181883
612.495	0.0183430
612.573	0.0183097
612.651	0.0182291
612.729	0.0182653
612.808	0.0182539
612.886	0.0182938
612.964	0.0182342
613.042	0.0181670
613.120	0.0181764
613.198	0.0181350
613.276	0.0183057
613.354	0.0180656
613.433	0.0181488
613.511	0.0182838
613.589	0.0182952
613.667	0.0181249
613.745	0.0182084
613.823	0.0181276
613.901	0.0181288
613.979	0.0181983
614.058	0.0182460
614.136	0.0181609
614.214	0.0182045
614.292	0.0181931
614.370	0.0181664
614.448	0.0180861
614.526	0.0181163
614.604	0.0181020
614.683	0.0182166
614.761	0.0181872
614.839	0.0181660
614.917	0.0181011
614.995	0.0181959
615.073	0.0181129
615.151	0.0182919
615.229	0.0182265
615.308	0.0181040
615.386	0.0181119
615.464	0.0181648
615.542	0.0181486
615.620	0.0180332
615.698	0.0183490
615.776	0.0182282
615.854	0.0179964
615.933	0.0181113
616.011	0.0180854
616.089	0.0181423
616.167	0.0181971
616.245	0.0181466
616.323	0.0181205
616.401	0.0180473
616.479	0.0180693
616.558	0.0181226
616.636	0.0181306
616.714	0.0181725
616.792	0.0180608
616.870	0.0182339
616.948	0.0180649
617.026	0.0179942
617.104	0.0180840
617.183	0.0180644
617.261	0.0180863
617.339	0.0181529
617.417	0.0181557
617.495	0.0179624
617.573	0.0180257
617.651	0.0180945
617.729	0.0181523
617.808	0.0181147
617.886	0.0179346
617.964	0.0179924
618.042	0.0179918
618.120	0.0181233
618.198	0.0181125
618.276	0.0180460
618.354	0.0180446
618.433	0.0181272
618.511	0.0179594
618.589	0.0180611
618.667	0.0180944
618.745	0.0180963
618.823	0.0180077
618.901	0.0180287
618.979	0.0179752
619.058	0.0181236
619.136	0.0181454
619.214	0.0181021
619.292	0.0181337
619.370	0.0179572
619.448	0.0182003
619.526	0.0180973
619.604	0.0181505
619.683	0.0182198
619.761	0.0181394
619.839	0.0180604
619.917	0.0179404
619.995	0.0179482
620.073	0.0180910
620.151	0.0180393
620.229	0.0181676
620.308	0.0180346
620.386	0.0181279
620.464	0.0180492
620.542	0.0181121
620.620	0.0181477
620.698	0.0180900
620.776	0.0182133
620.854	0.0178987
620.933	0.0181306
621.011	0.0181461
621.089	0.0180762
621.167	0.0181818
621.245	0.0181345
621.323	0.0181596
621.401	0.0179741
621.479	0.0181478
621.558	0.0180765
621.636	0.0180552
621.714	0.0181175
621.792	0.0179907
621.870	0.0181027
621.948	0.0181248
622.026	0.0181131
622.104	0.0180459
622.183	0.0180254
622.261	0.0179821
622.339	0.0181842
622.417	0.0180817
622.495	0.0180319
622.573	0.0179761
622.651	0.0180729
622.729	0.0180226
622.808	0.0180898
622.886	0.0180548
622.964	0.0181976
623.042	0.0182016
623.120	0.0179437
623.198	0.0180739
623.276	0.0180703
623.354	0.0181272
623.433	0.0181390
623.511	0.0181960
623.589	0.0180790
623.667	0.0181931
623.745	0.0181601
623.823	0.0179098
623.901	0.0181224
623.979	0.0181771
624.058	0.0180110
624.136	0.0180428
624.214	0.0180760
624.292	0.0180433
624.370	0.0181717
624.448	0.0180510
624.526	0.0179217
624.604	0.0181240
624.683	0.0182632
624.761	0.0180370
624.839	0.0179845
624.917	0.0181037
624.995	0.0180482
625.073	0.0180718
625.151	0.0180688
625.229	0.0179530
625.308	0.0181651
625.386	0.0180502
625.464	0.0180629
625.542	0.0180440
625.620	0.0181277
625.698	0.0181493
625.776	0.0180502
625.854	0.0181456
625.933	0.0181831
626.011	0.0180122
626.089	0.0181950
626.167	0.0181858
626.245	0.0180402
626.323	0.0180970
626.401	0.0181952
626.479	0.0181462
626.558	0.0183118
626.636	0.0180854
626.714	0.0179427
626.792	0.0181119
626.870	0.0181452
626.948	0.0181036
627.026	0.0181991
627.104	0.0180350
627.183	0.0181753
627.261	0.0182794
627.339	0.0181075
627.417	0.0180992
627.495	0.0182007
627.573	0.0182716
627.651	0.0181554
627.729	0.0182235
627.808	0.0181905
627.886	0.0181389
627.964	0.0180804
628.042	0.0182478
628.120	0.0181214
628.198	0.0180719
628.276	0.0182150
628.354	0.0182214
628.433	0.0181482
628.511	0.0181599
628.589	0.0182548
628.667	0.0182324
628.745	0.0181519
628.823	0.0181750
628.901	0.0181949
628.979	0.0182172
629.058	0.0183536
629.136	0.0181885
629.214	0.0181918
629.292	0.0181667
629.370	0.0181878
629.448	0.0183565
629.526	0.0182887
629.604	0.0181824
629.683	0.0182787
629.761	0.0183240
629.839	0.0182928
629.917	0.0182487
629.995	0.0182206
630.073	0.0181668
630.151	0.0182453
630.229	0.0182030
630.308	0.0182082
630.386	0.0182188
630.464	0.0183167
630.542	0.0182667
630.620	0.0182197
630.698	0.0182621
630.776	0.0182785
630.854	0.0182189
630.933	0.0183567
631.011	0.0182421
631.089	0.0182614
631.167	0.0183307
631.245	0.0182960
631.323	0.0184213
631.401	0.0182700
631.479	0.0183997
631.558	0.0183578
631.636	0.0182439
631.714	0.0182554
631.792	0.0183315
631.870	0.0182524
631.948	0.0183549
632.026	0.0183919
632.104	0.0183940
632.183	0.0182887
632.261	0.0182445
632.339	0.0181866
632.417	0.0181876
632.495	0.0183649
632.573	0.0183670
632.651	0.0183147
632.729	0.0183714
632.808	0.0183791
632.886	0.0182941
632.964	0.0181657
633.042	0.0183628
633.120	0.0182735
633.198	0.0183731
633.276	0.0182159
633.354	0.0182853
633.433	0.0184042
633.511	0.0183562
633.589	0.0183273
633.667	0.0182889
633.745	0.0182548
633.823	0.0182986
633.901	0.0183525
633.979	0.0182786
634.058	0.0183707
634.136	0.0183402
634.214	0.0183228
634.292	0.0181479
634.370	0.0181218
634.448	0.0182723
634.526	0.0183263
634.604	0.0181925
634.683	0.0180595
634.761	0.0181876
634.839	0.0183092
634.917	0.0184138
634.995	0.0181499
635.073	0.0182373
635.151	0.0183454
635.229	0.0182576
635.308	0.0181483
635.386	0.0183244
635.464	0.0183466
635.542	0.0182522
635.620	0.0181914
635.698	0.0181362
635.776	0.0183316
635.854	0.0183276
635.933	0.0183088
636.011	0.0181711
636.089	0.0183118
636.167	0.0182231
636.245	0.0182650
636.323	0.0182920
636.401	0.0181830
636.479	0.0182119
636.558	0.0182014
636.636	0.0182824
636.714	0.0181030
636.792	0.0182275
636.870	0.0181087
636.948	0.0182030
637.026	0.0183035
637.104	0.0182644
637.183	0.0183714
637.261	0.0181417
637.339	0.0182120
637.417	0.0183333
637.495	0.0182529
637.573	0.0182044
637.651	0.0182531
637.729	0.0180373
637.808	0.0183053
637.886	0.0184290
637.964	0.0181975
638.042	0.0181978
638.120	0.0181169
638.198	0.0180656
638.276	0.0181992
638.354	0.0182814
638.433	0.0180908
638.511	0.0181136
638.589	0.0181171
638.667	0.0179414
638.745	0.0181390
638.823	0.0181463
638.901	0.0181313
638.979	0.0181087
639.058	0.0181542
639.136	0.0180736
639.214	0.0182638
639.292	0.0182130
639.370	0.0182146
639.448	0.0180894
639.526	0.0181059
639.604	0.0181522
639.683	0.0181694
639.761	0.0180984
639.839	0.0180959
639.917	0.0181257
639.995	0.0180694
640.073	0.0180859
640.151	0.0179700
640.229	0.0179945
640.308	0.0180038
640.386	0.0178921
640.464	0.0179610
640.542	0.0179449
640.620	0.0179151
640.698	0.0180689
640.776	0.0180582
640.854	0.0179311
640.933	0.0179945
641.011	0.0179488
641.089	0.0180509
641.167	0.0180965
641.245	0.0179127
641.323	0.0180685
641.401	0.0181244
641.479	0.0180757
641.558	0.0180457
641.636	0.0181535
641.714	0.0179577
641.792	0.0181203
641.870	0.0181014
641.948	0.0180281
642.026	0.0179867
642.104	0.0180334
642.183	0.0179740
642.261	0.0179958
642.339	0.0178917
642.417	0.0179841
642.495	0.0180064
642.573	0.0179897
642.651	0.0179932
642.729	0.0180814
642.808	0.0180872
642.886	0.0180877
642.964	0.0181130
643.042	0.0180681
643.120	0.0180634
643.198	0.0180292
643.276	0.0180399
643.354	0.0180642
643.433	0.0180853
643.511	0.0181160
643.589	0.0181983
643.667	0.0181428
643.745	0.0180580
643.823	0.0180294
643.901	0.0180714
643.979	0.0180206
644.058	0.0179926
644.136	0.0180148
644.214	0.0181023
644.292	0.0181462
644.370	0.0179432
644.448	0.0180428
644.526	0.0179800
644.604	0.0179632
644.683	0.0181544
644.761	0.0180145
644.839	0.0180914
644.917	0.0180341
644.995	0.0180941
645.073	0.0179626
645.151	0.0180199
645.229	0.0180854
645.308	0.0181611
645.386	0.0182781
645.464	0.0180849
645.542	0.0181393
645.620	0.0182610
645.698	0.0180226
645.776	0.0179823
645.854	0.0180580
645.933	0.0180153
646.011	0.0182312
646.089	0.0182340
646.167	0.0179615
646.245	0.0180419
646.323	0.0181675
646.401	0.0180714
646.479	0.0180089
646.558	0.0180106
646.636	0.0181217
646.714	0.0180959
646.792	0.0180636
646.870	0.0182788
646.948	0.0180480
647.026	0.0181003
647.104	0.0180871
647.183	0.0181932
647.261	0.0181679
647.339	0.0180327
647.417	0.0181222
647.495	0.0181421
647.573	0.0181226
647.651	0.0182549
647.729	0.0181533
647.808	0.0181829
647.886	0.0181686
647.964	0.0179984
648.042	0.0181167
648.120	0.0180556
648.198	0.0178693
648.276	0.0181041
648.354	0.0182050
648.433	0.0181409
648.511	0.0182146
648.589	0.0181435
648.667	0.0180582
648.745	0.0181202
648.823	0.0180972
648.901	0.0180917
648.979	0.0181627
649.058	0.0181301
649.136	0.0180431
649.214	0.0181587
649.292	0.0180550
649.370	0.0181326
649.448	0.0181396
649.526	0.0182272
649.604	0.0182401
649.683	0.0180969
649.761	0.0181855
649.839	0.0181396
649.917	0.0180025
649.995	0.0180921
650.073	0.0181535
650.151	0.0182483
650.229	0.0181385
650.308	0.0180985
650.386	0.0181584
650.464	0.0181622
650.542	0.0181812
650.620	0.0181428
650.698	0.0181088
650.776	0.0180463
650.854	0.0181007
650.933	0.0180969
651.011	0.0180375
651.089	0.0181143
651.167	0.0181462
651.245	0.0180804
651.323	0.0181567
651.401	0.0180759
651.479	0.0181581
651.558	0.0180450
651.636	0.0181809
651.714	0.0180213
651.792	0.0181711
651.870	0.0180775
651.948	0.0181181
652.026	0.0181370
652.104	0.0180132
652.183	0.0180195
652.261	0.0180528
652.339	0.0180925
652.417	0.0180184
652.495	0.0180923
652.573	0.0180133
652.651	0.0181091
652.729	0.0181387
652.808	0.0181265
652.886	0.0180927
652.964	0.0181134
653.042	0.0180835
653.120	0.0180751
653.198	0.0181105
653.276	0.0180918
653.354	0.0181438
653.433	0.0181786
653.511	0.0181725
653.589	0.0180462
653.667	0.0181615
653.745	0.0180976
653.823	0.0182861
653.901	0.0181856
653.979	0.0181066
654.058	0.0179993
654.136	0.0180869
654.214	0.0181976
654.292	0.0180405
654.370	0.0180002
654.448	0.0180569
654.526	0.0180201
654.604	0.0180782
654.683	0.0180556
654.761	0.0181741
654.839	0.0182001
654.917	0.0182081
654.995	0.0181880
655.073	0.0182113
655.151	0.0182055
655.229	0.0181528
655.308	0.0182306
655.386	0.0182266
655.464	0.0182959
655.542	0.0182597
655.620	0.0182299
655.698	0.0182459
655.776	0.0182657
655.854	0.0181731
655.933	0.0182433
656.011	0.0180801
656.089	0.0182022
656.167	0.0182639
656.245	0.0180384
656.323	0.0182559
656.401	0.0183042
656.479	0.0181116
656.558	0.0182556
656.636	0.0182166
656.714	0.0183502
656.792	0.0181445
656.870	0.0182707
656.948	0.0182356
657.026	0.0181281
657.104	0.0181420
657.183	0.0182244
657.261	0.0182440
657.339	0.0182275
657.417	0.0183114
657.495	0.0181894
657.573	0.0181694
657.651	0.0180852
657.729	0.0183091
657.808	0.0182426
657.886	0.0183482
657.964	0.0181528
658.042	0.0180430
658.120	0.0181704
658.198	0.0181686
658.276	0.0182462
658.354	0.0182192
658.433	0.0180740
658.511	0.0181620
658.589	0.0180917
658.667	0.0180224
658.745	0.0180964
658.823	0.0181348
658.901	0.0181451
658.979	0.0181950
659.058	0.0181889
659.136	0.0182256
659.214	0.0181345
659.292	0.0182349
659.370	0.0182517
659.448	0.0183093
659.526	0.0180489
659.604	0.0180696
659.683	0.0180772
659.761	0.0181796
659.839	0.0182494
659.917	0.0181097
659.995	0.0183199
660.073	0.0181878
660.151	0.0182281
660.229	0.0181512
660.308	0.0179683
660.386	0.0181303
660.464	0.0182724
660.542	0.0181956
660.620	0.0180436
660.698	0.0179829
660.776	0.0181202
660.854	0.0182487
660.933	0.0181791
661.011	0.0181754
661.089	0.0182733
661.167	0.0181858
661.245	0.0181554
661.323	0.0182044
661.401	0.0181989
661.479	0.0181504
661.558	0.0181648
661.636	0.0181403
661.714	0.0181786
661.792	0.0181798
661.870	0.0182370
661.948	0.0181886
662.026	0.0180569
662.104	0.0182230
662.183	0.0181755
662.261	0.0182567
662.339	0.0182285
662.417	0.0181260
662.495	0.0182420
662.573	0.0181548
662.651	0.0181416
662.729	0.0180967
662.808	0.0180734
662.886	0.0181127
662.964	0.0182137
663.042	0.0181099
663.120	0.0181921
663.198	0.0179960
663.276	0.0181362
663.354	0.0181474
663.433	0.0181336
663.511	0.0182113
663.589	0.0180844
663.667	0.0181831
663.745	0.0181299
663.823	0.0180374
663.901	0.0181873
663.979	0.0180569
664.058	0.0182362
664.136	0.0181510
664.214	0.0180130
664.292	0.0181750
664.370	0.0181480
664.448	0.0181484
664.526	0.0180987
664.604	0.0180070
664.683	0.0179748
664.761	0.0181458
664.839	0.0181229
664.917	0.0180671
664.995	0.0181078
665.073	0.0179993
665.151	0.0181232
665.229	0.0180634
665.308	0.0180545
665.386	0.0181249
665.464	0.0181470
665.542	0.0180589
665.620	0.0181499
665.698	0.0181340
665.776	0.0182624
665.854	0.0181865
665.933	0.0180602
666.011	0.0179581
666.089	0.0181680
666.167	0.0181503
666.245	0.0181271
666.323	0.0180823
666.401	0.0181633
666.479	0.0182410
666.558	0.0181075
666.636	0.0180699
666.714	0.0181277
666.792	0.0182559
666.870	0.0180338
666.948	0.0180206
667.026	0.0180402
667.104	0.0181255
667.183	0.0179631
667.261	0.0180069
667.339	0.0179263
667.417	0.0180027
667.495	0.0179708
667.573	0.0179698
667.651	0.0179497
667.729	0.0181802
667.808	0.0179266
667.886	0.0181220
667.964	0.0181553
668.042	0.0179789
668.120	0.0180842
668.198	0.0180574
668.276	0.0181332
668.354	0.0181187
668.433	0.0181868
668.511	0.0180236
668.589	0.0182610
668.667	0.0181327
668.745	0.0181818
668.823	0.0181468
668.901	0.0180063
668.979	0.0180975
669.058	0.0180164
669.136	0.0179977
669.214	0.0181159
669.292	0.0180891
669.370	0.0181158
669.448	0.0180680
669.526	0.0180000
669.604	0.0181600
669.683	0.0180668
669.761	0.0180183
669.839	0.0181013
669.917	0.0179685
669.995	0.0180848
670.073	0.0181771
670.151	0.0181264
670.229	0.0180505
670.308	0.0181040
670.386	0.0181583
670.464	0.0180349
670.542	0.0181753
670.620	0.0180836
670.698	0.0180110
670.776	0.0178419
670.854	0.0179553
670.933	0.0180099
671.011	0.0178741
671.089	0.0178761
671.167	0.0179733
671.245	0.0179304
671.323	0.0177409
671.401	0.0178503
671.479	0.0179460
671.558	0.0179105
671.636	0.0178922
671.714	0.0179649
671.792	0.0177192
671.870	0.0178429
671.948	0.0179133
672.026	0.0179431
672.104	0.0179334
672.183	0.0179394
672.261	0.0180593
672.339	0.0179176
672.417	0.0180357
672.495	0.0180128
672.573	0.0179788
672.651	0.0180549
672.729	0.0179308
672.808	0.0180695
672.886	0.0179405
672.964	0.0178835
673.042	0.0178939
673.120	0.0179035
673.198	0.0179638
673.276	0.0179630
673.354	0.0178340
673.433	0.0179134
673.511	0.0177519
673.589	0.0178616
673.667	0.0178864
673.745	0.0179311
673.823	0.0178613
673.901	0.0179405
673.979	0.0179527
674.058	0.0179145
674.136	0.0180591
674.214	0.0178532
674.292	0.0179681
674.370	0.0180355
674.448	0.0179169
674.526	0.0179561
674.604	0.0179346
674.683	0.0179534
674.761	0.0180465
674.839	0.0179732
674.917	0.0182202
674.995	0.0181239
675.073	0.0181057
675.151	0.0180238
675.229	0.0181771
675.308	0.0181245
675.386	0.0181578
675.464	0.0183504
675.542	0.0182736
675.620	0.0183390
675.698	0.0183089
675.776	0.0182590
675.854	0.0182997
675.933	0.0184203
676.011	0.0181815
676.089	0.0182279
676.167	0.0181729
676.245	0.0182613
676.323	0.0182190
676.401	0.0182166
676.479	0.0179870
676.558	0.0180370
676.636	0.0179592
676.714	0.0178300
676.792	0.0179842
676.870	0.0179949
676.948	0.0178255
677.026	0.0179269
677.104	0.0178696
677.183	0.0177561
677.261	0.0177657
677.339	0.0179123
677.417	0.0179585
677.495	0.0179770
677.573	0.0178883
677.651	0.0179124
677.729	0.0178448
677.808	0.0180298
677.886	0.0179785
677.964	0.0179015
678.042	0.0179732
678.120	0.0179730
678.198	0.0180305
678.276	0.0180795
678.354	0.0178885
678.433	0.0181641
678.511	0.0180718
678.589	0.0179372
678.667	0.0180723
678.745	0.0180655
678.823	0.0180685
678.901	0.0181097
678.979	0.0181044
679.058	0.0182155
679.136	0.0181635
679.214	0.0182038
679.292	0.0182046
679.370	0.0182133
679.448	0.0182126
679.526	0.0183582
679.604	0.0181731
679.683	0.0183183
679.761	0.0184985
679.839	0.0185483
679.917	0.0183891
679.995	0.0184591
680.073	0.0183509
680.151	0.0183728
680.229	0.0184154
680.308	0.0183716
680.386	0.0183379
680.464	0.0184278
680.542	0.0183054
680.620	0.0183091
680.698	0.0183749
680.776	0.0183037
680.854	0.0182372
680.933	0.0182000
681.011	0.0181323
681.089	0.0182473
681.167	0.0183358
681.245	0.0181401
681.323	0.0180905
681.401	0.0181145
681.479	0.0180400
681.558	0.0181316
681.636	0.0182008
681.714	0.0181307
681.792	0.0181212
681.870	0.0179139
681.948	0.0179189
682.026	0.0178421
682.104	0.0179642
682.183	0.0178712
682.261	0.0179329
682.339	0.0177415
682.417	0.0178104
682.495	0.0177525
682.573	0.0176598
682.651	0.0177927
682.729	0.0178133
682.808	0.0177696
682.886	0.0177259
682.964	0.0179275
683.042	0.0180161
683.120	0.0179416
683.198	0.0178380
683.276	0.0179044
683.354	0.0181644
683.433	0.0180769
683.511	0.0180535
683.589	0.0183186
683.667	0.0182338
683.745	0.0182668
683.823	0.0183859
683.901	0.0183983
683.979	0.0185379
684.058	0.0184593
684.136	0.0185394
684.214	0.0185600
684.292	0.0184309
684.370	0.0185188
684.448	0.0185556
684.526	0.0185452
684.604	0.0185091
684.683	0.0184235
684.761	0.0184151
684.839	0.0185908
684.917	0.0185210
684.995	0.0183340
685.073	0.0184116
685.151	0.0184119
685.229	0.0183405
685.308	0.0183089
685.386	0.0182267
685.464	0.0182878
685.542	0.0182584
685.620	0.0182498
685.698	0.0181854
685.776	0.0181945
685.854	0.0180771
685.933	0.0179578
686.011	0.0179368
686.089	0.0181264
686.167	0.0181288
686.245	0.0180211
686.323	0.0180430
686.401	0.0179169
686.479	0.0179752
686.558	0.0180388
686.636	0.0180421
686.714	0.0180363
686.792	0.0179404
686.870	0.0179877
686.948	0.0180507
687.026	0.0180537
687.104	0.0181314
687.183	0.0181299
687.261	0.0182511
687.339	0.0181820
687.417	0.0181952
687.495	0.0181963
687.573	0.0182433
687.651	0.0183078
687.729	0.0183874
687.808	0.0182665
687.886	0.0182420
687.964	0.0183873
688.042	0.0181387
688.120	0.0182074
688.198	0.0181148
688.276	0.0179741
688.354	0.0180542
688.433	0.0180656
688.511	0.0178587
688.589	0.0178965
688.667	0.0179107
688.745	0.0179828
688.823	0.0179916
688.901	0.0178499
688.979	0.0180534
689.058	0.0180138
689.136	0.0179782
689.214	0.0179993
689.292	0.0180508
689.370	0.0181712
689.448	0.0182681
689.526	0.0182775
689.604	0.0182504
689.683	0.0183869
689.761	0.0185186
689.839	0.0184455
689.917	0.0183778
689.995	0.0185312
690.073	0.0184710
690.151	0.0184882
690.229	0.0184560
690.308	0.0183828
690.386	0.0184723
690.464	0.0184798
690.542	0.0183351
690.620	0.0183092
690.698	0.0182958
690.776	0.0183172
690.854	0.0181824
690.933	0.0181221
691.011	0.0181538
691.089	0.0181918
691.167	0.0179695
691.245	0.0179295
691.323	0.0180300
691.401	0.0179308
691.479	0.0179014
691.558	0.0179392
691.636	0.0177900
691.714	0.0177948
691.792	0.0177126
691.870	0.0178394
691.948	0.0177603
692.026	0.0178124
692.104	0.0178669
692.183	0.0178252
692.261	0.0178621
692.339	0.0180396
692.417	0.0179644
692.495	0.0180347
692.573	0.0180297
692.651	0.0181186
692.729	0.0181294
692.808	0.0181621
692.886	0.0183227
692.964	0.0182958
693.042	0.0184026
693.120	0.0184894
693.198	0.0182854
693.276	0.0182510
693.354	0.0183692
693.433	0.0183467
693.511	0.0184119
693.589	0.0184995
693.667	0.0183357
693.745	0.0183453
693.823	0.0183391
693.901	0.0183123
693.979	0.0182280
694.058	0.0182318
694.136	0.0180851
694.214	0.0180717
694.292	0.0181432
694.370	0.0180053
694.448	0.0180954
694.526	0.0181632
694.604	0.0180354
694.683	0.0180975
694.761	0.0181167
694.839	0.0179554
694.917	0.0180511
694.995	0.0181618
695.073	0.0180367
695.151	0.0181230
695.229	0.0180193
695.308	0.0180813
695.386	0.0182241
695.464	0.0181799
695.542	0.0182597
695.620	0.0181427
695.698	0.0183688
695.776	0.0183134
695.854	0.0181396
695.933	0.0182491
696.011	0.0181977
696.089	0.0183523
696.167	0.0183070
696.245	0.0181385
696.323	0.0181716
696.401	0.0181353
696.479	0.0181596
696.558	0.0180445
696.636	0.0180638
696.714	0.0181573
696.792	0.0180099
696.870	0.0181516
696.948	0.0182180
697.026	0.0180446
697.104	0.0179813
697.183	0.0179239
697.261	0.0180901
697.339	0.0178233
697.417	0.0178237
697.495	0.0179105
697.573	0.0179626
697.651	0.0179861
697.729	0.0178462
697.808	0.0179234
697.886	0.0179137
697.964	0.0178810
698.042	0.0177317
698.120	0.0177114
698.198	0.0178167
698.276	0.0179091
698.354	0.0177744
698.433	0.0177791
698.511	0.0179568
698.589	0.0179206
698.667	0.0178643
698.745	0.0181164
698.823	0.0180045
698.901	0.0180064
698.979	0.0180678
699.058	0.0182118
699.136	0.0182452
699.214	0.0182677
699.292	0.0184884
699.370	0.0184175
699.448	0.0185103
699.526	0.0185736
699.604	0.0186525
699.683	0.0185570
699.761	0.0186124
699.839	0.0185812
699.917	0.0186903
699.995	0.0184598
700.073	0.0185396
700.151	0.0183467
700.229	0.0183610
700.308	0.0183331
700.386	0.0182336
700.464	0.0182809
700.542	0.0180505
700.620	0.0179277
700.698	0.0180345
700.776	0.0179900
700.854	0.0178921
700.933	0.0179826
701.011	0.0179092
701.089	0.0176945
701.167	0.0177576
701.245	0.0178823
701.323	0.0178645
701.401	0.0177567
701.479	0.0179085
701.558	0.0179511
701.636	0.0179494
701.714	0.0181424
701.792	0.0182207
701.870	0.0180975
701.948	0.0181203
702.026	0.0182713
702.104	0.0183465
702.183	0.0182448
702.261	0.0182787
702.339	0.0182080
702.417	0.0182651
702.495	0.0183569
702.573	0.0183257
702.651	0.0183025
702.729	0.0182919
702.808	0.0182559
702.886	0.0181405
702.964	0.0180716
703.042	0.0181345
703.120	0.0181534
703.198	0.0180882
703.276	0.0178279
703.354	0.0180316
703.433	0.0179494
703.511	0.0180375
703.589	0.0180202
703.667	0.0178954
703.745	0.0178878
703.823	0.0178592
703.901	0.0180473
703.979	0.0181162
704.058	0.0181273
704.136	0.0180661
704.214	0.0182076
704.292	0.0183308
704.370	0.0183517
704.448	0.0184879
704.526	0.0184799
704.604	0.0185699
704.683	0.0183828
704.761	0.0184968
704.839	0.0185431
704.917	0.0186037
704.995	0.0187277
705.073	0.0186878
705.151	0.0185824
705.229	0.0185149
705.308	0.0185441
705.386	0.0184966
705.464	0.0184451
705.542	0.0184132
705.620	0.0183582
705.698	0.0183923
705.776	0.0182191
705.854	0.0182410
705.933	0.0182950
706.011	0.0183054
706.089	0.0181728
706.167	0.0182497
706.245	0.0181076
706.323	0.0179026
706.401	0.0180437
706.479	0.0182908
706.558	0.0180023
706.636	0.0180140
706.714	0.0181286
706.792	0.0181868
706.870	0.0181355
706.948	0.0183646
707.026	0.0182692
707.104	0.0181112
707.183	0.0183440
707.261	0.0182745
707.339	0.0183051
707.417	0.0185181
707.495	0.0184371
707.573	0.0184916
707.651	0.0187139
707.729	0.0185171
707.808	0.0185233
707.886	0.0188264
707.964	0.0186429
708.042	0.0187305
708.120	0.0185623
708.198	0.0184505
708.276	0.0185242
708.354	0.0184602
708.433	0.0183485
708.511	0.0181255
708.589	0.0179247
708.667	0.0179675
708.745	0.0180073
708.823	0.0176057
708.901	0.0176711
708.979	0.0175352
709.058	0.0174751
709.136	0.0175790
709.214	0.0174427
709.292	0.0173065
709.370	0.0172099
709.448	0.0175784
709.526	0.0175851
709.604	0.0175604
709.683	0.0177663
709.761	0.0179404
709.839	0.0179219
709.917	0.0179833
709.995	0.0181496
710.073	0.0181276
710.151	0.0182655
710.229	0.0185055
710.308	0.0184985
710.386	0.0183336
710.464	0.0186781
710.542	0.0186439
710.620	0.0185299
710.698	0.0186143
710.776	0.0186856
710.854	0.0185702
710.933	0.0185852
711.011	0.0185004
711.089	0.0182863
711.167	0.0184621
711.245	0.0184753
711.323	0.0184207
711.401	0.0181774
711.479	0.0181586
711.558	0.0180833
711.636	0.0180885
711.714	0.0180621
711.792	0.0180438
711.870	0.0181997
711.948	0.0182007
712.026	0.0182463
712.104	0.0181434
712.183	0.0180957
712.261	0.0182718
712.339	0.0180914
712.417	0.0183897
712.495	0.0183863
712.573	0.0184080
712.651	0.0184543
712.729	0.0183662
712.808	0.0183749
712.886	0.0182853
712.964	0.0182978
713.042	0.0183007
713.120	0.0183223
713.198	0.0184197
713.276	0.0182785
713.354	0.0182542
713.433	0.0181699
713.511	0.0182256
713.589	0.0181679
713.667	0.0181255
713.745	0.0179890
713.823	0.0180243
713.901	0.0179919
713.979	0.0179923
714.058	0.0181284
714.136	0.0180323
714.214	0.0180849
714.292	0.0179757
714.370	0.0178899
714.448	0.0180649
714.526	0.0179934
714.604	0.0181513
714.683	0.0182281
714.761	0.0180926
714.839	0.0181821
714.917	0.0181207
714.995	0.0182562
715.073	0.0182003
715.151	0.0182500
715.229	0.0183045
715.308	0.0184898
715.386	0.0183762
715.464	0.0183096
715.542	0.0183208
715.620	0.0184151
715.698	0.0183907
715.776	0.0183478
715.854	0.0183162
715.933	0.0183700
716.011	0.0185172
716.089	0.0183005
716.167	0.0181744
716.245	0.0181797
716.323	0.0180495
716.401	0.0181444
716.479	0.0179484
716.558	0.0180058
716.636	0.0180231
716.714	0.0179497
716.792	0.0178102
716.870	0.0177490
716.948	0.0177470
717.026	0.0176909
717.104	0.0175533
717.183	0.0175462
717.261	0.0175608
717.339	0.0177965
717.417	0.0176150
717.495	0.0175874
717.573	0.0175776
717.651	0.0178539
717.729	0.0178197
717.808	0.0177258
717.886	0.0180602
717.964	0.0181434
718.042	0.0181171
718.120	0.0182061
718.198	0.0184236
718.276	0.0184703
718.354	0.0186213
718.433	0.0187927
718.511	0.0188792
718.589	0.0188702
718.667	0.0189871
718.745	0.0188593
718.823	0.0190063
718.901	0.0187099
718.979	0.0187057
719.058	0.0187564
719.136	0.0186263
719.214	0.0186942
719.292	0.0186166
719.370	0.0182567
719.448	0.0182846
719.526	0.0180932
719.604	0.0180116
719.683	0.0180564
719.761	0.0179900
719.839	0.0178300
719.917	0.0178414
719.995	0.0176844
720.073	0.0177054
720.151	0.0176462
720.229	0.0176340
720.308	0.0177094
720.386	0.0176413
720.464	0.0175322
720.542	0.0176544
720.620	0.0177050
720.698	0.0177724
720.776	0.0177127
720.854	0.0179069
720.933	0.0180660
721.011	0.0180550
721.089	0.0181246
721.167	0.0182272
721.245	0.0180561
721.323	0.0182224
721.401	0.0183598
721.479	0.0183613
721.558	0.0184340
721.636	0.0184024
721.714	0.0184595
721.792	0.0183947
721.870	0.0183034
721.948	0.0182353
722.026	0.0184817
722.104	0.0184138
722.183	0.0181268
722.261	0.0181992
722.339	0.0180877
722.417	0.0181902
722.495	0.0179467
722.573	0.0178206
722.651	0.0178278
722.729	0.0178705
722.808	0.0176979
722.886	0.0177732
722.964	0.0176835
723.042	0.0177453
723.120	0.0177149
723.198	0.0178011
723.276	0.0177619
723.354	0.0179461
723.433	0.0180537
723.511	0.0180317
723.589	0.0179950
723.667	0.0181663
723.745	0.0182941
723.823	0.0182993
723.901	0.0184063
723.979	0.0184467
724.058	0.0184830
724.136	0.0186007
724.214	0.0185406
724.292	0.0186230
724.370	0.0185654
724.448	0.0185923
724.526	0.0183555
724.604	0.0184084
724.683	0.0185374
724.761	0.0184833
724.839	0.0182970
724.917	0.0183290
724.995	0.0181879
725.073	0.0183621
725.151	0.0182734
725.229	0.0182761
725.308	0.0183018
725.386	0.0181884
725.464	0.0182539
725.542	0.0179964
725.620	0.0182041
725.698	0.0179784
725.776	0.0180666
725.854	0.0178421
725.933	0.0179473
726.011	0.0179273
726.089	0.0180803
726.167	0.0177702
726.245	0.0178129
726.323	0.0179173
726.401	0.0178085
726.479	0.0179218
726.558	0.0178160
726.636	0.0178941
726.714	0.0178749
726.792	0.0179289
726.870	0.0178634
726.948	0.0178465
727.026	0.0177728
727.104	0.0177577
727.183	0.0177663
727.261	0.0178294
727.339	0.0177040
727.417	0.0177171
727.495	0.0177749
727.573	0.0178358
727.651	0.0179417
727.729	0.0178086
727.808	0.0179591
727.886	0.0180431
727.964	0.0181665
728.042	0.0182622
728.120	0.0184033
728.198	0.0185961
728.276	0.0186048
728.354	0.0187084
728.433	0.0186607
728.511	0.0186682
728.589	0.0188518
728.667	0.0188209
728.745	0.0188087
728.823	0.0189544
728.901	0.0187994
728.979	0.0187089
729.058	0.0187082
729.136	0.0187461
729.214	0.0188062
729.292	0.0187811
729.370	0.0188003
729.448	0.0187840
729.526	0.0188131
729.604	0.0185933
729.683	0.0185971
729.761	0.0185500
729.839	0.0183556
729.917	0.0182459
729.995	0.0182572
730.073	0.0179634
730.151	0.0177209
730.229	0.0175928
730.308	0.0176163
730.386	0.0175502
730.464	0.0175494
730.542	0.0172391
730.620	0.0171211
730.698	0.0172411
730.776	0.0172023
730.854	0.0172739
730.933	0.0172938
731.011	0.0174767
731.089	0.0174235
731.167	0.0175272
731.245	0.0175508
731.323	0.0176337
731.401	0.0176146
731.479	0.0176778
731.558	0.0178489
731.636	0.0177942
731.714	0.0178508
731.792	0.0179488
731.870	0.0178766
731.948	0.0179887
732.026	0.0180304
732.104	0.0182884
732.183	0.0183233
732.261	0.0184399
732.339	0.0185764
732.417	0.0186102
732.495	0.0184177
732.573	0.0188264
732.651	0.0189117
732.729	0.0188645
732.808	0.0189221
732.886	0.0188779
732.964	0.0188578
733.042	0.0188399
733.120	0.0188562
733.198	0.0187413
733.276	0.0185886
733.354	0.0186639
733.433	0.0185841
733.511	0.0185523
733.589	0.0186343
733.667	0.0186618
733.745	0.0185984
733.823	0.0184469
733.901	0.0184121
733.979	0.0183588
734.058	0.0183305
734.136	0.0183060
734.214	0.0182981
734.292	0.0180852
734.370	0.0180539
734.448	0.0180389
734.526	0.0179846
734.604	0.0178014
734.683	0.0177135
734.761	0.0177834
734.839	0.0176672
734.917	0.0177171
734.995	0.0177380
735.073	0.0176739
735.151	0.0177325
735.229	0.0177594
735.308	0.0179124
735.386	0.0177685
735.464	0.0177534
735.542	0.0179511
735.620	0.0179859
735.698	0.0177959
735.776	0.0179813
735.854	0.0178620
735.933	0.0179099
736.011	0.0180632
736.089	0.0180481
736.167	0.0180480
736.245	0.0179590
736.323	0.0179984
736.401	0.0180975
736.479	0.0180421
736.558	0.0179140
736.636	0.0179500
736.714	0.0180647
736.792	0.0179921
736.870	0.0179765
736.948	0.0181319
737.026	0.0181691
737.104	0.0181409
737.183	0.0180904
737.261	0.0181944
737.339	0.0182468
737.417	0.0182578
737.495	0.0181669
737.573	0.0183323
737.651	0.0184123
737.729	0.0184242
737.808	0.0184010
737.886	0.0183646
737.964	0.0183254
738.042	0.0184222
738.120	0.0183890
738.198	0.0182471
738.276	0.0182663
738.354	0.0183030
738.433	0.0182048
738.511	0.0182912
738.589	0.0180578
738.667	0.0181382
738.745	0.0181507
738.823	0.0182066
738.901	0.0181866
738.979	0.0182317
739.058	0.0181670
739.136	0.0182521
739.214	0.0181895
739.292	0.0180926
739.370	0.0180966
739.448	0.0180208
739.526	0.0181367
739.604	0.0181165
739.683	0.0180547
739.761	0.0182148
739.839	0.0181438
739.917	0.0182371
739.995	0.0181538
740.073	0.0182043
740.151	0.0182281
740.229	0.0183185
740.308	0.0182948
740.386	0.0181909
740.464	0.0183325
740.542	0.0184236
740.620	0.0183801
740.698	0.0181152
740.776	0.0182395
740.854	0.0182145
740.933	0.0182475
741.011	0.0182395
741.089	0.0181979
741.167	0.0180548
741.245	0.0179278
741.323	0.0179035
741.401	0.0179006
741.479	0.0179068
741.558	0.0178151
741.636	0.0175390
741.714	0.0176477
741.792	0.0176055
741.870	0.0175961
741.948	0.0175076
742.026	0.0175619
742.104	0.0177518
742.183	0.0176897
742.261	0.0175728
742.339	0.0177504
742.417	0.0178507
742.495	0.0179639
742.573	0.0178439
742.651	0.0179110
742.729	0.0181293
742.808	0.0181394
742.886	0.0180256
742.964	0.0180629
743.042	0.0181786
743.120	0.0182066
743.198	0.0182830
743.276	0.0183237
743.354	0.0184615
743.433	0.0185260
743.511	0.0185171
743.589	0.0183572
743.667	0.0182691
743.745	0.0184503
743.823	0.0183387
743.901	0.0183703
743.979	0.0182990
744.058	0.0183047
744.136	0.0181880
744.214	0.0181494
744.292	0.0179656
744.370	0.0180304
744.448	0.0180725
744.526	0.0180679
744.604	0.0181381
744.683	0.0179336
744.761	0.0178375
744.839	0.0180475
744.917	0.0180273
744.995	0.0180717
745.073	0.0179734
745.151	0.0179876
745.229	0.0179718
745.308	0.0181910
745.386	0.0178214
745.464	0.0178255
745.542	0.0178967
745.620	0.0178684
745.698	0.0179077
745.776	0.0180418
745.854	0.0180363
745.933	0.0179674
746.011	0.0181264
746.089	0.0180058
746.167	0.0180772
746.245	0.0181451
746.323	0.0183120
746.401	0.0182761
746.479	0.0182878
746.558	0.0183231
746.636	0.0183611
746.714	0.0184882
746.792	0.0183015
746.870	0.0184003
746.948	0.0181113
747.026	0.0182301
747.104	0.0181443
747.183	0.0181805
747.261	0.0182003
747.339	0.0180990
747.417	0.0181281
747.495	0.0180993
747.573	0.0181050
747.651	0.0179257
747.729	0.0180408
747.808	0.0179768
747.886	0.0179447
747.964	0.0179169
748.042	0.0179876
748.120	0.0179359
748.198	0.0178512
748.276	0.0179263
748.354	0.0178233
748.433	0.0178979
748.511	0.0179483
748.589	0.0179694
748.667	0.0179427
748.745	0.0179465
748.823	0.0178252
748.901	0.0179641
748.979	0.0179112
749.058	0.0179159
749.136	0.0180085
749.214	0.0179341
749.292	0.0180410
749.370	0.0180307
749.448	0.0179949
749.526	0.0180807
749.604	0.0181666
749.683	0.0181997
749.761	0.0181511
749.839	0.0182133
749.917	0.0182570
749.995	0.0182730
750.073	0.0183919
750.151	0.0184190
750.229	0.0184124
750.308	0.0183777
750.386	0.0182523
750.464	0.0183319
750.542	0.0184335
750.620	0.0183569
750.698	0.0184005
750.776	0.0184036
750.854	0.0183051
750.933	0.0181347
751.011	0.0182194
751.089	0.0182481
751.167	0.0181812
751.245	0.0182008
751.323	0.0180750
751.401	0.0181023
751.479	0.0180785
751.558	0.0181306
751.636	0.0182455
751.714	0.0182315
751.792	0.0179617
751.870	0.0181356
751.948	0.0182213
752.026	0.0182722
752.104	0.0181386
752.183	0.0181889
752.261	0.0180420
752.339	0.0180219
752.417	0.0180799
752.495	0.0180881
752.573	0.0180460
752.651	0.0178383
752.729	0.0179296
752.808	0.0178945
752.886	0.0179166
752.964	0.0178743
753.042	0.0178197
753.120	0.0178829
753.198	0.0179868
753.276	0.0178706
753.354	0.0177899
753.433	0.0178101
753.511	0.0178670
753.589	0.0178561
753.667	0.0179291
753.745	0.0178271
753.823	0.0178604
753.901	0.0180760
753.979	0.0179375
754.058	0.0179555
754.136	0.0179424
754.214	0.0180540
754.292	0.0179858
754.370	0.0183417
754.448	0.0180415
754.526	0.0181756
754.604	0.0182683
754.683	0.0182948
754.761	0.0184587
754.839	0.0183379
754.917	0.0184290
754.995	0.0184882
755.073	0.0185314
755.151	0.0184663
755.229	0.0184324
755.308	0.0184753
755.386	0.0185617
755.464	0.0186131
755.542	0.0184645
755.620	0.0184494
755.698	0.0185269
755.776	0.0184930
755.854	0.0184193
755.933	0.0184788
756.011	0.0183775
756.089	0.0184569
756.167	0.0183858
756.245	0.0182777
756.323	0.0183419
756.401	0.0180547
756.479	0.0182159
756.558	0.0181440
756.636	0.0180006
756.714	0.0180345
756.792	0.0179960
756.870	0.0178562
756.948	0.0178661
757.026	0.0179840
757.104	0.0180105
757.183	0.0179047
757.261	0.0178088
757.339	0.0180212
757.417	0.0180144
757.495	0.0179350
757.573	0.0181828
757.651	0.0180799
757.729	0.0181071
757.808	0.0179906
757.886	0.0180774
757.964	0.0179856
758.042	0.0180159
758.120	0.0179547
758.198	0.0179798
758.276	0.0178871
758.354	0.0179488
758.433	0.0178864
758.511	0.0178377
758.589	0.0178990
758.667	0.0178468
758.745	0.0178278
758.823	0.0177078
758.901	0.0177184
758.979	0.0177260
759.058	0.0178495
759.136	0.0178276
759.214	0.0180128
759.292	0.0177534
759.370	0.0179082
759.448	0.0180457
759.526	0.0183247
759.604	0.0182571
759.683	0.0181287
759.761	0.0182046
759.839	0.0183297
759.917	0.0184468
759.995	0.0185321
760.073	0.0184714
760.151	0.0184251
760.229	0.0185483
760.308	0.0186141
760.386	0.0186440
760.464	0.0186069
760.542	0.0186196
760.620	0.0185593
760.698	0.0183997
760.776	0.0184914
760.854	0.0184598
760.933	0.0185486
761.011	0.0184467
761.089	0.0183746
761.167	0.0182500
761.245	0.0182158
761.323	0.0183130
761.401	0.0181438
761.479	0.0181805
761.558	0.0179682
761.636	0.0180772
761.714	0.0179776
761.792	0.0179307
761.870	0.0178713
761.948	0.0177963
762.026	0.0178674
762.104	0.0177789
762.183	0.0177611
762.261	0.0178290
762.339	0.0177423
762.417	0.0176952
762.495	0.0177366
762.573	0.0178318
762.651	0.0176767
762.729	0.0178886
762.808	0.0179097
762.886	0.0179288
762.964	0.0178910
763.042	0.0179950
763.120	0.0181187
763.198	0.0180723
763.276	0.0180486
763.354	0.0181928
763.433	0.0180130
763.511	0.0182147
763.589	0.0182584
763.667	0.0181929
763.745	0.0183108
763.823	0.0182462
763.901	0.0182558
763.979	0.0182754
764.058	0.0180917
764.136	0.0181268
764.214	0.0180662
764.292	0.0180624
764.370	0.0180873
764.448	0.0180251
764.526	0.0180817
764.604	0.0180617
764.683	0.0179436
764.761	0.0180495
764.839	0.0180118
764.917	0.0181438
764.995	0.0179787
765.073	0.0180280
765.151	0.0181262
765.229	0.0181554
765.308	0.0181609
765.386	0.0181771
765.464	0.0182406
765.542	0.0182493
765.620	0.0183281
765.698	0.0183991
765.776	0.0184750
765.854	0.0182413
765.933	0.0182997
766.011	0.0183561
766.089	0.0182592
766.167	0.0181844
766.245	0.0183054
766.323	0.0181282
766.401	0.0180330
766.479	0.0180625
766.558	0.0181452
766.636	0.0181131
766.714	0.0180178
766.792	0.0179924
766.870	0.0180427
766.948	0.0180013
767.026	0.0180099
767.104	0.0179046
767.183	0.0179145
767.261	0.0179828
767.339	0.0179308
767.417	0.0179370
767.495	0.0178484
767.573	0.0178627
767.651	0.0180158
767.729	0.0179271
767.808	0.0178212
767.886	0.0177258
767.964	0.0178405
768.042	0.0178055
768.120	0.0178037
768.198	0.0177779
768.276	0.0179870
768.354	0.0179958
768.433	0.0179424
768.511	0.0179719
768.589	0.0180906
768.667	0.0180379
768.745	0.0179828
768.823	0.0183936
768.901	0.0182731
768.979	0.0183067
769.058	0.0183158
769.136	0.0183166
769.214	0.0182641
769.292	0.0184713
769.370	0.0183550
769.448	0.0183299
769.526	0.0183836
769.604	0.0182603
769.683	0.0182153
769.761	0.0182418
769.839	0.0181004
769.917	0.0180674
769.995	0.0181519
770.073	0.0180813
770.151	0.0178613
770.229	0.0177977
770.308	0.0179398
770.386	0.0179277
770.464	0.0178829
770.542	0.0178719
770.620	0.0178445
770.698	0.0178338
770.776	0.0178722
770.854	0.0180028
770.933	0.0179026
771.011	0.0178973
771.089	0.0178621
771.167	0.0179512
771.245	0.0179667
771.323	0.0181287
771.401	0.0180814
771.479	0.0180323
771.558	0.0181071
771.636	0.0181029
771.714	0.0182084
771.792	0.0182333
771.870	0.0182678
771.948	0.0180677
772.026	0.0181419
772.104	0.0181252
772.183	0.0181777
772.261	0.0182528
772.339	0.0182458
772.417	0.0182345
772.495	0.0183575
772.573	0.0182244
772.651	0.0183305
772.729	0.0183228
772.808	0.0181792
772.886	0.0182130
772.964	0.0181484
773.042	0.0181477
773.120	0.0182119
773.198	0.0182076
773.276	0.0181586
773.354	0.0179449
773.433	0.0181223
773.511	0.0180896
773.589	0.0178928
773.667	0.0179877
773.745	0.0181244
773.823	0.0180972
773.901	0.0180828
773.979	0.0181187
774.058	0.0181343
774.136	0.0180944
774.214	0.0182674
774.292	0.0182255
774.370	0.0182103
774.448	0.0182642
774.526	0.0182091
774.604	0.0183434
774.683	0.0182399
774.761	0.0182003
774.839	0.0182777
774.917	0.0182599
774.995	0.0182246
775.073	0.0182488
775.151	0.0183419
775.229	0.0182156
775.308	0.0182805
775.386	0.0181167
775.464	0.0182914
775.542	0.0181419
775.620	0.0181622
775.698	0.0181229
775.776	0.0182152
775.854	0.0180959
775.933	0.0181187
776.011	0.0179606
776.089	0.0180690
776.167	0.0180772
776.245	0.0180016
776.323	0.0180708
776.401	0.0181528
776.479	0.0180067
776.558	0.0178452
776.636	0.0180335
776.714	0.0180567
776.792	0.0180973
776.870	0.0180400
776.948	0.0180990
777.026	0.0179908
777.104	0.0180289
777.183	0.0182780
777.261	0.0184082
777.339	0.0181902
777.417	0.0182362
777.495	0.0184105
777.573	0.0184109
777.651	0.0182859
777.729	0.0184068
777.808	0.0184785
777.886	0.0184987
777.964	0.0182760
778.042	0.0183966
778.120	0.0182269
778.198	0.0182338
778.276	0.0181294
778.354	0.0182261
778.433	0.0182780
778.511	0.0181606
778.589	0.0182269
778.667	0.0181318
778.745	0.0181804
778.823	0.0182243
778.901	0.0181455
778.979	0.0182352
779.058	0.0181536
779.136	0.0180419
779.214	0.0181361
779.292	0.0180501
779.370	0.0181394
779.448	0.0180498
779.526	0.0181365
779.604	0.0180956
779.683	0.0179657
779.761	0.0180399
779.839	0.0181214
779.917	0.0179469
779.995	0.0179561
780.073	0.0180541
780.151	0.0180742
780.229	0.0181306
780.308	0.0181003
780.386	0.0180635
780.464	0.0181200
780.542	0.0181783
780.620	0.0179820
780.698	0.0182403
780.776	0.0181693
780.854	0.0181448
780.933	0.0182030
781.011	0.0182766
781.089	0.0182080
781.167	0.0183000
781.245	0.0181518
781.323	0.0181158
781.401	0.0182616
781.479	0.0183231
781.558	0.0181427
781.636	0.0181037
781.714	0.0182042
781.792	0.0183018
781.870	0.0183289
781.948	0.0181180
782.026	0.0182521
782.104	0.0182298
782.183	0.0181632
782.261	0.0182162
782.339	0.0181470
782.417	0.0180944
782.495	0.0180670
782.573	0.0180559
782.651	0.0181487
782.729	0.0180964
782.808	0.0180565
782.886	0.0181876
782.964	0.0179688
783.042	0.0179034
783.120	0.0178822
783.198	0.0180011
783.276	0.0179214
783.354	0.0179740
783.433	0.0180272
783.511	0.0179324
783.589	0.0181251
783.667	0.0180877
783.745	0.0181317
783.823	0.0180283
783.901	0.0180377
783.979	0.0180913
784.058	0.0179828
784.136	0.0180872
784.214	0.0180281
784.292	0.0181121
784.370	0.0180399
784.448	0.0181012
784.526	0.0181176
784.604	0.0180611
784.683	0.0180993
784.761	0.0181135
784.839	0.0181660
784.917	0.0182810
784.995	0.0182175
785.073	0.0182198
785.151	0.0182407
785.229	0.0183226
785.308	0.0183605
785.386	0.0182159
785.464	0.0183344
785.542	0.0182798
785.620	0.0182652
785.698	0.0182761
785.776	0.0181396
785.854	0.0180864
785.933	0.0180366
786.011	0.0180070
786.089	0.0180750
786.167	0.0181068
786.245	0.0177941
786.323	0.0178516
786.401	0.0179622
786.479	0.0178083
786.558	0.0177716
786.636	0.0178339
786.714	0.0178369
786.792	0.0179743
786.870	0.0178520
786.948	0.0179442
787.026	0.0180057
787.104	0.0179016
787.183	0.0179478
787.261	0.0180480
787.339	0.0180736
787.417	0.0180583
787.495	0.0180762
787.573	0.0180628
787.651	0.0182332
787.729	0.0180856
787.808	0.0181078
787.886	0.0181817
787.964	0.0180106
788.042	0.0180881
788.120	0.0182806
788.198	0.0181389
788.276	0.0181019
788.354	0.0181758
788.433	0.0181676
788.511	0.0181707
788.589	0.0182306
788.667	0.0182065
788.745	0.0181487
788.823	0.0180947
788.901	0.0181252
788.979	0.0182235
789.058	0.0180951
789.136	0.0181111
789.214	0.0182621
789.292	0.0180604
789.370	0.0181339
789.448	0.0181934
789.526	0.0180155
789.604	0.0180879
789.683	0.0181712
789.761	0.0181709
789.839	0.0181776
789.917	0.0181721
789.995	0.0182701
790.073	0.0182925
790.151	0.0182175
790.229	0.0182529
790.308	0.0182778
790.386	0.0182623
790.464	0.0182189
790.542	0.0181950
790.620	0.0182526
790.698	0.0183338
790.776	0.0182137
790.854	0.0182874
790.933	0.0183176
791.011	0.0183465
791.089	0.0183601
791.167	0.0182066
791.245	0.0183200
791.323	0.0183564
791.401	0.0182497
791.479	0.0182560
791.558	0.0183071
791.636	0.0182845
791.714	0.0181462
791.792	0.0181516
791.870	0.0181299
791.948	0.0181042
792.026	0.0180045
792.104	0.0181650
792.183	0.0182395
792.261	0.0180993
792.339	0.0179443
792.417	0.0179418
792.495	0.0179778
792.573	0.0179990
792.651	0.0179580
792.729	0.0179216
792.808	0.0180027
792.886	0.0179088
792.964	0.0179045
793.042	0.0179486
793.120	0.0180858
793.198	0.0181006
793.276	0.0180350
793.354	0.0181402
793.433	0.0181111
793.511	0.0181464
793.589	0.0180563
793.667	0.0181545
793.745	0.0181456
793.823	0.0180444
793.901	0.0180563
793.979	0.0183088
794.058	0.0180583
794.136	0.0179471
794.214	0.0181243
794.292	0.0181763
794.370	0.0181000
794.448	0.0179881
794.526	0.0179874
794.604	0.0179602
794.683	0.0180518
794.761	0.0179822
794.839	0.0180251
794.917	0.0180139
794.995	0.0180652
795.073	0.0178828
795.151	0.0180670
795.229	0.0180102
795.308	0.0178946
795.386	0.0179214
795.464	0.0179897
795.542	0.0179835
795.620	0.0179169
795.698	0.0179613
795.776	0.0180105
795.854	0.0179427
795.933	0.0180007
796.011	0.0180444
796.089	0.0180561
796.167	0.0180587
796.245	0.0182443
796.323	0.0182991
796.401	0.0183617
796.479	0.0181872
796.558	0.0182516
796.636	0.0183469
796.714	0.0182251
796.792	0.0183816
796.870	0.0183369
796.948	0.0184444
797.026	0.0182970
797.104	0.0183268
797.183	0.0184356
797.261	0.0181358
797.339	0.0183342
797.417	0.0183636
797.495	0.0181467
797.573	0.0180942
797.651	0.0181786
797.729	0.0183083
797.808	0.0180113
797.886	0.0180515
797.964	0.0181084
798.042	0.0180446
798.120	0.0180565
798.198	0.0181313
798.276	0.0181404
798.354	0.0181583
798.433	0.0181796
798.511	0.0182037
798.589	0.0181796
798.667	0.0182639
798.745	0.0180869
798.823	0.0180557
798.901	0.0180874
798.979	0.0182141
799.058	0.0181909
799.136	0.0182812
799.214	0.0181976
799.292	0.0181703
799.370	0.0181961
799.448	0.0181806
799.526	0.0183589
799.604	0.0181738
799.683	0.0182198
799.761	0.0183078
799.839	0.0183208
799.917	0.0182887
799.995	0.0182391
800.073	0.0182214
800.151	0.0183385
800.229	0.0183281
800.308	0.0182303
800.386	0.0183215
800.464	0.0185321
800.542	0.0184721
800.620	0.0183936
800.698	0.0184920
800.776	0.0182843
800.854	0.0183804
800.933	0.0183468
801.011	0.0184122
801.089	0.0183185
801.167	0.0183929
801.245	0.0183266
801.323	0.0182053
801.401	0.0181399
801.479	0.0182188
801.558	0.0182299
801.636	0.0180347
801.714	0.0182819
801.792	0.0182862
801.870	0.0181184
801.948	0.0183190
802.026	0.0183148
802.104	0.0182741
802.183	0.0181818
802.261	0.0183895
802.339	0.0183395
802.417	0.0183693
802.495	0.0184428
802.573	0.0182910
802.651	0.0183974
802.729	0.0184464
802.808	0.0183179
802.886	0.0183608
802.964	0.0183036
803.042	0.0183404
803.120	0.0182815
803.198	0.0184245
803.276	0.0181966
803.354	0.0180164
803.433	0.0182004
803.511	0.0183093
803.589	0.0181416
803.667	0.0180547
803.745	0.0180730
803.823	0.0181293
803.901	0.0180817
803.979	0.0180857
804.058	0.0179764
804.136	0.0180076
804.214	0.0179778
804.292	0.0181031
804.370	0.0181158
804.448	0.0180415
804.526	0.0181789
804.604	0.0181103
804.683	0.0181694
804.761	0.0183015
804.839	0.0181728
804.917	0.0183408
804.995	0.0182351
805.073	0.0182876
805.151	0.0181684
805.229	0.0182720
805.308	0.0181612
805.386	0.0182391
805.464	0.0180450
805.542	0.0179202
805.620	0.0179759
805.698	0.0179305
805.776	0.0179468
805.854	0.0179513
805.933	0.0178584
806.011	0.0178035
806.089	0.0177819
806.167	0.0180011
806.245	0.0177898
806.323	0.0179072
806.401	0.0177741
806.479	0.0179061
806.558	0.0179713
806.636	0.0179326
806.714	0.0177952
806.792	0.0179233
806.870	0.0179389
806.948	0.0179057
807.026	0.0180412
807.104	0.0179918
807.183	0.0180457
807.261	0.0180045
807.339	0.0179556
807.417	0.0180819
807.495	0.0180605
807.573	0.0179999
807.651	0.0181362
807.729	0.0181821
807.808	0.0181348
807.886	0.0179877
807.964	0.0181322
808.042	0.0182647
808.120	0.0181429
808.198	0.0181677
808.276	0.0181257
808.354	0.0181931
808.433	0.0181274
808.511	0.0182143
808.589	0.0180188
808.667	0.0181858
808.745	0.0181416
808.823	0.0181039
808.901	0.0180756
808.979	0.0182550
809.058	0.0180204
809.136	0.0180910
809.214	0.0179795
809.292	0.0180482
809.370	0.0180864
809.448	0.0179812
809.526	0.0180672
809.604	0.0180436
809.683	0.0181639
809.761	0.0179510
809.839	0.0180274
809.917	0.0179774
809.995	0.0179597
810.073	0.0180508
810.151	0.0178793
810.229	0.0179606
810.308	0.0180476
810.386	0.0179965
810.464	0.0181559
810.542	0.0181187
810.620	0.0179424
810.698	0.0180466
810.776	0.0179964
810.854	0.0181561
810.933	0.0180886
811.011	0.0181172
811.089	0.0183573
811.167	0.0182919
811.245	0.0182104
811.323	0.0181945
811.401	0.0182972
811.479	0.0181744
811.558	0.0181519
811.636	0.0183268
811.714	0.0182364
811.792	0.0181220
811.870	0.0180413
811.948	0.0180290
812.026	0.0179025
812.104	0.0179654
812.183	0.0180580
812.261	0.0179969
812.339	0.0181020
812.417	0.0181459
812.495	0.0179334
812.573	0.0182162
812.651	0.0180740
812.729	0.0180864
812.808	0.0180544
812.886	0.0180476
812.964	0.0179837
813.042	0.0181030
813.120	0.0183095
813.198	0.0181632
813.276	0.0181065
813.354	0.0182573
813.433	0.0182554
813.511	0.0183034
813.589	0.0182047
813.667	0.0183868
813.745	0.0184097
813.823	0.0183871
813.901	0.0182778
813.979	0.0183336
814.058	0.0183222
814.136	0.0182877
814.214	0.0182535
814.292	0.0183911
814.370	0.0182217
814.448	0.0182336
814.526	0.0182590
814.604	0.0181499
814.683	0.0182245
814.761	0.0181250
814.839	0.0180749
814.917	0.0180988
814.995	0.0179945
815.073	0.0178647
815.151	0.0180083
815.229	0.0179999
815.308	0.0181207
815.386	0.0181473
815.464	0.0181565
815.542	0.0181387
815.620	0.0183188
815.698	0.0180885
815.776	0.0183020
815.854	0.0181990
815.933	0.0181507
816.011	0.0183514
816.089	0.0183085
816.167	0.0182854
816.245	0.0182246
816.323	0.0181030
816.401	0.0182066
816.479	0.0182453
816.558	0.0182403
816.636	0.0183176
816.714	0.0180676
816.792	0.0181750
816.870	0.0183211
816.948	0.0182506
817.026	0.0182302
817.104	0.0183105
817.183	0.0182232
817.261	0.0181934
817.339	0.0183196
817.417	0.0182633
817.495	0.0181931
817.573	0.0183519
817.651	0.0182232
817.729	0.0182475
817.808	0.0182629
817.886	0.0182874
817.964	0.0183012
818.042	0.0182586
818.120	0.0180963
818.198	0.0181219
818.276	0.0182076
818.354	0.0180708
818.433	0.0181127
818.511	0.0180416
818.589	0.0181141
818.667	0.0180963
818.745	0.0181342
818.823	0.0180190
818.901	0.0182378
818.979	0.0181316
819.058	0.0180370
819.136	0.0180519
819.214	0.0181690
819.292	0.0182332
819.370	0.0183522
819.448	0.0183109
819.526	0.0182323
819.604	0.0184434
819.683	0.0183080
819.761	0.0182821
819.839	0.0184155
819.917	0.0184208
819.995	0.0183871
820.073	0.0183606
820.151	0.0183525
820.229	0.0182652
820.308	0.0182093
820.386	0.0181693
820.464	0.0182280
820.542	0.0182935
820.620	0.0183127
820.698	0.0182837
820.776	0.0180557
820.854	0.0181353
820.933	0.0181435
821.011	0.0182383
821.089	0.0180897
821.167	0.0181303
821.245	0.0181300
821.323	0.0179893
821.401	0.0180897
821.479	0.0182236
821.558	0.0182291
821.636	0.0181472
821.714	0.0182328
821.792	0.0181197
821.870	0.0181463
821.948	0.0182964
822.026	0.0182482
822.104	0.0182118
822.183	0.0181142
822.261	0.0181972
822.339	0.0181837
822.417	0.0183021
822.495	0.0182806
822.573	0.0182224
822.651	0.0182398
822.729	0.0180757
822.808	0.0182497
822.886	0.0182240
822.964	0.0181250
823.042	0.0182409
823.120	0.0181274
823.198	0.0181296
823.276	0.0180521
823.354	0.0180346
823.433	0.0180459
823.511	0.0181002
823.589	0.0180428
823.667	0.0180354
823.745	0.0182252
823.823	0.0181935
823.901	0.0182697
823.979	0.0181004
824.058	0.0182258
824.136	0.0182424
824.214	0.0181998
824.292	0.0181918
824.370	0.0181487
824.448	0.0181721
824.526	0.0181458
824.604	0.0181273
824.683	0.0181748
824.761	0.0182119
824.839	0.0181701
824.917	0.0181544
824.995	0.0179617
825.073	0.0181662
825.151	0.0181533
825.229	0.0179395
825.308	0.0181245
825.386	0.0180836
825.464	0.0181317
825.542	0.0181935
825.620	0.0181425
825.698	0.0182330
825.776	0.0181782
825.854	0.0182531
825.933	0.0183308
826.011	0.0181841
826.089	0.0182074
826.167	0.0182336
826.245	0.0182059
826.323	0.0181947
826.401	0.0183160
826.479	0.0181666
826.558	0.0182114
826.636	0.0180900
826.714	0.0181057
826.792	0.0181879
826.870	0.0181948
826.948	0.0180944
827.026	0.0180560
827.104	0.0181312
827.183	0.0179041
827.261	0.0179809
827.339	0.0178884
827.417	0.0180458
827.495	0.0180835
827.573	0.0180671
827.651	0.0179274
827.729	0.0181269
827.808	0.0181248
827.886	0.0180040
827.964	0.0179145
828.042	0.0181676
828.120	0.0179712
828.198	0.0181662
828.276	0.0180689
828.354	0.0180405
828.433	0.0181084
828.511	0.0181352
828.589	0.0181811
828.667	0.0180220
828.745	0.0180929
828.823	0.0182570
828.901	0.0180761
828.979	0.0180423
829.058	0.0180275
829.136	0.0181151
829.214	0.0181636
829.292	0.0181790
829.370	0.0181147
829.448	0.0181310
829.526	0.0180589
829.604	0.0179594
829.683	0.0180633
829.761	0.0180583
829.839	0.0180865
829.917	0.0180942
829.995	0.0180873
830.073	0.0180812
830.151	0.0180231
830.229	0.0180228
830.308	0.0182484
830.386	0.0181381
830.464	0.0180154
830.542	0.0181257
830.620	0.0181418
830.698	0.0180962
830.776	0.0182067
830.854	0.0180335
830.933	0.0182775
831.011	0.0181921
831.089	0.0180803
831.167	0.0181098
831.245	0.0180854
831.323	0.0179599
831.401	0.0179350
831.479	0.0181158
831.558	0.0179935
831.636	0.0179641
831.714	0.0180003
831.792	0.0179492
831.870	0.0179568
831.948	0.0179158
832.026	0.0178846
832.104	0.0179453
832.183	0.0180132
832.261	0.0179337
832.339	0.0178571
832.417	0.0180391
832.495	0.0180635
832.573	0.0180709
832.651	0.0178645
832.729	0.0180664
832.808	0.0180557
832.886	0.0178239
832.964	0.0179465
833.042	0.0181351
833.120	0.0180605
833.198	0.0181342
833.276	0.0178591
833.354	0.0180298
833.433	0.0180849
833.511	0.0181758
833.589	0.0179668
833.667	0.0181484
833.745	0.0180990
833.823	0.0181301
833.901	0.0182818
833.979	0.0181717
834.058	0.0181062
834.136	0.0180677
834.214	0.0180936
834.292	0.0180944
834.370	0.0182648
834.448	0.0182095
834.526	0.0183449
834.604	0.0182963
834.683	0.0182674
834.761	0.0181910
834.839	0.0182728
834.917	0.0182761
834.995	0.0181979
835.073	0.0182526
835.151	0.0182722
835.229	0.0182368
835.308	0.0181383
835.386	0.0181873
835.464	0.0183331
835.542	0.0181886
835.620	0.0180656
835.698	0.0181635
835.776	0.0180261
835.854	0.0180573
835.933	0.0179396
836.011	0.0180126
836.089	0.0181042
836.167	0.0181139
836.245	0.0180444
836.323	0.0181188
836.401	0.0180038
836.479	0.0181630
836.558	0.0180688
836.636	0.0181873
836.714	0.0180819
836.792	0.0179964
836.870	0.0180811
836.948	0.0182060
837.026	0.0180913
837.104	0.0182694
837.183	0.0181818
837.261	0.0181249
837.339	0.0181359
837.417	0.0183220
837.495	0.0180595
837.573	0.0181403
837.651	0.0182044
837.729	0.0180654
837.808	0.0181772
837.886	0.0182166
837.964	0.0180239
838.042	0.0180822
838.120	0.0179787
838.198	0.0182357
838.276	0.0180847
838.354	0.0180094
838.433	0.0180025
838.511	0.0180467
838.589	0.0179955
838.667	0.0179408
838.745	0.0180444
838.823	0.0182355
838.901	0.0182336
838.979	0.0181979
839.058	0.0182632
839.136	0.0181462
839.214	0.0181063
839.292	0.0181310
839.370	0.0181748
839.448	0.0181322
839.526	0.0182323
839.604	0.0182807
839.683	0.0181306
839.761	0.0182455
839.839	0.0182227
839.917	0.0182245
839.995	0.0182079
840.073	0.0181071
840.151	0.0180795
840.229	0.0181970
840.308	0.0182342
840.386	0.0182239
840.464	0.0181250
840.542	0.0181325
840.620	0.0181796
840.698	0.0182549
840.776	0.0182232
840.854	0.0181272
840.933	0.0181647
841.011	0.0181474
841.089	0.0182394
841.167	0.0180349
841.245	0.0181763
841.323	0.0181891
841.401	0.0181630
841.479	0.0181796
841.558	0.0180399
841.636	0.0181625
841.714	0.0181325
841.792	0.0180500
841.870	0.0181208
841.948	0.0179243
842.026	0.0179785
842.104	0.0181479
842.183	0.0180338
842.261	0.0181060
842.339	0.0178907
842.417	0.0179473
842.495	0.0181800
842.573	0.0180729
842.651	0.0179879
842.729	0.0180178
842.808	0.0181104
842.886	0.0182451
842.964	0.0181638
843.042	0.0180338
843.120	0.0180235
843.198	0.0181651
843.276	0.0180686
843.354	0.0181365
843.433	0.0182679
843.511	0.0181122
843.589	0.0181229
843.667	0.0182035
843.745	0.0181485
843.823	0.0180554
843.901	0.0179638
843.979	0.0180585
844.058	0.0180674
844.136	0.0181241
844.214	0.0181239
844.292	0.0179829
844.370	0.0181003
844.448	0.0179792
844.526	0.0180978
844.604	0.0180384
844.683	0.0179408
844.761	0.0179805
844.839	0.0180157
844.917	0.0179982
844.995	0.0180663
845.073	0.0180124
845.151	0.0180533
845.229	0.0181134
845.308	0.0180215
845.386	0.0180489
845.464	0.0180795
845.542	0.0180577
845.620	0.0181391
845.698	0.0182079
845.776	0.0180491
845.854	0.0181016
845.933	0.0180204
846.011	0.0181548
846.089	0.0183469
846.167	0.0182642
846.245	0.0182343
846.323	0.0182650
846.401	0.0181170
846.479	0.0181742
846.558	0.0182128
846.636	0.0182127
846.714	0.0181746
846.792	0.0182830
846.870	0.0182976
846.948	0.0181846
847.026	0.0181596
847.104	0.0183476
847.183	0.0183125
847.261	0.0182367
847.339	0.0181535
847.417	0.0182142
847.495	0.0181400
847.573	0.0181375
847.651	0.0181371
847.729	0.0183098
847.808	0.0182269
847.886	0.0182050
847.964	0.0182373
848.042	0.0182220
848.120	0.0181026
848.198	0.0181358
848.276	0.0181521
848.354	0.0182979
848.433	0.0182249
848.511	0.0180729
848.589	0.0181884
848.667	0.0181110
848.745	0.0180218
848.823	0.0180043
848.901	0.0181832
848.979	0.0180996
849.058	0.0181345
849.136	0.0180763
849.214	0.0181149
849.292	0.0180659
849.370	0.0181084
849.448	0.0181183
849.526	0.0181229
849.604	0.0180617
849.683	0.0181442
849.761	0.0181879
849.839	0.0181867
849.917	0.0181425
849.995	0.0181259
850.073	0.0182849
850.151	0.0182115
850.229	0.0182114
850.308	0.0181402
850.386	0.0181542
850.464	0.0181920
850.542	0.0180675
850.620	0.0180711
850.698	0.0180957
850.776	0.0180959
850.854	0.0181165
850.933	0.0181009
851.011	0.0180775
851.089	0.0181291
851.167	0.0181039
851.245	0.0181431
851.323	0.0182089
851.401	0.0180582
851.479	0.0181616
851.558	0.0180997
851.636	0.0180527
851.714	0.0180338
851.792	0.0179313
851.870	0.0181637
851.948	0.0181050
852.026	0.0178924
852.104	0.0180003
852.183	0.0180374
852.261	0.0180649
852.339	0.0179955
852.417	0.0180417
852.495	0.0180841
852.573	0.0179829
852.651	0.0180697
852.729	0.0180208
852.808	0.0179673
852.886	0.0179856
852.964	0.0179768
853.042	0.0180024
853.120	0.0179694
853.198	0.0180875
853.276	0.0180859
853.354	0.0180109
853.433	0.0180318
853.511	0.0180882
853.589	0.0180056
853.667	0.0179514
853.745	0.0180321
853.823	0.0180672
853.901	0.0181433
853.979	0.0180036
854.058	0.0179919
854.136	0.0180367
854.214	0.0182198
854.292	0.0180448
854.370	0.0178647
854.448	0.0179555
854.526	0.0180624
854.604	0.0180353
854.683	0.0181012
854.761	0.0180544
854.839	0.0179832
854.917	0.0180275
854.995	0.0180462
855.073	0.0180241
855.151	0.0181506
855.229	0.0180306
855.308	0.0180054
855.386	0.0180463
855.464	0.0180155
855.542	0.0180525
855.620	0.0181267
855.698	0.0179915
855.776	0.0181216
855.854	0.0180890
855.933	0.0180798
856.011	0.0181017
856.089	0.0182415
856.167	0.0181216
856.245	0.0181367
856.323	0.0181222
856.401	0.0181593
856.479	0.0181937
856.558	0.0181527
856.636	0.0180910
856.714	0.0181124
856.792	0.0181076
856.870	0.0180054
856.948	0.0181015
857.026	0.0181577
857.104	0.0181308
857.183	0.0181617
857.261	0.0179982
857.339	0.0180800
857.417	0.0182413
857.495	0.0181468
857.573	0.0182066
857.651	0.0182026
857.729	0.0182758
857.808	0.0180157
857.886	0.0181412
857.964	0.0179710
858.042	0.0182199
858.120	0.0183130
858.198	0.0180203
858.276	0.0181151
858.354	0.0181229
858.433	0.0182247
858.511	0.0182556
858.589	0.0182454
858.667	0.0181085
858.745	0.0181623
858.823	0.0181097
858.901	0.0180733
858.979	0.0181958
859.058	0.0181007
859.136	0.0181468
859.214	0.0180950
859.292	0.0181081
859.370	0.0181354
859.448	0.0180963
859.526	0.0181013
859.604	0.0181315
859.683	0.0182047
859.761	0.0180903
859.839	0.0180599
859.917	0.0180331
859.995	0.0181413
860.073	0.0180671
860.151	0.0180395
860.229	0.0181692
860.308	0.0182153
860.386	0.0182519
860.464	0.0180724
860.542	0.0182351
860.620	0.0180637
860.698	0.0181478
860.776	0.0181467
860.854	0.0180824
860.933	0.0182365
861.011	0.0181378
861.089	0.0181374
861.167	0.0181411
861.245	0.0182558
861.323	0.0181752
861.401	0.0182102
861.479	0.0181413
861.558	0.0181229
861.636	0.0183121
861.714	0.0183424
861.792	0.0184328
861.870	0.0182209
861.948	0.0182087
862.026	0.0182692
862.104	0.0182880
862.183	0.0182693
862.261	0.0182851
862.339	0.0182041
862.417	0.0181839
862.495	0.0181617
862.573	0.0182750
862.651	0.0182883
862.729	0.0181116
862.808	0.0181749
862.886	0.0181140
862.964	0.0181744
863.042	0.0181210
863.120	0.0180591
863.198	0.0180497
863.276	0.0180751
863.354	0.0181071
863.433	0.0181116
863.511	0.0180386
863.589	0.0180893
863.667	0.0180331
863.745	0.0181081
863.823	0.0179606
863.901	0.0180830
863.979	0.0179581
864.058	0.0180412
864.136	0.0180254
864.214	0.0179269
864.292	0.0178247
864.370	0.0179309
864.448	0.0179289
864.526	0.0179065
864.604	0.0179741
864.683	0.0179758
864.761	0.0180044
864.839	0.0178684
864.917	0.0179656
864.995	0.0179998
865.073	0.0180942
865.151	0.0180531
865.229	0.0179559
865.308	0.0179730
865.386	0.0179607
865.464	0.0180307
865.542	0.0181921
865.620	0.0180474
865.698	0.0179769
865.776	0.0180433
865.854	0.0180315
865.933	0.0180257
866.011	0.0179880
866.089	0.0182016
866.167	0.0180669
866.245	0.0180035
866.323	0.0180312
866.401	0.0180427
866.479	0.0180965
866.558	0.0181915
866.636	0.0181326
866.714	0.0180121
866.792	0.0181650
866.870	0.0181335
866.948	0.0182015
867.026	0.0180837
867.104	0.0181206
867.183	0.0180588
867.261	0.0181429
867.339	0.0182091
867.417	0.0181125
867.495	0.0180770
867.573	0.0180930
867.651	0.0180885
867.729	0.0180940
867.808	0.0180742
867.886	0.0181490
867.964	0.0180804
868.042	0.0180094
868.120	0.0180227
868.198	0.0179878
868.276	0.0181351
868.354	0.0181424
868.433	0.0179353
868.511	0.0178373
868.589	0.0181503
868.667	0.0180045
868.745	0.0181354
868.823	0.0179725
868.901	0.0180309
868.979	0.0180477
869.058	0.0181494
869.136	0.0180678
869.214	0.0180048
869.292	0.0179701
869.370	0.0180943
869.448	0.0180968
869.526	0.0181369
869.604	0.0179638
869.683	0.0178442
869.761	0.0181388
869.839	0.0181303
869.917	0.0181260
869.995	0.0180099
870.073	0.0179236
870.151	0.0180238
870.229	0.0181532
870.308	0.0180721
870.386	0.0182224
870.464	0.0181637
870.542	0.0183200
870.620	0.0182381
870.698	0.0181496
870.776	0.0182114
870.854	0.0183425
870.933	0.0181607
871.011	0.0180692
871.089	0.0181458
871.167	0.0182677
871.245	0.0180637
871.323	0.0183373
871.401	0.0182115
871.479	0.0182714
871.558	0.0181374
871.636	0.0181837
871.714	0.0180827
871.792	0.0180157
871.870	0.0180859
871.948	0.0181042
872.026	0.0181564
872.104	0.0179518
872.183	0.0180513
872.261	0.0179268
872.339	0.0180908
872.417	0.0179211
872.495	0.0180482
872.573	0.0180392
872.651	0.0180176
872.729	0.0180389
872.808	0.0180145
872.886	0.0181192
872.964	0.0180171
873.042	0.0179294
873.120	0.0178342
873.198	0.0180411
873.276	0.0180238
873.354	0.0181688
873.433	0.0181132
873.511	0.0180450
873.589	0.0180256
873.667	0.0180396
873.745	0.0180352
873.823	0.0179192
873.901	0.0180257
873.979	0.0179626
874.058	0.0179506
874.136	0.0179375
874.214	0.0181422
874.292	0.0180303
874.370	0.0181441
874.448	0.0180704
874.526	0.0180516
874.604	0.0181136
874.683	0.0181409
874.761	0.0180928
874.839	0.0181625
874.917	0.0181996
874.995	0.0182788
875.073	0.0181680
875.151	0.0180783
875.229	0.0182112
875.308	0.0182455
875.386	0.0182969
875.464	0.0181098
875.542	0.0182008
875.620	0.0182556
875.698	0.0182347
875.776	0.0182250
875.854	0.0181949
875.933	0.0182374
876.011	0.0180716
876.089	0.0180897
876.167	0.0181758
876.245	0.0182111
876.323	0.0180505
876.401	0.0181138
876.479	0.0181980
876.558	0.0181504
876.636	0.0181397
876.714	0.0181335
876.792	0.0182570
876.870	0.0181908
876.948	0.0181403
877.026	0.0181971
877.104	0.0181490
877.183	0.0180776
877.261	0.0181205
877.339	0.0181845
877.417	0.0181773
877.495	0.0179965
877.573	0.0180696
877.651	0.0183438
877.729	0.0182217
877.808	0.0182050
877.886	0.0181593
877.964	0.0181064
878.042	0.0182085
878.120	0.0181824
878.198	0.0182592
878.276	0.0181683
878.354	0.0180833
878.433	0.0180846
878.511	0.0181926
878.589	0.0181424
878.667	0.0181284
878.745	0.0181149
878.823	0.0181761
878.901	0.0180578
878.979	0.0181386
879.058	0.0180771
879.136	0.0181293
879.214	0.0180968
879.292	0.0180876
879.370	0.0182092
879.448	0.0182266
879.526	0.0180142
879.604	0.0180531
879.683	0.0180545
879.761	0.0180911
879.839	0.0181245
879.917	0.0181293
879.995	0.0180882
880.073	0.0180049
880.151	0.0180453
880.229	0.0181012
880.308	0.0180141
880.386	0.0179918
880.464	0.0181659
880.542	0.0180980
880.620	0.0181525
880.698	0.0181104
880.776	0.0180173
880.854	0.0181973
880.933	0.0181410
881.011	0.0179715
881.089	0.0180281
881.167	0.0182474
881.245	0.0181690
881.323	0.0181262
881.401	0.0181812
881.479	0.0182240
881.558	0.0182719
881.636	0.0182613
881.714	0.0182704
881.792	0.0182825
881.870	0.0182166
881.948	0.0183289
882.026	0.0182614
882.104	0.0182302
882.183	0.0181716
882.261	0.0181993
882.339	0.0182368
882.417	0.0181042
882.495	0.0181938
882.573	0.0181337
882.651	0.0181956
882.729	0.0181940
882.808	0.0180264
882.886	0.0182751
882.964	0.0181903
883.042	0.0181261
883.120	0.0181908
883.198	0.0182054
883.276	0.0182610
883.354	0.0183236
883.433	0.0182691
883.511	0.0181435
883.589	0.0181042
883.667	0.0180162
883.745	0.0181622
883.823	0.0182800
883.901	0.0182175
883.979	0.0181567
884.058	0.0181101
884.136	0.0180552
884.214	0.0181013
884.292	0.0181294
884.370	0.0181699
884.448	0.0181338
884.526	0.0180148
884.604	0.0180486
884.683	0.0179662
884.761	0.0182753
884.839	0.0180653
884.917	0.0180410
884.995	0.0179974
885.073	0.0180271
885.151	0.0179415
885.229	0.0180074
885.308	0.0179375
885.386	0.0179837
885.464	0.0179218
885.542	0.0180260
885.620	0.0179881
885.698	0.0179678
885.776	0.0178923
885.854	0.0181966
885.933	0.0180118
886.011	0.0179550
886.089	0.0180647
886.167	0.0180099
886.245	0.0179760
886.323	0.0180746
886.401	0.0180079
886.479	0.0180717
886.558	0.0181511
886.636	0.0180636
886.714	0.0180869
886.792	0.0181458
886.870	0.0181559
886.948	0.0179948
887.026	0.0181380
887.104	0.0181916
887.183	0.0181942
887.261	0.0181090
887.339	0.0180854
887.417	0.0180772
887.495	0.0181378
887.573	0.0181314
887.651	0.0182226
887.729	0.0182637
887.808	0.0181022
887.886	0.0181384
887.964	0.0181306
888.042	0.0181051
888.120	0.0181576
888.198	0.0180973
888.276	0.0182134
888.354	0.0181779
888.433	0.0181331
888.511	0.0181288
888.589	0.0180796
888.667	0.0182262
888.745	0.0182787
888.823	0.0180788
888.901	0.0180709
888.979	0.0180304
889.058	0.0179797
889.136	0.0181845
889.214	0.0182666
889.292	0.0181782
889.370	0.0181213
889.448	0.0181005
889.526	0.0180573
889.604	0.0181169
889.683	0.0181185
889.761	0.0179998
889.839	0.0180920
889.917	0.0182173
889.995	0.0180984
890.073	0.0182484
890.151	0.0180755
890.229	0.0181607
890.308	0.0181197
890.386	0.0180463
890.464	0.0182465
890.542	0.0181670
890.620	0.0181866
890.698	0.0182089
890.776	0.0182418
890.854	0.0180866
890.933	0.0181246
891.011	0.0181950
891.089	0.0182903
891.167	0.0181952
891.245	0.0182899
891.323	0.0182453
891.401	0.0182327
891.479	0.0181655
891.558	0.0182092
891.636	0.0181985
891.714	0.0181499
891.792	0.0180820
891.870	0.0182929
891.948	0.0182314
892.026	0.0181129
892.104	0.0180834
892.183	0.0181821
892.261	0.0182253
892.339	0.0182166
892.417	0.0181644
892.495	0.0180116
892.573	0.0180988
892.651	0.0181297
892.729	0.0180305
892.808	0.0179971
892.886	0.0180457
892.964	0.0180921
893.042	0.0182653
893.120	0.0179725
893.198	0.0180811
893.276	0.0181985
893.354	0.0181199
893.433	0.0180521
893.511	0.0180540
893.589	0.0180774
893.667	0.0180949
893.745	0.0180901
893.823	0.0182142
893.901	0.0182019
893.979	0.0183962
894.058	0.0181278
894.136	0.0183032
894.214	0.0182111
894.292	0.0181469
894.370	0.0182224
894.448	0.0181577
894.526	0.0181815
894.604	0.0180888
894.683	0.0181069
894.761	0.0182870
894.839	0.0181943
894.917	0.0180941
894.995	0.0180349
895.073	0.0181036
895.151	0.0180135
895.229	0.0181222
895.308	0.0182322
895.386	0.0180514
895.464	0.0181464
895.542	0.0180553
895.620	0.0181734
895.698	0.0181669
895.776	0.0181729
895.854	0.0181252
895.933	0.0181735
896.011	0.0182012
896.089	0.0183081
896.167	0.0181364
896.245	0.0181414
896.323	0.0181439
896.401	0.0181329
896.479	0.0181530
896.558	0.0181571
896.636	0.0182327
896.714	0.0181566
896.792	0.0182073
896.870	0.0181104
896.948	0.0180564
897.026	0.0180402
897.104	0.0180465
897.183	0.0181609
897.261	0.0179691
897.339	0.0180232
897.417	0.0180531
897.495	0.0181679
897.573	0.0178893
897.651	0.0180246
897.729	0.0181578
897.808	0.0181564
897.886	0.0180920
897.964	0.0180081
898.042	0.0182220
898.120	0.0180341
898.198	0.0181231
898.276	0.0180965
898.354	0.0180580
898.433	0.0180886
898.511	0.0182333
898.589	0.0182451
898.667	0.0182246
898.745	0.0181301
898.823	0.0180912
898.901	0.0181044
898.979	0.0181884
899.058	0.0181629
899.136	0.0181220
899.214	0.0181295
899.292	0.0181297
899.370	0.0182005
899.448	0.0182096
899.526	0.0181266
899.604	0.0182467
899.683	0.0182378
899.761	0.0181068
899.839	0.0180730
899.917	0.0180712
899.995	0.0181204
900.073	0.0181985
900.151	0.0181071
900.229	0.0181568
900.308	0.0181240
900.386	0.0180029
900.464	0.0181857
900.542	0.0180549
900.620	0.0180373
900.698	0.0182310
900.776	0.0181761
900.854	0.0180324
900.933	0.0181513
901.011	0.0180573
901.089	0.0180580
901.167	0.0181734
901.245	0.0180732
901.323	0.0182212
901.401	0.0181642
901.479	0.0182917
901.558	0.0182973
901.636	0.0182762
901.714	0.0181957
901.792	0.0182307
901.870	0.0181644
901.948	0.0183791
902.026	0.0181409
902.104	0.0182465
902.183	0.0183212
902.261	0.0183773
902.339	0.0182401
902.417	0.0181606
902.495	0.0181291
902.573	0.0182655
902.651	0.0182035
902.729	0.0180801
902.808	0.0181146
902.886	0.0181480
902.964	0.0180982
903.042	0.0181173
903.120	0.0181097
903.198	0.0179945
903.276	0.0180625
903.354	0.0178570
903.433	0.0179746
903.511	0.0180309
903.589	0.0182414
903.667	0.0181375
903.745	0.0180690
903.823	0.0180688
903.901	0.0181019
903.979	0.0181976
904.058	0.0181938
904.136	0.0181873
904.214	0.0182212
904.292	0.0181278
904.370	0.0179810
904.448	0.0182040
904.526	0.0180958
904.604	0.0180611
904.683	0.0179961
904.761	0.0180880
904.839	0.0180524
904.917	0.0180472
904.995	0.0180605
905.073	0.0179816
905.151	0.0180508
905.229	0.0180695
905.308	0.0181733
905.386	0.0179063
905.464	0.0180025
905.542	0.0179162
905.620	0.0180698
905.698	0.0178597
905.776	0.0179512
905.854	0.0179302
905.933	0.0180498
906.011	0.0179455
906.089	0.0179552
906.167	0.0179787
906.245	0.0179446
906.323	0.0180825
906.401	0.0181394
906.479	0.0179469
906.558	0.0181358
906.636	0.0181766
906.714	0.0179959
906.792	0.0180626
906.870	0.0179430
906.948	0.0182127
907.026	0.0180229
907.104	0.0179391
907.183	0.0181736
907.261	0.0180651
907.339	0.0180765
907.417	0.0181845
907.495	0.0181033
907.573	0.0180100
907.651	0.0179842
907.729	0.0180160
907.808	0.0181036
907.886	0.0179425
907.964	0.0182050
908.042	0.0180640
908.120	0.0179691
908.198	0.0180300
908.276	0.0181152
908.354	0.0181410
908.433	0.0180949
908.511	0.0180151
908.589	0.0180363
908.667	0.0180334
908.745	0.0180772
908.823	0.0180151
908.901	0.0181407
908.979	0.0180515
909.058	0.0180913
909.136	0.0180785
909.214	0.0180135
909.292	0.0182021
909.370	0.0181730
909.448	0.0180408
909.526	0.0181310
909.604	0.0181698
909.683	0.0181343
909.761	0.0181539
909.839	0.0180447
909.917	0.0180681
909.995	0.0181358
910.073	0.0182398
910.151	0.0182098
910.229	0.0180258
910.308	0.0181201
910.386	0.0181002
910.464	0.0181580
910.542	0.0180329
910.620	0.0180181
910.698	0.0180347
910.776	0.0180583
910.854	0.0179034
910.933	0.0179926
911.011	0.0180796
911.089	0.0179947
911.167	0.0179922
911.245	0.0180472
911.323	0.0179965
911.401	0.0180520
911.479	0.0179874
911.558	0.0179195
911.636	0.0178331
911.714	0.0181466
911.792	0.0179970
911.870	0.0179385
911.948	0.0180310
912.026	0.0180302
912.104	0.0180156
912.183	0.0181084
912.261	0.0181528
912.339	0.0180182
912.417	0.0179823
912.495	0.0181634
912.573	0.0181262
912.651	0.0183022
912.729	0.0182016
912.808	0.0181267
912.886	0.0182160
912.964	0.0182405
913.042	0.0181152
913.120	0.0181816
913.198	0.0181722
913.276	0.0181875
913.354	0.0180605
913.433	0.0180453
913.511	0.0180373
913.589	0.0180344
913.667	0.0181747
913.745	0.0181995
913.823	0.0180199
913.901	0.0179742
913.979	0.0181057
914.058	0.0181163
914.136	0.0179859
914.214	0.0180339
914.292	0.0180280
914.370	0.0180740
914.448	0.0181145
914.526	0.0180017
914.604	0.0180472
914.683	0.0181004
914.761	0.0180730
914.839	0.0180981
914.917	0.0182076
914.995	0.0180614
915.073	0.0182489
915.151	0.0182619
915.229	0.0182020
915.308	0.0183512
915.386	0.0182112
915.464	0.0182050
915.542	0.0182713
915.620	0.0180943
915.698	0.0183382
915.776	0.0183652
915.854	0.0183009
915.933	0.0182945
916.011	0.0183357
916.089	0.0181654
916.167	0.0181821
916.245	0.0183049
916.323	0.0180717
916.401	0.0180781
916.479	0.0181061
916.558	0.0181583
916.636	0.0181992
916.714	0.0181516
916.792	0.0180885
916.870	0.0181341
916.948	0.0180869
917.026	0.0182209
917.104	0.0181364
917.183	0.0180734
917.261	0.0180690
917.339	0.0181686
917.417	0.0181612
917.495	0.0181159
917.573	0.0180573
917.651	0.0181311
917.729	0.0180608
917.808	0.0180198
917.886	0.0182303
917.964	0.0180199
918.042	0.0182275
918.120	0.0182047
918.198	0.0180724
918.276	0.0181244
918.354	0.0181038
918.433	0.0181406
918.511	0.0180904
918.589	0.0181184
918.667	0.0181044
918.745	0.0180393
918.823	0.0181615
918.901	0.0180485
918.979	0.0182214
919.058	0.0180106
919.136	0.0180281
919.214	0.0182613
919.292	0.0181225
919.370	0.0180889
919.448	0.0180414
919.526	0.0180209
919.604	0.0181715
919.683	0.0180643
919.761	0.0179949
919.839	0.0180663
919.917	0.0182308
