06/03/2022	18:30:19	Ver.	4.1	UNKNOWN
Optical Delay	599.995081	Delta X		0.078125	Sweeps	1	Scan Rate	0/0
Coordinates	Axis 1	NaN	Axis 2	NaN	Axis 3	NaN	Axis 4	NaN	Axis 5	NaN	Axis 6	0.000000
TX Power	0.000000	RX Power	0.000000

599.995	0.0181147
600.073	0.0179230
600.151	0.0178797
600.229	0.0181579
600.308	0.0181023
600.386	0.0181724
600.464	0.0180807
600.542	0.0180373
600.620	0.0180482
600.698	0.0181011
600.776	0.0181010
600.854	0.0181126
600.933	0.0180667
601.011	0.0180319
601.089	0.0180388
601.167	0.0179756
601.245	0.0179961
601.323	0.0180057
601.401	0.0181219
601.479	0.0181325
601.558	0.0180817
601.636	0.0180651
601.714	0.0180392
601.792	0.0180671
601.870	0.0180211
601.948	0.0179745
602.026	0.0180988
602.104	0.0179401
602.183	0.0179940
602.261	0.0180959
602.339	0.0180175
602.417	0.0179553
602.495	0.0180836
602.573	0.0180189
602.651	0.0180124
602.729	0.0180772
602.808	0.0180521
602.886	0.0179957
602.964	0.0179716
603.042	0.0181056
603.120	0.0180319
603.198	0.0180537
603.276	0.0180097
603.354	0.0181759
603.433	0.0179569
603.511	0.0180811
603.589	0.0179350
603.667	0.0180694
603.745	0.0178893
603.823	0.0180331
603.901	0.0180903
603.979	0.0179823
604.058	0.0178802
604.136	0.0180497
604.214	0.0181570
604.292	0.0180278
604.370	0.0179708
604.448	0.0181298
604.526	0.0180392
604.604	0.0181187
604.683	0.0180189
604.761	0.0180500
604.839	0.0179086
604.917	0.0180174
604.995	0.0180450
605.073	0.0180176
605.151	0.0178719
605.229	0.0180187
605.308	0.0179497
605.386	0.0181593
605.464	0.0182088
605.542	0.0180148
605.620	0.0181765
605.698	0.0181867
605.776	0.0181239
605.854	0.0181017
605.933	0.0179617
606.011	0.0180170
606.089	0.0180672
606.167	0.0181547
606.245	0.0181965
606.323	0.0180601
606.401	0.0181078
606.479	0.0181213
606.558	0.0182015
606.636	0.0181421
606.714	0.0181585
606.792	0.0179882
606.870	0.0182844
606.948	0.0181158
607.026	0.0180865
607.104	0.0182117
607.183	0.0180996
607.261	0.0181341
607.339	0.0182192
607.417	0.0182407
607.495	0.0182160
607.573	0.0180891
607.651	0.0181721
607.729	0.0182235
607.808	0.0181184
607.886	0.0182594
607.964	0.0181322
608.042	0.0182024
608.120	0.0182938
608.198	0.0182954
608.276	0.0181802
608.354	0.0180950
608.433	0.0180900
608.511	0.0182451
608.589	0.0182137
608.667	0.0180683
608.745	0.0181976
608.823	0.0181491
608.901	0.0181167
608.979	0.0180888
609.058	0.0181973
609.136	0.0181757
609.214	0.0181231
609.292	0.0181467
609.370	0.0181242
609.448	0.0181187
609.526	0.0180102
609.604	0.0180529
609.683	0.0182126
609.761	0.0180403
609.839	0.0180605
609.917	0.0181638
609.995	0.0181507
610.073	0.0181137
610.151	0.0179811
610.229	0.0180033
610.308	0.0181373
610.386	0.0180733
610.464	0.0180077
610.542	0.0182735
610.620	0.0180866
610.698	0.0178538
610.776	0.0181099
610.854	0.0180020
610.933	0.0180890
611.011	0.0180596
611.089	0.0181426
611.167	0.0181047
611.245	0.0180965
611.323	0.0180913
611.401	0.0181846
611.479	0.0180994
611.558	0.0180077
611.636	0.0180212
611.714	0.0180516
611.792	0.0181143
611.870	0.0180746
611.948	0.0181309
612.026	0.0180636
612.104	0.0180891
612.183	0.0180555
612.261	0.0180670
612.339	0.0180021
612.417	0.0179568
612.495	0.0179993
612.573	0.0180740
612.651	0.0179838
612.729	0.0181403
612.808	0.0180599
612.886	0.0180433
612.964	0.0180590
613.042	0.0179491
613.120	0.0178574
613.198	0.0179379
613.276	0.0179528
613.354	0.0180431
613.433	0.0180534
613.511	0.0180576
613.589	0.0181218
613.667	0.0179386
613.745	0.0179771
613.823	0.0179724
613.901	0.0178361
613.979	0.0179251
614.058	0.0179847
614.136	0.0179565
614.214	0.0179418
614.292	0.0179648
614.370	0.0180545
614.448	0.0179593
614.526	0.0180482
614.604	0.0178451
614.683	0.0178786
614.761	0.0180486
614.839	0.0179546
614.917	0.0180029
614.995	0.0179762
615.073	0.0179829
615.151	0.0180116
615.229	0.0179849
615.308	0.0179704
615.386	0.0180146
615.464	0.0180251
615.542	0.0179581
615.620	0.0179454
615.698	0.0179504
615.776	0.0180762
615.854	0.0180618
615.933	0.0179653
616.011	0.0179861
616.089	0.0179765
616.167	0.0178915
616.245	0.0180886
616.323	0.0181582
616.401	0.0181360
616.479	0.0180062
616.558	0.0179893
616.636	0.0180439
616.714	0.0180214
616.792	0.0181111
616.870	0.0180413
616.948	0.0179001
617.026	0.0180277
617.104	0.0180275
617.183	0.0179119
617.261	0.0180840
617.339	0.0180080
617.417	0.0179079
617.495	0.0180023
617.573	0.0179614
617.651	0.0180092
617.729	0.0179919
617.808	0.0180413
617.886	0.0181229
617.964	0.0181689
618.042	0.0180389
618.120	0.0179617
618.198	0.0179565
618.276	0.0181731
618.354	0.0182090
618.433	0.0180737
618.511	0.0179851
618.589	0.0180367
618.667	0.0179758
618.745	0.0180057
618.823	0.0179781
618.901	0.0179276
618.979	0.0181277
619.058	0.0180442
619.136	0.0180469
619.214	0.0180665
619.292	0.0180143
619.370	0.0180089
619.448	0.0180210
619.526	0.0180410
619.604	0.0179912
619.683	0.0179250
619.761	0.0179588
619.839	0.0181550
619.917	0.0180367
619.995	0.0180344
620.073	0.0179736
620.151	0.0179915
620.229	0.0179865
620.308	0.0180656
620.386	0.0180200
620.464	0.0180257
620.542	0.0180925
620.620	0.0180447
620.698	0.0180004
620.776	0.0180296
620.854	0.0182110
620.933	0.0178481
621.011	0.0179557
621.089	0.0179399
621.167	0.0179897
621.245	0.0180621
621.323	0.0179271
621.401	0.0180376
621.479	0.0180708
621.558	0.0179913
621.636	0.0179887
621.714	0.0180340
621.792	0.0180693
621.870	0.0180568
621.948	0.0179799
622.026	0.0179362
622.104	0.0179610
622.183	0.0180653
622.261	0.0180620
622.339	0.0180450
622.417	0.0181121
622.495	0.0179516
622.573	0.0180663
622.651	0.0179630
622.729	0.0181136
622.808	0.0181852
622.886	0.0180727
622.964	0.0180652
623.042	0.0180546
623.120	0.0181386
623.198	0.0181444
623.276	0.0179881
623.354	0.0180085
623.433	0.0180550
623.511	0.0180289
623.589	0.0180649
623.667	0.0180391
623.745	0.0181644
623.823	0.0180875
623.901	0.0181194
623.979	0.0179977
624.058	0.0181980
624.136	0.0181565
624.214	0.0181380
624.292	0.0180843
624.370	0.0180215
624.448	0.0180959
624.526	0.0182361
624.604	0.0181603
624.683	0.0181357
624.761	0.0179041
624.839	0.0181162
624.917	0.0179987
624.995	0.0180305
625.073	0.0179995
625.151	0.0179473
625.229	0.0179269
625.308	0.0181021
625.386	0.0182406
625.464	0.0181440
625.542	0.0181850
625.620	0.0180440
625.698	0.0179936
625.776	0.0181119
625.854	0.0181677
625.933	0.0181165
626.011	0.0181136
626.089	0.0181265
626.167	0.0180583
626.245	0.0181146
626.323	0.0181503
626.401	0.0181204
626.479	0.0181657
626.558	0.0181053
626.636	0.0180633
626.714	0.0179701
626.792	0.0180647
626.870	0.0180538
626.948	0.0181397
627.026	0.0181301
627.104	0.0180781
627.183	0.0180889
627.261	0.0181481
627.339	0.0181803
627.417	0.0180656
627.495	0.0181258
627.573	0.0181023
627.651	0.0181465
627.729	0.0181679
627.808	0.0182130
627.886	0.0181557
627.964	0.0182583
628.042	0.0182360
628.120	0.0182400
628.198	0.0182638
628.276	0.0181468
628.354	0.0181584
628.433	0.0182782
628.511	0.0182806
628.589	0.0181642
628.667	0.0181907
628.745	0.0181593
628.823	0.0181911
628.901	0.0181948
628.979	0.0181683
629.058	0.0181551
629.136	0.0183592
629.214	0.0181910
629.292	0.0180744
629.370	0.0182573
629.448	0.0182198
629.526	0.0182142
629.604	0.0183231
629.683	0.0181908
629.761	0.0182622
629.839	0.0182296
629.917	0.0181639
629.995	0.0182179
630.073	0.0183289
630.151	0.0182420
630.229	0.0181930
630.308	0.0179540
630.386	0.0181286
630.464	0.0183305
630.542	0.0182722
630.620	0.0180907
630.698	0.0181489
630.776	0.0181994
630.854	0.0182243
630.933	0.0181388
631.011	0.0182111
631.089	0.0182180
631.167	0.0181707
631.245	0.0181693
631.323	0.0181030
631.401	0.0182431
631.479	0.0183079
631.558	0.0181384
631.636	0.0179882
631.714	0.0180490
631.792	0.0181718
631.870	0.0181435
631.948	0.0181111
632.026	0.0181009
632.104	0.0179238
632.183	0.0181516
632.261	0.0180427
632.339	0.0181488
632.417	0.0180743
632.495	0.0181894
632.573	0.0181345
632.651	0.0179874
632.729	0.0180195
632.808	0.0180772
632.886	0.0180913
632.964	0.0179797
633.042	0.0180460
633.120	0.0180073
633.198	0.0180154
633.276	0.0180420
633.354	0.0180556
633.433	0.0180831
633.511	0.0180325
633.589	0.0179139
633.667	0.0180397
633.745	0.0180487
633.823	0.0179191
633.901	0.0180206
633.979	0.0180901
634.058	0.0179652
634.136	0.0181181
634.214	0.0181032
634.292	0.0179180
634.370	0.0180687
634.448	0.0180948
634.526	0.0178812
634.604	0.0180120
634.683	0.0179688
634.761	0.0179735
634.839	0.0180202
634.917	0.0179914
634.995	0.0179980
635.073	0.0179554
635.151	0.0179493
635.229	0.0178624
635.308	0.0179017
635.386	0.0179195
635.464	0.0180470
635.542	0.0179967
635.620	0.0180016
635.698	0.0179757
635.776	0.0179119
635.854	0.0180600
635.933	0.0180889
636.011	0.0180538
636.089	0.0180731
636.167	0.0180361
636.245	0.0181225
636.323	0.0180943
636.401	0.0180943
636.479	0.0180977
636.558	0.0181367
636.636	0.0179664
636.714	0.0179034
636.792	0.0181338
636.870	0.0180808
636.948	0.0180215
637.026	0.0180103
637.104	0.0179148
637.183	0.0181463
637.261	0.0181528
637.339	0.0180853
637.417	0.0180184
637.495	0.0181318
637.573	0.0181129
637.651	0.0180085
637.729	0.0180058
637.808	0.0181619
637.886	0.0180552
637.964	0.0180750
638.042	0.0181458
638.120	0.0181971
638.198	0.0181178
638.276	0.0181027
638.354	0.0180606
638.433	0.0180293
638.511	0.0180806
638.589	0.0179182
638.667	0.0179844
638.745	0.0179642
638.823	0.0179229
638.901	0.0179605
638.979	0.0180320
639.058	0.0180096
639.136	0.0179858
639.214	0.0179825
639.292	0.0179085
639.370	0.0178729
639.448	0.0180630
639.526	0.0180329
639.604	0.0181705
639.683	0.0179813
639.761	0.0180193
639.839	0.0180755
639.917	0.0179474
639.995	0.0180669
640.073	0.0180325
640.151	0.0181374
640.229	0.0179374
640.308	0.0179700
640.386	0.0180074
640.464	0.0178412
640.542	0.0179348
640.620	0.0179793
640.698	0.0178723
640.776	0.0180122
640.854	0.0179763
640.933	0.0179762
641.011	0.0178862
641.089	0.0178239
641.167	0.0179301
641.245	0.0178765
641.323	0.0179658
641.401	0.0180516
641.479	0.0178310
641.558	0.0178481
641.636	0.0180006
641.714	0.0179209
641.792	0.0180264
641.870	0.0181002
641.948	0.0179810
642.026	0.0179778
642.104	0.0178979
642.183	0.0180398
642.261	0.0180648
642.339	0.0180685
642.417	0.0180411
642.495	0.0180337
642.573	0.0179258
642.651	0.0179203
642.729	0.0178941
642.808	0.0179792
642.886	0.0179172
642.964	0.0179220
643.042	0.0181607
643.120	0.0179932
643.198	0.0179599
643.276	0.0180455
643.354	0.0179823
643.433	0.0180341
643.511	0.0180899
643.589	0.0180640
643.667	0.0180022
643.745	0.0180005
643.823	0.0180502
643.901	0.0180753
643.979	0.0178994
644.058	0.0179773
644.136	0.0181485
644.214	0.0179737
644.292	0.0179549
644.370	0.0180289
644.448	0.0180303
644.526	0.0179334
644.604	0.0178013
644.683	0.0178337
644.761	0.0179470
644.839	0.0179542
644.917	0.0179174
644.995	0.0179538
645.073	0.0179435
645.151	0.0178999
645.229	0.0179340
645.308	0.0179442
645.386	0.0178607
645.464	0.0178617
645.542	0.0179463
645.620	0.0179636
645.698	0.0179624
645.776	0.0179917
645.854	0.0180288
645.933	0.0179163
646.011	0.0178982
646.089	0.0179770
646.167	0.0179790
646.245	0.0180200
646.323	0.0179582
646.401	0.0179377
646.479	0.0179996
646.558	0.0179554
646.636	0.0179893
646.714	0.0178500
646.792	0.0179217
646.870	0.0180509
646.948	0.0178509
647.026	0.0179050
647.104	0.0179929
647.183	0.0179630
647.261	0.0181123
647.339	0.0180241
647.417	0.0179809
647.495	0.0179637
647.573	0.0179571
647.651	0.0179914
647.729	0.0180080
647.808	0.0179777
647.886	0.0179939
647.964	0.0179994
648.042	0.0179558
648.120	0.0180391
648.198	0.0182010
648.276	0.0179663
648.354	0.0179460
648.433	0.0179548
648.511	0.0181422
648.589	0.0181197
648.667	0.0180970
648.745	0.0179416
648.823	0.0179324
648.901	0.0179816
648.979	0.0179566
649.058	0.0179958
649.136	0.0180804
649.214	0.0181673
649.292	0.0180022
649.370	0.0180148
649.448	0.0179619
649.526	0.0180267
649.604	0.0181163
649.683	0.0180119
649.761	0.0181304
649.839	0.0179924
649.917	0.0181097
649.995	0.0180962
650.073	0.0181281
650.151	0.0179601
650.229	0.0181023
650.308	0.0181095
650.386	0.0180642
650.464	0.0181680
650.542	0.0180778
650.620	0.0179528
650.698	0.0181835
650.776	0.0181648
650.854	0.0180670
650.933	0.0181781
651.011	0.0179343
651.089	0.0180451
651.167	0.0180920
651.245	0.0181355
651.323	0.0179417
651.401	0.0181667
651.479	0.0180807
651.558	0.0180851
651.636	0.0180756
651.714	0.0181709
651.792	0.0180389
651.870	0.0179694
651.948	0.0180403
652.026	0.0181172
652.104	0.0180527
652.183	0.0180657
652.261	0.0180766
652.339	0.0180597
652.417	0.0180176
652.495	0.0180532
652.573	0.0180551
652.651	0.0181357
652.729	0.0179762
652.808	0.0179404
652.886	0.0179786
652.964	0.0178959
653.042	0.0180892
653.120	0.0180299
653.198	0.0180392
653.276	0.0180395
653.354	0.0181008
653.433	0.0179413
653.511	0.0181244
653.589	0.0182567
653.667	0.0180917
653.745	0.0180273
653.823	0.0181261
653.901	0.0180691
653.979	0.0180742
654.058	0.0179824
654.136	0.0179588
654.214	0.0180614
654.292	0.0182713
654.370	0.0181563
654.448	0.0180714
654.526	0.0180656
654.604	0.0178931
654.683	0.0181812
654.761	0.0181342
654.839	0.0180216
654.917	0.0180593
654.995	0.0181157
655.073	0.0180699
655.151	0.0180092
655.229	0.0181287
655.308	0.0179575
655.386	0.0180167
655.464	0.0180038
655.542	0.0180238
655.620	0.0180293
655.698	0.0179200
655.776	0.0180402
655.854	0.0181358
655.933	0.0179777
656.011	0.0180335
656.089	0.0179915
656.167	0.0179749
656.245	0.0180436
656.323	0.0179744
656.401	0.0180452
656.479	0.0180357
656.558	0.0180016
656.636	0.0179749
656.714	0.0180202
656.792	0.0179958
656.870	0.0180038
656.948	0.0181568
657.026	0.0180284
657.104	0.0180410
657.183	0.0180564
657.261	0.0180266
657.339	0.0179342
657.417	0.0179936
657.495	0.0178951
657.573	0.0180496
657.651	0.0181166
657.729	0.0179734
657.808	0.0179659
657.886	0.0180506
657.964	0.0180591
658.042	0.0181251
658.120	0.0180591
658.198	0.0179466
658.276	0.0179599
658.354	0.0181259
658.433	0.0181451
658.511	0.0179848
658.589	0.0180812
658.667	0.0180635
658.745	0.0180051
658.823	0.0180793
658.901	0.0180582
658.979	0.0179094
659.058	0.0179796
659.136	0.0180540
659.214	0.0179893
659.292	0.0179960
659.370	0.0179963
659.448	0.0180470
659.526	0.0180819
659.604	0.0179830
659.683	0.0179176
659.761	0.0181567
659.839	0.0180672
659.917	0.0178075
659.995	0.0179537
660.073	0.0181181
660.151	0.0179789
660.229	0.0179523
660.308	0.0179763
660.386	0.0181164
660.464	0.0179974
660.542	0.0180222
660.620	0.0179962
660.698	0.0179549
660.776	0.0180360
660.854	0.0179964
660.933	0.0180106
661.011	0.0181455
661.089	0.0181324
661.167	0.0179195
661.245	0.0179582
661.323	0.0179982
661.401	0.0180120
661.479	0.0180650
661.558	0.0179324
661.636	0.0179919
661.714	0.0180520
661.792	0.0179762
661.870	0.0180744
661.948	0.0179270
662.026	0.0178979
662.104	0.0180633
662.183	0.0180833
662.261	0.0181142
662.339	0.0180322
662.417	0.0180267
662.495	0.0181282
662.573	0.0181510
662.651	0.0181199
662.729	0.0180416
662.808	0.0179224
662.886	0.0179541
662.964	0.0180289
663.042	0.0180347
663.120	0.0179965
663.198	0.0181010
663.276	0.0181615
663.354	0.0180862
663.433	0.0180607
663.511	0.0180688
663.589	0.0179365
663.667	0.0179585
663.745	0.0179257
663.823	0.0179794
663.901	0.0180595
663.979	0.0180146
664.058	0.0179509
664.136	0.0180853
664.214	0.0180668
664.292	0.0180061
664.370	0.0180274
664.448	0.0180164
664.526	0.0179565
664.604	0.0180593
664.683	0.0180097
664.761	0.0179391
664.839	0.0179680
664.917	0.0179368
664.995	0.0181501
665.073	0.0180745
665.151	0.0179728
665.229	0.0179501
665.308	0.0178805
665.386	0.0180069
665.464	0.0180708
665.542	0.0179910
665.620	0.0179637
665.698	0.0179992
665.776	0.0179900
665.854	0.0178123
665.933	0.0178285
666.011	0.0178314
666.089	0.0180985
666.167	0.0179426
666.245	0.0177115
666.323	0.0178455
666.401	0.0178008
666.479	0.0178281
666.558	0.0178325
666.636	0.0178345
666.714	0.0177264
666.792	0.0176947
666.870	0.0178016
666.948	0.0177280
667.026	0.0178638
667.104	0.0178843
667.183	0.0178176
667.261	0.0180042
667.339	0.0178033
667.417	0.0179401
667.495	0.0177963
667.573	0.0178625
667.651	0.0178988
667.729	0.0178989
667.808	0.0179148
667.886	0.0178474
667.964	0.0178220
668.042	0.0179716
668.120	0.0179752
668.198	0.0178666
668.276	0.0178334
668.354	0.0177613
668.433	0.0179511
668.511	0.0178545
668.589	0.0179624
668.667	0.0180177
668.745	0.0179115
668.823	0.0178806
668.901	0.0177953
668.979	0.0177691
669.058	0.0179583
669.136	0.0179783
669.214	0.0179265
669.292	0.0179097
669.370	0.0179176
669.448	0.0179101
669.526	0.0181099
669.604	0.0178751
669.683	0.0178009
669.761	0.0178271
669.839	0.0178599
669.917	0.0176897
669.995	0.0179045
670.073	0.0179917
670.151	0.0178999
670.229	0.0177928
670.308	0.0179354
670.386	0.0178631
670.464	0.0178288
670.542	0.0178324
670.620	0.0178353
670.698	0.0178687
670.776	0.0178917
670.854	0.0178556
670.933	0.0178985
671.011	0.0179076
671.089	0.0178745
671.167	0.0178744
671.245	0.0179824
671.323	0.0180191
671.401	0.0178934
671.479	0.0179533
671.558	0.0180053
671.636	0.0179501
671.714	0.0179527
671.792	0.0179713
671.870	0.0179839
671.948	0.0179420
672.026	0.0181092
672.104	0.0179124
672.183	0.0178986
672.261	0.0179891
672.339	0.0179372
672.417	0.0178535
672.495	0.0178864
672.573	0.0179444
672.651	0.0180247
672.729	0.0179717
672.808	0.0178485
672.886	0.0178278
672.964	0.0180676
673.042	0.0180232
673.120	0.0180083
673.198	0.0180202
673.276	0.0180996
673.354	0.0179626
673.433	0.0180383
673.511	0.0181790
673.589	0.0180075
673.667	0.0179419
673.745	0.0180541
673.823	0.0179876
673.901	0.0180842
673.979	0.0180136
674.058	0.0181214
674.136	0.0179338
674.214	0.0181580
674.292	0.0181366
674.370	0.0180993
674.448	0.0180632
674.526	0.0181516
674.604	0.0182148
674.683	0.0182899
674.761	0.0183196
674.839	0.0182677
674.917	0.0182402
674.995	0.0182598
675.073	0.0182021
675.151	0.0182330
675.229	0.0182623
675.308	0.0182199
675.386	0.0180484
675.464	0.0180533
675.542	0.0180965
675.620	0.0179600
675.698	0.0178961
675.776	0.0178449
675.854	0.0178331
675.933	0.0177746
676.011	0.0178114
676.089	0.0178911
676.167	0.0177963
676.245	0.0176853
676.323	0.0177220
676.401	0.0177700
676.479	0.0177006
676.558	0.0178008
676.636	0.0176114
676.714	0.0177354
676.792	0.0179831
676.870	0.0180482
676.948	0.0179186
677.026	0.0178765
677.104	0.0178798
677.183	0.0179250
677.261	0.0178590
677.339	0.0180835
677.417	0.0179472
677.495	0.0180136
677.573	0.0179040
677.651	0.0179950
677.729	0.0180939
677.808	0.0180712
677.886	0.0180511
677.964	0.0180120
678.042	0.0181319
678.120	0.0181425
678.198	0.0181897
678.276	0.0181684
678.354	0.0181872
678.433	0.0182380
678.511	0.0182786
678.589	0.0182346
678.667	0.0182590
678.745	0.0181793
678.823	0.0182893
678.901	0.0183805
678.979	0.0183866
679.058	0.0183364
679.136	0.0183969
679.214	0.0184310
679.292	0.0182951
679.370	0.0183114
679.448	0.0184500
679.526	0.0181144
679.604	0.0182198
679.683	0.0182810
679.761	0.0181244
679.839	0.0181088
679.917	0.0182156
679.995	0.0181707
680.073	0.0181699
680.151	0.0181168
680.229	0.0178887
680.308	0.0180977
680.386	0.0180869
680.464	0.0180459
680.542	0.0180429
680.620	0.0179101
680.698	0.0180716
680.776	0.0180310
680.854	0.0180964
680.933	0.0180486
681.011	0.0180331
681.089	0.0180287
681.167	0.0178202
681.245	0.0179451
681.323	0.0180384
681.401	0.0179665
681.479	0.0178091
681.558	0.0177070
681.636	0.0178481
681.714	0.0178699
681.792	0.0176057
681.870	0.0177135
681.948	0.0175366
682.026	0.0176956
682.104	0.0177115
682.183	0.0177876
682.261	0.0178699
682.339	0.0177509
682.417	0.0178634
682.495	0.0179033
682.573	0.0179421
682.651	0.0180856
682.729	0.0180283
682.808	0.0180601
682.886	0.0182623
682.964	0.0181608
683.042	0.0183395
683.120	0.0182607
683.198	0.0183596
683.276	0.0184001
683.354	0.0183911
683.433	0.0184133
683.511	0.0184213
683.589	0.0183284
683.667	0.0183534
683.745	0.0185387
683.823	0.0184492
683.901	0.0183926
683.979	0.0183361
684.058	0.0183931
684.136	0.0183926
684.214	0.0183487
684.292	0.0183334
684.370	0.0182110
684.448	0.0182870
684.526	0.0181631
684.604	0.0180691
684.683	0.0181289
684.761	0.0180546
684.839	0.0179491
684.917	0.0180089
684.995	0.0180427
685.073	0.0179679
685.151	0.0179131
685.229	0.0178654
685.308	0.0177739
685.386	0.0178471
685.464	0.0178391
685.542	0.0178106
685.620	0.0177765
685.698	0.0179431
685.776	0.0177689
685.854	0.0177395
685.933	0.0177444
686.011	0.0177820
686.089	0.0177957
686.167	0.0178418
686.245	0.0178409
686.323	0.0179299
686.401	0.0178518
686.479	0.0179538
686.558	0.0178788
686.636	0.0180666
686.714	0.0179819
686.792	0.0179187
686.870	0.0181580
686.948	0.0180154
687.026	0.0181680
687.104	0.0181412
687.183	0.0180605
687.261	0.0180943
687.339	0.0181601
687.417	0.0181532
687.495	0.0180532
687.573	0.0180025
687.651	0.0179897
687.729	0.0179805
687.808	0.0178835
687.886	0.0179185
687.964	0.0178555
688.042	0.0178135
688.120	0.0177745
688.198	0.0178557
688.276	0.0178267
688.354	0.0178760
688.433	0.0179703
688.511	0.0180218
688.589	0.0180186
688.667	0.0180504
688.745	0.0180860
688.823	0.0181493
688.901	0.0182413
688.979	0.0183380
689.058	0.0181136
689.136	0.0183057
689.214	0.0183414
689.292	0.0183264
689.370	0.0183449
689.448	0.0183699
689.526	0.0183277
689.604	0.0183498
689.683	0.0183886
689.761	0.0183292
689.839	0.0182622
689.917	0.0182699
689.995	0.0182837
690.073	0.0182857
690.151	0.0181183
690.229	0.0180897
690.308	0.0182291
690.386	0.0181493
690.464	0.0179427
690.542	0.0179214
690.620	0.0179201
690.698	0.0177766
690.776	0.0178465
690.854	0.0178016
690.933	0.0175659
691.011	0.0178028
691.089	0.0177998
691.167	0.0175370
691.245	0.0176223
691.323	0.0175681
691.401	0.0174813
691.479	0.0175357
691.558	0.0177411
691.636	0.0176139
691.714	0.0176014
691.792	0.0176543
691.870	0.0177415
691.948	0.0177357
692.026	0.0178222
692.104	0.0178948
692.183	0.0179094
692.261	0.0180020
692.339	0.0181268
692.417	0.0181340
692.495	0.0180790
692.573	0.0180946
692.651	0.0181955
692.729	0.0182232
692.808	0.0181630
692.886	0.0181550
692.964	0.0181993
693.042	0.0180920
693.120	0.0180997
693.198	0.0180942
693.276	0.0181367
693.354	0.0181857
693.433	0.0181462
693.511	0.0180917
693.589	0.0181262
693.667	0.0181951
693.745	0.0179654
693.823	0.0179935
693.901	0.0179568
693.979	0.0179624
694.058	0.0179366
694.136	0.0178082
694.214	0.0179630
694.292	0.0180196
694.370	0.0179155
694.448	0.0178689
694.526	0.0177951
694.604	0.0180133
694.683	0.0179016
694.761	0.0179762
694.839	0.0180386
694.917	0.0182001
694.995	0.0180288
695.073	0.0180922
695.151	0.0180621
695.229	0.0182138
695.308	0.0181059
695.386	0.0181016
695.464	0.0179957
695.542	0.0179700
695.620	0.0181788
695.698	0.0180394
695.776	0.0181127
695.854	0.0180428
695.933	0.0179609
696.011	0.0180650
696.089	0.0181028
696.167	0.0180389
696.245	0.0180130
696.323	0.0180482
696.401	0.0180556
696.479	0.0179733
696.558	0.0180231
696.636	0.0180525
696.714	0.0180064
696.792	0.0179974
696.870	0.0180393
696.948	0.0179680
697.026	0.0179033
697.104	0.0180022
697.183	0.0178484
697.261	0.0178065
697.339	0.0179469
697.417	0.0177872
697.495	0.0178648
697.573	0.0178108
697.651	0.0178810
697.729	0.0177511
697.808	0.0178101
697.886	0.0179556
697.964	0.0178974
698.042	0.0179138
698.120	0.0178528
698.198	0.0179587
698.276	0.0180692
698.354	0.0181270
698.433	0.0180793
698.511	0.0182616
698.589	0.0182111
698.667	0.0181966
698.745	0.0182419
698.823	0.0184872
698.901	0.0182229
698.979	0.0183921
699.058	0.0185590
699.136	0.0185074
699.214	0.0186217
699.292	0.0186436
699.370	0.0185622
699.448	0.0185277
699.526	0.0184332
699.604	0.0184322
699.683	0.0184471
699.761	0.0182888
699.839	0.0181717
699.917	0.0183050
699.995	0.0181911
700.073	0.0180502
700.151	0.0180069
700.229	0.0180704
700.308	0.0179108
700.386	0.0178676
700.464	0.0179842
700.542	0.0179085
700.620	0.0177885
700.698	0.0177539
700.776	0.0179242
700.854	0.0178228
700.933	0.0178479
701.011	0.0179638
701.089	0.0178024
701.167	0.0179745
701.245	0.0179093
701.323	0.0179652
701.401	0.0179843
701.479	0.0180210
701.558	0.0180527
701.636	0.0180267
701.714	0.0182083
701.792	0.0183179
701.870	0.0182217
701.948	0.0181907
702.026	0.0183123
702.104	0.0182406
702.183	0.0181560
702.261	0.0181720
702.339	0.0182088
702.417	0.0182147
702.495	0.0181033
702.573	0.0179341
702.651	0.0180119
702.729	0.0179810
702.808	0.0178171
702.886	0.0177773
702.964	0.0178970
703.042	0.0177966
703.120	0.0176672
703.198	0.0178356
703.276	0.0178299
703.354	0.0177590
703.433	0.0176328
703.511	0.0179917
703.589	0.0180363
703.667	0.0178805
703.745	0.0179857
703.823	0.0180097
703.901	0.0179368
703.979	0.0181605
704.058	0.0181980
704.136	0.0182241
704.214	0.0182263
704.292	0.0182710
704.370	0.0182275
704.448	0.0184022
704.526	0.0182274
704.604	0.0182336
704.683	0.0185120
704.761	0.0183596
704.839	0.0183816
704.917	0.0182898
704.995	0.0182192
705.073	0.0182394
705.151	0.0183374
705.229	0.0181074
705.308	0.0181057
705.386	0.0180553
705.464	0.0180578
705.542	0.0179828
705.620	0.0180376
705.698	0.0180723
705.776	0.0180033
705.854	0.0179576
705.933	0.0181422
706.011	0.0180336
706.089	0.0179827
706.167	0.0181142
706.245	0.0181651
706.323	0.0179993
706.401	0.0181473
706.479	0.0180728
706.558	0.0179749
706.636	0.0180578
706.714	0.0180403
706.792	0.0180785
706.870	0.0181259
706.948	0.0180714
707.026	0.0181023
707.104	0.0183295
707.183	0.0183802
707.261	0.0183559
707.339	0.0183378
707.417	0.0183571
707.495	0.0185003
707.573	0.0185828
707.651	0.0186242
707.729	0.0185773
707.808	0.0186545
707.886	0.0185490
707.964	0.0185401
708.042	0.0183292
708.120	0.0183402
708.198	0.0182098
708.276	0.0181375
708.354	0.0179442
708.433	0.0178886
708.511	0.0177737
708.589	0.0175833
708.667	0.0175688
708.745	0.0175326
708.823	0.0173537
708.901	0.0174288
708.979	0.0172957
709.058	0.0172663
709.136	0.0173770
709.214	0.0174604
709.292	0.0175811
709.370	0.0176533
709.448	0.0177789
709.526	0.0178148
709.604	0.0178318
709.683	0.0179680
709.761	0.0180909
709.839	0.0183331
709.917	0.0182258
709.995	0.0182926
710.073	0.0183978
710.151	0.0184514
710.229	0.0184570
710.308	0.0186015
710.386	0.0184335
710.464	0.0183980
710.542	0.0185798
710.620	0.0186285
710.698	0.0184044
710.776	0.0183897
710.854	0.0185196
710.933	0.0182879
711.011	0.0183547
711.089	0.0181637
711.167	0.0182321
711.245	0.0180985
711.323	0.0181583
711.401	0.0179681
711.479	0.0180525
711.558	0.0179383
711.636	0.0177702
711.714	0.0179918
711.792	0.0179848
711.870	0.0179086
711.948	0.0179014
712.026	0.0178201
712.104	0.0180975
712.183	0.0181036
712.261	0.0180943
712.339	0.0180553
712.417	0.0180231
712.495	0.0180325
712.573	0.0180733
712.651	0.0181432
712.729	0.0180861
712.808	0.0183106
712.886	0.0179820
712.964	0.0181420
713.042	0.0182018
713.120	0.0181038
713.198	0.0179755
713.276	0.0179387
713.354	0.0179596
713.433	0.0178812
713.511	0.0178374
713.589	0.0177966
713.667	0.0178597
713.745	0.0178481
713.823	0.0178786
713.901	0.0178807
713.979	0.0178488
714.058	0.0177913
714.136	0.0177254
714.214	0.0177024
714.292	0.0178722
714.370	0.0178420
714.448	0.0178240
714.526	0.0179908
714.604	0.0179818
714.683	0.0180566
714.761	0.0181293
714.839	0.0181188
714.917	0.0183104
714.995	0.0181893
715.073	0.0181568
715.151	0.0181993
715.229	0.0182874
715.308	0.0184027
715.386	0.0183295
715.464	0.0185020
715.542	0.0183135
715.620	0.0182577
715.698	0.0182447
715.776	0.0182920
715.854	0.0182591
715.933	0.0181689
716.011	0.0181236
716.089	0.0181374
716.167	0.0180879
716.245	0.0178960
716.323	0.0177946
716.401	0.0177329
716.479	0.0177834
716.558	0.0176618
716.636	0.0176038
716.714	0.0175386
716.792	0.0175635
716.870	0.0175771
716.948	0.0176047
717.026	0.0175497
717.104	0.0175790
717.183	0.0175790
717.261	0.0176221
717.339	0.0176785
717.417	0.0177338
717.495	0.0177658
717.573	0.0178711
717.651	0.0179420
717.729	0.0181480
717.808	0.0183368
717.886	0.0183669
717.964	0.0183982
718.042	0.0186221
718.120	0.0186118
718.198	0.0187633
718.276	0.0187450
718.354	0.0187272
718.433	0.0188008
718.511	0.0187198
718.589	0.0186714
718.667	0.0187072
718.745	0.0185748
718.823	0.0184177
718.901	0.0184784
718.979	0.0184045
719.058	0.0182841
719.136	0.0181335
719.214	0.0180105
719.292	0.0181141
719.370	0.0180591
719.448	0.0178840
719.526	0.0177370
719.604	0.0177885
719.683	0.0177097
719.761	0.0176757
719.839	0.0175754
719.917	0.0174700
719.995	0.0174955
720.073	0.0174135
720.151	0.0174514
720.229	0.0174287
720.308	0.0172919
720.386	0.0175086
720.464	0.0174984
720.542	0.0174616
720.620	0.0175892
720.698	0.0176741
720.776	0.0177225
720.854	0.0179091
720.933	0.0179640
721.011	0.0179755
721.089	0.0181404
721.167	0.0182082
721.245	0.0183479
721.323	0.0185091
721.401	0.0183396
721.479	0.0183995
721.558	0.0183810
721.636	0.0183947
721.714	0.0183900
721.792	0.0183054
721.870	0.0182876
721.948	0.0182785
722.026	0.0181680
722.104	0.0182144
722.183	0.0180088
722.261	0.0180645
722.339	0.0180200
722.417	0.0178560
722.495	0.0178027
722.573	0.0177419
722.651	0.0177023
722.729	0.0178652
722.808	0.0177377
722.886	0.0177322
722.964	0.0177884
723.042	0.0177599
723.120	0.0178403
723.198	0.0177961
723.276	0.0178839
723.354	0.0179369
723.433	0.0180681
723.511	0.0181984
723.589	0.0182333
723.667	0.0182265
723.745	0.0183076
723.823	0.0183611
723.901	0.0184348
723.979	0.0184258
724.058	0.0184779
724.136	0.0185130
724.214	0.0184039
724.292	0.0185010
724.370	0.0183623
724.448	0.0181821
724.526	0.0182904
724.604	0.0181721
724.683	0.0181133
724.761	0.0179886
724.839	0.0179357
724.917	0.0180162
724.995	0.0180342
725.073	0.0179826
725.151	0.0179431
725.229	0.0178699
725.308	0.0179622
725.386	0.0180731
725.464	0.0179477
725.542	0.0180083
725.620	0.0179229
725.698	0.0178629
725.776	0.0180456
725.854	0.0181895
725.933	0.0179951
726.011	0.0179835
726.089	0.0179342
726.167	0.0179560
726.245	0.0179834
726.323	0.0178681
726.401	0.0178659
726.479	0.0180317
726.558	0.0178500
726.636	0.0179148
726.714	0.0179161
726.792	0.0179683
726.870	0.0178479
726.948	0.0178950
727.026	0.0176279
727.104	0.0177579
727.183	0.0176845
727.261	0.0176447
727.339	0.0177817
727.417	0.0175959
727.495	0.0175651
727.573	0.0178291
727.651	0.0179083
727.729	0.0177555
727.808	0.0181130
727.886	0.0181426
727.964	0.0181491
728.042	0.0183543
728.120	0.0184746
728.198	0.0185314
728.276	0.0186153
728.354	0.0186211
728.433	0.0188009
728.511	0.0185587
728.589	0.0188438
728.667	0.0188212
728.745	0.0188075
728.823	0.0186125
728.901	0.0186978
728.979	0.0188422
729.058	0.0186771
729.136	0.0185918
729.214	0.0185835
729.292	0.0184843
729.370	0.0184982
729.448	0.0185227
729.526	0.0185058
729.604	0.0184206
729.683	0.0182159
729.761	0.0181059
729.839	0.0181531
729.917	0.0179704
729.995	0.0177516
730.073	0.0177180
730.151	0.0176974
730.229	0.0175659
730.308	0.0175643
730.386	0.0174454
730.464	0.0174091
730.542	0.0173042
730.620	0.0171982
730.698	0.0172258
730.776	0.0171689
730.854	0.0172850
730.933	0.0172112
731.011	0.0172940
731.089	0.0175046
731.167	0.0174554
731.245	0.0173405
731.323	0.0174754
731.401	0.0175360
731.479	0.0177517
731.558	0.0177644
731.636	0.0178223
731.714	0.0177155
731.792	0.0178610
731.870	0.0178726
731.948	0.0179901
732.026	0.0181961
732.104	0.0184306
732.183	0.0183960
732.261	0.0185564
732.339	0.0187243
732.417	0.0187047
732.495	0.0188380
732.573	0.0187644
732.651	0.0189804
732.729	0.0189964
732.808	0.0189400
732.886	0.0187407
732.964	0.0188351
733.042	0.0187736
733.120	0.0187082
733.198	0.0186298
733.276	0.0186835
733.354	0.0184940
733.433	0.0182954
733.511	0.0183977
733.589	0.0183282
733.667	0.0182597
733.745	0.0181040
733.823	0.0179336
733.901	0.0181470
733.979	0.0181927
734.058	0.0178420
734.136	0.0177422
734.214	0.0177748
734.292	0.0176414
734.370	0.0175664
734.448	0.0176379
734.526	0.0175191
734.604	0.0175644
734.683	0.0175048
734.761	0.0174899
734.839	0.0174921
734.917	0.0175298
734.995	0.0175100
735.073	0.0174001
735.151	0.0176848
735.229	0.0176121
735.308	0.0176641
735.386	0.0176362
735.464	0.0176180
735.542	0.0177742
735.620	0.0176991
735.698	0.0177117
735.776	0.0176817
735.854	0.0175988
735.933	0.0178699
736.011	0.0177463
736.089	0.0177513
736.167	0.0177821
736.245	0.0176949
736.323	0.0178003
736.401	0.0179837
736.479	0.0178286
736.558	0.0178062
736.636	0.0178584
736.714	0.0181356
736.792	0.0180267
736.870	0.0181174
736.948	0.0182232
737.026	0.0182030
737.104	0.0183627
737.183	0.0181836
737.261	0.0182762
737.339	0.0182627
737.417	0.0182565
737.495	0.0183192
737.573	0.0181979
737.651	0.0182779
737.729	0.0182647
737.808	0.0183015
737.886	0.0181736
737.964	0.0182382
738.042	0.0182576
738.120	0.0181466
738.198	0.0180640
738.276	0.0181275
738.354	0.0180262
738.433	0.0180984
738.511	0.0181505
738.589	0.0181521
738.667	0.0180903
738.745	0.0180550
738.823	0.0180785
738.901	0.0181915
738.979	0.0181998
739.058	0.0182934
739.136	0.0181213
739.214	0.0179618
739.292	0.0179523
739.370	0.0180399
739.448	0.0180375
739.526	0.0180343
739.604	0.0180038
739.683	0.0179075
739.761	0.0180350
739.839	0.0180161
739.917	0.0180553
739.995	0.0181178
740.073	0.0180325
740.151	0.0180835
740.229	0.0179360
740.308	0.0182042
740.386	0.0180413
740.464	0.0178407
740.542	0.0180326
740.620	0.0178496
740.698	0.0177352
740.776	0.0178478
740.854	0.0178541
740.933	0.0177664
741.011	0.0176839
741.089	0.0177438
741.167	0.0176121
741.245	0.0176087
741.323	0.0175829
741.401	0.0175707
741.479	0.0175314
741.558	0.0175450
741.636	0.0175813
741.714	0.0175226
741.792	0.0176292
741.870	0.0176617
741.948	0.0177210
742.026	0.0177691
742.104	0.0179578
742.183	0.0177271
742.261	0.0178297
742.339	0.0179360
742.417	0.0179337
742.495	0.0179165
742.573	0.0180255
742.651	0.0179704
742.729	0.0180762
742.808	0.0182264
742.886	0.0180357
742.964	0.0181988
743.042	0.0182609
743.120	0.0182777
743.198	0.0183552
743.276	0.0183016
743.354	0.0184068
743.433	0.0182721
743.511	0.0184180
743.589	0.0186172
743.667	0.0184286
743.745	0.0182900
743.823	0.0182584
743.901	0.0182705
743.979	0.0182648
744.058	0.0181875
744.136	0.0181219
744.214	0.0180389
744.292	0.0179448
744.370	0.0180251
744.448	0.0179136
744.526	0.0178481
744.604	0.0178060
744.683	0.0179842
744.761	0.0179047
744.839	0.0177420
744.917	0.0178076
744.995	0.0179163
745.073	0.0178887
745.151	0.0178948
745.229	0.0179436
745.308	0.0178924
745.386	0.0179862
745.464	0.0178938
745.542	0.0179770
745.620	0.0179173
745.698	0.0179762
745.776	0.0180660
745.854	0.0179720
745.933	0.0179375
746.011	0.0180256
746.089	0.0181007
746.167	0.0182031
746.245	0.0181438
746.323	0.0180697
746.401	0.0180704
746.479	0.0182214
746.558	0.0182084
746.636	0.0181342
746.714	0.0182822
746.792	0.0181308
746.870	0.0179958
746.948	0.0179445
747.026	0.0179872
747.104	0.0179317
747.183	0.0179356
747.261	0.0177919
747.339	0.0178424
747.417	0.0179050
747.495	0.0178298
747.573	0.0179210
747.651	0.0180540
747.729	0.0178298
747.808	0.0179355
747.886	0.0179224
747.964	0.0179889
748.042	0.0178797
748.120	0.0181630
748.198	0.0178941
748.276	0.0180390
748.354	0.0180050
748.433	0.0179350
748.511	0.0179060
748.589	0.0179827
748.667	0.0178524
748.745	0.0180469
748.823	0.0179430
748.901	0.0178731
748.979	0.0178987
749.058	0.0177969
749.136	0.0178861
749.214	0.0177802
749.292	0.0178991
749.370	0.0179289
749.448	0.0178201
749.526	0.0179792
749.604	0.0181522
749.683	0.0181187
749.761	0.0180446
749.839	0.0182008
749.917	0.0181716
749.995	0.0181866
750.073	0.0182582
750.151	0.0183127
750.229	0.0183705
750.308	0.0182224
750.386	0.0182025
750.464	0.0182935
750.542	0.0183418
750.620	0.0182360
750.698	0.0183073
750.776	0.0181731
750.854	0.0181705
750.933	0.0181635
751.011	0.0181821
751.089	0.0181937
751.167	0.0181511
751.245	0.0180677
751.323	0.0179928
751.401	0.0180771
751.479	0.0181718
751.558	0.0180209
751.636	0.0181110
751.714	0.0180614
751.792	0.0180111
751.870	0.0181200
751.948	0.0181239
752.026	0.0180679
752.104	0.0180905
752.183	0.0181821
752.261	0.0181347
752.339	0.0179836
752.417	0.0179303
752.495	0.0178104
752.573	0.0179694
752.651	0.0177396
752.729	0.0175787
752.808	0.0176912
752.886	0.0177695
752.964	0.0175932
753.042	0.0176779
753.120	0.0176868
753.198	0.0177737
753.276	0.0178036
753.354	0.0177467
753.433	0.0177842
753.511	0.0178918
753.589	0.0180747
753.667	0.0179351
753.745	0.0178762
753.823	0.0179132
753.901	0.0180082
753.979	0.0180493
754.058	0.0180154
754.136	0.0179662
754.214	0.0180505
754.292	0.0180196
754.370	0.0179578
754.448	0.0180779
754.526	0.0181854
754.604	0.0181269
754.683	0.0182181
754.761	0.0181545
754.839	0.0183061
754.917	0.0183643
754.995	0.0182487
755.073	0.0182101
755.151	0.0184013
755.229	0.0183047
755.308	0.0183022
755.386	0.0183611
755.464	0.0183207
755.542	0.0182195
755.620	0.0183212
755.698	0.0183299
755.776	0.0183008
755.854	0.0181975
755.933	0.0182629
756.011	0.0182181
756.089	0.0179925
756.167	0.0180466
756.245	0.0180508
756.323	0.0179891
756.401	0.0180750
756.479	0.0180510
756.558	0.0179675
756.636	0.0181311
756.714	0.0180408
756.792	0.0179037
756.870	0.0179855
756.948	0.0179739
757.026	0.0179474
757.104	0.0178497
757.183	0.0178528
757.261	0.0179807
757.339	0.0180251
757.417	0.0179610
757.495	0.0179002
757.573	0.0179164
757.651	0.0179148
757.729	0.0178385
757.808	0.0178073
757.886	0.0179332
757.964	0.0178060
758.042	0.0177477
758.120	0.0176896
758.198	0.0179010
758.276	0.0177235
758.354	0.0178147
758.433	0.0178333
758.511	0.0177029
758.589	0.0177336
758.667	0.0178139
758.745	0.0176937
758.823	0.0177156
758.901	0.0178045
758.979	0.0177428
759.058	0.0178180
759.136	0.0178445
759.214	0.0180258
759.292	0.0180918
759.370	0.0180540
759.448	0.0179790
759.526	0.0181567
759.604	0.0182699
759.683	0.0182059
759.761	0.0182993
759.839	0.0184667
759.917	0.0182670
759.995	0.0184115
760.073	0.0183969
760.151	0.0183962
760.229	0.0183589
760.308	0.0184280
760.386	0.0184402
760.464	0.0185275
760.542	0.0183752
760.620	0.0182938
760.698	0.0184444
760.776	0.0183917
760.854	0.0183566
760.933	0.0182724
761.011	0.0181877
761.089	0.0181580
761.167	0.0181778
761.245	0.0182894
761.323	0.0179857
761.401	0.0178414
761.479	0.0178011
761.558	0.0178476
761.636	0.0177707
761.714	0.0177772
761.792	0.0178163
761.870	0.0177999
761.948	0.0174742
762.026	0.0174723
762.104	0.0177287
762.183	0.0175697
762.261	0.0175623
762.339	0.0176237
762.417	0.0175941
762.495	0.0176044
762.573	0.0176642
762.651	0.0176213
762.729	0.0176539
762.808	0.0178743
762.886	0.0178435
762.964	0.0179023
763.042	0.0179009
763.120	0.0179124
763.198	0.0179783
763.276	0.0180047
763.354	0.0180299
763.433	0.0179763
763.511	0.0178583
763.589	0.0179308
763.667	0.0179245
763.745	0.0177994
763.823	0.0179446
763.901	0.0179869
763.979	0.0179361
764.058	0.0179713
764.136	0.0178693
764.214	0.0178972
764.292	0.0179394
764.370	0.0178962
764.448	0.0177481
764.526	0.0178276
764.604	0.0177135
764.683	0.0179269
764.761	0.0179932
764.839	0.0180605
764.917	0.0181086
764.995	0.0180626
765.073	0.0181572
765.151	0.0180911
765.229	0.0182191
765.308	0.0183927
765.386	0.0183638
765.464	0.0182542
765.542	0.0186652
765.620	0.0184132
765.698	0.0184077
765.776	0.0184435
765.854	0.0184628
765.933	0.0182536
766.011	0.0182789
766.089	0.0181714
766.167	0.0180864
766.245	0.0181873
766.323	0.0179232
766.401	0.0178604
766.479	0.0179696
766.558	0.0179419
766.636	0.0178992
766.714	0.0178951
766.792	0.0178644
766.870	0.0179423
766.948	0.0178665
767.026	0.0178186
767.104	0.0178274
767.183	0.0178538
767.261	0.0178968
767.339	0.0179392
767.417	0.0179732
767.495	0.0178282
767.573	0.0179182
767.651	0.0179128
767.729	0.0179146
767.808	0.0179662
767.886	0.0179465
767.964	0.0180186
768.042	0.0180148
768.120	0.0179831
768.198	0.0181213
768.276	0.0181429
768.354	0.0182795
768.433	0.0182352
768.511	0.0183114
768.589	0.0182476
768.667	0.0182968
768.745	0.0185001
768.823	0.0183511
768.901	0.0183897
768.979	0.0185024
769.058	0.0184879
769.136	0.0183228
769.214	0.0183437
769.292	0.0184198
769.370	0.0182247
769.448	0.0182346
769.526	0.0181931
769.604	0.0182759
769.683	0.0181020
769.761	0.0179315
769.839	0.0180439
769.917	0.0180195
769.995	0.0178618
770.073	0.0179404
770.151	0.0178876
770.229	0.0179620
770.308	0.0180245
770.386	0.0178162
770.464	0.0179066
770.542	0.0178856
770.620	0.0180606
770.698	0.0181129
770.776	0.0179073
770.854	0.0180295
770.933	0.0180836
771.011	0.0181109
771.089	0.0181474
771.167	0.0180971
771.245	0.0180659
771.323	0.0181454
771.401	0.0179076
771.479	0.0180358
771.558	0.0179841
771.636	0.0180218
771.714	0.0181876
771.792	0.0180907
771.870	0.0180913
771.948	0.0179990
772.026	0.0181192
772.104	0.0181495
772.183	0.0181068
772.261	0.0180946
772.339	0.0181551
772.417	0.0182348
772.495	0.0181464
772.573	0.0181479
772.651	0.0182925
772.729	0.0181051
772.808	0.0181476
772.886	0.0181888
772.964	0.0181960
773.042	0.0180961
773.120	0.0180157
773.198	0.0180229
773.276	0.0180942
773.354	0.0179290
773.433	0.0178741
773.511	0.0179897
773.589	0.0180303
773.667	0.0178996
773.745	0.0178324
773.823	0.0180901
773.901	0.0180994
773.979	0.0179758
774.058	0.0180801
774.136	0.0181615
774.214	0.0180928
774.292	0.0181478
774.370	0.0182150
774.448	0.0180718
774.526	0.0181728
774.604	0.0183421
774.683	0.0182904
774.761	0.0181317
774.839	0.0181415
774.917	0.0180775
774.995	0.0182062
775.073	0.0180505
775.151	0.0180614
775.229	0.0181752
775.308	0.0180172
775.386	0.0178867
775.464	0.0180747
775.542	0.0179069
775.620	0.0179078
775.698	0.0178674
775.776	0.0179265
775.854	0.0179785
775.933	0.0178864
776.011	0.0176904
776.089	0.0178420
776.167	0.0177534
776.245	0.0177839
776.323	0.0177538
776.401	0.0178031
776.479	0.0178521
776.558	0.0178635
776.636	0.0178430
776.714	0.0178122
776.792	0.0179726
776.870	0.0181087
776.948	0.0179964
777.026	0.0180464
777.104	0.0179732
777.183	0.0179942
777.261	0.0181874
777.339	0.0181453
777.417	0.0181997
777.495	0.0181644
777.573	0.0182433
777.651	0.0180518
777.729	0.0180731
777.808	0.0181688
777.886	0.0181444
777.964	0.0181791
778.042	0.0181419
778.120	0.0181617
778.198	0.0182232
778.276	0.0180782
778.354	0.0180309
778.433	0.0181103
778.511	0.0180015
778.589	0.0179974
778.667	0.0181094
778.745	0.0180984
778.823	0.0178978
778.901	0.0178237
778.979	0.0180247
779.058	0.0179845
779.136	0.0178451
779.214	0.0179755
779.292	0.0178915
779.370	0.0180079
779.448	0.0177585
779.526	0.0178864
779.604	0.0179697
779.683	0.0179751
779.761	0.0178188
779.839	0.0177987
779.917	0.0179741
779.995	0.0179425
780.073	0.0179259
780.151	0.0179270
780.229	0.0179456
780.308	0.0179152
780.386	0.0178432
780.464	0.0179357
780.542	0.0181479
780.620	0.0180521
780.698	0.0178944
780.776	0.0179649
780.854	0.0180843
780.933	0.0180607
781.011	0.0180132
781.089	0.0179391
781.167	0.0180070
781.245	0.0180563
781.323	0.0181104
781.401	0.0180740
781.479	0.0180270
781.558	0.0180220
781.636	0.0180453
781.714	0.0179697
781.792	0.0181145
781.870	0.0180930
781.948	0.0180455
782.026	0.0181290
782.104	0.0180377
782.183	0.0179803
782.261	0.0178110
782.339	0.0179144
782.417	0.0178995
782.495	0.0177814
782.573	0.0175243
782.651	0.0177281
782.729	0.0177967
782.808	0.0177540
782.886	0.0176947
782.964	0.0177525
783.042	0.0178589
783.120	0.0177515
783.198	0.0177989
783.276	0.0178041
783.354	0.0178543
783.433	0.0177078
783.511	0.0177808
783.589	0.0178503
783.667	0.0178418
783.745	0.0178666
783.823	0.0179251
783.901	0.0178722
783.979	0.0178511
784.058	0.0179957
784.136	0.0179684
784.214	0.0180703
784.292	0.0182255
784.370	0.0181872
784.448	0.0181831
784.526	0.0181966
784.604	0.0182087
784.683	0.0182245
784.761	0.0182403
784.839	0.0183193
784.917	0.0182685
784.995	0.0183606
785.073	0.0183361
785.151	0.0184594
785.229	0.0184463
785.308	0.0184251
785.386	0.0182071
785.464	0.0182748
785.542	0.0181927
785.620	0.0183255
785.698	0.0181834
785.776	0.0181705
785.854	0.0181065
785.933	0.0181146
786.011	0.0179528
786.089	0.0179078
786.167	0.0179082
786.245	0.0179193
786.323	0.0177649
786.401	0.0177943
786.479	0.0177412
786.558	0.0178619
786.636	0.0177697
786.714	0.0177978
786.792	0.0178319
786.870	0.0179915
786.948	0.0179005
787.026	0.0179636
787.104	0.0180097
787.183	0.0180701
787.261	0.0181305
787.339	0.0180533
787.417	0.0181228
787.495	0.0181046
787.573	0.0180120
787.651	0.0181570
787.729	0.0180845
787.808	0.0181116
787.886	0.0180474
787.964	0.0180917
788.042	0.0181690
788.120	0.0180485
788.198	0.0180923
788.276	0.0181296
788.354	0.0181479
788.433	0.0180400
788.511	0.0181659
788.589	0.0181129
788.667	0.0180415
788.745	0.0179416
788.823	0.0179714
788.901	0.0178770
788.979	0.0179047
789.058	0.0178813
789.136	0.0179652
789.214	0.0178260
789.292	0.0178174
789.370	0.0179303
789.448	0.0178090
789.526	0.0180183
789.604	0.0179688
789.683	0.0180321
789.761	0.0179369
789.839	0.0180334
789.917	0.0179339
789.995	0.0180849
790.073	0.0181419
790.151	0.0181570
790.229	0.0180275
790.308	0.0181561
790.386	0.0182270
790.464	0.0180410
790.542	0.0180582
790.620	0.0181432
790.698	0.0181372
790.776	0.0181200
790.854	0.0180814
790.933	0.0181084
791.011	0.0182107
791.089	0.0180599
791.167	0.0181092
791.245	0.0181767
791.323	0.0180476
791.401	0.0181247
791.479	0.0182163
791.558	0.0179769
791.636	0.0180056
791.714	0.0181048
791.792	0.0180899
791.870	0.0178041
791.948	0.0179748
792.026	0.0180656
792.104	0.0180719
792.183	0.0178022
792.261	0.0178815
792.339	0.0178801
792.417	0.0179208
792.495	0.0179652
792.573	0.0179617
792.651	0.0179876
792.729	0.0178964
792.808	0.0180125
792.886	0.0180920
792.964	0.0182111
793.042	0.0181232
793.120	0.0180792
793.198	0.0181970
793.276	0.0182739
793.354	0.0183031
793.433	0.0182238
793.511	0.0184335
793.589	0.0183327
793.667	0.0182804
793.745	0.0182014
793.823	0.0182294
793.901	0.0181295
793.979	0.0181029
794.058	0.0182114
794.136	0.0181256
794.214	0.0181738
794.292	0.0180361
794.370	0.0180880
794.448	0.0180898
794.526	0.0181032
794.604	0.0180507
794.683	0.0179655
794.761	0.0180578
794.839	0.0180710
794.917	0.0181371
794.995	0.0179008
795.073	0.0179933
795.151	0.0179926
795.229	0.0180452
795.308	0.0180273
795.386	0.0179893
795.464	0.0180477
795.542	0.0180970
795.620	0.0180525
795.698	0.0180736
795.776	0.0181079
795.854	0.0181522
795.933	0.0182301
796.011	0.0183239
796.089	0.0181693
796.167	0.0181647
796.245	0.0181596
796.323	0.0182284
796.401	0.0183298
796.479	0.0183788
796.558	0.0183281
796.636	0.0181704
796.714	0.0183837
796.792	0.0183804
796.870	0.0181870
796.948	0.0182728
797.026	0.0184340
797.104	0.0184404
797.183	0.0182200
797.261	0.0181179
797.339	0.0181925
797.417	0.0180608
797.495	0.0180595
797.573	0.0181850
797.651	0.0180515
797.729	0.0180595
797.808	0.0180642
797.886	0.0180074
797.964	0.0181998
798.042	0.0180167
798.120	0.0181103
798.198	0.0181889
798.276	0.0180827
798.354	0.0180051
798.433	0.0180833
798.511	0.0180285
798.589	0.0180503
798.667	0.0180169
798.745	0.0180641
798.823	0.0180318
798.901	0.0181396
798.979	0.0180762
799.058	0.0178676
799.136	0.0180463
799.214	0.0180250
799.292	0.0179848
799.370	0.0180360
799.448	0.0179948
799.526	0.0179434
799.604	0.0179811
799.683	0.0179107
799.761	0.0180354
799.839	0.0180123
799.917	0.0180135
799.995	0.0180704
800.073	0.0180555
800.151	0.0179977
800.229	0.0180000
800.308	0.0180714
800.386	0.0180743
800.464	0.0180189
800.542	0.0179620
800.620	0.0179975
800.698	0.0178546
800.776	0.0179768
800.854	0.0180476
800.933	0.0180016
801.011	0.0179324
801.089	0.0178442
801.167	0.0179222
801.245	0.0179007
801.323	0.0180392
801.401	0.0179450
801.479	0.0177496
801.558	0.0177541
801.636	0.0179186
801.714	0.0178397
801.792	0.0178293
801.870	0.0178117
801.948	0.0177395
802.026	0.0177445
802.104	0.0178596
802.183	0.0177312
802.261	0.0178368
802.339	0.0179865
802.417	0.0179776
802.495	0.0177637
802.573	0.0179354
802.651	0.0179065
802.729	0.0179028
802.808	0.0179821
802.886	0.0177831
802.964	0.0178815
803.042	0.0179378
803.120	0.0178618
803.198	0.0178043
803.276	0.0179041
803.354	0.0178659
803.433	0.0177576
803.511	0.0178159
803.589	0.0178124
803.667	0.0179086
803.745	0.0178022
803.823	0.0176352
803.901	0.0178010
803.979	0.0178062
804.058	0.0177284
804.136	0.0178883
804.214	0.0177801
804.292	0.0178658
804.370	0.0178539
804.448	0.0179630
804.526	0.0180605
804.604	0.0179508
804.683	0.0179833
804.761	0.0179796
804.839	0.0178793
804.917	0.0178665
804.995	0.0178461
805.073	0.0178411
805.151	0.0179746
805.229	0.0179288
805.308	0.0178500
805.386	0.0178658
805.464	0.0180063
805.542	0.0177889
805.620	0.0177337
805.698	0.0178377
805.776	0.0178483
805.854	0.0178134
805.933	0.0178819
806.011	0.0177807
806.089	0.0177670
806.167	0.0177733
806.245	0.0179244
806.323	0.0179025
806.401	0.0178307
806.479	0.0179198
806.558	0.0178752
806.636	0.0179213
806.714	0.0178711
806.792	0.0178439
806.870	0.0180151
806.948	0.0179102
807.026	0.0179178
807.104	0.0179279
807.183	0.0179463
807.261	0.0179301
807.339	0.0180308
807.417	0.0180795
807.495	0.0180276
807.573	0.0179787
807.651	0.0179885
807.729	0.0179924
807.808	0.0180227
807.886	0.0181120
807.964	0.0181186
808.042	0.0181532
808.120	0.0181339
808.198	0.0181512
808.276	0.0182038
808.354	0.0182435
808.433	0.0182288
808.511	0.0182707
808.589	0.0181023
808.667	0.0182114
808.745	0.0182583
808.823	0.0181078
808.901	0.0181707
808.979	0.0181197
809.058	0.0180631
809.136	0.0180915
809.214	0.0179822
809.292	0.0180309
809.370	0.0178869
809.448	0.0179301
809.526	0.0180025
809.604	0.0179898
809.683	0.0178778
809.761	0.0178822
809.839	0.0178097
809.917	0.0177563
809.995	0.0177891
810.073	0.0179419
810.151	0.0178915
810.229	0.0180074
810.308	0.0180438
810.386	0.0179626
810.464	0.0179922
810.542	0.0179626
810.620	0.0179504
810.698	0.0181094
810.776	0.0179960
810.854	0.0181364
810.933	0.0181441
811.011	0.0181519
811.089	0.0182317
811.167	0.0181958
811.245	0.0183002
811.323	0.0182421
811.401	0.0181327
811.479	0.0182764
811.558	0.0181983
811.636	0.0181286
811.714	0.0181467
811.792	0.0180376
811.870	0.0182571
811.948	0.0180319
812.026	0.0180914
812.104	0.0180909
812.183	0.0180221
812.261	0.0180098
812.339	0.0180747
812.417	0.0180056
812.495	0.0179504
812.573	0.0179720
812.651	0.0179502
812.729	0.0179002
812.808	0.0178986
812.886	0.0179839
812.964	0.0180109
813.042	0.0179772
813.120	0.0180088
813.198	0.0180923
813.276	0.0181489
813.354	0.0180874
813.433	0.0180689
813.511	0.0180644
813.589	0.0180923
813.667	0.0181470
813.745	0.0181241
813.823	0.0180657
813.901	0.0180327
813.979	0.0180947
814.058	0.0181274
814.136	0.0180719
814.214	0.0181297
814.292	0.0180595
814.370	0.0179930
814.448	0.0179887
814.526	0.0179235
814.604	0.0179287
814.683	0.0179750
814.761	0.0179931
814.839	0.0179100
814.917	0.0179513
814.995	0.0180090
815.073	0.0180801
815.151	0.0180956
815.229	0.0180556
815.308	0.0180368
815.386	0.0181280
815.464	0.0181711
815.542	0.0182475
815.620	0.0182458
815.698	0.0181301
815.776	0.0182622
815.854	0.0180990
815.933	0.0181621
816.011	0.0181383
816.089	0.0180866
816.167	0.0181680
816.245	0.0181257
816.323	0.0180437
816.401	0.0181514
816.479	0.0180694
816.558	0.0179724
816.636	0.0179941
816.714	0.0179761
816.792	0.0178668
816.870	0.0181060
816.948	0.0179537
817.026	0.0180747
817.104	0.0180497
817.183	0.0181083
817.261	0.0181049
817.339	0.0181287
817.417	0.0181033
817.495	0.0181255
817.573	0.0179818
817.651	0.0180370
817.729	0.0180659
817.808	0.0181524
817.886	0.0180993
817.964	0.0179486
818.042	0.0179378
818.120	0.0179861
818.198	0.0179506
818.276	0.0179907
818.354	0.0178654
818.433	0.0178914
818.511	0.0179076
818.589	0.0180123
818.667	0.0178473
818.745	0.0179787
818.823	0.0179041
818.901	0.0179588
818.979	0.0180267
819.058	0.0180056
819.136	0.0180202
819.214	0.0181486
819.292	0.0180196
819.370	0.0180041
819.448	0.0180149
819.526	0.0181136
819.604	0.0181973
819.683	0.0181998
819.761	0.0181866
819.839	0.0182050
819.917	0.0181122
819.995	0.0181114
820.073	0.0181394
820.151	0.0180193
820.229	0.0181976
820.308	0.0181779
820.386	0.0180656
820.464	0.0180880
820.542	0.0180945
820.620	0.0179642
820.698	0.0179649
820.776	0.0179864
820.854	0.0179380
820.933	0.0178922
821.011	0.0178825
821.089	0.0178397
821.167	0.0177913
821.245	0.0179432
821.323	0.0180335
821.401	0.0178844
821.479	0.0179702
821.558	0.0180379
821.636	0.0179066
821.714	0.0178782
821.792	0.0178936
821.870	0.0179815
821.948	0.0181166
822.026	0.0179877
822.104	0.0178585
822.183	0.0180761
822.261	0.0180107
822.339	0.0179871
822.417	0.0180466
822.495	0.0179936
822.573	0.0178714
822.651	0.0179697
822.729	0.0180960
822.808	0.0178967
822.886	0.0179057
822.964	0.0179530
823.042	0.0179807
823.120	0.0178804
823.198	0.0179234
823.276	0.0178996
823.354	0.0179482
823.433	0.0179016
823.511	0.0178463
823.589	0.0180033
823.667	0.0179425
823.745	0.0180370
823.823	0.0179854
823.901	0.0179908
823.979	0.0179698
824.058	0.0180177
824.136	0.0181466
824.214	0.0179610
824.292	0.0180111
824.370	0.0179607
824.448	0.0179819
824.526	0.0179670
824.604	0.0178619
824.683	0.0179990
824.761	0.0179919
824.839	0.0178333
824.917	0.0179655
824.995	0.0180447
825.073	0.0180103
825.151	0.0179310
825.229	0.0181210
825.308	0.0181017
825.386	0.0180725
825.464	0.0180854
825.542	0.0181284
825.620	0.0181956
825.698	0.0181730
825.776	0.0180801
825.854	0.0183237
825.933	0.0181544
826.011	0.0181284
826.089	0.0182030
826.167	0.0180325
826.245	0.0181820
826.323	0.0181858
826.401	0.0180130
826.479	0.0181059
826.558	0.0181151
826.636	0.0180286
826.714	0.0179420
826.792	0.0181485
826.870	0.0180854
826.948	0.0179347
827.026	0.0180184
827.104	0.0179897
827.183	0.0178978
827.261	0.0179836
827.339	0.0180228
827.417	0.0180469
827.495	0.0178495
827.573	0.0180053
827.651	0.0181700
827.729	0.0179088
827.808	0.0180238
827.886	0.0179864
827.964	0.0178831
828.042	0.0179391
828.120	0.0180111
828.198	0.0180553
828.276	0.0179970
828.354	0.0181249
828.433	0.0177892
828.511	0.0180621
828.589	0.0180290
828.667	0.0180617
828.745	0.0180858
828.823	0.0179910
828.901	0.0180004
828.979	0.0179888
829.058	0.0180956
829.136	0.0179447
829.214	0.0181837
829.292	0.0180234
829.370	0.0180513
829.448	0.0180985
829.526	0.0180702
829.604	0.0179829
829.683	0.0179482
829.761	0.0180771
829.839	0.0181313
829.917	0.0180376
829.995	0.0181461
830.073	0.0182423
830.151	0.0181268
830.229	0.0181560
830.308	0.0182961
830.386	0.0181306
830.464	0.0183428
830.542	0.0181876
830.620	0.0182178
830.698	0.0182130
830.776	0.0180978
830.854	0.0181912
830.933	0.0181270
831.011	0.0180769
831.089	0.0180408
831.167	0.0181252
831.245	0.0180537
831.323	0.0179279
831.401	0.0180971
831.479	0.0180418
831.558	0.0179071
831.636	0.0180080
831.714	0.0178656
831.792	0.0179504
831.870	0.0178228
831.948	0.0178635
832.026	0.0178962
832.104	0.0179099
832.183	0.0179865
832.261	0.0179370
832.339	0.0179327
832.417	0.0181328
832.495	0.0179794
832.573	0.0180202
832.651	0.0180676
832.729	0.0180572
832.808	0.0181335
832.886	0.0180411
832.964	0.0181494
833.042	0.0180020
833.120	0.0180324
833.198	0.0181628
833.276	0.0180389
833.354	0.0181516
833.433	0.0181657
833.511	0.0182056
833.589	0.0180328
833.667	0.0181149
833.745	0.0180628
833.823	0.0182950
833.901	0.0180152
833.979	0.0180952
834.058	0.0181750
834.136	0.0182487
834.214	0.0181985
834.292	0.0180496
834.370	0.0182459
834.448	0.0182308
834.526	0.0181159
834.604	0.0181960
834.683	0.0181208
834.761	0.0181400
834.839	0.0180739
834.917	0.0181884
834.995	0.0181647
835.073	0.0181865
835.151	0.0180857
835.229	0.0180447
835.308	0.0180696
835.386	0.0180691
835.464	0.0180541
835.542	0.0180058
835.620	0.0179567
835.698	0.0179570
835.776	0.0179866
835.854	0.0180904
835.933	0.0178831
836.011	0.0178882
836.089	0.0180261
836.167	0.0179993
836.245	0.0179510
836.323	0.0179620
836.401	0.0179468
836.479	0.0179740
836.558	0.0177988
836.636	0.0179109
836.714	0.0180373
836.792	0.0180305
836.870	0.0180020
836.948	0.0178458
837.026	0.0179833
837.104	0.0178883
837.183	0.0180007
837.261	0.0180132
837.339	0.0180319
837.417	0.0178547
837.495	0.0177792
837.573	0.0177936
837.651	0.0180669
837.729	0.0180434
837.808	0.0177847
837.886	0.0178020
837.964	0.0178659
838.042	0.0177752
838.120	0.0180064
838.198	0.0178885
838.276	0.0178622
838.354	0.0178942
838.433	0.0179543
838.511	0.0179543
838.589	0.0179757
838.667	0.0180090
838.745	0.0181187
838.823	0.0179797
838.901	0.0181064
838.979	0.0180785
839.058	0.0180219
839.136	0.0180145
839.214	0.0180417
839.292	0.0181010
839.370	0.0181935
839.448	0.0182197
839.526	0.0181587
839.604	0.0180290
839.683	0.0179570
839.761	0.0180953
839.839	0.0180621
839.917	0.0180530
839.995	0.0181345
840.073	0.0181442
840.151	0.0181354
840.229	0.0181707
840.308	0.0181021
840.386	0.0180434
840.464	0.0180834
840.542	0.0180648
840.620	0.0179883
840.698	0.0180910
840.776	0.0180726
840.854	0.0181131
840.933	0.0181486
841.011	0.0180154
841.089	0.0179780
841.167	0.0181236
841.245	0.0181200
841.323	0.0180971
841.401	0.0180431
841.479	0.0179290
841.558	0.0179713
841.636	0.0179684
841.714	0.0179495
841.792	0.0179922
841.870	0.0179361
841.948	0.0179404
842.026	0.0180276
842.104	0.0179449
842.183	0.0180051
842.261	0.0180943
842.339	0.0178788
842.417	0.0177921
842.495	0.0179902
842.573	0.0179787
842.651	0.0178934
842.729	0.0179185
842.808	0.0180180
842.886	0.0179190
842.964	0.0179641
843.042	0.0180082
843.120	0.0179250
843.198	0.0180051
843.276	0.0180136
843.354	0.0180773
843.433	0.0180105
843.511	0.0179346
843.589	0.0181023
843.667	0.0179804
843.745	0.0179331
843.823	0.0179662
843.901	0.0178971
843.979	0.0179710
844.058	0.0180666
844.136	0.0180041
844.214	0.0178983
844.292	0.0179492
844.370	0.0179401
844.448	0.0178561
844.526	0.0179892
844.604	0.0180319
844.683	0.0180338
844.761	0.0179370
844.839	0.0180112
844.917	0.0179254
844.995	0.0179815
845.073	0.0179966
845.151	0.0179637
845.229	0.0180500
845.308	0.0178703
845.386	0.0179722
845.464	0.0179867
845.542	0.0179443
845.620	0.0179192
845.698	0.0181716
845.776	0.0179319
845.854	0.0179807
845.933	0.0179660
846.011	0.0179497
846.089	0.0178709
846.167	0.0179477
846.245	0.0178826
846.323	0.0180866
846.401	0.0180119
846.479	0.0179125
846.558	0.0180035
846.636	0.0178844
846.714	0.0180274
846.792	0.0180217
846.870	0.0181006
846.948	0.0181102
847.026	0.0180408
847.104	0.0181641
847.183	0.0181246
847.261	0.0181359
847.339	0.0180379
847.417	0.0181595
847.495	0.0180913
847.573	0.0181072
847.651	0.0181210
847.729	0.0181033
847.808	0.0181705
847.886	0.0180540
847.964	0.0180161
848.042	0.0180347
848.120	0.0181438
848.198	0.0179793
848.276	0.0180519
848.354	0.0180280
848.433	0.0180282
848.511	0.0181451
848.589	0.0179866
848.667	0.0179960
848.745	0.0179478
848.823	0.0179011
848.901	0.0182178
848.979	0.0179452
849.058	0.0179973
849.136	0.0179679
849.214	0.0179620
849.292	0.0179333
849.370	0.0180791
849.448	0.0180070
849.526	0.0180723
849.604	0.0178341
849.683	0.0180018
849.761	0.0180606
849.839	0.0178874
849.917	0.0178878
849.995	0.0180270
850.073	0.0179300
850.151	0.0180945
850.229	0.0180946
850.308	0.0179715
850.386	0.0179131
850.464	0.0181078
850.542	0.0181903
850.620	0.0179677
850.698	0.0179682
850.776	0.0179693
850.854	0.0179522
850.933	0.0179261
851.011	0.0179897
851.089	0.0180728
851.167	0.0180191
851.245	0.0181121
851.323	0.0180086
851.401	0.0178647
851.479	0.0181154
851.558	0.0179649
851.636	0.0179803
851.714	0.0180152
851.792	0.0179162
851.870	0.0179008
851.948	0.0177751
852.026	0.0179494
852.104	0.0179125
852.183	0.0178603
852.261	0.0179469
852.339	0.0178917
852.417	0.0179435
852.495	0.0179653
852.573	0.0180324
852.651	0.0180391
852.729	0.0180421
852.808	0.0180553
852.886	0.0180835
852.964	0.0179224
853.042	0.0180254
853.120	0.0181391
853.198	0.0181382
853.276	0.0179680
853.354	0.0181632
853.433	0.0180572
853.511	0.0181081
853.589	0.0181165
853.667	0.0181433
853.745	0.0181639
853.823	0.0181599
853.901	0.0180846
853.979	0.0181310
854.058	0.0180252
854.136	0.0181193
854.214	0.0180785
854.292	0.0180638
854.370	0.0180169
854.448	0.0180086
854.526	0.0180464
854.604	0.0181013
854.683	0.0180602
854.761	0.0179750
854.839	0.0180511
854.917	0.0179739
854.995	0.0179252
855.073	0.0181409
855.151	0.0182013
855.229	0.0180484
855.308	0.0180613
855.386	0.0181622
855.464	0.0181091
855.542	0.0180077
855.620	0.0180511
855.698	0.0183103
855.776	0.0182550
855.854	0.0180978
855.933	0.0181101
856.011	0.0181644
856.089	0.0181626
856.167	0.0181171
856.245	0.0182785
856.323	0.0181256
856.401	0.0181887
856.479	0.0181108
856.558	0.0180721
856.636	0.0181677
856.714	0.0182879
856.792	0.0181375
856.870	0.0181569
856.948	0.0181833
857.026	0.0180790
857.104	0.0181532
857.183	0.0179781
857.261	0.0180497
857.339	0.0180082
857.417	0.0180652
857.495	0.0179193
857.573	0.0179437
857.651	0.0180113
857.729	0.0180423
857.808	0.0178352
857.886	0.0180034
857.964	0.0179414
858.042	0.0179779
858.120	0.0179691
858.198	0.0180181
858.276	0.0180061
858.354	0.0178345
858.433	0.0179846
858.511	0.0180279
858.589	0.0180635
858.667	0.0181181
858.745	0.0180800
858.823	0.0179667
858.901	0.0179392
858.979	0.0179195
859.058	0.0180258
859.136	0.0179161
859.214	0.0181419
859.292	0.0180605
859.370	0.0179153
859.448	0.0179541
859.526	0.0177921
859.604	0.0177877
859.683	0.0180083
859.761	0.0179446
859.839	0.0178392
859.917	0.0180132
859.995	0.0178616
860.073	0.0178197
860.151	0.0177682
860.229	0.0178283
860.308	0.0177920
860.386	0.0178568
860.464	0.0178056
860.542	0.0177508
860.620	0.0178074
860.698	0.0178257
860.776	0.0178475
860.854	0.0178106
860.933	0.0177753
861.011	0.0177617
861.089	0.0178513
861.167	0.0177757
861.245	0.0177220
861.323	0.0179379
861.401	0.0177856
861.479	0.0178260
861.558	0.0178700
861.636	0.0178722
861.714	0.0179024
861.792	0.0180081
861.870	0.0179863
861.948	0.0179528
862.026	0.0179308
862.104	0.0179720
862.183	0.0178003
862.261	0.0178933
862.339	0.0180041
862.417	0.0179183
862.495	0.0178709
862.573	0.0179366
862.651	0.0178889
862.729	0.0178019
862.808	0.0179465
862.886	0.0179047
862.964	0.0178618
863.042	0.0178767
863.120	0.0177676
863.198	0.0179702
863.276	0.0178574
863.354	0.0178852
863.433	0.0177821
863.511	0.0178369
863.589	0.0178300
863.667	0.0179951
863.745	0.0177396
863.823	0.0180619
863.901	0.0178654
863.979	0.0178926
864.058	0.0179478
864.136	0.0179265
864.214	0.0179626
864.292	0.0179137
864.370	0.0179137
864.448	0.0178823
864.526	0.0179856
864.604	0.0179352
864.683	0.0179401
864.761	0.0179648
864.839	0.0179656
864.917	0.0180429
864.995	0.0179516
865.073	0.0179446
865.151	0.0180007
865.229	0.0177504
865.308	0.0178328
865.386	0.0179693
865.464	0.0180732
865.542	0.0180143
865.620	0.0179031
865.698	0.0179346
865.776	0.0180518
865.854	0.0180202
865.933	0.0179980
866.011	0.0179240
866.089	0.0181186
866.167	0.0180126
866.245	0.0180129
866.323	0.0179871
866.401	0.0179935
866.479	0.0180558
866.558	0.0180508
866.636	0.0180811
866.714	0.0181886
866.792	0.0182383
866.870	0.0181154
866.948	0.0179681
867.026	0.0179700
867.104	0.0181147
867.183	0.0179391
867.261	0.0180296
867.339	0.0180718
867.417	0.0180555
867.495	0.0179504
867.573	0.0179852
867.651	0.0180177
867.729	0.0179624
867.808	0.0180568
867.886	0.0180201
867.964	0.0180656
868.042	0.0180693
868.120	0.0180051
868.198	0.0180708
868.276	0.0179719
868.354	0.0180710
868.433	0.0179530
868.511	0.0179316
868.589	0.0179687
868.667	0.0179715
868.745	0.0180388
868.823	0.0180666
868.901	0.0178918
868.979	0.0178922
869.058	0.0180378
869.136	0.0180411
869.214	0.0179514
869.292	0.0177989
869.370	0.0180228
869.448	0.0181860
869.526	0.0180229
869.604	0.0179567
869.683	0.0179832
869.761	0.0180292
869.839	0.0181250
869.917	0.0180089
869.995	0.0180939
870.073	0.0182352
870.151	0.0181882
870.229	0.0181400
870.308	0.0181763
870.386	0.0182357
870.464	0.0181435
870.542	0.0182259
870.620	0.0183464
870.698	0.0182748
870.776	0.0182979
870.854	0.0182431
870.933	0.0181199
871.011	0.0181548
871.089	0.0181434
871.167	0.0181604
871.245	0.0180086
871.323	0.0181121
871.401	0.0181763
871.479	0.0180747
871.558	0.0180507
871.636	0.0181165
871.714	0.0180722
871.792	0.0180328
871.870	0.0180579
871.948	0.0178939
872.026	0.0179478
872.104	0.0180470
872.183	0.0181298
872.261	0.0179946
872.339	0.0179659
872.417	0.0179581
872.495	0.0179089
872.573	0.0180051
872.651	0.0179604
872.729	0.0179962
872.808	0.0179359
872.886	0.0179939
872.964	0.0179514
873.042	0.0179731
873.120	0.0178773
873.198	0.0177573
873.276	0.0179688
873.354	0.0178127
873.433	0.0179686
873.511	0.0179910
873.589	0.0178690
873.667	0.0179255
873.745	0.0180344
873.823	0.0181217
873.901	0.0180649
873.979	0.0179464
874.058	0.0179102
874.136	0.0180692
874.214	0.0180648
874.292	0.0180856
874.370	0.0180684
874.448	0.0180136
874.526	0.0181022
874.604	0.0180848
874.683	0.0181567
874.761	0.0181912
874.839	0.0181303
874.917	0.0180449
874.995	0.0180742
875.073	0.0182394
875.151	0.0182221
875.229	0.0181284
875.308	0.0181348
875.386	0.0181029
875.464	0.0181782
875.542	0.0181554
875.620	0.0181082
875.698	0.0181967
875.776	0.0181855
875.854	0.0181742
875.933	0.0180991
876.011	0.0180429
876.089	0.0181145
876.167	0.0181082
876.245	0.0181988
876.323	0.0180434
876.401	0.0182024
876.479	0.0180890
876.558	0.0179687
876.636	0.0179603
876.714	0.0181458
876.792	0.0180600
876.870	0.0180151
876.948	0.0180396
877.026	0.0180480
877.104	0.0180714
877.183	0.0181304
877.261	0.0180956
877.339	0.0180479
877.417	0.0180166
877.495	0.0178872
877.573	0.0180434
877.651	0.0179261
877.729	0.0180370
877.808	0.0179715
877.886	0.0180147
877.964	0.0181062
878.042	0.0179910
878.120	0.0179319
878.198	0.0180418
878.276	0.0179593
878.354	0.0179665
878.433	0.0180499
878.511	0.0179987
878.589	0.0179826
878.667	0.0179720
878.745	0.0179821
878.823	0.0179836
878.901	0.0180162
878.979	0.0179826
879.058	0.0179312
879.136	0.0180161
879.214	0.0179012
879.292	0.0179128
879.370	0.0179837
879.448	0.0179662
879.526	0.0179655
879.604	0.0180038
879.683	0.0179106
879.761	0.0178936
879.839	0.0178924
879.917	0.0179832
879.995	0.0178338
880.073	0.0179385
880.151	0.0179205
880.229	0.0180242
880.308	0.0178415
880.386	0.0178910
880.464	0.0178606
880.542	0.0180959
880.620	0.0179649
880.698	0.0180392
880.776	0.0179169
880.854	0.0179108
880.933	0.0179729
881.011	0.0179770
881.089	0.0178860
881.167	0.0179165
881.245	0.0180676
881.323	0.0180904
881.401	0.0180828
881.479	0.0179379
881.558	0.0180007
881.636	0.0180459
881.714	0.0180544
881.792	0.0180263
881.870	0.0179910
881.948	0.0181288
882.026	0.0182066
882.104	0.0180831
882.183	0.0179852
882.261	0.0179755
882.339	0.0179752
882.417	0.0179098
882.495	0.0179549
882.573	0.0179228
882.651	0.0180105
882.729	0.0179231
882.808	0.0179198
882.886	0.0178864
882.964	0.0179377
883.042	0.0179505
883.120	0.0179173
883.198	0.0180121
883.276	0.0180816
883.354	0.0181090
883.433	0.0180457
883.511	0.0179969
883.589	0.0180077
883.667	0.0180726
883.745	0.0180363
883.823	0.0180187
883.901	0.0181047
883.979	0.0180062
884.058	0.0180343
884.136	0.0180423
884.214	0.0180772
884.292	0.0181137
884.370	0.0179868
884.448	0.0180199
884.526	0.0178411
884.604	0.0178529
884.683	0.0178570
884.761	0.0180141
884.839	0.0178903
884.917	0.0179888
884.995	0.0178453
885.073	0.0179165
885.151	0.0178931
885.229	0.0179031
885.308	0.0179074
885.386	0.0179299
885.464	0.0178043
885.542	0.0179411
885.620	0.0180101
885.698	0.0180421
885.776	0.0179534
885.854	0.0178873
885.933	0.0178738
886.011	0.0179192
886.089	0.0179106
886.167	0.0180715
886.245	0.0179818
886.323	0.0179790
886.401	0.0179469
886.479	0.0179478
886.558	0.0180180
886.636	0.0180070
886.714	0.0181055
886.792	0.0181207
886.870	0.0180278
886.948	0.0181962
887.026	0.0180666
887.104	0.0180385
887.183	0.0181963
887.261	0.0181086
887.339	0.0180699
887.417	0.0180345
887.495	0.0180685
887.573	0.0180972
887.651	0.0180508
887.729	0.0181727
887.808	0.0180996
887.886	0.0179430
887.964	0.0180636
888.042	0.0180495
888.120	0.0180518
888.198	0.0179881
888.276	0.0180170
888.354	0.0181977
888.433	0.0180323
888.511	0.0181100
888.589	0.0179865
888.667	0.0180335
888.745	0.0180862
888.823	0.0179711
888.901	0.0180857
888.979	0.0179668
889.058	0.0180266
889.136	0.0180879
889.214	0.0180878
889.292	0.0179253
889.370	0.0181702
889.448	0.0180872
889.526	0.0180119
889.604	0.0179765
889.683	0.0181447
889.761	0.0180060
889.839	0.0180022
889.917	0.0180252
889.995	0.0180378
890.073	0.0180895
890.151	0.0180116
890.229	0.0180373
890.308	0.0181488
890.386	0.0181902
890.464	0.0180099
890.542	0.0179655
890.620	0.0180796
890.698	0.0179471
890.776	0.0180405
890.854	0.0182051
890.933	0.0180978
891.011	0.0180272
891.089	0.0182538
891.167	0.0182164
891.245	0.0182470
891.323	0.0179570
891.401	0.0181022
891.479	0.0179990
891.558	0.0181253
891.636	0.0182147
891.714	0.0181453
891.792	0.0181912
891.870	0.0181028
891.948	0.0180331
892.026	0.0180438
892.104	0.0181863
892.183	0.0179739
892.261	0.0181103
892.339	0.0180280
892.417	0.0178681
892.495	0.0181005
892.573	0.0181713
892.651	0.0181625
892.729	0.0179739
892.808	0.0179784
892.886	0.0181252
892.964	0.0180598
893.042	0.0180789
893.120	0.0180502
893.198	0.0181033
893.276	0.0181261
893.354	0.0181806
893.433	0.0181937
893.511	0.0181474
893.589	0.0181657
893.667	0.0181599
893.745	0.0181607
893.823	0.0181865
893.901	0.0181565
893.979	0.0182981
894.058	0.0182854
894.136	0.0182853
894.214	0.0181759
894.292	0.0182256
894.370	0.0182655
894.448	0.0180103
894.526	0.0180939
894.604	0.0179686
894.683	0.0181139
894.761	0.0180642
894.839	0.0181180
894.917	0.0179598
894.995	0.0180564
895.073	0.0180583
895.151	0.0181160
895.229	0.0180843
895.308	0.0180636
895.386	0.0180292
895.464	0.0181415
895.542	0.0180860
895.620	0.0181638
895.698	0.0180833
895.776	0.0181677
895.854	0.0179195
895.933	0.0180058
896.011	0.0181293
896.089	0.0181419
896.167	0.0181375
896.245	0.0180072
896.323	0.0180785
896.401	0.0179849
896.479	0.0182053
896.558	0.0181190
896.636	0.0181408
896.714	0.0181152
896.792	0.0181144
896.870	0.0181817
896.948	0.0181123
897.026	0.0181399
897.104	0.0180379
897.183	0.0181950
897.261	0.0179996
897.339	0.0180289
897.417	0.0181313
897.495	0.0181118
897.573	0.0179066
897.651	0.0180544
897.729	0.0180618
897.808	0.0180257
897.886	0.0180769
897.964	0.0181113
898.042	0.0180241
898.120	0.0181486
898.198	0.0181123
898.276	0.0181013
898.354	0.0181062
898.433	0.0181332
898.511	0.0180803
898.589	0.0180322
898.667	0.0180674
898.745	0.0182237
898.823	0.0179771
898.901	0.0180782
898.979	0.0181194
899.058	0.0181051
899.136	0.0180279
899.214	0.0181454
899.292	0.0181072
899.370	0.0180972
899.448	0.0180215
899.526	0.0181499
899.604	0.0181222
899.683	0.0179884
899.761	0.0180529
899.839	0.0180515
899.917	0.0179266
899.995	0.0180312
900.073	0.0180822
900.151	0.0181114
900.229	0.0180549
900.308	0.0180908
900.386	0.0178436
900.464	0.0180626
900.542	0.0179729
900.620	0.0178384
900.698	0.0178475
900.776	0.0180585
900.854	0.0182099
900.933	0.0179021
901.011	0.0180759
901.089	0.0180331
901.167	0.0181158
901.245	0.0179975
901.323	0.0181468
901.401	0.0179894
901.479	0.0181257
901.558	0.0180025
901.636	0.0179803
901.714	0.0181592
901.792	0.0181194
901.870	0.0181362
901.948	0.0180169
902.026	0.0179622
902.104	0.0181272
902.183	0.0179851
902.261	0.0179237
902.339	0.0180412
902.417	0.0179390
902.495	0.0179424
902.573	0.0181296
902.651	0.0179447
902.729	0.0180618
902.808	0.0178881
902.886	0.0180802
902.964	0.0178803
903.042	0.0179807
903.120	0.0180888
903.198	0.0179463
903.276	0.0180449
903.354	0.0178832
903.433	0.0179448
903.511	0.0180425
903.589	0.0179816
903.667	0.0179137
903.745	0.0180061
903.823	0.0179536
903.901	0.0180476
903.979	0.0179980
904.058	0.0180446
904.136	0.0180281
904.214	0.0179059
904.292	0.0180017
904.370	0.0180271
904.448	0.0179351
904.526	0.0179186
904.604	0.0179429
904.683	0.0180621
904.761	0.0181438
904.839	0.0179440
904.917	0.0179934
904.995	0.0179997
905.073	0.0179449
905.151	0.0179595
905.229	0.0179602
905.308	0.0178984
905.386	0.0178951
905.464	0.0180376
905.542	0.0179409
905.620	0.0177958
905.698	0.0178957
905.776	0.0179704
905.854	0.0178580
905.933	0.0180888
906.011	0.0180035
906.089	0.0179601
906.167	0.0179417
906.245	0.0180926
906.323	0.0180829
906.401	0.0178984
906.479	0.0180071
906.558	0.0178952
906.636	0.0179435
906.714	0.0181831
906.792	0.0180341
906.870	0.0180731
906.948	0.0181850
907.026	0.0180890
907.104	0.0179930
907.183	0.0179330
907.261	0.0179044
907.339	0.0178957
907.417	0.0179517
907.495	0.0180792
907.573	0.0178777
907.651	0.0180280
907.729	0.0179834
907.808	0.0178943
907.886	0.0180552
907.964	0.0179187
908.042	0.0178953
908.120	0.0180224
908.198	0.0178944
908.276	0.0180472
908.354	0.0179384
908.433	0.0179481
908.511	0.0180048
908.589	0.0179456
908.667	0.0181071
908.745	0.0179992
908.823	0.0179740
908.901	0.0180620
908.979	0.0178854
909.058	0.0180122
909.136	0.0180809
909.214	0.0180196
909.292	0.0180597
909.370	0.0182417
909.448	0.0180097
909.526	0.0180094
909.604	0.0180616
909.683	0.0181172
909.761	0.0181145
909.839	0.0181873
909.917	0.0181319
909.995	0.0181905
910.073	0.0181738
910.151	0.0180026
910.229	0.0181257
910.308	0.0181432
910.386	0.0180724
910.464	0.0180282
910.542	0.0182124
910.620	0.0182407
910.698	0.0180842
910.776	0.0179848
910.854	0.0180629
910.933	0.0180134
911.011	0.0179662
911.089	0.0178800
911.167	0.0180188
911.245	0.0179883
911.323	0.0179284
911.401	0.0178925
911.479	0.0179396
911.558	0.0179418
911.636	0.0180038
911.714	0.0180412
911.792	0.0181062
911.870	0.0180210
911.948	0.0180189
912.026	0.0180633
912.104	0.0180679
912.183	0.0181145
912.261	0.0181004
912.339	0.0181300
912.417	0.0180315
912.495	0.0181200
912.573	0.0181828
912.651	0.0180739
912.729	0.0181718
912.808	0.0183439
912.886	0.0181877
912.964	0.0182279
913.042	0.0181310
913.120	0.0181060
913.198	0.0182423
913.276	0.0181808
913.354	0.0182374
913.433	0.0181152
913.511	0.0182463
913.589	0.0182011
913.667	0.0182323
913.745	0.0181465
913.823	0.0182772
913.901	0.0181612
913.979	0.0179264
914.058	0.0182211
914.136	0.0179700
914.214	0.0180742
914.292	0.0180261
914.370	0.0180919
914.448	0.0180695
914.526	0.0180584
914.604	0.0180379
914.683	0.0180766
914.761	0.0181170
914.839	0.0180783
914.917	0.0180876
914.995	0.0180669
915.073	0.0181410
915.151	0.0180435
915.229	0.0180792
915.308	0.0180242
915.386	0.0180446
915.464	0.0181151
915.542	0.0180264
915.620	0.0180265
915.698	0.0181284
915.776	0.0181486
915.854	0.0179506
915.933	0.0181136
916.011	0.0180931
916.089	0.0181693
916.167	0.0180628
916.245	0.0180248
916.323	0.0180063
916.401	0.0180589
916.479	0.0179142
916.558	0.0179065
916.636	0.0179879
916.714	0.0179580
916.792	0.0179021
916.870	0.0178201
916.948	0.0180910
917.026	0.0180353
917.104	0.0179722
917.183	0.0179993
917.261	0.0178726
917.339	0.0179314
917.417	0.0180415
917.495	0.0179508
917.573	0.0180233
917.651	0.0179699
917.729	0.0178971
917.808	0.0179173
917.886	0.0178926
917.964	0.0178395
918.042	0.0178970
918.120	0.0178359
918.198	0.0180541
918.276	0.0180387
918.354	0.0179179
918.433	0.0178721
918.511	0.0178284
918.589	0.0177907
918.667	0.0177797
918.745	0.0178548
918.823	0.0179069
918.901	0.0178461
918.979	0.0178371
919.058	0.0178898
919.136	0.0178903
919.214	0.0179128
919.292	0.0178896
919.370	0.0177765
919.448	0.0179101
919.526	0.0178925
919.604	0.0179916
919.683	0.0179458
919.761	0.0180221
919.839	0.0180579
919.917	0.0179847
