06/03/2022	18:31:49	Ver.	4.1	UNKNOWN
Optical Delay	550.027179	Delta X		0.078125	Sweeps	1	Scan Rate	0/0
Coordinates	Axis 1	NaN	Axis 2	NaN	Axis 3	NaN	Axis 4	NaN	Axis 5	NaN	Axis 6	0.000000
TX Power	0.000000	RX Power	0.000000

550.027	0.0175401
550.105	0.0175027
550.183	0.0175465
550.262	0.0174719
550.340	0.0175402
550.418	0.0175283
550.496	0.0174678
550.574	0.0174500
550.652	0.0174799
550.730	0.0174172
550.808	0.0174277
550.887	0.0175397
550.965	0.0174213
551.043	0.0174435
551.121	0.0175935
551.199	0.0175436
551.277	0.0174815
551.355	0.0175655
551.433	0.0175246
551.512	0.0174777
551.590	0.0175912
551.668	0.0174512
551.746	0.0176737
551.824	0.0173241
551.902	0.0175609
551.980	0.0174937
552.058	0.0174402
552.137	0.0175490
552.215	0.0174635
552.293	0.0173947
552.371	0.0174957
552.449	0.0175917
552.527	0.0174158
552.605	0.0174727
552.683	0.0174284
552.762	0.0175212
552.840	0.0175558
552.918	0.0173814
552.996	0.0174329
553.074	0.0175142
553.152	0.0175017
553.230	0.0174828
553.308	0.0173826
553.387	0.0174102
553.465	0.0174072
553.543	0.0173976
553.621	0.0175073
553.699	0.0174805
553.777	0.0174377
553.855	0.0175450
553.933	0.0175455
554.012	0.0174583
554.090	0.0174265
554.168	0.0175197
554.246	0.0173867
554.324	0.0174001
554.402	0.0175493
554.480	0.0175470
554.558	0.0174969
554.637	0.0175177
554.715	0.0175342
554.793	0.0175333
554.871	0.0174361
554.949	0.0174029
555.027	0.0174186
555.105	0.0175040
555.183	0.0175500
555.262	0.0173154
555.340	0.0174583
555.418	0.0175711
555.496	0.0175078
555.574	0.0174867
555.652	0.0175854
555.730	0.0175201
555.808	0.0175117
555.887	0.0174955
555.965	0.0175387
556.043	0.0175332
556.121	0.0173997
556.199	0.0174734
556.277	0.0174970
556.355	0.0174784
556.433	0.0174101
556.512	0.0175343
556.590	0.0175449
556.668	0.0174192
556.746	0.0175152
556.824	0.0174795
556.902	0.0175058
556.980	0.0175195
557.058	0.0174195
557.137	0.0174424
557.215	0.0175571
557.293	0.0175903
557.371	0.0174961
557.449	0.0174805
557.527	0.0175050
557.605	0.0174870
557.683	0.0174883
557.762	0.0173090
557.840	0.0174095
557.918	0.0175697
557.996	0.0174053
558.074	0.0173746
558.152	0.0173473
558.230	0.0174328
558.308	0.0174901
558.387	0.0174518
558.465	0.0174719
558.543	0.0172691
558.621	0.0173796
558.699	0.0173905
558.777	0.0174368
558.855	0.0174361
558.933	0.0173573
559.012	0.0173892
559.090	0.0172156
559.168	0.0173569
559.246	0.0174276
559.324	0.0173236
559.402	0.0174714
559.480	0.0173486
559.558	0.0173042
559.637	0.0174955
559.715	0.0174818
559.793	0.0173819
559.871	0.0174673
559.949	0.0173853
560.027	0.0174042
560.105	0.0173334
560.183	0.0172513
560.262	0.0174451
560.340	0.0174229
560.418	0.0173521
560.496	0.0172363
560.574	0.0174207
560.652	0.0172932
560.730	0.0173851
560.808	0.0173244
560.887	0.0173080
560.965	0.0174511
561.043	0.0174715
561.121	0.0172578
561.199	0.0173567
561.277	0.0174300
561.355	0.0173554
561.433	0.0174587
561.512	0.0174327
561.590	0.0173854
561.668	0.0174137
561.746	0.0173554
561.824	0.0174303
561.902	0.0174622
561.980	0.0174635
562.058	0.0173728
562.137	0.0174075
562.215	0.0174264
562.293	0.0173856
562.371	0.0174041
562.449	0.0174058
562.527	0.0174898
562.605	0.0173306
562.683	0.0173587
562.762	0.0174395
562.840	0.0174377
562.918	0.0175169
562.996	0.0174557
563.074	0.0174780
563.152	0.0173734
563.230	0.0175665
563.308	0.0174950
563.387	0.0175725
563.465	0.0173482
563.543	0.0173859
563.621	0.0174740
563.699	0.0174216
563.777	0.0174145
563.855	0.0174072
563.933	0.0174097
564.012	0.0173805
564.090	0.0173398
564.168	0.0173498
564.246	0.0173491
564.324	0.0174568
564.402	0.0175011
564.480	0.0174774
564.558	0.0173067
564.637	0.0174847
564.715	0.0174908
564.793	0.0174951
564.871	0.0173381
564.949	0.0175513
565.027	0.0173630
565.105	0.0174600
565.183	0.0174831
565.262	0.0174097
565.340	0.0176048
565.418	0.0175095
565.496	0.0174420
565.574	0.0175362
565.652	0.0174534
565.730	0.0174686
565.808	0.0173885
565.887	0.0175895
565.965	0.0175478
566.043	0.0174982
566.121	0.0175390
566.199	0.0175778
566.277	0.0176233
566.355	0.0175192
566.433	0.0175964
566.512	0.0176559
566.590	0.0173830
566.668	0.0174550
566.746	0.0175539
566.824	0.0175553
566.902	0.0174503
566.980	0.0173926
567.058	0.0175513
567.137	0.0176428
567.215	0.0175854
567.293	0.0175134
567.371	0.0174253
567.449	0.0175130
567.527	0.0174479
567.605	0.0175581
567.683	0.0175111
567.762	0.0176408
567.840	0.0174796
567.918	0.0174564
567.996	0.0174810
568.074	0.0176378
568.152	0.0175564
568.230	0.0173926
568.308	0.0174461
568.387	0.0175028
568.465	0.0176124
568.543	0.0175285
568.621	0.0176055
568.699	0.0175117
568.777	0.0175690
568.855	0.0175593
568.933	0.0176593
569.012	0.0175936
569.090	0.0175977
569.168	0.0175417
569.246	0.0176395
569.324	0.0176001
569.402	0.0175434
569.480	0.0175375
569.558	0.0175565
569.637	0.0176417
569.715	0.0174734
569.793	0.0175515
569.871	0.0176328
569.949	0.0175135
570.027	0.0175906
570.105	0.0175539
570.183	0.0176363
570.262	0.0175906
570.340	0.0175680
570.418	0.0175311
570.496	0.0176255
570.574	0.0176044
570.652	0.0175964
570.730	0.0175681
570.808	0.0175462
570.887	0.0176580
570.965	0.0175683
571.043	0.0175426
571.121	0.0175863
571.199	0.0173916
571.277	0.0175868
571.355	0.0176806
571.433	0.0173991
571.512	0.0175349
571.590	0.0177048
571.668	0.0174461
571.746	0.0175655
571.824	0.0174654
571.902	0.0174796
571.980	0.0177025
572.058	0.0175585
572.137	0.0175522
572.215	0.0176813
572.293	0.0175470
572.371	0.0175034
572.449	0.0177048
572.527	0.0176071
572.605	0.0175925
572.683	0.0175874
572.762	0.0175351
572.840	0.0175143
572.918	0.0175372
572.996	0.0174909
573.074	0.0175089
573.152	0.0174889
573.230	0.0174232
573.308	0.0175661
573.387	0.0174667
573.465	0.0174748
573.543	0.0175828
573.621	0.0174497
573.699	0.0174759
573.777	0.0174739
573.855	0.0175372
573.933	0.0175549
574.012	0.0174383
574.090	0.0176062
574.168	0.0174422
574.246	0.0174788
574.324	0.0174116
574.402	0.0174496
574.480	0.0174005
574.558	0.0172922
574.637	0.0174572
574.715	0.0174567
574.793	0.0173919
574.871	0.0174607
574.949	0.0173930
575.027	0.0173384
575.105	0.0174419
575.183	0.0174675
575.262	0.0174279
575.340	0.0173595
575.418	0.0172092
575.496	0.0174059
575.574	0.0173463
575.652	0.0173124
575.730	0.0173792
575.808	0.0173896
575.887	0.0174466
575.965	0.0174513
576.043	0.0173277
576.121	0.0173498
576.199	0.0174319
576.277	0.0173904
576.355	0.0172524
576.433	0.0174497
576.512	0.0173334
576.590	0.0174787
576.668	0.0174689
576.746	0.0174637
576.824	0.0174926
576.902	0.0174252
576.980	0.0173232
577.058	0.0173970
577.137	0.0173138
577.215	0.0173370
577.293	0.0174846
577.371	0.0174844
577.449	0.0173300
577.527	0.0174381
577.605	0.0173420
577.683	0.0173869
577.762	0.0173663
577.840	0.0172715
577.918	0.0172592
577.996	0.0172556
578.074	0.0173808
578.152	0.0173972
578.230	0.0173567
578.308	0.0173914
578.387	0.0173710
578.465	0.0173379
578.543	0.0172823
578.621	0.0173496
578.699	0.0173141
578.777	0.0175237
578.855	0.0174042
578.933	0.0173862
579.012	0.0174937
579.090	0.0175687
579.168	0.0174157
579.246	0.0173935
579.324	0.0174226
579.402	0.0174185
579.480	0.0174862
579.558	0.0174580
579.637	0.0174541
579.715	0.0173707
579.793	0.0174277
579.871	0.0173573
579.949	0.0174191
580.027	0.0174245
580.105	0.0174919
580.183	0.0174404
580.262	0.0174731
580.340	0.0174649
580.418	0.0172962
580.496	0.0174888
580.574	0.0173639
580.652	0.0172550
580.730	0.0173971
580.808	0.0173811
580.887	0.0172490
580.965	0.0174634
581.043	0.0173674
581.121	0.0175303
581.199	0.0172596
581.277	0.0173652
581.355	0.0174225
581.433	0.0173183
581.512	0.0175125
581.590	0.0173354
581.668	0.0173794
581.746	0.0173334
581.824	0.0172750
581.902	0.0174033
581.980	0.0174331
582.058	0.0173647
582.137	0.0175359
582.215	0.0174564
582.293	0.0172212
582.371	0.0173077
582.449	0.0174594
582.527	0.0172873
582.605	0.0173567
582.683	0.0173593
582.762	0.0174047
582.840	0.0173867
582.918	0.0174143
582.996	0.0175407
583.074	0.0174598
583.152	0.0172842
583.230	0.0174026
583.308	0.0173795
583.387	0.0174734
583.465	0.0174265
583.543	0.0174335
583.621	0.0173302
583.699	0.0173588
583.777	0.0174088
583.855	0.0172932
583.933	0.0173045
584.012	0.0173098
584.090	0.0175833
584.168	0.0173688
584.246	0.0174255
584.324	0.0173082
584.402	0.0173145
584.480	0.0172378
584.558	0.0174059
584.637	0.0174928
584.715	0.0175488
584.793	0.0174015
584.871	0.0174212
584.949	0.0174062
585.027	0.0174606
585.105	0.0173067
585.183	0.0173680
585.262	0.0173624
585.340	0.0174107
585.418	0.0174767
585.496	0.0175150
585.574	0.0175185
585.652	0.0175546
585.730	0.0174754
585.808	0.0175029
585.887	0.0175098
585.965	0.0175182
586.043	0.0174035
586.121	0.0174467
586.199	0.0175069
586.277	0.0175187
586.355	0.0175647
586.433	0.0174728
586.512	0.0174765
586.590	0.0175034
586.668	0.0173824
586.746	0.0173838
586.824	0.0175270
586.902	0.0175705
586.980	0.0175031
587.058	0.0174384
587.137	0.0176020
587.215	0.0174901
587.293	0.0175167
587.371	0.0176766
587.449	0.0176427
587.527	0.0175564
587.605	0.0176815
587.683	0.0175494
587.762	0.0175260
587.840	0.0175940
587.918	0.0175505
587.996	0.0175509
588.074	0.0175702
588.152	0.0176034
588.230	0.0175163
588.308	0.0175101
588.387	0.0175389
588.465	0.0174032
588.543	0.0175488
588.621	0.0175436
588.699	0.0175549
588.777	0.0175638
588.855	0.0173895
588.933	0.0174838
589.012	0.0175012
589.090	0.0174422
589.168	0.0173994
589.246	0.0175829
589.324	0.0175143
589.402	0.0174723
589.480	0.0173118
589.558	0.0174361
589.637	0.0174687
589.715	0.0173035
589.793	0.0175419
589.871	0.0176022
589.949	0.0174097
590.027	0.0173640
590.105	0.0174902
590.183	0.0174150
590.262	0.0173725
590.340	0.0174594
590.418	0.0175640
590.496	0.0174908
590.574	0.0174244
590.652	0.0174924
590.730	0.0174667
590.808	0.0174117
590.887	0.0175085
590.965	0.0175460
591.043	0.0175541
591.121	0.0175578
591.199	0.0175740
591.277	0.0175044
591.355	0.0176044
591.433	0.0174693
591.512	0.0175475
591.590	0.0175362
591.668	0.0174774
591.746	0.0174583
591.824	0.0174380
591.902	0.0174718
591.980	0.0176481
592.058	0.0174657
592.137	0.0175085
592.215	0.0174731
592.293	0.0175008
592.371	0.0173067
592.449	0.0175907
592.527	0.0176170
592.605	0.0174555
592.683	0.0174379
592.762	0.0175438
592.840	0.0173923
592.918	0.0176152
592.996	0.0175024
593.074	0.0176291
593.152	0.0175250
593.230	0.0174542
593.308	0.0174740
593.387	0.0173847
593.465	0.0174091
593.543	0.0174130
593.621	0.0174950
593.699	0.0175053
593.777	0.0174541
593.855	0.0176367
593.933	0.0174437
594.012	0.0173807
594.090	0.0174973
594.168	0.0175002
594.246	0.0173256
594.324	0.0174158
594.402	0.0175625
594.480	0.0175197
594.558	0.0174046
594.637	0.0175761
594.715	0.0175153
594.793	0.0174853
594.871	0.0174752
594.949	0.0174535
595.027	0.0175142
595.105	0.0174012
595.183	0.0174567
595.262	0.0176468
595.340	0.0175293
595.418	0.0174777
595.496	0.0176045
595.574	0.0176073
595.652	0.0175767
595.730	0.0174646
595.808	0.0176411
595.887	0.0175267
595.965	0.0176741
596.043	0.0175500
596.121	0.0175309
596.199	0.0174662
596.277	0.0175847
596.355	0.0174825
596.433	0.0174438
596.512	0.0175001
596.590	0.0176462
596.668	0.0176200
596.746	0.0175571
596.824	0.0175547
596.902	0.0176028
596.980	0.0175268
597.058	0.0175288
597.137	0.0175894
597.215	0.0175647
597.293	0.0175792
597.371	0.0175956
597.449	0.0174320
597.527	0.0174752
597.605	0.0174833
597.683	0.0175102
597.762	0.0175477
597.840	0.0174458
597.918	0.0174828
597.996	0.0174742
598.074	0.0175423
598.152	0.0173775
598.230	0.0174370
598.308	0.0173369
598.387	0.0174391
598.465	0.0173715
598.543	0.0176035
598.621	0.0175789
598.699	0.0174370
598.777	0.0173508
598.855	0.0173742
598.933	0.0176466
599.012	0.0175607
599.090	0.0173400
599.168	0.0175503
599.246	0.0173928
599.324	0.0173645
599.402	0.0175102
599.480	0.0174891
599.558	0.0174444
599.637	0.0173989
599.715	0.0175492
599.793	0.0173724
599.871	0.0173342
599.949	0.0173544
600.027	0.0173344
600.105	0.0175079
600.183	0.0174349
600.262	0.0174409
600.340	0.0173612
600.418	0.0173940
600.496	0.0174107
600.574	0.0173748
600.652	0.0173083
600.730	0.0174573
600.808	0.0173699
600.887	0.0173567
600.965	0.0174755
601.043	0.0173689
601.121	0.0174335
601.199	0.0173873
601.277	0.0173496
601.355	0.0172966
601.433	0.0174671
601.512	0.0174831
601.590	0.0173459
601.668	0.0173904
601.746	0.0173430
601.824	0.0173651
601.902	0.0173083
601.980	0.0174660
602.058	0.0176582
602.137	0.0175076
602.215	0.0173057
602.293	0.0173927
602.371	0.0174538
602.449	0.0174735
602.527	0.0174226
602.605	0.0173958
602.683	0.0173854
602.762	0.0174934
602.840	0.0173853
602.918	0.0173975
602.996	0.0173251
603.074	0.0172767
603.152	0.0173558
603.230	0.0174754
603.308	0.0174979
603.387	0.0174258
603.465	0.0173858
603.543	0.0173770
603.621	0.0173786
603.699	0.0174872
603.777	0.0175638
603.855	0.0173947
603.933	0.0173914
604.012	0.0174524
604.090	0.0173838
604.168	0.0175263
604.246	0.0174289
604.324	0.0174917
604.402	0.0172728
604.480	0.0174544
604.558	0.0174765
604.637	0.0174991
604.715	0.0175150
604.793	0.0174763
604.871	0.0175148
604.949	0.0175017
605.027	0.0174496
605.105	0.0173886
605.183	0.0173992
605.262	0.0175607
605.340	0.0175906
605.418	0.0175640
605.496	0.0175868
605.574	0.0175133
605.652	0.0174326
605.730	0.0174760
605.808	0.0173733
605.887	0.0176276
605.965	0.0174616
606.043	0.0173104
606.121	0.0174609
606.199	0.0174817
606.277	0.0173846
606.355	0.0174981
606.433	0.0175184
606.512	0.0174669
606.590	0.0173981
606.668	0.0176302
606.746	0.0174430
606.824	0.0174107
606.902	0.0174635
606.980	0.0174482
607.058	0.0173898
607.137	0.0174581
607.215	0.0174212
607.293	0.0175941
607.371	0.0175714
607.449	0.0173753
607.527	0.0175453
607.605	0.0174335
607.683	0.0174998
607.762	0.0176122
607.840	0.0174855
607.918	0.0175571
607.996	0.0174691
608.074	0.0174368
608.152	0.0174622
608.230	0.0174062
608.308	0.0173973
608.387	0.0173518
608.465	0.0174245
608.543	0.0174529
608.621	0.0174817
608.699	0.0174306
608.777	0.0173193
608.855	0.0173746
608.933	0.0174355
609.012	0.0174081
609.090	0.0174390
609.168	0.0173801
609.246	0.0174552
609.324	0.0175488
609.402	0.0174809
609.480	0.0173845
609.558	0.0173277
609.637	0.0173294
609.715	0.0174512
609.793	0.0174014
609.871	0.0173250
609.949	0.0175076
610.027	0.0175149
610.105	0.0175268
610.183	0.0174525
610.262	0.0171818
610.340	0.0173828
610.418	0.0174395
610.496	0.0173858
610.574	0.0174275
610.652	0.0173949
610.730	0.0174817
610.808	0.0175592
610.887	0.0174506
610.965	0.0174100
611.043	0.0174770
611.121	0.0174776
611.199	0.0174931
611.277	0.0174102
611.355	0.0173899
611.433	0.0175231
611.512	0.0175547
611.590	0.0175581
611.668	0.0174548
611.746	0.0173990
611.824	0.0174574
611.902	0.0173831
611.980	0.0174134
612.058	0.0176070
612.137	0.0174018
612.215	0.0174692
612.293	0.0176125
612.371	0.0175485
612.449	0.0175098
612.527	0.0174799
612.605	0.0174641
612.683	0.0175577
612.762	0.0175582
612.840	0.0174905
612.918	0.0175490
612.996	0.0174486
613.074	0.0175633
613.152	0.0175832
613.230	0.0175650
613.308	0.0176509
613.387	0.0177078
613.465	0.0174991
613.543	0.0175864
613.621	0.0174543
613.699	0.0174514
613.777	0.0175103
613.855	0.0174968
613.933	0.0175777
614.012	0.0175449
614.090	0.0175780
614.168	0.0176892
614.246	0.0175529
614.324	0.0174001
614.402	0.0175293
614.480	0.0175601
614.558	0.0175575
614.637	0.0175921
614.715	0.0174863
614.793	0.0174998
614.871	0.0176987
614.949	0.0175758
615.027	0.0176376
615.105	0.0175723
615.183	0.0175169
615.262	0.0175759
615.340	0.0175565
615.418	0.0175201
615.496	0.0175028
615.574	0.0176382
615.652	0.0173755
615.730	0.0174883
615.808	0.0175777
615.887	0.0175308
615.965	0.0174989
616.043	0.0174018
616.121	0.0174837
616.199	0.0174945
616.277	0.0174760
616.355	0.0175260
616.433	0.0175538
616.512	0.0175323
616.590	0.0175871
616.668	0.0175976
616.746	0.0174642
616.824	0.0174846
616.902	0.0175047
616.980	0.0175260
617.058	0.0175166
617.137	0.0176123
617.215	0.0174480
617.293	0.0175720
617.371	0.0176297
617.449	0.0175222
617.527	0.0174741
617.605	0.0174695
617.683	0.0174877
617.762	0.0175652
617.840	0.0175963
617.918	0.0174653
617.996	0.0175247
618.074	0.0174905
618.152	0.0174278
618.230	0.0174942
618.308	0.0176803
618.387	0.0175165
618.465	0.0175665
618.543	0.0175439
618.621	0.0175510
618.699	0.0175241
618.777	0.0174071
618.855	0.0175439
618.933	0.0175966
619.012	0.0176476
619.090	0.0174982
619.168	0.0174619
619.246	0.0175615
619.324	0.0173827
619.402	0.0174963
619.480	0.0175421
619.558	0.0173625
619.637	0.0176056
619.715	0.0175572
619.793	0.0174772
619.871	0.0174599
619.949	0.0174339
620.027	0.0174956
620.105	0.0175420
620.183	0.0174648
620.262	0.0173929
620.340	0.0174509
620.418	0.0174585
620.496	0.0175285
620.574	0.0175530
620.652	0.0175419
620.730	0.0176099
620.808	0.0175713
620.887	0.0174030
620.965	0.0174781
621.043	0.0173805
621.121	0.0175493
621.199	0.0175465
621.277	0.0174408
621.355	0.0175105
621.433	0.0176303
621.512	0.0175581
621.590	0.0174143
621.668	0.0174374
621.746	0.0174527
621.824	0.0173879
621.902	0.0176446
621.980	0.0175810
622.058	0.0174803
622.137	0.0175141
622.215	0.0176488
622.293	0.0175468
622.371	0.0175315
622.449	0.0174933
622.527	0.0175640
622.605	0.0174974
622.683	0.0173252
622.762	0.0175396
622.840	0.0176247
622.918	0.0174632
622.996	0.0175183
623.074	0.0174049
623.152	0.0174880
623.230	0.0174935
623.308	0.0174790
623.387	0.0174580
623.465	0.0175451
623.543	0.0175433
623.621	0.0175566
623.699	0.0174538
623.777	0.0175091
623.855	0.0176382
623.933	0.0175134
624.012	0.0174857
624.090	0.0175326
624.168	0.0174936
624.246	0.0174446
624.324	0.0174553
624.402	0.0175742
624.480	0.0175678
624.558	0.0174197
624.637	0.0174261
624.715	0.0174976
624.793	0.0175053
624.871	0.0175153
624.949	0.0174129
625.027	0.0176148
625.105	0.0175639
625.183	0.0175336
625.262	0.0176505
625.340	0.0175402
625.418	0.0175124
625.496	0.0176486
625.574	0.0174007
625.652	0.0174861
625.730	0.0175586
625.808	0.0175278
625.887	0.0175353
625.965	0.0174358
626.043	0.0174768
626.121	0.0176197
626.199	0.0175175
626.277	0.0175477
626.355	0.0175616
626.433	0.0175025
626.512	0.0174010
626.590	0.0174744
626.668	0.0174675
626.746	0.0175011
626.824	0.0174835
626.902	0.0175555
626.980	0.0173604
627.058	0.0176043
627.137	0.0174607
627.215	0.0175459
627.293	0.0175249
627.371	0.0173109
627.449	0.0174225
627.527	0.0174137
627.605	0.0174336
627.683	0.0175397
627.762	0.0175260
627.840	0.0174515
627.918	0.0174446
627.996	0.0174397
628.074	0.0174625
628.152	0.0174586
628.230	0.0175714
628.308	0.0173665
628.387	0.0174092
628.465	0.0174898
628.543	0.0173402
628.621	0.0174616
628.699	0.0175122
628.777	0.0173544
628.855	0.0173714
628.933	0.0175008
629.012	0.0173582
629.090	0.0175842
629.168	0.0174168
629.246	0.0174287
629.324	0.0173787
629.402	0.0174986
629.480	0.0174845
629.558	0.0175452
629.637	0.0174318
629.715	0.0172665
629.793	0.0173288
629.871	0.0174422
629.949	0.0174600
630.027	0.0174526
630.105	0.0174705
630.183	0.0175472
630.262	0.0173996
630.340	0.0173033
630.418	0.0173779
630.496	0.0172757
630.574	0.0173473
630.652	0.0175279
630.730	0.0173994
630.808	0.0173077
630.887	0.0172961
630.965	0.0173119
631.043	0.0173741
631.121	0.0173802
631.199	0.0173833
631.277	0.0174088
631.355	0.0173713
631.433	0.0173687
631.512	0.0175504
631.590	0.0175434
631.668	0.0175150
631.746	0.0173994
631.824	0.0173402
631.902	0.0174287
631.980	0.0175092
632.058	0.0174780
632.137	0.0174577
632.215	0.0174830
632.293	0.0173946
632.371	0.0173867
632.449	0.0173632
632.527	0.0173981
632.605	0.0175503
632.683	0.0173021
632.762	0.0173943
632.840	0.0173563
632.918	0.0173638
632.996	0.0175795
633.074	0.0174578
633.152	0.0174587
633.230	0.0173244
633.308	0.0173457
633.387	0.0174253
633.465	0.0174956
633.543	0.0175013
633.621	0.0174556
633.699	0.0173312
633.777	0.0174703
633.855	0.0174572
633.933	0.0174802
634.012	0.0176242
634.090	0.0175039
634.168	0.0175480
634.246	0.0174214
634.324	0.0174211
634.402	0.0173941
634.480	0.0174046
634.558	0.0173656
634.637	0.0174129
634.715	0.0174334
634.793	0.0174042
634.871	0.0173921
634.949	0.0175224
635.027	0.0174654
635.105	0.0173798
635.183	0.0175005
635.262	0.0174415
635.340	0.0174097
635.418	0.0173219
635.496	0.0174427
635.574	0.0174662
635.652	0.0173932
635.730	0.0175468
635.808	0.0174030
635.887	0.0174522
635.965	0.0173996
636.043	0.0173988
636.121	0.0173329
636.199	0.0173679
636.277	0.0173259
636.355	0.0172787
636.433	0.0174262
636.512	0.0172785
636.590	0.0172798
636.668	0.0174077
636.746	0.0174632
636.824	0.0173957
636.902	0.0172617
636.980	0.0173364
637.058	0.0174768
637.137	0.0174619
637.215	0.0174352
637.293	0.0173531
637.371	0.0174332
637.449	0.0174226
637.527	0.0172812
637.605	0.0173891
637.683	0.0173705
637.762	0.0174738
637.840	0.0174066
637.918	0.0175333
637.996	0.0174422
638.074	0.0173969
638.152	0.0174955
638.230	0.0174557
638.308	0.0175559
638.387	0.0174260
638.465	0.0173110
638.543	0.0174644
638.621	0.0175142
638.699	0.0174211
638.777	0.0173885
638.855	0.0173978
638.933	0.0173582
639.012	0.0174479
639.090	0.0174514
639.168	0.0173528
639.246	0.0172423
639.324	0.0175966
639.402	0.0176259
639.480	0.0174045
639.558	0.0175202
639.637	0.0175378
639.715	0.0174313
639.793	0.0174565
639.871	0.0174621
639.949	0.0176245
640.027	0.0173951
640.105	0.0173864
640.183	0.0173839
640.262	0.0173841
640.340	0.0173779
640.418	0.0175155
640.496	0.0174056
640.574	0.0175346
640.652	0.0174570
640.730	0.0174256
640.808	0.0174899
640.887	0.0173136
640.965	0.0174304
641.043	0.0174934
641.121	0.0174737
641.199	0.0175467
641.277	0.0174004
641.355	0.0174612
641.433	0.0173972
641.512	0.0173988
641.590	0.0173812
641.668	0.0173615
641.746	0.0173001
641.824	0.0174708
641.902	0.0175153
641.980	0.0175177
642.058	0.0174755
642.137	0.0174950
642.215	0.0174377
642.293	0.0174842
642.371	0.0174938
642.449	0.0173471
642.527	0.0174159
642.605	0.0174374
642.683	0.0174113
642.762	0.0173962
642.840	0.0175638
642.918	0.0175109
642.996	0.0173331
643.074	0.0173979
643.152	0.0174630
643.230	0.0173857
643.308	0.0174062
643.387	0.0173277
643.465	0.0173573
643.543	0.0174709
643.621	0.0175119
643.699	0.0173921
643.777	0.0174912
643.855	0.0174127
643.933	0.0174838
644.012	0.0175047
644.090	0.0174410
644.168	0.0173865
644.246	0.0174622
644.324	0.0173801
644.402	0.0174981
644.480	0.0175324
644.558	0.0174221
644.637	0.0173756
644.715	0.0173959
644.793	0.0175558
644.871	0.0173769
644.949	0.0174600
645.027	0.0173576
645.105	0.0174516
645.183	0.0174400
645.262	0.0174233
645.340	0.0175291
645.418	0.0175594
645.496	0.0173309
645.574	0.0175042
645.652	0.0173665
645.730	0.0173723
645.808	0.0174963
645.887	0.0175581
645.965	0.0174292
646.043	0.0174346
646.121	0.0174324
646.199	0.0175208
646.277	0.0175220
646.355	0.0175642
646.433	0.0174265
646.512	0.0174540
646.590	0.0176093
646.668	0.0174670
646.746	0.0174598
646.824	0.0175593
646.902	0.0173837
646.980	0.0174469
647.058	0.0173285
647.137	0.0174541
647.215	0.0175716
647.293	0.0174853
647.371	0.0173498
647.449	0.0175253
647.527	0.0176353
647.605	0.0174739
647.683	0.0174327
647.762	0.0174905
647.840	0.0174500
647.918	0.0174619
647.996	0.0174960
648.074	0.0175280
648.152	0.0174953
648.230	0.0175323
648.308	0.0176001
648.387	0.0174837
648.465	0.0173811
648.543	0.0174089
648.621	0.0175552
648.699	0.0175669
648.777	0.0175011
648.855	0.0174671
648.933	0.0175089
649.012	0.0175359
649.090	0.0173501
649.168	0.0175422
649.246	0.0173876
649.324	0.0174449
649.402	0.0174004
649.480	0.0173856
649.558	0.0174011
649.637	0.0174094
649.715	0.0174458
649.793	0.0174037
649.871	0.0174703
649.949	0.0174892
650.027	0.0173539
650.105	0.0173346
650.183	0.0171967
650.262	0.0173053
650.340	0.0175159
650.418	0.0174314
650.496	0.0174097
650.574	0.0173943
650.652	0.0174452
650.730	0.0175264
650.808	0.0173759
650.887	0.0172501
650.965	0.0174428
651.043	0.0173996
651.121	0.0174296
651.199	0.0174570
651.277	0.0174800
651.355	0.0173658
651.433	0.0175333
651.512	0.0173579
651.590	0.0175571
651.668	0.0173724
651.746	0.0173753
651.824	0.0174126
651.902	0.0174474
651.980	0.0175221
652.058	0.0174162
652.137	0.0173795
652.215	0.0175466
652.293	0.0174987
652.371	0.0176054
652.449	0.0173737
652.527	0.0173517
652.605	0.0174245
652.683	0.0175362
652.762	0.0175838
652.840	0.0175260
652.918	0.0175408
652.996	0.0173988
653.074	0.0174552
653.152	0.0173958
653.230	0.0174567
653.308	0.0173483
653.387	0.0174825
653.465	0.0173853
653.543	0.0174969
653.621	0.0174519
653.699	0.0174702
653.777	0.0174507
653.855	0.0173812
653.933	0.0174194
654.012	0.0174905
654.090	0.0174901
654.168	0.0175626
654.246	0.0175431
654.324	0.0175374
654.402	0.0174843
654.480	0.0174471
654.558	0.0174517
654.637	0.0173540
654.715	0.0173967
654.793	0.0174860
654.871	0.0174409
654.949	0.0175043
655.027	0.0174041
655.105	0.0174840
655.183	0.0174468
655.262	0.0174167
655.340	0.0175028
655.418	0.0174596
655.496	0.0173691
655.574	0.0174673
655.652	0.0174580
655.730	0.0173901
655.808	0.0172849
655.887	0.0173631
655.965	0.0173285
656.043	0.0175490
656.121	0.0175223
656.199	0.0173420
656.277	0.0173522
656.355	0.0174397
656.433	0.0173592
656.512	0.0174540
656.590	0.0172878
656.668	0.0174072
656.746	0.0174686
656.824	0.0174274
656.902	0.0173870
656.980	0.0173927
657.058	0.0173893
657.137	0.0172078
657.215	0.0174191
657.293	0.0174606
657.371	0.0173586
657.449	0.0173590
657.527	0.0174700
657.605	0.0173814
657.683	0.0173688
657.762	0.0173505
657.840	0.0173621
657.918	0.0173920
657.996	0.0173351
658.074	0.0172989
658.152	0.0173649
658.230	0.0173594
658.308	0.0174200
658.387	0.0174075
658.465	0.0173853
658.543	0.0172839
658.621	0.0174081
658.699	0.0174909
658.777	0.0174221
658.855	0.0173425
658.933	0.0174712
659.012	0.0174062
659.090	0.0174189
659.168	0.0173618
659.246	0.0172723
659.324	0.0173360
659.402	0.0174060
659.480	0.0172979
659.558	0.0172607
659.637	0.0174740
659.715	0.0174526
659.793	0.0173180
659.871	0.0173999
659.949	0.0173611
660.027	0.0173543
660.105	0.0173287
660.183	0.0172910
660.262	0.0172647
660.340	0.0172124
660.418	0.0173314
660.496	0.0174422
660.574	0.0172047
660.652	0.0171246
660.730	0.0172851
660.808	0.0173770
660.887	0.0171854
660.965	0.0173997
661.043	0.0173244
661.121	0.0174033
661.199	0.0172590
661.277	0.0173074
661.355	0.0173930
661.433	0.0173326
661.512	0.0172884
661.590	0.0173314
661.668	0.0173080
661.746	0.0174411
661.824	0.0173209
661.902	0.0172467
661.980	0.0173637
662.058	0.0171529
662.137	0.0173477
662.215	0.0173671
662.293	0.0173618
662.371	0.0174128
662.449	0.0173284
662.527	0.0173273
662.605	0.0173587
662.683	0.0174084
662.762	0.0173890
662.840	0.0173743
662.918	0.0173740
662.996	0.0174009
663.074	0.0174615
663.152	0.0174133
663.230	0.0174916
663.308	0.0174571
663.387	0.0172462
663.465	0.0175181
663.543	0.0172742
663.621	0.0174290
663.699	0.0174409
663.777	0.0174900
663.855	0.0173874
663.933	0.0174297
664.012	0.0173716
664.090	0.0174214
664.168	0.0172816
664.246	0.0173365
664.324	0.0174428
664.402	0.0172427
664.480	0.0173537
664.558	0.0173705
664.637	0.0173449
664.715	0.0173135
664.793	0.0174156
664.871	0.0174174
664.949	0.0173025
665.027	0.0174324
665.105	0.0174541
665.183	0.0174497
665.262	0.0173084
665.340	0.0173475
665.418	0.0173404
665.496	0.0174019
665.574	0.0174714
665.652	0.0174540
665.730	0.0174200
665.808	0.0174582
665.887	0.0174030
665.965	0.0173488
666.043	0.0175006
666.121	0.0174255
666.199	0.0174983
666.277	0.0175462
666.355	0.0172861
666.433	0.0173404
666.512	0.0174085
666.590	0.0174019
666.668	0.0175957
666.746	0.0175702
666.824	0.0174331
666.902	0.0173664
666.980	0.0174953
667.058	0.0175330
667.137	0.0174297
667.215	0.0174914
667.293	0.0175242
667.371	0.0175175
667.449	0.0175491
667.527	0.0173695
667.605	0.0174451
667.683	0.0175869
667.762	0.0173801
667.840	0.0174516
667.918	0.0175552
667.996	0.0175449
668.074	0.0175288
668.152	0.0174793
668.230	0.0174857
668.308	0.0173808
668.387	0.0174419
668.465	0.0176087
668.543	0.0175391
668.621	0.0174107
668.699	0.0173651
668.777	0.0173640
668.855	0.0174072
668.933	0.0174142
669.012	0.0174330
669.090	0.0175167
669.168	0.0175954
669.246	0.0176025
669.324	0.0175152
669.402	0.0174654
669.480	0.0175374
669.558	0.0175250
669.637	0.0175296
669.715	0.0175748
669.793	0.0176773
669.871	0.0174443
669.949	0.0174406
670.027	0.0176171
670.105	0.0175771
670.183	0.0176901
670.262	0.0176993
670.340	0.0176148
670.418	0.0175010
670.496	0.0177614
670.574	0.0175466
670.652	0.0176122
670.730	0.0175911
670.808	0.0175632
670.887	0.0176307
670.965	0.0174620
671.043	0.0175698
671.121	0.0176553
671.199	0.0176247
671.277	0.0175958
671.355	0.0175296
671.433	0.0174547
671.512	0.0174388
671.590	0.0176678
671.668	0.0176814
671.746	0.0176427
671.824	0.0175182
671.902	0.0176228
671.980	0.0175107
672.058	0.0176913
672.137	0.0176426
672.215	0.0174870
672.293	0.0174704
672.371	0.0176144
672.449	0.0176176
672.527	0.0175928
672.605	0.0175060
672.683	0.0177459
672.762	0.0177351
672.840	0.0175967
672.918	0.0176958
672.996	0.0177850
673.074	0.0177831
673.152	0.0177924
673.230	0.0178100
673.308	0.0178226
673.387	0.0178233
673.465	0.0177423
673.543	0.0177734
673.621	0.0177931
673.699	0.0177487
673.777	0.0177055
673.855	0.0176463
673.933	0.0175175
674.012	0.0175565
674.090	0.0175394
674.168	0.0174900
674.246	0.0172653
674.324	0.0171679
674.402	0.0173463
674.480	0.0172309
674.558	0.0172247
674.637	0.0172444
674.715	0.0172475
674.793	0.0172330
674.871	0.0173176
674.949	0.0172671
675.027	0.0172212
675.105	0.0172966
675.183	0.0173565
675.262	0.0172421
675.340	0.0172475
675.418	0.0173283
675.496	0.0173755
675.574	0.0174998
675.652	0.0174348
675.730	0.0173974
675.808	0.0173693
675.887	0.0174174
675.965	0.0175549
676.043	0.0174585
676.121	0.0174870
676.199	0.0176638
676.277	0.0174572
676.355	0.0175335
676.433	0.0176721
676.512	0.0175677
676.590	0.0175085
676.668	0.0175749
676.746	0.0176740
676.824	0.0175600
676.902	0.0176581
676.980	0.0176316
677.058	0.0176946
677.137	0.0176515
677.215	0.0178112
677.293	0.0177452
677.371	0.0178641
677.449	0.0175458
677.527	0.0175652
677.605	0.0178124
677.683	0.0178055
677.762	0.0176331
677.840	0.0175565
677.918	0.0176544
677.996	0.0175481
678.074	0.0174471
678.152	0.0174356
678.230	0.0173066
678.308	0.0173639
678.387	0.0173524
678.465	0.0173547
678.543	0.0172152
678.621	0.0172408
678.699	0.0172665
678.777	0.0172943
678.855	0.0171786
678.933	0.0172467
679.012	0.0172435
679.090	0.0173735
679.168	0.0173930
679.246	0.0172640
679.324	0.0174081
679.402	0.0172910
679.480	0.0173338
679.558	0.0174197
679.637	0.0173947
679.715	0.0171518
679.793	0.0172820
679.871	0.0173859
679.949	0.0174170
680.027	0.0173027
680.105	0.0173039
680.183	0.0171278
680.262	0.0171889
680.340	0.0171825
680.418	0.0173203
680.496	0.0171314
680.574	0.0170881
680.652	0.0173247
680.730	0.0173355
680.808	0.0172180
680.887	0.0173856
680.965	0.0174477
681.043	0.0174501
681.121	0.0174236
681.199	0.0174310
681.277	0.0175496
681.355	0.0177518
681.433	0.0175613
681.512	0.0176401
681.590	0.0176482
681.668	0.0176730
681.746	0.0177330
681.824	0.0177593
681.902	0.0178060
681.980	0.0178947
682.058	0.0178573
682.137	0.0179373
682.215	0.0177388
682.293	0.0178146
682.371	0.0178126
682.449	0.0178441
682.527	0.0179288
682.605	0.0177879
682.683	0.0177486
682.762	0.0177552
682.840	0.0177229
682.918	0.0176469
682.996	0.0176223
683.074	0.0175687
683.152	0.0175288
683.230	0.0175198
683.308	0.0175420
683.387	0.0174142
683.465	0.0174676
683.543	0.0173323
683.621	0.0171833
683.699	0.0173119
683.777	0.0171942
683.855	0.0171989
683.933	0.0172572
684.012	0.0171825
684.090	0.0171988
684.168	0.0172034
684.246	0.0170544
684.324	0.0171924
684.402	0.0171361
684.480	0.0171677
684.558	0.0171719
684.637	0.0172266
684.715	0.0172439
684.793	0.0172539
684.871	0.0171412
684.949	0.0172138
685.027	0.0171343
685.105	0.0173193
685.183	0.0175505
685.262	0.0174763
685.340	0.0174805
685.418	0.0176455
685.496	0.0175123
685.574	0.0175752
685.652	0.0175552
685.730	0.0174976
685.808	0.0176853
685.887	0.0176598
685.965	0.0176752
686.043	0.0175438
686.121	0.0176621
686.199	0.0177271
686.277	0.0176311
686.355	0.0175901
686.433	0.0175462
686.512	0.0175359
686.590	0.0174790
686.668	0.0174316
686.746	0.0175512
686.824	0.0174117
686.902	0.0174752
686.980	0.0174977
687.058	0.0174709
687.137	0.0174498
687.215	0.0173987
687.293	0.0173531
687.371	0.0175113
687.449	0.0174454
687.527	0.0175515
687.605	0.0173831
687.683	0.0175832
687.762	0.0173154
687.840	0.0174168
687.918	0.0175143
687.996	0.0176130
688.074	0.0175243
688.152	0.0176351
688.230	0.0176347
688.308	0.0177339
688.387	0.0176403
688.465	0.0176881
688.543	0.0177490
688.621	0.0177438
688.699	0.0177660
688.777	0.0177020
688.855	0.0177167
688.933	0.0176830
689.012	0.0176695
689.090	0.0176451
689.168	0.0176086
689.246	0.0174069
689.324	0.0177451
689.402	0.0176244
689.480	0.0174434
689.558	0.0174554
689.637	0.0174203
689.715	0.0175420
689.793	0.0174070
689.871	0.0174274
689.949	0.0173329
690.027	0.0174370
690.105	0.0174877
690.183	0.0173398
690.262	0.0174017
690.340	0.0174710
690.418	0.0175286
690.496	0.0173898
690.574	0.0174709
690.652	0.0174836
690.730	0.0174361
690.808	0.0175109
690.887	0.0174294
690.965	0.0176363
691.043	0.0175320
691.121	0.0176823
691.199	0.0175813
691.277	0.0176669
691.355	0.0176240
691.433	0.0176212
691.512	0.0175867
691.590	0.0177949
691.668	0.0177968
691.746	0.0178524
691.824	0.0178968
691.902	0.0179238
691.980	0.0178093
692.058	0.0179217
692.137	0.0179427
692.215	0.0178259
692.293	0.0180492
692.371	0.0178419
692.449	0.0177809
692.527	0.0179580
692.605	0.0179111
692.683	0.0179018
692.762	0.0177116
692.840	0.0178595
692.918	0.0177450
692.996	0.0177816
693.074	0.0175751
693.152	0.0175073
693.230	0.0177090
693.308	0.0176507
693.387	0.0176188
693.465	0.0175156
693.543	0.0176785
693.621	0.0173882
693.699	0.0173682
693.777	0.0173557
693.855	0.0175066
693.933	0.0174977
694.012	0.0173322
694.090	0.0173428
694.168	0.0174058
694.246	0.0174406
694.324	0.0174153
694.402	0.0174519
694.480	0.0174906
694.558	0.0175407
694.637	0.0176140
694.715	0.0176102
694.793	0.0175301
694.871	0.0176035
694.949	0.0176949
695.027	0.0176551
695.105	0.0176093
695.183	0.0175719
695.262	0.0173576
695.340	0.0175986
695.418	0.0175725
695.496	0.0175672
695.574	0.0176791
695.652	0.0176981
695.730	0.0175681
695.808	0.0175738
695.887	0.0175362
695.965	0.0175694
696.043	0.0175576
696.121	0.0174889
696.199	0.0175567
696.277	0.0176602
696.355	0.0175985
696.433	0.0175463
696.512	0.0175032
696.590	0.0174364
696.668	0.0175809
696.746	0.0175816
696.824	0.0176025
696.902	0.0174877
696.980	0.0174947
697.058	0.0175282
697.137	0.0173246
697.215	0.0172346
697.293	0.0175608
697.371	0.0174588
697.449	0.0175297
697.527	0.0176020
697.605	0.0175471
697.683	0.0174109
697.762	0.0175789
697.840	0.0176419
697.918	0.0176282
697.996	0.0177053
698.074	0.0177231
698.152	0.0175403
698.230	0.0175974
698.308	0.0176389
698.387	0.0177293
698.465	0.0176675
698.543	0.0177546
698.621	0.0176691
698.699	0.0177685
698.777	0.0178036
698.855	0.0178471
698.933	0.0177687
699.012	0.0179174
699.090	0.0178056
699.168	0.0178687
699.246	0.0179060
699.324	0.0178839
699.402	0.0177517
699.480	0.0176932
699.558	0.0176057
699.637	0.0175990
699.715	0.0175047
699.793	0.0175406
699.871	0.0175056
699.949	0.0173063
700.027	0.0173022
700.105	0.0171998
700.183	0.0172291
700.262	0.0171176
700.340	0.0170592
700.418	0.0171084
700.496	0.0170891
700.574	0.0172562
700.652	0.0172704
700.730	0.0171626
700.808	0.0170343
700.887	0.0171655
700.965	0.0172185
701.043	0.0172615
701.121	0.0174068
701.199	0.0173047
701.277	0.0173670
701.355	0.0175433
701.433	0.0174965
701.512	0.0174557
701.590	0.0176821
701.668	0.0176665
701.746	0.0176115
701.824	0.0175587
701.902	0.0175516
701.980	0.0176991
702.058	0.0176042
702.137	0.0175880
702.215	0.0177161
702.293	0.0176675
702.371	0.0176019
702.449	0.0175916
702.527	0.0176127
702.605	0.0174511
702.683	0.0175936
702.762	0.0176200
702.840	0.0175937
702.918	0.0174765
702.996	0.0174709
703.074	0.0175268
703.152	0.0175923
703.230	0.0175025
703.308	0.0174789
703.387	0.0175259
703.465	0.0176749
703.543	0.0175658
703.621	0.0174754
703.699	0.0176375
703.777	0.0176286
703.855	0.0175414
703.933	0.0174770
704.012	0.0175255
704.090	0.0176279
704.168	0.0176064
704.246	0.0174577
704.324	0.0175529
704.402	0.0174590
704.480	0.0173655
704.558	0.0175246
704.637	0.0174783
704.715	0.0174249
704.793	0.0175436
704.871	0.0174019
704.949	0.0173943
705.027	0.0175024
705.105	0.0173431
705.183	0.0175611
705.262	0.0174467
705.340	0.0174178
705.418	0.0174372
705.496	0.0175038
705.574	0.0175684
705.652	0.0175773
705.730	0.0176443
705.808	0.0173822
705.887	0.0175562
705.965	0.0174902
706.043	0.0174604
706.121	0.0173440
706.199	0.0172024
706.277	0.0172268
706.355	0.0172601
706.433	0.0170933
706.512	0.0170795
706.590	0.0169496
706.668	0.0170628
706.746	0.0170582
706.824	0.0169173
706.902	0.0170351
706.980	0.0169650
707.058	0.0170142
707.137	0.0172140
707.215	0.0172639
707.293	0.0173260
707.371	0.0173779
707.449	0.0176625
707.527	0.0176465
707.605	0.0176646
707.683	0.0175614
707.762	0.0179067
707.840	0.0178201
707.918	0.0178039
707.996	0.0179197
708.074	0.0178721
708.152	0.0178098
708.230	0.0177542
708.308	0.0177002
708.387	0.0177677
708.465	0.0174496
708.543	0.0174311
708.621	0.0173791
708.699	0.0173667
708.777	0.0172971
708.855	0.0171804
708.933	0.0171389
709.012	0.0170490
709.090	0.0170727
709.168	0.0170688
709.246	0.0171046
709.324	0.0171851
709.402	0.0171317
709.480	0.0170751
709.558	0.0172243
709.637	0.0172946
709.715	0.0173008
709.793	0.0174039
709.871	0.0175945
709.949	0.0175674
710.027	0.0175758
710.105	0.0178672
710.183	0.0178614
710.262	0.0178065
710.340	0.0179687
710.418	0.0179356
710.496	0.0179619
710.574	0.0179317
710.652	0.0179762
710.730	0.0181380
710.808	0.0178594
710.887	0.0179281
710.965	0.0180327
711.043	0.0181471
711.121	0.0179730
711.199	0.0178143
711.277	0.0178012
711.355	0.0177287
711.433	0.0177648
711.512	0.0176057
711.590	0.0174558
711.668	0.0175700
711.746	0.0175312
711.824	0.0172992
711.902	0.0171893
711.980	0.0172395
712.058	0.0172176
712.137	0.0173724
712.215	0.0172254
712.293	0.0171986
712.371	0.0172880
712.449	0.0172211
712.527	0.0172065
712.605	0.0172000
712.683	0.0174335
712.762	0.0173643
712.840	0.0173302
712.918	0.0174926
712.996	0.0173330
713.074	0.0174924
713.152	0.0174767
713.230	0.0175681
713.308	0.0175441
713.387	0.0175276
713.465	0.0174253
713.543	0.0173354
713.621	0.0174284
713.699	0.0173292
713.777	0.0174355
713.855	0.0172214
713.933	0.0173344
714.012	0.0173617
714.090	0.0171699
714.168	0.0173097
714.246	0.0174355
714.324	0.0173382
714.402	0.0173714
714.480	0.0174706
714.558	0.0175230
714.637	0.0173995
714.715	0.0175404
714.793	0.0176967
714.871	0.0176825
714.949	0.0179047
715.027	0.0178464
715.105	0.0179050
715.183	0.0179306
715.262	0.0179624
715.340	0.0179050
715.418	0.0179167
715.496	0.0180040
715.574	0.0181071
715.652	0.0180367
715.730	0.0180057
715.808	0.0180131
715.887	0.0180082
715.965	0.0178432
716.043	0.0177981
716.121	0.0177213
716.199	0.0176393
716.277	0.0177396
716.355	0.0177789
716.433	0.0175192
716.512	0.0175064
716.590	0.0174660
716.668	0.0173947
716.746	0.0173563
716.824	0.0173940
716.902	0.0173437
716.980	0.0173306
717.058	0.0172592
717.137	0.0171758
717.215	0.0172858
717.293	0.0171987
717.371	0.0171385
717.449	0.0172562
717.527	0.0172388
717.605	0.0172436
717.683	0.0173302
717.762	0.0172736
717.840	0.0172775
717.918	0.0174155
717.996	0.0174189
718.074	0.0175683
718.152	0.0174350
718.230	0.0173521
718.308	0.0174205
718.387	0.0176006
718.465	0.0175590
718.543	0.0176155
718.621	0.0177302
718.699	0.0177998
718.777	0.0177022
718.855	0.0175580
718.933	0.0176696
719.012	0.0176557
719.090	0.0176814
719.168	0.0177538
719.246	0.0177272
719.324	0.0176782
719.402	0.0176300
719.480	0.0177063
719.558	0.0177058
719.637	0.0176141
719.715	0.0176517
719.793	0.0177439
719.871	0.0175556
719.949	0.0175244
720.027	0.0172207
720.105	0.0173954
720.183	0.0173155
720.262	0.0171965
720.340	0.0172273
720.418	0.0172136
720.496	0.0170863
720.574	0.0169455
720.652	0.0169093
720.730	0.0170164
720.808	0.0170443
720.887	0.0169916
720.965	0.0168914
721.043	0.0169113
721.121	0.0169868
721.199	0.0169310
721.277	0.0169503
721.355	0.0170111
721.433	0.0171059
721.512	0.0173222
721.590	0.0172154
721.668	0.0174409
721.746	0.0173927
721.824	0.0175713
721.902	0.0177305
721.980	0.0177048
722.058	0.0178400
722.137	0.0178531
722.215	0.0179079
722.293	0.0179026
722.371	0.0179258
722.449	0.0179520
722.527	0.0179457
722.605	0.0180413
722.683	0.0180956
722.762	0.0178618
722.840	0.0179338
722.918	0.0176653
722.996	0.0178007
723.074	0.0176291
723.152	0.0175360
723.230	0.0175649
723.308	0.0175661
723.387	0.0173457
723.465	0.0172864
723.543	0.0172266
723.621	0.0172088
723.699	0.0170979
723.777	0.0171011
723.855	0.0170203
723.933	0.0168752
724.012	0.0169716
724.090	0.0169933
724.168	0.0170805
724.246	0.0169683
724.324	0.0170648
724.402	0.0170255
724.480	0.0171203
724.558	0.0171185
724.637	0.0173074
724.715	0.0172679
724.793	0.0173542
724.871	0.0173850
724.949	0.0173952
725.027	0.0174078
725.105	0.0175066
725.183	0.0174480
725.262	0.0174535
725.340	0.0174567
725.418	0.0174034
725.496	0.0174239
725.574	0.0174577
725.652	0.0172760
725.730	0.0173363
725.808	0.0174715
725.887	0.0175567
725.965	0.0174821
726.043	0.0174585
726.121	0.0175404
726.199	0.0176321
726.277	0.0177419
726.355	0.0176505
726.433	0.0176408
726.512	0.0175916
726.590	0.0176870
726.668	0.0175284
726.746	0.0175198
726.824	0.0175038
726.902	0.0172963
726.980	0.0172312
727.058	0.0171811
727.137	0.0173007
727.215	0.0170552
727.293	0.0169441
727.371	0.0171136
727.449	0.0169972
727.527	0.0170441
727.605	0.0168928
727.683	0.0170399
727.762	0.0171454
727.840	0.0171625
727.918	0.0170642
727.996	0.0172240
728.074	0.0172381
728.152	0.0172243
728.230	0.0172215
728.308	0.0173008
728.387	0.0175768
728.465	0.0174747
728.543	0.0174235
728.621	0.0176887
728.699	0.0177055
728.777	0.0178131
728.855	0.0179053
728.933	0.0180050
729.012	0.0179436
729.090	0.0180178
729.168	0.0181033
729.246	0.0179739
729.324	0.0180329
729.402	0.0179692
729.480	0.0177715
729.558	0.0176292
729.637	0.0176495
729.715	0.0177094
729.793	0.0174982
729.871	0.0174992
729.949	0.0175481
730.027	0.0174188
730.105	0.0174101
730.183	0.0175592
730.262	0.0175491
730.340	0.0174216
730.418	0.0173676
730.496	0.0172961
730.574	0.0174594
730.652	0.0174306
730.730	0.0174355
730.808	0.0173584
730.887	0.0173803
730.965	0.0172341
731.043	0.0172365
731.121	0.0171610
731.199	0.0172823
731.277	0.0171519
731.355	0.0170772
731.433	0.0170597
731.512	0.0169933
731.590	0.0169415
731.668	0.0169717
731.746	0.0170697
731.824	0.0169270
731.902	0.0169489
731.980	0.0168610
732.058	0.0169434
732.137	0.0170805
732.215	0.0169997
732.293	0.0170467
732.371	0.0170562
732.449	0.0169830
732.527	0.0170790
732.605	0.0172491
732.683	0.0173547
732.762	0.0173817
732.840	0.0174801
732.918	0.0175383
732.996	0.0175536
733.074	0.0178243
733.152	0.0178973
733.230	0.0180103
733.308	0.0179633
733.387	0.0182699
733.465	0.0184193
733.543	0.0183949
733.621	0.0185198
733.699	0.0184579
733.777	0.0185252
733.855	0.0185607
733.933	0.0186087
734.012	0.0185596
734.090	0.0184878
734.168	0.0183778
734.246	0.0181951
734.324	0.0181204
734.402	0.0178749
734.480	0.0176913
734.558	0.0175253
734.637	0.0172364
734.715	0.0171819
734.793	0.0170903
734.871	0.0167892
734.949	0.0166975
735.027	0.0167252
735.105	0.0166099
735.183	0.0165210
735.262	0.0165516
735.340	0.0165134
735.418	0.0165222
735.496	0.0166808
735.574	0.0165791
735.652	0.0166943
735.730	0.0168630
735.808	0.0168761
735.887	0.0169461
735.965	0.0169973
736.043	0.0171490
736.121	0.0172005
736.199	0.0171919
736.277	0.0171969
736.355	0.0172346
736.433	0.0172620
736.512	0.0174321
736.590	0.0172382
736.668	0.0172929
736.746	0.0173811
736.824	0.0174455
736.902	0.0173787
736.980	0.0173751
737.058	0.0174337
737.137	0.0174160
737.215	0.0175999
737.293	0.0176162
737.371	0.0175060
737.449	0.0176529
737.527	0.0176410
737.605	0.0177686
737.683	0.0177586
737.762	0.0176760
737.840	0.0177114
737.918	0.0178104
737.996	0.0178479
738.074	0.0177013
738.152	0.0178014
738.230	0.0176530
738.308	0.0176773
738.387	0.0177224
738.465	0.0176807
738.543	0.0176150
738.621	0.0177508
738.699	0.0176221
738.777	0.0175935
738.855	0.0175577
738.933	0.0174517
739.012	0.0172680
739.090	0.0173565
739.168	0.0172713
739.246	0.0173243
739.324	0.0172811
739.402	0.0172774
739.480	0.0173322
739.558	0.0172961
739.637	0.0172831
739.715	0.0173175
739.793	0.0169451
739.871	0.0172672
739.949	0.0170837
740.027	0.0170441
740.105	0.0171506
740.183	0.0170441
740.262	0.0170801
740.340	0.0170093
740.418	0.0171576
740.496	0.0171113
740.574	0.0169823
740.652	0.0170393
740.730	0.0171896
740.808	0.0172449
740.887	0.0172456
740.965	0.0173765
741.043	0.0174653
741.121	0.0174010
741.199	0.0174773
741.277	0.0173821
741.355	0.0173078
741.433	0.0175016
741.512	0.0174422
741.590	0.0174114
741.668	0.0174115
741.746	0.0174863
741.824	0.0174657
741.902	0.0175380
741.980	0.0175613
742.058	0.0175715
742.137	0.0175413
742.215	0.0174397
742.293	0.0175208
742.371	0.0174349
742.449	0.0174352
742.527	0.0174599
742.605	0.0173299
742.683	0.0174495
742.762	0.0173527
742.840	0.0175002
742.918	0.0174026
742.996	0.0174985
743.074	0.0174784
743.152	0.0174803
743.230	0.0173696
743.308	0.0174043
743.387	0.0175452
743.465	0.0175073
743.543	0.0176366
743.621	0.0175408
743.699	0.0175297
743.777	0.0176493
743.855	0.0175678
743.933	0.0175775
744.012	0.0175996
744.090	0.0175253
744.168	0.0175017
744.246	0.0176376
744.324	0.0175230
744.402	0.0176006
744.480	0.0176151
744.558	0.0175303
744.637	0.0174994
744.715	0.0175797
744.793	0.0173931
744.871	0.0176376
744.949	0.0174757
745.027	0.0175096
745.105	0.0174195
745.183	0.0174140
745.262	0.0173246
745.340	0.0174711
745.418	0.0173476
745.496	0.0172518
745.574	0.0172305
745.652	0.0173430
745.730	0.0171453
745.808	0.0172307
745.887	0.0170288
745.965	0.0170564
746.043	0.0170396
746.121	0.0170605
746.199	0.0169839
746.277	0.0169768
746.355	0.0170647
746.433	0.0169982
746.512	0.0171327
746.590	0.0171805
746.668	0.0171676
746.746	0.0171726
746.824	0.0173270
746.902	0.0172282
746.980	0.0173776
747.058	0.0173748
747.137	0.0174131
747.215	0.0174696
747.293	0.0174767
747.371	0.0174227
747.449	0.0175632
747.527	0.0176271
747.605	0.0177432
747.683	0.0176222
747.762	0.0176315
747.840	0.0176653
747.918	0.0176842
747.996	0.0177697
748.074	0.0175642
748.152	0.0176210
748.230	0.0176063
748.308	0.0175957
748.387	0.0175073
748.465	0.0175451
748.543	0.0176344
748.621	0.0176021
748.699	0.0175337
748.777	0.0175080
748.855	0.0175139
748.933	0.0175926
749.012	0.0175640
749.090	0.0175529
749.168	0.0175230
749.246	0.0176100
749.324	0.0174533
749.402	0.0173533
749.480	0.0173602
749.558	0.0173380
749.637	0.0173853
749.715	0.0172804
749.793	0.0173297
749.871	0.0173751
749.949	0.0173891
750.027	0.0172867
750.105	0.0173643
750.183	0.0173836
750.262	0.0173981
750.340	0.0173806
750.418	0.0173961
750.496	0.0175798
750.574	0.0174409
750.652	0.0172841
750.730	0.0173797
750.808	0.0174232
750.887	0.0174998
750.965	0.0175581
751.043	0.0175436
751.121	0.0176724
751.199	0.0176089
751.277	0.0175974
751.355	0.0175948
751.433	0.0175760
751.512	0.0176907
751.590	0.0176071
751.668	0.0175582
751.746	0.0177755
751.824	0.0176998
751.902	0.0178384
751.980	0.0177860
752.058	0.0176141
752.137	0.0176931
752.215	0.0176221
752.293	0.0176237
752.371	0.0176733
752.449	0.0174110
752.527	0.0175800
752.605	0.0172905
752.683	0.0171627
752.762	0.0174644
752.840	0.0174325
752.918	0.0174171
752.996	0.0173753
753.074	0.0172059
753.152	0.0174757
753.230	0.0174617
753.308	0.0173569
753.387	0.0174215
753.465	0.0172935
753.543	0.0173579
753.621	0.0172211
753.699	0.0174259
753.777	0.0172761
753.855	0.0173692
753.933	0.0173309
754.012	0.0174203
754.090	0.0175838
754.168	0.0174866
754.246	0.0173967
754.324	0.0174827
754.402	0.0174868
754.480	0.0174947
754.558	0.0175516
754.637	0.0175936
754.715	0.0175532
754.793	0.0176450
754.871	0.0176441
754.949	0.0176656
755.027	0.0175992
755.105	0.0176348
755.183	0.0177832
755.262	0.0176834
755.340	0.0176067
755.418	0.0176689
755.496	0.0176534
755.574	0.0176881
755.652	0.0177062
755.730	0.0177847
755.808	0.0177359
755.887	0.0175420
755.965	0.0176527
756.043	0.0176897
756.121	0.0175742
756.199	0.0175568
756.277	0.0175957
756.355	0.0175490
756.433	0.0176551
756.512	0.0174986
756.590	0.0174232
756.668	0.0175341
756.746	0.0176015
756.824	0.0176033
756.902	0.0175723
756.980	0.0176243
757.058	0.0176665
757.137	0.0176896
757.215	0.0177996
757.293	0.0178020
757.371	0.0177073
757.449	0.0177785
757.527	0.0176985
757.605	0.0176489
757.683	0.0175507
757.762	0.0175607
757.840	0.0174124
757.918	0.0174179
757.996	0.0174564
758.074	0.0174706
758.152	0.0173753
758.230	0.0171304
758.308	0.0173342
758.387	0.0172676
758.465	0.0173338
758.543	0.0173174
758.621	0.0172679
758.699	0.0172865
758.777	0.0173349
758.855	0.0172844
758.933	0.0173082
759.012	0.0172734
759.090	0.0172907
759.168	0.0171606
759.246	0.0172944
759.324	0.0172477
759.402	0.0172898
759.480	0.0172964
759.558	0.0173434
759.637	0.0172967
759.715	0.0172725
759.793	0.0173755
759.871	0.0174780
759.949	0.0174461
760.027	0.0173874
760.105	0.0174268
760.183	0.0174223
760.262	0.0175356
760.340	0.0174308
760.418	0.0175079
760.496	0.0174893
760.574	0.0175626
760.652	0.0176788
760.730	0.0175819
760.808	0.0176147
760.887	0.0175977
760.965	0.0175946
761.043	0.0176140
761.121	0.0174531
761.199	0.0175012
761.277	0.0178231
761.355	0.0175909
761.433	0.0176055
761.512	0.0176208
761.590	0.0176170
761.668	0.0175513
761.746	0.0175463
761.824	0.0175839
761.902	0.0176515
761.980	0.0176871
762.058	0.0174986
762.137	0.0175803
762.215	0.0175759
762.293	0.0174335
762.371	0.0176163
762.449	0.0176080
762.527	0.0174485
762.605	0.0175243
762.683	0.0174416
762.762	0.0173849
762.840	0.0175161
762.918	0.0174935
762.996	0.0172697
763.074	0.0173700
763.152	0.0173423
763.230	0.0172998
763.308	0.0172470
763.387	0.0173009
763.465	0.0172209
763.543	0.0172217
763.621	0.0172777
763.699	0.0172511
763.777	0.0171849
763.855	0.0169539
763.933	0.0171014
764.012	0.0170476
764.090	0.0169874
764.168	0.0170194
764.246	0.0170497
764.324	0.0170393
764.402	0.0171449
764.480	0.0168871
764.558	0.0169987
764.637	0.0170719
764.715	0.0170464
764.793	0.0171143
764.871	0.0170882
764.949	0.0172460
765.027	0.0172958
765.105	0.0172894
765.183	0.0173370
765.262	0.0174710
765.340	0.0176195
765.418	0.0175155
765.496	0.0176366
765.574	0.0175247
765.652	0.0177859
765.730	0.0177818
765.808	0.0175748
765.887	0.0176315
765.965	0.0175764
766.043	0.0176841
766.121	0.0176102
766.199	0.0175812
766.277	0.0176941
766.355	0.0177300
766.433	0.0176665
766.512	0.0176230
766.590	0.0174827
766.668	0.0175745
766.746	0.0175951
766.824	0.0175211
766.902	0.0174715
766.980	0.0175317
767.058	0.0174860
767.137	0.0174979
767.215	0.0174283
767.293	0.0173746
767.371	0.0173645
767.449	0.0174333
767.527	0.0172633
767.605	0.0173278
767.683	0.0173698
767.762	0.0173141
767.840	0.0173315
767.918	0.0173093
767.996	0.0173849
768.074	0.0173211
768.152	0.0172631
768.230	0.0173585
768.308	0.0173457
768.387	0.0172925
768.465	0.0174346
768.543	0.0172988
768.621	0.0174213
768.699	0.0175038
768.777	0.0174892
768.855	0.0174313
768.933	0.0175400
769.012	0.0174909
769.090	0.0175534
769.168	0.0174267
769.246	0.0172936
769.324	0.0174800
769.402	0.0174073
769.480	0.0174602
769.558	0.0174731
769.637	0.0174210
769.715	0.0173539
769.793	0.0173551
769.871	0.0173230
769.949	0.0172837
770.027	0.0173991
770.105	0.0175545
770.183	0.0175416
770.262	0.0174755
770.340	0.0175274
770.418	0.0175990
770.496	0.0178125
770.574	0.0177936
770.652	0.0177007
770.730	0.0178976
770.808	0.0178974
770.887	0.0179028
770.965	0.0178085
771.043	0.0177348
771.121	0.0177992
771.199	0.0178033
771.277	0.0177736
771.355	0.0177100
771.433	0.0176809
771.512	0.0173459
771.590	0.0174580
771.668	0.0174971
771.746	0.0172509
771.824	0.0174421
771.902	0.0175701
771.980	0.0172303
772.058	0.0172683
772.137	0.0172237
772.215	0.0172539
772.293	0.0173064
772.371	0.0172886
772.449	0.0173885
772.527	0.0174583
772.605	0.0175109
772.683	0.0175099
772.762	0.0175656
772.840	0.0176237
772.918	0.0176259
772.996	0.0175015
773.074	0.0176850
773.152	0.0176296
773.230	0.0176997
773.308	0.0175422
773.387	0.0176383
773.465	0.0177238
773.543	0.0176990
773.621	0.0177848
773.699	0.0176881
773.777	0.0177415
773.855	0.0177527
773.933	0.0176296
774.012	0.0174590
774.090	0.0175449
774.168	0.0176242
774.246	0.0175562
774.324	0.0176709
774.402	0.0176872
774.480	0.0176981
774.558	0.0174112
774.637	0.0176507
774.715	0.0176561
774.793	0.0175425
774.871	0.0176687
774.949	0.0176690
775.027	0.0176301
775.105	0.0176610
775.183	0.0176334
775.262	0.0175120
775.340	0.0176617
775.418	0.0175802
775.496	0.0174531
775.574	0.0175941
775.652	0.0177590
775.730	0.0176336
775.808	0.0175707
775.887	0.0176466
775.965	0.0176352
776.043	0.0176712
776.121	0.0175518
776.199	0.0177206
776.277	0.0176506
776.355	0.0174757
776.433	0.0177209
776.512	0.0177735
776.590	0.0176381
776.668	0.0176208
776.746	0.0176311
776.824	0.0175671
776.902	0.0175565
776.980	0.0176049
777.058	0.0175150
777.137	0.0174123
777.215	0.0174979
777.293	0.0175620
777.371	0.0174574
777.449	0.0173659
777.527	0.0174233
777.605	0.0174462
777.683	0.0173477
777.762	0.0174380
777.840	0.0175426
777.918	0.0175085
777.996	0.0174067
778.074	0.0176012
778.152	0.0175660
778.230	0.0175410
778.308	0.0175881
778.387	0.0176068
778.465	0.0175913
778.543	0.0176673
778.621	0.0176501
778.699	0.0176485
778.777	0.0175765
778.855	0.0177100
778.933	0.0176822
779.012	0.0177143
779.090	0.0176989
779.168	0.0176733
779.246	0.0174677
779.324	0.0174741
779.402	0.0174897
779.480	0.0172981
779.558	0.0173981
779.637	0.0174090
779.715	0.0173222
779.793	0.0172663
779.871	0.0173941
779.949	0.0174211
780.027	0.0171677
780.105	0.0173716
780.183	0.0171695
780.262	0.0173695
780.340	0.0171908
780.418	0.0173254
780.496	0.0172638
780.574	0.0174384
780.652	0.0174964
780.730	0.0175381
780.808	0.0175195
780.887	0.0175189
780.965	0.0176256
781.043	0.0175154
781.121	0.0177483
781.199	0.0178275
781.277	0.0176933
781.355	0.0176634
781.433	0.0176910
781.512	0.0176743
781.590	0.0177209
781.668	0.0177232
781.746	0.0177377
781.824	0.0176450
781.902	0.0175378
781.980	0.0175335
782.058	0.0177836
782.137	0.0174516
782.215	0.0175589
782.293	0.0174493
782.371	0.0173790
782.449	0.0173065
782.527	0.0173613
782.605	0.0172776
782.683	0.0172404
782.762	0.0172541
782.840	0.0171309
782.918	0.0171944
782.996	0.0171116
783.074	0.0170187
783.152	0.0172485
783.230	0.0170199
783.308	0.0170597
783.387	0.0170472
783.465	0.0171901
783.543	0.0171282
783.621	0.0170300
783.699	0.0171857
783.777	0.0173196
783.855	0.0172594
783.933	0.0171579
784.012	0.0173050
784.090	0.0173824
784.168	0.0174889
784.246	0.0174632
784.324	0.0174738
784.402	0.0173485
784.480	0.0174606
784.558	0.0177251
784.637	0.0175098
784.715	0.0175187
784.793	0.0176572
784.871	0.0176834
784.949	0.0176371
785.027	0.0176205
785.105	0.0176604
785.183	0.0176400
785.262	0.0176415
785.340	0.0176045
785.418	0.0175486
785.496	0.0175991
785.574	0.0176315
785.652	0.0176334
785.730	0.0175417
785.808	0.0174224
785.887	0.0174871
785.965	0.0174484
786.043	0.0174369
786.121	0.0175418
786.199	0.0173383
786.277	0.0173069
786.355	0.0174513
786.433	0.0174727
786.512	0.0173037
786.590	0.0173820
786.668	0.0172878
786.746	0.0175687
786.824	0.0174137
786.902	0.0173529
786.980	0.0172890
787.058	0.0172800
787.137	0.0174451
787.215	0.0173420
787.293	0.0174039
787.371	0.0174442
787.449	0.0174916
787.527	0.0173547
787.605	0.0175028
787.683	0.0174996
787.762	0.0175694
787.840	0.0175216
787.918	0.0175766
787.996	0.0174746
788.074	0.0174372
788.152	0.0175265
788.230	0.0174230
788.308	0.0174976
788.387	0.0173678
788.465	0.0172271
788.543	0.0174403
788.621	0.0173841
788.699	0.0173053
788.777	0.0173636
788.855	0.0173512
788.933	0.0172134
789.012	0.0173964
789.090	0.0172363
789.168	0.0172151
789.246	0.0173267
789.324	0.0174458
789.402	0.0173895
789.480	0.0173869
789.558	0.0174683
789.637	0.0174712
789.715	0.0174458
789.793	0.0173837
789.871	0.0175053
789.949	0.0174756
790.027	0.0176093
790.105	0.0174034
790.183	0.0174892
790.262	0.0174834
790.340	0.0174527
790.418	0.0175574
790.496	0.0174557
790.574	0.0174681
790.652	0.0175124
790.730	0.0174555
790.808	0.0175080
790.887	0.0176010
790.965	0.0173887
791.043	0.0173512
791.121	0.0173043
791.199	0.0174055
791.277	0.0172919
791.355	0.0173289
791.433	0.0174316
791.512	0.0174845
791.590	0.0172783
791.668	0.0172228
791.746	0.0173766
791.824	0.0173993
791.902	0.0174644
791.980	0.0175093
792.058	0.0174706
792.137	0.0174641
792.215	0.0175254
792.293	0.0173440
792.371	0.0173886
792.449	0.0174548
792.527	0.0173800
792.605	0.0174198
792.683	0.0173397
792.762	0.0173414
792.840	0.0174541
792.918	0.0172924
792.996	0.0172558
793.074	0.0174789
793.152	0.0173128
793.230	0.0173759
793.308	0.0174327
793.387	0.0172858
793.465	0.0173656
793.543	0.0175821
793.621	0.0175857
793.699	0.0175723
793.777	0.0176802
793.855	0.0176830
793.933	0.0177777
794.012	0.0177184
794.090	0.0176920
794.168	0.0178103
794.246	0.0177429
794.324	0.0176730
794.402	0.0177357
794.480	0.0176662
794.558	0.0177615
794.637	0.0175753
794.715	0.0176357
794.793	0.0175474
794.871	0.0175563
794.949	0.0175138
795.027	0.0174950
795.105	0.0175037
795.183	0.0172776
795.262	0.0173197
795.340	0.0174969
795.418	0.0171342
795.496	0.0173267
795.574	0.0173466
795.652	0.0173313
795.730	0.0172186
795.808	0.0173386
795.887	0.0172999
795.965	0.0172847
796.043	0.0174336
796.121	0.0174059
796.199	0.0173624
796.277	0.0175018
796.355	0.0174815
796.433	0.0175658
796.512	0.0175648
796.590	0.0176076
796.668	0.0175928
796.746	0.0176239
796.824	0.0175295
796.902	0.0175674
796.980	0.0175605
797.058	0.0174934
797.137	0.0176382
797.215	0.0175677
797.293	0.0175761
797.371	0.0175981
797.449	0.0175539
797.527	0.0174788
797.605	0.0176124
797.683	0.0176493
797.762	0.0174384
797.840	0.0175546
797.918	0.0177052
797.996	0.0176321
798.074	0.0174263
798.152	0.0176831
798.230	0.0176212
798.308	0.0177306
798.387	0.0176087
798.465	0.0174904
798.543	0.0174598
798.621	0.0174879
798.699	0.0173842
798.777	0.0173968
798.855	0.0174577
798.933	0.0174722
799.012	0.0174564
799.090	0.0174564
799.168	0.0173128
799.246	0.0174114
799.324	0.0174463
799.402	0.0173789
799.480	0.0173154
799.558	0.0174113
799.637	0.0173167
799.715	0.0173677
799.793	0.0175167
799.871	0.0175600
799.949	0.0175234
800.027	0.0175159
800.105	0.0175843
800.183	0.0175066
800.262	0.0174273
800.340	0.0175131
800.418	0.0173820
800.496	0.0174282
800.574	0.0175975
800.652	0.0175620
800.730	0.0175547
800.808	0.0173976
800.887	0.0176966
800.965	0.0174664
801.043	0.0173238
801.121	0.0174373
801.199	0.0174966
801.277	0.0174142
801.355	0.0175643
801.433	0.0174094
801.512	0.0174007
801.590	0.0174373
801.668	0.0173975
801.746	0.0175024
801.824	0.0174075
801.902	0.0173261
801.980	0.0174648
802.058	0.0173607
802.137	0.0174820
802.215	0.0174346
802.293	0.0175388
802.371	0.0174837
802.449	0.0174122
802.527	0.0173582
802.605	0.0173745
802.683	0.0174291
802.762	0.0175683
802.840	0.0173881
802.918	0.0175244
802.996	0.0175166
803.074	0.0175346
803.152	0.0175408
803.230	0.0174366
803.308	0.0174083
803.387	0.0173042
803.465	0.0174052
803.543	0.0173493
803.621	0.0173566
803.699	0.0173920
803.777	0.0172585
803.855	0.0173582
803.933	0.0173763
804.012	0.0174290
804.090	0.0173963
804.168	0.0172823
804.246	0.0172891
804.324	0.0174358
804.402	0.0174977
804.480	0.0174669
804.558	0.0174711
804.637	0.0175313
804.715	0.0173148
804.793	0.0173444
804.871	0.0174699
804.949	0.0175349
805.027	0.0175148
805.105	0.0173248
805.183	0.0175276
805.262	0.0173553
805.340	0.0173978
805.418	0.0174915
805.496	0.0174597
805.574	0.0173600
805.652	0.0175263
805.730	0.0174909
805.808	0.0174507
805.887	0.0174767
805.965	0.0174978
806.043	0.0175595
806.121	0.0175027
806.199	0.0175772
806.277	0.0175546
806.355	0.0176755
806.433	0.0175561
806.512	0.0175763
806.590	0.0175958
806.668	0.0176180
806.746	0.0175559
806.824	0.0175471
806.902	0.0175428
806.980	0.0176383
807.058	0.0176023
807.137	0.0175459
807.215	0.0174274
807.293	0.0176130
807.371	0.0175277
807.449	0.0174647
807.527	0.0174905
807.605	0.0173451
807.683	0.0174092
807.762	0.0173935
807.840	0.0173515
807.918	0.0175085
807.996	0.0175365
808.074	0.0173447
808.152	0.0174384
808.230	0.0173997
808.308	0.0173719
808.387	0.0175134
808.465	0.0174709
808.543	0.0173965
808.621	0.0174232
808.699	0.0175153
808.777	0.0175089
808.855	0.0174152
808.933	0.0174870
809.012	0.0175871
809.090	0.0175826
809.168	0.0176064
809.246	0.0175554
809.324	0.0174333
809.402	0.0176965
809.480	0.0176154
809.558	0.0174052
809.637	0.0174220
809.715	0.0175896
809.793	0.0175912
809.871	0.0174622
809.949	0.0175147
810.027	0.0175058
810.105	0.0175163
810.183	0.0174617
810.262	0.0174043
810.340	0.0173214
810.418	0.0173782
810.496	0.0174896
810.574	0.0173215
810.652	0.0172946
810.730	0.0174432
810.808	0.0174834
810.887	0.0173767
810.965	0.0173998
811.043	0.0174818
811.121	0.0175261
811.199	0.0173744
811.277	0.0173447
811.355	0.0175977
811.433	0.0175641
811.512	0.0175241
811.590	0.0173936
811.668	0.0173639
811.746	0.0175018
811.824	0.0175179
811.902	0.0174920
811.980	0.0175800
812.058	0.0174463
812.137	0.0176274
812.215	0.0175648
812.293	0.0174370
812.371	0.0175902
812.449	0.0174281
812.527	0.0175118
812.605	0.0175355
812.683	0.0176195
812.762	0.0175799
812.840	0.0176429
812.918	0.0176351
812.996	0.0175852
813.074	0.0175016
813.152	0.0176268
813.230	0.0175994
813.308	0.0174528
813.387	0.0176675
813.465	0.0177203
813.543	0.0175443
813.621	0.0175231
813.699	0.0174928
813.777	0.0175514
813.855	0.0175482
813.933	0.0174455
814.012	0.0174008
814.090	0.0173631
814.168	0.0173021
814.246	0.0172668
814.324	0.0173972
814.402	0.0172231
814.480	0.0173756
814.558	0.0173216
814.637	0.0172649
814.715	0.0172971
814.793	0.0173994
814.871	0.0172773
814.949	0.0174428
815.027	0.0175304
815.105	0.0173166
815.183	0.0175732
815.262	0.0176652
815.340	0.0174743
815.418	0.0175735
815.496	0.0175445
815.574	0.0173814
815.652	0.0175487
815.730	0.0176469
815.808	0.0175711
815.887	0.0176619
815.965	0.0175165
816.043	0.0176863
816.121	0.0176170
816.199	0.0175657
816.277	0.0176385
816.355	0.0176738
816.433	0.0175224
816.512	0.0175539
816.590	0.0175915
816.668	0.0174515
816.746	0.0173080
816.824	0.0174277
816.902	0.0174332
816.980	0.0175273
817.058	0.0174334
817.137	0.0174001
817.215	0.0173665
817.293	0.0174401
817.371	0.0175475
817.449	0.0174440
817.527	0.0174361
817.605	0.0174325
817.683	0.0174239
817.762	0.0173939
817.840	0.0175420
817.918	0.0175027
817.996	0.0173267
818.074	0.0174611
818.152	0.0173634
818.230	0.0174500
818.308	0.0173625
818.387	0.0173402
818.465	0.0173865
818.543	0.0173002
818.621	0.0174238
818.699	0.0174229
818.777	0.0173304
818.855	0.0173319
818.933	0.0173986
819.012	0.0174943
819.090	0.0173860
819.168	0.0173141
819.246	0.0173045
819.324	0.0174143
819.402	0.0174158
819.480	0.0172483
819.558	0.0173586
819.637	0.0174598
819.715	0.0171567
819.793	0.0173517
819.871	0.0175076
819.949	0.0175849
820.027	0.0174088
820.105	0.0173627
820.183	0.0174424
820.262	0.0174530
820.340	0.0175447
820.418	0.0172966
820.496	0.0174507
820.574	0.0175152
820.652	0.0174586
820.730	0.0175662
820.808	0.0176259
820.887	0.0174992
820.965	0.0176681
821.043	0.0174471
821.121	0.0175539
821.199	0.0174584
821.277	0.0176169
821.355	0.0175534
821.433	0.0175233
821.512	0.0176726
821.590	0.0174737
821.668	0.0174227
821.746	0.0176288
821.824	0.0174735
821.902	0.0174944
821.980	0.0175373
822.058	0.0175487
822.137	0.0175395
822.215	0.0175117
822.293	0.0174659
822.371	0.0175232
822.449	0.0174830
822.527	0.0175954
822.605	0.0175328
822.683	0.0175208
822.762	0.0175634
822.840	0.0175342
822.918	0.0176085
822.996	0.0174602
823.074	0.0176849
823.152	0.0174868
823.230	0.0174223
823.308	0.0175987
823.387	0.0175554
823.465	0.0175961
823.543	0.0175391
823.621	0.0174130
823.699	0.0176070
823.777	0.0175484
823.855	0.0176454
823.933	0.0175522
824.012	0.0175259
824.090	0.0175404
824.168	0.0176012
824.246	0.0174871
824.324	0.0174331
824.402	0.0174172
824.480	0.0175083
824.558	0.0174382
824.637	0.0174210
824.715	0.0175877
824.793	0.0174876
824.871	0.0173605
824.949	0.0174261
825.027	0.0175885
825.105	0.0174470
825.183	0.0175514
825.262	0.0175938
825.340	0.0175233
825.418	0.0176192
825.496	0.0174400
825.574	0.0175574
825.652	0.0175988
825.730	0.0176530
825.808	0.0174578
825.887	0.0175297
825.965	0.0177008
826.043	0.0176300
826.121	0.0175517
826.199	0.0175896
826.277	0.0175626
826.355	0.0176507
826.433	0.0175879
826.512	0.0175888
826.590	0.0175568
826.668	0.0176198
826.746	0.0175108
826.824	0.0175580
826.902	0.0174408
826.980	0.0174280
827.058	0.0174456
827.137	0.0175084
827.215	0.0176350
827.293	0.0174523
827.371	0.0174242
827.449	0.0174657
827.527	0.0174134
827.605	0.0173521
827.683	0.0172905
827.762	0.0173586
827.840	0.0174155
827.918	0.0173354
827.996	0.0172481
828.074	0.0174406
828.152	0.0173374
828.230	0.0174466
828.308	0.0173610
828.387	0.0173536
828.465	0.0174021
828.543	0.0173828
828.621	0.0174526
828.699	0.0174958
828.777	0.0175697
828.855	0.0176414
828.933	0.0175347
829.012	0.0174311
829.090	0.0176205
829.168	0.0175433
829.246	0.0175819
829.324	0.0174950
829.402	0.0173223
829.480	0.0175521
829.558	0.0173990
829.637	0.0175224
829.715	0.0175694
829.793	0.0174933
829.871	0.0174236
829.949	0.0175027
830.027	0.0173798
830.105	0.0175714
830.183	0.0174463
830.262	0.0174777
830.340	0.0173918
830.418	0.0174616
830.496	0.0175299
830.574	0.0175165
830.652	0.0174718
830.730	0.0174249
830.808	0.0173885
830.887	0.0175182
830.965	0.0175926
831.043	0.0173701
831.121	0.0175769
831.199	0.0174371
831.277	0.0174627
831.355	0.0175852
831.433	0.0174390
831.512	0.0174706
831.590	0.0174582
831.668	0.0175733
831.746	0.0175220
831.824	0.0175251
831.902	0.0175498
831.980	0.0174062
832.058	0.0173940
832.137	0.0173824
832.215	0.0174715
832.293	0.0175537
832.371	0.0174196
832.449	0.0174749
832.527	0.0173620
832.605	0.0173371
832.683	0.0172870
832.762	0.0173734
832.840	0.0174801
832.918	0.0174088
832.996	0.0174168
833.074	0.0173664
833.152	0.0175620
833.230	0.0175644
833.308	0.0174603
833.387	0.0174756
833.465	0.0174313
833.543	0.0175217
833.621	0.0175290
833.699	0.0174884
833.777	0.0175445
833.855	0.0175542
833.933	0.0175249
834.012	0.0175652
834.090	0.0176414
834.168	0.0175525
834.246	0.0175687
834.324	0.0175408
834.402	0.0176085
834.480	0.0175790
834.558	0.0176514
834.637	0.0177157
834.715	0.0176994
834.793	0.0176516
834.871	0.0177491
834.949	0.0178316
835.027	0.0177081
835.105	0.0176701
835.183	0.0176490
835.262	0.0176144
835.340	0.0177565
835.418	0.0175111
835.496	0.0174736
835.574	0.0175405
835.652	0.0176463
835.730	0.0174207
835.808	0.0175156
835.887	0.0174401
835.965	0.0173535
836.043	0.0175404
836.121	0.0174854
836.199	0.0174252
836.277	0.0173423
836.355	0.0174535
836.433	0.0174407
836.512	0.0174096
836.590	0.0176129
836.668	0.0174956
836.746	0.0174936
836.824	0.0173347
836.902	0.0174914
836.980	0.0175271
837.058	0.0174709
837.137	0.0174410
837.215	0.0175366
837.293	0.0174084
837.371	0.0173843
837.449	0.0175235
837.527	0.0174149
837.605	0.0174448
837.683	0.0175586
837.762	0.0173584
837.840	0.0174937
837.918	0.0174755
837.996	0.0175379
838.074	0.0173669
838.152	0.0173637
838.230	0.0173219
838.308	0.0173364
838.387	0.0173163
838.465	0.0174519
838.543	0.0173730
838.621	0.0174038
838.699	0.0173450
838.777	0.0173066
838.855	0.0174696
838.933	0.0173827
839.012	0.0173154
839.090	0.0173256
839.168	0.0173717
839.246	0.0173456
839.324	0.0174290
839.402	0.0174322
839.480	0.0175659
839.558	0.0174369
839.637	0.0173642
839.715	0.0173540
839.793	0.0174549
839.871	0.0174940
839.949	0.0175597
840.027	0.0174751
840.105	0.0174097
840.183	0.0174461
840.262	0.0173830
840.340	0.0174175
840.418	0.0174601
840.496	0.0174610
840.574	0.0173922
840.652	0.0174162
840.730	0.0174171
840.808	0.0174317
840.887	0.0173710
840.965	0.0173209
841.043	0.0172294
841.121	0.0174574
841.199	0.0176040
841.277	0.0173238
841.355	0.0172415
841.433	0.0173286
841.512	0.0174097
841.590	0.0173315
841.668	0.0172998
841.746	0.0172975
841.824	0.0173682
841.902	0.0173816
841.980	0.0172963
842.058	0.0173410
842.137	0.0173583
842.215	0.0173392
842.293	0.0174471
842.371	0.0174216
842.449	0.0173260
842.527	0.0173325
842.605	0.0173202
842.683	0.0173915
842.762	0.0174049
842.840	0.0173052
842.918	0.0173733
842.996	0.0173779
843.074	0.0173887
843.152	0.0174133
843.230	0.0173347
843.308	0.0174375
843.387	0.0174466
843.465	0.0175764
843.543	0.0173622
843.621	0.0173582
843.699	0.0173733
843.777	0.0173446
843.855	0.0173147
843.933	0.0174816
844.012	0.0173697
844.090	0.0175018
844.168	0.0174226
844.246	0.0173940
844.324	0.0174911
844.402	0.0174254
844.480	0.0173756
844.558	0.0174498
844.637	0.0175688
844.715	0.0176202
844.793	0.0175006
844.871	0.0174078
844.949	0.0174516
845.027	0.0176112
845.105	0.0175051
845.183	0.0174680
845.262	0.0174896
845.340	0.0174839
845.418	0.0175022
845.496	0.0175308
845.574	0.0175288
845.652	0.0175842
845.730	0.0175829
845.808	0.0175685
845.887	0.0174518
845.965	0.0175193
846.043	0.0174686
846.121	0.0175642
846.199	0.0174394
846.277	0.0172748
846.355	0.0173602
846.433	0.0174473
846.512	0.0173405
846.590	0.0173597
846.668	0.0174046
846.746	0.0173689
846.824	0.0173832
846.902	0.0174265
846.980	0.0174677
847.058	0.0174523
847.137	0.0174487
847.215	0.0174306
847.293	0.0174518
847.371	0.0172907
847.449	0.0173219
847.527	0.0173506
847.605	0.0174436
847.683	0.0175634
847.762	0.0174501
847.840	0.0175385
847.918	0.0174807
847.996	0.0175760
848.074	0.0176562
848.152	0.0174964
848.230	0.0174584
848.308	0.0175835
848.387	0.0176802
848.465	0.0176500
848.543	0.0173326
848.621	0.0175871
848.699	0.0176457
848.777	0.0175881
848.855	0.0174445
848.933	0.0174970
849.012	0.0173646
849.090	0.0174568
849.168	0.0174690
849.246	0.0175098
849.324	0.0174653
849.402	0.0175066
849.480	0.0173850
849.558	0.0175542
849.637	0.0174825
849.715	0.0173096
849.793	0.0174574
849.871	0.0174512
849.949	0.0174545
850.027	0.0173599
850.105	0.0174596
850.183	0.0174913
850.262	0.0173088
850.340	0.0173704
850.418	0.0173154
850.496	0.0172685
850.574	0.0173200
850.652	0.0173071
850.730	0.0173690
850.808	0.0173526
850.887	0.0173969
850.965	0.0174048
851.043	0.0172785
851.121	0.0174503
851.199	0.0173464
851.277	0.0174509
851.355	0.0175088
851.433	0.0174786
851.512	0.0174183
851.590	0.0173906
851.668	0.0174498
851.746	0.0174541
851.824	0.0176192
851.902	0.0175629
851.980	0.0176365
852.058	0.0174567
852.137	0.0174326
852.215	0.0176335
852.293	0.0176294
852.371	0.0175460
852.449	0.0173985
852.527	0.0174406
852.605	0.0175526
852.683	0.0173981
852.762	0.0174928
852.840	0.0174129
852.918	0.0174627
852.996	0.0174022
853.074	0.0173233
853.152	0.0174204
853.230	0.0173419
853.308	0.0173911
853.387	0.0173919
853.465	0.0174989
853.543	0.0174722
853.621	0.0173425
853.699	0.0175481
853.777	0.0174529
853.855	0.0173343
853.933	0.0174133
854.012	0.0176220
854.090	0.0175695
854.168	0.0174452
854.246	0.0174782
854.324	0.0175275
854.402	0.0174370
854.480	0.0174668
854.558	0.0175519
854.637	0.0175375
854.715	0.0176261
854.793	0.0176255
854.871	0.0176595
854.949	0.0175841
855.027	0.0174548
855.105	0.0174239
855.183	0.0175006
855.262	0.0174584
855.340	0.0175189
855.418	0.0174663
855.496	0.0175413
855.574	0.0175964
855.652	0.0174372
855.730	0.0174254
855.808	0.0177141
855.887	0.0175490
855.965	0.0175039
856.043	0.0173672
856.121	0.0174300
856.199	0.0175101
856.277	0.0174926
856.355	0.0174764
856.433	0.0174472
856.512	0.0174762
856.590	0.0174968
856.668	0.0175662
856.746	0.0174760
856.824	0.0174595
856.902	0.0174610
856.980	0.0175066
857.058	0.0175475
857.137	0.0175922
857.215	0.0175668
857.293	0.0174969
857.371	0.0176112
857.449	0.0174868
857.527	0.0175519
857.605	0.0175809
857.683	0.0175401
857.762	0.0174867
857.840	0.0174747
857.918	0.0176342
857.996	0.0175755
858.074	0.0174623
858.152	0.0174440
858.230	0.0174669
858.308	0.0174848
858.387	0.0174663
858.465	0.0175453
858.543	0.0176543
858.621	0.0175013
858.699	0.0174411
858.777	0.0174472
858.855	0.0176346
858.933	0.0175714
859.012	0.0173787
859.090	0.0175381
859.168	0.0174651
859.246	0.0174512
859.324	0.0173509
859.402	0.0174951
859.480	0.0174818
859.558	0.0174014
859.637	0.0173590
859.715	0.0174458
859.793	0.0174398
859.871	0.0174760
859.949	0.0174502
860.027	0.0175224
860.105	0.0174303
860.183	0.0173642
860.262	0.0174905
860.340	0.0174789
860.418	0.0174641
860.496	0.0175972
860.574	0.0175090
860.652	0.0174711
860.730	0.0174839
860.808	0.0174179
860.887	0.0174736
860.965	0.0175158
861.043	0.0174580
861.121	0.0173029
861.199	0.0173640
861.277	0.0174884
861.355	0.0174624
861.433	0.0174894
861.512	0.0175732
861.590	0.0175922
861.668	0.0175630
861.746	0.0174998
861.824	0.0176195
861.902	0.0175375
861.980	0.0175926
862.058	0.0174424
862.137	0.0175584
862.215	0.0174596
862.293	0.0175016
862.371	0.0174189
862.449	0.0176200
862.527	0.0175912
862.605	0.0172649
862.683	0.0174146
862.762	0.0174602
862.840	0.0174424
862.918	0.0173248
862.996	0.0173987
863.074	0.0173857
863.152	0.0173875
863.230	0.0174628
863.308	0.0174925
863.387	0.0174498
863.465	0.0174659
863.543	0.0175031
863.621	0.0174120
863.699	0.0173581
863.777	0.0174091
863.855	0.0174062
863.933	0.0173739
864.012	0.0173475
864.090	0.0172852
864.168	0.0173444
864.246	0.0173337
864.324	0.0174310
864.402	0.0172610
864.480	0.0173796
864.558	0.0173061
864.637	0.0174067
864.715	0.0173740
864.793	0.0174233
864.871	0.0174696
864.949	0.0174835
865.027	0.0173876
865.105	0.0174066
865.183	0.0175738
865.262	0.0173748
865.340	0.0174164
865.418	0.0174986
865.496	0.0174379
865.574	0.0174751
865.652	0.0173454
865.730	0.0173643
865.808	0.0173611
865.887	0.0173301
865.965	0.0173517
866.043	0.0173727
866.121	0.0173544
866.199	0.0173693
866.277	0.0174304
866.355	0.0174503
866.433	0.0174080
866.512	0.0175159
866.590	0.0175293
866.668	0.0174706
866.746	0.0175580
866.824	0.0175124
866.902	0.0174746
866.980	0.0175562
867.058	0.0175847
867.137	0.0175375
867.215	0.0176134
867.293	0.0174538
867.371	0.0174787
867.449	0.0176347
867.527	0.0174860
867.605	0.0175499
867.683	0.0175976
867.762	0.0175211
867.840	0.0177128
867.918	0.0175149
867.996	0.0173508
868.074	0.0173572
868.152	0.0176269
868.230	0.0175156
868.308	0.0176675
868.387	0.0175540
868.465	0.0175664
868.543	0.0175964
868.621	0.0174220
868.699	0.0175794
868.777	0.0174978
868.855	0.0174929
868.933	0.0174850
869.012	0.0176048
869.090	0.0175455
869.168	0.0175285
869.246	0.0174756
869.324	0.0175363
869.402	0.0175411
869.480	0.0174960
869.558	0.0173626
869.637	0.0174313
869.715	0.0176830
869.793	0.0174924
869.871	0.0174159
869.949	0.0174240
