06/03/2022	18:05:37	Ver.	4.1	UNKNOWN
Optical Delay	599.995081	Delta X		0.078125	Sweeps	1	Scan Rate	0/0
Coordinates	Axis 1	NaN	Axis 2	NaN	Axis 3	NaN	Axis 4	NaN	Axis 5	NaN	Axis 6	0.000000
TX Power	0.000000	RX Power	0.000000

599.995	0.0179008
600.073	0.0179377
600.151	0.0179824
600.229	0.0179137
600.308	0.0179458
600.386	0.0179871
600.464	0.0179463
600.542	0.0180077
600.620	0.0180382
600.698	0.0177997
600.776	0.0179829
600.854	0.0179455
600.933	0.0179912
601.011	0.0178617
601.089	0.0178713
601.167	0.0179568
601.245	0.0178982
601.323	0.0178065
601.401	0.0180037
601.479	0.0178441
601.558	0.0179184
601.636	0.0179668
601.714	0.0178801
601.792	0.0179966
601.870	0.0178998
601.948	0.0178297
602.026	0.0178387
602.104	0.0179523
602.183	0.0180082
602.261	0.0179230
602.339	0.0178905
602.417	0.0178628
602.495	0.0180270
602.573	0.0178585
602.651	0.0177287
602.729	0.0179862
602.808	0.0179205
602.886	0.0180022
602.964	0.0180149
603.042	0.0180164
603.120	0.0178851
603.198	0.0179796
603.276	0.0178536
603.354	0.0178388
603.433	0.0180259
603.511	0.0179285
603.589	0.0179790
603.667	0.0178431
603.745	0.0180758
603.823	0.0179531
603.901	0.0178565
603.979	0.0178841
604.058	0.0179563
604.136	0.0178261
604.214	0.0179160
604.292	0.0179845
604.370	0.0178999
604.448	0.0179465
604.526	0.0178802
604.604	0.0177734
604.683	0.0181238
604.761	0.0179556
604.839	0.0178751
604.917	0.0179739
604.995	0.0179899
605.073	0.0180239
605.151	0.0178573
605.229	0.0178623
605.308	0.0180640
605.386	0.0180410
605.464	0.0178896
605.542	0.0178903
605.620	0.0178954
605.698	0.0178823
605.776	0.0180354
605.854	0.0179453
605.933	0.0179742
606.011	0.0178560
606.089	0.0178770
606.167	0.0179817
606.245	0.0178801
606.323	0.0179981
606.401	0.0180235
606.479	0.0178622
606.558	0.0177753
606.636	0.0178472
606.714	0.0179830
606.792	0.0179964
606.870	0.0179397
606.948	0.0179687
607.026	0.0178919
607.104	0.0178297
607.183	0.0179678
607.261	0.0180035
607.339	0.0178794
607.417	0.0178717
607.495	0.0179607
607.573	0.0177513
607.651	0.0179110
607.729	0.0180739
607.808	0.0178749
607.886	0.0178890
607.964	0.0179761
608.042	0.0179472
608.120	0.0180186
608.198	0.0180693
608.276	0.0178867
608.354	0.0178956
608.433	0.0178945
608.511	0.0180299
608.589	0.0179004
608.667	0.0178438
608.745	0.0177625
608.823	0.0179420
608.901	0.0180182
608.979	0.0178952
609.058	0.0179279
609.136	0.0179409
609.214	0.0179202
609.292	0.0179735
609.370	0.0179587
609.448	0.0178510
609.526	0.0179372
609.604	0.0180556
609.683	0.0180338
609.761	0.0179370
609.839	0.0179288
609.917	0.0178036
609.995	0.0179021
610.073	0.0179821
610.151	0.0179818
610.229	0.0179072
610.308	0.0179375
610.386	0.0179992
610.464	0.0179866
610.542	0.0180541
610.620	0.0178560
610.698	0.0178876
610.776	0.0179429
610.854	0.0178848
610.933	0.0179611
611.011	0.0179112
611.089	0.0179613
611.167	0.0179559
611.245	0.0179227
611.323	0.0179385
611.401	0.0178594
611.479	0.0178465
611.558	0.0181326
611.636	0.0180352
611.714	0.0178440
611.792	0.0179873
611.870	0.0179012
611.948	0.0180077
612.026	0.0179067
612.104	0.0179480
612.183	0.0179157
612.261	0.0179650
612.339	0.0178803
612.417	0.0178394
612.495	0.0179866
612.573	0.0178928
612.651	0.0179202
612.729	0.0179347
612.808	0.0180350
612.886	0.0180230
612.964	0.0179830
613.042	0.0178528
613.120	0.0179346
613.198	0.0179793
613.276	0.0178674
613.354	0.0178599
613.433	0.0180079
613.511	0.0180051
613.589	0.0179802
613.667	0.0179332
613.745	0.0179402
613.823	0.0179777
613.901	0.0179299
613.979	0.0179715
614.058	0.0178794
614.136	0.0178915
614.214	0.0180541
614.292	0.0178971
614.370	0.0180428
614.448	0.0178428
614.526	0.0180415
614.604	0.0180228
614.683	0.0180003
614.761	0.0179443
614.839	0.0178645
614.917	0.0180202
614.995	0.0180807
615.073	0.0180247
615.151	0.0179263
615.229	0.0179888
615.308	0.0179169
615.386	0.0179861
615.464	0.0178850
615.542	0.0180800
615.620	0.0179094
615.698	0.0180078
615.776	0.0180486
615.854	0.0179077
615.933	0.0179777
616.011	0.0180643
616.089	0.0179597
616.167	0.0178059
616.245	0.0180626
616.323	0.0180145
616.401	0.0180103
616.479	0.0179632
616.558	0.0180247
616.636	0.0178838
616.714	0.0179198
616.792	0.0179478
616.870	0.0178865
616.948	0.0178130
617.026	0.0179641
617.104	0.0179321
617.183	0.0179984
617.261	0.0178640
617.339	0.0177754
617.417	0.0178865
617.495	0.0180684
617.573	0.0179139
617.651	0.0179372
617.729	0.0179655
617.808	0.0178960
617.886	0.0179957
617.964	0.0179136
618.042	0.0179862
618.120	0.0180426
618.198	0.0179507
618.276	0.0179623
618.354	0.0178477
618.433	0.0178867
618.511	0.0180450
618.589	0.0178896
618.667	0.0178691
618.745	0.0179518
618.823	0.0179502
618.901	0.0178242
618.979	0.0178979
619.058	0.0179062
619.136	0.0178683
619.214	0.0178117
619.292	0.0178149
619.370	0.0179147
619.448	0.0180049
619.526	0.0178779
619.604	0.0178156
619.683	0.0179327
619.761	0.0179179
619.839	0.0179668
619.917	0.0178996
619.995	0.0179855
620.073	0.0178850
620.151	0.0178678
620.229	0.0180270
620.308	0.0177713
620.386	0.0179334
620.464	0.0179784
620.542	0.0178915
620.620	0.0179670
620.698	0.0179458
620.776	0.0179045
620.854	0.0178571
620.933	0.0178125
621.011	0.0177767
621.089	0.0178500
621.167	0.0178908
621.245	0.0179083
621.323	0.0180283
621.401	0.0178694
621.479	0.0179542
621.558	0.0179064
621.636	0.0178758
621.714	0.0178882
621.792	0.0180338
621.870	0.0180497
621.948	0.0180187
622.026	0.0177458
622.104	0.0178230
622.183	0.0177905
622.261	0.0178579
622.339	0.0179122
622.417	0.0179145
622.495	0.0178812
622.573	0.0179695
622.651	0.0179308
622.729	0.0179588
622.808	0.0179152
622.886	0.0179617
622.964	0.0180124
623.042	0.0179649
623.120	0.0180157
623.198	0.0177785
623.276	0.0179126
623.354	0.0179751
623.433	0.0179291
623.511	0.0178833
623.589	0.0179020
623.667	0.0179756
623.745	0.0178681
623.823	0.0178555
623.901	0.0179453
623.979	0.0178657
624.058	0.0179952
624.136	0.0180301
624.214	0.0179112
624.292	0.0179193
624.370	0.0178590
624.448	0.0178742
624.526	0.0178276
624.604	0.0180256
624.683	0.0178127
624.761	0.0179002
624.839	0.0180271
624.917	0.0179219
624.995	0.0178407
625.073	0.0178874
625.151	0.0179616
625.229	0.0178692
625.308	0.0178911
625.386	0.0177390
625.464	0.0179584
625.542	0.0180151
625.620	0.0178889
625.698	0.0178040
625.776	0.0179888
625.854	0.0179093
625.933	0.0178024
626.011	0.0179231
626.089	0.0178140
626.167	0.0178127
626.245	0.0178883
626.323	0.0178886
626.401	0.0180024
626.479	0.0179354
626.558	0.0179121
626.636	0.0179157
626.714	0.0178062
626.792	0.0178496
626.870	0.0179418
626.948	0.0179451
627.026	0.0179459
627.104	0.0179172
627.183	0.0179659
627.261	0.0178951
627.339	0.0180203
627.417	0.0179510
627.495	0.0179502
627.573	0.0180013
627.651	0.0181109
627.729	0.0179397
627.808	0.0179847
627.886	0.0179582
627.964	0.0179393
628.042	0.0178056
628.120	0.0177267
628.198	0.0178444
628.276	0.0178994
628.354	0.0179145
628.433	0.0178855
628.511	0.0179503
628.589	0.0179544
628.667	0.0178200
628.745	0.0179124
628.823	0.0180208
628.901	0.0178506
628.979	0.0179123
629.058	0.0180648
629.136	0.0178912
629.214	0.0179499
629.292	0.0179636
629.370	0.0179290
629.448	0.0178886
629.526	0.0179005
629.604	0.0179118
629.683	0.0178397
629.761	0.0179380
629.839	0.0177704
629.917	0.0178175
629.995	0.0178810
630.073	0.0179110
630.151	0.0178429
630.229	0.0180137
630.308	0.0180946
630.386	0.0178363
630.464	0.0178505
630.542	0.0179572
630.620	0.0179543
630.698	0.0179019
630.776	0.0179471
630.854	0.0178650
630.933	0.0178937
631.011	0.0178551
631.089	0.0179826
631.167	0.0178436
631.245	0.0178783
631.323	0.0179449
631.401	0.0177942
631.479	0.0178573
631.558	0.0179613
631.636	0.0179465
631.714	0.0178622
631.792	0.0179743
631.870	0.0179988
631.948	0.0177979
632.026	0.0180087
632.104	0.0178975
632.183	0.0180091
632.261	0.0179858
632.339	0.0179578
632.417	0.0179076
632.495	0.0178673
632.573	0.0179507
632.651	0.0180485
632.729	0.0179284
632.808	0.0179868
632.886	0.0179016
632.964	0.0179302
633.042	0.0179237
633.120	0.0178489
633.198	0.0179606
633.276	0.0178716
633.354	0.0178609
633.433	0.0179299
633.511	0.0179666
633.589	0.0179124
633.667	0.0178864
633.745	0.0179272
633.823	0.0178812
633.901	0.0179630
633.979	0.0178788
634.058	0.0178528
634.136	0.0179286
634.214	0.0179307
634.292	0.0179025
634.370	0.0177789
634.448	0.0179612
634.526	0.0179113
634.604	0.0179770
634.683	0.0179890
634.761	0.0179687
634.839	0.0179321
634.917	0.0178934
634.995	0.0178987
635.073	0.0179988
635.151	0.0179391
635.229	0.0177917
635.308	0.0179462
635.386	0.0179465
635.464	0.0179047
635.542	0.0178822
635.620	0.0178175
635.698	0.0178160
635.776	0.0178930
635.854	0.0179032
635.933	0.0178914
636.011	0.0178381
636.089	0.0179579
636.167	0.0179501
636.245	0.0178915
636.323	0.0179215
636.401	0.0179551
636.479	0.0180132
636.558	0.0178993
636.636	0.0178222
636.714	0.0178838
636.792	0.0179781
636.870	0.0178514
636.948	0.0178983
637.026	0.0178680
637.104	0.0179453
637.183	0.0179813
637.261	0.0179028
637.339	0.0177956
637.417	0.0178217
637.495	0.0179066
637.573	0.0180499
637.651	0.0179247
637.729	0.0179399
637.808	0.0180730
637.886	0.0177843
637.964	0.0179975
638.042	0.0180186
638.120	0.0179086
638.198	0.0180369
638.276	0.0179776
638.354	0.0180669
638.433	0.0180794
638.511	0.0178645
638.589	0.0179179
638.667	0.0179475
638.745	0.0178541
638.823	0.0179666
638.901	0.0179030
638.979	0.0179203
639.058	0.0178967
639.136	0.0178149
639.214	0.0180102
639.292	0.0179561
639.370	0.0179224
639.448	0.0179870
639.526	0.0179533
639.604	0.0179644
639.683	0.0179913
639.761	0.0178683
639.839	0.0179163
639.917	0.0180305
639.995	0.0178999
640.073	0.0178683
640.151	0.0181109
640.229	0.0180312
640.308	0.0178448
640.386	0.0179410
640.464	0.0179839
640.542	0.0179420
640.620	0.0178783
640.698	0.0178963
640.776	0.0178201
640.854	0.0179561
640.933	0.0181038
641.011	0.0180215
641.089	0.0179047
641.167	0.0179093
641.245	0.0177836
641.323	0.0179172
641.401	0.0179744
641.479	0.0179452
641.558	0.0180248
641.636	0.0178920
641.714	0.0178821
641.792	0.0179247
641.870	0.0179595
641.948	0.0179207
642.026	0.0180138
642.104	0.0178938
642.183	0.0180521
642.261	0.0180777
642.339	0.0179374
642.417	0.0179399
642.495	0.0180253
642.573	0.0179559
642.651	0.0179292
642.729	0.0178932
642.808	0.0178209
642.886	0.0178712
642.964	0.0180390
643.042	0.0178951
643.120	0.0179601
643.198	0.0179830
643.276	0.0178565
643.354	0.0180229
643.433	0.0181006
643.511	0.0181042
643.589	0.0179494
643.667	0.0179158
643.745	0.0178226
643.823	0.0178901
643.901	0.0179642
643.979	0.0179592
644.058	0.0179971
644.136	0.0179940
644.214	0.0180171
644.292	0.0179704
644.370	0.0179988
644.448	0.0179131
644.526	0.0178764
644.604	0.0180390
644.683	0.0178780
644.761	0.0179270
644.839	0.0180386
644.917	0.0179376
644.995	0.0181124
645.073	0.0179800
645.151	0.0178072
645.229	0.0178414
645.308	0.0179391
645.386	0.0178988
645.464	0.0178639
645.542	0.0179944
645.620	0.0178350
645.698	0.0178768
645.776	0.0179263
645.854	0.0180097
645.933	0.0178478
646.011	0.0178666
646.089	0.0180436
646.167	0.0179510
646.245	0.0177724
646.323	0.0178836
646.401	0.0179411
646.479	0.0179308
646.558	0.0179734
646.636	0.0179507
646.714	0.0179550
646.792	0.0179030
646.870	0.0179265
646.948	0.0178625
647.026	0.0178453
647.104	0.0180471
647.183	0.0179676
647.261	0.0179298
647.339	0.0178887
647.417	0.0179028
647.495	0.0178293
647.573	0.0179179
647.651	0.0180945
647.729	0.0180266
647.808	0.0178974
647.886	0.0178102
647.964	0.0179108
648.042	0.0179618
648.120	0.0178344
648.198	0.0178660
648.276	0.0178856
648.354	0.0179735
648.433	0.0179182
648.511	0.0178792
648.589	0.0179450
648.667	0.0179768
648.745	0.0179308
648.823	0.0178531
648.901	0.0177330
648.979	0.0179432
649.058	0.0179753
649.136	0.0178825
649.214	0.0178156
649.292	0.0178949
649.370	0.0180449
649.448	0.0179174
649.526	0.0179504
649.604	0.0179729
649.683	0.0178187
649.761	0.0179313
649.839	0.0179755
649.917	0.0179935
649.995	0.0179816
650.073	0.0179589
650.151	0.0178279
650.229	0.0178623
650.308	0.0179296
650.386	0.0178239
650.464	0.0178817
650.542	0.0178526
650.620	0.0179263
650.698	0.0179104
650.776	0.0180167
650.854	0.0179023
650.933	0.0178809
651.011	0.0178236
651.089	0.0180401
651.167	0.0179713
651.245	0.0179801
651.323	0.0179477
651.401	0.0179206
651.479	0.0177768
651.558	0.0179159
651.636	0.0179771
651.714	0.0180327
651.792	0.0178896
651.870	0.0179088
651.948	0.0178828
652.026	0.0178782
652.104	0.0179076
652.183	0.0178558
652.261	0.0178497
652.339	0.0177435
652.417	0.0179091
652.495	0.0179003
652.573	0.0178751
652.651	0.0177827
652.729	0.0178253
652.808	0.0178738
652.886	0.0179254
652.964	0.0179923
653.042	0.0178020
653.120	0.0179507
653.198	0.0178896
653.276	0.0178133
653.354	0.0178564
653.433	0.0178020
653.511	0.0177608
653.589	0.0179794
653.667	0.0177963
653.745	0.0178621
653.823	0.0179459
653.901	0.0178605
653.979	0.0179610
654.058	0.0179228
654.136	0.0179945
654.214	0.0180238
654.292	0.0178626
654.370	0.0179362
654.448	0.0178534
654.526	0.0178976
654.604	0.0179225
654.683	0.0179120
654.761	0.0179794
654.839	0.0178352
654.917	0.0179536
654.995	0.0179867
655.073	0.0180759
655.151	0.0179663
655.229	0.0178744
655.308	0.0178699
655.386	0.0178514
655.464	0.0178963
655.542	0.0180148
655.620	0.0179709
655.698	0.0179798
655.776	0.0179104
655.854	0.0177989
655.933	0.0179278
656.011	0.0179477
656.089	0.0179856
656.167	0.0178491
656.245	0.0178185
656.323	0.0179723
656.401	0.0178996
656.479	0.0179396
656.558	0.0178812
656.636	0.0178937
656.714	0.0180309
656.792	0.0179781
656.870	0.0178286
656.948	0.0179382
657.026	0.0178469
657.104	0.0179046
657.183	0.0178407
657.261	0.0178614
657.339	0.0180264
657.417	0.0180067
657.495	0.0178663
657.573	0.0178203
657.651	0.0180047
657.729	0.0178697
657.808	0.0178500
657.886	0.0178011
657.964	0.0179002
658.042	0.0179319
658.120	0.0179220
658.198	0.0178913
658.276	0.0178239
658.354	0.0179375
658.433	0.0180515
658.511	0.0177716
658.589	0.0178194
658.667	0.0180211
658.745	0.0179325
658.823	0.0178503
658.901	0.0178973
658.979	0.0178884
659.058	0.0179699
659.136	0.0177080
659.214	0.0178177
659.292	0.0179790
659.370	0.0178739
659.448	0.0179895
659.526	0.0179036
659.604	0.0178786
659.683	0.0179305
659.761	0.0178699
659.839	0.0178546
659.917	0.0181262
659.995	0.0180527
660.073	0.0178957
660.151	0.0179166
660.229	0.0180269
660.308	0.0178909
660.386	0.0179161
660.464	0.0179266
660.542	0.0178091
660.620	0.0179133
660.698	0.0178525
660.776	0.0178928
660.854	0.0179614
660.933	0.0178657
661.011	0.0179237
661.089	0.0178654
661.167	0.0179871
661.245	0.0179253
661.323	0.0178969
661.401	0.0178180
661.479	0.0177285
661.558	0.0178745
661.636	0.0179622
661.714	0.0178327
661.792	0.0179922
661.870	0.0178854
661.948	0.0179852
662.026	0.0177879
662.104	0.0179633
662.183	0.0179110
662.261	0.0179488
662.339	0.0179472
662.417	0.0178790
662.495	0.0178812
662.573	0.0179344
662.651	0.0178068
662.729	0.0179562
662.808	0.0179398
662.886	0.0179088
662.964	0.0179147
663.042	0.0179500
663.120	0.0180111
663.198	0.0179282
663.276	0.0178346
663.354	0.0178419
663.433	0.0180154
663.511	0.0178632
663.589	0.0178981
663.667	0.0180527
663.745	0.0179107
663.823	0.0178740
663.901	0.0177985
663.979	0.0178861
664.058	0.0179020
664.136	0.0180076
664.214	0.0180839
664.292	0.0179852
664.370	0.0179088
664.448	0.0180663
664.526	0.0179606
664.604	0.0178046
664.683	0.0178912
664.761	0.0179794
664.839	0.0179593
664.917	0.0179922
664.995	0.0179166
665.073	0.0179369
665.151	0.0179282
665.229	0.0179740
665.308	0.0179100
665.386	0.0178824
665.464	0.0179256
665.542	0.0179220
665.620	0.0179478
665.698	0.0178402
665.776	0.0179900
665.854	0.0179464
665.933	0.0179517
666.011	0.0179453
666.089	0.0178735
666.167	0.0179614
666.245	0.0178899
666.323	0.0178137
666.401	0.0179541
666.479	0.0179424
666.558	0.0179126
666.636	0.0179507
666.714	0.0180054
666.792	0.0179580
666.870	0.0179170
666.948	0.0180405
667.026	0.0178263
667.104	0.0178722
667.183	0.0178619
667.261	0.0178256
667.339	0.0177679
667.417	0.0179036
667.495	0.0179757
667.573	0.0179544
667.651	0.0180061
667.729	0.0180068
667.808	0.0178268
667.886	0.0179069
667.964	0.0181510
668.042	0.0179205
668.120	0.0178359
668.198	0.0179979
668.276	0.0179161
668.354	0.0178508
668.433	0.0178315
668.511	0.0178828
668.589	0.0180355
668.667	0.0179690
668.745	0.0178693
668.823	0.0179323
668.901	0.0178807
668.979	0.0178986
669.058	0.0179015
669.136	0.0180817
669.214	0.0178725
669.292	0.0179184
669.370	0.0178595
669.448	0.0178451
669.526	0.0178124
669.604	0.0178561
669.683	0.0179395
669.761	0.0177797
669.839	0.0179608
669.917	0.0179227
669.995	0.0178896
670.073	0.0179000
670.151	0.0179234
670.229	0.0178911
670.308	0.0179350
670.386	0.0179524
670.464	0.0179925
670.542	0.0178981
670.620	0.0178426
670.698	0.0178423
670.776	0.0180334
670.854	0.0179134
670.933	0.0178421
671.011	0.0178512
671.089	0.0178590
671.167	0.0179098
671.245	0.0179520
671.323	0.0179374
671.401	0.0179036
671.479	0.0179361
671.558	0.0180265
671.636	0.0179628
671.714	0.0179694
671.792	0.0179238
671.870	0.0178685
671.948	0.0178667
672.026	0.0179444
672.104	0.0179794
672.183	0.0179320
672.261	0.0178597
672.339	0.0180632
672.417	0.0179090
672.495	0.0178136
672.573	0.0180171
672.651	0.0179424
672.729	0.0179007
672.808	0.0177892
672.886	0.0178538
672.964	0.0178949
673.042	0.0179960
673.120	0.0178716
673.198	0.0178599
673.276	0.0179307
673.354	0.0180219
673.433	0.0178756
673.511	0.0179664
673.589	0.0178550
673.667	0.0178529
673.745	0.0178880
673.823	0.0180236
673.901	0.0179121
673.979	0.0179081
674.058	0.0179311
674.136	0.0180767
674.214	0.0180093
674.292	0.0178912
674.370	0.0179188
674.448	0.0178867
674.526	0.0180358
674.604	0.0179346
674.683	0.0179601
674.761	0.0180576
674.839	0.0178730
674.917	0.0179819
674.995	0.0180568
675.073	0.0180399
675.151	0.0178141
675.229	0.0179569
675.308	0.0179005
675.386	0.0177211
675.464	0.0178820
675.542	0.0180388
675.620	0.0179360
675.698	0.0178011
675.776	0.0179668
675.854	0.0178497
675.933	0.0178351
676.011	0.0180138
676.089	0.0180042
676.167	0.0178211
676.245	0.0179517
676.323	0.0178490
676.401	0.0180004
676.479	0.0177695
676.558	0.0178963
676.636	0.0180449
676.714	0.0180274
676.792	0.0179871
676.870	0.0179774
676.948	0.0179817
677.026	0.0178953
677.104	0.0178606
677.183	0.0179712
677.261	0.0179132
677.339	0.0179427
677.417	0.0178210
677.495	0.0178957
677.573	0.0179904
677.651	0.0178334
677.729	0.0178300
677.808	0.0178714
677.886	0.0178468
677.964	0.0179742
678.042	0.0178995
678.120	0.0178169
678.198	0.0179339
678.276	0.0179452
678.354	0.0178746
678.433	0.0179200
678.511	0.0179230
678.589	0.0178054
678.667	0.0178727
678.745	0.0178047
678.823	0.0179716
678.901	0.0180006
678.979	0.0178269
679.058	0.0179408
679.136	0.0180444
679.214	0.0179807
679.292	0.0179298
679.370	0.0176762
679.448	0.0177663
679.526	0.0179385
679.604	0.0179381
679.683	0.0179378
679.761	0.0178819
679.839	0.0179055
679.917	0.0179971
679.995	0.0179002
680.073	0.0179787
680.151	0.0179437
680.229	0.0178040
680.308	0.0179134
680.386	0.0178325
680.464	0.0178420
680.542	0.0179037
680.620	0.0179372
680.698	0.0178797
680.776	0.0179902
680.854	0.0179485
680.933	0.0178925
681.011	0.0178079
681.089	0.0178568
681.167	0.0178539
681.245	0.0178148
681.323	0.0177591
681.401	0.0175663
681.479	0.0177068
681.558	0.0177486
681.636	0.0179003
681.714	0.0177203
681.792	0.0176752
681.870	0.0176915
681.948	0.0177966
682.026	0.0178187
682.104	0.0178819
682.183	0.0177840
682.261	0.0178640
682.339	0.0179008
682.417	0.0178969
682.495	0.0179955
682.573	0.0178648
682.651	0.0180152
682.729	0.0178675
682.808	0.0177981
682.886	0.0177746
682.964	0.0178609
683.042	0.0179127
683.120	0.0178432
683.198	0.0178513
683.276	0.0178845
683.354	0.0179196
683.433	0.0179498
683.511	0.0179784
683.589	0.0178762
683.667	0.0177916
683.745	0.0179929
683.823	0.0180492
683.901	0.0178786
683.979	0.0178998
684.058	0.0180001
684.136	0.0179595
684.214	0.0178891
684.292	0.0179466
684.370	0.0180142
684.448	0.0179612
684.526	0.0179832
684.604	0.0179936
684.683	0.0178630
684.761	0.0179941
684.839	0.0180067
684.917	0.0180670
684.995	0.0180352
685.073	0.0180082
685.151	0.0180431
685.229	0.0180354
685.308	0.0179262
685.386	0.0179955
685.464	0.0181065
685.542	0.0180641
685.620	0.0179417
685.698	0.0180325
685.776	0.0179233
685.854	0.0180021
685.933	0.0179009
686.011	0.0178732
686.089	0.0179951
686.167	0.0180015
686.245	0.0179493
686.323	0.0180425
686.401	0.0180248
686.479	0.0180217
686.558	0.0179302
686.636	0.0178877
686.714	0.0179597
686.792	0.0180493
686.870	0.0181047
686.948	0.0180336
687.026	0.0179786
687.104	0.0179458
687.183	0.0180000
687.261	0.0178945
687.339	0.0179594
687.417	0.0178223
687.495	0.0180712
687.573	0.0181285
687.651	0.0179382
687.729	0.0179317
687.808	0.0180055
687.886	0.0180520
687.964	0.0179379
688.042	0.0178986
688.120	0.0178396
688.198	0.0179280
688.276	0.0179369
688.354	0.0179671
688.433	0.0180081
688.511	0.0178536
688.589	0.0179506
688.667	0.0179790
688.745	0.0181047
688.823	0.0178324
688.901	0.0179624
688.979	0.0178799
689.058	0.0179160
689.136	0.0178446
689.214	0.0179871
689.292	0.0180626
689.370	0.0178931
689.448	0.0178934
689.526	0.0179858
689.604	0.0179333
689.683	0.0179948
689.761	0.0179881
689.839	0.0178589
689.917	0.0178905
689.995	0.0177827
690.073	0.0179765
690.151	0.0178731
690.229	0.0178882
690.308	0.0181168
690.386	0.0179584
690.464	0.0179646
690.542	0.0178239
690.620	0.0178351
690.698	0.0180013
690.776	0.0178305
690.854	0.0178175
690.933	0.0179093
691.011	0.0179411
691.089	0.0177547
691.167	0.0178751
691.245	0.0178625
691.323	0.0178893
691.401	0.0178570
691.479	0.0178759
691.558	0.0177811
691.636	0.0178778
691.714	0.0177952
691.792	0.0179099
691.870	0.0178793
691.948	0.0178070
692.026	0.0178642
692.104	0.0177664
692.183	0.0177971
692.261	0.0179586
692.339	0.0178574
692.417	0.0177933
692.495	0.0177490
692.573	0.0179591
692.651	0.0178796
692.729	0.0177800
692.808	0.0178847
692.886	0.0179361
692.964	0.0178526
693.042	0.0178705
693.120	0.0179215
693.198	0.0178732
693.276	0.0177553
693.354	0.0178633
693.433	0.0177823
693.511	0.0178465
693.589	0.0178371
693.667	0.0177247
693.745	0.0177282
693.823	0.0179480
693.901	0.0178038
693.979	0.0179072
694.058	0.0179305
694.136	0.0177608
694.214	0.0178125
694.292	0.0179173
694.370	0.0179911
694.448	0.0178741
694.526	0.0178622
694.604	0.0180060
694.683	0.0178886
694.761	0.0179530
694.839	0.0180183
694.917	0.0178855
694.995	0.0178903
695.073	0.0178775
695.151	0.0179431
695.229	0.0180182
695.308	0.0181313
695.386	0.0179155
695.464	0.0177843
695.542	0.0179157
695.620	0.0178957
695.698	0.0178498
695.776	0.0179035
695.854	0.0179195
695.933	0.0180816
696.011	0.0179179
696.089	0.0179590
696.167	0.0179845
696.245	0.0179072
696.323	0.0179817
696.401	0.0178088
696.479	0.0179205
696.558	0.0179169
696.636	0.0177908
696.714	0.0179461
696.792	0.0179881
696.870	0.0181387
696.948	0.0182408
697.026	0.0183862
697.104	0.0185266
697.183	0.0186650
697.261	0.0185295
697.339	0.0185191
697.417	0.0183207
697.495	0.0181158
697.573	0.0178072
697.651	0.0177366
697.729	0.0173600
697.808	0.0173042
697.886	0.0172163
697.964	0.0169920
698.042	0.0170452
698.120	0.0171817
698.198	0.0172600
698.276	0.0173186
698.354	0.0175043
698.433	0.0177049
698.511	0.0177116
698.589	0.0177743
698.667	0.0179006
698.745	0.0179285
698.823	0.0179982
698.901	0.0180408
698.979	0.0180061
699.058	0.0181976
699.136	0.0182951
699.214	0.0185387
699.292	0.0184694
699.370	0.0187918
699.448	0.0188524
699.526	0.0189486
699.604	0.0189744
699.683	0.0189421
699.761	0.0188610
699.839	0.0186834
699.917	0.0186796
699.995	0.0183422
700.073	0.0180830
700.151	0.0180386
700.229	0.0176113
700.308	0.0174941
700.386	0.0172953
700.464	0.0171008
700.542	0.0169135
700.620	0.0169946
700.698	0.0170326
700.776	0.0169781
700.854	0.0170338
700.933	0.0171192
701.011	0.0170924
701.089	0.0172185
701.167	0.0173106
701.245	0.0174520
701.323	0.0176205
701.401	0.0177824
701.479	0.0178779
701.558	0.0181894
701.636	0.0183280
701.714	0.0186100
701.792	0.0187373
701.870	0.0190543
701.948	0.0190981
702.026	0.0193098
702.104	0.0192365
702.183	0.0193198
702.261	0.0193274
702.339	0.0191048
702.417	0.0189919
702.495	0.0187517
702.573	0.0185580
702.651	0.0183734
702.729	0.0181165
702.808	0.0178877
702.886	0.0176544
702.964	0.0175289
703.042	0.0172517
703.120	0.0171869
703.198	0.0171985
703.276	0.0171916
703.354	0.0170424
703.433	0.0170618
703.511	0.0168420
703.589	0.0167474
703.667	0.0167889
703.745	0.0166760
703.823	0.0165265
703.901	0.0165996
703.979	0.0167578
704.058	0.0166530
704.136	0.0167817
704.214	0.0169560
704.292	0.0173402
704.370	0.0174267
704.448	0.0178410
704.526	0.0182158
704.604	0.0183664
704.683	0.0185661
704.761	0.0187139
704.839	0.0188903
704.917	0.0191052
704.995	0.0189873
705.073	0.0191018
705.151	0.0189209
705.229	0.0189336
705.308	0.0189582
705.386	0.0188466
705.464	0.0188064
705.542	0.0187209
705.620	0.0186398
705.698	0.0185398
705.776	0.0184403
705.854	0.0184482
705.933	0.0183527
706.011	0.0181074
706.089	0.0180922
706.167	0.0180184
706.245	0.0179151
706.323	0.0177787
706.401	0.0174751
706.479	0.0174692
706.558	0.0174609
706.636	0.0172966
706.714	0.0171119
706.792	0.0168147
706.870	0.0166561
706.948	0.0166222
707.026	0.0165523
707.104	0.0165173
707.183	0.0165572
707.261	0.0167487
707.339	0.0169164
707.417	0.0172540
707.495	0.0173769
707.573	0.0176924
707.651	0.0181062
707.729	0.0183662
707.808	0.0186498
707.886	0.0187868
707.964	0.0190813
708.042	0.0193061
708.120	0.0193022
708.198	0.0192744
708.276	0.0192605
708.354	0.0191013
708.433	0.0189435
708.511	0.0187616
708.589	0.0186591
708.667	0.0186940
708.745	0.0183472
708.823	0.0180412
708.901	0.0178349
708.979	0.0177512
709.058	0.0173550
709.136	0.0172202
709.214	0.0170870
709.292	0.0168040
709.370	0.0167680
709.448	0.0168102
709.526	0.0166440
709.604	0.0168358
709.683	0.0168695
709.761	0.0171530
709.839	0.0171667
709.917	0.0174848
709.995	0.0177322
710.073	0.0178416
710.151	0.0182342
710.229	0.0182845
710.308	0.0185303
710.386	0.0186127
710.464	0.0186612
710.542	0.0188545
710.620	0.0188993
710.698	0.0189333
710.776	0.0189464
710.854	0.0187095
710.933	0.0186392
711.011	0.0186246
711.089	0.0185758
711.167	0.0183926
711.245	0.0181264
711.323	0.0179881
711.401	0.0178203
711.479	0.0176957
711.558	0.0175787
711.636	0.0174509
711.714	0.0173721
711.792	0.0173287
711.870	0.0175454
711.948	0.0175066
712.026	0.0175083
712.104	0.0175289
712.183	0.0179211
712.261	0.0179356
712.339	0.0179757
712.417	0.0180570
712.495	0.0183442
712.573	0.0183069
712.651	0.0181871
712.729	0.0182137
712.808	0.0180967
712.886	0.0180112
712.964	0.0180254
713.042	0.0178637
713.120	0.0177513
713.198	0.0178649
713.276	0.0177644
713.354	0.0176215
713.433	0.0176911
713.511	0.0174908
713.589	0.0177027
713.667	0.0175922
713.745	0.0176262
713.823	0.0178066
713.901	0.0176804
713.979	0.0179475
714.058	0.0178996
714.136	0.0180180
714.214	0.0180103
714.292	0.0180382
714.370	0.0181869
714.448	0.0183365
714.526	0.0183620
714.604	0.0182372
714.683	0.0183208
714.761	0.0182500
714.839	0.0183281
714.917	0.0184794
714.995	0.0183332
715.073	0.0184161
715.151	0.0181868
715.229	0.0181635
715.308	0.0180626
715.386	0.0180720
715.464	0.0179681
715.542	0.0180268
715.620	0.0179890
715.698	0.0178654
715.776	0.0179386
715.854	0.0179063
715.933	0.0180882
716.011	0.0180611
716.089	0.0180676
716.167	0.0180459
716.245	0.0179971
716.323	0.0179666
716.401	0.0181587
716.479	0.0181731
716.558	0.0180763
716.636	0.0180627
716.714	0.0180481
716.792	0.0181065
716.870	0.0180410
716.948	0.0179568
717.026	0.0177600
717.104	0.0179234
717.183	0.0179726
717.261	0.0179295
717.339	0.0179463
717.417	0.0178410
717.495	0.0178765
717.573	0.0178681
717.651	0.0177985
717.729	0.0175858
717.808	0.0175095
717.886	0.0176469
717.964	0.0178121
718.042	0.0176337
718.120	0.0177674
718.198	0.0177702
718.276	0.0176970
718.354	0.0177610
718.433	0.0176551
718.511	0.0178025
718.589	0.0178117
718.667	0.0176685
718.745	0.0177457
718.823	0.0177351
718.901	0.0178725
718.979	0.0177157
719.058	0.0177164
719.136	0.0178033
719.214	0.0176602
719.292	0.0176385
719.370	0.0176587
719.448	0.0177269
719.526	0.0176631
719.604	0.0177051
719.683	0.0178252
719.761	0.0178158
719.839	0.0178135
719.917	0.0178007
719.995	0.0178501
720.073	0.0178793
720.151	0.0181574
720.229	0.0181078
720.308	0.0181928
720.386	0.0182024
720.464	0.0182284
720.542	0.0183881
720.620	0.0185541
720.698	0.0182673
720.776	0.0183560
720.854	0.0183545
720.933	0.0181398
721.011	0.0182866
721.089	0.0182328
721.167	0.0182180
721.245	0.0181756
721.323	0.0182262
721.401	0.0181338
721.479	0.0181142
721.558	0.0181513
721.636	0.0180312
721.714	0.0178453
721.792	0.0177425
721.870	0.0178342
721.948	0.0177856
722.026	0.0177656
722.104	0.0177555
722.183	0.0176788
722.261	0.0177030
722.339	0.0176725
722.417	0.0178254
722.495	0.0178489
722.573	0.0178792
722.651	0.0179195
722.729	0.0180641
722.808	0.0180458
722.886	0.0181151
722.964	0.0180328
723.042	0.0182240
723.120	0.0180532
723.198	0.0180807
723.276	0.0181770
723.354	0.0180508
723.433	0.0180224
723.511	0.0179588
723.589	0.0178613
723.667	0.0178382
723.745	0.0179446
723.823	0.0178703
723.901	0.0179082
723.979	0.0179366
724.058	0.0177713
724.136	0.0177088
724.214	0.0178382
724.292	0.0176602
724.370	0.0177832
724.448	0.0178504
724.526	0.0179104
724.604	0.0179265
724.683	0.0178601
724.761	0.0178025
724.839	0.0180560
724.917	0.0180246
724.995	0.0180695
725.073	0.0180599
725.151	0.0179972
725.229	0.0179910
725.308	0.0180344
725.386	0.0179621
725.464	0.0179903
725.542	0.0177808
725.620	0.0179823
725.698	0.0180852
725.776	0.0179924
725.854	0.0178873
725.933	0.0179356
726.011	0.0179371
726.089	0.0181036
726.167	0.0179311
726.245	0.0178726
726.323	0.0180598
726.401	0.0181056
726.479	0.0179919
726.558	0.0181853
726.636	0.0180455
726.714	0.0181836
726.792	0.0182710
726.870	0.0181474
726.948	0.0181528
727.026	0.0182290
727.104	0.0183079
727.183	0.0179508
727.261	0.0179318
727.339	0.0180328
727.417	0.0180209
727.495	0.0179726
727.573	0.0179743
727.651	0.0179380
727.729	0.0178291
727.808	0.0178415
727.886	0.0177952
727.964	0.0178221
728.042	0.0178380
728.120	0.0176852
728.198	0.0177111
728.276	0.0176852
728.354	0.0177167
728.433	0.0178295
728.511	0.0176780
728.589	0.0176798
728.667	0.0177081
728.745	0.0177602
728.823	0.0176898
728.901	0.0177806
728.979	0.0177383
729.058	0.0177835
729.136	0.0177005
729.214	0.0177065
729.292	0.0178128
729.370	0.0178337
729.448	0.0176704
729.526	0.0177030
729.604	0.0178321
729.683	0.0178802
729.761	0.0179215
729.839	0.0179865
729.917	0.0178611
729.995	0.0180000
730.073	0.0181550
730.151	0.0181102
730.229	0.0181339
730.308	0.0181284
730.386	0.0181083
730.464	0.0182769
730.542	0.0182249
730.620	0.0181577
730.698	0.0182626
730.776	0.0183474
730.854	0.0182199
730.933	0.0182372
731.011	0.0182664
731.089	0.0181848
731.167	0.0183121
731.245	0.0180054
731.323	0.0180009
731.401	0.0179420
731.479	0.0178555
731.558	0.0179910
731.636	0.0178477
731.714	0.0179533
731.792	0.0181799
731.870	0.0180399
731.948	0.0177978
732.026	0.0180486
732.104	0.0179983
732.183	0.0180338
732.261	0.0181248
732.339	0.0181348
732.417	0.0181601
732.495	0.0179599
732.573	0.0180869
732.651	0.0180229
732.729	0.0179288
732.808	0.0178358
732.886	0.0179064
732.964	0.0176859
733.042	0.0177041
733.120	0.0178083
733.198	0.0176278
733.276	0.0177005
733.354	0.0175198
733.433	0.0176756
733.511	0.0176951
733.589	0.0177407
733.667	0.0176998
733.745	0.0178025
733.823	0.0179011
733.901	0.0178447
733.979	0.0179448
734.058	0.0179224
734.136	0.0179543
734.214	0.0180733
734.292	0.0180298
734.370	0.0182010
734.448	0.0180348
734.526	0.0180661
734.604	0.0182820
734.683	0.0182314
734.761	0.0180840
734.839	0.0180633
734.917	0.0182004
734.995	0.0182136
735.073	0.0181073
735.151	0.0181256
735.229	0.0180318
735.308	0.0180817
735.386	0.0180261
735.464	0.0178805
735.542	0.0179318
735.620	0.0178912
735.698	0.0177699
735.776	0.0178835
735.854	0.0180460
735.933	0.0178050
736.011	0.0177610
736.089	0.0178985
736.167	0.0178879
736.245	0.0179134
736.323	0.0179348
736.401	0.0178212
736.479	0.0179415
736.558	0.0180201
736.636	0.0180183
736.714	0.0180955
736.792	0.0179375
736.870	0.0179826
736.948	0.0180728
737.026	0.0180492
737.104	0.0177053
737.183	0.0180066
737.261	0.0177641
737.339	0.0179309
737.417	0.0178795
737.495	0.0178334
737.573	0.0178959
737.651	0.0178064
737.729	0.0179496
737.808	0.0180283
737.886	0.0180531
737.964	0.0178255
738.042	0.0178245
738.120	0.0177827
738.198	0.0178938
738.276	0.0178115
738.354	0.0178529
738.433	0.0176093
738.511	0.0175423
738.589	0.0176834
738.667	0.0177029
738.745	0.0177052
738.823	0.0176669
738.901	0.0176655
738.979	0.0177726
739.058	0.0180096
739.136	0.0179077
739.214	0.0179790
739.292	0.0179096
739.370	0.0179765
739.448	0.0179684
739.526	0.0182591
739.604	0.0182520
739.683	0.0181447
739.761	0.0182002
739.839	0.0183722
739.917	0.0182310
739.995	0.0184837
740.073	0.0183762
740.151	0.0182220
740.229	0.0182289
740.308	0.0182393
740.386	0.0181310
740.464	0.0180192
740.542	0.0179396
740.620	0.0179023
740.698	0.0177957
740.776	0.0179751
740.854	0.0179082
740.933	0.0179641
741.011	0.0179400
741.089	0.0179898
741.167	0.0180692
741.245	0.0179314
741.323	0.0180180
741.401	0.0180114
741.479	0.0181200
741.558	0.0181804
741.636	0.0181895
741.714	0.0181145
741.792	0.0180901
741.870	0.0180273
741.948	0.0179606
742.026	0.0179108
742.104	0.0180360
742.183	0.0178883
742.261	0.0179077
742.339	0.0176582
742.417	0.0176750
742.495	0.0178056
742.573	0.0178689
742.651	0.0176635
742.729	0.0177718
742.808	0.0177268
742.886	0.0177689
742.964	0.0178403
743.042	0.0178063
743.120	0.0178659
743.198	0.0180153
743.276	0.0178691
743.354	0.0178818
743.433	0.0180890
743.511	0.0179273
743.589	0.0180569
743.667	0.0181664
743.745	0.0180626
743.823	0.0179916
743.901	0.0179922
743.979	0.0179016
744.058	0.0179910
744.136	0.0180529
744.214	0.0179556
744.292	0.0179393
744.370	0.0179543
744.448	0.0180221
744.526	0.0178543
744.604	0.0176983
744.683	0.0177678
744.761	0.0178419
744.839	0.0176732
744.917	0.0177407
744.995	0.0178024
745.073	0.0177442
745.151	0.0178264
745.229	0.0178257
745.308	0.0178807
745.386	0.0180685
745.464	0.0179724
745.542	0.0180482
745.620	0.0180682
745.698	0.0180370
745.776	0.0181425
745.854	0.0181631
745.933	0.0181192
746.011	0.0180183
746.089	0.0181180
746.167	0.0181217
746.245	0.0180198
746.323	0.0180866
746.401	0.0179360
746.479	0.0177775
746.558	0.0178648
746.636	0.0178648
746.714	0.0178463
746.792	0.0177426
746.870	0.0178094
746.948	0.0177802
747.026	0.0176944
747.104	0.0179286
747.183	0.0178419
747.261	0.0177753
747.339	0.0179672
747.417	0.0179481
747.495	0.0179216
747.573	0.0179172
747.651	0.0178475
747.729	0.0178526
747.808	0.0178575
747.886	0.0178942
747.964	0.0179672
748.042	0.0179219
748.120	0.0177955
748.198	0.0178026
748.276	0.0177589
748.354	0.0178549
748.433	0.0178490
748.511	0.0178181
748.589	0.0178385
748.667	0.0177773
748.745	0.0179103
748.823	0.0180180
748.901	0.0179116
748.979	0.0180088
749.058	0.0179988
749.136	0.0179169
749.214	0.0178184
749.292	0.0179408
749.370	0.0180956
749.448	0.0178821
749.526	0.0180296
749.604	0.0180583
749.683	0.0179630
749.761	0.0180032
749.839	0.0180013
749.917	0.0179739
749.995	0.0180894
750.073	0.0178892
750.151	0.0180843
750.229	0.0180081
750.308	0.0180245
750.386	0.0177737
750.464	0.0178233
750.542	0.0179103
750.620	0.0178577
750.698	0.0178285
750.776	0.0178111
750.854	0.0176520
750.933	0.0176405
751.011	0.0177146
751.089	0.0178432
751.167	0.0177935
751.245	0.0177792
751.323	0.0179121
751.401	0.0176976
751.479	0.0179032
751.558	0.0178969
751.636	0.0177650
751.714	0.0178371
751.792	0.0178827
751.870	0.0179034
751.948	0.0177452
752.026	0.0177679
752.104	0.0179054
752.183	0.0177961
752.261	0.0177674
752.339	0.0178089
752.417	0.0178555
752.495	0.0178252
752.573	0.0178098
752.651	0.0177947
752.729	0.0177762
752.808	0.0179662
752.886	0.0179407
752.964	0.0179880
753.042	0.0178844
753.120	0.0179450
753.198	0.0180266
753.276	0.0180208
753.354	0.0179939
753.433	0.0180034
753.511	0.0180330
753.589	0.0181957
753.667	0.0183774
753.745	0.0180134
753.823	0.0181154
753.901	0.0182259
753.979	0.0181841
754.058	0.0181609
754.136	0.0180197
754.214	0.0181630
754.292	0.0181158
754.370	0.0180183
754.448	0.0179749
754.526	0.0179025
754.604	0.0179307
754.683	0.0180370
754.761	0.0178790
754.839	0.0177069
754.917	0.0178345
754.995	0.0178187
755.073	0.0176780
755.151	0.0176613
755.229	0.0177348
755.308	0.0178825
755.386	0.0177842
755.464	0.0178716
755.542	0.0177856
755.620	0.0178544
755.698	0.0177880
755.776	0.0180786
755.854	0.0179368
755.933	0.0178572
756.011	0.0179733
756.089	0.0180399
756.167	0.0180140
756.245	0.0178983
756.323	0.0180404
756.401	0.0179868
756.479	0.0180108
756.558	0.0179328
756.636	0.0179317
756.714	0.0178803
756.792	0.0178703
756.870	0.0179317
756.948	0.0178555
757.026	0.0178440
757.104	0.0179202
757.183	0.0177625
757.261	0.0178056
757.339	0.0178698
757.417	0.0176051
757.495	0.0177435
757.573	0.0178938
757.651	0.0177853
757.729	0.0179288
757.808	0.0178992
757.886	0.0178289
757.964	0.0178778
758.042	0.0180509
758.120	0.0179076
758.198	0.0180402
758.276	0.0180058
758.354	0.0177447
758.433	0.0178896
758.511	0.0180788
758.589	0.0180176
758.667	0.0179395
758.745	0.0179922
758.823	0.0179912
758.901	0.0178419
758.979	0.0179401
759.058	0.0178617
759.136	0.0178777
759.214	0.0178602
759.292	0.0178557
759.370	0.0177197
759.448	0.0177863
759.526	0.0179158
759.604	0.0178506
759.683	0.0179046
759.761	0.0180757
759.839	0.0179085
759.917	0.0181245
759.995	0.0180798
760.073	0.0181130
760.151	0.0180599
760.229	0.0181390
760.308	0.0180853
760.386	0.0180340
760.464	0.0180662
760.542	0.0181538
760.620	0.0181793
760.698	0.0180882
760.776	0.0180173
760.854	0.0180050
760.933	0.0179239
761.011	0.0180907
761.089	0.0179859
761.167	0.0179207
761.245	0.0178920
761.323	0.0179197
761.401	0.0180320
761.479	0.0178506
761.558	0.0181335
761.636	0.0181192
761.714	0.0180585
761.792	0.0179015
761.870	0.0180786
761.948	0.0179839
762.026	0.0179404
762.104	0.0181264
762.183	0.0181007
762.261	0.0181339
762.339	0.0179165
762.417	0.0180280
762.495	0.0181080
762.573	0.0181111
762.651	0.0180228
762.729	0.0180984
762.808	0.0180518
762.886	0.0180460
762.964	0.0181657
763.042	0.0180878
763.120	0.0178744
763.198	0.0180449
763.276	0.0179556
763.354	0.0180789
763.433	0.0179803
763.511	0.0180739
763.589	0.0181539
763.667	0.0181230
763.745	0.0181254
763.823	0.0180728
763.901	0.0180427
763.979	0.0180461
764.058	0.0180280
764.136	0.0178973
764.214	0.0179585
764.292	0.0180888
764.370	0.0180524
764.448	0.0179081
764.526	0.0178052
764.604	0.0178809
764.683	0.0177981
764.761	0.0179458
764.839	0.0178600
764.917	0.0178536
764.995	0.0178753
765.073	0.0177819
765.151	0.0177344
765.229	0.0177084
765.308	0.0177535
765.386	0.0177048
765.464	0.0178760
765.542	0.0177054
765.620	0.0179265
765.698	0.0177871
765.776	0.0177916
765.854	0.0179736
765.933	0.0179920
766.011	0.0179678
766.089	0.0179548
766.167	0.0179791
766.245	0.0181885
766.323	0.0181190
766.401	0.0180206
766.479	0.0180581
766.558	0.0180876
766.636	0.0181380
766.714	0.0181077
766.792	0.0181763
766.870	0.0180856
766.948	0.0179719
767.026	0.0179553
767.104	0.0179305
767.183	0.0178270
767.261	0.0180357
767.339	0.0179644
767.417	0.0180449
767.495	0.0179836
767.573	0.0178178
767.651	0.0178810
767.729	0.0179536
767.808	0.0179704
767.886	0.0179238
767.964	0.0180106
768.042	0.0179636
768.120	0.0178362
768.198	0.0179162
768.276	0.0180315
768.354	0.0179351
768.433	0.0180087
768.511	0.0179725
768.589	0.0179369
768.667	0.0179259
768.745	0.0178495
768.823	0.0179742
768.901	0.0180591
768.979	0.0178767
769.058	0.0180453
769.136	0.0180375
769.214	0.0179842
769.292	0.0178493
769.370	0.0179493
769.448	0.0179189
769.526	0.0180206
769.604	0.0180961
769.683	0.0180228
769.761	0.0180046
769.839	0.0181743
769.917	0.0180145
769.995	0.0179026
770.073	0.0178294
770.151	0.0178690
770.229	0.0179274
770.308	0.0179799
770.386	0.0180486
770.464	0.0179569
770.542	0.0179398
770.620	0.0180226
770.698	0.0179338
770.776	0.0180550
770.854	0.0180223
770.933	0.0179861
771.011	0.0179677
771.089	0.0179925
771.167	0.0178983
771.245	0.0180022
771.323	0.0180802
771.401	0.0178390
771.479	0.0179317
771.558	0.0179514
771.636	0.0180204
771.714	0.0180972
771.792	0.0179210
771.870	0.0178168
771.948	0.0178535
772.026	0.0178867
772.104	0.0178378
772.183	0.0178917
772.261	0.0179115
772.339	0.0179086
772.417	0.0180444
772.495	0.0180360
772.573	0.0180428
772.651	0.0180113
772.729	0.0180052
772.808	0.0180877
772.886	0.0180437
772.964	0.0179669
773.042	0.0180027
773.120	0.0179180
773.198	0.0179276
773.276	0.0180116
773.354	0.0179847
773.433	0.0181402
773.511	0.0178929
773.589	0.0180341
773.667	0.0179053
773.745	0.0179106
773.823	0.0179237
773.901	0.0177490
773.979	0.0179432
774.058	0.0179020
774.136	0.0178030
774.214	0.0179536
774.292	0.0180683
774.370	0.0177758
774.448	0.0179738
774.526	0.0179757
774.604	0.0179875
774.683	0.0179547
774.761	0.0179084
774.839	0.0180325
774.917	0.0178424
774.995	0.0178221
775.073	0.0177982
775.151	0.0179129
775.229	0.0178700
775.308	0.0177093
775.386	0.0178032
775.464	0.0179068
775.542	0.0179021
775.620	0.0179194
775.698	0.0178315
775.776	0.0181153
775.854	0.0179221
775.933	0.0180607
776.011	0.0181059
776.089	0.0181380
776.167	0.0181394
776.245	0.0182869
776.323	0.0182945
776.401	0.0181036
776.479	0.0182535
776.558	0.0180379
776.636	0.0181239
776.714	0.0181593
776.792	0.0181308
776.870	0.0179224
776.948	0.0180773
777.026	0.0178412
777.104	0.0177662
777.183	0.0177628
777.261	0.0178529
777.339	0.0178659
777.417	0.0178667
777.495	0.0177840
777.573	0.0177299
777.651	0.0178380
777.729	0.0177533
777.808	0.0179338
777.886	0.0179523
777.964	0.0179096
778.042	0.0179022
778.120	0.0179813
778.198	0.0179840
778.276	0.0179339
778.354	0.0180244
778.433	0.0180188
778.511	0.0179139
778.589	0.0180039
778.667	0.0180088
778.745	0.0181234
778.823	0.0181055
778.901	0.0179541
778.979	0.0179433
779.058	0.0180573
779.136	0.0179849
779.214	0.0181274
779.292	0.0180298
779.370	0.0177582
779.448	0.0177888
779.526	0.0179070
779.604	0.0178720
779.683	0.0177531
779.761	0.0180203
779.839	0.0178752
779.917	0.0178896
779.995	0.0180251
780.073	0.0179522
780.151	0.0180849
780.229	0.0179109
780.308	0.0180461
780.386	0.0179157
780.464	0.0179848
780.542	0.0179179
780.620	0.0179698
780.698	0.0178217
780.776	0.0178996
780.854	0.0178155
780.933	0.0178548
781.011	0.0179694
781.089	0.0179126
781.167	0.0178212
781.245	0.0177943
781.323	0.0179022
781.401	0.0179640
781.479	0.0178813
781.558	0.0177857
781.636	0.0179165
781.714	0.0177910
781.792	0.0177657
781.870	0.0177924
781.948	0.0178174
782.026	0.0178397
782.104	0.0177959
782.183	0.0178485
782.261	0.0178362
782.339	0.0180422
782.417	0.0179123
782.495	0.0178676
782.573	0.0178008
782.651	0.0178750
782.729	0.0179573
782.808	0.0179041
782.886	0.0179398
782.964	0.0178722
783.042	0.0179401
783.120	0.0180357
783.198	0.0180378
783.276	0.0181275
783.354	0.0179662
783.433	0.0179813
783.511	0.0179475
783.589	0.0180243
783.667	0.0180296
783.745	0.0179018
783.823	0.0180589
783.901	0.0179916
783.979	0.0179841
784.058	0.0181654
784.136	0.0181512
784.214	0.0180849
784.292	0.0179746
784.370	0.0180004
784.448	0.0180477
784.526	0.0179588
784.604	0.0179708
784.683	0.0179821
784.761	0.0179527
784.839	0.0178610
784.917	0.0179201
784.995	0.0180770
785.073	0.0179797
785.151	0.0179479
785.229	0.0179243
785.308	0.0178487
785.386	0.0179192
785.464	0.0179116
785.542	0.0179723
785.620	0.0179472
785.698	0.0178495
785.776	0.0178879
785.854	0.0178404
785.933	0.0179854
786.011	0.0179002
786.089	0.0177458
786.167	0.0179440
786.245	0.0180328
786.323	0.0179652
786.401	0.0178299
786.479	0.0178985
786.558	0.0179572
786.636	0.0179353
786.714	0.0180218
786.792	0.0179535
786.870	0.0179606
786.948	0.0180704
787.026	0.0181503
787.104	0.0180389
787.183	0.0179417
787.261	0.0180289
787.339	0.0180502
787.417	0.0180415
787.495	0.0179646
787.573	0.0181056
787.651	0.0178385
787.729	0.0179440
787.808	0.0179940
787.886	0.0180566
787.964	0.0179495
788.042	0.0178300
788.120	0.0179370
788.198	0.0179073
788.276	0.0179224
788.354	0.0179401
788.433	0.0179697
788.511	0.0178046
788.589	0.0178972
788.667	0.0178819
788.745	0.0179966
788.823	0.0178873
788.901	0.0179048
788.979	0.0179076
789.058	0.0179471
789.136	0.0179176
789.214	0.0180732
789.292	0.0179928
789.370	0.0179964
789.448	0.0180027
789.526	0.0180618
789.604	0.0179488
789.683	0.0178934
789.761	0.0180736
789.839	0.0178732
789.917	0.0178938
789.995	0.0178576
790.073	0.0178541
790.151	0.0179456
790.229	0.0178954
790.308	0.0179325
790.386	0.0178706
790.464	0.0177757
790.542	0.0178825
790.620	0.0177802
790.698	0.0178509
790.776	0.0179197
790.854	0.0179118
790.933	0.0178825
791.011	0.0177849
791.089	0.0178104
791.167	0.0177209
791.245	0.0178911
791.323	0.0180535
791.401	0.0178855
791.479	0.0179555
791.558	0.0179085
791.636	0.0182313
791.714	0.0180998
791.792	0.0179559
791.870	0.0178762
791.948	0.0178916
792.026	0.0180200
792.104	0.0182103
792.183	0.0181463
792.261	0.0181184
792.339	0.0179371
792.417	0.0180713
792.495	0.0179842
792.573	0.0180216
792.651	0.0181126
792.729	0.0181200
792.808	0.0179202
792.886	0.0177977
792.964	0.0180110
793.042	0.0179652
793.120	0.0179508
793.198	0.0178617
793.276	0.0179411
793.354	0.0179508
793.433	0.0180258
793.511	0.0179698
793.589	0.0179593
793.667	0.0177602
793.745	0.0179068
793.823	0.0179774
793.901	0.0180804
793.979	0.0179781
794.058	0.0181288
794.136	0.0179991
794.214	0.0178635
794.292	0.0180318
794.370	0.0179661
794.448	0.0180510
794.526	0.0179898
794.604	0.0179263
794.683	0.0178307
794.761	0.0178302
794.839	0.0178266
794.917	0.0178911
794.995	0.0178162
795.073	0.0179047
795.151	0.0178246
795.229	0.0179111
795.308	0.0177744
795.386	0.0178517
795.464	0.0178724
795.542	0.0179263
795.620	0.0179203
795.698	0.0179321
795.776	0.0180999
795.854	0.0180840
795.933	0.0179910
796.011	0.0179339
796.089	0.0181017
796.167	0.0181522
796.245	0.0179156
796.323	0.0178723
796.401	0.0180125
796.479	0.0180524
796.558	0.0180767
796.636	0.0180055
796.714	0.0178277
796.792	0.0178955
796.870	0.0179121
796.948	0.0179262
797.026	0.0180178
797.104	0.0179096
797.183	0.0178284
797.261	0.0178905
797.339	0.0179491
797.417	0.0179032
797.495	0.0179808
797.573	0.0177936
797.651	0.0177448
797.729	0.0178861
797.808	0.0177919
797.886	0.0179332
797.964	0.0179830
798.042	0.0180866
798.120	0.0180188
798.198	0.0178362
798.276	0.0179739
798.354	0.0180169
798.433	0.0179690
798.511	0.0179202
798.589	0.0179687
798.667	0.0180029
798.745	0.0178880
798.823	0.0179135
798.901	0.0178863
798.979	0.0178789
799.058	0.0178595
799.136	0.0178114
799.214	0.0179720
799.292	0.0180388
799.370	0.0178108
799.448	0.0179090
799.526	0.0179453
799.604	0.0177792
799.683	0.0179398
799.761	0.0180056
799.839	0.0179398
799.917	0.0178197
799.995	0.0178712
800.073	0.0179907
800.151	0.0180045
800.229	0.0179613
800.308	0.0179646
800.386	0.0179186
800.464	0.0179897
800.542	0.0180270
800.620	0.0180575
800.698	0.0178055
800.776	0.0178672
800.854	0.0179224
800.933	0.0179628
801.011	0.0178339
801.089	0.0178963
801.167	0.0178676
801.245	0.0177787
801.323	0.0178560
801.401	0.0179958
801.479	0.0179961
801.558	0.0179998
801.636	0.0179063
801.714	0.0179015
801.792	0.0178872
801.870	0.0179550
801.948	0.0180788
802.026	0.0180620
802.104	0.0179844
802.183	0.0180594
802.261	0.0181047
802.339	0.0179924
802.417	0.0180241
802.495	0.0180354
802.573	0.0179469
802.651	0.0179764
802.729	0.0179596
802.808	0.0178034
802.886	0.0178548
802.964	0.0178182
803.042	0.0178434
803.120	0.0176965
803.198	0.0174995
803.276	0.0177652
803.354	0.0175662
803.433	0.0176267
803.511	0.0177605
803.589	0.0177354
803.667	0.0176531
803.745	0.0177202
803.823	0.0176663
803.901	0.0177711
803.979	0.0178142
804.058	0.0177824
804.136	0.0179654
804.214	0.0180114
804.292	0.0179080
804.370	0.0179906
804.448	0.0180116
804.526	0.0180506
804.604	0.0180032
804.683	0.0179233
804.761	0.0179765
804.839	0.0179416
804.917	0.0179463
804.995	0.0180425
805.073	0.0179756
805.151	0.0180428
805.229	0.0179989
805.308	0.0179887
805.386	0.0179109
805.464	0.0180071
805.542	0.0179855
805.620	0.0178806
805.698	0.0178793
805.776	0.0180145
805.854	0.0178871
805.933	0.0179884
806.011	0.0179420
806.089	0.0178683
806.167	0.0178232
806.245	0.0179259
806.323	0.0178574
806.401	0.0180446
806.479	0.0179327
806.558	0.0178732
806.636	0.0177946
806.714	0.0178470
806.792	0.0178754
806.870	0.0178992
806.948	0.0179830
807.026	0.0177756
807.104	0.0177969
807.183	0.0176032
807.261	0.0179633
807.339	0.0179714
807.417	0.0180095
807.495	0.0180650
807.573	0.0180612
807.651	0.0179073
807.729	0.0180470
807.808	0.0181050
807.886	0.0180582
807.964	0.0179377
808.042	0.0180906
808.120	0.0182634
808.198	0.0182977
808.276	0.0181411
808.354	0.0181670
808.433	0.0180296
808.511	0.0180610
808.589	0.0179694
808.667	0.0181154
808.745	0.0181629
808.823	0.0180264
808.901	0.0179210
808.979	0.0179121
809.058	0.0178780
809.136	0.0179517
809.214	0.0178757
809.292	0.0178398
809.370	0.0178722
809.448	0.0177746
809.526	0.0177188
809.604	0.0176734
809.683	0.0178300
809.761	0.0178133
809.839	0.0179270
809.917	0.0177527
809.995	0.0178229
810.073	0.0178273
810.151	0.0178593
810.229	0.0177149
810.308	0.0178589
810.386	0.0179586
810.464	0.0179615
810.542	0.0180360
810.620	0.0179031
810.698	0.0179999
810.776	0.0179238
810.854	0.0180405
810.933	0.0181026
811.011	0.0180311
811.089	0.0179001
811.167	0.0178851
811.245	0.0179471
811.323	0.0179308
811.401	0.0178229
811.479	0.0178900
811.558	0.0178960
811.636	0.0178554
811.714	0.0178444
811.792	0.0178250
811.870	0.0178613
811.948	0.0177256
812.026	0.0178494
812.104	0.0178657
812.183	0.0177881
812.261	0.0180298
812.339	0.0180322
812.417	0.0179482
812.495	0.0178643
812.573	0.0180063
812.651	0.0179912
812.729	0.0181114
812.808	0.0179883
812.886	0.0180048
812.964	0.0181020
813.042	0.0179305
813.120	0.0178598
813.198	0.0179375
813.276	0.0179688
813.354	0.0179678
813.433	0.0179132
813.511	0.0178115
813.589	0.0176988
813.667	0.0178605
813.745	0.0179702
813.823	0.0178374
813.901	0.0177858
813.979	0.0178599
814.058	0.0178275
814.136	0.0178401
814.214	0.0179437
814.292	0.0180014
814.370	0.0179795
814.448	0.0180314
814.526	0.0181681
814.604	0.0179686
814.683	0.0180644
814.761	0.0180906
814.839	0.0179712
814.917	0.0179620
814.995	0.0179789
815.073	0.0180799
815.151	0.0178717
815.229	0.0179199
815.308	0.0180436
815.386	0.0179991
815.464	0.0180666
815.542	0.0179623
815.620	0.0179604
815.698	0.0179005
815.776	0.0178576
815.854	0.0179579
815.933	0.0178043
816.011	0.0178596
816.089	0.0177816
816.167	0.0178355
816.245	0.0178622
816.323	0.0178637
816.401	0.0178563
816.479	0.0178033
816.558	0.0179360
816.636	0.0178539
816.714	0.0179131
816.792	0.0180398
816.870	0.0179637
816.948	0.0179751
817.026	0.0179663
817.104	0.0180283
817.183	0.0179494
817.261	0.0178970
817.339	0.0179935
817.417	0.0180466
817.495	0.0179356
817.573	0.0179311
817.651	0.0179634
817.729	0.0182354
817.808	0.0179974
817.886	0.0179626
817.964	0.0178733
818.042	0.0179978
818.120	0.0179826
818.198	0.0179985
818.276	0.0179588
818.354	0.0179153
818.433	0.0180360
818.511	0.0180254
818.589	0.0180070
818.667	0.0177958
818.745	0.0178885
818.823	0.0178205
818.901	0.0178074
818.979	0.0178697
819.058	0.0178304
819.136	0.0178049
819.214	0.0179176
819.292	0.0179414
819.370	0.0180344
819.448	0.0179352
819.526	0.0179287
819.604	0.0178915
819.683	0.0178930
819.761	0.0179226
819.839	0.0181091
819.917	0.0179154
819.995	0.0180101
820.073	0.0179063
820.151	0.0179314
820.229	0.0179604
820.308	0.0179398
820.386	0.0180550
820.464	0.0179838
820.542	0.0179262
820.620	0.0180302
820.698	0.0180477
820.776	0.0179053
820.854	0.0177443
820.933	0.0177528
821.011	0.0178980
821.089	0.0179257
821.167	0.0178584
821.245	0.0179150
821.323	0.0178459
821.401	0.0178270
821.479	0.0177998
821.558	0.0178293
821.636	0.0178457
821.714	0.0178661
821.792	0.0177625
821.870	0.0178668
821.948	0.0179221
822.026	0.0180070
822.104	0.0179230
822.183	0.0180569
822.261	0.0180704
822.339	0.0179314
822.417	0.0178175
822.495	0.0180545
822.573	0.0180552
822.651	0.0181375
822.729	0.0180659
822.808	0.0179506
822.886	0.0180708
822.964	0.0180837
823.042	0.0180566
823.120	0.0180038
823.198	0.0180142
823.276	0.0179659
823.354	0.0179918
823.433	0.0180706
823.511	0.0181054
823.589	0.0181961
823.667	0.0179921
823.745	0.0179790
823.823	0.0179015
823.901	0.0178463
823.979	0.0179739
824.058	0.0180077
824.136	0.0177709
824.214	0.0179739
824.292	0.0178207
824.370	0.0177213
824.448	0.0178324
824.526	0.0178206
824.604	0.0179321
824.683	0.0178054
824.761	0.0177813
824.839	0.0177520
824.917	0.0178569
824.995	0.0176576
825.073	0.0176817
825.151	0.0178571
825.229	0.0179749
825.308	0.0178760
825.386	0.0177985
825.464	0.0178294
825.542	0.0177770
825.620	0.0178944
825.698	0.0178860
825.776	0.0178331
825.854	0.0179958
825.933	0.0177992
826.011	0.0179087
826.089	0.0179461
826.167	0.0178827
826.245	0.0179142
826.323	0.0179673
826.401	0.0178751
826.479	0.0179414
826.558	0.0178872
826.636	0.0179049
826.714	0.0180316
826.792	0.0179400
826.870	0.0178782
826.948	0.0179973
827.026	0.0179328
827.104	0.0180760
827.183	0.0179861
827.261	0.0178438
827.339	0.0181078
827.417	0.0180528
827.495	0.0178648
827.573	0.0178434
827.651	0.0181342
827.729	0.0180129
827.808	0.0179456
827.886	0.0179578
827.964	0.0179219
828.042	0.0180539
828.120	0.0180608
828.198	0.0178725
828.276	0.0180042
828.354	0.0178989
828.433	0.0179530
828.511	0.0178743
828.589	0.0180327
828.667	0.0179572
828.745	0.0178747
828.823	0.0178522
828.901	0.0177540
828.979	0.0178815
829.058	0.0181402
829.136	0.0180483
829.214	0.0180219
829.292	0.0179459
829.370	0.0178939
829.448	0.0179104
829.526	0.0179396
829.604	0.0181203
829.683	0.0177774
829.761	0.0179863
829.839	0.0180077
829.917	0.0179183
829.995	0.0178705
830.073	0.0178160
830.151	0.0178299
830.229	0.0178874
830.308	0.0179868
830.386	0.0179182
830.464	0.0177977
830.542	0.0177280
830.620	0.0177871
830.698	0.0178538
830.776	0.0178020
830.854	0.0178065
830.933	0.0178837
831.011	0.0178739
831.089	0.0178845
831.167	0.0179079
831.245	0.0178255
831.323	0.0179296
831.401	0.0178970
831.479	0.0179686
831.558	0.0180164
831.636	0.0180460
831.714	0.0179227
831.792	0.0180011
831.870	0.0179798
831.948	0.0179276
832.026	0.0178956
832.104	0.0180834
832.183	0.0179929
832.261	0.0179416
832.339	0.0180362
832.417	0.0178503
832.495	0.0179915
832.573	0.0179710
832.651	0.0179936
832.729	0.0179837
832.808	0.0178730
832.886	0.0179329
832.964	0.0180390
833.042	0.0179616
833.120	0.0180021
833.198	0.0180055
833.276	0.0179919
833.354	0.0180197
833.433	0.0179816
833.511	0.0178577
833.589	0.0179787
833.667	0.0179553
833.745	0.0180385
833.823	0.0179704
833.901	0.0178857
833.979	0.0177424
834.058	0.0179237
834.136	0.0179657
834.214	0.0179486
834.292	0.0178072
834.370	0.0178747
834.448	0.0179018
834.526	0.0179549
834.604	0.0180579
834.683	0.0180257
834.761	0.0179821
834.839	0.0180776
834.917	0.0179462
834.995	0.0181097
835.073	0.0181101
835.151	0.0180229
835.229	0.0180923
835.308	0.0179402
835.386	0.0178531
835.464	0.0180314
835.542	0.0180210
835.620	0.0179278
835.698	0.0179184
835.776	0.0179600
835.854	0.0177261
835.933	0.0177776
836.011	0.0178008
836.089	0.0178168
836.167	0.0178248
836.245	0.0178824
836.323	0.0178878
836.401	0.0178093
836.479	0.0179638
836.558	0.0178011
836.636	0.0179176
836.714	0.0177596
836.792	0.0178262
836.870	0.0179685
836.948	0.0179374
837.026	0.0179446
837.104	0.0179236
837.183	0.0179168
837.261	0.0179745
837.339	0.0179719
837.417	0.0178928
837.495	0.0180611
837.573	0.0181408
837.651	0.0181506
837.729	0.0181751
837.808	0.0179782
837.886	0.0180243
837.964	0.0178939
838.042	0.0180322
838.120	0.0180407
838.198	0.0180970
838.276	0.0179404
838.354	0.0180227
838.433	0.0179609
838.511	0.0180023
838.589	0.0178747
838.667	0.0178439
838.745	0.0177550
838.823	0.0178024
838.901	0.0178281
838.979	0.0178496
839.058	0.0178027
839.136	0.0177480
839.214	0.0178495
839.292	0.0178957
839.370	0.0177508
839.448	0.0177526
839.526	0.0179108
839.604	0.0179220
839.683	0.0179672
839.761	0.0180766
839.839	0.0178726
839.917	0.0178587
839.995	0.0180736
840.073	0.0179714
840.151	0.0180060
840.229	0.0181118
840.308	0.0179978
840.386	0.0179671
840.464	0.0179443
840.542	0.0180914
840.620	0.0181215
840.698	0.0178232
840.776	0.0179873
840.854	0.0179440
840.933	0.0179166
841.011	0.0179522
841.089	0.0179106
841.167	0.0178533
841.245	0.0179342
841.323	0.0178176
841.401	0.0179893
841.479	0.0179578
841.558	0.0178097
841.636	0.0178456
841.714	0.0179025
841.792	0.0178867
841.870	0.0178065
841.948	0.0179340
842.026	0.0178324
842.104	0.0177818
842.183	0.0179963
842.261	0.0179652
842.339	0.0178664
842.417	0.0180065
842.495	0.0179359
842.573	0.0180014
842.651	0.0179779
842.729	0.0177724
842.808	0.0179388
842.886	0.0180502
842.964	0.0179176
843.042	0.0178842
843.120	0.0179482
843.198	0.0180441
843.276	0.0178686
843.354	0.0179945
843.433	0.0178244
843.511	0.0180820
843.589	0.0178654
843.667	0.0178024
843.745	0.0180537
843.823	0.0179914
843.901	0.0179673
843.979	0.0179642
844.058	0.0179568
844.136	0.0179923
844.214	0.0179703
844.292	0.0179015
844.370	0.0180198
844.448	0.0180706
844.526	0.0179984
844.604	0.0180396
844.683	0.0180874
844.761	0.0179448
844.839	0.0178688
844.917	0.0179041
844.995	0.0179674
845.073	0.0178964
845.151	0.0179592
845.229	0.0179204
845.308	0.0177638
845.386	0.0179119
845.464	0.0178758
845.542	0.0179244
845.620	0.0179242
845.698	0.0177795
845.776	0.0178283
845.854	0.0179060
845.933	0.0179075
846.011	0.0179266
846.089	0.0178429
846.167	0.0179630
846.245	0.0180846
846.323	0.0179885
846.401	0.0181061
846.479	0.0181950
846.558	0.0180653
846.636	0.0180713
846.714	0.0180137
846.792	0.0181377
846.870	0.0182394
846.948	0.0179934
847.026	0.0179067
847.104	0.0179899
847.183	0.0179406
847.261	0.0178577
847.339	0.0181035
847.417	0.0179456
847.495	0.0179017
847.573	0.0179691
847.651	0.0179839
847.729	0.0179795
847.808	0.0178065
847.886	0.0179376
847.964	0.0179163
848.042	0.0179601
848.120	0.0179440
848.198	0.0178904
848.276	0.0178210
848.354	0.0179515
848.433	0.0179218
848.511	0.0179211
848.589	0.0180318
848.667	0.0181812
848.745	0.0180314
848.823	0.0179463
848.901	0.0179802
848.979	0.0180315
849.058	0.0180355
849.136	0.0178777
849.214	0.0179709
849.292	0.0180334
849.370	0.0180518
849.448	0.0180679
849.526	0.0179221
849.604	0.0178732
849.683	0.0178970
849.761	0.0178685
849.839	0.0179366
849.917	0.0179718
849.995	0.0179837
850.073	0.0178840
850.151	0.0177650
850.229	0.0179350
850.308	0.0178600
850.386	0.0177570
850.464	0.0178307
850.542	0.0178204
850.620	0.0177691
850.698	0.0179063
850.776	0.0179413
850.854	0.0179543
850.933	0.0178426
851.011	0.0180419
851.089	0.0178991
851.167	0.0177850
851.245	0.0179442
851.323	0.0178516
851.401	0.0177948
851.479	0.0178256
851.558	0.0178381
851.636	0.0179134
851.714	0.0178532
851.792	0.0179301
851.870	0.0177773
851.948	0.0177718
852.026	0.0178209
852.104	0.0179200
852.183	0.0177496
852.261	0.0178513
852.339	0.0180530
852.417	0.0179273
852.495	0.0180578
852.573	0.0178683
852.651	0.0180563
852.729	0.0179217
852.808	0.0178458
852.886	0.0179571
852.964	0.0179880
853.042	0.0180257
853.120	0.0180365
853.198	0.0178761
853.276	0.0179530
853.354	0.0178835
853.433	0.0178793
853.511	0.0179098
853.589	0.0178535
853.667	0.0178704
853.745	0.0179878
853.823	0.0178816
853.901	0.0179155
853.979	0.0178461
854.058	0.0179053
854.136	0.0179631
854.214	0.0178625
854.292	0.0179056
854.370	0.0177511
854.448	0.0179774
854.526	0.0179031
854.604	0.0179585
854.683	0.0180025
854.761	0.0180470
854.839	0.0179049
854.917	0.0178664
854.995	0.0178958
855.073	0.0179313
855.151	0.0178705
855.229	0.0179321
855.308	0.0179578
855.386	0.0177818
855.464	0.0177742
855.542	0.0179605
855.620	0.0178770
855.698	0.0178251
855.776	0.0178674
855.854	0.0179587
855.933	0.0177251
856.011	0.0178980
856.089	0.0179934
856.167	0.0178558
856.245	0.0179626
856.323	0.0181612
856.401	0.0180205
856.479	0.0180303
856.558	0.0180869
856.636	0.0179977
856.714	0.0180349
856.792	0.0181223
856.870	0.0180739
856.948	0.0180743
857.026	0.0181226
857.104	0.0180514
857.183	0.0182309
857.261	0.0180154
857.339	0.0179652
857.417	0.0181030
857.495	0.0180013
857.573	0.0179512
857.651	0.0180276
857.729	0.0179124
857.808	0.0178468
857.886	0.0178590
857.964	0.0178803
858.042	0.0179848
858.120	0.0178784
858.198	0.0179446
858.276	0.0180048
858.354	0.0180004
858.433	0.0180136
858.511	0.0178799
858.589	0.0180102
858.667	0.0179336
858.745	0.0179114
858.823	0.0179510
858.901	0.0181203
858.979	0.0178327
859.058	0.0179551
859.136	0.0179877
859.214	0.0180381
859.292	0.0178609
859.370	0.0180135
859.448	0.0179209
859.526	0.0178515
859.604	0.0181360
859.683	0.0179619
859.761	0.0179324
859.839	0.0178903
859.917	0.0178916
859.995	0.0180173
860.073	0.0178688
860.151	0.0178871
860.229	0.0178699
860.308	0.0179421
860.386	0.0178897
860.464	0.0178444
860.542	0.0178917
860.620	0.0178762
860.698	0.0178852
860.776	0.0179913
860.854	0.0178324
860.933	0.0178529
861.011	0.0178890
861.089	0.0179082
861.167	0.0178550
861.245	0.0177357
861.323	0.0178654
861.401	0.0179008
861.479	0.0179096
861.558	0.0179054
861.636	0.0178840
861.714	0.0178173
861.792	0.0178051
861.870	0.0180250
861.948	0.0181049
862.026	0.0180615
862.104	0.0178776
862.183	0.0178559
862.261	0.0180084
862.339	0.0180212
862.417	0.0180801
862.495	0.0178411
862.573	0.0179491
862.651	0.0178973
862.729	0.0179578
862.808	0.0179556
862.886	0.0178947
862.964	0.0178140
863.042	0.0177161
863.120	0.0178648
863.198	0.0176871
863.276	0.0178790
863.354	0.0178614
863.433	0.0178320
863.511	0.0179535
863.589	0.0178101
863.667	0.0178648
863.745	0.0180317
863.823	0.0179076
863.901	0.0180297
863.979	0.0178649
864.058	0.0178854
864.136	0.0179967
864.214	0.0180212
864.292	0.0179012
864.370	0.0181638
864.448	0.0180302
864.526	0.0181286
864.604	0.0180536
864.683	0.0179024
864.761	0.0180137
864.839	0.0179578
864.917	0.0180270
864.995	0.0178662
865.073	0.0179457
865.151	0.0179559
865.229	0.0181712
865.308	0.0178513
865.386	0.0179533
865.464	0.0179264
865.542	0.0178442
865.620	0.0179114
865.698	0.0178714
865.776	0.0177896
865.854	0.0178678
865.933	0.0179427
866.011	0.0180363
866.089	0.0179319
866.167	0.0178517
866.245	0.0178625
866.323	0.0179503
866.401	0.0178513
866.479	0.0180946
866.558	0.0180140
866.636	0.0180828
866.714	0.0179487
866.792	0.0179623
866.870	0.0180468
866.948	0.0179166
867.026	0.0178826
867.104	0.0180566
867.183	0.0179814
867.261	0.0178721
867.339	0.0178460
867.417	0.0179236
867.495	0.0178115
867.573	0.0178692
867.651	0.0179566
867.729	0.0180309
867.808	0.0179097
867.886	0.0180035
867.964	0.0179104
868.042	0.0179408
868.120	0.0180076
868.198	0.0178756
868.276	0.0179299
868.354	0.0180176
868.433	0.0178776
868.511	0.0180412
868.589	0.0179932
868.667	0.0180064
868.745	0.0180581
868.823	0.0180104
868.901	0.0179419
868.979	0.0181989
869.058	0.0181470
869.136	0.0180316
869.214	0.0180807
869.292	0.0180516
869.370	0.0180428
869.448	0.0180017
869.526	0.0178629
869.604	0.0179881
869.683	0.0180151
869.761	0.0179321
869.839	0.0178246
869.917	0.0179572
869.995	0.0179100
870.073	0.0178326
870.151	0.0179057
870.229	0.0177293
870.308	0.0178160
870.386	0.0179701
870.464	0.0178030
870.542	0.0179104
870.620	0.0180497
870.698	0.0178015
870.776	0.0178268
870.854	0.0178466
870.933	0.0178392
871.011	0.0179083
871.089	0.0179021
871.167	0.0177122
871.245	0.0178824
871.323	0.0180644
871.401	0.0178522
871.479	0.0179459
871.558	0.0180025
871.636	0.0179224
871.714	0.0178719
871.792	0.0178556
871.870	0.0177979
871.948	0.0178522
872.026	0.0180371
872.104	0.0179569
872.183	0.0178682
872.261	0.0178820
872.339	0.0179858
872.417	0.0178721
872.495	0.0178041
872.573	0.0178394
872.651	0.0179542
872.729	0.0178761
872.808	0.0180063
872.886	0.0178136
872.964	0.0178717
873.042	0.0179133
873.120	0.0180168
873.198	0.0179031
873.276	0.0180229
873.354	0.0181274
873.433	0.0178669
873.511	0.0179139
873.589	0.0180444
873.667	0.0180381
873.745	0.0179575
873.823	0.0179312
873.901	0.0179323
873.979	0.0180151
874.058	0.0179520
874.136	0.0179195
874.214	0.0179749
874.292	0.0178693
874.370	0.0179018
874.448	0.0178847
874.526	0.0178571
874.604	0.0180101
874.683	0.0176881
874.761	0.0177471
874.839	0.0178664
874.917	0.0178604
874.995	0.0177834
875.073	0.0178748
875.151	0.0179226
875.229	0.0179456
875.308	0.0178626
875.386	0.0179359
875.464	0.0178051
875.542	0.0179677
875.620	0.0179744
875.698	0.0179892
875.776	0.0178430
875.854	0.0180018
875.933	0.0179639
876.011	0.0179597
876.089	0.0179333
876.167	0.0178685
876.245	0.0179489
876.323	0.0178825
876.401	0.0178352
876.479	0.0177343
876.558	0.0178992
876.636	0.0179163
876.714	0.0178567
876.792	0.0178008
876.870	0.0177633
876.948	0.0178343
877.026	0.0178947
877.104	0.0178423
877.183	0.0178586
877.261	0.0179034
877.339	0.0178677
877.417	0.0179232
877.495	0.0178915
877.573	0.0178718
877.651	0.0178893
877.729	0.0179375
877.808	0.0179832
877.886	0.0179710
877.964	0.0179515
878.042	0.0180460
878.120	0.0178195
878.198	0.0178996
878.276	0.0178599
878.354	0.0178771
878.433	0.0179176
878.511	0.0178377
878.589	0.0177563
878.667	0.0177534
878.745	0.0178782
878.823	0.0176089
878.901	0.0176452
878.979	0.0179342
879.058	0.0177116
879.136	0.0177016
879.214	0.0176646
879.292	0.0178621
879.370	0.0177917
879.448	0.0178513
879.526	0.0177438
879.604	0.0177836
879.683	0.0178783
879.761	0.0178122
879.839	0.0178521
879.917	0.0179144
879.995	0.0178275
880.073	0.0180048
880.151	0.0178491
880.229	0.0180408
880.308	0.0179279
880.386	0.0179137
880.464	0.0178368
880.542	0.0181260
880.620	0.0179896
880.698	0.0179817
880.776	0.0181329
880.854	0.0179075
880.933	0.0180066
881.011	0.0180776
881.089	0.0178547
881.167	0.0178439
881.245	0.0179644
881.323	0.0179304
881.401	0.0179205
881.479	0.0178952
881.558	0.0181113
881.636	0.0179958
881.714	0.0179537
881.792	0.0179053
881.870	0.0178277
881.948	0.0180828
882.026	0.0180432
882.104	0.0179913
882.183	0.0180453
882.261	0.0180522
882.339	0.0178746
882.417	0.0178333
882.495	0.0180660
882.573	0.0179914
882.651	0.0180400
882.729	0.0178184
882.808	0.0179187
882.886	0.0179803
882.964	0.0179742
883.042	0.0180060
883.120	0.0179414
883.198	0.0180026
883.276	0.0179813
883.354	0.0179504
883.433	0.0178426
883.511	0.0179015
883.589	0.0179726
883.667	0.0179955
883.745	0.0177950
883.823	0.0179267
883.901	0.0180737
883.979	0.0178412
884.058	0.0178560
884.136	0.0179446
884.214	0.0180343
884.292	0.0179453
884.370	0.0179342
884.448	0.0179613
884.526	0.0179301
884.604	0.0180254
884.683	0.0179897
884.761	0.0179389
884.839	0.0179994
884.917	0.0180065
884.995	0.0179019
885.073	0.0178651
885.151	0.0179934
885.229	0.0179331
885.308	0.0180627
885.386	0.0177587
885.464	0.0179559
885.542	0.0179873
885.620	0.0178415
885.698	0.0178561
885.776	0.0178389
885.854	0.0179324
885.933	0.0177761
886.011	0.0178442
886.089	0.0178234
886.167	0.0178719
886.245	0.0179681
886.323	0.0178452
886.401	0.0178444
886.479	0.0178603
886.558	0.0179875
886.636	0.0178170
886.714	0.0178427
886.792	0.0179530
886.870	0.0179656
886.948	0.0179005
887.026	0.0178059
887.104	0.0178304
887.183	0.0178664
887.261	0.0178821
887.339	0.0180139
887.417	0.0179498
887.495	0.0180384
887.573	0.0178376
887.651	0.0178330
887.729	0.0179668
887.808	0.0179422
887.886	0.0179897
887.964	0.0179694
888.042	0.0179470
888.120	0.0178172
888.198	0.0180127
888.276	0.0180014
888.354	0.0178309
888.433	0.0178648
888.511	0.0179548
888.589	0.0178198
888.667	0.0179303
888.745	0.0178436
888.823	0.0179473
888.901	0.0180381
888.979	0.0181075
889.058	0.0179713
889.136	0.0179475
889.214	0.0178722
889.292	0.0177940
889.370	0.0178605
889.448	0.0178760
889.526	0.0176975
889.604	0.0178373
889.683	0.0178641
889.761	0.0177995
889.839	0.0177912
889.917	0.0178493
889.995	0.0177574
890.073	0.0178943
890.151	0.0179601
890.229	0.0178948
890.308	0.0179882
890.386	0.0178572
890.464	0.0178823
890.542	0.0180528
890.620	0.0179647
890.698	0.0180341
890.776	0.0180385
890.854	0.0179588
890.933	0.0179684
891.011	0.0181294
891.089	0.0181181
891.167	0.0182092
891.245	0.0180488
891.323	0.0180841
891.401	0.0180082
891.479	0.0180572
891.558	0.0180154
891.636	0.0179771
891.714	0.0179871
891.792	0.0178450
891.870	0.0178407
891.948	0.0179163
892.026	0.0177795
892.104	0.0177813
892.183	0.0178477
892.261	0.0177833
892.339	0.0177397
892.417	0.0176903
892.495	0.0178396
892.573	0.0178868
892.651	0.0178988
892.729	0.0179976
892.808	0.0178919
892.886	0.0179104
892.964	0.0179760
893.042	0.0181142
893.120	0.0180208
893.198	0.0178997
893.276	0.0179156
893.354	0.0180637
893.433	0.0181787
893.511	0.0179285
893.589	0.0181248
893.667	0.0181665
893.745	0.0180232
893.823	0.0180850
893.901	0.0180888
893.979	0.0181116
894.058	0.0181915
894.136	0.0180886
894.214	0.0181638
894.292	0.0180345
894.370	0.0179913
894.448	0.0179825
894.526	0.0178375
894.604	0.0179925
894.683	0.0180087
894.761	0.0178237
894.839	0.0176674
894.917	0.0178194
894.995	0.0178183
895.073	0.0179369
895.151	0.0178160
895.229	0.0177724
895.308	0.0179842
895.386	0.0177998
895.464	0.0180650
895.542	0.0179020
895.620	0.0178541
895.698	0.0178723
895.776	0.0179438
895.854	0.0177453
895.933	0.0178207
896.011	0.0178394
896.089	0.0180027
896.167	0.0180870
896.245	0.0181032
896.323	0.0179629
896.401	0.0180006
896.479	0.0180930
896.558	0.0181342
896.636	0.0180264
896.714	0.0180692
896.792	0.0180494
896.870	0.0180408
896.948	0.0181113
897.026	0.0180982
897.104	0.0180963
897.183	0.0180824
897.261	0.0180659
897.339	0.0178463
897.417	0.0178863
897.495	0.0179734
897.573	0.0178442
897.651	0.0177849
897.729	0.0177578
897.808	0.0178333
897.886	0.0177457
897.964	0.0177032
898.042	0.0177873
898.120	0.0178464
898.198	0.0178493
898.276	0.0178581
898.354	0.0176771
898.433	0.0177113
898.511	0.0178382
898.589	0.0179757
898.667	0.0177676
898.745	0.0177836
898.823	0.0179904
898.901	0.0179636
898.979	0.0179732
899.058	0.0179888
899.136	0.0179354
899.214	0.0179957
899.292	0.0179859
899.370	0.0179677
899.448	0.0180943
899.526	0.0180405
899.604	0.0179258
899.683	0.0180009
899.761	0.0180564
899.839	0.0179551
899.917	0.0180711
899.995	0.0181648
900.073	0.0179121
900.151	0.0177622
900.229	0.0177821
900.308	0.0177910
900.386	0.0178684
900.464	0.0178345
900.542	0.0177473
900.620	0.0177254
900.698	0.0178195
900.776	0.0178119
900.854	0.0178004
900.933	0.0176908
901.011	0.0178378
901.089	0.0177236
901.167	0.0178242
901.245	0.0178852
901.323	0.0179499
901.401	0.0179406
901.479	0.0178986
901.558	0.0179784
901.636	0.0179459
901.714	0.0178925
901.792	0.0180224
901.870	0.0180149
901.948	0.0179805
902.026	0.0180127
902.104	0.0180398
902.183	0.0180446
902.261	0.0180309
902.339	0.0179023
902.417	0.0179452
902.495	0.0179050
902.573	0.0178745
902.651	0.0178727
902.729	0.0179765
902.808	0.0179478
902.886	0.0179090
902.964	0.0179518
903.042	0.0179751
903.120	0.0178941
903.198	0.0179252
903.276	0.0180285
903.354	0.0179633
903.433	0.0179340
903.511	0.0180040
903.589	0.0178226
903.667	0.0179664
903.745	0.0179774
903.823	0.0178156
903.901	0.0178818
903.979	0.0179588
904.058	0.0179736
904.136	0.0179546
904.214	0.0179125
904.292	0.0179092
904.370	0.0177856
904.448	0.0177950
904.526	0.0178606
904.604	0.0179378
904.683	0.0180334
904.761	0.0178437
904.839	0.0178222
904.917	0.0179565
904.995	0.0178463
905.073	0.0178467
905.151	0.0177727
905.229	0.0177901
905.308	0.0179887
905.386	0.0180425
905.464	0.0179087
905.542	0.0177917
905.620	0.0179086
905.698	0.0179220
905.776	0.0179493
905.854	0.0179752
905.933	0.0180676
906.011	0.0180016
906.089	0.0178933
906.167	0.0181080
906.245	0.0180027
906.323	0.0179247
906.401	0.0180621
906.479	0.0179137
906.558	0.0179929
906.636	0.0180154
906.714	0.0179539
906.792	0.0179481
906.870	0.0180321
906.948	0.0180177
907.026	0.0178796
907.104	0.0178328
907.183	0.0179149
907.261	0.0179618
907.339	0.0178217
907.417	0.0177969
907.495	0.0179375
907.573	0.0179697
907.651	0.0177854
907.729	0.0179217
907.808	0.0179359
907.886	0.0179914
907.964	0.0178121
908.042	0.0179425
908.120	0.0180409
908.198	0.0180508
908.276	0.0181044
908.354	0.0180173
908.433	0.0179512
908.511	0.0180455
908.589	0.0180161
908.667	0.0180956
908.745	0.0180603
908.823	0.0178411
908.901	0.0181172
908.979	0.0181035
909.058	0.0180390
909.136	0.0179058
909.214	0.0179204
909.292	0.0180020
909.370	0.0178730
909.448	0.0178190
909.526	0.0179287
909.604	0.0179607
909.683	0.0178586
909.761	0.0179506
909.839	0.0178162
909.917	0.0178426
909.995	0.0177917
910.073	0.0179012
910.151	0.0179465
910.229	0.0178041
910.308	0.0178657
910.386	0.0177801
910.464	0.0177859
910.542	0.0180283
910.620	0.0179488
910.698	0.0179057
910.776	0.0178741
910.854	0.0178333
910.933	0.0179755
911.011	0.0179043
911.089	0.0179115
911.167	0.0178491
911.245	0.0178749
911.323	0.0179485
911.401	0.0180389
911.479	0.0179712
911.558	0.0178626
911.636	0.0179685
911.714	0.0180105
911.792	0.0179301
911.870	0.0179247
911.948	0.0179552
912.026	0.0180072
912.104	0.0180614
912.183	0.0181131
912.261	0.0179722
912.339	0.0180309
912.417	0.0178738
912.495	0.0180283
912.573	0.0181498
912.651	0.0179092
912.729	0.0178989
912.808	0.0179289
912.886	0.0179233
912.964	0.0180230
913.042	0.0178725
913.120	0.0181877
913.198	0.0180606
913.276	0.0178564
913.354	0.0179583
913.433	0.0179062
913.511	0.0179788
913.589	0.0179607
913.667	0.0180138
913.745	0.0177989
913.823	0.0177843
913.901	0.0178671
913.979	0.0179058
914.058	0.0179140
914.136	0.0178156
914.214	0.0178759
914.292	0.0179329
914.370	0.0177240
914.448	0.0178844
914.526	0.0178398
914.604	0.0178462
914.683	0.0178156
914.761	0.0178107
914.839	0.0178266
914.917	0.0178356
914.995	0.0178458
915.073	0.0178794
915.151	0.0178346
915.229	0.0177795
915.308	0.0179497
915.386	0.0179869
915.464	0.0177734
915.542	0.0177996
915.620	0.0179939
915.698	0.0179768
915.776	0.0177467
915.854	0.0179051
915.933	0.0179289
916.011	0.0180243
916.089	0.0179543
916.167	0.0179860
916.245	0.0179230
916.323	0.0179269
916.401	0.0179882
916.479	0.0180513
916.558	0.0180183
916.636	0.0178542
916.714	0.0179729
916.792	0.0180851
916.870	0.0181214
916.948	0.0180904
917.026	0.0180145
917.104	0.0181520
917.183	0.0180456
917.261	0.0181377
917.339	0.0181631
917.417	0.0180685
917.495	0.0180065
917.573	0.0179380
917.651	0.0179528
917.729	0.0180720
917.808	0.0180201
917.886	0.0180411
917.964	0.0181075
918.042	0.0179537
918.120	0.0180132
918.198	0.0180333
918.276	0.0179082
918.354	0.0180090
918.433	0.0180303
918.511	0.0179800
918.589	0.0178764
918.667	0.0179356
918.745	0.0180050
918.823	0.0179153
918.901	0.0179517
918.979	0.0179643
919.058	0.0179631
919.136	0.0179084
919.214	0.0179495
919.292	0.0179675
919.370	0.0178555
919.448	0.0178806
919.526	0.0179683
919.604	0.0179742
919.683	0.0179456
919.761	0.0178893
919.839	0.0180968
919.917	0.0179811
