06/03/2022	18:33:04	Ver.	4.1	UNKNOWN
Optical Delay	550.027179	Delta X		0.078125	Sweeps	1	Scan Rate	0/0
Coordinates	Axis 1	NaN	Axis 2	NaN	Axis 3	NaN	Axis 4	NaN	Axis 5	NaN	Axis 6	0.000000
TX Power	0.000000	RX Power	0.000000

550.027	0.0178134
550.105	0.0176929
550.183	0.0178854
550.262	0.0178767
550.340	0.0179279
550.418	0.0178898
550.496	0.0176785
550.574	0.0177628
550.652	0.0179632
550.730	0.0179611
550.808	0.0179548
550.887	0.0178004
550.965	0.0178606
551.043	0.0179431
551.121	0.0177444
551.199	0.0179461
551.277	0.0178899
551.355	0.0179434
551.433	0.0179402
551.512	0.0179897
551.590	0.0180075
551.668	0.0177994
551.746	0.0178994
551.824	0.0180319
551.902	0.0178418
551.980	0.0179152
552.058	0.0178642
552.137	0.0179105
552.215	0.0178251
552.293	0.0179369
552.371	0.0179999
552.449	0.0179136
552.527	0.0179724
552.605	0.0178712
552.683	0.0179595
552.762	0.0178506
552.840	0.0177704
552.918	0.0180412
552.996	0.0178603
553.074	0.0178701
553.152	0.0179540
553.230	0.0179285
553.308	0.0179346
553.387	0.0178938
553.465	0.0178567
553.543	0.0178777
553.621	0.0178527
553.699	0.0179113
553.777	0.0179082
553.855	0.0177321
553.933	0.0178146
554.012	0.0178185
554.090	0.0178709
554.168	0.0178382
554.246	0.0178195
554.324	0.0178833
554.402	0.0178477
554.480	0.0178453
554.558	0.0178407
554.637	0.0177760
554.715	0.0177835
554.793	0.0180009
554.871	0.0179388
554.949	0.0178658
555.027	0.0179182
555.105	0.0176617
555.183	0.0178342
555.262	0.0178027
555.340	0.0178763
555.418	0.0177391
555.496	0.0177944
555.574	0.0178208
555.652	0.0179237
555.730	0.0177853
555.808	0.0178967
555.887	0.0178185
555.965	0.0177569
556.043	0.0177943
556.121	0.0177673
556.199	0.0177525
556.277	0.0179727
556.355	0.0178452
556.433	0.0177466
556.512	0.0176366
556.590	0.0178126
556.668	0.0178699
556.746	0.0178822
556.824	0.0178609
556.902	0.0178392
556.980	0.0178390
557.058	0.0177319
557.137	0.0178112
557.215	0.0179005
557.293	0.0177830
557.371	0.0178783
557.449	0.0178643
557.527	0.0178274
557.605	0.0176950
557.683	0.0177005
557.762	0.0177956
557.840	0.0177503
557.918	0.0177937
557.996	0.0177794
558.074	0.0178270
558.152	0.0178360
558.230	0.0176734
558.308	0.0176801
558.387	0.0177663
558.465	0.0179067
558.543	0.0177911
558.621	0.0178492
558.699	0.0177391
558.777	0.0177888
558.855	0.0178555
558.933	0.0176800
559.012	0.0177554
559.090	0.0179102
559.168	0.0177125
559.246	0.0177840
559.324	0.0178432
559.402	0.0177164
559.480	0.0178403
559.558	0.0178210
559.637	0.0177885
559.715	0.0179079
559.793	0.0179010
559.871	0.0178593
559.949	0.0177217
560.027	0.0178371
560.105	0.0176774
560.183	0.0177689
560.262	0.0179472
560.340	0.0177807
560.418	0.0178199
560.496	0.0179307
560.574	0.0178493
560.652	0.0177914
560.730	0.0178073
560.808	0.0177703
560.887	0.0178680
560.965	0.0178947
561.043	0.0179267
561.121	0.0177612
561.199	0.0177954
561.277	0.0178220
561.355	0.0177556
561.433	0.0176705
561.512	0.0177110
561.590	0.0177274
561.668	0.0177958
561.746	0.0177122
561.824	0.0178600
561.902	0.0176304
561.980	0.0177578
562.058	0.0177480
562.137	0.0176721
562.215	0.0177037
562.293	0.0178078
562.371	0.0178118
562.449	0.0176855
562.527	0.0178187
562.605	0.0177510
562.683	0.0176598
562.762	0.0177108
562.840	0.0176776
562.918	0.0177866
562.996	0.0179424
563.074	0.0177740
563.152	0.0176638
563.230	0.0177349
563.308	0.0177704
563.387	0.0177011
563.465	0.0176698
563.543	0.0177750
563.621	0.0177683
563.699	0.0178053
563.777	0.0177676
563.855	0.0178349
563.933	0.0178292
564.012	0.0177741
564.090	0.0177551
564.168	0.0177617
564.246	0.0177206
564.324	0.0177010
564.402	0.0178261
564.480	0.0177873
564.558	0.0177458
564.637	0.0177924
564.715	0.0178118
564.793	0.0176055
564.871	0.0177156
564.949	0.0177412
565.027	0.0177709
565.105	0.0177064
565.183	0.0176562
565.262	0.0178019
565.340	0.0178055
565.418	0.0176492
565.496	0.0176834
565.574	0.0178111
565.652	0.0177515
565.730	0.0175397
565.808	0.0177054
565.887	0.0177821
565.965	0.0176508
566.043	0.0175722
566.121	0.0177641
566.199	0.0177476
566.277	0.0177358
566.355	0.0178186
566.433	0.0177666
566.512	0.0176805
566.590	0.0176424
566.668	0.0176807
566.746	0.0176947
566.824	0.0177390
566.902	0.0177695
566.980	0.0177146
567.058	0.0178210
567.137	0.0176533
567.215	0.0176826
567.293	0.0177080
567.371	0.0177556
567.449	0.0177055
567.527	0.0176588
567.605	0.0176293
567.683	0.0176649
567.762	0.0177383
567.840	0.0176659
567.918	0.0176736
567.996	0.0175954
568.074	0.0176815
568.152	0.0176989
568.230	0.0175524
568.308	0.0175369
568.387	0.0176727
568.465	0.0178217
568.543	0.0176910
568.621	0.0178113
568.699	0.0177332
568.777	0.0176112
568.855	0.0178029
568.933	0.0175588
569.012	0.0177665
569.090	0.0176819
569.168	0.0176656
569.246	0.0175629
569.324	0.0176947
569.402	0.0176853
569.480	0.0174982
569.558	0.0175125
569.637	0.0175585
569.715	0.0177938
569.793	0.0175058
569.871	0.0175814
569.949	0.0178181
570.027	0.0176348
570.105	0.0175583
570.183	0.0176550
570.262	0.0176624
570.340	0.0176495
570.418	0.0178529
570.496	0.0178718
570.574	0.0177940
570.652	0.0176459
570.730	0.0176334
570.808	0.0177016
570.887	0.0178771
570.965	0.0177091
571.043	0.0176427
571.121	0.0176239
571.199	0.0177671
571.277	0.0177512
571.355	0.0177353
571.433	0.0177637
571.512	0.0177796
571.590	0.0177662
571.668	0.0177599
571.746	0.0177876
571.824	0.0178328
571.902	0.0178171
571.980	0.0176301
572.058	0.0177196
572.137	0.0179409
572.215	0.0177859
572.293	0.0176931
572.371	0.0177156
572.449	0.0178539
572.527	0.0179233
572.605	0.0179446
572.683	0.0178906
572.762	0.0178150
572.840	0.0178614
572.918	0.0179373
572.996	0.0177428
573.074	0.0179095
573.152	0.0178022
573.230	0.0178726
573.308	0.0180649
573.387	0.0178581
573.465	0.0179165
573.543	0.0178844
573.621	0.0180343
573.699	0.0180273
573.777	0.0180952
573.855	0.0180692
573.933	0.0179765
574.012	0.0181021
574.090	0.0180868
574.168	0.0180190
574.246	0.0180744
574.324	0.0180430
574.402	0.0179911
574.480	0.0180384
574.558	0.0181684
574.637	0.0180048
574.715	0.0179981
574.793	0.0180072
574.871	0.0179775
574.949	0.0179515
575.027	0.0179191
575.105	0.0180622
575.183	0.0179643
575.262	0.0179556
575.340	0.0177817
575.418	0.0178625
575.496	0.0179484
575.574	0.0178056
575.652	0.0178616
575.730	0.0178581
575.808	0.0179253
575.887	0.0179026
575.965	0.0177906
576.043	0.0177175
576.121	0.0179862
576.199	0.0178388
576.277	0.0178480
576.355	0.0178828
576.433	0.0177593
576.512	0.0178336
576.590	0.0177395
576.668	0.0178238
576.746	0.0178458
576.824	0.0177495
576.902	0.0178897
576.980	0.0176795
577.058	0.0177954
577.137	0.0178600
577.215	0.0179117
577.293	0.0178055
577.371	0.0176763
577.449	0.0177739
577.527	0.0178430
577.605	0.0178086
577.683	0.0179633
577.762	0.0177834
577.840	0.0180231
577.918	0.0179054
577.996	0.0177847
578.074	0.0178452
578.152	0.0178299
578.230	0.0178688
578.308	0.0178378
578.387	0.0177747
578.465	0.0178095
578.543	0.0178624
578.621	0.0177261
578.699	0.0177808
578.777	0.0178428
578.855	0.0178619
578.933	0.0177911
579.012	0.0177808
579.090	0.0177422
579.168	0.0177900
579.246	0.0178217
579.324	0.0179202
579.402	0.0178354
579.480	0.0177875
579.558	0.0177483
579.637	0.0177103
579.715	0.0176905
579.793	0.0177548
579.871	0.0177728
579.949	0.0177291
580.027	0.0178673
580.105	0.0178525
580.183	0.0177620
580.262	0.0176622
580.340	0.0177638
580.418	0.0177837
580.496	0.0177267
580.574	0.0178322
580.652	0.0178159
580.730	0.0177585
580.808	0.0178426
580.887	0.0178619
580.965	0.0178378
581.043	0.0178043
581.121	0.0177194
581.199	0.0177309
581.277	0.0179591
581.355	0.0178484
581.433	0.0177395
581.512	0.0178736
581.590	0.0178078
581.668	0.0179349
581.746	0.0178002
581.824	0.0177560
581.902	0.0177556
581.980	0.0179029
582.058	0.0178082
582.137	0.0178719
582.215	0.0179160
582.293	0.0178271
582.371	0.0178261
582.449	0.0177883
582.527	0.0177000
582.605	0.0179200
582.683	0.0178957
582.762	0.0179183
582.840	0.0178028
582.918	0.0178379
582.996	0.0179330
583.074	0.0178693
583.152	0.0179248
583.230	0.0179472
583.308	0.0180016
583.387	0.0180750
583.465	0.0177515
583.543	0.0178970
583.621	0.0178065
583.699	0.0179440
583.777	0.0179818
583.855	0.0179707
583.933	0.0178358
584.012	0.0181464
584.090	0.0180167
584.168	0.0179450
584.246	0.0179163
584.324	0.0178712
584.402	0.0179114
584.480	0.0179247
584.558	0.0179691
584.637	0.0178995
584.715	0.0179402
584.793	0.0178844
584.871	0.0178858
584.949	0.0178893
585.027	0.0179811
585.105	0.0179256
585.183	0.0178814
585.262	0.0178190
585.340	0.0179691
585.418	0.0179684
585.496	0.0177657
585.574	0.0178307
585.652	0.0179171
585.730	0.0179095
585.808	0.0178605
585.887	0.0180080
585.965	0.0178422
586.043	0.0177600
586.121	0.0177984
586.199	0.0177967
586.277	0.0179010
586.355	0.0178132
586.433	0.0180254
586.512	0.0178909
586.590	0.0178219
586.668	0.0178649
586.746	0.0179220
586.824	0.0177913
586.902	0.0177360
586.980	0.0177815
587.058	0.0178628
587.137	0.0177297
587.215	0.0176902
587.293	0.0177004
587.371	0.0177560
587.449	0.0178130
587.527	0.0177457
587.605	0.0178131
587.683	0.0177202
587.762	0.0176491
587.840	0.0177100
587.918	0.0177235
587.996	0.0177242
588.074	0.0178143
588.152	0.0176961
588.230	0.0177258
588.308	0.0176536
588.387	0.0176884
588.465	0.0178307
588.543	0.0177283
588.621	0.0177728
588.699	0.0177665
588.777	0.0177148
588.855	0.0176859
588.933	0.0175890
589.012	0.0177953
589.090	0.0179311
589.168	0.0177493
589.246	0.0177879
589.324	0.0178204
589.402	0.0177418
589.480	0.0177951
589.558	0.0176080
589.637	0.0177010
589.715	0.0179211
589.793	0.0178157
589.871	0.0177130
589.949	0.0177814
590.027	0.0178802
590.105	0.0178017
590.183	0.0178058
590.262	0.0178770
590.340	0.0177651
590.418	0.0177036
590.496	0.0177744
590.574	0.0178338
590.652	0.0176528
590.730	0.0177081
590.808	0.0178352
590.887	0.0179063
590.965	0.0178173
591.043	0.0177345
591.121	0.0177493
591.199	0.0178853
591.277	0.0178236
591.355	0.0178120
591.433	0.0180466
591.512	0.0178744
591.590	0.0179250
591.668	0.0179519
591.746	0.0178754
591.824	0.0178674
591.902	0.0178812
591.980	0.0178693
592.058	0.0178112
592.137	0.0179101
592.215	0.0180811
592.293	0.0179776
592.371	0.0179781
592.449	0.0179221
592.527	0.0179174
592.605	0.0177735
592.683	0.0179713
592.762	0.0178965
592.840	0.0179224
592.918	0.0179700
592.996	0.0178030
593.074	0.0179153
593.152	0.0179335
593.230	0.0178100
593.308	0.0178888
593.387	0.0180275
593.465	0.0180199
593.543	0.0179579
593.621	0.0178681
593.699	0.0177081
593.777	0.0179891
593.855	0.0178901
593.933	0.0181018
594.012	0.0178582
594.090	0.0179787
594.168	0.0179376
594.246	0.0178226
594.324	0.0179037
594.402	0.0178773
594.480	0.0177950
594.558	0.0178587
594.637	0.0178947
594.715	0.0179485
594.793	0.0178194
594.871	0.0178129
594.949	0.0178059
595.027	0.0179654
595.105	0.0178205
595.183	0.0177598
595.262	0.0178445
595.340	0.0178136
595.418	0.0177489
595.496	0.0178026
595.574	0.0179784
595.652	0.0179321
595.730	0.0177539
595.808	0.0177819
595.887	0.0177637
595.965	0.0178802
596.043	0.0177296
596.121	0.0178852
596.199	0.0177496
596.277	0.0179049
596.355	0.0177921
596.433	0.0177897
596.512	0.0177215
596.590	0.0177509
596.668	0.0177773
596.746	0.0177289
596.824	0.0178123
596.902	0.0178334
596.980	0.0177824
597.058	0.0176790
597.137	0.0177750
597.215	0.0177826
597.293	0.0175658
597.371	0.0176127
597.449	0.0177774
597.527	0.0178644
597.605	0.0177206
597.683	0.0178353
597.762	0.0179113
597.840	0.0176786
597.918	0.0178152
597.996	0.0178351
598.074	0.0177805
598.152	0.0177637
598.230	0.0178542
598.308	0.0178583
598.387	0.0179499
598.465	0.0176796
598.543	0.0176476
598.621	0.0178105
598.699	0.0178622
598.777	0.0178256
598.855	0.0178577
598.933	0.0176990
599.012	0.0177454
599.090	0.0178164
599.168	0.0177748
599.246	0.0177928
599.324	0.0177707
599.402	0.0177729
599.480	0.0178320
599.558	0.0178419
599.637	0.0178316
599.715	0.0179034
599.793	0.0178688
599.871	0.0178235
599.949	0.0177354
600.027	0.0177269
600.105	0.0178463
600.183	0.0177923
600.262	0.0178519
600.340	0.0177629
600.418	0.0178949
600.496	0.0179168
600.574	0.0179527
600.652	0.0179140
600.730	0.0178484
600.808	0.0179572
600.887	0.0178904
600.965	0.0178757
601.043	0.0178481
601.121	0.0178265
601.199	0.0179388
601.277	0.0180501
601.355	0.0179215
601.433	0.0178732
601.512	0.0178888
601.590	0.0179400
601.668	0.0179460
601.746	0.0178625
601.824	0.0179267
601.902	0.0178761
601.980	0.0179469
602.058	0.0179140
602.137	0.0180689
602.215	0.0178968
602.293	0.0179076
602.371	0.0179062
602.449	0.0179718
602.527	0.0180195
602.605	0.0178906
602.683	0.0179307
602.762	0.0178784
602.840	0.0179516
602.918	0.0178558
602.996	0.0179961
603.074	0.0180334
603.152	0.0179338
603.230	0.0180017
603.308	0.0178088
603.387	0.0179327
603.465	0.0179050
603.543	0.0179637
603.621	0.0180360
603.699	0.0179319
603.777	0.0179973
603.855	0.0180323
603.933	0.0179176
604.012	0.0177583
604.090	0.0180215
604.168	0.0180353
604.246	0.0180170
604.324	0.0180699
604.402	0.0179189
604.480	0.0178897
604.558	0.0180280
604.637	0.0179948
604.715	0.0178818
604.793	0.0178518
604.871	0.0178773
604.949	0.0179380
605.027	0.0180832
605.105	0.0178326
605.183	0.0179343
605.262	0.0180110
605.340	0.0179642
605.418	0.0178883
605.496	0.0179163
605.574	0.0179408
605.652	0.0178561
605.730	0.0179249
605.808	0.0179178
605.887	0.0178776
605.965	0.0178368
606.043	0.0178850
606.121	0.0179224
606.199	0.0177626
606.277	0.0179503
606.355	0.0177795
606.433	0.0178059
606.512	0.0179679
606.590	0.0179549
606.668	0.0179910
606.746	0.0178922
606.824	0.0178724
606.902	0.0178963
606.980	0.0177742
607.058	0.0177941
607.137	0.0179478
607.215	0.0179106
607.293	0.0179134
607.371	0.0179461
607.449	0.0178825
607.527	0.0178530
607.605	0.0177462
607.683	0.0178843
607.762	0.0178397
607.840	0.0179092
607.918	0.0179408
607.996	0.0177346
608.074	0.0178393
608.152	0.0177480
608.230	0.0177410
608.308	0.0177966
608.387	0.0178381
608.465	0.0177879
608.543	0.0179753
608.621	0.0179630
608.699	0.0177706
608.777	0.0178057
608.855	0.0178712
608.933	0.0177715
609.012	0.0177918
609.090	0.0177809
609.168	0.0177679
609.246	0.0177785
609.324	0.0177261
609.402	0.0177151
609.480	0.0178017
609.558	0.0177712
609.637	0.0178668
609.715	0.0178497
609.793	0.0177868
609.871	0.0176788
609.949	0.0178143
610.027	0.0179682
610.105	0.0178411
610.183	0.0176458
610.262	0.0178053
610.340	0.0178836
610.418	0.0179758
610.496	0.0178397
610.574	0.0177829
610.652	0.0178217
610.730	0.0178488
610.808	0.0177594
610.887	0.0178622
610.965	0.0178517
611.043	0.0177277
611.121	0.0177356
611.199	0.0178725
611.277	0.0178074
611.355	0.0177895
611.433	0.0179081
611.512	0.0178300
611.590	0.0178658
611.668	0.0177864
611.746	0.0177991
611.824	0.0178366
611.902	0.0177446
611.980	0.0178216
612.058	0.0177856
612.137	0.0178103
612.215	0.0178754
612.293	0.0179021
612.371	0.0178127
612.449	0.0178365
612.527	0.0178799
612.605	0.0180260
612.683	0.0178476
612.762	0.0178449
612.840	0.0178244
612.918	0.0178973
612.996	0.0178020
613.074	0.0177523
613.152	0.0178362
613.230	0.0178349
613.308	0.0177481
613.387	0.0178062
613.465	0.0178663
613.543	0.0178875
613.621	0.0177264
613.699	0.0179833
613.777	0.0177959
613.855	0.0177663
613.933	0.0178939
614.012	0.0178653
614.090	0.0177494
614.168	0.0177581
614.246	0.0177960
614.324	0.0178548
614.402	0.0177256
614.480	0.0178120
614.558	0.0177779
614.637	0.0178985
614.715	0.0178959
614.793	0.0178968
614.871	0.0177559
614.949	0.0177209
615.027	0.0178244
615.105	0.0178960
615.183	0.0178069
615.262	0.0177458
615.340	0.0178648
615.418	0.0176816
615.496	0.0179285
615.574	0.0178164
615.652	0.0179485
615.730	0.0177844
615.808	0.0176937
615.887	0.0177765
615.965	0.0176833
616.043	0.0178537
616.121	0.0178679
616.199	0.0177519
616.277	0.0177523
616.355	0.0178152
616.433	0.0176859
616.512	0.0177897
616.590	0.0178230
616.668	0.0177542
616.746	0.0177109
616.824	0.0177101
616.902	0.0177065
616.980	0.0175455
617.058	0.0176909
617.137	0.0178255
617.215	0.0177834
617.293	0.0176940
617.371	0.0178069
617.449	0.0177852
617.527	0.0177618
617.605	0.0177974
617.683	0.0177271
617.762	0.0177893
617.840	0.0177419
617.918	0.0177760
617.996	0.0177605
618.074	0.0176544
618.152	0.0177455
618.230	0.0177003
618.308	0.0176555
618.387	0.0175581
618.465	0.0178029
618.543	0.0177550
618.621	0.0177226
618.699	0.0178496
618.777	0.0177427
618.855	0.0176228
618.933	0.0178204
619.012	0.0177675
619.090	0.0176059
619.168	0.0176697
619.246	0.0177415
619.324	0.0177845
619.402	0.0178680
619.480	0.0177700
619.558	0.0176336
619.637	0.0179113
619.715	0.0177943
619.793	0.0177774
619.871	0.0177588
619.949	0.0177801
620.027	0.0176161
620.105	0.0177784
620.183	0.0177155
620.262	0.0177580
620.340	0.0176688
620.418	0.0177941
620.496	0.0177522
620.574	0.0177962
620.652	0.0177610
620.730	0.0176538
620.808	0.0177556
620.887	0.0177363
620.965	0.0176701
621.043	0.0177957
621.121	0.0175816
621.199	0.0177199
621.277	0.0177672
621.355	0.0176436
621.433	0.0177114
621.512	0.0177599
621.590	0.0177949
621.668	0.0177518
621.746	0.0177894
621.824	0.0179626
621.902	0.0178841
621.980	0.0178104
622.058	0.0179418
622.137	0.0177440
622.215	0.0176835
622.293	0.0177618
622.371	0.0179274
622.449	0.0177975
622.527	0.0177541
622.605	0.0177570
622.683	0.0179214
622.762	0.0180103
622.840	0.0177103
622.918	0.0177550
622.996	0.0177761
623.074	0.0176823
623.152	0.0178688
623.230	0.0178543
623.308	0.0176781
623.387	0.0176910
623.465	0.0178220
623.543	0.0178146
623.621	0.0176713
623.699	0.0177805
623.777	0.0179150
623.855	0.0177199
623.933	0.0176727
624.012	0.0176484
624.090	0.0178518
624.168	0.0177645
624.246	0.0178880
624.324	0.0177787
624.402	0.0177422
624.480	0.0178704
624.558	0.0177626
624.637	0.0178489
624.715	0.0179491
624.793	0.0177111
624.871	0.0177754
624.949	0.0177018
625.027	0.0177649
625.105	0.0176821
625.183	0.0178244
625.262	0.0177680
625.340	0.0176687
625.418	0.0177164
625.496	0.0178319
625.574	0.0178742
625.652	0.0177749
625.730	0.0178734
625.808	0.0177901
625.887	0.0176920
625.965	0.0177046
626.043	0.0179333
626.121	0.0178176
626.199	0.0176276
626.277	0.0176086
626.355	0.0178129
626.433	0.0178377
626.512	0.0176960
626.590	0.0177424
626.668	0.0177480
626.746	0.0178340
626.824	0.0179119
626.902	0.0179402
626.980	0.0178001
627.058	0.0176208
627.137	0.0178565
627.215	0.0178207
627.293	0.0177837
627.371	0.0177386
627.449	0.0178260
627.527	0.0177654
627.605	0.0179419
627.683	0.0176762
627.762	0.0177953
627.840	0.0179076
627.918	0.0177556
627.996	0.0177551
628.074	0.0178918
628.152	0.0179873
628.230	0.0177544
628.308	0.0177937
628.387	0.0177903
628.465	0.0179105
628.543	0.0178210
628.621	0.0179015
628.699	0.0178532
628.777	0.0177936
628.855	0.0178076
628.933	0.0178413
629.012	0.0178860
629.090	0.0177554
629.168	0.0176938
629.246	0.0177448
629.324	0.0178914
629.402	0.0178433
629.480	0.0177394
629.558	0.0177852
629.637	0.0178237
629.715	0.0178108
629.793	0.0178217
629.871	0.0177863
629.949	0.0177850
630.027	0.0178236
630.105	0.0177191
630.183	0.0177977
630.262	0.0177215
630.340	0.0178431
630.418	0.0178105
630.496	0.0177397
630.574	0.0178380
630.652	0.0177475
630.730	0.0177351
630.808	0.0177895
630.887	0.0178260
630.965	0.0178281
631.043	0.0178481
631.121	0.0178307
631.199	0.0177083
631.277	0.0177057
631.355	0.0179327
631.433	0.0178407
631.512	0.0177800
631.590	0.0177183
631.668	0.0178659
631.746	0.0177833
631.824	0.0177260
631.902	0.0175951
631.980	0.0178368
632.058	0.0178233
632.137	0.0178139
632.215	0.0177821
632.293	0.0178758
632.371	0.0179078
632.449	0.0179274
632.527	0.0176849
632.605	0.0177370
632.683	0.0178247
632.762	0.0176564
632.840	0.0176656
632.918	0.0177670
632.996	0.0176912
633.074	0.0177952
633.152	0.0177502
633.230	0.0177392
633.308	0.0177184
633.387	0.0177876
633.465	0.0178206
633.543	0.0177957
633.621	0.0176493
633.699	0.0178057
633.777	0.0178156
633.855	0.0177760
633.933	0.0176488
634.012	0.0176726
634.090	0.0177220
634.168	0.0178430
634.246	0.0177178
634.324	0.0178078
634.402	0.0177449
634.480	0.0177454
634.558	0.0177846
634.637	0.0179069
634.715	0.0178011
634.793	0.0176131
634.871	0.0178055
634.949	0.0177956
635.027	0.0176421
635.105	0.0177327
635.183	0.0178332
635.262	0.0177216
635.340	0.0177609
635.418	0.0178422
635.496	0.0176514
635.574	0.0177331
635.652	0.0178658
635.730	0.0177342
635.808	0.0176080
635.887	0.0177763
635.965	0.0177882
636.043	0.0177123
636.121	0.0176257
636.199	0.0176791
636.277	0.0177151
636.355	0.0177024
636.433	0.0177407
636.512	0.0176245
636.590	0.0177473
636.668	0.0177988
636.746	0.0177839
636.824	0.0178532
636.902	0.0177502
636.980	0.0178500
637.058	0.0177446
637.137	0.0178889
637.215	0.0177438
637.293	0.0176475
637.371	0.0176833
637.449	0.0176729
637.527	0.0176711
637.605	0.0178104
637.683	0.0177184
637.762	0.0177938
637.840	0.0177125
637.918	0.0176762
637.996	0.0177223
638.074	0.0176737
638.152	0.0176582
638.230	0.0177529
638.308	0.0178562
638.387	0.0177768
638.465	0.0177534
638.543	0.0176826
638.621	0.0177834
638.699	0.0178522
638.777	0.0177832
638.855	0.0179087
638.933	0.0178361
639.012	0.0177542
639.090	0.0176891
639.168	0.0177258
639.246	0.0177232
639.324	0.0178089
639.402	0.0177888
639.480	0.0177490
639.558	0.0177972
639.637	0.0177815
639.715	0.0177000
639.793	0.0178043
639.871	0.0177143
639.949	0.0177715
640.027	0.0178119
640.105	0.0177308
640.183	0.0176924
640.262	0.0176350
640.340	0.0177642
640.418	0.0178178
640.496	0.0176598
640.574	0.0177644
640.652	0.0177917
640.730	0.0177837
640.808	0.0177861
640.887	0.0176714
640.965	0.0177702
641.043	0.0177718
641.121	0.0177486
641.199	0.0177381
641.277	0.0176991
641.355	0.0177544
641.433	0.0178751
641.512	0.0177596
641.590	0.0177476
641.668	0.0176717
641.746	0.0177852
641.824	0.0178265
641.902	0.0177627
641.980	0.0177540
642.058	0.0178741
642.137	0.0177639
642.215	0.0178506
642.293	0.0177628
642.371	0.0177284
642.449	0.0176533
642.527	0.0176718
642.605	0.0176404
642.683	0.0178088
642.762	0.0177598
642.840	0.0178416
642.918	0.0177334
642.996	0.0176678
643.074	0.0176310
643.152	0.0177582
643.230	0.0176525
643.308	0.0177048
643.387	0.0176343
643.465	0.0176134
643.543	0.0177380
643.621	0.0176225
643.699	0.0176402
643.777	0.0176801
643.855	0.0175425
643.933	0.0176768
644.012	0.0177120
644.090	0.0177337
644.168	0.0176755
644.246	0.0176092
644.324	0.0176439
644.402	0.0176701
644.480	0.0175674
644.558	0.0178970
644.637	0.0176760
644.715	0.0176681
644.793	0.0177287
644.871	0.0176637
644.949	0.0176409
645.027	0.0176812
645.105	0.0177506
645.183	0.0176306
645.262	0.0177888
645.340	0.0177616
645.418	0.0176900
645.496	0.0177322
645.574	0.0178107
645.652	0.0177188
645.730	0.0176509
645.808	0.0178322
645.887	0.0177333
645.965	0.0176519
646.043	0.0177447
646.121	0.0176299
646.199	0.0177470
646.277	0.0177357
646.355	0.0177251
646.433	0.0178006
646.512	0.0177618
646.590	0.0177606
646.668	0.0176604
646.746	0.0178487
646.824	0.0177879
646.902	0.0177986
646.980	0.0178337
647.058	0.0177536
647.137	0.0178358
647.215	0.0178124
647.293	0.0177939
647.371	0.0177676
647.449	0.0178326
647.527	0.0178023
647.605	0.0177483
647.683	0.0179653
647.762	0.0178091
647.840	0.0180123
647.918	0.0178960
647.996	0.0177936
648.074	0.0179102
648.152	0.0178755
648.230	0.0177960
648.308	0.0179221
648.387	0.0178410
648.465	0.0178107
648.543	0.0179281
648.621	0.0179369
648.699	0.0178686
648.777	0.0180505
648.855	0.0178847
648.933	0.0179176
649.012	0.0179154
649.090	0.0177537
649.168	0.0178703
649.246	0.0178275
649.324	0.0180203
649.402	0.0179837
649.480	0.0179512
649.558	0.0178421
649.637	0.0179871
649.715	0.0178565
649.793	0.0178841
649.871	0.0179625
649.949	0.0178574
650.027	0.0178407
650.105	0.0179926
650.183	0.0178700
650.262	0.0177777
650.340	0.0178109
650.418	0.0179539
650.496	0.0177989
650.574	0.0180011
650.652	0.0179968
650.730	0.0179630
650.808	0.0178291
650.887	0.0179575
650.965	0.0178906
651.043	0.0181460
651.121	0.0179782
651.199	0.0178975
651.277	0.0178591
651.355	0.0179366
651.433	0.0179800
651.512	0.0180202
651.590	0.0179350
651.668	0.0178569
651.746	0.0178281
651.824	0.0178543
651.902	0.0178996
651.980	0.0178828
652.058	0.0180209
652.137	0.0178350
652.215	0.0178557
652.293	0.0179464
652.371	0.0178571
652.449	0.0180013
652.527	0.0179825
652.605	0.0178396
652.683	0.0178970
652.762	0.0180062
652.840	0.0178836
652.918	0.0178184
652.996	0.0178573
653.074	0.0177943
653.152	0.0179359
653.230	0.0178851
653.308	0.0179663
653.387	0.0178349
653.465	0.0176717
653.543	0.0178936
653.621	0.0178326
653.699	0.0178291
653.777	0.0178258
653.855	0.0177973
653.933	0.0177915
654.012	0.0178861
654.090	0.0179112
654.168	0.0178429
654.246	0.0180368
654.324	0.0179205
654.402	0.0179003
654.480	0.0178500
654.558	0.0177295
654.637	0.0177640
654.715	0.0179100
654.793	0.0178291
654.871	0.0178138
654.949	0.0178705
655.027	0.0178349
655.105	0.0178931
655.183	0.0176720
655.262	0.0177061
655.340	0.0177627
655.418	0.0178522
655.496	0.0178003
655.574	0.0179124
655.652	0.0176231
655.730	0.0177148
655.808	0.0178303
655.887	0.0178922
655.965	0.0177281
656.043	0.0176266
656.121	0.0178739
656.199	0.0178465
656.277	0.0178915
656.355	0.0178045
656.433	0.0177815
656.512	0.0178706
656.590	0.0179092
656.668	0.0179543
656.746	0.0178885
656.824	0.0178149
656.902	0.0177400
656.980	0.0178503
657.058	0.0178869
657.137	0.0177439
657.215	0.0176941
657.293	0.0178831
657.371	0.0178198
657.449	0.0178413
657.527	0.0178522
657.605	0.0178344
657.683	0.0179478
657.762	0.0177876
657.840	0.0178976
657.918	0.0177810
657.996	0.0178723
658.074	0.0176968
658.152	0.0178484
658.230	0.0177598
658.308	0.0178276
658.387	0.0177735
658.465	0.0179681
658.543	0.0179036
658.621	0.0178820
658.699	0.0178726
658.777	0.0179389
658.855	0.0178780
658.933	0.0178895
659.012	0.0178979
659.090	0.0178911
659.168	0.0178345
659.246	0.0179343
659.324	0.0177678
659.402	0.0176488
659.480	0.0179407
659.558	0.0177950
659.637	0.0178433
659.715	0.0178401
659.793	0.0177523
659.871	0.0177892
659.949	0.0178573
660.027	0.0178118
660.105	0.0177568
660.183	0.0179630
660.262	0.0177980
660.340	0.0177383
660.418	0.0178381
660.496	0.0179326
660.574	0.0178779
660.652	0.0178571
660.730	0.0179292
660.808	0.0178983
660.887	0.0179469
660.965	0.0178758
661.043	0.0179314
661.121	0.0178485
661.199	0.0178419
661.277	0.0179847
661.355	0.0178439
661.433	0.0178120
661.512	0.0178798
661.590	0.0178305
661.668	0.0177824
661.746	0.0177615
661.824	0.0178357
661.902	0.0176865
661.980	0.0178805
662.058	0.0177553
662.137	0.0177784
662.215	0.0176015
662.293	0.0177486
662.371	0.0178657
662.449	0.0178122
662.527	0.0176413
662.605	0.0177635
662.683	0.0178362
662.762	0.0177660
662.840	0.0176228
662.918	0.0178379
662.996	0.0178254
663.074	0.0178020
663.152	0.0178244
663.230	0.0179070
663.308	0.0178252
663.387	0.0177278
663.465	0.0177766
663.543	0.0176736
663.621	0.0179269
663.699	0.0178722
663.777	0.0178368
663.855	0.0177862
663.933	0.0179435
664.012	0.0178169
664.090	0.0176988
664.168	0.0177563
664.246	0.0179367
664.324	0.0177577
664.402	0.0176591
664.480	0.0178662
664.558	0.0177435
664.637	0.0177825
664.715	0.0176971
664.793	0.0177711
664.871	0.0177966
664.949	0.0178136
665.027	0.0179533
665.105	0.0177989
665.183	0.0178665
665.262	0.0178889
665.340	0.0176498
665.418	0.0177562
665.496	0.0178883
665.574	0.0178681
665.652	0.0179667
665.730	0.0178220
665.808	0.0178209
665.887	0.0179039
665.965	0.0178421
666.043	0.0177710
666.121	0.0178525
666.199	0.0177025
666.277	0.0177416
666.355	0.0176681
666.433	0.0178886
666.512	0.0177124
666.590	0.0178262
666.668	0.0179422
666.746	0.0176507
666.824	0.0176592
666.902	0.0179153
666.980	0.0176570
667.058	0.0177328
667.137	0.0178306
667.215	0.0178528
667.293	0.0178717
667.371	0.0180118
667.449	0.0178304
667.527	0.0178915
667.605	0.0177774
667.683	0.0178707
667.762	0.0178036
667.840	0.0178355
667.918	0.0178127
667.996	0.0180395
668.074	0.0180233
668.152	0.0179640
668.230	0.0180835
668.308	0.0178869
668.387	0.0179508
668.465	0.0178994
668.543	0.0179028
668.621	0.0179997
668.699	0.0179468
668.777	0.0180077
668.855	0.0180055
668.933	0.0178840
669.012	0.0180075
669.090	0.0180473
669.168	0.0179061
669.246	0.0179395
669.324	0.0178669
669.402	0.0178440
669.480	0.0179156
669.558	0.0177910
669.637	0.0178364
669.715	0.0178296
669.793	0.0178481
669.871	0.0178903
669.949	0.0179266
670.027	0.0178359
670.105	0.0176667
670.183	0.0177994
670.262	0.0178808
670.340	0.0180288
670.418	0.0179021
670.496	0.0179802
670.574	0.0179773
670.652	0.0178744
670.730	0.0179808
670.808	0.0181282
670.887	0.0180735
670.965	0.0180629
671.043	0.0180278
671.121	0.0180336
671.199	0.0182008
671.277	0.0181429
671.355	0.0181404
671.433	0.0180587
671.512	0.0181126
671.590	0.0180924
671.668	0.0180874
671.746	0.0181650
671.824	0.0179655
671.902	0.0180594
671.980	0.0179881
672.058	0.0179012
672.137	0.0178923
672.215	0.0178758
672.293	0.0176799
672.371	0.0177369
672.449	0.0176963
672.527	0.0176245
672.605	0.0176897
672.683	0.0176190
672.762	0.0175282
672.840	0.0176039
672.918	0.0175610
672.996	0.0175800
673.074	0.0177734
673.152	0.0175974
673.230	0.0176464
673.308	0.0176031
673.387	0.0176186
673.465	0.0177566
673.543	0.0178408
673.621	0.0178580
673.699	0.0178395
673.777	0.0178162
673.855	0.0178840
673.933	0.0180119
674.012	0.0180132
674.090	0.0180527
674.168	0.0179845
674.246	0.0179417
674.324	0.0180474
674.402	0.0179845
674.480	0.0180273
674.558	0.0180935
674.637	0.0181400
674.715	0.0181139
674.793	0.0181205
674.871	0.0182556
674.949	0.0182104
675.027	0.0181803
675.105	0.0181017
675.183	0.0181171
675.262	0.0182296
675.340	0.0182515
675.418	0.0180881
675.496	0.0182323
675.574	0.0181330
675.652	0.0181310
675.730	0.0180522
675.808	0.0180928
675.887	0.0180405
675.965	0.0179810
676.043	0.0179699
676.121	0.0178741
676.199	0.0178815
676.277	0.0177888
676.355	0.0178432
676.433	0.0175807
676.512	0.0175134
676.590	0.0177357
676.668	0.0177268
676.746	0.0176833
676.824	0.0176739
676.902	0.0176440
676.980	0.0177164
677.058	0.0176453
677.137	0.0178091
677.215	0.0177570
677.293	0.0177446
677.371	0.0177706
677.449	0.0177380
677.527	0.0177978
677.605	0.0178061
677.683	0.0177235
677.762	0.0178346
677.840	0.0177833
677.918	0.0178563
677.996	0.0178690
678.074	0.0178609
678.152	0.0178288
678.230	0.0179922
678.308	0.0179034
678.387	0.0177859
678.465	0.0178410
678.543	0.0179262
678.621	0.0179128
678.699	0.0179785
678.777	0.0179448
678.855	0.0180336
678.933	0.0180127
679.012	0.0178633
679.090	0.0179252
679.168	0.0180894
679.246	0.0179887
679.324	0.0178826
679.402	0.0180355
679.480	0.0179775
679.558	0.0180725
679.637	0.0179663
679.715	0.0180840
679.793	0.0180957
679.871	0.0180614
679.949	0.0179243
680.027	0.0180126
680.105	0.0180520
680.183	0.0180763
680.262	0.0181558
680.340	0.0180072
680.418	0.0181435
680.496	0.0182316
680.574	0.0181219
680.652	0.0182077
680.730	0.0182652
680.808	0.0182085
680.887	0.0181686
680.965	0.0181201
681.043	0.0183002
681.121	0.0182006
681.199	0.0179481
681.277	0.0181647
681.355	0.0179931
681.433	0.0178816
681.512	0.0179160
681.590	0.0178835
681.668	0.0177707
681.746	0.0177986
681.824	0.0176859
681.902	0.0175960
681.980	0.0176872
682.058	0.0175269
682.137	0.0174310
682.215	0.0175411
682.293	0.0174918
682.371	0.0174872
682.449	0.0173863
682.527	0.0175434
682.605	0.0175782
682.683	0.0174670
682.762	0.0175603
682.840	0.0176737
682.918	0.0177820
682.996	0.0175999
683.074	0.0176566
683.152	0.0176881
683.230	0.0176574
683.308	0.0178339
683.387	0.0178360
683.465	0.0178838
683.543	0.0178365
683.621	0.0179385
683.699	0.0180344
683.777	0.0179665
683.855	0.0181096
683.933	0.0179914
684.012	0.0181364
684.090	0.0180457
684.168	0.0180257
684.246	0.0180873
684.324	0.0179555
684.402	0.0180261
684.480	0.0179955
684.558	0.0182110
684.637	0.0180609
684.715	0.0179853
684.793	0.0181528
684.871	0.0179939
684.949	0.0180954
685.027	0.0181031
685.105	0.0179277
685.183	0.0177808
685.262	0.0179330
685.340	0.0178523
685.418	0.0180805
685.496	0.0179339
685.574	0.0178899
685.652	0.0178188
685.730	0.0179783
685.808	0.0179045
685.887	0.0176599
685.965	0.0177134
686.043	0.0177442
686.121	0.0177283
686.199	0.0177675
686.277	0.0175869
686.355	0.0176849
686.433	0.0177148
686.512	0.0176564
686.590	0.0177003
686.668	0.0177427
686.746	0.0178004
686.824	0.0178305
686.902	0.0178009
686.980	0.0177750
687.058	0.0177347
687.137	0.0175664
687.215	0.0177184
687.293	0.0178853
687.371	0.0179392
687.449	0.0177063
687.527	0.0178619
687.605	0.0178652
687.683	0.0178522
687.762	0.0177407
687.840	0.0176340
687.918	0.0177297
687.996	0.0177765
688.074	0.0177419
688.152	0.0178446
688.230	0.0177565
688.308	0.0177386
688.387	0.0177086
688.465	0.0178773
688.543	0.0177596
688.621	0.0177191
688.699	0.0178812
688.777	0.0178705
688.855	0.0178584
688.933	0.0179195
689.012	0.0178904
689.090	0.0178070
689.168	0.0177151
689.246	0.0178331
689.324	0.0177441
689.402	0.0178410
689.480	0.0178376
689.558	0.0177529
689.637	0.0178184
689.715	0.0177000
689.793	0.0178182
689.871	0.0178353
689.949	0.0178840
690.027	0.0178165
690.105	0.0177954
690.183	0.0177335
690.262	0.0177309
690.340	0.0177548
690.418	0.0178945
690.496	0.0178340
690.574	0.0179169
690.652	0.0178690
690.730	0.0179401
690.808	0.0179581
690.887	0.0180895
690.965	0.0182092
691.043	0.0180726
691.121	0.0180571
691.199	0.0182178
691.277	0.0180167
691.355	0.0180674
691.433	0.0181001
691.512	0.0181041
691.590	0.0180120
691.668	0.0180424
691.746	0.0181364
691.824	0.0180329
691.902	0.0178697
691.980	0.0177548
692.058	0.0178757
692.137	0.0179332
692.215	0.0177742
692.293	0.0176998
692.371	0.0176686
692.449	0.0175732
692.527	0.0176508
692.605	0.0175649
692.683	0.0174651
692.762	0.0175740
692.840	0.0175307
692.918	0.0175430
692.996	0.0175333
693.074	0.0174650
693.152	0.0175763
693.230	0.0175135
693.308	0.0175832
693.387	0.0177471
693.465	0.0176553
693.543	0.0176826
693.621	0.0178956
693.699	0.0177348
693.777	0.0177574
693.855	0.0178986
693.933	0.0179229
694.012	0.0179838
694.090	0.0181113
694.168	0.0180318
694.246	0.0180423
694.324	0.0180637
694.402	0.0179194
694.480	0.0179758
694.558	0.0180789
694.637	0.0180691
694.715	0.0180018
694.793	0.0178859
694.871	0.0179699
694.949	0.0178555
695.027	0.0178131
695.105	0.0179160
695.183	0.0178826
695.262	0.0177820
695.340	0.0178794
695.418	0.0178712
695.496	0.0177499
695.574	0.0176787
695.652	0.0178152
695.730	0.0177612
695.808	0.0176720
695.887	0.0176611
695.965	0.0175486
696.043	0.0176904
696.121	0.0177071
696.199	0.0176659
696.277	0.0177190
696.355	0.0177308
696.433	0.0177646
696.512	0.0177278
696.590	0.0176763
696.668	0.0177205
696.746	0.0178944
696.824	0.0177591
696.902	0.0177839
696.980	0.0179682
697.058	0.0180140
697.137	0.0179479
697.215	0.0179370
697.293	0.0180133
697.371	0.0179019
697.449	0.0180350
697.527	0.0180935
697.605	0.0179074
697.683	0.0178586
697.762	0.0180054
697.840	0.0179266
697.918	0.0179336
697.996	0.0178619
698.074	0.0179559
698.152	0.0178086
698.230	0.0178470
698.308	0.0177555
698.387	0.0178542
698.465	0.0179698
698.543	0.0179539
698.621	0.0179021
698.699	0.0179526
698.777	0.0178366
698.855	0.0178784
698.933	0.0180719
699.012	0.0179052
699.090	0.0179780
699.168	0.0178519
699.246	0.0178196
699.324	0.0176994
699.402	0.0177226
699.480	0.0178723
699.558	0.0177020
699.637	0.0176018
699.715	0.0175380
699.793	0.0175928
699.871	0.0175387
699.949	0.0174578
700.027	0.0174991
700.105	0.0175931
700.183	0.0176022
700.262	0.0175704
700.340	0.0175544
700.418	0.0175566
700.496	0.0175300
700.574	0.0177442
700.652	0.0176551
700.730	0.0177213
700.808	0.0179208
700.887	0.0179007
700.965	0.0180116
701.043	0.0181004
701.121	0.0180776
701.199	0.0179576
701.277	0.0180269
701.355	0.0181738
701.433	0.0181429
701.512	0.0182026
701.590	0.0182204
701.668	0.0181286
701.746	0.0181471
701.824	0.0182014
701.902	0.0180051
701.980	0.0180857
702.058	0.0181710
702.137	0.0180260
702.215	0.0179613
702.293	0.0180003
702.371	0.0179424
702.449	0.0179868
702.527	0.0180522
702.605	0.0178727
702.683	0.0179043
702.762	0.0179762
702.840	0.0178728
702.918	0.0178202
702.996	0.0178905
703.074	0.0179071
703.152	0.0177007
703.230	0.0178360
703.308	0.0178242
703.387	0.0178535
703.465	0.0178210
703.543	0.0177498
703.621	0.0178125
703.699	0.0177750
703.777	0.0177264
703.855	0.0175764
703.933	0.0176508
704.012	0.0174834
704.090	0.0174765
704.168	0.0175053
704.246	0.0175530
704.324	0.0176962
704.402	0.0178097
704.480	0.0175628
704.558	0.0175319
704.637	0.0176404
704.715	0.0177550
704.793	0.0175995
704.871	0.0177771
704.949	0.0177119
705.027	0.0178583
705.105	0.0179343
705.183	0.0178390
705.262	0.0178352
705.340	0.0178992
705.418	0.0178601
705.496	0.0179234
705.574	0.0180660
705.652	0.0179079
705.730	0.0180238
705.808	0.0179590
705.887	0.0179920
705.965	0.0179473
706.043	0.0178118
706.121	0.0177702
706.199	0.0178638
706.277	0.0179455
706.355	0.0176918
706.433	0.0175976
706.512	0.0176066
706.590	0.0174772
706.668	0.0177074
706.746	0.0177529
706.824	0.0177183
706.902	0.0177171
706.980	0.0177436
707.058	0.0178015
707.137	0.0178365
707.215	0.0178286
707.293	0.0179623
707.371	0.0178460
707.449	0.0177882
707.527	0.0179169
707.605	0.0180270
707.683	0.0181544
707.762	0.0180628
707.840	0.0180989
707.918	0.0180663
707.996	0.0180650
708.074	0.0179988
708.152	0.0182014
708.230	0.0181802
708.308	0.0181389
708.387	0.0180894
708.465	0.0178826
708.543	0.0179195
708.621	0.0179580
708.699	0.0178580
708.777	0.0177108
708.855	0.0177628
708.933	0.0176900
709.012	0.0176532
709.090	0.0174980
709.168	0.0176214
709.246	0.0175370
709.324	0.0173766
709.402	0.0174871
709.480	0.0173890
709.558	0.0173746
709.637	0.0174405
709.715	0.0175495
709.793	0.0174751
709.871	0.0175489
709.949	0.0176208
710.027	0.0176945
710.105	0.0175148
710.183	0.0176960
710.262	0.0176913
710.340	0.0176780
710.418	0.0176167
710.496	0.0178534
710.574	0.0178976
710.652	0.0180478
710.730	0.0180005
710.808	0.0182268
710.887	0.0182578
710.965	0.0182239
711.043	0.0182487
711.121	0.0182160
711.199	0.0183049
711.277	0.0182974
711.355	0.0182496
711.433	0.0180172
711.512	0.0178690
711.590	0.0179366
711.668	0.0177533
711.746	0.0176663
711.824	0.0175051
711.902	0.0173004
711.980	0.0173629
712.058	0.0172441
712.137	0.0172506
712.215	0.0172231
712.293	0.0171297
712.371	0.0170361
712.449	0.0172280
712.527	0.0172482
712.605	0.0172742
712.683	0.0173923
712.762	0.0174358
712.840	0.0175427
712.918	0.0177310
712.996	0.0177535
713.074	0.0177641
713.152	0.0180306
713.230	0.0180711
713.308	0.0179647
713.387	0.0180242
713.465	0.0180927
713.543	0.0181161
713.621	0.0180259
713.699	0.0180508
713.777	0.0179305
713.855	0.0177422
713.933	0.0177906
714.012	0.0178333
714.090	0.0176901
714.168	0.0176159
714.246	0.0173062
714.324	0.0175803
714.402	0.0176253
714.480	0.0175716
714.558	0.0176543
714.637	0.0176040
714.715	0.0175700
714.793	0.0177129
714.871	0.0176391
714.949	0.0177766
715.027	0.0178770
715.105	0.0180035
715.183	0.0180512
715.262	0.0180415
715.340	0.0179631
715.418	0.0179343
715.496	0.0180809
715.574	0.0182581
715.652	0.0182403
715.730	0.0181957
715.808	0.0183340
715.887	0.0182644
715.965	0.0181612
716.043	0.0180975
716.121	0.0180555
716.199	0.0180699
716.277	0.0179486
716.355	0.0178568
716.433	0.0177482
716.512	0.0176782
716.590	0.0176855
716.668	0.0175835
716.746	0.0175291
716.824	0.0173562
716.902	0.0172731
716.980	0.0174266
717.058	0.0170721
717.137	0.0171342
717.215	0.0171598
717.293	0.0170613
717.371	0.0171778
717.449	0.0170306
717.527	0.0170319
717.605	0.0172102
717.683	0.0172519
717.762	0.0171532
717.840	0.0171129
717.918	0.0171561
717.996	0.0172395
718.074	0.0173299
718.152	0.0175220
718.230	0.0175093
718.308	0.0175719
718.387	0.0175983
718.465	0.0174751
718.543	0.0175762
718.621	0.0177298
718.699	0.0178352
718.777	0.0179819
718.855	0.0179240
718.933	0.0180495
719.012	0.0180568
719.090	0.0181367
719.168	0.0181216
719.246	0.0182209
719.324	0.0184167
719.402	0.0184980
719.480	0.0184712
719.558	0.0184476
719.637	0.0183817
719.715	0.0184168
719.793	0.0183310
719.871	0.0183105
719.949	0.0184373
720.027	0.0182922
720.105	0.0181202
720.183	0.0180674
720.262	0.0179949
720.340	0.0181246
720.418	0.0178502
720.496	0.0177780
720.574	0.0176412
720.652	0.0175457
720.730	0.0175114
720.808	0.0175839
720.887	0.0174834
720.965	0.0174538
721.043	0.0173399
721.121	0.0175125
721.199	0.0175726
721.277	0.0175098
721.355	0.0174328
721.433	0.0174843
721.512	0.0175343
721.590	0.0176414
721.668	0.0176685
721.746	0.0176633
721.824	0.0176135
721.902	0.0176630
721.980	0.0179009
722.058	0.0178134
722.137	0.0176398
722.215	0.0178741
722.293	0.0179104
722.371	0.0178070
722.449	0.0178553
722.527	0.0179497
722.605	0.0179529
722.683	0.0181051
722.762	0.0180341
722.840	0.0181241
722.918	0.0181464
722.996	0.0181405
723.074	0.0181265
723.152	0.0182351
723.230	0.0180955
723.308	0.0180427
723.387	0.0179754
723.465	0.0179522
723.543	0.0178880
723.621	0.0177453
723.699	0.0177203
723.777	0.0177364
723.855	0.0177113
723.933	0.0176162
724.012	0.0173940
724.090	0.0174610
724.168	0.0172743
724.246	0.0174262
724.324	0.0173653
724.402	0.0173206
724.480	0.0173133
724.558	0.0173275
724.637	0.0172923
724.715	0.0173046
724.793	0.0173798
724.871	0.0173482
724.949	0.0173808
725.027	0.0175249
725.105	0.0175819
725.183	0.0176477
725.262	0.0176241
725.340	0.0177245
725.418	0.0179108
725.496	0.0179792
725.574	0.0179388
725.652	0.0180169
725.730	0.0182044
725.808	0.0182407
725.887	0.0183018
725.965	0.0183449
726.043	0.0181387
726.121	0.0183538
726.199	0.0182700
726.277	0.0183588
726.355	0.0183396
726.433	0.0183183
726.512	0.0182855
726.590	0.0181818
726.668	0.0181059
726.746	0.0182034
726.824	0.0180682
726.902	0.0181087
726.980	0.0179823
727.058	0.0178580
727.137	0.0177391
727.215	0.0176823
727.293	0.0175960
727.371	0.0175614
727.449	0.0174937
727.527	0.0174366
727.605	0.0175081
727.683	0.0175455
727.762	0.0174812
727.840	0.0175625
727.918	0.0175024
727.996	0.0174327
728.074	0.0176477
728.152	0.0176368
728.230	0.0176880
728.308	0.0177537
728.387	0.0178914
728.465	0.0179224
728.543	0.0180356
728.621	0.0178848
728.699	0.0179678
728.777	0.0179154
728.855	0.0180167
728.933	0.0180570
729.012	0.0179005
729.090	0.0178703
729.168	0.0180126
729.246	0.0179661
729.324	0.0181367
729.402	0.0179307
729.480	0.0179460
729.558	0.0178069
729.637	0.0179054
729.715	0.0180114
729.793	0.0178857
729.871	0.0176836
729.949	0.0178843
730.027	0.0178409
730.105	0.0177486
730.183	0.0177930
730.262	0.0179042
730.340	0.0178362
730.418	0.0177292
730.496	0.0178214
730.574	0.0178950
730.652	0.0180240
730.730	0.0180373
730.808	0.0178128
730.887	0.0178295
730.965	0.0180610
731.043	0.0179422
731.121	0.0179545
731.199	0.0179726
731.277	0.0179193
731.355	0.0178761
731.433	0.0177554
731.512	0.0178874
731.590	0.0179604
731.668	0.0179609
731.746	0.0178908
731.824	0.0177182
731.902	0.0176546
731.980	0.0176565
732.058	0.0177631
732.137	0.0177707
732.215	0.0176014
732.293	0.0175221
732.371	0.0174940
732.449	0.0176163
732.527	0.0173590
732.605	0.0174107
732.683	0.0174491
732.762	0.0175299
732.840	0.0176128
732.918	0.0175491
732.996	0.0175874
733.074	0.0177984
733.152	0.0178425
733.230	0.0178118
733.308	0.0179950
733.387	0.0178860
733.465	0.0180115
733.543	0.0180586
733.621	0.0180188
733.699	0.0181287
733.777	0.0182082
733.855	0.0179794
733.933	0.0181846
734.012	0.0183051
734.090	0.0182351
734.168	0.0180873
734.246	0.0183359
734.324	0.0181719
734.402	0.0182240
734.480	0.0181287
734.558	0.0180379
734.637	0.0181677
734.715	0.0181487
734.793	0.0180479
734.871	0.0180391
734.949	0.0180970
735.027	0.0181664
735.105	0.0180393
735.183	0.0180122
735.262	0.0179187
735.340	0.0177631
735.418	0.0177522
735.496	0.0176398
735.574	0.0176988
735.652	0.0174960
735.730	0.0173602
735.808	0.0173135
735.887	0.0173216
735.965	0.0173340
736.043	0.0172266
736.121	0.0171340
736.199	0.0171330
736.277	0.0169484
736.355	0.0168444
736.433	0.0169234
736.512	0.0169438
736.590	0.0169106
736.668	0.0170438
736.746	0.0170231
736.824	0.0169548
736.902	0.0172021
736.980	0.0173656
737.058	0.0174145
737.137	0.0174675
737.215	0.0175842
737.293	0.0178880
737.371	0.0178699
737.449	0.0180706
737.527	0.0181918
737.605	0.0181666
737.683	0.0182108
737.762	0.0183209
737.840	0.0183123
737.918	0.0182565
737.996	0.0181925
738.074	0.0181802
738.152	0.0183582
738.230	0.0181705
738.308	0.0182078
738.387	0.0181696
738.465	0.0182629
738.543	0.0181437
738.621	0.0182025
738.699	0.0182220
738.777	0.0182372
738.855	0.0180914
738.933	0.0182001
739.012	0.0179251
739.090	0.0179000
739.168	0.0178806
739.246	0.0178514
739.324	0.0178015
739.402	0.0178790
739.480	0.0178132
739.558	0.0177334
739.637	0.0176393
739.715	0.0177190
739.793	0.0178114
739.871	0.0175990
739.949	0.0177637
740.027	0.0178028
740.105	0.0176685
740.183	0.0177510
740.262	0.0177231
740.340	0.0177074
740.418	0.0175983
740.496	0.0178661
740.574	0.0177413
740.652	0.0176797
740.730	0.0177633
740.808	0.0176933
740.887	0.0176223
740.965	0.0175919
741.043	0.0176579
741.121	0.0175200
741.199	0.0175001
741.277	0.0174067
741.355	0.0176778
741.433	0.0176165
741.512	0.0176829
741.590	0.0175575
741.668	0.0177122
741.746	0.0176878
741.824	0.0177454
741.902	0.0177140
741.980	0.0178752
742.058	0.0177478
742.137	0.0178657
742.215	0.0179630
742.293	0.0178764
742.371	0.0180265
742.449	0.0181398
742.527	0.0181300
742.605	0.0182209
742.683	0.0182117
742.762	0.0183615
742.840	0.0181600
742.918	0.0182196
742.996	0.0182941
743.074	0.0183124
743.152	0.0182738
743.230	0.0182715
743.308	0.0181794
743.387	0.0179971
743.465	0.0181908
743.543	0.0182407
743.621	0.0181420
743.699	0.0179541
743.777	0.0180233
743.855	0.0180119
743.933	0.0180524
744.012	0.0179603
744.090	0.0178149
744.168	0.0178280
744.246	0.0178804
744.324	0.0177734
744.402	0.0177588
744.480	0.0177618
744.558	0.0176878
744.637	0.0179092
744.715	0.0177229
744.793	0.0177513
744.871	0.0178692
744.949	0.0178288
745.027	0.0179576
745.105	0.0180363
745.183	0.0178178
745.262	0.0179716
745.340	0.0178750
745.418	0.0178481
745.496	0.0178459
745.574	0.0178759
745.652	0.0177393
745.730	0.0178033
745.808	0.0176794
745.887	0.0178045
745.965	0.0177086
746.043	0.0176811
746.121	0.0177705
746.199	0.0176961
746.277	0.0177706
746.355	0.0176366
746.433	0.0178610
746.512	0.0178568
746.590	0.0179218
746.668	0.0177858
746.746	0.0178728
746.824	0.0177967
746.902	0.0179976
746.980	0.0179744
747.058	0.0180074
747.137	0.0179551
747.215	0.0179597
747.293	0.0179815
747.371	0.0179026
747.449	0.0179286
747.527	0.0178762
747.605	0.0179140
747.683	0.0179113
747.762	0.0178764
747.840	0.0178574
747.918	0.0181160
747.996	0.0179182
748.074	0.0178699
748.152	0.0178051
748.230	0.0177530
748.308	0.0177827
748.387	0.0179322
748.465	0.0178477
748.543	0.0177922
748.621	0.0178574
748.699	0.0179021
748.777	0.0178406
748.855	0.0179873
748.933	0.0179798
749.012	0.0179628
749.090	0.0178178
749.168	0.0178671
749.246	0.0179303
749.324	0.0177934
749.402	0.0178693
749.480	0.0179953
749.558	0.0178832
749.637	0.0178954
749.715	0.0180005
749.793	0.0178429
749.871	0.0178149
749.949	0.0179774
750.027	0.0179778
750.105	0.0179884
750.183	0.0179963
750.262	0.0179990
750.340	0.0181181
750.418	0.0178784
750.496	0.0179140
750.574	0.0179765
750.652	0.0178912
750.730	0.0178828
750.808	0.0179324
750.887	0.0178809
750.965	0.0178750
751.043	0.0178915
751.121	0.0177879
751.199	0.0176290
751.277	0.0176930
751.355	0.0176664
751.433	0.0177672
751.512	0.0175743
751.590	0.0176803
751.668	0.0177152
751.746	0.0176306
751.824	0.0175179
751.902	0.0176744
751.980	0.0176966
752.058	0.0175804
752.137	0.0176939
752.215	0.0178497
752.293	0.0179439
752.371	0.0179572
752.449	0.0177862
752.527	0.0179686
752.605	0.0180847
752.683	0.0181673
752.762	0.0181214
752.840	0.0180728
752.918	0.0179957
752.996	0.0180296
753.074	0.0181122
753.152	0.0180869
753.230	0.0180106
753.308	0.0179963
753.387	0.0178808
753.465	0.0179968
753.543	0.0179810
753.621	0.0180055
753.699	0.0179685
753.777	0.0178988
753.855	0.0179828
753.933	0.0179562
754.012	0.0179062
754.090	0.0179185
754.168	0.0179021
754.246	0.0177876
754.324	0.0178114
754.402	0.0177877
754.480	0.0178043
754.558	0.0178084
754.637	0.0176692
754.715	0.0176338
754.793	0.0177428
754.871	0.0177776
754.949	0.0178047
755.027	0.0178321
755.105	0.0178458
755.183	0.0179317
755.262	0.0178342
755.340	0.0179163
755.418	0.0178010
755.496	0.0181039
755.574	0.0181898
755.652	0.0180513
755.730	0.0179546
755.808	0.0181164
755.887	0.0180127
755.965	0.0180620
756.043	0.0181377
756.121	0.0180504
756.199	0.0178846
756.277	0.0178980
756.355	0.0179747
756.433	0.0178670
756.512	0.0177999
756.590	0.0177699
756.668	0.0178285
756.746	0.0177981
756.824	0.0177251
756.902	0.0177599
756.980	0.0177110
757.058	0.0178603
757.137	0.0177417
757.215	0.0175781
757.293	0.0174953
757.371	0.0177457
757.449	0.0176562
757.527	0.0176825
757.605	0.0177096
757.683	0.0177246
757.762	0.0176842
757.840	0.0176871
757.918	0.0177876
757.996	0.0177511
758.074	0.0177885
758.152	0.0178359
758.230	0.0178114
758.308	0.0177840
758.387	0.0176845
758.465	0.0178003
758.543	0.0178891
758.621	0.0177813
758.699	0.0178798
758.777	0.0177310
758.855	0.0176907
758.933	0.0176917
759.012	0.0176440
759.090	0.0176654
759.168	0.0177024
759.246	0.0176671
759.324	0.0177423
759.402	0.0177622
759.480	0.0176367
759.558	0.0177514
759.637	0.0177961
759.715	0.0176099
759.793	0.0175987
759.871	0.0177892
759.949	0.0176498
760.027	0.0178050
760.105	0.0176935
760.183	0.0176308
760.262	0.0178489
760.340	0.0176846
760.418	0.0178786
760.496	0.0178030
760.574	0.0179238
760.652	0.0177995
760.730	0.0178101
760.808	0.0177686
760.887	0.0178770
760.965	0.0178593
761.043	0.0177567
761.121	0.0179471
761.199	0.0180585
761.277	0.0177982
761.355	0.0180351
761.433	0.0180985
761.512	0.0178865
761.590	0.0180409
761.668	0.0178289
761.746	0.0178989
761.824	0.0180739
761.902	0.0178814
761.980	0.0179549
762.058	0.0179549
762.137	0.0177675
762.215	0.0177286
762.293	0.0177615
762.371	0.0177434
762.449	0.0177874
762.527	0.0176862
762.605	0.0176797
762.683	0.0178281
762.762	0.0177774
762.840	0.0178963
762.918	0.0178819
762.996	0.0178409
763.074	0.0178417
763.152	0.0177452
763.230	0.0179640
763.308	0.0180855
763.387	0.0180109
763.465	0.0179700
763.543	0.0179845
763.621	0.0179615
763.699	0.0180994
763.777	0.0179395
763.855	0.0178924
763.933	0.0178741
764.012	0.0178793
764.090	0.0180387
764.168	0.0179498
764.246	0.0178672
764.324	0.0178540
764.402	0.0179688
764.480	0.0178301
764.558	0.0178156
764.637	0.0179109
764.715	0.0177540
764.793	0.0178414
764.871	0.0177909
764.949	0.0178535
765.027	0.0178403
765.105	0.0177829
765.183	0.0176540
765.262	0.0176524
765.340	0.0176824
765.418	0.0178181
765.496	0.0177982
765.574	0.0178185
765.652	0.0178177
765.730	0.0177925
765.808	0.0177470
765.887	0.0177930
765.965	0.0177523
766.043	0.0178725
766.121	0.0178586
766.199	0.0178770
766.277	0.0180185
766.355	0.0178886
766.433	0.0179155
766.512	0.0179085
766.590	0.0181310
766.668	0.0181865
766.746	0.0181532
766.824	0.0181599
766.902	0.0181585
766.980	0.0181667
767.058	0.0180839
767.137	0.0181656
767.215	0.0183173
767.293	0.0182872
767.371	0.0180857
767.449	0.0179325
767.527	0.0179971
767.605	0.0180293
767.683	0.0181020
767.762	0.0179212
767.840	0.0179717
767.918	0.0179725
767.996	0.0178458
768.074	0.0177750
768.152	0.0177290
768.230	0.0178271
768.308	0.0177502
768.387	0.0177354
768.465	0.0178339
768.543	0.0177725
768.621	0.0178327
768.699	0.0178898
768.777	0.0180469
768.855	0.0178373
768.933	0.0178003
769.012	0.0178039
769.090	0.0177142
769.168	0.0177823
769.246	0.0178962
769.324	0.0179374
769.402	0.0179037
769.480	0.0179108
769.558	0.0178400
769.637	0.0178491
769.715	0.0177254
769.793	0.0176967
769.871	0.0177879
769.949	0.0177852
770.027	0.0178658
770.105	0.0176678
770.183	0.0177051
770.262	0.0177570
770.340	0.0178265
770.418	0.0177146
770.496	0.0177529
770.574	0.0178679
770.652	0.0177692
770.730	0.0178661
770.808	0.0178083
770.887	0.0178388
770.965	0.0180178
771.043	0.0179581
771.121	0.0178689
771.199	0.0179321
771.277	0.0180122
771.355	0.0179354
771.433	0.0180286
771.512	0.0180502
771.590	0.0179923
771.668	0.0180111
771.746	0.0179118
771.824	0.0180651
771.902	0.0179921
771.980	0.0179861
772.058	0.0177256
772.137	0.0179226
772.215	0.0179264
772.293	0.0178400
772.371	0.0177602
772.449	0.0177727
772.527	0.0180296
772.605	0.0179915
772.683	0.0178654
772.762	0.0178326
772.840	0.0179642
772.918	0.0178255
772.996	0.0178493
773.074	0.0177484
773.152	0.0179485
773.230	0.0178095
773.308	0.0178345
773.387	0.0177082
773.465	0.0179106
773.543	0.0177892
773.621	0.0177983
773.699	0.0178075
773.777	0.0178976
773.855	0.0178428
773.933	0.0177802
774.012	0.0180048
774.090	0.0178372
774.168	0.0179523
774.246	0.0178963
774.324	0.0178925
774.402	0.0179694
774.480	0.0178870
774.558	0.0179816
774.637	0.0180210
774.715	0.0180441
774.793	0.0180133
774.871	0.0179827
774.949	0.0180347
775.027	0.0179706
775.105	0.0179966
775.183	0.0180703
775.262	0.0180820
775.340	0.0180101
775.418	0.0178729
775.496	0.0180887
775.574	0.0179635
775.652	0.0179088
775.730	0.0178939
775.808	0.0178671
775.887	0.0178629
775.965	0.0177374
776.043	0.0178992
776.121	0.0176570
776.199	0.0177575
776.277	0.0177341
776.355	0.0176470
776.433	0.0177276
776.512	0.0177472
776.590	0.0178526
776.668	0.0176866
776.746	0.0177364
776.824	0.0177944
776.902	0.0178477
776.980	0.0178879
777.058	0.0178294
777.137	0.0179437
777.215	0.0178584
777.293	0.0178647
777.371	0.0177204
777.449	0.0177494
777.527	0.0176854
777.605	0.0176833
777.683	0.0177969
777.762	0.0177342
777.840	0.0178026
777.918	0.0177666
777.996	0.0176412
778.074	0.0177337
778.152	0.0178297
778.230	0.0178932
778.308	0.0177921
778.387	0.0176748
778.465	0.0177945
778.543	0.0177998
778.621	0.0178502
778.699	0.0178149
778.777	0.0179128
778.855	0.0178629
778.933	0.0179307
779.012	0.0177470
779.090	0.0178427
779.168	0.0178642
779.246	0.0178445
779.324	0.0178671
779.402	0.0178537
779.480	0.0177966
779.558	0.0176498
779.637	0.0176286
779.715	0.0177593
779.793	0.0176517
779.871	0.0177482
779.949	0.0176119
780.027	0.0177263
780.105	0.0176862
780.183	0.0176480
780.262	0.0176484
780.340	0.0176508
780.418	0.0175922
780.496	0.0175842
780.574	0.0177916
780.652	0.0176874
780.730	0.0175690
780.808	0.0177301
780.887	0.0177395
780.965	0.0177137
781.043	0.0176715
781.121	0.0177836
781.199	0.0177246
781.277	0.0177476
781.355	0.0178067
781.433	0.0178963
781.512	0.0178336
781.590	0.0178238
781.668	0.0179389
781.746	0.0179582
781.824	0.0178749
781.902	0.0178844
781.980	0.0178577
782.058	0.0178691
782.137	0.0179106
782.215	0.0179015
782.293	0.0178728
782.371	0.0177892
782.449	0.0179812
782.527	0.0178482
782.605	0.0177592
782.683	0.0177940
782.762	0.0177872
782.840	0.0177779
782.918	0.0176118
782.996	0.0177445
783.074	0.0178122
783.152	0.0176044
783.230	0.0175139
783.308	0.0176324
783.387	0.0177763
783.465	0.0176450
783.543	0.0177602
783.621	0.0176501
783.699	0.0177106
783.777	0.0176291
783.855	0.0176595
783.933	0.0176325
784.012	0.0176082
784.090	0.0176382
784.168	0.0176511
784.246	0.0177025
784.324	0.0177003
784.402	0.0177142
784.480	0.0177251
784.558	0.0177533
784.637	0.0176506
784.715	0.0177130
784.793	0.0177882
784.871	0.0178143
784.949	0.0177090
785.027	0.0176986
785.105	0.0178278
785.183	0.0178386
785.262	0.0177538
785.340	0.0177840
785.418	0.0177977
785.496	0.0179057
785.574	0.0179257
785.652	0.0178816
785.730	0.0179005
785.808	0.0178308
785.887	0.0177364
785.965	0.0178175
786.043	0.0178511
786.121	0.0179383
786.199	0.0178644
786.277	0.0178732
786.355	0.0178516
786.433	0.0178543
786.512	0.0177286
786.590	0.0178519
786.668	0.0179669
786.746	0.0179947
786.824	0.0179624
786.902	0.0180037
786.980	0.0178607
787.058	0.0179728
787.137	0.0179215
787.215	0.0179916
787.293	0.0180107
787.371	0.0179288
787.449	0.0179668
787.527	0.0179409
787.605	0.0178699
787.683	0.0178144
787.762	0.0178512
787.840	0.0180566
787.918	0.0179887
787.996	0.0178046
788.074	0.0177932
788.152	0.0178974
788.230	0.0178841
788.308	0.0178307
788.387	0.0177084
788.465	0.0176231
788.543	0.0178187
788.621	0.0177650
788.699	0.0175728
788.777	0.0176015
788.855	0.0176505
788.933	0.0176633
789.012	0.0174572
789.090	0.0176081
789.168	0.0176675
789.246	0.0175124
789.324	0.0175726
789.402	0.0176213
789.480	0.0176811
789.558	0.0177764
789.637	0.0177086
789.715	0.0176971
789.793	0.0177011
789.871	0.0175964
789.949	0.0177631
790.027	0.0178338
790.105	0.0177288
790.183	0.0177894
790.262	0.0177161
790.340	0.0178313
790.418	0.0179124
790.496	0.0179077
790.574	0.0179704
790.652	0.0178336
790.730	0.0179436
790.808	0.0177033
790.887	0.0178491
790.965	0.0179350
791.043	0.0179315
791.121	0.0178123
791.199	0.0179144
791.277	0.0179032
791.355	0.0180142
791.433	0.0178548
791.512	0.0177998
791.590	0.0179801
791.668	0.0179182
791.746	0.0179382
791.824	0.0179773
791.902	0.0178755
791.980	0.0178346
792.058	0.0178373
792.137	0.0179381
792.215	0.0179232
792.293	0.0179686
792.371	0.0178004
792.449	0.0177692
792.527	0.0178174
792.605	0.0178154
792.683	0.0178085
792.762	0.0177883
792.840	0.0179546
792.918	0.0178288
792.996	0.0178522
793.074	0.0178820
793.152	0.0179739
793.230	0.0179583
793.308	0.0177792
793.387	0.0176894
793.465	0.0178781
793.543	0.0179417
793.621	0.0179347
793.699	0.0177345
793.777	0.0177777
793.855	0.0177789
793.933	0.0178008
794.012	0.0177312
794.090	0.0177135
794.168	0.0177243
794.246	0.0177242
794.324	0.0177739
794.402	0.0177200
794.480	0.0176350
794.558	0.0176736
794.637	0.0177316
794.715	0.0176402
794.793	0.0177946
794.871	0.0177583
794.949	0.0176744
795.027	0.0177264
795.105	0.0176561
795.183	0.0175628
795.262	0.0178342
795.340	0.0177629
795.418	0.0176570
795.496	0.0176244
795.574	0.0176611
795.652	0.0177638
795.730	0.0177881
795.808	0.0177651
795.887	0.0177703
795.965	0.0177323
796.043	0.0176736
796.121	0.0176800
796.199	0.0176743
796.277	0.0176149
796.355	0.0177746
796.433	0.0176741
796.512	0.0177573
796.590	0.0177732
796.668	0.0177541
796.746	0.0177203
796.824	0.0176527
796.902	0.0178177
796.980	0.0178305
797.058	0.0178100
797.137	0.0178918
797.215	0.0178500
797.293	0.0178273
797.371	0.0178163
797.449	0.0177672
797.527	0.0177755
797.605	0.0177762
797.683	0.0180804
797.762	0.0179251
797.840	0.0178146
797.918	0.0176891
797.996	0.0179327
798.074	0.0180090
798.152	0.0178984
798.230	0.0178980
798.308	0.0178420
798.387	0.0179134
798.465	0.0178773
798.543	0.0178751
798.621	0.0179636
798.699	0.0177876
798.777	0.0178004
798.855	0.0177767
798.933	0.0177366
799.012	0.0177229
799.090	0.0177661
799.168	0.0177599
799.246	0.0176324
799.324	0.0178069
799.402	0.0177990
799.480	0.0176050
799.558	0.0176865
799.637	0.0177116
799.715	0.0176424
799.793	0.0177132
799.871	0.0176951
799.949	0.0177222
800.027	0.0178425
800.105	0.0176549
800.183	0.0177022
800.262	0.0177479
800.340	0.0176915
800.418	0.0177037
800.496	0.0177143
800.574	0.0178689
800.652	0.0178345
800.730	0.0178619
800.808	0.0178948
800.887	0.0177812
800.965	0.0178085
801.043	0.0177839
801.121	0.0177909
801.199	0.0180022
801.277	0.0178861
801.355	0.0177554
801.433	0.0178685
801.512	0.0179266
801.590	0.0178415
801.668	0.0178099
801.746	0.0176886
801.824	0.0177563
801.902	0.0177522
801.980	0.0176962
802.058	0.0179336
802.137	0.0177830
802.215	0.0178723
802.293	0.0179098
802.371	0.0178773
802.449	0.0178577
802.527	0.0179462
802.605	0.0179543
802.683	0.0178318
802.762	0.0179265
802.840	0.0180056
802.918	0.0179630
802.996	0.0180254
803.074	0.0180497
803.152	0.0179375
803.230	0.0179750
803.308	0.0180852
803.387	0.0180416
803.465	0.0180291
803.543	0.0179430
803.621	0.0178493
803.699	0.0178963
803.777	0.0180139
803.855	0.0180057
803.933	0.0179128
804.012	0.0179132
804.090	0.0178812
804.168	0.0178257
804.246	0.0177193
804.324	0.0178622
804.402	0.0176539
804.480	0.0176725
804.558	0.0177908
804.637	0.0177163
804.715	0.0176012
804.793	0.0177728
804.871	0.0177068
804.949	0.0177240
805.027	0.0176289
805.105	0.0176936
805.183	0.0177591
805.262	0.0178452
805.340	0.0178178
805.418	0.0176488
805.496	0.0178172
805.574	0.0178545
805.652	0.0177845
805.730	0.0177050
805.808	0.0179458
805.887	0.0178593
805.965	0.0178725
806.043	0.0179597
806.121	0.0178943
806.199	0.0179446
806.277	0.0178027
806.355	0.0177752
806.433	0.0179868
806.512	0.0177197
806.590	0.0178336
806.668	0.0178465
806.746	0.0178418
806.824	0.0178423
806.902	0.0178635
806.980	0.0179008
807.058	0.0178191
807.137	0.0177551
807.215	0.0177579
807.293	0.0178642
807.371	0.0177326
807.449	0.0176844
807.527	0.0176566
807.605	0.0177544
807.683	0.0178046
807.762	0.0177167
807.840	0.0176383
807.918	0.0176295
807.996	0.0177594
808.074	0.0178340
808.152	0.0178082
808.230	0.0177025
808.308	0.0178266
808.387	0.0176829
808.465	0.0178262
808.543	0.0178959
808.621	0.0179196
808.699	0.0178335
808.777	0.0179145
808.855	0.0179153
808.933	0.0178215
809.012	0.0178140
809.090	0.0179291
809.168	0.0178106
809.246	0.0178255
809.324	0.0177814
809.402	0.0178796
809.480	0.0178095
809.558	0.0178513
809.637	0.0178844
809.715	0.0177824
809.793	0.0177341
809.871	0.0178305
809.949	0.0178300
810.027	0.0177815
810.105	0.0179146
810.183	0.0178685
810.262	0.0177791
810.340	0.0178720
810.418	0.0179408
810.496	0.0178201
810.574	0.0177438
810.652	0.0178202
810.730	0.0177180
810.808	0.0177215
810.887	0.0177866
810.965	0.0177634
811.043	0.0177337
811.121	0.0178559
811.199	0.0178527
811.277	0.0179503
811.355	0.0178164
811.433	0.0177998
811.512	0.0180589
811.590	0.0179528
811.668	0.0177895
811.746	0.0179709
811.824	0.0179575
811.902	0.0180069
811.980	0.0180392
812.058	0.0179650
812.137	0.0179019
812.215	0.0180476
812.293	0.0178033
812.371	0.0178278
812.449	0.0179762
812.527	0.0179003
812.605	0.0179823
812.683	0.0178775
812.762	0.0179237
812.840	0.0180518
812.918	0.0179321
812.996	0.0179258
813.074	0.0180566
813.152	0.0180058
813.230	0.0178445
813.308	0.0178615
813.387	0.0179736
813.465	0.0179796
813.543	0.0178707
813.621	0.0178283
813.699	0.0179184
813.777	0.0178889
813.855	0.0178585
813.933	0.0178696
814.012	0.0179319
814.090	0.0179568
814.168	0.0177129
814.246	0.0176459
814.324	0.0178656
814.402	0.0178725
814.480	0.0177217
814.558	0.0177653
814.637	0.0177326
814.715	0.0177299
814.793	0.0178728
814.871	0.0176370
814.949	0.0175441
815.027	0.0175770
815.105	0.0176720
815.183	0.0175786
815.262	0.0176055
815.340	0.0176653
815.418	0.0176247
815.496	0.0176106
815.574	0.0176063
815.652	0.0176184
815.730	0.0178416
815.808	0.0177306
815.887	0.0176085
815.965	0.0175588
816.043	0.0177469
816.121	0.0178159
816.199	0.0177655
816.277	0.0176798
816.355	0.0178236
816.433	0.0177710
816.512	0.0177932
816.590	0.0177599
816.668	0.0177463
816.746	0.0178696
816.824	0.0176914
816.902	0.0177965
816.980	0.0178031
817.058	0.0177033
817.137	0.0177551
817.215	0.0178060
817.293	0.0177010
817.371	0.0176364
817.449	0.0177321
817.527	0.0177683
817.605	0.0177592
817.683	0.0177557
817.762	0.0179860
817.840	0.0176260
817.918	0.0177648
817.996	0.0179706
818.074	0.0177417
818.152	0.0177168
818.230	0.0178293
818.308	0.0178651
818.387	0.0177742
818.465	0.0177797
818.543	0.0177132
818.621	0.0177507
818.699	0.0178207
818.777	0.0177667
818.855	0.0177747
818.933	0.0178275
819.012	0.0176736
819.090	0.0176368
819.168	0.0178372
819.246	0.0179317
819.324	0.0176992
819.402	0.0175996
819.480	0.0177829
819.558	0.0177811
819.637	0.0177465
819.715	0.0176630
819.793	0.0177238
819.871	0.0177051
819.949	0.0176460
820.027	0.0176549
820.105	0.0177689
820.183	0.0177993
820.262	0.0176768
820.340	0.0177023
820.418	0.0176711
820.496	0.0177132
820.574	0.0175936
820.652	0.0176015
820.730	0.0176428
820.808	0.0175439
820.887	0.0177219
820.965	0.0177314
821.043	0.0178079
821.121	0.0176828
821.199	0.0176540
821.277	0.0176885
821.355	0.0177502
821.433	0.0176671
821.512	0.0176442
821.590	0.0178510
821.668	0.0177728
821.746	0.0178331
821.824	0.0177972
821.902	0.0178989
821.980	0.0178320
822.058	0.0178330
822.137	0.0178281
822.215	0.0179839
822.293	0.0178745
822.371	0.0179500
822.449	0.0179284
822.527	0.0178902
822.605	0.0179380
822.683	0.0178557
822.762	0.0178362
822.840	0.0178174
822.918	0.0179743
822.996	0.0178392
823.074	0.0179340
823.152	0.0178898
823.230	0.0178846
823.308	0.0179446
823.387	0.0178654
823.465	0.0177541
823.543	0.0178443
823.621	0.0178266
823.699	0.0177644
823.777	0.0177884
823.855	0.0177053
823.933	0.0176043
824.012	0.0177061
824.090	0.0177896
824.168	0.0177511
824.246	0.0177282
824.324	0.0176849
824.402	0.0178010
824.480	0.0177415
824.558	0.0176924
824.637	0.0177770
824.715	0.0180003
824.793	0.0179292
824.871	0.0178400
824.949	0.0179292
825.027	0.0178396
825.105	0.0179325
825.183	0.0180215
825.262	0.0178606
825.340	0.0179173
825.418	0.0179429
825.496	0.0178722
825.574	0.0179460
825.652	0.0179583
825.730	0.0178015
825.808	0.0178111
825.887	0.0178066
825.965	0.0179114
826.043	0.0180083
826.121	0.0178139
826.199	0.0178191
826.277	0.0176910
826.355	0.0178004
826.433	0.0178499
826.512	0.0178893
826.590	0.0177584
826.668	0.0177074
826.746	0.0178253
826.824	0.0178246
826.902	0.0178068
826.980	0.0179201
827.058	0.0179259
827.137	0.0178435
827.215	0.0178206
827.293	0.0178423
827.371	0.0178340
827.449	0.0178602
827.527	0.0178062
827.605	0.0179169
827.683	0.0179585
827.762	0.0178062
827.840	0.0178482
827.918	0.0178891
827.996	0.0179116
828.074	0.0177898
828.152	0.0179279
828.230	0.0179171
828.308	0.0178775
828.387	0.0178445
828.465	0.0178973
828.543	0.0179741
828.621	0.0180081
828.699	0.0179612
828.777	0.0178502
828.855	0.0179159
828.933	0.0179076
829.012	0.0177880
829.090	0.0179931
829.168	0.0180076
829.246	0.0178331
829.324	0.0179283
829.402	0.0177596
829.480	0.0179070
829.558	0.0178529
829.637	0.0178965
829.715	0.0178673
829.793	0.0178571
829.871	0.0177439
829.949	0.0177818
830.027	0.0177765
830.105	0.0178008
830.183	0.0177568
830.262	0.0177737
830.340	0.0177253
830.418	0.0177261
830.496	0.0178781
830.574	0.0178415
830.652	0.0177948
830.730	0.0178848
830.808	0.0177513
830.887	0.0177863
830.965	0.0178899
831.043	0.0178529
831.121	0.0177664
831.199	0.0179424
831.277	0.0179157
831.355	0.0179672
831.433	0.0178529
831.512	0.0177048
831.590	0.0179406
831.668	0.0180012
831.746	0.0178569
831.824	0.0178254
831.902	0.0177761
831.980	0.0177875
832.058	0.0177945
832.137	0.0177870
832.215	0.0177267
832.293	0.0177620
832.371	0.0176959
832.449	0.0176860
832.527	0.0176830
832.605	0.0177470
832.683	0.0177273
832.762	0.0178453
832.840	0.0177743
832.918	0.0177345
832.996	0.0177786
833.074	0.0178453
833.152	0.0179093
833.230	0.0177616
833.308	0.0177152
833.387	0.0179102
833.465	0.0179095
833.543	0.0179885
833.621	0.0179382
833.699	0.0178571
833.777	0.0180343
833.855	0.0179581
833.933	0.0179618
834.012	0.0179464
834.090	0.0178441
834.168	0.0179350
834.246	0.0179357
834.324	0.0179395
834.402	0.0178941
834.480	0.0179615
834.558	0.0179753
834.637	0.0180134
834.715	0.0179375
834.793	0.0178848
834.871	0.0180944
834.949	0.0179945
835.027	0.0178471
835.105	0.0180297
835.183	0.0178714
835.262	0.0178471
835.340	0.0178224
835.418	0.0178722
835.496	0.0179957
835.574	0.0180838
835.652	0.0179912
835.730	0.0178576
835.808	0.0179211
835.887	0.0180090
835.965	0.0179829
836.043	0.0179469
836.121	0.0179262
836.199	0.0178637
836.277	0.0178550
836.355	0.0178094
836.433	0.0179115
836.512	0.0178192
836.590	0.0178782
836.668	0.0179752
836.746	0.0177791
836.824	0.0176649
836.902	0.0177546
836.980	0.0178833
837.058	0.0177821
837.137	0.0178854
837.215	0.0177941
837.293	0.0176772
837.371	0.0178232
837.449	0.0177663
837.527	0.0177382
837.605	0.0178391
837.683	0.0177537
837.762	0.0176950
837.840	0.0177424
837.918	0.0178035
837.996	0.0178700
838.074	0.0176965
838.152	0.0178716
838.230	0.0176977
838.308	0.0176107
838.387	0.0177340
838.465	0.0177512
838.543	0.0177620
838.621	0.0178194
838.699	0.0177275
838.777	0.0176664
838.855	0.0176874
838.933	0.0178874
839.012	0.0179310
839.090	0.0176367
839.168	0.0176658
839.246	0.0176294
839.324	0.0177757
839.402	0.0176910
839.480	0.0176945
839.558	0.0177502
839.637	0.0176547
839.715	0.0177528
839.793	0.0176820
839.871	0.0177300
839.949	0.0178953
840.027	0.0178414
840.105	0.0177627
840.183	0.0178474
840.262	0.0178578
840.340	0.0177576
840.418	0.0177778
840.496	0.0178797
840.574	0.0179315
840.652	0.0178395
840.730	0.0178857
840.808	0.0178869
840.887	0.0178770
840.965	0.0177840
841.043	0.0179063
841.121	0.0179338
841.199	0.0178784
841.277	0.0178825
841.355	0.0177467
841.433	0.0177603
841.512	0.0179095
841.590	0.0177246
841.668	0.0177822
841.746	0.0178442
841.824	0.0179259
841.902	0.0178167
841.980	0.0177496
842.058	0.0177387
842.137	0.0177954
842.215	0.0177861
842.293	0.0178765
842.371	0.0177290
842.449	0.0177549
842.527	0.0178081
842.605	0.0178188
842.683	0.0177402
842.762	0.0177921
842.840	0.0177903
842.918	0.0177425
842.996	0.0177676
843.074	0.0178584
843.152	0.0178299
843.230	0.0178482
843.308	0.0177526
843.387	0.0178938
843.465	0.0178293
843.543	0.0177467
843.621	0.0177782
843.699	0.0178801
843.777	0.0179483
843.855	0.0179842
843.933	0.0178434
844.012	0.0179768
844.090	0.0179598
844.168	0.0179179
844.246	0.0178580
844.324	0.0178809
844.402	0.0179543
844.480	0.0179740
844.558	0.0180193
844.637	0.0180223
844.715	0.0178774
844.793	0.0179787
844.871	0.0179704
844.949	0.0178369
845.027	0.0177872
845.105	0.0180258
845.183	0.0180020
845.262	0.0180695
845.340	0.0178909
845.418	0.0179385
845.496	0.0179221
845.574	0.0178966
845.652	0.0178573
845.730	0.0178799
845.808	0.0179092
845.887	0.0178769
845.965	0.0179047
846.043	0.0178362
846.121	0.0178372
846.199	0.0177670
846.277	0.0179519
846.355	0.0178791
846.433	0.0178606
846.512	0.0178838
846.590	0.0179296
846.668	0.0177035
846.746	0.0178045
846.824	0.0178354
846.902	0.0177646
846.980	0.0179353
847.058	0.0178824
847.137	0.0177334
847.215	0.0177966
847.293	0.0177764
847.371	0.0178275
847.449	0.0178652
847.527	0.0178391
847.605	0.0178145
847.683	0.0179338
847.762	0.0178240
847.840	0.0177332
847.918	0.0178139
847.996	0.0177317
848.074	0.0177903
848.152	0.0176520
848.230	0.0177071
848.308	0.0178040
848.387	0.0178671
848.465	0.0179455
848.543	0.0178759
848.621	0.0179090
848.699	0.0178688
848.777	0.0177853
848.855	0.0178339
848.933	0.0177837
849.012	0.0179721
849.090	0.0178939
849.168	0.0178699
849.246	0.0177932
849.324	0.0178595
849.402	0.0178297
849.480	0.0178573
849.558	0.0178950
849.637	0.0178569
849.715	0.0178311
849.793	0.0178620
849.871	0.0178566
849.949	0.0178173
850.027	0.0177322
850.105	0.0177028
850.183	0.0177783
850.262	0.0177853
850.340	0.0178180
850.418	0.0177725
850.496	0.0176992
850.574	0.0177302
850.652	0.0177495
850.730	0.0176901
850.808	0.0178103
850.887	0.0177607
850.965	0.0177630
851.043	0.0176604
851.121	0.0177489
851.199	0.0177080
851.277	0.0177116
851.355	0.0176798
851.433	0.0177748
851.512	0.0177435
851.590	0.0177145
851.668	0.0176795
851.746	0.0177692
851.824	0.0175212
851.902	0.0176653
851.980	0.0177459
852.058	0.0176922
852.137	0.0177238
852.215	0.0176700
852.293	0.0176672
852.371	0.0177277
852.449	0.0177072
852.527	0.0176696
852.605	0.0177563
852.683	0.0177724
852.762	0.0178931
852.840	0.0177311
852.918	0.0177296
852.996	0.0178104
853.074	0.0180131
853.152	0.0178699
853.230	0.0178742
853.308	0.0179546
853.387	0.0177311
853.465	0.0178558
853.543	0.0178406
853.621	0.0178596
853.699	0.0178552
853.777	0.0179443
853.855	0.0178365
853.933	0.0177666
854.012	0.0178502
854.090	0.0178820
854.168	0.0177156
854.246	0.0178327
854.324	0.0177122
854.402	0.0177586
854.480	0.0177442
854.558	0.0177159
854.637	0.0176653
854.715	0.0176166
854.793	0.0175819
854.871	0.0177030
854.949	0.0177412
855.027	0.0177021
855.105	0.0176814
855.183	0.0176723
855.262	0.0176038
855.340	0.0176646
855.418	0.0176830
855.496	0.0177918
855.574	0.0178133
855.652	0.0177229
855.730	0.0177108
855.808	0.0178936
855.887	0.0179205
855.965	0.0177797
856.043	0.0177880
856.121	0.0177988
856.199	0.0179063
856.277	0.0178377
856.355	0.0177386
856.433	0.0180032
856.512	0.0177971
856.590	0.0177200
856.668	0.0178585
856.746	0.0178693
856.824	0.0179617
856.902	0.0178568
856.980	0.0179536
857.058	0.0178855
857.137	0.0180202
857.215	0.0178341
857.293	0.0178376
857.371	0.0178625
857.449	0.0179060
857.527	0.0178900
857.605	0.0176924
857.683	0.0177858
857.762	0.0178915
857.840	0.0178950
857.918	0.0177734
857.996	0.0178819
858.074	0.0177879
858.152	0.0176997
858.230	0.0176880
858.308	0.0177981
858.387	0.0178619
858.465	0.0178441
858.543	0.0177170
858.621	0.0176589
858.699	0.0177684
858.777	0.0177993
858.855	0.0176733
858.933	0.0178892
859.012	0.0177625
859.090	0.0177587
859.168	0.0177501
859.246	0.0177594
859.324	0.0177991
859.402	0.0176403
859.480	0.0177161
859.558	0.0178339
859.637	0.0177287
859.715	0.0178760
859.793	0.0176991
859.871	0.0177560
859.949	0.0176817
860.027	0.0176854
860.105	0.0178457
860.183	0.0178231
860.262	0.0177168
860.340	0.0178593
860.418	0.0176807
860.496	0.0177316
860.574	0.0178453
860.652	0.0178316
860.730	0.0178643
860.808	0.0178960
860.887	0.0179372
860.965	0.0179869
861.043	0.0177763
861.121	0.0177505
861.199	0.0179494
861.277	0.0180389
861.355	0.0179135
861.433	0.0177313
861.512	0.0178124
861.590	0.0178054
861.668	0.0177653
861.746	0.0178101
861.824	0.0178360
861.902	0.0177687
861.980	0.0177465
862.058	0.0179515
862.137	0.0178316
862.215	0.0177776
862.293	0.0177406
862.371	0.0178732
862.449	0.0178120
862.527	0.0177591
862.605	0.0178442
862.683	0.0177995
862.762	0.0178609
862.840	0.0178304
862.918	0.0177179
862.996	0.0178526
863.074	0.0178729
863.152	0.0177016
863.230	0.0178033
863.308	0.0178770
863.387	0.0179004
863.465	0.0177479
863.543	0.0178188
863.621	0.0178044
863.699	0.0176118
863.777	0.0178661
863.855	0.0177215
863.933	0.0176550
864.012	0.0178266
864.090	0.0178740
864.168	0.0177142
864.246	0.0176395
864.324	0.0177441
864.402	0.0177515
864.480	0.0178250
864.558	0.0178671
864.637	0.0177975
864.715	0.0178512
864.793	0.0177974
864.871	0.0179571
864.949	0.0178253
865.027	0.0180058
865.105	0.0179412
865.183	0.0179258
865.262	0.0178902
865.340	0.0178004
865.418	0.0178833
865.496	0.0178352
865.574	0.0179286
865.652	0.0178830
865.730	0.0178388
865.808	0.0178634
865.887	0.0180106
865.965	0.0178267
866.043	0.0178432
866.121	0.0177901
866.199	0.0178452
866.277	0.0177687
866.355	0.0179343
866.433	0.0179804
866.512	0.0180064
866.590	0.0179652
866.668	0.0178423
866.746	0.0179614
866.824	0.0179913
866.902	0.0178992
866.980	0.0179010
867.058	0.0180629
867.137	0.0179891
867.215	0.0179599
867.293	0.0180543
867.371	0.0179822
867.449	0.0180468
867.527	0.0179221
867.605	0.0180318
867.683	0.0180084
867.762	0.0179723
867.840	0.0180519
867.918	0.0180072
867.996	0.0179487
868.074	0.0179022
868.152	0.0178404
868.230	0.0179077
868.308	0.0178502
868.387	0.0178676
868.465	0.0179000
868.543	0.0178783
868.621	0.0178866
868.699	0.0178497
868.777	0.0179330
868.855	0.0180479
868.933	0.0178305
869.012	0.0178348
869.090	0.0180026
869.168	0.0179372
869.246	0.0178573
869.324	0.0180339
869.402	0.0179602
869.480	0.0178091
869.558	0.0179317
869.637	0.0179862
869.715	0.0179657
869.793	0.0178135
869.871	0.0177499
869.949	0.0178761
