06/03/2022	18:34:49	Ver.	4.1	UNKNOWN
Optical Delay	550.027179	Delta X		0.078125	Sweeps	1	Scan Rate	0/0
Coordinates	Axis 1	NaN	Axis 2	NaN	Axis 3	NaN	Axis 4	NaN	Axis 5	NaN	Axis 6	0.000000
TX Power	0.000000	RX Power	0.000000

550.027	0.0175785
550.105	0.0174886
550.183	0.0176061
550.262	0.0176631
550.340	0.0176195
550.418	0.0174775
550.496	0.0175858
550.574	0.0175014
550.652	0.0176227
550.730	0.0175932
550.808	0.0175108
550.887	0.0176134
550.965	0.0176250
551.043	0.0176456
551.121	0.0176291
551.199	0.0176050
551.277	0.0177045
551.355	0.0177366
551.433	0.0176368
551.512	0.0175838
551.590	0.0176896
551.668	0.0176290
551.746	0.0176839
551.824	0.0176664
551.902	0.0177478
551.980	0.0177271
552.058	0.0176483
552.137	0.0176737
552.215	0.0177515
552.293	0.0176656
552.371	0.0175919
552.449	0.0175429
552.527	0.0177247
552.605	0.0178047
552.683	0.0176295
552.762	0.0176685
552.840	0.0177603
552.918	0.0178117
552.996	0.0179203
553.074	0.0176523
553.152	0.0178431
553.230	0.0177352
553.308	0.0178197
553.387	0.0178674
553.465	0.0177863
553.543	0.0177210
553.621	0.0179330
553.699	0.0178973
553.777	0.0178762
553.855	0.0178085
553.933	0.0180656
554.012	0.0180123
554.090	0.0179490
554.168	0.0178572
554.246	0.0179736
554.324	0.0181091
554.402	0.0181317
554.480	0.0181081
554.558	0.0181558
554.637	0.0182091
554.715	0.0181610
554.793	0.0180782
554.871	0.0179929
554.949	0.0180737
555.027	0.0180949
555.105	0.0181155
555.183	0.0180647
555.262	0.0180238
555.340	0.0181008
555.418	0.0180115
555.496	0.0180823
555.574	0.0178403
555.652	0.0179292
555.730	0.0179315
555.808	0.0180506
555.887	0.0178466
555.965	0.0177551
556.043	0.0178724
556.121	0.0178435
556.199	0.0178934
556.277	0.0178180
556.355	0.0179106
556.433	0.0178508
556.512	0.0178264
556.590	0.0176306
556.668	0.0176929
556.746	0.0178075
556.824	0.0178935
556.902	0.0177094
556.980	0.0177148
557.058	0.0176852
557.137	0.0177985
557.215	0.0177792
557.293	0.0177567
557.371	0.0176395
557.449	0.0177241
557.527	0.0178437
557.605	0.0177453
557.683	0.0176830
557.762	0.0177400
557.840	0.0177531
557.918	0.0178039
557.996	0.0177675
558.074	0.0177298
558.152	0.0177364
558.230	0.0177340
558.308	0.0178120
558.387	0.0177728
558.465	0.0177651
558.543	0.0177991
558.621	0.0177728
558.699	0.0178114
558.777	0.0177665
558.855	0.0177435
558.933	0.0177694
559.012	0.0177822
559.090	0.0177361
559.168	0.0177647
559.246	0.0178057
559.324	0.0176908
559.402	0.0176366
559.480	0.0177935
559.558	0.0178115
559.637	0.0177494
559.715	0.0176950
559.793	0.0177061
559.871	0.0178097
559.949	0.0177224
560.027	0.0176901
560.105	0.0177654
560.183	0.0178350
560.262	0.0177384
560.340	0.0177193
560.418	0.0176862
560.496	0.0178004
560.574	0.0177617
560.652	0.0177394
560.730	0.0176955
560.808	0.0177928
560.887	0.0178299
560.965	0.0178416
561.043	0.0176599
561.121	0.0177296
561.199	0.0178078
561.277	0.0176707
561.355	0.0178800
561.433	0.0177962
561.512	0.0177347
561.590	0.0178687
561.668	0.0177546
561.746	0.0178117
561.824	0.0178048
561.902	0.0178052
561.980	0.0180018
562.058	0.0179114
562.137	0.0178358
562.215	0.0179369
562.293	0.0178307
562.371	0.0177087
562.449	0.0177332
562.527	0.0178316
562.605	0.0178792
562.683	0.0178713
562.762	0.0178550
562.840	0.0178446
562.918	0.0176812
562.996	0.0177051
563.074	0.0178840
563.152	0.0179092
563.230	0.0178962
563.308	0.0178439
563.387	0.0179350
563.465	0.0177519
563.543	0.0178776
563.621	0.0179065
563.699	0.0180153
563.777	0.0178320
563.855	0.0179867
563.933	0.0180291
564.012	0.0178591
564.090	0.0177723
564.168	0.0179228
564.246	0.0180199
564.324	0.0181264
564.402	0.0179845
564.480	0.0179093
564.558	0.0180090
564.637	0.0179176
564.715	0.0177780
564.793	0.0178334
564.871	0.0179142
564.949	0.0179594
565.027	0.0178946
565.105	0.0180238
565.183	0.0179804
565.262	0.0179793
565.340	0.0178038
565.418	0.0177385
565.496	0.0178937
565.574	0.0179184
565.652	0.0179961
565.730	0.0178180
565.808	0.0178093
565.887	0.0177841
565.965	0.0177979
566.043	0.0178371
566.121	0.0177611
566.199	0.0176736
566.277	0.0175597
566.355	0.0176722
566.433	0.0177929
566.512	0.0175368
566.590	0.0177431
566.668	0.0177496
566.746	0.0177608
566.824	0.0177288
566.902	0.0177654
566.980	0.0177841
567.058	0.0177741
567.137	0.0177576
567.215	0.0177319
567.293	0.0177709
567.371	0.0176229
567.449	0.0177058
567.527	0.0175909
567.605	0.0176343
567.683	0.0175690
567.762	0.0176231
567.840	0.0175521
567.918	0.0175443
567.996	0.0175587
568.074	0.0175616
568.152	0.0178031
568.230	0.0177227
568.308	0.0176347
568.387	0.0176528
568.465	0.0176479
568.543	0.0175880
568.621	0.0176838
568.699	0.0175842
568.777	0.0178000
568.855	0.0175773
568.933	0.0175309
569.012	0.0177013
569.090	0.0176758
569.168	0.0176823
569.246	0.0176649
569.324	0.0177480
569.402	0.0176019
569.480	0.0176341
569.558	0.0175573
569.637	0.0178101
569.715	0.0178066
569.793	0.0176928
569.871	0.0176437
569.949	0.0175835
570.027	0.0177229
570.105	0.0179079
570.183	0.0177122
570.262	0.0176990
570.340	0.0177443
570.418	0.0176047
570.496	0.0176696
570.574	0.0176011
570.652	0.0177682
570.730	0.0177669
570.808	0.0176987
570.887	0.0177275
570.965	0.0175711
571.043	0.0175989
571.121	0.0177550
571.199	0.0176700
571.277	0.0176345
571.355	0.0177302
571.433	0.0177213
571.512	0.0176600
571.590	0.0177776
571.668	0.0177832
571.746	0.0175882
571.824	0.0176699
571.902	0.0176968
571.980	0.0177274
572.058	0.0177332
572.137	0.0177509
572.215	0.0177964
572.293	0.0177299
572.371	0.0177897
572.449	0.0177438
572.527	0.0177534
572.605	0.0177750
572.683	0.0177711
572.762	0.0176881
572.840	0.0177438
572.918	0.0177401
572.996	0.0176325
573.074	0.0177455
573.152	0.0177526
573.230	0.0178934
573.308	0.0178507
573.387	0.0177777
573.465	0.0176812
573.543	0.0177943
573.621	0.0179509
573.699	0.0178501
573.777	0.0178447
573.855	0.0177136
573.933	0.0177322
574.012	0.0177593
574.090	0.0176807
574.168	0.0177781
574.246	0.0175922
574.324	0.0177819
574.402	0.0177960
574.480	0.0178806
574.558	0.0176915
574.637	0.0177485
574.715	0.0178558
574.793	0.0179725
574.871	0.0178219
574.949	0.0177794
575.027	0.0178478
575.105	0.0179263
575.183	0.0178510
575.262	0.0177725
575.340	0.0177560
575.418	0.0178150
575.496	0.0177316
575.574	0.0177686
575.652	0.0179456
575.730	0.0179060
575.808	0.0177579
575.887	0.0176624
575.965	0.0177982
576.043	0.0177365
576.121	0.0177499
576.199	0.0177984
576.277	0.0177699
576.355	0.0178053
576.433	0.0177916
576.512	0.0177512
576.590	0.0177708
576.668	0.0176997
576.746	0.0178033
576.824	0.0176873
576.902	0.0177908
576.980	0.0178520
577.058	0.0178019
577.137	0.0177573
577.215	0.0178792
577.293	0.0177975
577.371	0.0178302
577.449	0.0179195
577.527	0.0178213
577.605	0.0178242
577.683	0.0178070
577.762	0.0178739
577.840	0.0178125
577.918	0.0176741
577.996	0.0178088
578.074	0.0178365
578.152	0.0178165
578.230	0.0178333
578.308	0.0177161
578.387	0.0177582
578.465	0.0178082
578.543	0.0178748
578.621	0.0178361
578.699	0.0177306
578.777	0.0177666
578.855	0.0178500
578.933	0.0178495
579.012	0.0177824
579.090	0.0177726
579.168	0.0178136
579.246	0.0179386
579.324	0.0177194
579.402	0.0178089
579.480	0.0177718
579.558	0.0177132
579.637	0.0178918
579.715	0.0178407
579.793	0.0178497
579.871	0.0177753
579.949	0.0177647
580.027	0.0178075
580.105	0.0177728
580.183	0.0179262
580.262	0.0177284
580.340	0.0177491
580.418	0.0177882
580.496	0.0178671
580.574	0.0177922
580.652	0.0177632
580.730	0.0178905
580.808	0.0175943
580.887	0.0178613
580.965	0.0177083
581.043	0.0179140
581.121	0.0177180
581.199	0.0177100
581.277	0.0177445
581.355	0.0177293
581.433	0.0177860
581.512	0.0177792
581.590	0.0178018
581.668	0.0177364
581.746	0.0178536
581.824	0.0178723
581.902	0.0177670
581.980	0.0177467
582.058	0.0177852
582.137	0.0177379
582.215	0.0177504
582.293	0.0178135
582.371	0.0178608
582.449	0.0178252
582.527	0.0178242
582.605	0.0178027
582.683	0.0176542
582.762	0.0179167
582.840	0.0179077
582.918	0.0178483
582.996	0.0179146
583.074	0.0178235
583.152	0.0178950
583.230	0.0178365
583.308	0.0178224
583.387	0.0178792
583.465	0.0178094
583.543	0.0177532
583.621	0.0178574
583.699	0.0177966
583.777	0.0177597
583.855	0.0178306
583.933	0.0177714
584.012	0.0177754
584.090	0.0179156
584.168	0.0176767
584.246	0.0178618
584.324	0.0178143
584.402	0.0177968
584.480	0.0178713
584.558	0.0179578
584.637	0.0178445
584.715	0.0177661
584.793	0.0177533
584.871	0.0178773
584.949	0.0177935
585.027	0.0178621
585.105	0.0180361
585.183	0.0180131
585.262	0.0179071
585.340	0.0178542
585.418	0.0178854
585.496	0.0178754
585.574	0.0179491
585.652	0.0179737
585.730	0.0179568
585.808	0.0178808
585.887	0.0178893
585.965	0.0178914
586.043	0.0179140
586.121	0.0177976
586.199	0.0178113
586.277	0.0179057
586.355	0.0179110
586.433	0.0179099
586.512	0.0178096
586.590	0.0179835
586.668	0.0177609
586.746	0.0178658
586.824	0.0178079
586.902	0.0179181
586.980	0.0179411
587.058	0.0177570
587.137	0.0176936
587.215	0.0178631
587.293	0.0179443
587.371	0.0178784
587.449	0.0178343
587.527	0.0178257
587.605	0.0179015
587.683	0.0177454
587.762	0.0177225
587.840	0.0178416
587.918	0.0179153
587.996	0.0178377
588.074	0.0178484
588.152	0.0177509
588.230	0.0178796
588.308	0.0178387
588.387	0.0177082
588.465	0.0177635
588.543	0.0178005
588.621	0.0176872
588.699	0.0177370
588.777	0.0176476
588.855	0.0177940
588.933	0.0177103
589.012	0.0178462
589.090	0.0177146
589.168	0.0177190
589.246	0.0177458
589.324	0.0177203
589.402	0.0177239
589.480	0.0177381
589.558	0.0177494
589.637	0.0176551
589.715	0.0176687
589.793	0.0177261
589.871	0.0178412
589.949	0.0177036
590.027	0.0176527
590.105	0.0176658
590.183	0.0176793
590.262	0.0177283
590.340	0.0177326
590.418	0.0177637
590.496	0.0177553
590.574	0.0176778
590.652	0.0177299
590.730	0.0176952
590.808	0.0178487
590.887	0.0177650
590.965	0.0176811
591.043	0.0178275
591.121	0.0177751
591.199	0.0177230
591.277	0.0177112
591.355	0.0177699
591.433	0.0178359
591.512	0.0177825
591.590	0.0177919
591.668	0.0177219
591.746	0.0178746
591.824	0.0178791
591.902	0.0177658
591.980	0.0177737
592.058	0.0179456
592.137	0.0179857
592.215	0.0178561
592.293	0.0178344
592.371	0.0178814
592.449	0.0179349
592.527	0.0179049
592.605	0.0178503
592.683	0.0178577
592.762	0.0178156
592.840	0.0177045
592.918	0.0178000
592.996	0.0178249
593.074	0.0178860
593.152	0.0179906
593.230	0.0177621
593.308	0.0176851
593.387	0.0177043
593.465	0.0178650
593.543	0.0179731
593.621	0.0178106
593.699	0.0178755
593.777	0.0177028
593.855	0.0177299
593.933	0.0178485
594.012	0.0177999
594.090	0.0178322
594.168	0.0177260
594.246	0.0177552
594.324	0.0178250
594.402	0.0178749
594.480	0.0178098
594.558	0.0177040
594.637	0.0177180
594.715	0.0178326
594.793	0.0176897
594.871	0.0177090
594.949	0.0177609
595.027	0.0177818
595.105	0.0177164
595.183	0.0178345
595.262	0.0179149
595.340	0.0178318
595.418	0.0176666
595.496	0.0176598
595.574	0.0177453
595.652	0.0178013
595.730	0.0178158
595.808	0.0176630
595.887	0.0176688
595.965	0.0178167
596.043	0.0177092
596.121	0.0177334
596.199	0.0178301
596.277	0.0178372
596.355	0.0176385
596.433	0.0176355
596.512	0.0177775
596.590	0.0176469
596.668	0.0177586
596.746	0.0177842
596.824	0.0176772
596.902	0.0177340
596.980	0.0176919
597.058	0.0177872
597.137	0.0176945
597.215	0.0176553
597.293	0.0177354
597.371	0.0176332
597.449	0.0176499
597.527	0.0177852
597.605	0.0177454
597.683	0.0175606
597.762	0.0177135
597.840	0.0176819
597.918	0.0175872
597.996	0.0175575
598.074	0.0175943
598.152	0.0176807
598.230	0.0176867
598.308	0.0175333
598.387	0.0175658
598.465	0.0177004
598.543	0.0175977
598.621	0.0176978
598.699	0.0176296
598.777	0.0177306
598.855	0.0175780
598.933	0.0176627
599.012	0.0175529
599.090	0.0176608
599.168	0.0176968
599.246	0.0176399
599.324	0.0176659
599.402	0.0176421
599.480	0.0176501
599.558	0.0176500
599.637	0.0176166
599.715	0.0176534
599.793	0.0175642
599.871	0.0177756
599.949	0.0177035
600.027	0.0177778
600.105	0.0176781
600.183	0.0177616
600.262	0.0176196
600.340	0.0177166
600.418	0.0175551
600.496	0.0177736
600.574	0.0176106
600.652	0.0176028
600.730	0.0176777
600.808	0.0176381
600.887	0.0175268
600.965	0.0176818
601.043	0.0177152
601.121	0.0176630
601.199	0.0177275
601.277	0.0177063
601.355	0.0177001
601.433	0.0177996
601.512	0.0176082
601.590	0.0176467
601.668	0.0178618
601.746	0.0177191
601.824	0.0176920
601.902	0.0177878
601.980	0.0178049
602.058	0.0177761
602.137	0.0176582
602.215	0.0177056
602.293	0.0177456
602.371	0.0178480
602.449	0.0178822
602.527	0.0178041
602.605	0.0176894
602.683	0.0177153
602.762	0.0178031
602.840	0.0178036
602.918	0.0178394
602.996	0.0178368
603.074	0.0178397
603.152	0.0179427
603.230	0.0178551
603.308	0.0178184
603.387	0.0178039
603.465	0.0179223
603.543	0.0178021
603.621	0.0178320
603.699	0.0178131
603.777	0.0179044
603.855	0.0178910
603.933	0.0177991
604.012	0.0178196
604.090	0.0179115
604.168	0.0178960
604.246	0.0179284
604.324	0.0178270
604.402	0.0177633
604.480	0.0178233
604.558	0.0178850
604.637	0.0177161
604.715	0.0178574
604.793	0.0179389
604.871	0.0177391
604.949	0.0177769
605.027	0.0178098
605.105	0.0177770
605.183	0.0178165
605.262	0.0178629
605.340	0.0178580
605.418	0.0179185
605.496	0.0177346
605.574	0.0176913
605.652	0.0177975
605.730	0.0179047
605.808	0.0177778
605.887	0.0178075
605.965	0.0177784
606.043	0.0178465
606.121	0.0178065
606.199	0.0177291
606.277	0.0178489
606.355	0.0177758
606.433	0.0177529
606.512	0.0177911
606.590	0.0178899
606.668	0.0176299
606.746	0.0176327
606.824	0.0177647
606.902	0.0178339
606.980	0.0178210
607.058	0.0178289
607.137	0.0177631
607.215	0.0177779
607.293	0.0176937
607.371	0.0177020
607.449	0.0176929
607.527	0.0176855
607.605	0.0176971
607.683	0.0176586
607.762	0.0177316
607.840	0.0177889
607.918	0.0176770
607.996	0.0176836
608.074	0.0177758
608.152	0.0177461
608.230	0.0177328
608.308	0.0175425
608.387	0.0176929
608.465	0.0175805
608.543	0.0176864
608.621	0.0177682
608.699	0.0176596
608.777	0.0177676
608.855	0.0176949
608.933	0.0177647
609.012	0.0175733
609.090	0.0176778
609.168	0.0176888
609.246	0.0176552
609.324	0.0176945
609.402	0.0177425
609.480	0.0177711
609.558	0.0177683
609.637	0.0177483
609.715	0.0177324
609.793	0.0177631
609.871	0.0177537
609.949	0.0178226
610.027	0.0176610
610.105	0.0176489
610.183	0.0176625
610.262	0.0178069
610.340	0.0176907
610.418	0.0177460
610.496	0.0176279
610.574	0.0178710
610.652	0.0176974
610.730	0.0176723
610.808	0.0176763
610.887	0.0176504
610.965	0.0177848
611.043	0.0178970
611.121	0.0178237
611.199	0.0178139
611.277	0.0177486
611.355	0.0176534
611.433	0.0178472
611.512	0.0177318
611.590	0.0178019
611.668	0.0178055
611.746	0.0177011
611.824	0.0178415
611.902	0.0176756
611.980	0.0178099
612.058	0.0177727
612.137	0.0177265
612.215	0.0178529
612.293	0.0177551
612.371	0.0177062
612.449	0.0178160
612.527	0.0178281
612.605	0.0176862
612.683	0.0177921
612.762	0.0177348
612.840	0.0179435
612.918	0.0178931
612.996	0.0178476
613.074	0.0177315
613.152	0.0177458
613.230	0.0177926
613.308	0.0178851
613.387	0.0176948
613.465	0.0176608
613.543	0.0176567
613.621	0.0176563
613.699	0.0178204
613.777	0.0177980
613.855	0.0177326
613.933	0.0176826
614.012	0.0178927
614.090	0.0177994
614.168	0.0177931
614.246	0.0176967
614.324	0.0177261
614.402	0.0177516
614.480	0.0179875
614.558	0.0176823
614.637	0.0177621
614.715	0.0177532
614.793	0.0177947
614.871	0.0177742
614.949	0.0178163
615.027	0.0179465
615.105	0.0177699
615.183	0.0177792
615.262	0.0177853
615.340	0.0177756
615.418	0.0179113
615.496	0.0178320
615.574	0.0178964
615.652	0.0179802
615.730	0.0177142
615.808	0.0177209
615.887	0.0177239
615.965	0.0177628
616.043	0.0178863
616.121	0.0177705
616.199	0.0178480
616.277	0.0179269
616.355	0.0177100
616.433	0.0177086
616.512	0.0179176
616.590	0.0178085
616.668	0.0177666
616.746	0.0177728
616.824	0.0177033
616.902	0.0177684
616.980	0.0177954
617.058	0.0178603
617.137	0.0178090
617.215	0.0176632
617.293	0.0177919
617.371	0.0177105
617.449	0.0177864
617.527	0.0178622
617.605	0.0176257
617.683	0.0176906
617.762	0.0177710
617.840	0.0177407
617.918	0.0177970
617.996	0.0176500
618.074	0.0177856
618.152	0.0177431
618.230	0.0176340
618.308	0.0177631
618.387	0.0177003
618.465	0.0177482
618.543	0.0176781
618.621	0.0176047
618.699	0.0177116
618.777	0.0176241
618.855	0.0177347
618.933	0.0177289
619.012	0.0176238
619.090	0.0177087
619.168	0.0177190
619.246	0.0175732
619.324	0.0175941
619.402	0.0176630
619.480	0.0177040
619.558	0.0176961
619.637	0.0176989
619.715	0.0177299
619.793	0.0176554
619.871	0.0176389
619.949	0.0176627
620.027	0.0177589
620.105	0.0178360
620.183	0.0176904
620.262	0.0176447
620.340	0.0178751
620.418	0.0175655
620.496	0.0176907
620.574	0.0177856
620.652	0.0176696
620.730	0.0179237
620.808	0.0178304
620.887	0.0176307
620.965	0.0178084
621.043	0.0177180
621.121	0.0177946
621.199	0.0178130
621.277	0.0178144
621.355	0.0177622
621.433	0.0178338
621.512	0.0176728
621.590	0.0176704
621.668	0.0178233
621.746	0.0178397
621.824	0.0177851
621.902	0.0176975
621.980	0.0177768
622.058	0.0177760
622.137	0.0177962
622.215	0.0177823
622.293	0.0177724
622.371	0.0177291
622.449	0.0177502
622.527	0.0178339
622.605	0.0176930
622.683	0.0178791
622.762	0.0177358
622.840	0.0177876
622.918	0.0177866
622.996	0.0176592
623.074	0.0176633
623.152	0.0176830
623.230	0.0177345
623.308	0.0178384
623.387	0.0176505
623.465	0.0177804
623.543	0.0176577
623.621	0.0175967
623.699	0.0176905
623.777	0.0176791
623.855	0.0177087
623.933	0.0176090
624.012	0.0176756
624.090	0.0177419
624.168	0.0177863
624.246	0.0176950
624.324	0.0177273
624.402	0.0176721
624.480	0.0177043
624.558	0.0176785
624.637	0.0176089
624.715	0.0176988
624.793	0.0176643
624.871	0.0176031
624.949	0.0178601
625.027	0.0176732
625.105	0.0176905
625.183	0.0177015
625.262	0.0177261
625.340	0.0176727
625.418	0.0176978
625.496	0.0176110
625.574	0.0177918
625.652	0.0178201
625.730	0.0177410
625.808	0.0177077
625.887	0.0176641
625.965	0.0176706
626.043	0.0175919
626.121	0.0177338
626.199	0.0177399
626.277	0.0176538
626.355	0.0177136
626.433	0.0176807
626.512	0.0177389
626.590	0.0178857
626.668	0.0177147
626.746	0.0176734
626.824	0.0177561
626.902	0.0177506
626.980	0.0178463
627.058	0.0176420
627.137	0.0177178
627.215	0.0177982
627.293	0.0178063
627.371	0.0178423
627.449	0.0176734
627.527	0.0177145
627.605	0.0178505
627.683	0.0176315
627.762	0.0177045
627.840	0.0177769
627.918	0.0176481
627.996	0.0177788
628.074	0.0178827
628.152	0.0176931
628.230	0.0177146
628.308	0.0177792
628.387	0.0177637
628.465	0.0177437
628.543	0.0177460
628.621	0.0177490
628.699	0.0177699
628.777	0.0178036
628.855	0.0176762
628.933	0.0175666
629.012	0.0176358
629.090	0.0177144
629.168	0.0177583
629.246	0.0177728
629.324	0.0177283
629.402	0.0175580
629.480	0.0176302
629.558	0.0176743
629.637	0.0177415
629.715	0.0176532
629.793	0.0178342
629.871	0.0177228
629.949	0.0176418
630.027	0.0177243
630.105	0.0176682
630.183	0.0177497
630.262	0.0176745
630.340	0.0177251
630.418	0.0177348
630.496	0.0177180
630.574	0.0175932
630.652	0.0178564
630.730	0.0177650
630.808	0.0177756
630.887	0.0177299
630.965	0.0176823
631.043	0.0177218
631.121	0.0178857
631.199	0.0177280
631.277	0.0177637
631.355	0.0177832
631.433	0.0178021
631.512	0.0176777
631.590	0.0175774
631.668	0.0176070
631.746	0.0177257
631.824	0.0177770
631.902	0.0178575
631.980	0.0177013
632.058	0.0179086
632.137	0.0177854
632.215	0.0176041
632.293	0.0176584
632.371	0.0178931
632.449	0.0178235
632.527	0.0176892
632.605	0.0177715
632.683	0.0177158
632.762	0.0177722
632.840	0.0177673
632.918	0.0177733
632.996	0.0176752
633.074	0.0177639
633.152	0.0176786
633.230	0.0178592
633.308	0.0177287
633.387	0.0177373
633.465	0.0178712
633.543	0.0177534
633.621	0.0177363
633.699	0.0178018
633.777	0.0177871
633.855	0.0178619
633.933	0.0177534
634.012	0.0177341
634.090	0.0176964
634.168	0.0178547
634.246	0.0178339
634.324	0.0178464
634.402	0.0178082
634.480	0.0177693
634.558	0.0177353
634.637	0.0178862
634.715	0.0179248
634.793	0.0177760
634.871	0.0177813
634.949	0.0178535
635.027	0.0179413
635.105	0.0179076
635.183	0.0180117
635.262	0.0179149
635.340	0.0178609
635.418	0.0179226
635.496	0.0178117
635.574	0.0178378
635.652	0.0178968
635.730	0.0178615
635.808	0.0178884
635.887	0.0178490
635.965	0.0178314
636.043	0.0179561
636.121	0.0178645
636.199	0.0178122
636.277	0.0178054
636.355	0.0179380
636.433	0.0178471
636.512	0.0179677
636.590	0.0177579
636.668	0.0178133
636.746	0.0179411
636.824	0.0179636
636.902	0.0179171
636.980	0.0178720
637.058	0.0178059
637.137	0.0178840
637.215	0.0178851
637.293	0.0179095
637.371	0.0177798
637.449	0.0178979
637.527	0.0179559
637.605	0.0177656
637.683	0.0178537
637.762	0.0178471
637.840	0.0177666
637.918	0.0178629
637.996	0.0176923
638.074	0.0177740
638.152	0.0178954
638.230	0.0177906
638.308	0.0178341
638.387	0.0178045
638.465	0.0178184
638.543	0.0178829
638.621	0.0177499
638.699	0.0177572
638.777	0.0176562
638.855	0.0179191
638.933	0.0180150
639.012	0.0178418
639.090	0.0177943
639.168	0.0178070
639.246	0.0178078
639.324	0.0180480
639.402	0.0179872
639.480	0.0178470
639.558	0.0179042
639.637	0.0179057
639.715	0.0177261
639.793	0.0178550
639.871	0.0179458
639.949	0.0178128
640.027	0.0178384
640.105	0.0178667
640.183	0.0178992
640.262	0.0177533
640.340	0.0178514
640.418	0.0178982
640.496	0.0179670
640.574	0.0179506
640.652	0.0178359
640.730	0.0178781
640.808	0.0178745
640.887	0.0178594
640.965	0.0177766
641.043	0.0177705
641.121	0.0179441
641.199	0.0178777
641.277	0.0178519
641.355	0.0179034
641.433	0.0177264
641.512	0.0178220
641.590	0.0179415
641.668	0.0177621
641.746	0.0176512
641.824	0.0177290
641.902	0.0176376
641.980	0.0178237
642.058	0.0178198
642.137	0.0176783
642.215	0.0178387
642.293	0.0178794
642.371	0.0177550
642.449	0.0178909
642.527	0.0178663
642.605	0.0177792
642.683	0.0176269
642.762	0.0177291
642.840	0.0177190
642.918	0.0177293
642.996	0.0176821
643.074	0.0177485
643.152	0.0176124
643.230	0.0178261
643.308	0.0178204
643.387	0.0176963
643.465	0.0178113
643.543	0.0176703
643.621	0.0176775
643.699	0.0177706
643.777	0.0178459
643.855	0.0178409
643.933	0.0177048
644.012	0.0177528
644.090	0.0176398
644.168	0.0176697
644.246	0.0176903
644.324	0.0176232
644.402	0.0178023
644.480	0.0177454
644.558	0.0177077
644.637	0.0177741
644.715	0.0177686
644.793	0.0177449
644.871	0.0176938
644.949	0.0176443
645.027	0.0175661
645.105	0.0177837
645.183	0.0177537
645.262	0.0176088
645.340	0.0176411
645.418	0.0176987
645.496	0.0177001
645.574	0.0176717
645.652	0.0176478
645.730	0.0177149
645.808	0.0178496
645.887	0.0176760
645.965	0.0177753
646.043	0.0176440
646.121	0.0176997
646.199	0.0176201
646.277	0.0177239
646.355	0.0178887
646.433	0.0178115
646.512	0.0177502
646.590	0.0178320
646.668	0.0177721
646.746	0.0178146
646.824	0.0176956
646.902	0.0178408
646.980	0.0177739
647.058	0.0179228
647.137	0.0178562
647.215	0.0176183
647.293	0.0178040
647.371	0.0177538
647.449	0.0177889
647.527	0.0177496
647.605	0.0178769
647.683	0.0178441
647.762	0.0177520
647.840	0.0176660
647.918	0.0178414
647.996	0.0178258
648.074	0.0178012
648.152	0.0178311
648.230	0.0177554
648.308	0.0179207
648.387	0.0177946
648.465	0.0177539
648.543	0.0178185
648.621	0.0176701
648.699	0.0177730
648.777	0.0177953
648.855	0.0177676
648.933	0.0178229
649.012	0.0177721
649.090	0.0179155
649.168	0.0178445
649.246	0.0179147
649.324	0.0177657
649.402	0.0178566
649.480	0.0179980
649.558	0.0178564
649.637	0.0177264
649.715	0.0178387
649.793	0.0178459
649.871	0.0178629
649.949	0.0179533
650.027	0.0179359
650.105	0.0178636
650.183	0.0177719
650.262	0.0178524
650.340	0.0178871
650.418	0.0178214
650.496	0.0178869
650.574	0.0177856
650.652	0.0177743
650.730	0.0179948
650.808	0.0178661
650.887	0.0178313
650.965	0.0178425
651.043	0.0178432
651.121	0.0178922
651.199	0.0179269
651.277	0.0178326
651.355	0.0178430
651.433	0.0179039
651.512	0.0178988
651.590	0.0178915
651.668	0.0178671
651.746	0.0178137
651.824	0.0178101
651.902	0.0178661
651.980	0.0179436
652.058	0.0178482
652.137	0.0179324
652.215	0.0178823
652.293	0.0178677
652.371	0.0179256
652.449	0.0178269
652.527	0.0178032
652.605	0.0179610
652.683	0.0178901
652.762	0.0179464
652.840	0.0179679
652.918	0.0179327
652.996	0.0177490
653.074	0.0177568
653.152	0.0178094
653.230	0.0178621
653.308	0.0178252
653.387	0.0178565
653.465	0.0178999
653.543	0.0178732
653.621	0.0179080
653.699	0.0178458
653.777	0.0178237
653.855	0.0177635
653.933	0.0177857
654.012	0.0178330
654.090	0.0179068
654.168	0.0178267
654.246	0.0177763
654.324	0.0178744
654.402	0.0177773
654.480	0.0176728
654.558	0.0179952
654.637	0.0178988
654.715	0.0178854
654.793	0.0177560
654.871	0.0178794
654.949	0.0178535
655.027	0.0178376
655.105	0.0178206
655.183	0.0177721
655.262	0.0177911
655.340	0.0179033
655.418	0.0177959
655.496	0.0176961
655.574	0.0179390
655.652	0.0178532
655.730	0.0178718
655.808	0.0178489
655.887	0.0177784
655.965	0.0178275
656.043	0.0178441
656.121	0.0177602
656.199	0.0177700
656.277	0.0178745
656.355	0.0179341
656.433	0.0177627
656.512	0.0177567
656.590	0.0180017
656.668	0.0178276
656.746	0.0177875
656.824	0.0179324
656.902	0.0180149
656.980	0.0180997
657.058	0.0179670
657.137	0.0178326
657.215	0.0179034
657.293	0.0178546
657.371	0.0178585
657.449	0.0178574
657.527	0.0179089
657.605	0.0179499
657.683	0.0178902
657.762	0.0179989
657.840	0.0179708
657.918	0.0178564
657.996	0.0179926
658.074	0.0178918
658.152	0.0178838
658.230	0.0179613
658.308	0.0179746
658.387	0.0178395
658.465	0.0179156
658.543	0.0178442
658.621	0.0179668
658.699	0.0177825
658.777	0.0179498
658.855	0.0178276
658.933	0.0177731
659.012	0.0177450
659.090	0.0179639
659.168	0.0178564
659.246	0.0178041
659.324	0.0177865
659.402	0.0177906
659.480	0.0178685
659.558	0.0178058
659.637	0.0177470
659.715	0.0178840
659.793	0.0177557
659.871	0.0178763
659.949	0.0179037
660.027	0.0180116
660.105	0.0179099
660.183	0.0178539
660.262	0.0177822
660.340	0.0178647
660.418	0.0179479
660.496	0.0178812
660.574	0.0178861
660.652	0.0179337
660.730	0.0179973
660.808	0.0179108
660.887	0.0178941
660.965	0.0178828
661.043	0.0179285
661.121	0.0178768
661.199	0.0178077
661.277	0.0179002
661.355	0.0178178
661.433	0.0178792
661.512	0.0178649
661.590	0.0178139
661.668	0.0178093
661.746	0.0176969
661.824	0.0177833
661.902	0.0176984
661.980	0.0177575
662.058	0.0179232
662.137	0.0178390
662.215	0.0179586
662.293	0.0176868
662.371	0.0176746
662.449	0.0179446
662.527	0.0178014
662.605	0.0177734
662.683	0.0179111
662.762	0.0178293
662.840	0.0177857
662.918	0.0176977
662.996	0.0176811
663.074	0.0177342
663.152	0.0178387
663.230	0.0178098
663.308	0.0178545
663.387	0.0177796
663.465	0.0177402
663.543	0.0178136
663.621	0.0177523
663.699	0.0178005
663.777	0.0178587
663.855	0.0176934
663.933	0.0177220
664.012	0.0177247
664.090	0.0177596
664.168	0.0177450
664.246	0.0176316
664.324	0.0176287
664.402	0.0177176
664.480	0.0177247
664.558	0.0176732
664.637	0.0178508
664.715	0.0176678
664.793	0.0178165
664.871	0.0178685
664.949	0.0176136
665.027	0.0178730
665.105	0.0178751
665.183	0.0178481
665.262	0.0178112
665.340	0.0178230
665.418	0.0177000
665.496	0.0177354
665.574	0.0177298
665.652	0.0177990
665.730	0.0176859
665.808	0.0178100
665.887	0.0178049
665.965	0.0176973
666.043	0.0176518
666.121	0.0178264
666.199	0.0177920
666.277	0.0178133
666.355	0.0176043
666.433	0.0176785
666.512	0.0177160
666.590	0.0175316
666.668	0.0175973
666.746	0.0176624
666.824	0.0175172
666.902	0.0175484
666.980	0.0176031
667.058	0.0175375
667.137	0.0176062
667.215	0.0174915
667.293	0.0175814
667.371	0.0175524
667.449	0.0175546
667.527	0.0177873
667.605	0.0177608
667.683	0.0176670
667.762	0.0177020
667.840	0.0177078
667.918	0.0178593
667.996	0.0178828
668.074	0.0178778
668.152	0.0177287
668.230	0.0179282
668.308	0.0179731
668.387	0.0178422
668.465	0.0178503
668.543	0.0177291
668.621	0.0177649
668.699	0.0178861
668.777	0.0176157
668.855	0.0177048
668.933	0.0176804
669.012	0.0177888
669.090	0.0176699
669.168	0.0177094
669.246	0.0175459
669.324	0.0176336
669.402	0.0174269
669.480	0.0174009
669.558	0.0176251
669.637	0.0175143
669.715	0.0174142
669.793	0.0175330
669.871	0.0175056
669.949	0.0174165
670.027	0.0174538
670.105	0.0174818
670.183	0.0176437
670.262	0.0175427
670.340	0.0175109
670.418	0.0175224
670.496	0.0175726
670.574	0.0176534
670.652	0.0177145
670.730	0.0176785
670.808	0.0176912
670.887	0.0176064
670.965	0.0178117
671.043	0.0177392
671.121	0.0178367
671.199	0.0176060
671.277	0.0178687
671.355	0.0178212
671.433	0.0179037
671.512	0.0178897
671.590	0.0180289
671.668	0.0180949
671.746	0.0181459
671.824	0.0180691
671.902	0.0179995
671.980	0.0178812
672.058	0.0179811
672.137	0.0179810
672.215	0.0180775
672.293	0.0179890
672.371	0.0179701
672.449	0.0179240
672.527	0.0180179
672.605	0.0178326
672.683	0.0179910
672.762	0.0178345
672.840	0.0177563
672.918	0.0176608
672.996	0.0178307
673.074	0.0176449
673.152	0.0176270
673.230	0.0177187
673.308	0.0175985
673.387	0.0175704
673.465	0.0174489
673.543	0.0174753
673.621	0.0173762
673.699	0.0173822
673.777	0.0174703
673.855	0.0173837
673.933	0.0173632
674.012	0.0172858
674.090	0.0173289
674.168	0.0173527
674.246	0.0174056
674.324	0.0172882
674.402	0.0173068
674.480	0.0174369
674.558	0.0174714
674.637	0.0174714
674.715	0.0175117
674.793	0.0175864
674.871	0.0174927
674.949	0.0175528
675.027	0.0176369
675.105	0.0177736
675.183	0.0177324
675.262	0.0177709
675.340	0.0177381
675.418	0.0175908
675.496	0.0177427
675.574	0.0178595
675.652	0.0178457
675.730	0.0179639
675.808	0.0178458
675.887	0.0179966
675.965	0.0178982
676.043	0.0179092
676.121	0.0178860
676.199	0.0178492
676.277	0.0179413
676.355	0.0178669
676.433	0.0179019
676.512	0.0178186
676.590	0.0179297
676.668	0.0178380
676.746	0.0177560
676.824	0.0176852
676.902	0.0177283
676.980	0.0177322
677.058	0.0176285
677.137	0.0176227
677.215	0.0176912
677.293	0.0175475
677.371	0.0176222
677.449	0.0177003
677.527	0.0177518
677.605	0.0176774
677.683	0.0176835
677.762	0.0177364
677.840	0.0177934
677.918	0.0177419
677.996	0.0176822
678.074	0.0177909
678.152	0.0179940
678.230	0.0178663
678.308	0.0179228
678.387	0.0179323
678.465	0.0179398
678.543	0.0178477
678.621	0.0177885
678.699	0.0178761
678.777	0.0179144
678.855	0.0179195
678.933	0.0178468
679.012	0.0176785
679.090	0.0178479
679.168	0.0178294
679.246	0.0176204
679.324	0.0176608
679.402	0.0176023
679.480	0.0177245
679.558	0.0177131
679.637	0.0176653
679.715	0.0174441
679.793	0.0176058
679.871	0.0175324
679.949	0.0176203
680.027	0.0176891
680.105	0.0176549
680.183	0.0177613
680.262	0.0176867
680.340	0.0177326
680.418	0.0176024
680.496	0.0176456
680.574	0.0178298
680.652	0.0176736
680.730	0.0177331
680.808	0.0177804
680.887	0.0177353
680.965	0.0176941
681.043	0.0176625
681.121	0.0177090
681.199	0.0177763
681.277	0.0178369
681.355	0.0177094
681.433	0.0177927
681.512	0.0178668
681.590	0.0178594
681.668	0.0179931
681.746	0.0179998
681.824	0.0180396
681.902	0.0179283
681.980	0.0181400
682.058	0.0179511
682.137	0.0179299
682.215	0.0179542
682.293	0.0179154
682.371	0.0179631
682.449	0.0179616
682.527	0.0178799
682.605	0.0178954
682.683	0.0177361
682.762	0.0178979
682.840	0.0178569
682.918	0.0178332
682.996	0.0179349
683.074	0.0178629
683.152	0.0177207
683.230	0.0178135
683.308	0.0177675
683.387	0.0178507
683.465	0.0177377
683.543	0.0177922
683.621	0.0177194
683.699	0.0176273
683.777	0.0176514
683.855	0.0176888
683.933	0.0175928
684.012	0.0175551
684.090	0.0176191
684.168	0.0175047
684.246	0.0175364
684.324	0.0176482
684.402	0.0175292
684.480	0.0174779
684.558	0.0175549
684.637	0.0176202
684.715	0.0174906
684.793	0.0175265
684.871	0.0174636
684.949	0.0175888
685.027	0.0174980
685.105	0.0175450
685.183	0.0175836
685.262	0.0177018
685.340	0.0176637
685.418	0.0175447
685.496	0.0177531
685.574	0.0175954
685.652	0.0176387
685.730	0.0177916
685.808	0.0176052
685.887	0.0177718
685.965	0.0178247
686.043	0.0178526
686.121	0.0178819
686.199	0.0179511
686.277	0.0179292
686.355	0.0179080
686.433	0.0178892
686.512	0.0177586
686.590	0.0178290
686.668	0.0178892
686.746	0.0178131
686.824	0.0177752
686.902	0.0176959
686.980	0.0180371
687.058	0.0180367
687.137	0.0178481
687.215	0.0178610
687.293	0.0177676
687.371	0.0177400
687.449	0.0176381
687.527	0.0176236
687.605	0.0175692
687.683	0.0175566
687.762	0.0175082
687.840	0.0174831
687.918	0.0175191
687.996	0.0176205
688.074	0.0175764
688.152	0.0176148
688.230	0.0176541
688.308	0.0174738
688.387	0.0176290
688.465	0.0176580
688.543	0.0177426
688.621	0.0177141
688.699	0.0176804
688.777	0.0177286
688.855	0.0177014
688.933	0.0177850
689.012	0.0177889
689.090	0.0177381
689.168	0.0177582
689.246	0.0177868
689.324	0.0176856
689.402	0.0177806
689.480	0.0177094
689.558	0.0177991
689.637	0.0177183
689.715	0.0179030
689.793	0.0177946
689.871	0.0177551
689.949	0.0178365
690.027	0.0178294
690.105	0.0178385
690.183	0.0177528
690.262	0.0178571
690.340	0.0177499
690.418	0.0177153
690.496	0.0177657
690.574	0.0177415
690.652	0.0176888
690.730	0.0177187
690.808	0.0175090
690.887	0.0177106
690.965	0.0176317
691.043	0.0175452
691.121	0.0175437
691.199	0.0174313
691.277	0.0174901
691.355	0.0174718
691.433	0.0175809
691.512	0.0176311
691.590	0.0176297
691.668	0.0174300
691.746	0.0177596
691.824	0.0177583
691.902	0.0177239
691.980	0.0177357
692.058	0.0176998
692.137	0.0178555
692.215	0.0177318
692.293	0.0178360
692.371	0.0180092
692.449	0.0177792
692.527	0.0178529
692.605	0.0180199
692.683	0.0178710
692.762	0.0179000
692.840	0.0178187
692.918	0.0178191
692.996	0.0179142
693.074	0.0178773
693.152	0.0178420
693.230	0.0176770
693.308	0.0176204
693.387	0.0177630
693.465	0.0176592
693.543	0.0176402
693.621	0.0174628
693.699	0.0175002
693.777	0.0174529
693.855	0.0173290
693.933	0.0173652
694.012	0.0175080
694.090	0.0175691
694.168	0.0175720
694.246	0.0175226
694.324	0.0177131
694.402	0.0176971
694.480	0.0176199
694.558	0.0175667
694.637	0.0175903
694.715	0.0175743
694.793	0.0175639
694.871	0.0175510
694.949	0.0176726
695.027	0.0173660
695.105	0.0175105
695.183	0.0175770
695.262	0.0176559
695.340	0.0174271
695.418	0.0174864
695.496	0.0175317
695.574	0.0175882
695.652	0.0174928
695.730	0.0175661
695.808	0.0174718
695.887	0.0175628
695.965	0.0175362
696.043	0.0175943
696.121	0.0177353
696.199	0.0177052
696.277	0.0176783
696.355	0.0176526
696.433	0.0177125
696.512	0.0178207
696.590	0.0177162
696.668	0.0178983
696.746	0.0180130
696.824	0.0178502
696.902	0.0177880
696.980	0.0179960
697.058	0.0179694
697.137	0.0179161
697.215	0.0177965
697.293	0.0179575
697.371	0.0179357
697.449	0.0178581
697.527	0.0179173
697.605	0.0179721
697.683	0.0178793
697.762	0.0177782
697.840	0.0176876
697.918	0.0177344
697.996	0.0177783
698.074	0.0177789
698.152	0.0176792
698.230	0.0176081
698.308	0.0177641
698.387	0.0177238
698.465	0.0176054
698.543	0.0177010
698.621	0.0177018
698.699	0.0176214
698.777	0.0177248
698.855	0.0175983
698.933	0.0176586
699.012	0.0177021
699.090	0.0176927
699.168	0.0176186
699.246	0.0176923
699.324	0.0177146
699.402	0.0177578
699.480	0.0175704
699.558	0.0177125
699.637	0.0176647
699.715	0.0176027
699.793	0.0177402
699.871	0.0176097
699.949	0.0176057
700.027	0.0178162
700.105	0.0177878
700.183	0.0176669
700.262	0.0177612
700.340	0.0177835
700.418	0.0178669
700.496	0.0178999
700.574	0.0178403
700.652	0.0180057
700.730	0.0179578
700.808	0.0180914
700.887	0.0180482
700.965	0.0179560
701.043	0.0180827
701.121	0.0179786
701.199	0.0179904
701.277	0.0180888
701.355	0.0179919
701.433	0.0180279
701.512	0.0180027
701.590	0.0178236
701.668	0.0179202
701.746	0.0177485
701.824	0.0176176
701.902	0.0176479
701.980	0.0176215
702.058	0.0175192
702.137	0.0175955
702.215	0.0175892
702.293	0.0174030
702.371	0.0175638
702.449	0.0174747
702.527	0.0174027
702.605	0.0175681
702.683	0.0175252
702.762	0.0174862
702.840	0.0174123
702.918	0.0175523
702.996	0.0175253
703.074	0.0175027
703.152	0.0175578
703.230	0.0177460
703.308	0.0176344
703.387	0.0176025
703.465	0.0177525
703.543	0.0177304
703.621	0.0176878
703.699	0.0176709
703.777	0.0178614
703.855	0.0178692
703.933	0.0177811
704.012	0.0177483
704.090	0.0179161
704.168	0.0178764
704.246	0.0178864
704.324	0.0177489
704.402	0.0177251
704.480	0.0179783
704.558	0.0178153
704.637	0.0179216
704.715	0.0177801
704.793	0.0178545
704.871	0.0178365
704.949	0.0178439
705.027	0.0179166
705.105	0.0178890
705.183	0.0179090
705.262	0.0179222
705.340	0.0179241
705.418	0.0179673
705.496	0.0179533
705.574	0.0178551
705.652	0.0178925
705.730	0.0180096
705.808	0.0179083
705.887	0.0178408
705.965	0.0178326
706.043	0.0177555
706.121	0.0177137
706.199	0.0174710
706.277	0.0175298
706.355	0.0175009
706.433	0.0173698
706.512	0.0174434
706.590	0.0174684
706.668	0.0173083
706.746	0.0174095
706.824	0.0173370
706.902	0.0172664
706.980	0.0173721
707.058	0.0173962
707.137	0.0173325
707.215	0.0173745
707.293	0.0174265
707.371	0.0173479
707.449	0.0176756
707.527	0.0176267
707.605	0.0175322
707.683	0.0175181
707.762	0.0176545
707.840	0.0177890
707.918	0.0178474
707.996	0.0177811
708.074	0.0178488
708.152	0.0179068
708.230	0.0180364
708.308	0.0179508
708.387	0.0180364
708.465	0.0181305
708.543	0.0181454
708.621	0.0180791
708.699	0.0180007
708.777	0.0182315
708.855	0.0179599
708.933	0.0179438
709.012	0.0178933
709.090	0.0177784
709.168	0.0178145
709.246	0.0176501
709.324	0.0175096
709.402	0.0174972
709.480	0.0173426
709.558	0.0172948
709.637	0.0173253
709.715	0.0170838
709.793	0.0172133
709.871	0.0173351
709.949	0.0172181
710.027	0.0173454
710.105	0.0172902
710.183	0.0173564
710.262	0.0174313
710.340	0.0175320
710.418	0.0175586
710.496	0.0177837
710.574	0.0177441
710.652	0.0178062
710.730	0.0179708
710.808	0.0181535
710.887	0.0182462
710.965	0.0184340
711.043	0.0183888
711.121	0.0184135
711.199	0.0183939
711.277	0.0183731
711.355	0.0184458
711.433	0.0184341
711.512	0.0184228
711.590	0.0182303
711.668	0.0181023
711.746	0.0180754
711.824	0.0180072
711.902	0.0178574
711.980	0.0177170
712.058	0.0175986
712.137	0.0174759
712.215	0.0174702
712.293	0.0173637
712.371	0.0174043
712.449	0.0175346
712.527	0.0174232
712.605	0.0173453
712.683	0.0175159
712.762	0.0175408
712.840	0.0174152
712.918	0.0175668
712.996	0.0177841
713.074	0.0176875
713.152	0.0175401
713.230	0.0177610
713.308	0.0178102
713.387	0.0177945
713.465	0.0178177
713.543	0.0178185
713.621	0.0180848
713.699	0.0180506
713.777	0.0178979
713.855	0.0178478
713.933	0.0178531
714.012	0.0178843
714.090	0.0178126
714.168	0.0178444
714.246	0.0177294
714.324	0.0176964
714.402	0.0176636
714.480	0.0176949
714.558	0.0177788
714.637	0.0177166
714.715	0.0177132
714.793	0.0177901
714.871	0.0177151
714.949	0.0177951
715.027	0.0178096
715.105	0.0177823
715.183	0.0177127
715.262	0.0177690
715.340	0.0178595
715.418	0.0179017
715.496	0.0178246
715.574	0.0177735
715.652	0.0178904
715.730	0.0178405
715.808	0.0178488
715.887	0.0180222
715.965	0.0179508
716.043	0.0177892
716.121	0.0178435
716.199	0.0179044
716.277	0.0178474
716.355	0.0178381
716.433	0.0177144
716.512	0.0177779
716.590	0.0177279
716.668	0.0175751
716.746	0.0174399
716.824	0.0174819
716.902	0.0175629
716.980	0.0174086
717.058	0.0174026
717.137	0.0173498
717.215	0.0172321
717.293	0.0173503
717.371	0.0174324
717.449	0.0174600
717.527	0.0174892
717.605	0.0175729
717.683	0.0175051
717.762	0.0177192
717.840	0.0176028
717.918	0.0176624
717.996	0.0176947
718.074	0.0178334
718.152	0.0178683
718.230	0.0180495
718.308	0.0181149
718.387	0.0178966
718.465	0.0179437
718.543	0.0181098
718.621	0.0182098
718.699	0.0182255
718.777	0.0181869
718.855	0.0182668
718.933	0.0181863
719.012	0.0182317
719.090	0.0181292
719.168	0.0181035
719.246	0.0181392
719.324	0.0181468
719.402	0.0181109
719.480	0.0181087
719.558	0.0182195
719.637	0.0181730
719.715	0.0179819
719.793	0.0178841
719.871	0.0180646
719.949	0.0180399
720.027	0.0178710
720.105	0.0178509
720.183	0.0177293
720.262	0.0176820
720.340	0.0176595
720.418	0.0176749
720.496	0.0176526
720.574	0.0175385
720.652	0.0176299
720.730	0.0175362
720.808	0.0175065
720.887	0.0175879
720.965	0.0174922
721.043	0.0175375
721.121	0.0175163
721.199	0.0175311
721.277	0.0176012
721.355	0.0175019
721.433	0.0175352
721.512	0.0177172
721.590	0.0176459
721.668	0.0177039
721.746	0.0177578
721.824	0.0177725
721.902	0.0178289
721.980	0.0178218
722.058	0.0177767
722.137	0.0178812
722.215	0.0178720
722.293	0.0177799
722.371	0.0178551
722.449	0.0178484
722.527	0.0179747
722.605	0.0179189
722.683	0.0177660
722.762	0.0177722
722.840	0.0178765
722.918	0.0178284
722.996	0.0177985
723.074	0.0178044
723.152	0.0178228
723.230	0.0177896
723.308	0.0178056
723.387	0.0179646
723.465	0.0178667
723.543	0.0180639
723.621	0.0179431
723.699	0.0178790
723.777	0.0180415
723.855	0.0180862
723.933	0.0180437
724.012	0.0180961
724.090	0.0181595
724.168	0.0180265
724.246	0.0181272
724.324	0.0181261
724.402	0.0180231
724.480	0.0181384
724.558	0.0179797
724.637	0.0180534
724.715	0.0179817
724.793	0.0180923
724.871	0.0180367
724.949	0.0179493
725.027	0.0179598
725.105	0.0180943
725.183	0.0180270
725.262	0.0179003
725.340	0.0180145
725.418	0.0179221
725.496	0.0179569
725.574	0.0178156
725.652	0.0178270
725.730	0.0178318
725.808	0.0178685
725.887	0.0177096
725.965	0.0177110
726.043	0.0175851
726.121	0.0176451
726.199	0.0176566
726.277	0.0175427
726.355	0.0175213
726.433	0.0176347
726.512	0.0177054
726.590	0.0176075
726.668	0.0175590
726.746	0.0174685
726.824	0.0175939
726.902	0.0175854
726.980	0.0176998
727.058	0.0177374
727.137	0.0177879
727.215	0.0178670
727.293	0.0178510
727.371	0.0178970
727.449	0.0180947
727.527	0.0176794
727.605	0.0178555
727.683	0.0177618
727.762	0.0178606
727.840	0.0176847
727.918	0.0176683
727.996	0.0177438
728.074	0.0176072
728.152	0.0174837
728.230	0.0175199
728.308	0.0175047
728.387	0.0173997
728.465	0.0175113
728.543	0.0175822
728.621	0.0175111
728.699	0.0176171
728.777	0.0174714
728.855	0.0175270
728.933	0.0175041
729.012	0.0175941
729.090	0.0176604
729.168	0.0177508
729.246	0.0176037
729.324	0.0177071
729.402	0.0177877
729.480	0.0177973
729.558	0.0178080
729.637	0.0175964
729.715	0.0177472
729.793	0.0179002
729.871	0.0178440
729.949	0.0179636
730.027	0.0177838
730.105	0.0178657
730.183	0.0178624
730.262	0.0177980
730.340	0.0178580
730.418	0.0179332
730.496	0.0179649
730.574	0.0178331
730.652	0.0179051
730.730	0.0178735
730.808	0.0178992
730.887	0.0178527
730.965	0.0179368
731.043	0.0178709
731.121	0.0179833
731.199	0.0178864
731.277	0.0178753
731.355	0.0179440
731.433	0.0180461
731.512	0.0179771
731.590	0.0181122
731.668	0.0180127
731.746	0.0178040
731.824	0.0180337
731.902	0.0179926
731.980	0.0178749
732.058	0.0178504
732.137	0.0178233
732.215	0.0177869
732.293	0.0176516
732.371	0.0176804
732.449	0.0176827
732.527	0.0176270
732.605	0.0175968
732.683	0.0175197
732.762	0.0175022
732.840	0.0173382
732.918	0.0173919
732.996	0.0174307
733.074	0.0174318
733.152	0.0174340
733.230	0.0175114
733.308	0.0175111
733.387	0.0175602
733.465	0.0176807
733.543	0.0175877
733.621	0.0175871
733.699	0.0176618
733.777	0.0176788
733.855	0.0178342
733.933	0.0178497
734.012	0.0180502
734.090	0.0179785
734.168	0.0178345
734.246	0.0180431
734.324	0.0179370
734.402	0.0179232
734.480	0.0180681
734.558	0.0178915
734.637	0.0180099
734.715	0.0180731
734.793	0.0179160
734.871	0.0180296
734.949	0.0180676
735.027	0.0178700
735.105	0.0180082
735.183	0.0179939
735.262	0.0180775
735.340	0.0179777
735.418	0.0179755
735.496	0.0180157
735.574	0.0178602
735.652	0.0178496
735.730	0.0176382
735.808	0.0178064
735.887	0.0176828
735.965	0.0176178
736.043	0.0175154
736.121	0.0175385
736.199	0.0173911
736.277	0.0174969
736.355	0.0175238
736.433	0.0175359
736.512	0.0174876
736.590	0.0175856
736.668	0.0177328
736.746	0.0178001
736.824	0.0178467
736.902	0.0181224
736.980	0.0181026
737.058	0.0181104
737.137	0.0181587
737.215	0.0183071
737.293	0.0182561
737.371	0.0183564
737.449	0.0181995
737.527	0.0180831
737.605	0.0181439
737.683	0.0179852
737.762	0.0180367
737.840	0.0180377
737.918	0.0178812
737.996	0.0179943
738.074	0.0179586
738.152	0.0178423
738.230	0.0177894
738.308	0.0179184
738.387	0.0177398
738.465	0.0176575
738.543	0.0177148
738.621	0.0176042
738.699	0.0175105
738.777	0.0175700
738.855	0.0175092
738.933	0.0174675
739.012	0.0175644
739.090	0.0174943
739.168	0.0176104
739.246	0.0177007
739.324	0.0177013
739.402	0.0176450
739.480	0.0178298
739.558	0.0178908
739.637	0.0178120
739.715	0.0179052
739.793	0.0179402
739.871	0.0179570
739.949	0.0179762
740.027	0.0180056
740.105	0.0181084
740.183	0.0180714
740.262	0.0180602
740.340	0.0180831
740.418	0.0181133
740.496	0.0179346
740.574	0.0180150
740.652	0.0181773
740.730	0.0179726
740.808	0.0179475
740.887	0.0178505
740.965	0.0178004
741.043	0.0176722
741.121	0.0177781
741.199	0.0176118
741.277	0.0176182
741.355	0.0175739
741.433	0.0174267
741.512	0.0175095
741.590	0.0175510
741.668	0.0173587
741.746	0.0175141
741.824	0.0175654
741.902	0.0173874
741.980	0.0175528
742.058	0.0176460
742.137	0.0175698
742.215	0.0177425
742.293	0.0176833
742.371	0.0177425
742.449	0.0178408
742.527	0.0178399
742.605	0.0178183
742.683	0.0177274
742.762	0.0177918
742.840	0.0179148
742.918	0.0177391
742.996	0.0177953
743.074	0.0177716
743.152	0.0178905
743.230	0.0178620
743.308	0.0178066
743.387	0.0179803
743.465	0.0179213
743.543	0.0179427
743.621	0.0178868
743.699	0.0179478
743.777	0.0180487
743.855	0.0180366
743.933	0.0180815
744.012	0.0181348
744.090	0.0182409
744.168	0.0182407
744.246	0.0181669
744.324	0.0181507
744.402	0.0182073
744.480	0.0181899
744.558	0.0180837
744.637	0.0182452
744.715	0.0182584
744.793	0.0182019
744.871	0.0180202
744.949	0.0180981
745.027	0.0181123
745.105	0.0181013
745.183	0.0181356
745.262	0.0180092
745.340	0.0179597
745.418	0.0180672
745.496	0.0178847
745.574	0.0178590
745.652	0.0178326
745.730	0.0177902
745.808	0.0177869
745.887	0.0177303
745.965	0.0176981
746.043	0.0177365
746.121	0.0177312
746.199	0.0176743
746.277	0.0175929
746.355	0.0174120
746.433	0.0175383
746.512	0.0173582
746.590	0.0173515
746.668	0.0172673
746.746	0.0173019
746.824	0.0175439
746.902	0.0174120
746.980	0.0174111
747.058	0.0173412
747.137	0.0173771
747.215	0.0174052
747.293	0.0176439
747.371	0.0175763
747.449	0.0177098
747.527	0.0178214
747.605	0.0176614
747.683	0.0178295
747.762	0.0178484
747.840	0.0178443
747.918	0.0178662
747.996	0.0178935
748.074	0.0179380
748.152	0.0179713
748.230	0.0179372
748.308	0.0181014
748.387	0.0181794
748.465	0.0179655
748.543	0.0179967
748.621	0.0179695
748.699	0.0179697
748.777	0.0181015
748.855	0.0181688
748.933	0.0179269
749.012	0.0179003
749.090	0.0179517
749.168	0.0179485
749.246	0.0177985
749.324	0.0178017
749.402	0.0177877
749.480	0.0175768
749.558	0.0175945
749.637	0.0178076
749.715	0.0176263
749.793	0.0175228
749.871	0.0174429
749.949	0.0175877
750.027	0.0174750
750.105	0.0176299
750.183	0.0176767
750.262	0.0176533
750.340	0.0177817
750.418	0.0176963
750.496	0.0177789
750.574	0.0177074
750.652	0.0177148
750.730	0.0178685
750.808	0.0178113
750.887	0.0177818
750.965	0.0178013
751.043	0.0176979
751.121	0.0178272
751.199	0.0178125
751.277	0.0176573
751.355	0.0177876
751.433	0.0177661
751.512	0.0177164
751.590	0.0176791
751.668	0.0178387
751.746	0.0178340
751.824	0.0176272
751.902	0.0176552
751.980	0.0176998
752.058	0.0176241
752.137	0.0175942
752.215	0.0174327
752.293	0.0174220
752.371	0.0175401
752.449	0.0175294
752.527	0.0175524
752.605	0.0176217
752.683	0.0174519
752.762	0.0174265
752.840	0.0176270
752.918	0.0177264
752.996	0.0176451
753.074	0.0177734
753.152	0.0177682
753.230	0.0177787
753.308	0.0178617
753.387	0.0179813
753.465	0.0178572
753.543	0.0178149
753.621	0.0179710
753.699	0.0179784
753.777	0.0178923
753.855	0.0178634
753.933	0.0179423
754.012	0.0180214
754.090	0.0178877
754.168	0.0179533
754.246	0.0180149
754.324	0.0179236
754.402	0.0179417
754.480	0.0179499
754.558	0.0178696
754.637	0.0179810
754.715	0.0180227
754.793	0.0179893
754.871	0.0179425
754.949	0.0179919
755.027	0.0180315
755.105	0.0179576
755.183	0.0179492
755.262	0.0179068
755.340	0.0178568
755.418	0.0178323
755.496	0.0178699
755.574	0.0178045
755.652	0.0178126
755.730	0.0177959
755.808	0.0179160
755.887	0.0178878
755.965	0.0178033
756.043	0.0177950
756.121	0.0178378
756.199	0.0178295
756.277	0.0177946
756.355	0.0177225
756.433	0.0176344
756.512	0.0176735
756.590	0.0176357
756.668	0.0176285
756.746	0.0177598
756.824	0.0176690
756.902	0.0176191
756.980	0.0176523
757.058	0.0176772
757.137	0.0177145
757.215	0.0178405
757.293	0.0178852
757.371	0.0178236
757.449	0.0178303
757.527	0.0179013
757.605	0.0179777
757.683	0.0178870
757.762	0.0179739
757.840	0.0178018
757.918	0.0179458
757.996	0.0178568
758.074	0.0177183
758.152	0.0175810
758.230	0.0175755
758.308	0.0175497
758.387	0.0175922
758.465	0.0176157
758.543	0.0175950
758.621	0.0174759
758.699	0.0174868
758.777	0.0175479
758.855	0.0176952
758.933	0.0176418
759.012	0.0176565
759.090	0.0177003
759.168	0.0176099
759.246	0.0176972
759.324	0.0177408
759.402	0.0176115
759.480	0.0175615
759.558	0.0176878
759.637	0.0175769
759.715	0.0175592
759.793	0.0174495
759.871	0.0176028
759.949	0.0175905
760.027	0.0175758
760.105	0.0174543
760.183	0.0176353
760.262	0.0177322
760.340	0.0177380
760.418	0.0176756
760.496	0.0176872
760.574	0.0176254
760.652	0.0177420
760.730	0.0176312
760.808	0.0174947
760.887	0.0177683
760.965	0.0177355
761.043	0.0178030
761.121	0.0177392
761.199	0.0177002
761.277	0.0177534
761.355	0.0175992
761.433	0.0175120
761.512	0.0176104
761.590	0.0177079
761.668	0.0176205
761.746	0.0175911
761.824	0.0174088
761.902	0.0174295
761.980	0.0175633
762.058	0.0174819
762.137	0.0173929
762.215	0.0174644
762.293	0.0173835
762.371	0.0173558
762.449	0.0174187
762.527	0.0173787
762.605	0.0172921
762.683	0.0173913
762.762	0.0173954
762.840	0.0174097
762.918	0.0175012
762.996	0.0175619
763.074	0.0176024
763.152	0.0176211
763.230	0.0178127
763.308	0.0177646
763.387	0.0175410
763.465	0.0176027
763.543	0.0177516
763.621	0.0175960
763.699	0.0177728
763.777	0.0178165
763.855	0.0178046
763.933	0.0178242
764.012	0.0177760
764.090	0.0177224
764.168	0.0176825
764.246	0.0177824
764.324	0.0176401
764.402	0.0178168
764.480	0.0177574
764.558	0.0176820
764.637	0.0176957
764.715	0.0176469
764.793	0.0175706
764.871	0.0175578
764.949	0.0175364
765.027	0.0176441
765.105	0.0175697
765.183	0.0176235
765.262	0.0175445
765.340	0.0176584
765.418	0.0177067
765.496	0.0175789
765.574	0.0177002
765.652	0.0175204
765.730	0.0176017
765.808	0.0176579
765.887	0.0177027
765.965	0.0177217
766.043	0.0176743
766.121	0.0175769
766.199	0.0176792
766.277	0.0175673
766.355	0.0177174
766.433	0.0176806
766.512	0.0176550
766.590	0.0177548
766.668	0.0177551
766.746	0.0177420
766.824	0.0178135
766.902	0.0176997
766.980	0.0177254
767.058	0.0178201
767.137	0.0178052
767.215	0.0177979
767.293	0.0178623
767.371	0.0178344
767.449	0.0179823
767.527	0.0177654
767.605	0.0178449
767.683	0.0178870
767.762	0.0178910
767.840	0.0178113
767.918	0.0178159
767.996	0.0179779
768.074	0.0179364
768.152	0.0180013
768.230	0.0179314
768.308	0.0179314
768.387	0.0179086
768.465	0.0180621
768.543	0.0178206
768.621	0.0180605
768.699	0.0179787
768.777	0.0179144
768.855	0.0178664
768.933	0.0178759
769.012	0.0177638
769.090	0.0177337
769.168	0.0178433
769.246	0.0176813
769.324	0.0174854
769.402	0.0176736
769.480	0.0176096
769.558	0.0175735
769.637	0.0175761
769.715	0.0175790
769.793	0.0174229
769.871	0.0174863
769.949	0.0175021
770.027	0.0174992
770.105	0.0174756
770.183	0.0174747
770.262	0.0174954
770.340	0.0175843
770.418	0.0177120
770.496	0.0177153
770.574	0.0174942
770.652	0.0176715
770.730	0.0175801
770.808	0.0175854
770.887	0.0178587
770.965	0.0179694
771.043	0.0177609
771.121	0.0178854
771.199	0.0178143
771.277	0.0179309
771.355	0.0179829
771.433	0.0180227
771.512	0.0180647
771.590	0.0179731
771.668	0.0179983
771.746	0.0179555
771.824	0.0177683
771.902	0.0178538
771.980	0.0179467
772.058	0.0178646
772.137	0.0178221
772.215	0.0178073
772.293	0.0177205
772.371	0.0177319
772.449	0.0176218
772.527	0.0176769
772.605	0.0176962
772.683	0.0177157
772.762	0.0177814
772.840	0.0176848
772.918	0.0175597
772.996	0.0177809
773.074	0.0177254
773.152	0.0177007
773.230	0.0177370
773.308	0.0175759
773.387	0.0176193
773.465	0.0176672
773.543	0.0176700
773.621	0.0176226
773.699	0.0176875
773.777	0.0176553
773.855	0.0176312
773.933	0.0177282
774.012	0.0175477
774.090	0.0176725
774.168	0.0175609
774.246	0.0176399
774.324	0.0176805
774.402	0.0176456
774.480	0.0177615
774.558	0.0176719
774.637	0.0176493
774.715	0.0177162
774.793	0.0176646
774.871	0.0177628
774.949	0.0177911
775.027	0.0177561
775.105	0.0177980
775.183	0.0175858
775.262	0.0177283
775.340	0.0176820
775.418	0.0177021
775.496	0.0178034
775.574	0.0177471
775.652	0.0178260
775.730	0.0176145
775.808	0.0178287
775.887	0.0179418
775.965	0.0178735
776.043	0.0177708
776.121	0.0179652
776.199	0.0180575
776.277	0.0178198
776.355	0.0179784
776.433	0.0180235
776.512	0.0179908
776.590	0.0180598
776.668	0.0179959
776.746	0.0178910
776.824	0.0179775
776.902	0.0178840
776.980	0.0178396
777.058	0.0177765
777.137	0.0177901
777.215	0.0176881
777.293	0.0177589
777.371	0.0177812
777.449	0.0176260
777.527	0.0174902
777.605	0.0175809
777.683	0.0175829
777.762	0.0175053
777.840	0.0174604
777.918	0.0173802
777.996	0.0175753
778.074	0.0174800
778.152	0.0175607
778.230	0.0175802
778.308	0.0175317
778.387	0.0174931
778.465	0.0174509
778.543	0.0174768
778.621	0.0177252
778.699	0.0176358
778.777	0.0175040
778.855	0.0177045
778.933	0.0178758
779.012	0.0177990
779.090	0.0178329
779.168	0.0178614
779.246	0.0177352
779.324	0.0178313
779.402	0.0177945
779.480	0.0179865
779.558	0.0179387
779.637	0.0179293
779.715	0.0179826
779.793	0.0179364
779.871	0.0179521
779.949	0.0179117
780.027	0.0178611
780.105	0.0179911
780.183	0.0178490
780.262	0.0177689
780.340	0.0180023
780.418	0.0177427
780.496	0.0177287
780.574	0.0177311
780.652	0.0177733
780.730	0.0178698
780.808	0.0177982
780.887	0.0178473
780.965	0.0176596
781.043	0.0178216
781.121	0.0177942
781.199	0.0177939
781.277	0.0177157
781.355	0.0178625
781.433	0.0177560
781.512	0.0178106
781.590	0.0177341
781.668	0.0177512
781.746	0.0178455
781.824	0.0177707
781.902	0.0178085
781.980	0.0178487
782.058	0.0178923
782.137	0.0178523
782.215	0.0177538
782.293	0.0179622
782.371	0.0179341
782.449	0.0178290
782.527	0.0177686
782.605	0.0178098
782.683	0.0178310
782.762	0.0178467
782.840	0.0178922
782.918	0.0178118
782.996	0.0177768
783.074	0.0178204
783.152	0.0177243
783.230	0.0176835
783.308	0.0175665
783.387	0.0177180
783.465	0.0177374
783.543	0.0176888
783.621	0.0175970
783.699	0.0176699
783.777	0.0176675
783.855	0.0175644
783.933	0.0177028
784.012	0.0177316
784.090	0.0175884
784.168	0.0177149
784.246	0.0175626
784.324	0.0176346
784.402	0.0176893
784.480	0.0176980
784.558	0.0176116
784.637	0.0177285
784.715	0.0177200
784.793	0.0177470
784.871	0.0176546
784.949	0.0178018
785.027	0.0178253
785.105	0.0176997
785.183	0.0178350
785.262	0.0177882
785.340	0.0176577
785.418	0.0177869
785.496	0.0176497
785.574	0.0177197
785.652	0.0177341
785.730	0.0177477
785.808	0.0176882
785.887	0.0177698
785.965	0.0177183
786.043	0.0175974
786.121	0.0176840
786.199	0.0175421
786.277	0.0176672
786.355	0.0176244
786.433	0.0175583
786.512	0.0177408
786.590	0.0177341
786.668	0.0176633
786.746	0.0175409
786.824	0.0176961
786.902	0.0176864
786.980	0.0176584
787.058	0.0177160
787.137	0.0177948
787.215	0.0177478
787.293	0.0178217
787.371	0.0177761
787.449	0.0178555
787.527	0.0178246
787.605	0.0177070
787.683	0.0178481
787.762	0.0178675
787.840	0.0178088
787.918	0.0178593
787.996	0.0178239
788.074	0.0176500
788.152	0.0177866
788.230	0.0176867
788.308	0.0177025
788.387	0.0177209
788.465	0.0176325
788.543	0.0174616
788.621	0.0176695
788.699	0.0177022
788.777	0.0176703
788.855	0.0178544
788.933	0.0176493
789.012	0.0177151
789.090	0.0176990
789.168	0.0177245
789.246	0.0176970
789.324	0.0178955
789.402	0.0179473
789.480	0.0178873
789.558	0.0177517
789.637	0.0178632
789.715	0.0178089
789.793	0.0179123
789.871	0.0179857
789.949	0.0178770
790.027	0.0178925
790.105	0.0179094
790.183	0.0178878
790.262	0.0178030
790.340	0.0177198
790.418	0.0177872
790.496	0.0177361
790.574	0.0176398
790.652	0.0178807
790.730	0.0176479
790.808	0.0176540
790.887	0.0176974
790.965	0.0177616
791.043	0.0177008
791.121	0.0175983
791.199	0.0175470
791.277	0.0175964
791.355	0.0175535
791.433	0.0177608
791.512	0.0177189
791.590	0.0176437
791.668	0.0177496
791.746	0.0177808
791.824	0.0177310
791.902	0.0177779
791.980	0.0177554
792.058	0.0177203
792.137	0.0177041
792.215	0.0177812
792.293	0.0179222
792.371	0.0178362
792.449	0.0178041
792.527	0.0178732
792.605	0.0177499
792.683	0.0179086
792.762	0.0178473
792.840	0.0177306
792.918	0.0179514
792.996	0.0179041
793.074	0.0180015
793.152	0.0179868
793.230	0.0177685
793.308	0.0180300
793.387	0.0180564
793.465	0.0180510
793.543	0.0179680
793.621	0.0179266
793.699	0.0179131
793.777	0.0181219
793.855	0.0180628
793.933	0.0180307
794.012	0.0178864
794.090	0.0178565
794.168	0.0178748
794.246	0.0177737
794.324	0.0178992
794.402	0.0177960
794.480	0.0177148
794.558	0.0176366
794.637	0.0176650
794.715	0.0177795
794.793	0.0176584
794.871	0.0176582
794.949	0.0177338
795.027	0.0178126
795.105	0.0177515
795.183	0.0177145
795.262	0.0178327
795.340	0.0177433
795.418	0.0178397
795.496	0.0177641
795.574	0.0177689
795.652	0.0179950
795.730	0.0178175
795.808	0.0177945
795.887	0.0179166
795.965	0.0177950
796.043	0.0177004
796.121	0.0178457
796.199	0.0178214
796.277	0.0178179
796.355	0.0177474
796.433	0.0176226
796.512	0.0177402
796.590	0.0177956
796.668	0.0177670
796.746	0.0176039
796.824	0.0175953
796.902	0.0177438
796.980	0.0177189
797.058	0.0177119
797.137	0.0177135
797.215	0.0177240
797.293	0.0176691
797.371	0.0177037
797.449	0.0176555
797.527	0.0177004
797.605	0.0177541
797.683	0.0179426
797.762	0.0178710
797.840	0.0177646
797.918	0.0178017
797.996	0.0178493
798.074	0.0178858
798.152	0.0177686
798.230	0.0178391
798.308	0.0178445
798.387	0.0177539
798.465	0.0177168
798.543	0.0178941
798.621	0.0178543
798.699	0.0177895
798.777	0.0179138
798.855	0.0177615
798.933	0.0177582
799.012	0.0177502
799.090	0.0177661
799.168	0.0177670
799.246	0.0176413
799.324	0.0176929
799.402	0.0176953
799.480	0.0176397
799.558	0.0177658
799.637	0.0176721
799.715	0.0178036
799.793	0.0176406
799.871	0.0177899
799.949	0.0177287
800.027	0.0178829
800.105	0.0178139
800.183	0.0178648
800.262	0.0179971
800.340	0.0179095
800.418	0.0178600
800.496	0.0178300
800.574	0.0177742
800.652	0.0178790
800.730	0.0179525
800.808	0.0179049
800.887	0.0179318
800.965	0.0179528
801.043	0.0178371
801.121	0.0179307
801.199	0.0180312
801.277	0.0180128
801.355	0.0179749
801.433	0.0177988
801.512	0.0179214
801.590	0.0179166
801.668	0.0179643
801.746	0.0178237
801.824	0.0180110
801.902	0.0177769
801.980	0.0178463
802.058	0.0177665
802.137	0.0176897
802.215	0.0178354
802.293	0.0178944
802.371	0.0177260
802.449	0.0178406
802.527	0.0179057
802.605	0.0176383
802.683	0.0175572
802.762	0.0177039
802.840	0.0178183
802.918	0.0177582
802.996	0.0178414
803.074	0.0177668
803.152	0.0179026
803.230	0.0178034
803.308	0.0177489
803.387	0.0179661
803.465	0.0178005
803.543	0.0179122
803.621	0.0179668
803.699	0.0179330
803.777	0.0178052
803.855	0.0178905
803.933	0.0178114
804.012	0.0179063
804.090	0.0177525
804.168	0.0178265
804.246	0.0177367
804.324	0.0178692
804.402	0.0179532
804.480	0.0177779
804.558	0.0178905
804.637	0.0177601
804.715	0.0179820
804.793	0.0178718
804.871	0.0177853
804.949	0.0180428
805.027	0.0179662
805.105	0.0178085
805.183	0.0179155
805.262	0.0180116
805.340	0.0179781
805.418	0.0178323
805.496	0.0178441
805.574	0.0178706
805.652	0.0178957
805.730	0.0177760
805.808	0.0178810
805.887	0.0178211
805.965	0.0176970
806.043	0.0175974
806.121	0.0177747
806.199	0.0178477
806.277	0.0175752
806.355	0.0177100
806.433	0.0177850
806.512	0.0177296
806.590	0.0177252
806.668	0.0176361
806.746	0.0176572
806.824	0.0176152
806.902	0.0177461
806.980	0.0176768
807.058	0.0176528
807.137	0.0177598
807.215	0.0176485
807.293	0.0177495
807.371	0.0176624
807.449	0.0178225
807.527	0.0177753
807.605	0.0177060
807.683	0.0178836
807.762	0.0175756
807.840	0.0177391
807.918	0.0177312
807.996	0.0177354
808.074	0.0177170
808.152	0.0177435
808.230	0.0177064
808.308	0.0178121
808.387	0.0178916
808.465	0.0177551
808.543	0.0178586
808.621	0.0177183
808.699	0.0177235
808.777	0.0176745
808.855	0.0176953
808.933	0.0175122
809.012	0.0177619
809.090	0.0177226
809.168	0.0176523
809.246	0.0178032
809.324	0.0177412
809.402	0.0177046
809.480	0.0177618
809.558	0.0176953
809.637	0.0177172
809.715	0.0177671
809.793	0.0177847
809.871	0.0176688
809.949	0.0178049
810.027	0.0178149
810.105	0.0177237
810.183	0.0177125
810.262	0.0179524
810.340	0.0177800
810.418	0.0178223
810.496	0.0178884
810.574	0.0176700
810.652	0.0177621
810.730	0.0178120
810.808	0.0177989
810.887	0.0178694
810.965	0.0178542
811.043	0.0178669
811.121	0.0179156
811.199	0.0179844
811.277	0.0178658
811.355	0.0179222
811.433	0.0179593
811.512	0.0179967
811.590	0.0179263
811.668	0.0178674
811.746	0.0180444
811.824	0.0179239
811.902	0.0178361
811.980	0.0179739
812.058	0.0178616
812.137	0.0178812
812.215	0.0179187
812.293	0.0178724
812.371	0.0179885
812.449	0.0178220
812.527	0.0178559
812.605	0.0180445
812.683	0.0179601
812.762	0.0178735
812.840	0.0179151
812.918	0.0179298
812.996	0.0180755
813.074	0.0179254
813.152	0.0178219
813.230	0.0177877
813.308	0.0178989
813.387	0.0178538
813.465	0.0179099
813.543	0.0180161
813.621	0.0178263
813.699	0.0179182
813.777	0.0178242
813.855	0.0178507
813.933	0.0178777
814.012	0.0178802
814.090	0.0178725
814.168	0.0177987
814.246	0.0177029
814.324	0.0178057
814.402	0.0178448
814.480	0.0177590
814.558	0.0177081
814.637	0.0175990
814.715	0.0178904
814.793	0.0178484
814.871	0.0178123
814.949	0.0178329
815.027	0.0178011
815.105	0.0178680
815.183	0.0180091
815.262	0.0179229
815.340	0.0179524
815.418	0.0179520
815.496	0.0179443
815.574	0.0180293
815.652	0.0179496
815.730	0.0181316
815.808	0.0180489
815.887	0.0178605
815.965	0.0179025
816.043	0.0179605
816.121	0.0178463
816.199	0.0179193
816.277	0.0178750
816.355	0.0178019
816.433	0.0179523
816.512	0.0180128
816.590	0.0178648
816.668	0.0179645
816.746	0.0177346
816.824	0.0179416
816.902	0.0177345
816.980	0.0177061
817.058	0.0177863
817.137	0.0178094
817.215	0.0177753
817.293	0.0177772
817.371	0.0176385
817.449	0.0176181
817.527	0.0176266
817.605	0.0176986
817.683	0.0177960
817.762	0.0177463
817.840	0.0176245
817.918	0.0175575
817.996	0.0177188
818.074	0.0178227
818.152	0.0177253
818.230	0.0177748
818.308	0.0177249
818.387	0.0178350
818.465	0.0177901
818.543	0.0177455
818.621	0.0177250
818.699	0.0178459
818.777	0.0177548
818.855	0.0178027
818.933	0.0178329
819.012	0.0176920
819.090	0.0178459
819.168	0.0177304
819.246	0.0176263
819.324	0.0177841
819.402	0.0177025
819.480	0.0176408
819.558	0.0177824
819.637	0.0177618
819.715	0.0176991
819.793	0.0177305
819.871	0.0178356
819.949	0.0176926
820.027	0.0176736
820.105	0.0177155
820.183	0.0177419
820.262	0.0177361
820.340	0.0178135
820.418	0.0176787
820.496	0.0177216
820.574	0.0178203
820.652	0.0178223
820.730	0.0179643
820.808	0.0178851
820.887	0.0178761
820.965	0.0178751
821.043	0.0179281
821.121	0.0179011
821.199	0.0178130
821.277	0.0178382
821.355	0.0179697
821.433	0.0179865
821.512	0.0178684
821.590	0.0177727
821.668	0.0178709
821.746	0.0179646
821.824	0.0178748
821.902	0.0178317
821.980	0.0178952
822.058	0.0179221
822.137	0.0177628
822.215	0.0178095
822.293	0.0177685
822.371	0.0178274
822.449	0.0179034
822.527	0.0177054
822.605	0.0175979
822.683	0.0176435
822.762	0.0176880
822.840	0.0176273
822.918	0.0177840
822.996	0.0177578
823.074	0.0176089
823.152	0.0178222
823.230	0.0176839
823.308	0.0178125
823.387	0.0177802
823.465	0.0177021
823.543	0.0176924
823.621	0.0177863
823.699	0.0178121
823.777	0.0176972
823.855	0.0177753
823.933	0.0177881
824.012	0.0177975
824.090	0.0178872
824.168	0.0178222
824.246	0.0178125
824.324	0.0177670
824.402	0.0177512
824.480	0.0178014
824.558	0.0178922
824.637	0.0180225
824.715	0.0179026
824.793	0.0178028
824.871	0.0178503
824.949	0.0178339
825.027	0.0178485
825.105	0.0177949
825.183	0.0176905
825.262	0.0176691
825.340	0.0176695
825.418	0.0175842
825.496	0.0177547
825.574	0.0177223
825.652	0.0176067
825.730	0.0176990
825.808	0.0178252
825.887	0.0175948
825.965	0.0175717
826.043	0.0177923
826.121	0.0177888
826.199	0.0178768
826.277	0.0179538
826.355	0.0178872
826.433	0.0178453
826.512	0.0177409
826.590	0.0178119
826.668	0.0178824
826.746	0.0178625
826.824	0.0179280
826.902	0.0179337
826.980	0.0179085
827.058	0.0178326
827.137	0.0179258
827.215	0.0179920
827.293	0.0178088
827.371	0.0177436
827.449	0.0178517
827.527	0.0179472
827.605	0.0178230
827.683	0.0179571
827.762	0.0178407
827.840	0.0178585
827.918	0.0178112
827.996	0.0179070
828.074	0.0180181
828.152	0.0178032
828.230	0.0178717
828.308	0.0178474
828.387	0.0178412
828.465	0.0179249
828.543	0.0178024
828.621	0.0178632
828.699	0.0178464
828.777	0.0178591
828.855	0.0178053
828.933	0.0177876
829.012	0.0178096
829.090	0.0178229
829.168	0.0177908
829.246	0.0177908
829.324	0.0177056
829.402	0.0176999
829.480	0.0178827
829.558	0.0177837
829.637	0.0179201
829.715	0.0176781
829.793	0.0176203
829.871	0.0176860
829.949	0.0177956
830.027	0.0176868
830.105	0.0175909
830.183	0.0176152
830.262	0.0176377
830.340	0.0176787
830.418	0.0176949
830.496	0.0176255
830.574	0.0175191
830.652	0.0177140
830.730	0.0177364
830.808	0.0175616
830.887	0.0176957
830.965	0.0176482
831.043	0.0177682
831.121	0.0176460
831.199	0.0178549
831.277	0.0177252
831.355	0.0176376
831.433	0.0177556
831.512	0.0177679
831.590	0.0176823
831.668	0.0177390
831.746	0.0177239
831.824	0.0176266
831.902	0.0177257
831.980	0.0177786
832.058	0.0176566
832.137	0.0177969
832.215	0.0176973
832.293	0.0177381
832.371	0.0176339
832.449	0.0177150
832.527	0.0177786
832.605	0.0178514
832.683	0.0177280
832.762	0.0177612
832.840	0.0177286
832.918	0.0176844
832.996	0.0177168
833.074	0.0176083
833.152	0.0176051
833.230	0.0176991
833.308	0.0175722
833.387	0.0177458
833.465	0.0177010
833.543	0.0176068
833.621	0.0177675
833.699	0.0177808
833.777	0.0177852
833.855	0.0177412
833.933	0.0176704
834.012	0.0177269
834.090	0.0176142
834.168	0.0177016
834.246	0.0179205
834.324	0.0177418
834.402	0.0176967
834.480	0.0177802
834.558	0.0176103
834.637	0.0176210
834.715	0.0176714
834.793	0.0177979
834.871	0.0177884
834.949	0.0177244
835.027	0.0177857
835.105	0.0177958
835.183	0.0177392
835.262	0.0176521
835.340	0.0178067
835.418	0.0177917
835.496	0.0177249
835.574	0.0178180
835.652	0.0177479
835.730	0.0177981
835.808	0.0177804
835.887	0.0177509
835.965	0.0178792
836.043	0.0176293
836.121	0.0179033
836.199	0.0177648
836.277	0.0178304
836.355	0.0177448
836.433	0.0176196
836.512	0.0177334
836.590	0.0177403
836.668	0.0177128
836.746	0.0178075
836.824	0.0175551
836.902	0.0176522
836.980	0.0176847
837.058	0.0177403
837.137	0.0175773
837.215	0.0176479
837.293	0.0177840
837.371	0.0177177
837.449	0.0176897
837.527	0.0176355
837.605	0.0177484
837.683	0.0176285
837.762	0.0177607
837.840	0.0176962
837.918	0.0177056
837.996	0.0178733
838.074	0.0177744
838.152	0.0177973
838.230	0.0177876
838.308	0.0177536
838.387	0.0177837
838.465	0.0176826
838.543	0.0178271
838.621	0.0178616
838.699	0.0177135
838.777	0.0177962
838.855	0.0177441
838.933	0.0177330
839.012	0.0177956
839.090	0.0177241
839.168	0.0175975
839.246	0.0176587
839.324	0.0178850
839.402	0.0177592
839.480	0.0175957
839.558	0.0177298
839.637	0.0177664
839.715	0.0176166
839.793	0.0176559
839.871	0.0178294
839.949	0.0177937
840.027	0.0177441
840.105	0.0177966
840.183	0.0177885
840.262	0.0177614
840.340	0.0176821
840.418	0.0177956
840.496	0.0178471
840.574	0.0177466
840.652	0.0177808
840.730	0.0178471
840.808	0.0178878
840.887	0.0178635
840.965	0.0176850
841.043	0.0177160
841.121	0.0177243
841.199	0.0178136
841.277	0.0178310
841.355	0.0177209
841.433	0.0176760
841.512	0.0176618
841.590	0.0177877
841.668	0.0176695
841.746	0.0178754
841.824	0.0176715
841.902	0.0176959
841.980	0.0177912
842.058	0.0177917
842.137	0.0177606
842.215	0.0178024
842.293	0.0178078
842.371	0.0177055
842.449	0.0176376
842.527	0.0176520
842.605	0.0175702
842.683	0.0177873
842.762	0.0177530
842.840	0.0176614
842.918	0.0176677
842.996	0.0175674
843.074	0.0175838
843.152	0.0176302
843.230	0.0176219
843.308	0.0176579
843.387	0.0175371
843.465	0.0175532
843.543	0.0177116
843.621	0.0174782
843.699	0.0175339
843.777	0.0176993
843.855	0.0176581
843.933	0.0176299
844.012	0.0176696
844.090	0.0177381
844.168	0.0176734
844.246	0.0176826
844.324	0.0176192
844.402	0.0177495
844.480	0.0176804
844.558	0.0178596
844.637	0.0177428
844.715	0.0178962
844.793	0.0178848
844.871	0.0179086
844.949	0.0179076
845.027	0.0178087
845.105	0.0178899
845.183	0.0178246
845.262	0.0179193
845.340	0.0178056
845.418	0.0179152
845.496	0.0177831
845.574	0.0178453
845.652	0.0178719
845.730	0.0178629
845.808	0.0178480
845.887	0.0179257
845.965	0.0178848
846.043	0.0179059
846.121	0.0178967
846.199	0.0178008
846.277	0.0179706
846.355	0.0177880
846.433	0.0178720
846.512	0.0178694
846.590	0.0179665
846.668	0.0179841
846.746	0.0178822
846.824	0.0178494
846.902	0.0179274
846.980	0.0179152
847.058	0.0178515
847.137	0.0177740
847.215	0.0178574
847.293	0.0178113
847.371	0.0178448
847.449	0.0178438
847.527	0.0176190
847.605	0.0177056
847.683	0.0177040
847.762	0.0176979
847.840	0.0178318
847.918	0.0176839
847.996	0.0177567
848.074	0.0177576
848.152	0.0178205
848.230	0.0178026
848.308	0.0179137
848.387	0.0178538
848.465	0.0179475
848.543	0.0178092
848.621	0.0179350
848.699	0.0178310
848.777	0.0177242
848.855	0.0179329
848.933	0.0180210
849.012	0.0178699
849.090	0.0177492
849.168	0.0177607
849.246	0.0178179
849.324	0.0177670
849.402	0.0178368
849.480	0.0178151
849.558	0.0178339
849.637	0.0179240
849.715	0.0177379
849.793	0.0177702
849.871	0.0177612
849.949	0.0178210
850.027	0.0176331
850.105	0.0176819
850.183	0.0177959
850.262	0.0176502
850.340	0.0178419
850.418	0.0178184
850.496	0.0178159
850.574	0.0178577
850.652	0.0178290
850.730	0.0177687
850.808	0.0178613
850.887	0.0178033
850.965	0.0177297
851.043	0.0178120
851.121	0.0176973
851.199	0.0178355
851.277	0.0177127
851.355	0.0176393
851.433	0.0176969
851.512	0.0178168
851.590	0.0178046
851.668	0.0177105
851.746	0.0178549
851.824	0.0178856
851.902	0.0176991
851.980	0.0177060
852.058	0.0178870
852.137	0.0178773
852.215	0.0177294
852.293	0.0178342
852.371	0.0177483
852.449	0.0176444
852.527	0.0178074
852.605	0.0176147
852.683	0.0176413
852.762	0.0176239
852.840	0.0176960
852.918	0.0177331
852.996	0.0176465
853.074	0.0176765
853.152	0.0178282
853.230	0.0176938
853.308	0.0176379
853.387	0.0178376
853.465	0.0176318
853.543	0.0176700
853.621	0.0177162
853.699	0.0176250
853.777	0.0178688
853.855	0.0178170
853.933	0.0176659
854.012	0.0179223
854.090	0.0177631
854.168	0.0177272
854.246	0.0177953
854.324	0.0178352
854.402	0.0178863
854.480	0.0177124
854.558	0.0177457
854.637	0.0177097
854.715	0.0176955
854.793	0.0177239
854.871	0.0178503
854.949	0.0177268
855.027	0.0177467
855.105	0.0177018
855.183	0.0177478
855.262	0.0177177
855.340	0.0178316
855.418	0.0178488
855.496	0.0178369
855.574	0.0177662
855.652	0.0178574
855.730	0.0176174
855.808	0.0176291
855.887	0.0178245
855.965	0.0177701
856.043	0.0176259
856.121	0.0176864
856.199	0.0177077
856.277	0.0175589
856.355	0.0177541
856.433	0.0177650
856.512	0.0177698
856.590	0.0178083
856.668	0.0177838
856.746	0.0176595
856.824	0.0177677
856.902	0.0178233
856.980	0.0177126
857.058	0.0179250
857.137	0.0178213
857.215	0.0177377
857.293	0.0178497
857.371	0.0176733
857.449	0.0176858
857.527	0.0177946
857.605	0.0176318
857.683	0.0177284
857.762	0.0176516
857.840	0.0178001
857.918	0.0177890
857.996	0.0177579
858.074	0.0176924
858.152	0.0175687
858.230	0.0177579
858.308	0.0176833
858.387	0.0176393
858.465	0.0176993
858.543	0.0175422
858.621	0.0177121
858.699	0.0176833
858.777	0.0176811
858.855	0.0177026
858.933	0.0176331
859.012	0.0176623
859.090	0.0177379
859.168	0.0174656
859.246	0.0176975
859.324	0.0177452
859.402	0.0177446
859.480	0.0175613
859.558	0.0177175
859.637	0.0176453
859.715	0.0176768
859.793	0.0177610
859.871	0.0177389
859.949	0.0177453
860.027	0.0177309
860.105	0.0178273
860.183	0.0177947
860.262	0.0176653
860.340	0.0176698
860.418	0.0177278
860.496	0.0176855
860.574	0.0176262
860.652	0.0176996
860.730	0.0177243
860.808	0.0176994
860.887	0.0175786
860.965	0.0177056
861.043	0.0175194
861.121	0.0176183
861.199	0.0176868
861.277	0.0176213
861.355	0.0176341
861.433	0.0175888
861.512	0.0175500
861.590	0.0176748
861.668	0.0177373
861.746	0.0177316
861.824	0.0175694
861.902	0.0175695
861.980	0.0175456
862.058	0.0176268
862.137	0.0176307
862.215	0.0176679
862.293	0.0176273
862.371	0.0175584
862.449	0.0175686
862.527	0.0176805
862.605	0.0175922
862.683	0.0175343
862.762	0.0176425
862.840	0.0176334
862.918	0.0176533
862.996	0.0176549
863.074	0.0175685
863.152	0.0175244
863.230	0.0175794
863.308	0.0176211
863.387	0.0175745
863.465	0.0176976
863.543	0.0177858
863.621	0.0176440
863.699	0.0176356
863.777	0.0175807
863.855	0.0176004
863.933	0.0176145
864.012	0.0174193
864.090	0.0174883
864.168	0.0175040
864.246	0.0176945
864.324	0.0176495
864.402	0.0174902
864.480	0.0176056
864.558	0.0175161
864.637	0.0173678
864.715	0.0174141
864.793	0.0176020
864.871	0.0175563
864.949	0.0175608
865.027	0.0173488
865.105	0.0175531
865.183	0.0174758
865.262	0.0175826
865.340	0.0174526
865.418	0.0174883
865.496	0.0175862
865.574	0.0176318
865.652	0.0176612
865.730	0.0176147
865.808	0.0176362
865.887	0.0176126
865.965	0.0176682
866.043	0.0176212
866.121	0.0177448
866.199	0.0176595
866.277	0.0176883
866.355	0.0178426
866.433	0.0175651
866.512	0.0177767
866.590	0.0177808
866.668	0.0177391
866.746	0.0178209
866.824	0.0177675
866.902	0.0177543
866.980	0.0177285
867.058	0.0178771
867.137	0.0178360
867.215	0.0177104
867.293	0.0176810
867.371	0.0177849
867.449	0.0177701
867.527	0.0178141
867.605	0.0178583
867.683	0.0177245
867.762	0.0178600
867.840	0.0178962
867.918	0.0176556
867.996	0.0177837
868.074	0.0179722
868.152	0.0178440
868.230	0.0179066
868.308	0.0179545
868.387	0.0179727
868.465	0.0179739
868.543	0.0178230
868.621	0.0178909
868.699	0.0178807
868.777	0.0179135
868.855	0.0179553
868.933	0.0179862
869.012	0.0178964
869.090	0.0178997
869.168	0.0180465
869.246	0.0180605
869.324	0.0180570
869.402	0.0179277
869.480	0.0180260
869.558	0.0180515
869.637	0.0180189
869.715	0.0180311
869.793	0.0180118
869.871	0.0180763
869.949	0.0179767
