06/03/2022	18:42:14	Ver.	4.1	UNKNOWN
Optical Delay	499.972551	Delta X		0.078125	Sweeps	1	Scan Rate	0/0
Coordinates	Axis 1	NaN	Axis 2	NaN	Axis 3	NaN	Axis 4	NaN	Axis 5	NaN	Axis 6	0.000000
TX Power	0.000000	RX Power	0.000000

499.973	0.0180583
500.051	0.0180218
500.129	0.0180385
500.207	0.0180016
500.285	0.0181814
500.363	0.0181377
500.441	0.0178657
500.519	0.0180398
500.598	0.0179836
500.676	0.0179487
500.754	0.0179528
500.832	0.0181110
500.910	0.0180299
500.988	0.0180870
501.066	0.0181166
501.144	0.0180463
501.223	0.0180241
501.301	0.0180440
501.379	0.0180328
501.457	0.0180296
501.535	0.0180283
501.613	0.0179765
501.691	0.0178505
501.769	0.0179707
501.848	0.0180373
501.926	0.0180626
502.004	0.0181364
502.082	0.0180566
502.160	0.0181328
502.238	0.0179800
502.316	0.0180542
502.394	0.0180972
502.473	0.0179924
502.551	0.0180569
502.629	0.0180964
502.707	0.0179992
502.785	0.0180646
502.863	0.0180176
502.941	0.0181316
503.019	0.0178828
503.098	0.0179150
503.176	0.0180407
503.254	0.0179002
503.332	0.0180598
503.410	0.0180322
503.488	0.0180376
503.566	0.0179787
503.644	0.0179652
503.723	0.0180470
503.801	0.0179878
503.879	0.0179551
503.957	0.0180845
504.035	0.0179528
504.113	0.0181855
504.191	0.0181417
504.269	0.0177534
504.348	0.0180344
504.426	0.0181631
504.504	0.0180100
504.582	0.0179046
504.660	0.0179778
504.738	0.0178960
504.816	0.0179517
504.894	0.0178835
504.973	0.0179794
505.051	0.0180627
505.129	0.0180021
505.207	0.0179997
505.285	0.0181425
505.363	0.0179038
505.441	0.0181214
505.519	0.0179785
505.598	0.0179617
505.676	0.0179768
505.754	0.0178831
505.832	0.0180364
505.910	0.0179249
505.988	0.0180270
506.066	0.0179607
506.144	0.0179955
506.223	0.0180341
506.301	0.0179269
506.379	0.0179498
506.457	0.0177860
506.535	0.0179265
506.613	0.0180503
506.691	0.0181977
506.769	0.0178824
506.848	0.0179784
506.926	0.0179140
507.004	0.0180885
507.082	0.0179993
507.160	0.0181060
507.238	0.0179288
507.316	0.0179204
507.394	0.0180482
507.473	0.0180344
507.551	0.0179222
507.629	0.0179276
507.707	0.0179467
507.785	0.0179503
507.863	0.0180127
507.941	0.0179049
508.019	0.0179243
508.098	0.0178697
508.176	0.0180909
508.254	0.0179383
508.332	0.0178172
508.410	0.0179913
508.488	0.0179539
508.566	0.0178748
508.644	0.0178665
508.723	0.0180534
508.801	0.0179332
508.879	0.0178709
508.957	0.0177884
509.035	0.0178877
509.113	0.0178873
509.191	0.0180127
509.269	0.0179302
509.348	0.0178598
509.426	0.0179036
509.504	0.0178510
509.582	0.0179253
509.660	0.0179594
509.738	0.0178928
509.816	0.0178343
509.894	0.0180163
509.973	0.0179284
510.051	0.0180299
510.129	0.0179260
510.207	0.0178610
510.285	0.0178006
510.363	0.0179551
510.441	0.0180222
510.519	0.0179942
510.598	0.0179650
510.676	0.0180040
510.754	0.0179253
510.832	0.0178902
510.910	0.0179180
510.988	0.0179368
511.066	0.0179803
511.144	0.0177958
511.223	0.0179504
511.301	0.0180005
511.379	0.0178697
511.457	0.0178555
511.535	0.0178718
511.613	0.0177637
511.691	0.0177392
511.769	0.0179168
511.848	0.0179784
511.926	0.0180071
512.004	0.0180359
512.082	0.0177366
512.160	0.0179443
512.238	0.0178918
512.316	0.0178461
512.394	0.0179462
512.473	0.0178713
512.551	0.0178865
512.629	0.0179342
512.707	0.0179096
512.785	0.0179391
512.863	0.0179524
512.941	0.0178792
513.019	0.0180105
513.098	0.0178505
513.176	0.0179378
513.254	0.0179030
513.332	0.0178995
513.410	0.0178152
513.488	0.0179240
513.566	0.0177934
513.644	0.0178596
513.723	0.0178899
513.801	0.0178197
513.879	0.0178324
513.957	0.0179291
514.035	0.0179854
514.113	0.0179007
514.191	0.0178422
514.269	0.0178927
514.348	0.0178450
514.426	0.0179092
514.504	0.0178166
514.582	0.0178893
514.660	0.0178657
514.738	0.0179223
514.816	0.0179000
514.894	0.0179195
514.973	0.0179217
515.051	0.0179530
515.129	0.0179190
515.207	0.0180061
515.285	0.0179963
515.363	0.0179425
515.441	0.0177835
515.519	0.0178664
515.598	0.0179704
515.676	0.0179645
515.754	0.0180075
515.832	0.0178459
515.910	0.0179149
515.988	0.0180048
516.066	0.0178410
516.144	0.0179591
516.223	0.0179922
516.301	0.0179430
516.379	0.0179443
516.457	0.0178971
516.535	0.0178594
516.613	0.0180150
516.691	0.0179118
516.769	0.0179629
516.848	0.0180406
516.926	0.0178824
517.004	0.0178646
517.082	0.0179758
517.160	0.0179931
517.238	0.0180755
517.316	0.0179673
517.394	0.0180902
517.473	0.0179965
517.551	0.0178582
517.629	0.0180840
517.707	0.0180002
517.785	0.0180215
517.863	0.0180775
517.941	0.0179364
518.019	0.0181927
518.098	0.0181590
518.176	0.0179977
518.254	0.0179513
518.332	0.0180112
518.410	0.0181426
518.488	0.0181210
518.566	0.0180295
518.644	0.0178879
518.723	0.0180118
518.801	0.0181564
518.879	0.0180528
518.957	0.0179481
519.035	0.0180257
519.113	0.0180859
519.191	0.0180795
519.269	0.0180175
519.348	0.0179153
519.426	0.0181264
519.504	0.0181208
519.582	0.0181011
519.660	0.0179518
519.738	0.0180252
519.816	0.0180366
519.894	0.0180002
519.973	0.0181487
520.051	0.0180576
520.129	0.0180543
520.207	0.0181332
520.285	0.0180710
520.363	0.0182683
520.441	0.0181100
520.519	0.0180539
520.598	0.0181415
520.676	0.0181285
520.754	0.0180191
520.832	0.0180576
520.910	0.0180836
520.988	0.0181435
521.066	0.0181719
521.144	0.0180731
521.223	0.0179718
521.301	0.0180386
521.379	0.0181168
521.457	0.0180918
521.535	0.0181129
521.613	0.0181899
521.691	0.0181909
521.769	0.0180560
521.848	0.0180399
521.926	0.0181291
522.004	0.0181449
522.082	0.0181661
522.160	0.0180940
522.238	0.0180136
522.316	0.0180416
522.394	0.0182372
522.473	0.0179462
522.551	0.0180580
522.629	0.0180384
522.707	0.0181430
522.785	0.0181164
522.863	0.0180605
522.941	0.0181444
523.019	0.0182346
523.098	0.0179528
523.176	0.0180956
523.254	0.0180048
523.332	0.0179617
523.410	0.0182436
523.488	0.0180174
523.566	0.0179824
523.644	0.0181693
523.723	0.0180356
523.801	0.0180649
523.879	0.0180549
523.957	0.0179261
524.035	0.0180478
524.113	0.0180020
524.191	0.0180527
524.269	0.0181055
524.348	0.0181651
524.426	0.0180843
524.504	0.0181390
524.582	0.0179984
524.660	0.0179904
524.738	0.0180639
524.816	0.0181509
524.894	0.0180688
524.973	0.0180125
525.051	0.0181774
525.129	0.0180103
525.207	0.0181421
525.285	0.0181766
525.363	0.0180394
525.441	0.0180927
525.519	0.0180611
525.598	0.0180224
525.676	0.0180556
525.754	0.0180166
525.832	0.0180855
525.910	0.0180486
525.988	0.0179717
526.066	0.0181161
526.144	0.0180595
526.223	0.0180670
526.301	0.0180885
526.379	0.0181434
526.457	0.0180036
526.535	0.0181477
526.613	0.0181445
526.691	0.0181425
526.769	0.0180562
526.848	0.0180494
526.926	0.0180631
527.004	0.0180972
527.082	0.0181359
527.160	0.0180683
527.238	0.0181634
527.316	0.0180412
527.394	0.0180756
527.473	0.0181554
527.551	0.0180533
527.629	0.0179511
527.707	0.0180842
527.785	0.0180989
527.863	0.0180441
527.941	0.0180360
528.019	0.0179607
528.098	0.0179865
528.176	0.0179193
528.254	0.0179635
528.332	0.0180436
528.410	0.0179482
528.488	0.0179312
528.566	0.0180205
528.644	0.0179134
528.723	0.0180512
528.801	0.0180904
528.879	0.0180112
528.957	0.0181334
529.035	0.0178842
529.113	0.0180973
529.191	0.0180958
529.269	0.0180311
529.348	0.0181140
529.426	0.0180621
529.504	0.0179414
529.582	0.0181841
529.660	0.0180571
529.738	0.0180084
529.816	0.0179526
529.894	0.0181161
529.973	0.0179729
530.051	0.0179356
530.129	0.0178890
530.207	0.0179971
530.285	0.0180067
530.363	0.0180060
530.441	0.0178600
530.519	0.0179847
530.598	0.0179775
530.676	0.0178349
530.754	0.0179331
530.832	0.0179324
530.910	0.0179913
530.988	0.0180035
531.066	0.0179653
531.144	0.0179390
531.223	0.0179170
531.301	0.0179530
531.379	0.0180522
531.457	0.0179540
531.535	0.0179987
531.613	0.0179826
531.691	0.0178870
531.769	0.0180152
531.848	0.0178963
531.926	0.0179818
532.004	0.0180004
532.082	0.0178531
532.160	0.0179344
532.238	0.0178851
532.316	0.0177367
532.394	0.0180304
532.473	0.0180596
532.551	0.0178814
532.629	0.0177045
532.707	0.0178919
532.785	0.0179102
532.863	0.0179072
532.941	0.0177310
533.019	0.0178801
533.098	0.0178587
533.176	0.0178857
533.254	0.0178695
533.332	0.0177447
533.410	0.0177538
533.488	0.0177329
533.566	0.0179314
533.644	0.0178071
533.723	0.0177904
533.801	0.0178498
533.879	0.0177119
533.957	0.0177496
534.035	0.0178111
534.113	0.0178137
534.191	0.0177686
534.269	0.0177093
534.348	0.0178050
534.426	0.0178466
534.504	0.0177259
534.582	0.0177823
534.660	0.0177335
534.738	0.0179418
534.816	0.0177165
534.894	0.0177924
534.973	0.0178413
535.051	0.0177874
535.129	0.0177108
535.207	0.0177854
535.285	0.0178630
535.363	0.0177582
535.441	0.0177050
535.519	0.0178715
535.598	0.0178510
535.676	0.0177888
535.754	0.0177454
535.832	0.0176337
535.910	0.0177164
535.988	0.0177520
536.066	0.0177712
536.144	0.0177699
536.223	0.0178004
536.301	0.0177374
536.379	0.0177975
536.457	0.0178148
536.535	0.0179374
536.613	0.0178693
536.691	0.0178165
536.769	0.0177219
536.848	0.0178170
536.926	0.0177504
537.004	0.0179388
537.082	0.0179026
537.160	0.0179705
537.238	0.0177808
537.316	0.0178837
537.394	0.0179588
537.473	0.0179841
537.551	0.0181120
537.629	0.0180077
537.707	0.0179663
537.785	0.0179790
537.863	0.0180864
537.941	0.0179722
538.019	0.0180245
538.098	0.0180943
538.176	0.0182163
538.254	0.0179795
538.332	0.0180053
538.410	0.0180818
538.488	0.0181590
538.566	0.0181675
538.644	0.0181993
538.723	0.0179030
538.801	0.0181274
538.879	0.0181715
538.957	0.0181888
539.035	0.0180347
539.113	0.0181058
539.191	0.0183433
539.269	0.0183163
539.348	0.0181827
539.426	0.0182738
539.504	0.0183244
539.582	0.0183724
539.660	0.0183679
539.738	0.0182503
539.816	0.0184628
539.894	0.0184069
539.973	0.0185239
540.051	0.0185278
540.129	0.0183372
540.207	0.0183857
540.285	0.0184489
540.363	0.0185144
540.441	0.0184619
540.519	0.0183378
540.598	0.0184422
540.676	0.0185878
540.754	0.0184782
540.832	0.0183466
540.910	0.0184457
540.988	0.0184370
541.066	0.0182538
541.144	0.0183267
541.223	0.0183717
541.301	0.0181388
541.379	0.0181480
541.457	0.0182439
541.535	0.0181767
541.613	0.0180712
541.691	0.0181197
541.769	0.0180842
541.848	0.0179802
541.926	0.0178969
542.004	0.0179922
542.082	0.0180450
542.160	0.0178802
542.238	0.0178629
542.316	0.0178594
542.394	0.0179325
542.473	0.0178974
542.551	0.0178800
542.629	0.0179621
542.707	0.0179443
542.785	0.0177879
542.863	0.0178743
542.941	0.0178298
543.019	0.0179866
543.098	0.0178870
543.176	0.0180003
543.254	0.0179510
543.332	0.0179805
543.410	0.0180618
543.488	0.0179116
543.566	0.0180336
543.644	0.0179933
543.723	0.0179171
543.801	0.0179318
543.879	0.0178998
543.957	0.0178719
544.035	0.0179948
544.113	0.0180989
544.191	0.0179564
544.269	0.0178964
544.348	0.0179767
544.426	0.0181598
544.504	0.0180887
544.582	0.0179309
544.660	0.0180782
544.738	0.0179986
544.816	0.0179391
544.894	0.0178283
544.973	0.0180197
545.051	0.0179230
545.129	0.0179202
545.207	0.0179408
545.285	0.0177989
545.363	0.0179427
545.441	0.0179594
545.519	0.0177785
545.598	0.0179484
545.676	0.0179422
545.754	0.0178752
545.832	0.0178694
545.910	0.0179408
545.988	0.0178397
546.066	0.0179669
546.144	0.0178548
546.223	0.0179659
546.301	0.0178739
546.379	0.0177138
546.457	0.0178024
546.535	0.0178156
546.613	0.0178683
546.691	0.0178699
546.769	0.0177518
546.848	0.0177455
546.926	0.0180286
547.004	0.0178553
547.082	0.0179927
547.160	0.0179659
547.238	0.0179124
547.316	0.0179346
547.394	0.0179503
547.473	0.0178342
547.551	0.0179307
547.629	0.0178177
547.707	0.0179334
547.785	0.0179366
547.863	0.0179697
547.941	0.0181586
548.019	0.0179927
548.098	0.0179626
548.176	0.0180280
548.254	0.0180398
548.332	0.0181018
548.410	0.0180331
548.488	0.0180873
548.566	0.0182027
548.644	0.0180617
548.723	0.0180468
548.801	0.0180609
548.879	0.0181211
548.957	0.0182545
549.035	0.0180870
549.113	0.0181414
549.191	0.0182430
549.269	0.0181550
549.348	0.0181919
549.426	0.0183470
549.504	0.0182621
549.582	0.0181772
549.660	0.0184381
549.738	0.0182470
549.816	0.0182018
549.894	0.0182732
549.973	0.0182772
550.051	0.0182800
550.129	0.0182413
550.207	0.0183897
550.285	0.0184425
550.363	0.0183234
550.441	0.0182909
550.519	0.0182250
550.598	0.0181940
550.676	0.0180631
550.754	0.0182184
550.832	0.0182270
550.910	0.0181548
550.988	0.0181555
551.066	0.0181331
551.144	0.0180494
551.223	0.0180141
551.301	0.0179060
551.379	0.0180911
551.457	0.0179196
551.535	0.0179360
551.613	0.0180357
551.691	0.0179560
551.769	0.0178439
551.848	0.0179340
551.926	0.0179523
552.004	0.0178206
552.082	0.0178797
552.160	0.0179487
552.238	0.0181432
552.316	0.0180647
552.394	0.0179688
552.473	0.0179182
552.551	0.0180888
552.629	0.0179778
552.707	0.0180204
552.785	0.0180331
552.863	0.0179003
552.941	0.0180373
553.019	0.0179441
553.098	0.0178156
553.176	0.0178865
553.254	0.0179794
553.332	0.0177534
553.410	0.0179536
553.488	0.0178870
553.566	0.0179092
553.644	0.0177348
553.723	0.0177677
553.801	0.0179427
553.879	0.0178937
553.957	0.0179150
554.035	0.0178183
554.113	0.0178976
554.191	0.0178539
554.269	0.0179322
554.348	0.0178791
554.426	0.0179266
554.504	0.0179175
554.582	0.0179908
554.660	0.0179684
554.738	0.0179807
554.816	0.0179019
554.894	0.0179232
554.973	0.0180062
555.051	0.0179537
555.129	0.0178184
555.207	0.0176847
555.285	0.0178679
555.363	0.0178613
555.441	0.0178889
555.519	0.0176663
555.598	0.0178275
555.676	0.0179269
555.754	0.0178394
555.832	0.0179211
555.910	0.0178310
555.988	0.0178448
556.066	0.0177952
556.144	0.0178901
556.223	0.0177940
556.301	0.0178017
556.379	0.0178941
556.457	0.0178663
556.535	0.0178205
556.613	0.0177652
556.691	0.0177924
556.769	0.0179352
556.848	0.0177335
556.926	0.0178911
557.004	0.0178822
557.082	0.0178851
557.160	0.0178963
557.238	0.0178591
557.316	0.0179105
557.394	0.0178585
557.473	0.0178713
557.551	0.0178910
557.629	0.0179794
557.707	0.0178989
557.785	0.0178517
557.863	0.0179403
557.941	0.0180984
558.019	0.0180220
558.098	0.0178316
558.176	0.0178996
558.254	0.0180572
558.332	0.0179737
558.410	0.0179391
558.488	0.0180082
558.566	0.0180190
558.644	0.0180849
558.723	0.0180809
558.801	0.0180267
558.879	0.0180827
558.957	0.0179863
559.035	0.0178846
559.113	0.0180579
559.191	0.0180217
559.269	0.0179137
559.348	0.0179204
559.426	0.0180032
559.504	0.0180206
559.582	0.0181152
559.660	0.0181097
559.738	0.0179601
559.816	0.0180611
559.894	0.0180356
559.973	0.0180885
560.051	0.0181149
560.129	0.0180453
560.207	0.0179945
560.285	0.0181361
560.363	0.0181433
560.441	0.0180078
560.519	0.0180099
560.598	0.0181232
560.676	0.0180923
560.754	0.0181142
560.832	0.0182197
560.910	0.0180701
560.988	0.0182275
561.066	0.0182905
561.144	0.0180916
561.223	0.0179897
561.301	0.0181178
561.379	0.0181449
561.457	0.0179198
561.535	0.0180945
561.613	0.0181705
561.691	0.0181109
561.769	0.0180260
561.848	0.0181226
561.926	0.0180447
562.004	0.0179647
562.082	0.0180204
562.160	0.0180330
562.238	0.0180640
562.316	0.0180277
562.394	0.0181387
562.473	0.0180244
562.551	0.0180680
562.629	0.0181487
562.707	0.0180439
562.785	0.0180322
562.863	0.0180461
562.941	0.0180409
563.019	0.0179472
563.098	0.0180791
563.176	0.0180679
563.254	0.0180884
563.332	0.0179704
563.410	0.0180247
563.488	0.0180653
563.566	0.0180694
563.644	0.0179951
563.723	0.0179501
563.801	0.0180289
563.879	0.0180241
563.957	0.0179829
564.035	0.0180362
564.113	0.0179792
564.191	0.0181482
564.269	0.0180140
564.348	0.0179794
564.426	0.0179999
564.504	0.0181014
564.582	0.0180041
564.660	0.0179326
564.738	0.0180721
564.816	0.0180020
564.894	0.0180956
564.973	0.0181381
565.051	0.0180647
565.129	0.0180348
565.207	0.0179959
565.285	0.0180019
565.363	0.0181330
565.441	0.0179932
565.519	0.0180100
565.598	0.0180303
565.676	0.0178944
565.754	0.0179108
565.832	0.0180296
565.910	0.0179844
565.988	0.0177901
566.066	0.0180036
566.144	0.0179501
566.223	0.0180497
566.301	0.0180413
566.379	0.0179366
566.457	0.0179010
566.535	0.0179049
566.613	0.0180473
566.691	0.0181190
566.769	0.0179655
566.848	0.0178153
566.926	0.0178923
567.004	0.0178912
567.082	0.0180988
567.160	0.0179961
567.238	0.0178743
567.316	0.0180257
567.394	0.0179278
567.473	0.0179723
567.551	0.0179701
567.629	0.0180352
567.707	0.0179839
567.785	0.0178200
567.863	0.0180233
567.941	0.0180940
568.019	0.0179794
568.098	0.0179891
568.176	0.0181599
568.254	0.0180075
568.332	0.0180858
568.410	0.0181365
568.488	0.0180372
568.566	0.0181167
568.644	0.0180189
568.723	0.0181399
568.801	0.0181274
568.879	0.0180891
568.957	0.0180801
569.035	0.0180643
569.113	0.0182043
569.191	0.0181185
569.269	0.0179098
569.348	0.0180502
569.426	0.0181292
569.504	0.0180879
569.582	0.0180584
569.660	0.0180421
569.738	0.0181335
569.816	0.0180763
569.894	0.0181504
569.973	0.0181060
570.051	0.0181758
570.129	0.0181423
570.207	0.0180316
570.285	0.0181138
570.363	0.0181532
570.441	0.0180032
570.519	0.0181108
570.598	0.0181054
570.676	0.0181503
570.754	0.0180793
570.832	0.0180729
570.910	0.0181042
570.988	0.0182140
571.066	0.0181277
571.144	0.0180978
571.223	0.0182166
571.301	0.0181399
571.379	0.0182339
571.457	0.0180886
571.535	0.0181110
571.613	0.0181777
571.691	0.0182149
571.769	0.0180856
571.848	0.0182036
571.926	0.0181094
572.004	0.0182487
572.082	0.0182254
572.160	0.0180942
572.238	0.0180828
572.316	0.0181615
572.394	0.0181480
572.473	0.0182240
572.551	0.0180550
572.629	0.0181303
572.707	0.0182796
572.785	0.0180566
572.863	0.0180304
572.941	0.0181546
573.019	0.0181222
573.098	0.0180723
573.176	0.0180695
573.254	0.0180450
573.332	0.0179960
573.410	0.0180437
573.488	0.0181401
573.566	0.0180306
573.644	0.0180067
573.723	0.0180052
573.801	0.0180363
573.879	0.0181330
573.957	0.0180544
574.035	0.0179450
574.113	0.0180009
574.191	0.0179893
574.269	0.0178898
574.348	0.0180347
574.426	0.0180103
574.504	0.0180151
574.582	0.0180183
574.660	0.0179448
574.738	0.0179087
574.816	0.0181271
574.894	0.0180023
574.973	0.0179333
575.051	0.0180730
575.129	0.0180076
575.207	0.0179246
575.285	0.0178562
575.363	0.0178264
575.441	0.0179714
575.519	0.0179873
575.598	0.0180257
575.676	0.0180171
575.754	0.0178627
575.832	0.0179174
575.910	0.0180028
575.988	0.0179344
576.066	0.0180515
576.144	0.0180341
576.223	0.0179974
576.301	0.0179966
576.379	0.0180225
576.457	0.0179497
576.535	0.0179974
576.613	0.0180814
576.691	0.0179481
576.769	0.0179975
576.848	0.0179486
576.926	0.0179259
577.004	0.0178599
577.082	0.0179741
577.160	0.0179701
577.238	0.0180170
577.316	0.0179160
577.394	0.0179263
577.473	0.0179056
577.551	0.0181232
577.629	0.0179545
577.707	0.0180442
577.785	0.0180247
577.863	0.0180218
577.941	0.0179637
578.019	0.0179127
578.098	0.0180630
578.176	0.0180348
578.254	0.0179958
578.332	0.0178491
578.410	0.0179797
578.488	0.0180132
578.566	0.0180296
578.644	0.0179134
578.723	0.0180794
578.801	0.0180856
578.879	0.0181650
578.957	0.0179661
579.035	0.0178756
579.113	0.0181882
579.191	0.0182576
579.269	0.0179499
579.348	0.0179906
579.426	0.0181046
579.504	0.0179037
579.582	0.0180913
579.660	0.0180322
579.738	0.0179360
579.816	0.0179985
579.894	0.0181018
579.973	0.0179598
580.051	0.0180889
580.129	0.0182095
580.207	0.0181841
580.285	0.0181331
580.363	0.0179971
580.441	0.0180965
580.519	0.0179398
580.598	0.0180746
580.676	0.0180694
580.754	0.0180242
580.832	0.0180967
580.910	0.0180524
580.988	0.0181571
581.066	0.0179868
581.144	0.0180199
581.223	0.0179166
581.301	0.0180344
581.379	0.0179771
581.457	0.0179124
581.535	0.0179781
581.613	0.0180093
581.691	0.0179573
581.769	0.0179128
581.848	0.0178581
581.926	0.0178606
582.004	0.0179706
582.082	0.0179984
582.160	0.0180289
582.238	0.0179842
582.316	0.0178820
582.394	0.0179993
582.473	0.0179160
582.551	0.0178756
582.629	0.0179682
582.707	0.0179626
582.785	0.0177348
582.863	0.0179144
582.941	0.0179051
583.019	0.0176955
583.098	0.0178121
583.176	0.0179681
583.254	0.0178141
583.332	0.0178714
583.410	0.0178617
583.488	0.0178889
583.566	0.0177819
583.644	0.0179427
583.723	0.0178964
583.801	0.0177425
583.879	0.0177474
583.957	0.0179046
584.035	0.0178246
584.113	0.0178007
584.191	0.0178392
584.269	0.0177370
584.348	0.0179003
584.426	0.0178393
584.504	0.0177157
584.582	0.0177231
584.660	0.0179056
584.738	0.0178522
584.816	0.0178098
584.894	0.0178115
584.973	0.0177893
585.051	0.0176904
585.129	0.0176938
585.207	0.0177554
585.285	0.0177148
585.363	0.0179021
585.441	0.0179187
585.519	0.0176820
585.598	0.0176590
585.676	0.0178011
585.754	0.0178381
585.832	0.0177959
585.910	0.0177879
585.988	0.0178147
586.066	0.0180587
586.144	0.0179301
586.223	0.0178216
586.301	0.0179449
586.379	0.0179690
586.457	0.0178921
586.535	0.0179337
586.613	0.0178889
586.691	0.0179290
586.769	0.0178985
586.848	0.0179681
586.926	0.0179452
587.004	0.0179726
587.082	0.0178697
587.160	0.0178440
587.238	0.0179226
587.316	0.0179172
587.394	0.0178919
587.473	0.0179461
587.551	0.0180657
587.629	0.0178828
587.707	0.0178991
587.785	0.0179453
587.863	0.0179054
587.941	0.0179382
588.019	0.0180519
588.098	0.0180784
588.176	0.0179198
588.254	0.0179889
588.332	0.0179926
588.410	0.0178715
588.488	0.0178402
588.566	0.0180098
588.644	0.0181513
588.723	0.0181546
588.801	0.0179692
588.879	0.0180751
588.957	0.0180596
589.035	0.0181030
589.113	0.0181773
589.191	0.0181873
589.269	0.0180560
589.348	0.0182058
589.426	0.0180347
589.504	0.0179240
589.582	0.0181361
589.660	0.0181702
589.738	0.0180193
589.816	0.0180113
589.894	0.0181007
589.973	0.0181733
590.051	0.0181042
590.129	0.0181347
590.207	0.0181409
590.285	0.0180855
590.363	0.0180856
590.441	0.0180006
590.519	0.0180837
590.598	0.0182443
590.676	0.0182178
590.754	0.0182420
590.832	0.0182059
590.910	0.0180760
590.988	0.0180859
591.066	0.0180161
591.144	0.0181156
591.223	0.0182133
591.301	0.0179801
591.379	0.0180737
591.457	0.0180664
591.535	0.0182497
591.613	0.0181583
591.691	0.0181413
591.769	0.0181367
591.848	0.0179014
591.926	0.0181027
592.004	0.0179980
592.082	0.0180370
592.160	0.0181142
592.238	0.0180423
592.316	0.0180383
592.394	0.0180392
592.473	0.0182229
592.551	0.0180470
592.629	0.0181390
592.707	0.0180206
592.785	0.0180051
592.863	0.0180552
592.941	0.0179854
593.019	0.0180529
593.098	0.0180060
593.176	0.0179456
593.254	0.0179552
593.332	0.0179069
593.410	0.0180745
593.488	0.0180305
593.566	0.0180618
593.644	0.0181063
593.723	0.0179272
593.801	0.0179494
593.879	0.0180718
593.957	0.0179549
594.035	0.0181129
594.113	0.0180695
594.191	0.0180721
594.269	0.0179956
594.348	0.0179694
594.426	0.0179285
594.504	0.0179768
594.582	0.0180385
594.660	0.0179502
594.738	0.0180627
594.816	0.0179485
594.894	0.0179872
594.973	0.0178447
595.051	0.0178788
595.129	0.0179046
595.207	0.0178460
595.285	0.0179064
595.363	0.0179933
595.441	0.0179959
595.519	0.0179713
595.598	0.0180000
595.676	0.0179143
595.754	0.0180421
595.832	0.0178948
595.910	0.0180574
595.988	0.0180740
596.066	0.0178828
596.144	0.0180594
596.223	0.0179345
596.301	0.0181102
596.379	0.0179770
596.457	0.0180901
596.535	0.0179191
596.613	0.0178904
596.691	0.0180363
596.769	0.0179843
596.848	0.0180161
596.926	0.0180367
597.004	0.0180296
597.082	0.0180657
597.160	0.0180186
597.238	0.0181288
597.316	0.0180407
597.394	0.0181355
597.473	0.0180945
597.551	0.0179691
597.629	0.0179164
597.707	0.0180213
597.785	0.0181163
597.863	0.0180003
597.941	0.0180427
598.019	0.0180472
598.098	0.0181214
598.176	0.0180798
598.254	0.0180797
598.332	0.0181099
598.410	0.0180442
598.488	0.0180011
598.566	0.0180006
598.644	0.0180836
598.723	0.0180509
598.801	0.0179632
598.879	0.0180136
598.957	0.0181366
599.035	0.0180900
599.113	0.0181055
599.191	0.0180929
599.269	0.0179274
599.348	0.0180499
599.426	0.0181062
599.504	0.0180035
599.582	0.0179941
599.660	0.0179974
599.738	0.0180038
599.816	0.0179391
599.894	0.0180805
599.973	0.0179926
600.051	0.0179594
600.129	0.0180012
600.207	0.0180877
600.285	0.0181215
600.363	0.0180630
600.441	0.0180068
600.519	0.0179684
600.598	0.0180409
600.676	0.0180500
600.754	0.0179422
600.832	0.0180278
600.910	0.0180627
600.988	0.0181165
601.066	0.0179819
601.144	0.0180472
601.223	0.0181294
601.301	0.0180067
601.379	0.0180497
601.457	0.0179192
601.535	0.0179527
601.613	0.0179301
601.691	0.0179800
601.769	0.0180619
601.848	0.0179659
601.926	0.0178661
602.004	0.0178620
602.082	0.0178386
602.160	0.0179326
602.238	0.0178999
602.316	0.0181010
602.394	0.0179272
602.473	0.0178693
602.551	0.0181293
602.629	0.0179814
602.707	0.0179003
602.785	0.0180505
602.863	0.0178085
602.941	0.0178930
603.019	0.0178461
603.098	0.0177011
603.176	0.0179016
603.254	0.0178702
603.332	0.0179054
603.410	0.0178398
603.488	0.0178191
603.566	0.0179295
603.644	0.0178792
603.723	0.0178520
603.801	0.0180125
603.879	0.0178808
603.957	0.0179255
604.035	0.0178737
604.113	0.0178883
604.191	0.0178192
604.269	0.0176891
604.348	0.0178809
604.426	0.0178616
604.504	0.0179132
604.582	0.0179584
604.660	0.0177110
604.738	0.0178706
604.816	0.0178757
604.894	0.0176909
604.973	0.0179173
605.051	0.0177028
605.129	0.0178471
605.207	0.0178998
605.285	0.0178034
605.363	0.0178800
605.441	0.0177535
605.519	0.0178613
605.598	0.0177927
605.676	0.0179488
605.754	0.0178755
605.832	0.0178925
605.910	0.0179281
605.988	0.0180807
606.066	0.0177685
606.144	0.0177789
606.223	0.0179782
606.301	0.0178951
606.379	0.0178752
606.457	0.0178315
606.535	0.0179315
606.613	0.0178815
606.691	0.0178084
606.769	0.0179762
606.848	0.0178823
606.926	0.0179281
607.004	0.0180145
607.082	0.0179983
607.160	0.0179613
607.238	0.0179366
607.316	0.0180480
607.394	0.0178860
607.473	0.0178159
607.551	0.0180333
607.629	0.0180222
607.707	0.0179370
607.785	0.0178871
607.863	0.0180092
607.941	0.0180507
608.019	0.0179642
608.098	0.0179705
608.176	0.0180418
608.254	0.0179618
608.332	0.0179034
608.410	0.0180099
608.488	0.0179993
608.566	0.0181673
608.644	0.0180437
608.723	0.0179781
608.801	0.0179745
608.879	0.0179539
608.957	0.0179330
609.035	0.0180363
609.113	0.0179829
609.191	0.0178934
609.269	0.0180461
609.348	0.0179887
609.426	0.0178675
609.504	0.0179319
609.582	0.0179623
609.660	0.0178833
609.738	0.0178967
609.816	0.0179503
609.894	0.0180672
609.973	0.0179916
610.051	0.0179886
610.129	0.0179845
610.207	0.0180428
610.285	0.0181541
610.363	0.0180976
610.441	0.0179417
610.519	0.0179604
610.598	0.0182417
610.676	0.0179812
610.754	0.0179052
610.832	0.0180058
610.910	0.0179228
610.988	0.0181091
611.066	0.0180910
611.144	0.0181499
611.223	0.0180499
611.301	0.0181346
611.379	0.0179903
611.457	0.0180676
611.535	0.0180581
611.613	0.0180750
611.691	0.0180823
611.769	0.0182259
611.848	0.0181258
611.926	0.0181087
612.004	0.0181693
612.082	0.0181608
612.160	0.0179759
612.238	0.0179689
612.316	0.0179999
612.394	0.0181033
612.473	0.0181012
612.551	0.0180750
612.629	0.0180512
612.707	0.0180554
612.785	0.0179963
612.863	0.0180507
612.941	0.0182040
613.019	0.0180416
613.098	0.0180740
613.176	0.0179134
613.254	0.0180286
613.332	0.0180636
613.410	0.0180106
613.488	0.0179789
613.566	0.0181277
613.644	0.0179681
613.723	0.0180631
613.801	0.0182185
613.879	0.0180447
613.957	0.0180000
614.035	0.0181091
614.113	0.0180310
614.191	0.0180032
614.269	0.0178452
614.348	0.0180490
614.426	0.0181706
614.504	0.0180501
614.582	0.0179343
614.660	0.0179295
614.738	0.0179816
614.816	0.0180173
614.894	0.0180711
614.973	0.0181085
615.051	0.0179075
615.129	0.0178979
615.207	0.0179491
615.285	0.0179847
615.363	0.0181465
615.441	0.0179461
615.519	0.0179914
615.598	0.0179205
615.676	0.0179703
615.754	0.0179523
615.832	0.0179483
615.910	0.0180104
615.988	0.0180270
616.066	0.0180466
616.144	0.0179645
616.223	0.0180311
616.301	0.0180619
616.379	0.0178513
616.457	0.0179546
616.535	0.0181487
616.613	0.0180018
616.691	0.0179476
616.769	0.0180045
616.848	0.0180025
616.926	0.0180134
617.004	0.0178558
617.082	0.0179367
617.160	0.0178468
617.238	0.0179852
617.316	0.0180235
617.394	0.0178972
617.473	0.0179510
617.551	0.0179907
617.629	0.0180242
617.707	0.0181232
617.785	0.0180116
617.863	0.0180031
617.941	0.0179680
618.019	0.0179694
618.098	0.0178688
618.176	0.0179765
618.254	0.0181363
618.332	0.0180802
618.410	0.0179591
618.488	0.0180999
618.566	0.0181418
618.644	0.0180482
618.723	0.0179631
618.801	0.0179976
618.879	0.0180479
618.957	0.0181041
619.035	0.0178933
619.113	0.0180434
619.191	0.0181236
619.269	0.0180341
619.348	0.0181161
619.426	0.0180698
619.504	0.0180988
619.582	0.0180913
619.660	0.0179768
619.738	0.0178872
619.816	0.0179991
619.894	0.0180785
619.973	0.0181736
620.051	0.0181369
620.129	0.0180767
620.207	0.0180499
620.285	0.0180939
620.363	0.0181575
620.441	0.0179800
620.519	0.0181599
620.598	0.0181403
620.676	0.0180133
620.754	0.0180385
620.832	0.0181403
620.910	0.0180720
620.988	0.0180693
621.066	0.0181270
621.144	0.0180628
621.223	0.0181297
621.301	0.0181517
621.379	0.0181869
621.457	0.0182443
621.535	0.0180882
621.613	0.0180409
621.691	0.0181375
621.769	0.0182013
621.848	0.0181629
621.926	0.0181129
622.004	0.0180477
622.082	0.0180458
622.160	0.0182788
622.238	0.0180678
622.316	0.0181508
622.394	0.0181526
622.473	0.0182535
622.551	0.0180795
622.629	0.0180375
622.707	0.0181290
622.785	0.0180882
622.863	0.0182445
622.941	0.0179964
623.019	0.0180441
623.098	0.0180916
623.176	0.0181295
623.254	0.0180743
623.332	0.0181297
623.410	0.0180920
623.488	0.0181141
623.566	0.0181812
623.644	0.0180128
623.723	0.0179598
623.801	0.0180620
623.879	0.0180003
623.957	0.0181078
624.035	0.0178904
624.113	0.0180640
624.191	0.0181467
624.269	0.0180836
624.348	0.0180167
624.426	0.0179838
624.504	0.0181281
624.582	0.0179349
624.660	0.0179111
624.738	0.0180739
624.816	0.0181525
624.894	0.0180343
624.973	0.0179892
625.051	0.0180149
625.129	0.0180442
625.207	0.0180206
625.285	0.0179820
625.363	0.0179398
625.441	0.0180071
625.519	0.0179507
625.598	0.0180021
625.676	0.0180611
625.754	0.0179826
625.832	0.0180251
625.910	0.0179615
625.988	0.0179581
626.066	0.0179996
626.144	0.0179708
626.223	0.0179457
626.301	0.0179794
626.379	0.0181037
626.457	0.0180526
626.535	0.0179365
626.613	0.0180045
626.691	0.0180048
626.769	0.0180254
626.848	0.0179599
626.926	0.0179270
627.004	0.0179946
627.082	0.0179842
627.160	0.0178474
627.238	0.0180177
627.316	0.0180132
627.394	0.0180157
627.473	0.0180455
627.551	0.0180167
627.629	0.0180325
627.707	0.0180526
627.785	0.0180139
627.863	0.0180056
627.941	0.0181541
628.019	0.0179832
628.098	0.0179491
628.176	0.0179813
628.254	0.0180219
628.332	0.0180556
628.410	0.0181039
628.488	0.0178252
628.566	0.0180108
628.644	0.0180593
628.723	0.0179101
628.801	0.0179716
628.879	0.0178621
628.957	0.0180074
629.035	0.0180063
629.113	0.0180383
629.191	0.0179969
629.269	0.0179022
629.348	0.0179509
629.426	0.0179074
629.504	0.0179092
629.582	0.0181101
629.660	0.0178783
629.738	0.0179336
629.816	0.0178887
629.894	0.0179765
629.973	0.0179784
630.051	0.0178928
630.129	0.0179567
630.207	0.0180194
630.285	0.0179485
630.363	0.0180671
630.441	0.0179151
630.519	0.0180640
630.598	0.0179778
630.676	0.0178689
630.754	0.0180449
630.832	0.0180545
630.910	0.0179804
630.988	0.0180104
631.066	0.0179777
631.144	0.0179284
631.223	0.0179365
631.301	0.0181057
631.379	0.0180386
631.457	0.0181590
631.535	0.0180797
631.613	0.0179844
631.691	0.0179711
631.769	0.0180545
631.848	0.0181364
631.926	0.0180132
632.004	0.0180438
632.082	0.0181149
632.160	0.0180794
632.238	0.0181526
632.316	0.0182683
632.394	0.0180992
632.473	0.0181799
632.551	0.0180769
632.629	0.0180087
632.707	0.0182222
632.785	0.0181736
632.863	0.0181439
632.941	0.0181387
633.019	0.0181282
633.098	0.0181390
633.176	0.0181812
633.254	0.0180906
633.332	0.0180075
633.410	0.0180946
633.488	0.0180056
633.566	0.0183073
633.644	0.0180692
633.723	0.0182012
633.801	0.0180019
633.879	0.0181031
633.957	0.0181493
634.035	0.0181428
634.113	0.0181817
634.191	0.0180389
634.269	0.0180433
634.348	0.0182074
634.426	0.0182033
634.504	0.0181227
634.582	0.0181092
634.660	0.0182833
634.738	0.0180386
634.816	0.0180974
634.894	0.0181271
634.973	0.0181554
635.051	0.0181103
635.129	0.0180199
635.207	0.0180637
635.285	0.0180813
635.363	0.0181319
635.441	0.0180460
635.519	0.0180474
635.598	0.0181111
635.676	0.0181842
635.754	0.0181451
635.832	0.0182047
635.910	0.0179797
635.988	0.0179836
636.066	0.0180121
636.144	0.0181979
636.223	0.0180550
636.301	0.0179353
636.379	0.0179784
636.457	0.0180663
636.535	0.0181390
636.613	0.0182003
636.691	0.0180513
636.769	0.0179861
636.848	0.0179823
636.926	0.0181274
637.004	0.0178758
637.082	0.0179785
637.160	0.0181310
637.238	0.0180811
637.316	0.0178986
637.394	0.0181002
637.473	0.0180296
637.551	0.0180647
637.629	0.0179935
637.707	0.0180561
637.785	0.0179881
637.863	0.0180645
637.941	0.0181937
638.019	0.0181210
638.098	0.0180018
638.176	0.0180177
638.254	0.0180190
638.332	0.0180137
638.410	0.0179934
638.488	0.0179759
638.566	0.0179414
638.644	0.0178768
638.723	0.0178439
638.801	0.0180960
638.879	0.0179306
638.957	0.0179933
639.035	0.0179050
639.113	0.0179704
639.191	0.0180330
639.269	0.0178693
639.348	0.0178905
639.426	0.0181068
639.504	0.0180033
639.582	0.0179861
639.660	0.0179102
639.738	0.0179770
639.816	0.0180032
639.894	0.0179932
639.973	0.0178594
640.051	0.0180208
640.129	0.0181197
640.207	0.0181077
640.285	0.0178709
640.363	0.0180355
640.441	0.0180054
640.519	0.0180927
640.598	0.0180967
640.676	0.0179680
640.754	0.0180946
640.832	0.0181393
640.910	0.0181376
640.988	0.0180684
641.066	0.0179845
641.144	0.0180907
641.223	0.0181535
641.301	0.0180131
641.379	0.0180297
641.457	0.0181232
641.535	0.0181380
641.613	0.0182258
641.691	0.0182298
641.769	0.0181406
641.848	0.0180949
641.926	0.0181976
642.004	0.0181995
642.082	0.0181731
642.160	0.0180774
642.238	0.0181635
642.316	0.0181531
642.394	0.0181838
642.473	0.0181266
642.551	0.0180167
642.629	0.0180904
642.707	0.0180820
642.785	0.0180729
642.863	0.0181206
642.941	0.0180254
643.019	0.0181956
643.098	0.0182442
643.176	0.0181956
643.254	0.0181144
643.332	0.0180985
643.410	0.0182743
643.488	0.0181253
643.566	0.0179713
643.644	0.0180944
643.723	0.0181445
643.801	0.0182127
643.879	0.0180600
643.957	0.0181481
644.035	0.0182564
644.113	0.0181102
644.191	0.0180840
644.269	0.0182258
644.348	0.0182803
644.426	0.0179628
644.504	0.0181047
644.582	0.0182545
644.660	0.0181168
644.738	0.0180602
644.816	0.0181749
644.894	0.0181618
644.973	0.0181953
645.051	0.0181540
645.129	0.0181499
645.207	0.0181950
645.285	0.0180718
645.363	0.0182130
645.441	0.0182458
645.519	0.0180885
645.598	0.0179816
645.676	0.0181680
645.754	0.0181460
645.832	0.0180386
645.910	0.0180743
645.988	0.0181970
646.066	0.0181261
646.144	0.0179688
646.223	0.0179601
646.301	0.0180529
646.379	0.0180489
646.457	0.0179330
646.535	0.0180327
646.613	0.0179668
646.691	0.0180478
646.769	0.0179688
646.848	0.0178714
646.926	0.0180560
647.004	0.0179622
647.082	0.0178030
647.160	0.0179392
647.238	0.0179639
647.316	0.0179704
647.394	0.0179015
647.473	0.0179437
647.551	0.0180575
647.629	0.0180935
647.707	0.0180168
647.785	0.0180401
647.863	0.0181062
647.941	0.0180505
648.019	0.0179961
648.098	0.0179897
648.176	0.0180910
648.254	0.0180809
648.332	0.0181370
648.410	0.0180816
648.488	0.0179400
648.566	0.0179614
648.644	0.0181353
648.723	0.0180574
648.801	0.0180567
648.879	0.0179640
648.957	0.0179307
649.035	0.0179524
649.113	0.0180010
649.191	0.0179893
649.269	0.0178461
649.348	0.0179216
649.426	0.0179689
649.504	0.0180608
649.582	0.0179917
649.660	0.0180631
649.738	0.0180744
649.816	0.0178969
649.894	0.0179136
649.973	0.0179814
650.051	0.0179240
650.129	0.0179607
650.207	0.0180252
650.285	0.0179237
650.363	0.0179146
650.441	0.0179891
650.519	0.0182084
650.598	0.0179862
650.676	0.0179767
650.754	0.0178461
650.832	0.0179219
650.910	0.0179852
650.988	0.0179609
651.066	0.0178931
651.144	0.0181493
651.223	0.0180299
651.301	0.0180893
651.379	0.0180431
651.457	0.0179877
651.535	0.0179165
651.613	0.0180197
651.691	0.0178515
651.769	0.0179047
651.848	0.0179977
651.926	0.0179029
652.004	0.0179419
652.082	0.0179469
652.160	0.0180664
652.238	0.0179781
652.316	0.0179756
652.394	0.0178417
652.473	0.0180608
652.551	0.0179890
652.629	0.0179401
652.707	0.0179553
652.785	0.0179970
652.863	0.0180251
652.941	0.0179275
653.019	0.0178379
653.098	0.0179907
653.176	0.0179259
653.254	0.0180407
653.332	0.0179950
653.410	0.0180251
653.488	0.0177879
653.566	0.0179437
653.644	0.0180221
653.723	0.0179494
653.801	0.0178885
653.879	0.0179580
653.957	0.0178432
654.035	0.0179499
654.113	0.0179226
654.191	0.0179342
654.269	0.0178794
654.348	0.0179372
654.426	0.0178973
654.504	0.0179557
654.582	0.0179578
654.660	0.0179263
654.738	0.0177846
654.816	0.0179633
654.894	0.0178807
654.973	0.0179240
655.051	0.0178954
655.129	0.0179365
655.207	0.0178725
655.285	0.0178971
655.363	0.0179553
655.441	0.0179063
655.519	0.0180028
655.598	0.0180238
655.676	0.0179343
655.754	0.0180647
655.832	0.0179023
655.910	0.0178591
655.988	0.0179386
656.066	0.0179991
656.144	0.0179472
656.223	0.0179928
656.301	0.0179321
656.379	0.0179628
656.457	0.0179997
656.535	0.0179758
656.613	0.0181142
656.691	0.0179420
656.769	0.0179039
656.848	0.0179852
656.926	0.0179562
657.004	0.0179198
657.082	0.0180416
657.160	0.0180580
657.238	0.0180755
657.316	0.0180537
657.394	0.0180085
657.473	0.0179348
657.551	0.0180316
657.629	0.0180449
657.707	0.0179675
657.785	0.0180284
657.863	0.0179913
657.941	0.0181174
658.019	0.0180563
658.098	0.0180167
658.176	0.0180288
658.254	0.0180904
658.332	0.0181135
658.410	0.0180560
658.488	0.0179371
658.566	0.0180018
658.644	0.0179957
658.723	0.0179276
658.801	0.0180058
658.879	0.0180216
658.957	0.0179958
659.035	0.0179583
659.113	0.0180749
659.191	0.0180128
659.269	0.0180148
659.348	0.0180508
659.426	0.0180787
659.504	0.0180432
659.582	0.0180022
659.660	0.0179872
659.738	0.0179802
659.816	0.0178688
659.894	0.0178830
659.973	0.0179662
660.051	0.0178841
660.129	0.0179517
660.207	0.0178873
660.285	0.0180037
660.363	0.0178937
660.441	0.0179477
660.519	0.0177720
660.598	0.0179285
660.676	0.0178764
660.754	0.0179366
660.832	0.0178531
660.910	0.0178283
660.988	0.0179720
661.066	0.0178243
661.144	0.0179285
661.223	0.0178592
661.301	0.0179432
661.379	0.0179311
661.457	0.0179277
661.535	0.0178822
661.613	0.0178110
661.691	0.0178989
661.769	0.0179499
661.848	0.0178655
661.926	0.0179469
662.004	0.0178808
662.082	0.0177605
662.160	0.0177398
662.238	0.0179113
662.316	0.0178648
662.394	0.0178895
662.473	0.0178384
662.551	0.0177850
662.629	0.0180350
662.707	0.0177444
662.785	0.0178762
662.863	0.0180002
662.941	0.0179047
663.019	0.0180076
663.098	0.0179739
663.176	0.0179710
663.254	0.0179617
663.332	0.0181351
663.410	0.0179523
663.488	0.0179991
663.566	0.0181582
663.644	0.0180686
663.723	0.0180839
663.801	0.0181051
663.879	0.0180619
663.957	0.0181573
664.035	0.0182031
664.113	0.0181504
664.191	0.0181321
664.269	0.0181136
664.348	0.0180025
664.426	0.0181725
664.504	0.0181905
664.582	0.0181642
664.660	0.0181461
664.738	0.0181139
664.816	0.0181919
664.894	0.0180437
664.973	0.0180295
665.051	0.0180666
665.129	0.0181300
665.207	0.0180696
665.285	0.0180129
665.363	0.0180970
665.441	0.0181461
665.519	0.0179682
665.598	0.0179472
665.676	0.0180598
665.754	0.0181250
665.832	0.0181279
665.910	0.0180562
665.988	0.0181888
666.066	0.0182225
666.144	0.0181647
666.223	0.0182166
666.301	0.0182804
666.379	0.0183424
666.457	0.0182131
666.535	0.0180852
666.613	0.0182450
666.691	0.0183048
666.769	0.0183192
666.848	0.0183540
666.926	0.0182856
667.004	0.0182741
667.082	0.0181684
667.160	0.0180061
667.238	0.0180659
667.316	0.0179762
667.394	0.0179721
667.473	0.0180076
667.551	0.0179967
667.629	0.0180012
667.707	0.0177792
667.785	0.0177873
667.863	0.0178592
667.941	0.0178103
668.019	0.0178200
668.098	0.0177885
668.176	0.0177663
668.254	0.0178147
668.332	0.0178335
668.410	0.0178056
668.488	0.0178378
668.566	0.0178148
668.644	0.0178690
668.723	0.0178965
668.801	0.0178239
668.879	0.0179617
668.957	0.0178961
669.035	0.0178260
669.113	0.0179561
669.191	0.0178653
669.269	0.0180145
669.348	0.0179967
669.426	0.0180371
669.504	0.0179587
669.582	0.0179519
669.660	0.0179612
669.738	0.0180739
669.816	0.0181348
669.894	0.0182319
669.973	0.0183269
670.051	0.0181702
670.129	0.0181425
670.207	0.0179886
670.285	0.0180703
670.363	0.0181501
670.441	0.0181828
670.519	0.0181166
670.598	0.0181626
670.676	0.0180170
670.754	0.0181654
670.832	0.0179868
670.910	0.0180207
670.988	0.0180608
671.066	0.0181146
671.144	0.0180344
671.223	0.0179105
671.301	0.0179636
671.379	0.0179356
671.457	0.0179277
671.535	0.0179205
671.613	0.0178416
671.691	0.0177428
671.769	0.0177407
671.848	0.0178645
671.926	0.0178111
672.004	0.0175822
672.082	0.0177666
672.160	0.0178442
672.238	0.0178334
672.316	0.0176365
672.394	0.0176743
672.473	0.0178339
672.551	0.0176938
672.629	0.0177915
672.707	0.0178531
672.785	0.0176398
672.863	0.0177882
672.941	0.0178822
673.019	0.0178139
673.098	0.0179654
673.176	0.0180625
673.254	0.0179636
673.332	0.0180222
673.410	0.0180576
673.488	0.0180779
673.566	0.0180521
673.644	0.0182188
673.723	0.0181961
673.801	0.0183206
673.879	0.0181733
673.957	0.0183795
674.035	0.0184116
674.113	0.0183543
674.191	0.0184473
674.269	0.0183562
674.348	0.0183554
674.426	0.0183585
674.504	0.0182806
674.582	0.0183825
674.660	0.0183258
674.738	0.0182549
674.816	0.0182443
674.894	0.0183261
674.973	0.0182156
675.051	0.0182229
675.129	0.0181500
675.207	0.0181281
675.285	0.0181290
675.363	0.0180945
675.441	0.0179662
675.519	0.0178879
675.598	0.0181219
675.676	0.0180511
675.754	0.0179226
675.832	0.0179098
675.910	0.0178913
675.988	0.0179260
676.066	0.0178088
676.144	0.0178983
676.223	0.0178802
676.301	0.0178310
676.379	0.0177720
676.457	0.0179393
676.535	0.0177646
676.613	0.0177299
676.691	0.0178604
676.769	0.0179961
676.848	0.0178436
676.926	0.0178445
677.004	0.0179443
677.082	0.0179276
677.160	0.0179577
677.238	0.0180151
677.316	0.0179758
677.394	0.0178438
677.473	0.0180121
677.551	0.0180321
677.629	0.0179265
677.707	0.0179709
677.785	0.0180895
677.863	0.0178352
677.941	0.0179858
678.019	0.0179260
678.098	0.0179411
678.176	0.0178335
678.254	0.0180296
678.332	0.0179897
678.410	0.0180087
678.488	0.0179694
678.566	0.0178106
678.644	0.0178357
678.723	0.0178107
678.801	0.0177876
678.879	0.0178609
678.957	0.0178367
679.035	0.0178775
679.113	0.0178030
679.191	0.0178732
679.269	0.0178540
679.348	0.0177602
679.426	0.0177127
679.504	0.0176768
679.582	0.0176393
679.660	0.0176444
679.738	0.0179156
679.816	0.0178062
679.894	0.0176352
679.973	0.0177737
680.051	0.0178761
680.129	0.0179234
680.207	0.0178685
680.285	0.0178399
680.363	0.0179865
680.441	0.0178828
680.519	0.0180705
680.598	0.0180815
680.676	0.0180624
680.754	0.0180247
680.832	0.0181100
680.910	0.0181689
680.988	0.0181210
681.066	0.0179868
681.144	0.0178605
681.223	0.0177917
681.301	0.0178894
681.379	0.0180251
681.457	0.0179449
681.535	0.0180255
681.613	0.0178966
681.691	0.0180052
681.769	0.0179653
681.848	0.0179025
681.926	0.0180183
682.004	0.0179523
682.082	0.0179870
682.160	0.0179691
682.238	0.0179353
682.316	0.0179438
682.394	0.0179433
682.473	0.0178128
682.551	0.0176472
682.629	0.0178127
682.707	0.0178877
682.785	0.0177840
682.863	0.0177135
682.941	0.0177748
683.019	0.0177457
683.098	0.0177776
683.176	0.0177222
683.254	0.0177734
683.332	0.0178674
683.410	0.0176457
683.488	0.0179089
683.566	0.0178870
683.644	0.0177472
683.723	0.0178233
683.801	0.0178133
683.879	0.0178769
683.957	0.0179420
684.035	0.0178652
684.113	0.0178639
684.191	0.0179276
684.269	0.0180171
684.348	0.0179636
684.426	0.0180845
684.504	0.0179396
684.582	0.0182162
684.660	0.0180730
684.738	0.0181949
684.816	0.0182935
684.894	0.0180898
684.973	0.0181966
685.051	0.0183576
685.129	0.0185217
685.207	0.0182738
685.285	0.0181922
685.363	0.0183693
685.441	0.0182699
685.519	0.0182980
685.598	0.0183955
685.676	0.0181967
685.754	0.0181853
685.832	0.0182492
685.910	0.0182294
685.988	0.0182288
686.066	0.0182101
686.144	0.0180428
686.223	0.0179634
686.301	0.0179810
686.379	0.0181738
686.457	0.0181057
686.535	0.0180275
686.613	0.0181069
686.691	0.0180684
686.769	0.0179685
686.848	0.0179140
686.926	0.0178891
687.004	0.0180334
687.082	0.0180150
687.160	0.0178896
687.238	0.0179230
687.316	0.0178632
687.394	0.0177486
687.473	0.0178265
687.551	0.0179567
687.629	0.0177946
687.707	0.0179288
687.785	0.0179565
687.863	0.0178598
687.941	0.0180511
688.019	0.0180800
688.098	0.0180557
688.176	0.0179929
688.254	0.0180522
688.332	0.0180565
688.410	0.0182481
688.488	0.0181861
688.566	0.0180726
688.644	0.0180602
688.723	0.0181645
688.801	0.0180290
688.879	0.0180301
688.957	0.0179914
689.035	0.0179121
689.113	0.0180727
689.191	0.0180193
689.269	0.0179399
689.348	0.0179274
689.426	0.0179456
689.504	0.0179459
689.582	0.0179277
689.660	0.0179485
689.738	0.0182079
689.816	0.0180463
689.894	0.0181783
689.973	0.0180554
690.051	0.0180438
690.129	0.0181171
690.207	0.0180869
690.285	0.0180198
690.363	0.0181131
690.441	0.0180261
690.519	0.0180884
690.598	0.0180248
690.676	0.0179831
690.754	0.0179973
690.832	0.0179488
690.910	0.0179509
690.988	0.0181043
691.066	0.0180022
691.144	0.0178794
691.223	0.0178430
691.301	0.0178075
691.379	0.0178700
691.457	0.0180206
691.535	0.0178918
691.613	0.0178595
691.691	0.0178371
691.769	0.0179801
691.848	0.0179378
691.926	0.0179871
692.004	0.0180828
692.082	0.0180697
692.160	0.0180887
692.238	0.0180057
692.316	0.0181116
692.394	0.0182013
692.473	0.0181547
692.551	0.0181776
692.629	0.0183627
692.707	0.0183157
692.785	0.0182230
692.863	0.0182942
692.941	0.0182397
693.019	0.0182605
693.098	0.0182565
693.176	0.0180433
693.254	0.0182018
693.332	0.0181000
693.410	0.0180993
693.488	0.0179536
693.566	0.0180736
693.644	0.0179751
693.723	0.0180269
693.801	0.0179794
693.879	0.0178811
693.957	0.0178220
694.035	0.0178461
694.113	0.0177914
694.191	0.0179192
694.269	0.0178499
694.348	0.0178111
694.426	0.0177557
694.504	0.0176884
694.582	0.0177679
694.660	0.0178764
694.738	0.0179247
694.816	0.0178947
694.894	0.0179626
694.973	0.0180103
695.051	0.0180173
695.129	0.0181672
695.207	0.0180674
695.285	0.0180589
695.363	0.0181705
695.441	0.0182341
695.519	0.0182549
695.598	0.0181157
695.676	0.0181444
695.754	0.0181840
695.832	0.0183159
695.910	0.0182458
695.988	0.0183297
696.066	0.0181474
696.144	0.0182289
696.223	0.0182565
696.301	0.0182365
696.379	0.0183054
696.457	0.0183447
696.535	0.0182128
696.613	0.0182610
696.691	0.0181833
696.769	0.0180396
696.848	0.0182638
696.926	0.0180793
697.004	0.0182355
697.082	0.0181475
697.160	0.0182164
697.238	0.0181802
697.316	0.0180411
697.394	0.0181203
697.473	0.0180795
697.551	0.0180803
697.629	0.0182030
697.707	0.0179871
697.785	0.0180187
697.863	0.0179936
697.941	0.0179627
698.019	0.0179859
698.098	0.0180016
698.176	0.0178149
698.254	0.0178195
698.332	0.0178552
698.410	0.0179092
698.488	0.0179606
698.566	0.0180248
698.644	0.0180129
698.723	0.0179803
698.801	0.0179472
698.879	0.0179237
698.957	0.0181530
699.035	0.0180521
699.113	0.0180643
699.191	0.0181274
699.269	0.0180643
699.348	0.0180782
699.426	0.0180246
699.504	0.0180643
699.582	0.0181895
699.660	0.0180191
699.738	0.0181263
699.816	0.0179939
699.894	0.0179050
699.973	0.0178921
700.051	0.0179289
700.129	0.0179292
700.207	0.0178864
700.285	0.0178949
700.363	0.0178056
700.441	0.0178919
700.519	0.0179708
700.598	0.0177872
700.676	0.0179408
700.754	0.0179642
700.832	0.0179195
700.910	0.0180394
700.988	0.0179994
701.066	0.0180592
701.144	0.0179900
701.223	0.0180173
701.301	0.0180223
701.379	0.0180010
701.457	0.0179688
701.535	0.0181728
701.613	0.0180721
701.691	0.0180485
701.769	0.0181020
701.848	0.0180501
701.926	0.0179151
702.004	0.0179398
702.082	0.0178645
702.160	0.0178252
702.238	0.0178992
702.316	0.0176721
702.394	0.0176823
702.473	0.0178563
702.551	0.0177737
702.629	0.0177489
702.707	0.0176772
702.785	0.0176496
702.863	0.0176401
702.941	0.0175790
703.019	0.0177245
703.098	0.0175966
703.176	0.0176883
703.254	0.0177782
703.332	0.0179738
703.410	0.0179249
703.488	0.0179716
703.566	0.0179071
703.644	0.0178374
703.723	0.0180006
703.801	0.0180099
703.879	0.0179776
703.957	0.0180824
704.035	0.0180304
704.113	0.0179887
704.191	0.0180898
704.269	0.0180750
704.348	0.0180418
704.426	0.0179748
704.504	0.0179668
704.582	0.0180061
704.660	0.0181186
704.738	0.0180040
704.816	0.0179546
704.894	0.0179683
704.973	0.0180804
705.051	0.0179795
705.129	0.0178334
705.207	0.0178764
705.285	0.0180088
705.363	0.0179558
705.441	0.0179678
705.519	0.0180061
705.598	0.0180159
705.676	0.0180823
705.754	0.0181967
705.832	0.0182715
705.910	0.0181526
705.988	0.0181245
706.066	0.0181964
706.144	0.0181674
706.223	0.0181694
706.301	0.0180891
706.379	0.0181834
706.457	0.0181473
706.535	0.0180792
706.613	0.0181979
706.691	0.0180357
706.769	0.0180722
706.848	0.0180653
706.926	0.0179581
707.004	0.0180119
707.082	0.0178197
707.160	0.0178400
707.238	0.0178420
707.316	0.0178535
707.394	0.0178716
707.473	0.0179183
707.551	0.0179138
707.629	0.0178108
707.707	0.0177621
707.785	0.0177692
707.863	0.0178986
707.941	0.0179335
708.019	0.0179337
708.098	0.0180880
708.176	0.0182331
708.254	0.0180202
708.332	0.0180713
708.410	0.0181995
708.488	0.0181963
708.566	0.0184480
708.644	0.0184663
708.723	0.0183182
708.801	0.0184282
708.879	0.0185379
708.957	0.0185687
709.035	0.0184843
709.113	0.0186668
709.191	0.0184796
709.269	0.0185357
709.348	0.0186223
709.426	0.0185660
709.504	0.0185091
709.582	0.0184515
709.660	0.0183574
709.738	0.0183247
709.816	0.0181322
709.894	0.0180903
709.973	0.0179787
710.051	0.0178700
710.129	0.0177485
710.207	0.0175942
710.285	0.0177078
710.363	0.0176573
710.441	0.0175542
710.519	0.0177472
710.598	0.0176083
710.676	0.0177579
710.754	0.0176319
710.832	0.0178268
710.910	0.0178268
710.988	0.0177934
711.066	0.0180908
711.144	0.0180978
711.223	0.0182369
711.301	0.0183210
711.379	0.0182991
711.457	0.0183389
711.535	0.0183424
711.613	0.0184988
711.691	0.0184661
711.769	0.0185303
711.848	0.0184289
711.926	0.0185019
712.004	0.0184742
712.082	0.0184705
712.160	0.0184427
712.238	0.0182327
712.316	0.0182042
712.394	0.0181174
712.473	0.0180064
712.551	0.0180877
712.629	0.0178493
712.707	0.0177635
712.785	0.0178949
712.863	0.0177390
712.941	0.0178068
713.019	0.0178172
713.098	0.0177909
713.176	0.0176227
713.254	0.0177474
713.332	0.0178974
713.410	0.0177194
713.488	0.0177402
713.566	0.0178127
713.644	0.0177746
713.723	0.0176975
713.801	0.0176316
713.879	0.0176709
713.957	0.0177096
714.035	0.0178079
714.113	0.0179285
714.191	0.0179288
714.269	0.0179617
714.348	0.0180228
714.426	0.0179863
714.504	0.0181213
714.582	0.0180832
714.660	0.0181602
714.738	0.0181241
714.816	0.0181773
714.894	0.0183147
714.973	0.0182120
715.051	0.0181767
715.129	0.0182356
715.207	0.0183890
715.285	0.0182732
715.363	0.0180383
715.441	0.0182880
715.519	0.0181409
715.598	0.0181767
715.676	0.0181763
715.754	0.0181778
715.832	0.0181304
715.910	0.0182566
715.988	0.0181449
716.066	0.0182474
716.144	0.0179990
716.223	0.0181186
716.301	0.0180688
716.379	0.0180786
716.457	0.0179906
716.535	0.0179504
716.613	0.0179128
716.691	0.0179501
716.769	0.0177563
716.848	0.0178474
716.926	0.0179708
717.004	0.0178389
717.082	0.0179008
717.160	0.0178153
717.238	0.0178249
717.316	0.0178500
717.394	0.0177647
717.473	0.0179060
717.551	0.0179999
717.629	0.0180315
717.707	0.0179182
717.785	0.0179758
717.863	0.0179346
717.941	0.0181467
718.019	0.0179953
718.098	0.0181445
718.176	0.0181074
718.254	0.0180524
718.332	0.0180781
718.410	0.0180476
718.488	0.0179897
718.566	0.0180157
718.644	0.0181802
718.723	0.0179668
718.801	0.0180335
718.879	0.0180662
718.957	0.0180534
719.035	0.0181432
719.113	0.0180344
719.191	0.0180484
719.269	0.0180957
719.348	0.0179668
719.426	0.0181207
719.504	0.0180284
719.582	0.0181001
719.660	0.0180533
719.738	0.0181632
719.816	0.0180816
719.894	0.0181455
719.973	0.0181862
720.051	0.0180650
720.129	0.0180332
720.207	0.0180659
720.285	0.0180004
720.363	0.0180262
720.441	0.0180289
720.519	0.0180042
720.598	0.0180640
720.676	0.0180000
720.754	0.0180297
720.832	0.0179512
720.910	0.0180286
720.988	0.0179128
721.066	0.0179957
721.144	0.0180717
721.223	0.0177508
721.301	0.0178197
721.379	0.0177493
721.457	0.0177577
721.535	0.0178144
721.613	0.0177376
721.691	0.0176698
721.769	0.0175699
721.848	0.0175878
721.926	0.0175759
722.004	0.0175591
722.082	0.0177224
722.160	0.0175336
722.238	0.0176250
722.316	0.0175918
722.394	0.0177124
722.473	0.0177570
722.551	0.0178264
722.629	0.0178833
722.707	0.0181212
722.785	0.0181204
722.863	0.0181094
722.941	0.0182578
723.019	0.0182318
723.098	0.0183462
723.176	0.0182890
723.254	0.0182274
723.332	0.0181696
723.410	0.0180779
723.488	0.0181429
723.566	0.0180808
723.644	0.0181513
723.723	0.0180457
723.801	0.0179827
723.879	0.0179827
723.957	0.0180749
724.035	0.0181756
724.113	0.0178905
724.191	0.0178999
724.269	0.0180849
724.348	0.0181783
724.426	0.0179007
724.504	0.0180133
724.582	0.0180121
724.660	0.0179936
724.738	0.0179751
724.816	0.0181057
724.894	0.0179769
724.973	0.0177636
725.051	0.0178816
725.129	0.0179096
725.207	0.0176642
725.285	0.0177178
725.363	0.0177781
725.441	0.0177994
725.519	0.0177522
725.598	0.0177925
725.676	0.0176237
725.754	0.0177476
725.832	0.0177262
725.910	0.0174687
725.988	0.0175438
726.066	0.0176776
726.144	0.0177003
726.223	0.0178133
726.301	0.0177687
726.379	0.0179262
726.457	0.0178325
726.535	0.0179258
726.613	0.0178719
726.691	0.0179874
726.769	0.0181217
726.848	0.0179698
726.926	0.0179474
727.004	0.0179881
727.082	0.0179441
727.160	0.0179680
727.238	0.0181692
727.316	0.0180669
727.394	0.0179531
727.473	0.0180804
727.551	0.0179618
727.629	0.0179676
727.707	0.0178997
727.785	0.0179719
727.863	0.0179348
727.941	0.0177290
728.019	0.0177135
728.098	0.0177586
728.176	0.0178135
728.254	0.0178795
728.332	0.0177506
728.410	0.0177790
728.488	0.0177262
728.566	0.0178591
728.644	0.0178751
728.723	0.0177024
728.801	0.0177414
728.879	0.0178819
728.957	0.0179712
729.035	0.0179898
729.113	0.0180421
729.191	0.0180547
729.269	0.0182970
729.348	0.0183231
729.426	0.0184949
729.504	0.0183599
729.582	0.0183802
729.660	0.0183186
729.738	0.0184911
729.816	0.0185126
729.894	0.0183500
729.973	0.0184630
730.051	0.0183967
730.129	0.0185664
730.207	0.0184751
730.285	0.0182712
730.363	0.0182130
730.441	0.0180765
730.519	0.0179668
730.598	0.0180387
730.676	0.0179899
730.754	0.0176930
730.832	0.0178558
730.910	0.0176323
730.988	0.0177189
731.066	0.0176035
731.144	0.0177023
731.223	0.0177425
731.301	0.0176970
731.379	0.0177113
731.457	0.0177562
731.535	0.0178194
731.613	0.0179765
731.691	0.0178551
731.769	0.0180088
731.848	0.0179859
731.926	0.0180923
732.004	0.0180322
732.082	0.0182501
732.160	0.0181688
732.238	0.0181752
732.316	0.0182221
732.394	0.0181465
732.473	0.0181953
732.551	0.0182127
732.629	0.0180159
732.707	0.0179797
732.785	0.0179879
732.863	0.0179073
732.941	0.0179195
733.019	0.0179585
733.098	0.0177993
733.176	0.0177885
733.254	0.0177905
733.332	0.0178735
733.410	0.0176664
733.488	0.0178137
733.566	0.0177345
733.644	0.0177791
733.723	0.0178208
733.801	0.0177314
733.879	0.0179272
733.957	0.0179285
734.035	0.0178269
734.113	0.0179752
734.191	0.0179436
734.269	0.0178275
734.348	0.0179948
734.426	0.0179417
734.504	0.0181618
734.582	0.0181461
734.660	0.0180086
734.738	0.0179923
734.816	0.0180194
734.894	0.0178954
734.973	0.0178437
735.051	0.0179945
735.129	0.0179935
735.207	0.0180885
735.285	0.0179400
735.363	0.0179750
735.441	0.0180593
735.519	0.0179250
735.598	0.0180747
735.676	0.0181643
735.754	0.0180413
735.832	0.0181708
735.910	0.0181362
735.988	0.0181777
736.066	0.0182470
736.144	0.0182623
736.223	0.0182132
736.301	0.0181413
736.379	0.0181377
736.457	0.0181482
736.535	0.0181185
736.613	0.0181257
736.691	0.0180658
736.769	0.0179899
736.848	0.0179468
736.926	0.0180255
737.004	0.0179539
737.082	0.0178431
737.160	0.0178356
737.238	0.0178201
737.316	0.0177674
737.394	0.0178114
737.473	0.0176913
737.551	0.0177003
737.629	0.0177873
737.707	0.0178439
737.785	0.0177568
737.863	0.0179963
737.941	0.0178263
738.019	0.0179619
738.098	0.0179063
738.176	0.0179200
738.254	0.0179444
738.332	0.0179845
738.410	0.0180495
738.488	0.0180331
738.566	0.0181512
738.644	0.0178674
738.723	0.0180390
738.801	0.0180888
738.879	0.0181423
738.957	0.0180190
739.035	0.0180578
739.113	0.0181975
739.191	0.0181942
739.269	0.0181905
739.348	0.0181056
739.426	0.0179951
739.504	0.0178842
739.582	0.0179488
739.660	0.0179621
739.738	0.0179362
739.816	0.0179403
739.894	0.0180348
739.973	0.0178701
740.051	0.0180904
740.129	0.0179745
740.207	0.0178402
740.285	0.0181650
740.363	0.0180103
740.441	0.0182150
740.519	0.0181225
740.598	0.0181963
740.676	0.0181368
740.754	0.0181984
740.832	0.0180116
740.910	0.0180291
740.988	0.0179359
741.066	0.0178609
741.144	0.0179139
741.223	0.0178504
741.301	0.0177012
741.379	0.0179434
741.457	0.0177565
741.535	0.0177361
741.613	0.0178316
741.691	0.0177351
741.769	0.0176996
741.848	0.0177263
741.926	0.0177500
742.004	0.0177454
742.082	0.0177858
742.160	0.0178640
742.238	0.0178731
742.316	0.0178973
742.394	0.0179546
742.473	0.0179172
742.551	0.0181173
742.629	0.0181435
742.707	0.0180775
742.785	0.0181474
742.863	0.0180233
742.941	0.0180720
743.019	0.0181609
743.098	0.0181027
743.176	0.0182542
743.254	0.0181212
743.332	0.0181985
743.410	0.0180645
743.488	0.0180611
743.566	0.0181744
743.644	0.0180582
743.723	0.0179765
743.801	0.0178058
743.879	0.0178230
743.957	0.0177909
744.035	0.0177298
744.113	0.0177002
744.191	0.0175679
744.269	0.0176782
744.348	0.0177099
744.426	0.0176640
744.504	0.0175748
744.582	0.0176435
744.660	0.0176912
744.738	0.0177151
744.816	0.0176211
744.894	0.0177384
744.973	0.0177357
745.051	0.0177979
745.129	0.0177962
745.207	0.0177159
745.285	0.0177948
745.363	0.0177170
745.441	0.0177495
745.519	0.0178532
745.598	0.0177734
745.676	0.0177942
745.754	0.0177026
745.832	0.0178062
745.910	0.0178693
745.988	0.0178941
746.066	0.0179996
746.144	0.0178849
746.223	0.0179850
746.301	0.0180461
746.379	0.0180157
746.457	0.0181120
746.535	0.0180907
746.613	0.0180907
746.691	0.0180900
746.769	0.0180352
746.848	0.0180856
746.926	0.0179289
747.004	0.0178861
747.082	0.0179498
747.160	0.0179392
747.238	0.0177131
747.316	0.0176324
747.394	0.0176472
747.473	0.0178079
747.551	0.0176505
747.629	0.0174081
747.707	0.0175310
747.785	0.0176279
747.863	0.0174931
747.941	0.0174693
748.019	0.0174547
748.098	0.0175808
748.176	0.0177757
748.254	0.0178635
748.332	0.0177346
748.410	0.0178859
748.488	0.0178661
748.566	0.0178550
748.644	0.0178609
748.723	0.0179600
748.801	0.0179491
748.879	0.0180494
748.957	0.0181509
749.035	0.0182093
749.113	0.0181605
749.191	0.0181633
749.269	0.0181883
749.348	0.0181826
749.426	0.0182632
749.504	0.0182545
749.582	0.0182271
749.660	0.0183280
749.738	0.0183723
749.816	0.0183817
749.894	0.0182628
749.973	0.0182478
750.051	0.0183337
750.129	0.0182121
750.207	0.0181416
750.285	0.0180973
750.363	0.0179655
750.441	0.0180124
750.519	0.0179779
750.598	0.0180725
750.676	0.0179509
750.754	0.0180196
750.832	0.0180577
750.910	0.0180870
750.988	0.0179849
751.066	0.0180587
751.144	0.0179784
751.223	0.0180058
751.301	0.0180687
751.379	0.0179756
751.457	0.0180241
751.535	0.0180535
751.613	0.0180318
751.691	0.0179491
751.769	0.0180129
751.848	0.0179218
751.926	0.0178574
752.004	0.0181159
752.082	0.0178966
752.160	0.0178255
752.238	0.0178757
752.316	0.0179302
752.394	0.0179026
752.473	0.0179797
752.551	0.0179995
752.629	0.0178435
752.707	0.0179681
752.785	0.0180074
752.863	0.0180013
752.941	0.0179932
753.019	0.0178468
753.098	0.0179652
753.176	0.0182095
753.254	0.0180162
753.332	0.0180603
753.410	0.0180639
753.488	0.0180589
753.566	0.0179990
753.644	0.0180133
753.723	0.0179948
753.801	0.0179860
753.879	0.0179164
753.957	0.0180060
754.035	0.0178504
754.113	0.0180014
754.191	0.0180151
754.269	0.0179156
754.348	0.0178765
754.426	0.0179192
754.504	0.0178822
754.582	0.0178567
754.660	0.0179313
754.738	0.0178387
754.816	0.0179333
754.894	0.0178017
754.973	0.0179036
755.051	0.0178663
755.129	0.0180649
755.207	0.0179413
755.285	0.0179739
755.363	0.0178487
755.441	0.0180734
755.519	0.0181556
755.598	0.0180975
755.676	0.0180843
755.754	0.0182415
755.832	0.0181646
755.910	0.0181148
755.988	0.0182223
756.066	0.0183140
756.144	0.0183756
756.223	0.0181849
756.301	0.0182518
756.379	0.0182247
756.457	0.0183084
756.535	0.0181998
756.613	0.0182626
756.691	0.0179739
756.769	0.0179088
756.848	0.0177971
756.926	0.0178094
757.004	0.0177287
757.082	0.0175188
757.160	0.0175861
757.238	0.0176189
757.316	0.0176372
757.394	0.0176020
757.473	0.0176438
757.551	0.0174944
757.629	0.0176087
757.707	0.0176212
757.785	0.0175685
757.863	0.0177223
757.941	0.0176849
758.019	0.0176234
758.098	0.0177449
758.176	0.0177310
758.254	0.0179548
758.332	0.0179643
758.410	0.0177924
758.488	0.0177492
758.566	0.0177150
758.644	0.0180865
758.723	0.0179331
758.801	0.0179603
758.879	0.0179855
758.957	0.0179090
759.035	0.0180106
759.113	0.0179919
759.191	0.0180022
759.269	0.0181584
759.348	0.0179758
759.426	0.0180190
759.504	0.0182137
759.582	0.0182526
759.660	0.0182279
759.738	0.0181496
759.816	0.0179288
759.894	0.0180317
759.973	0.0181523
760.051	0.0181304
760.129	0.0180649
760.207	0.0180473
760.285	0.0179916
760.363	0.0180040
760.441	0.0181055
760.519	0.0181041
760.598	0.0179527
760.676	0.0180980
760.754	0.0180788
760.832	0.0180994
760.910	0.0179197
760.988	0.0180474
761.066	0.0179259
761.144	0.0179539
761.223	0.0178703
761.301	0.0179362
761.379	0.0179599
761.457	0.0178601
761.535	0.0177896
761.613	0.0178794
761.691	0.0178750
761.769	0.0177762
761.848	0.0176989
761.926	0.0178542
762.004	0.0179126
762.082	0.0177844
762.160	0.0178701
762.238	0.0179073
762.316	0.0178781
762.394	0.0178795
762.473	0.0180820
762.551	0.0180460
762.629	0.0179038
762.707	0.0180422
762.785	0.0179199
762.863	0.0179983
762.941	0.0179884
763.019	0.0179120
763.098	0.0181021
763.176	0.0180847
763.254	0.0180299
763.332	0.0180379
763.410	0.0179943
763.488	0.0180748
763.566	0.0181487
763.644	0.0181342
763.723	0.0181346
763.801	0.0180083
763.879	0.0181233
763.957	0.0181107
764.035	0.0181072
764.113	0.0179558
764.191	0.0179523
764.269	0.0178946
764.348	0.0179690
764.426	0.0178648
764.504	0.0180316
764.582	0.0179148
764.660	0.0179386
764.738	0.0177882
764.816	0.0178358
764.894	0.0178201
764.973	0.0177756
765.051	0.0177583
765.129	0.0177383
765.207	0.0177328
765.285	0.0177169
765.363	0.0177855
765.441	0.0177750
765.519	0.0176842
765.598	0.0177728
765.676	0.0178092
765.754	0.0178326
765.832	0.0180104
765.910	0.0177125
765.988	0.0178132
766.066	0.0179759
766.144	0.0179269
766.223	0.0179450
766.301	0.0178889
766.379	0.0179852
766.457	0.0179991
766.535	0.0179826
766.613	0.0180077
766.691	0.0180144
766.769	0.0181458
766.848	0.0180727
766.926	0.0181454
767.004	0.0182021
767.082	0.0181431
767.160	0.0180905
767.238	0.0181091
767.316	0.0182065
767.394	0.0181795
767.473	0.0182967
767.551	0.0181902
767.629	0.0181641
767.707	0.0182994
767.785	0.0182143
767.863	0.0181168
767.941	0.0181728
768.019	0.0180850
768.098	0.0180761
768.176	0.0181998
768.254	0.0180903
768.332	0.0181146
768.410	0.0179111
768.488	0.0180295
768.566	0.0179196
768.644	0.0178862
768.723	0.0179655
768.801	0.0180249
768.879	0.0178851
768.957	0.0178695
769.035	0.0180877
769.113	0.0180827
769.191	0.0180053
769.269	0.0181245
769.348	0.0180804
769.426	0.0179618
769.504	0.0181812
769.582	0.0181301
769.660	0.0181624
769.738	0.0180882
769.816	0.0180727
769.894	0.0180826
769.973	0.0181553
770.051	0.0180813
770.129	0.0181713
770.207	0.0181284
770.285	0.0180625
770.363	0.0180380
770.441	0.0180512
770.519	0.0179516
770.598	0.0179166
770.676	0.0179403
770.754	0.0180090
770.832	0.0181272
770.910	0.0181404
770.988	0.0180402
771.066	0.0179985
771.144	0.0179708
771.223	0.0180785
771.301	0.0181369
771.379	0.0182028
771.457	0.0181687
771.535	0.0182454
771.613	0.0183144
771.691	0.0181714
771.769	0.0181850
771.848	0.0180588
771.926	0.0179821
772.004	0.0180701
772.082	0.0183212
772.160	0.0179338
772.238	0.0180736
772.316	0.0180495
772.394	0.0180057
772.473	0.0180006
772.551	0.0178554
772.629	0.0179391
772.707	0.0179646
772.785	0.0179071
772.863	0.0179242
772.941	0.0178768
773.019	0.0178371
773.098	0.0180221
773.176	0.0179050
773.254	0.0178471
773.332	0.0179364
773.410	0.0180456
773.488	0.0179790
773.566	0.0181447
773.644	0.0181275
773.723	0.0179641
773.801	0.0180922
773.879	0.0181985
773.957	0.0181840
774.035	0.0183036
774.113	0.0183346
774.191	0.0182260
774.269	0.0182598
774.348	0.0181979
774.426	0.0183430
774.504	0.0183308
774.582	0.0181490
774.660	0.0182153
774.738	0.0182105
774.816	0.0182607
774.894	0.0182034
774.973	0.0182450
775.051	0.0181210
775.129	0.0180901
775.207	0.0180513
775.285	0.0181456
775.363	0.0179939
775.441	0.0178485
775.519	0.0180016
775.598	0.0180400
775.676	0.0179878
775.754	0.0179276
775.832	0.0179533
775.910	0.0179978
775.988	0.0179031
776.066	0.0179378
776.144	0.0179729
776.223	0.0179754
776.301	0.0180445
776.379	0.0179684
776.457	0.0179613
776.535	0.0180722
776.613	0.0180700
776.691	0.0180649
776.769	0.0181290
776.848	0.0181004
776.926	0.0180184
777.004	0.0181303
777.082	0.0183083
777.160	0.0182089
777.238	0.0181815
777.316	0.0182593
777.394	0.0181356
777.473	0.0182133
777.551	0.0182270
777.629	0.0181715
777.707	0.0182008
777.785	0.0182413
777.863	0.0181326
777.941	0.0182481
778.019	0.0181139
778.098	0.0181626
778.176	0.0183083
778.254	0.0183115
778.332	0.0182974
778.410	0.0182038
778.488	0.0182076
778.566	0.0182747
778.644	0.0181488
778.723	0.0181980
778.801	0.0182204
778.879	0.0181721
778.957	0.0180964
779.035	0.0181253
779.113	0.0181549
779.191	0.0181514
779.269	0.0180618
779.348	0.0181643
779.426	0.0182165
779.504	0.0181511
779.582	0.0181021
779.660	0.0182401
779.738	0.0182634
779.816	0.0181525
779.894	0.0181126
779.973	0.0181277
780.051	0.0182027
780.129	0.0180204
780.207	0.0180256
780.285	0.0180235
780.363	0.0179285
780.441	0.0180455
780.519	0.0179288
780.598	0.0180733
780.676	0.0178596
780.754	0.0178849
780.832	0.0179775
780.910	0.0177855
780.988	0.0177338
781.066	0.0179263
781.144	0.0178849
781.223	0.0179041
781.301	0.0179258
781.379	0.0179031
781.457	0.0179242
781.535	0.0179204
781.613	0.0179401
781.691	0.0180145
781.769	0.0180872
781.848	0.0179637
781.926	0.0179652
782.004	0.0182046
782.082	0.0181798
782.160	0.0179734
782.238	0.0181480
782.316	0.0179616
782.394	0.0180765
782.473	0.0181371
782.551	0.0181760
782.629	0.0181474
782.707	0.0180946
782.785	0.0180421
782.863	0.0180198
782.941	0.0181399
783.019	0.0180708
783.098	0.0180351
783.176	0.0177799
783.254	0.0179299
783.332	0.0179765
783.410	0.0178474
783.488	0.0178366
783.566	0.0178593
783.644	0.0178078
783.723	0.0177328
783.801	0.0178329
783.879	0.0178653
783.957	0.0178944
784.035	0.0179053
784.113	0.0180256
784.191	0.0176696
784.269	0.0179276
784.348	0.0179902
784.426	0.0179208
784.504	0.0180132
784.582	0.0180121
784.660	0.0178870
784.738	0.0181387
784.816	0.0179979
784.894	0.0178923
784.973	0.0179809
785.051	0.0181460
785.129	0.0179533
785.207	0.0179364
785.285	0.0179621
785.363	0.0180782
785.441	0.0179370
785.519	0.0179527
785.598	0.0178613
785.676	0.0180119
785.754	0.0179951
785.832	0.0178965
785.910	0.0178111
785.988	0.0178616
786.066	0.0180611
786.144	0.0180466
786.223	0.0179633
786.301	0.0180336
786.379	0.0180580
786.457	0.0179752
786.535	0.0180264
786.613	0.0180695
786.691	0.0180650
786.769	0.0180435
786.848	0.0179735
786.926	0.0180860
787.004	0.0179977
787.082	0.0179884
787.160	0.0181289
787.238	0.0181557
787.316	0.0181893
787.394	0.0181133
787.473	0.0179974
787.551	0.0179347
787.629	0.0181824
787.707	0.0181712
787.785	0.0181862
787.863	0.0182307
787.941	0.0181910
788.019	0.0181464
788.098	0.0181146
788.176	0.0182341
788.254	0.0182640
788.332	0.0181995
788.410	0.0182253
788.488	0.0181871
788.566	0.0181034
788.644	0.0181734
788.723	0.0181511
788.801	0.0182161
788.879	0.0181754
788.957	0.0182101
789.035	0.0180387
789.113	0.0180376
789.191	0.0178735
789.269	0.0178227
789.348	0.0179753
789.426	0.0180437
789.504	0.0179538
789.582	0.0177974
789.660	0.0179917
789.738	0.0177396
789.816	0.0178600
789.894	0.0178951
789.973	0.0179909
790.051	0.0178487
790.129	0.0179633
790.207	0.0180844
790.285	0.0179735
790.363	0.0180484
790.441	0.0181531
790.519	0.0181782
790.598	0.0182237
790.676	0.0181183
790.754	0.0180408
790.832	0.0181236
790.910	0.0179915
790.988	0.0181596
791.066	0.0179683
791.144	0.0179942
791.223	0.0180495
791.301	0.0180761
791.379	0.0180350
791.457	0.0179021
791.535	0.0180576
791.613	0.0178991
791.691	0.0179520
791.769	0.0179681
791.848	0.0179237
791.926	0.0181476
792.004	0.0180265
792.082	0.0182123
792.160	0.0180611
792.238	0.0181664
792.316	0.0180030
792.394	0.0180488
792.473	0.0180684
792.551	0.0181627
792.629	0.0180643
792.707	0.0180730
792.785	0.0180199
792.863	0.0179842
792.941	0.0179880
793.019	0.0179734
793.098	0.0180275
793.176	0.0179847
793.254	0.0180782
793.332	0.0179664
793.410	0.0178502
793.488	0.0179257
793.566	0.0179292
793.644	0.0178947
793.723	0.0180674
793.801	0.0180172
793.879	0.0178005
793.957	0.0179271
794.035	0.0179379
794.113	0.0178741
794.191	0.0179643
794.269	0.0179176
794.348	0.0179025
794.426	0.0180336
794.504	0.0180163
794.582	0.0179074
794.660	0.0179048
794.738	0.0180584
794.816	0.0181103
794.894	0.0180988
794.973	0.0181690
795.051	0.0181645
795.129	0.0179906
795.207	0.0181095
795.285	0.0181406
795.363	0.0181886
795.441	0.0182083
795.519	0.0182445
795.598	0.0181246
795.676	0.0181836
795.754	0.0180592
795.832	0.0180734
795.910	0.0181121
795.988	0.0180621
796.066	0.0181091
796.144	0.0181242
796.223	0.0179774
796.301	0.0181158
796.379	0.0179920
796.457	0.0179176
796.535	0.0181115
796.613	0.0180342
796.691	0.0180870
796.769	0.0179304
796.848	0.0180656
796.926	0.0182050
797.004	0.0181238
797.082	0.0179953
797.160	0.0180082
797.238	0.0180244
797.316	0.0180502
797.394	0.0180256
797.473	0.0180003
797.551	0.0181405
797.629	0.0180770
797.707	0.0179541
797.785	0.0179366
797.863	0.0180159
797.941	0.0181020
798.019	0.0181989
798.098	0.0180246
798.176	0.0181922
798.254	0.0180808
798.332	0.0182361
798.410	0.0182129
798.488	0.0181306
798.566	0.0181767
798.644	0.0181659
798.723	0.0181577
798.801	0.0181810
798.879	0.0181759
798.957	0.0181020
799.035	0.0180742
799.113	0.0181790
799.191	0.0181992
799.269	0.0180057
799.348	0.0180757
799.426	0.0181266
799.504	0.0181123
799.582	0.0179909
799.660	0.0179436
799.738	0.0181296
799.816	0.0181683
799.894	0.0179636
799.973	0.0179516
800.051	0.0180122
800.129	0.0178947
800.207	0.0179129
800.285	0.0180126
800.363	0.0179197
800.441	0.0180361
800.519	0.0180331
800.598	0.0180103
800.676	0.0180836
800.754	0.0180319
800.832	0.0179970
800.910	0.0179309
800.988	0.0181326
801.066	0.0180991
801.144	0.0179873
801.223	0.0179758
801.301	0.0180500
801.379	0.0180597
801.457	0.0179551
801.535	0.0179928
801.613	0.0180579
801.691	0.0181048
801.769	0.0181071
801.848	0.0181013
801.926	0.0181486
802.004	0.0181416
802.082	0.0180437
802.160	0.0181433
802.238	0.0182024
802.316	0.0182497
802.394	0.0182486
802.473	0.0181406
802.551	0.0181606
802.629	0.0182205
802.707	0.0182165
802.785	0.0183255
802.863	0.0183198
802.941	0.0181351
803.019	0.0182422
803.098	0.0181390
803.176	0.0182218
803.254	0.0181037
803.332	0.0179987
803.410	0.0179264
803.488	0.0180223
803.566	0.0181945
803.644	0.0179440
803.723	0.0179479
803.801	0.0180002
803.879	0.0179710
803.957	0.0179285
804.035	0.0179248
804.113	0.0177354
804.191	0.0178193
804.269	0.0177959
804.348	0.0178803
804.426	0.0179382
804.504	0.0178110
804.582	0.0179270
804.660	0.0179885
804.738	0.0179427
804.816	0.0179967
804.894	0.0179132
804.973	0.0180292
805.051	0.0179076
805.129	0.0179713
805.207	0.0180988
805.285	0.0181257
805.363	0.0181087
805.441	0.0179341
805.519	0.0180412
805.598	0.0181178
805.676	0.0180257
805.754	0.0178735
805.832	0.0178512
805.910	0.0179518
805.988	0.0179605
806.066	0.0179654
806.144	0.0178871
806.223	0.0178716
806.301	0.0179063
806.379	0.0177681
806.457	0.0179741
806.535	0.0178791
806.613	0.0179915
806.691	0.0179408
806.769	0.0178746
806.848	0.0179736
806.926	0.0179837
807.004	0.0180103
807.082	0.0180375
807.160	0.0181387
807.238	0.0181706
807.316	0.0181688
807.394	0.0182252
807.473	0.0181998
807.551	0.0182328
807.629	0.0182431
807.707	0.0183076
807.785	0.0180820
807.863	0.0184180
807.941	0.0182569
808.019	0.0181159
808.098	0.0181593
808.176	0.0181368
808.254	0.0182310
808.332	0.0181985
808.410	0.0181566
808.488	0.0181800
808.566	0.0180527
808.644	0.0181531
808.723	0.0180505
808.801	0.0180465
808.879	0.0180893
808.957	0.0180003
809.035	0.0180226
809.113	0.0179955
809.191	0.0179922
809.269	0.0179794
809.348	0.0180093
809.426	0.0179057
809.504	0.0179487
809.582	0.0179663
809.660	0.0179577
809.738	0.0180283
809.816	0.0180641
809.894	0.0180782
809.973	0.0179810
810.051	0.0180885
810.129	0.0179550
810.207	0.0180083
810.285	0.0179431
810.363	0.0182147
810.441	0.0182140
810.519	0.0181913
810.598	0.0182456
810.676	0.0181640
810.754	0.0181884
810.832	0.0182767
810.910	0.0180850
810.988	0.0181297
811.066	0.0182175
811.144	0.0181533
811.223	0.0180576
811.301	0.0182478
811.379	0.0182287
811.457	0.0180656
811.535	0.0180981
811.613	0.0180644
811.691	0.0180772
811.769	0.0181400
811.848	0.0180449
811.926	0.0179111
812.004	0.0179370
812.082	0.0179964
812.160	0.0179207
812.238	0.0179837
812.316	0.0178226
812.394	0.0179156
812.473	0.0177517
812.551	0.0178651
812.629	0.0177773
812.707	0.0179955
812.785	0.0178438
812.863	0.0177750
812.941	0.0179029
813.019	0.0180177
813.098	0.0177998
813.176	0.0178534
813.254	0.0178828
813.332	0.0180056
813.410	0.0179478
813.488	0.0178706
813.566	0.0179449
813.644	0.0179939
813.723	0.0181470
813.801	0.0180644
813.879	0.0181205
813.957	0.0181242
814.035	0.0180464
814.113	0.0180681
814.191	0.0180235
814.269	0.0181777
814.348	0.0178115
814.426	0.0180943
814.504	0.0182021
814.582	0.0181158
814.660	0.0180600
814.738	0.0182648
814.816	0.0181004
814.894	0.0179622
814.973	0.0179333
815.051	0.0180897
815.129	0.0181566
815.207	0.0180067
815.285	0.0180746
815.363	0.0179227
815.441	0.0179821
815.519	0.0180295
815.598	0.0180522
815.676	0.0180803
815.754	0.0180558
815.832	0.0180069
815.910	0.0180852
815.988	0.0179562
816.066	0.0179640
816.144	0.0179581
816.223	0.0179043
816.301	0.0178111
816.379	0.0179858
816.457	0.0179596
816.535	0.0178860
816.613	0.0179665
816.691	0.0179602
816.769	0.0178089
816.848	0.0179600
816.926	0.0178445
817.004	0.0178761
817.082	0.0179210
817.160	0.0177403
817.238	0.0178242
817.316	0.0179568
817.394	0.0178996
817.473	0.0178451
817.551	0.0177211
817.629	0.0177520
817.707	0.0176643
817.785	0.0178408
817.863	0.0177599
817.941	0.0177664
818.019	0.0177531
818.098	0.0179039
818.176	0.0179106
818.254	0.0180207
818.332	0.0179018
818.410	0.0179354
818.488	0.0179984
818.566	0.0180866
818.644	0.0180661
818.723	0.0181324
818.801	0.0179721
818.879	0.0180573
818.957	0.0181385
819.035	0.0182051
819.113	0.0181194
819.191	0.0181635
819.269	0.0180074
819.348	0.0181441
819.426	0.0180544
819.504	0.0181983
819.582	0.0181084
819.660	0.0180482
819.738	0.0180997
819.816	0.0180228
819.894	0.0180383
