06/03/2022	18:43:09	Ver.	4.1	UNKNOWN
Optical Delay	499.972551	Delta X		0.078125	Sweeps	1	Scan Rate	0/0
Coordinates	Axis 1	NaN	Axis 2	NaN	Axis 3	NaN	Axis 4	NaN	Axis 5	NaN	Axis 6	0.000000
TX Power	0.000000	RX Power	0.000000

499.973	0.0179430
500.051	0.0178978
500.129	0.0180035
500.207	0.0179937
500.285	0.0178823
500.363	0.0179546
500.441	0.0179119
500.519	0.0181339
500.598	0.0180922
500.676	0.0180089
500.754	0.0179714
500.832	0.0179420
500.910	0.0179402
500.988	0.0179496
501.066	0.0179478
501.144	0.0181034
501.223	0.0178913
501.301	0.0180995
501.379	0.0181178
501.457	0.0181293
501.535	0.0179247
501.613	0.0179720
501.691	0.0179652
501.769	0.0180582
501.848	0.0179759
501.926	0.0180209
502.004	0.0181450
502.082	0.0180605
502.160	0.0180642
502.238	0.0180196
502.316	0.0179372
502.394	0.0179280
502.473	0.0181540
502.551	0.0180530
502.629	0.0179374
502.707	0.0180714
502.785	0.0180529
502.863	0.0180624
502.941	0.0180132
503.019	0.0181449
503.098	0.0179645
503.176	0.0180901
503.254	0.0181454
503.332	0.0180146
503.410	0.0180070
503.488	0.0180093
503.566	0.0180001
503.644	0.0179937
503.723	0.0180556
503.801	0.0179237
503.879	0.0181507
503.957	0.0182220
504.035	0.0180724
504.113	0.0180103
504.191	0.0179410
504.269	0.0179420
504.348	0.0180593
504.426	0.0180331
504.504	0.0181404
504.582	0.0181909
504.660	0.0180589
504.738	0.0180310
504.816	0.0179550
504.894	0.0181655
504.973	0.0180246
505.051	0.0179148
505.129	0.0180016
505.207	0.0179082
505.285	0.0180381
505.363	0.0178793
505.441	0.0180906
505.519	0.0180122
505.598	0.0179720
505.676	0.0179798
505.754	0.0179614
505.832	0.0180626
505.910	0.0180533
505.988	0.0180431
506.066	0.0180975
506.144	0.0180119
506.223	0.0179951
506.301	0.0180287
506.379	0.0179566
506.457	0.0179761
506.535	0.0179606
506.613	0.0180478
506.691	0.0181148
506.769	0.0179918
506.848	0.0179261
506.926	0.0180418
507.004	0.0181740
507.082	0.0179387
507.160	0.0178615
507.238	0.0179582
507.316	0.0180522
507.394	0.0179409
507.473	0.0180151
507.551	0.0179482
507.629	0.0179639
507.707	0.0180671
507.785	0.0179788
507.863	0.0179718
507.941	0.0179170
508.019	0.0178642
508.098	0.0181588
508.176	0.0181192
508.254	0.0180421
508.332	0.0179577
508.410	0.0179365
508.488	0.0179919
508.566	0.0179799
508.644	0.0180408
508.723	0.0179148
508.801	0.0180731
508.879	0.0180811
508.957	0.0178452
509.035	0.0178893
509.113	0.0180325
509.191	0.0181010
509.269	0.0180142
509.348	0.0179065
509.426	0.0179057
509.504	0.0180909
509.582	0.0179971
509.660	0.0181207
509.738	0.0178578
509.816	0.0178667
509.894	0.0178833
509.973	0.0179682
510.051	0.0180815
510.129	0.0179670
510.207	0.0179115
510.285	0.0179485
510.363	0.0178951
510.441	0.0180212
510.519	0.0179670
510.598	0.0180723
510.676	0.0180403
510.754	0.0181083
510.832	0.0180763
510.910	0.0180198
510.988	0.0181141
511.066	0.0180614
511.144	0.0180276
511.223	0.0180137
511.301	0.0180537
511.379	0.0179877
511.457	0.0181028
511.535	0.0182028
511.613	0.0180762
511.691	0.0182153
511.769	0.0180402
511.848	0.0180577
511.926	0.0181009
512.004	0.0182554
512.082	0.0181538
512.160	0.0181470
512.238	0.0180243
512.316	0.0181234
512.394	0.0180244
512.473	0.0181103
512.551	0.0180212
512.629	0.0181400
512.707	0.0181683
512.785	0.0181331
512.863	0.0181837
512.941	0.0180713
513.019	0.0180497
513.098	0.0180875
513.176	0.0180861
513.254	0.0180658
513.332	0.0179356
513.410	0.0180892
513.488	0.0180676
513.566	0.0181300
513.644	0.0180580
513.723	0.0180367
513.801	0.0180360
513.879	0.0180832
513.957	0.0180511
514.035	0.0182573
514.113	0.0182258
514.191	0.0179938
514.269	0.0180720
514.348	0.0180513
514.426	0.0180487
514.504	0.0181289
514.582	0.0179753
514.660	0.0180240
514.738	0.0180249
514.816	0.0181393
514.894	0.0180723
514.973	0.0181082
515.051	0.0181898
515.129	0.0181558
515.207	0.0180225
515.285	0.0180874
515.363	0.0180820
515.441	0.0179488
515.519	0.0181716
515.598	0.0181947
515.676	0.0179970
515.754	0.0180740
515.832	0.0180262
515.910	0.0181415
515.988	0.0181140
516.066	0.0180470
516.144	0.0179710
516.223	0.0180947
516.301	0.0181036
516.379	0.0180507
516.457	0.0181671
516.535	0.0180649
516.613	0.0180599
516.691	0.0181999
516.769	0.0181219
516.848	0.0179737
516.926	0.0180943
517.004	0.0181009
517.082	0.0181362
517.160	0.0181701
517.238	0.0180162
517.316	0.0180370
517.394	0.0181274
517.473	0.0181597
517.551	0.0181992
517.629	0.0181422
517.707	0.0182090
517.785	0.0182141
517.863	0.0181107
517.941	0.0181334
518.019	0.0181094
518.098	0.0180821
518.176	0.0179968
518.254	0.0180882
518.332	0.0180852
518.410	0.0180079
518.488	0.0179590
518.566	0.0181187
518.644	0.0180813
518.723	0.0179507
518.801	0.0180724
518.879	0.0179208
518.957	0.0180075
519.035	0.0180383
519.113	0.0181483
519.191	0.0181630
519.269	0.0180659
519.348	0.0178672
519.426	0.0179919
519.504	0.0180954
519.582	0.0182163
519.660	0.0180268
519.738	0.0179551
519.816	0.0179767
519.894	0.0180997
519.973	0.0179119
520.051	0.0179478
520.129	0.0180302
520.207	0.0179803
520.285	0.0179387
520.363	0.0179839
520.441	0.0179589
520.519	0.0181738
520.598	0.0179776
520.676	0.0178858
520.754	0.0179665
520.832	0.0179592
520.910	0.0179453
520.988	0.0179724
521.066	0.0180601
521.144	0.0179438
521.223	0.0179684
521.301	0.0178384
521.379	0.0180844
521.457	0.0180116
521.535	0.0178810
521.613	0.0179504
521.691	0.0180418
521.769	0.0180714
521.848	0.0180575
521.926	0.0179500
522.004	0.0179763
522.082	0.0180525
522.160	0.0180035
522.238	0.0180724
522.316	0.0180023
522.394	0.0180181
522.473	0.0180369
522.551	0.0179610
522.629	0.0180325
522.707	0.0179854
522.785	0.0180872
522.863	0.0180973
522.941	0.0180726
523.019	0.0179949
523.098	0.0179389
523.176	0.0180324
523.254	0.0179134
523.332	0.0179461
523.410	0.0179675
523.488	0.0180921
523.566	0.0179688
523.644	0.0179930
523.723	0.0179568
523.801	0.0179057
523.879	0.0179572
523.957	0.0179308
524.035	0.0179186
524.113	0.0179718
524.191	0.0179386
524.269	0.0179903
524.348	0.0178970
524.426	0.0179031
524.504	0.0178135
524.582	0.0178497
524.660	0.0178799
524.738	0.0179419
524.816	0.0178832
524.894	0.0179002
524.973	0.0178726
525.051	0.0178473
525.129	0.0177521
525.207	0.0178384
525.285	0.0177672
525.363	0.0179653
525.441	0.0179305
525.519	0.0179052
525.598	0.0177466
525.676	0.0178766
525.754	0.0179258
525.832	0.0178794
525.910	0.0179387
525.988	0.0178043
526.066	0.0179647
526.144	0.0178973
526.223	0.0179000
526.301	0.0178178
526.379	0.0177747
526.457	0.0177431
526.535	0.0178606
526.613	0.0178809
526.691	0.0179209
526.769	0.0178102
526.848	0.0178239
526.926	0.0177763
527.004	0.0178316
527.082	0.0179916
527.160	0.0179040
527.238	0.0178145
527.316	0.0178137
527.394	0.0178539
527.473	0.0178730
527.551	0.0177456
527.629	0.0177822
527.707	0.0178139
527.785	0.0178127
527.863	0.0178571
527.941	0.0178893
528.019	0.0178836
528.098	0.0179303
528.176	0.0178240
528.254	0.0178181
528.332	0.0180372
528.410	0.0180212
528.488	0.0179694
528.566	0.0179671
528.644	0.0179759
528.723	0.0179250
528.801	0.0179768
528.879	0.0179954
528.957	0.0179665
529.035	0.0180294
529.113	0.0179649
529.191	0.0179482
529.269	0.0178612
529.348	0.0180106
529.426	0.0179716
529.504	0.0180316
529.582	0.0180354
529.660	0.0179056
529.738	0.0180669
529.816	0.0180931
529.894	0.0178712
529.973	0.0178902
530.051	0.0181157
530.129	0.0181303
530.207	0.0180396
530.285	0.0179655
530.363	0.0180582
530.441	0.0180801
530.519	0.0180257
530.598	0.0179594
530.676	0.0181464
530.754	0.0182140
530.832	0.0179958
530.910	0.0182195
530.988	0.0182733
531.066	0.0182175
531.144	0.0183017
531.223	0.0183970
531.301	0.0183598
531.379	0.0184365
531.457	0.0183946
531.535	0.0185632
531.613	0.0185513
531.691	0.0183721
531.769	0.0187109
531.848	0.0185876
531.926	0.0186850
532.004	0.0185366
532.082	0.0185239
532.160	0.0186607
532.238	0.0185062
532.316	0.0187298
532.394	0.0184672
532.473	0.0185699
532.551	0.0185522
532.629	0.0184503
532.707	0.0186469
532.785	0.0185936
532.863	0.0185774
532.941	0.0183292
533.019	0.0184037
533.098	0.0183559
533.176	0.0183267
533.254	0.0182928
533.332	0.0183466
533.410	0.0182013
533.488	0.0181291
533.566	0.0180724
533.644	0.0182513
533.723	0.0181013
533.801	0.0180125
533.879	0.0179845
533.957	0.0179243
534.035	0.0179280
534.113	0.0180315
534.191	0.0179718
534.269	0.0179659
534.348	0.0178071
534.426	0.0179774
534.504	0.0179741
534.582	0.0179969
534.660	0.0179659
534.738	0.0179948
534.816	0.0180408
534.894	0.0179566
534.973	0.0178560
535.051	0.0179051
535.129	0.0181046
535.207	0.0182130
535.285	0.0180101
535.363	0.0179411
535.441	0.0179601
535.519	0.0179726
535.598	0.0180024
535.676	0.0180411
535.754	0.0180375
535.832	0.0180022
535.910	0.0180322
535.988	0.0181758
536.066	0.0181855
536.144	0.0179668
536.223	0.0181248
536.301	0.0180792
536.379	0.0178893
536.457	0.0180487
536.535	0.0180711
536.613	0.0180165
536.691	0.0179774
536.769	0.0178992
536.848	0.0180177
536.926	0.0179624
537.004	0.0180732
537.082	0.0179368
537.160	0.0179138
537.238	0.0179208
537.316	0.0178842
537.394	0.0179004
537.473	0.0178377
537.551	0.0177849
537.629	0.0180013
537.707	0.0179965
537.785	0.0178057
537.863	0.0178857
537.941	0.0178417
538.019	0.0178446
538.098	0.0178974
538.176	0.0177883
538.254	0.0178957
538.332	0.0179440
538.410	0.0178399
538.488	0.0178537
538.566	0.0178283
538.644	0.0178105
538.723	0.0177897
538.801	0.0179578
538.879	0.0178389
538.957	0.0178465
539.035	0.0178579
539.113	0.0178897
539.191	0.0179867
539.269	0.0179823
539.348	0.0178557
539.426	0.0180146
539.504	0.0179423
539.582	0.0180416
539.660	0.0179114
539.738	0.0180484
539.816	0.0180823
539.894	0.0180614
539.973	0.0181242
540.051	0.0181484
540.129	0.0180789
540.207	0.0181798
540.285	0.0181674
540.363	0.0181928
540.441	0.0181291
540.519	0.0183014
540.598	0.0182281
540.676	0.0182406
540.754	0.0182385
540.832	0.0182500
540.910	0.0182764
540.988	0.0183669
541.066	0.0182683
541.144	0.0181837
541.223	0.0183624
541.301	0.0181847
541.379	0.0183214
541.457	0.0183456
541.535	0.0184185
541.613	0.0183402
541.691	0.0183431
541.769	0.0183862
541.848	0.0183510
541.926	0.0182663
542.004	0.0183383
542.082	0.0184175
542.160	0.0185632
542.238	0.0184977
542.316	0.0184896
542.394	0.0183431
542.473	0.0184935
542.551	0.0183672
542.629	0.0182605
542.707	0.0182099
542.785	0.0182971
542.863	0.0182418
542.941	0.0183402
543.019	0.0183234
543.098	0.0181033
543.176	0.0182274
543.254	0.0182423
543.332	0.0182371
543.410	0.0180178
543.488	0.0180510
543.566	0.0182064
543.644	0.0181633
543.723	0.0182321
543.801	0.0180742
543.879	0.0180153
543.957	0.0181800
544.035	0.0181139
544.113	0.0180935
544.191	0.0181401
544.269	0.0181464
544.348	0.0180579
544.426	0.0180387
544.504	0.0181095
544.582	0.0180988
544.660	0.0180821
544.738	0.0180569
544.816	0.0180418
544.894	0.0181313
544.973	0.0180020
545.051	0.0180200
545.129	0.0179324
545.207	0.0179769
545.285	0.0180269
545.363	0.0179680
545.441	0.0179235
545.519	0.0178298
545.598	0.0179675
545.676	0.0180067
545.754	0.0180212
545.832	0.0178743
545.910	0.0177417
545.988	0.0179501
546.066	0.0177880
546.144	0.0178570
546.223	0.0179091
546.301	0.0180117
546.379	0.0178886
546.457	0.0178960
546.535	0.0179597
546.613	0.0180586
546.691	0.0179042
546.769	0.0178555
546.848	0.0179298
546.926	0.0178691
547.004	0.0179214
547.082	0.0180649
547.160	0.0180362
547.238	0.0179977
547.316	0.0178584
547.394	0.0180717
547.473	0.0179331
547.551	0.0179291
547.629	0.0179138
547.707	0.0180488
547.785	0.0178625
547.863	0.0178625
547.941	0.0179635
548.019	0.0179236
548.098	0.0178962
548.176	0.0180102
548.254	0.0180711
548.332	0.0179176
548.410	0.0179002
548.488	0.0180026
548.566	0.0179148
548.644	0.0180296
548.723	0.0180274
548.801	0.0178732
548.879	0.0178796
548.957	0.0179317
549.035	0.0178098
549.113	0.0180766
549.191	0.0179977
549.269	0.0179227
549.348	0.0179118
549.426	0.0178610
549.504	0.0180177
549.582	0.0180240
549.660	0.0180538
549.738	0.0180809
549.816	0.0180273
549.894	0.0179910
549.973	0.0181566
550.051	0.0181226
550.129	0.0179874
550.207	0.0180433
550.285	0.0180611
550.363	0.0181981
550.441	0.0181205
550.519	0.0181033
550.598	0.0181458
550.676	0.0182646
550.754	0.0181256
550.832	0.0181670
550.910	0.0182301
550.988	0.0180743
551.066	0.0181695
551.144	0.0180734
551.223	0.0181109
551.301	0.0182478
551.379	0.0181742
551.457	0.0182126
551.535	0.0180560
551.613	0.0182084
551.691	0.0182729
551.769	0.0181342
551.848	0.0183819
551.926	0.0182491
552.004	0.0181448
552.082	0.0181161
552.160	0.0181961
552.238	0.0182042
552.316	0.0181439
552.394	0.0181940
552.473	0.0182064
552.551	0.0183532
552.629	0.0182670
552.707	0.0182870
552.785	0.0181222
552.863	0.0180846
552.941	0.0183506
553.019	0.0182475
553.098	0.0181963
553.176	0.0181326
553.254	0.0182261
553.332	0.0181424
553.410	0.0181512
553.488	0.0182023
553.566	0.0179155
553.644	0.0181313
553.723	0.0180452
553.801	0.0182296
553.879	0.0180731
553.957	0.0179862
554.035	0.0180693
554.113	0.0180459
554.191	0.0181973
554.269	0.0182091
554.348	0.0180258
554.426	0.0181368
554.504	0.0180531
554.582	0.0182387
554.660	0.0180717
554.738	0.0179733
554.816	0.0180496
554.894	0.0181911
554.973	0.0180257
555.051	0.0180236
555.129	0.0179774
555.207	0.0178996
555.285	0.0179980
555.363	0.0180490
555.441	0.0179734
555.519	0.0180239
555.598	0.0179610
555.676	0.0179286
555.754	0.0180090
555.832	0.0180204
555.910	0.0180566
555.988	0.0180269
556.066	0.0180411
556.144	0.0179810
556.223	0.0179720
556.301	0.0179404
556.379	0.0180161
556.457	0.0179170
556.535	0.0180486
556.613	0.0180923
556.691	0.0179972
556.769	0.0180241
556.848	0.0179979
556.926	0.0180061
557.004	0.0179607
557.082	0.0180455
557.160	0.0181410
557.238	0.0181168
557.316	0.0179259
557.394	0.0179773
557.473	0.0181037
557.551	0.0179542
557.629	0.0179645
557.707	0.0179234
557.785	0.0180067
557.863	0.0181092
557.941	0.0178851
558.019	0.0179333
558.098	0.0180444
558.176	0.0179189
558.254	0.0179124
558.332	0.0181451
558.410	0.0180053
558.488	0.0180718
558.566	0.0179697
558.644	0.0179612
558.723	0.0179903
558.801	0.0179234
558.879	0.0179243
558.957	0.0180030
559.035	0.0179933
559.113	0.0180951
559.191	0.0180282
559.269	0.0180174
559.348	0.0180415
559.426	0.0180650
559.504	0.0180763
559.582	0.0180552
559.660	0.0180698
559.738	0.0181548
559.816	0.0180476
559.894	0.0180766
559.973	0.0181588
560.051	0.0179746
560.129	0.0180160
560.207	0.0180408
560.285	0.0180301
560.363	0.0182349
560.441	0.0181188
560.519	0.0180762
560.598	0.0182217
560.676	0.0182090
560.754	0.0180706
560.832	0.0181123
560.910	0.0180753
560.988	0.0180828
561.066	0.0180444
561.144	0.0181864
561.223	0.0181033
561.301	0.0181202
561.379	0.0181603
561.457	0.0181873
561.535	0.0181200
561.613	0.0181157
561.691	0.0182264
561.769	0.0181727
561.848	0.0181463
561.926	0.0181513
562.004	0.0181487
562.082	0.0181519
562.160	0.0181961
562.238	0.0182626
562.316	0.0179919
562.394	0.0179805
562.473	0.0181740
562.551	0.0182743
562.629	0.0181345
562.707	0.0181692
562.785	0.0181019
562.863	0.0182793
562.941	0.0182248
563.019	0.0181661
563.098	0.0182344
563.176	0.0183721
563.254	0.0182246
563.332	0.0183156
563.410	0.0181687
563.488	0.0181734
563.566	0.0181909
563.644	0.0181927
563.723	0.0181667
563.801	0.0180685
563.879	0.0182340
563.957	0.0181834
564.035	0.0181718
564.113	0.0182034
564.191	0.0180773
564.269	0.0181931
564.348	0.0181393
564.426	0.0181695
564.504	0.0182532
564.582	0.0182452
564.660	0.0181628
564.738	0.0181382
564.816	0.0181995
564.894	0.0181400
564.973	0.0182700
565.051	0.0182771
565.129	0.0181382
565.207	0.0181400
565.285	0.0182762
565.363	0.0182690
565.441	0.0182936
565.519	0.0181700
565.598	0.0181145
565.676	0.0180219
565.754	0.0180215
565.832	0.0181434
565.910	0.0181516
565.988	0.0181762
566.066	0.0182084
566.144	0.0180948
566.223	0.0181422
566.301	0.0181630
566.379	0.0181310
566.457	0.0181130
566.535	0.0179488
566.613	0.0180509
566.691	0.0180885
566.769	0.0181322
566.848	0.0182385
566.926	0.0181409
567.004	0.0180407
567.082	0.0181361
567.160	0.0181391
567.238	0.0180985
567.316	0.0181310
567.394	0.0180731
567.473	0.0181317
567.551	0.0179060
567.629	0.0180182
567.707	0.0180815
567.785	0.0181381
567.863	0.0180760
567.941	0.0181496
568.019	0.0181163
568.098	0.0181213
568.176	0.0182109
568.254	0.0181760
568.332	0.0181419
568.410	0.0180913
568.488	0.0182055
568.566	0.0181431
568.644	0.0180322
568.723	0.0181071
568.801	0.0181267
568.879	0.0180426
568.957	0.0181468
569.035	0.0181193
569.113	0.0180035
569.191	0.0180257
569.269	0.0179911
569.348	0.0181282
569.426	0.0179917
569.504	0.0180981
569.582	0.0181982
569.660	0.0180647
569.738	0.0179845
569.816	0.0180983
569.894	0.0180322
569.973	0.0179790
570.051	0.0180551
570.129	0.0179573
570.207	0.0180476
570.285	0.0179408
570.363	0.0179513
570.441	0.0180769
570.519	0.0180897
570.598	0.0180553
570.676	0.0179940
570.754	0.0179173
570.832	0.0179534
570.910	0.0179185
570.988	0.0179238
571.066	0.0179906
571.144	0.0179870
571.223	0.0180770
571.301	0.0179036
571.379	0.0179507
571.457	0.0179900
571.535	0.0179516
571.613	0.0178625
571.691	0.0180489
571.769	0.0178095
571.848	0.0178612
571.926	0.0179279
572.004	0.0179810
572.082	0.0180563
572.160	0.0179921
572.238	0.0179381
572.316	0.0181281
572.394	0.0179451
572.473	0.0179147
572.551	0.0180233
572.629	0.0180890
572.707	0.0181135
572.785	0.0181049
572.863	0.0179163
572.941	0.0180353
573.019	0.0178374
573.098	0.0179952
573.176	0.0180222
573.254	0.0180181
573.332	0.0180324
573.410	0.0178529
573.488	0.0181078
573.566	0.0181345
573.644	0.0179800
573.723	0.0179964
573.801	0.0180007
573.879	0.0180309
573.957	0.0179384
574.035	0.0180038
574.113	0.0180327
574.191	0.0179484
574.269	0.0180477
574.348	0.0179946
574.426	0.0180386
574.504	0.0179080
574.582	0.0181612
574.660	0.0179766
574.738	0.0180125
574.816	0.0179852
574.894	0.0180106
574.973	0.0179945
575.051	0.0181326
575.129	0.0179789
575.207	0.0178895
575.285	0.0180602
575.363	0.0180950
575.441	0.0179416
575.519	0.0180383
575.598	0.0178996
575.676	0.0178336
575.754	0.0179749
575.832	0.0179590
575.910	0.0179567
575.988	0.0180101
576.066	0.0179837
576.144	0.0179446
576.223	0.0179539
576.301	0.0180576
576.379	0.0178986
576.457	0.0178757
576.535	0.0178515
576.613	0.0179625
576.691	0.0179507
576.769	0.0178226
576.848	0.0180231
576.926	0.0180190
577.004	0.0179335
577.082	0.0178190
577.160	0.0179559
577.238	0.0179166
577.316	0.0178459
577.394	0.0179478
577.473	0.0180363
577.551	0.0178220
577.629	0.0180715
577.707	0.0180330
577.785	0.0179842
577.863	0.0179671
577.941	0.0180311
578.019	0.0179456
578.098	0.0182057
578.176	0.0180083
578.254	0.0181453
578.332	0.0180218
578.410	0.0180994
578.488	0.0181293
578.566	0.0181081
578.644	0.0181036
578.723	0.0180301
578.801	0.0179906
578.879	0.0182161
578.957	0.0182348
579.035	0.0180814
579.113	0.0179330
579.191	0.0181161
579.269	0.0180698
579.348	0.0179916
579.426	0.0180498
579.504	0.0180734
579.582	0.0180196
579.660	0.0181519
579.738	0.0181620
579.816	0.0182478
579.894	0.0180095
579.973	0.0180094
580.051	0.0182683
580.129	0.0181949
580.207	0.0179605
580.285	0.0181221
580.363	0.0181698
580.441	0.0179365
580.519	0.0180523
580.598	0.0181889
580.676	0.0181229
580.754	0.0180943
580.832	0.0182098
580.910	0.0180796
580.988	0.0180663
581.066	0.0181101
581.144	0.0181353
581.223	0.0182747
581.301	0.0181583
581.379	0.0180561
581.457	0.0180093
581.535	0.0181541
581.613	0.0181596
581.691	0.0180609
581.769	0.0181512
581.848	0.0182225
581.926	0.0182475
582.004	0.0181532
582.082	0.0180625
582.160	0.0182273
582.238	0.0181577
582.316	0.0182090
582.394	0.0181886
582.473	0.0182209
582.551	0.0181960
582.629	0.0183316
582.707	0.0182944
582.785	0.0182622
582.863	0.0180710
582.941	0.0182349
583.019	0.0182725
583.098	0.0181879
583.176	0.0181103
583.254	0.0182027
583.332	0.0183936
583.410	0.0182531
583.488	0.0183403
583.566	0.0181517
583.644	0.0181583
583.723	0.0180437
583.801	0.0183221
583.879	0.0181541
583.957	0.0182020
584.035	0.0181251
584.113	0.0181218
584.191	0.0181345
584.269	0.0180462
584.348	0.0181486
584.426	0.0180993
584.504	0.0180813
584.582	0.0181515
584.660	0.0181103
584.738	0.0180968
584.816	0.0182885
584.894	0.0181187
584.973	0.0180952
585.051	0.0180281
585.129	0.0179594
585.207	0.0179074
585.285	0.0180880
585.363	0.0180063
585.441	0.0179941
585.519	0.0180344
585.598	0.0180063
585.676	0.0180361
585.754	0.0180106
585.832	0.0180340
585.910	0.0178828
585.988	0.0179884
586.066	0.0180001
586.144	0.0179981
586.223	0.0179107
586.301	0.0179630
586.379	0.0178474
586.457	0.0179094
586.535	0.0179749
586.613	0.0179265
586.691	0.0179525
586.769	0.0180414
586.848	0.0179549
586.926	0.0178413
587.004	0.0178809
587.082	0.0180338
587.160	0.0179578
587.238	0.0179601
587.316	0.0182082
587.394	0.0179018
587.473	0.0179791
587.551	0.0179016
587.629	0.0179262
587.707	0.0178320
587.785	0.0178547
587.863	0.0179126
587.941	0.0179305
588.019	0.0179540
588.098	0.0180999
588.176	0.0181568
588.254	0.0179169
588.332	0.0179603
588.410	0.0179951
588.488	0.0180392
588.566	0.0180302
588.644	0.0180107
588.723	0.0180400
588.801	0.0180396
588.879	0.0180038
588.957	0.0178897
589.035	0.0180488
589.113	0.0180943
589.191	0.0181641
589.269	0.0180331
589.348	0.0180915
589.426	0.0181319
589.504	0.0180789
589.582	0.0180565
589.660	0.0180800
589.738	0.0180635
589.816	0.0180302
589.894	0.0180640
589.973	0.0181039
590.051	0.0182014
590.129	0.0179965
590.207	0.0180979
590.285	0.0181121
590.363	0.0180782
590.441	0.0180520
590.519	0.0181027
590.598	0.0180122
590.676	0.0181273
590.754	0.0182764
590.832	0.0181209
590.910	0.0179822
590.988	0.0181258
591.066	0.0180161
591.144	0.0179452
591.223	0.0180681
591.301	0.0182178
591.379	0.0181522
591.457	0.0181719
591.535	0.0180730
591.613	0.0180886
591.691	0.0180437
591.769	0.0181874
591.848	0.0180807
591.926	0.0180445
592.004	0.0180429
592.082	0.0180386
592.160	0.0180102
592.238	0.0181398
592.316	0.0181250
592.394	0.0181081
592.473	0.0181017
592.551	0.0181053
592.629	0.0181859
592.707	0.0180598
592.785	0.0180575
592.863	0.0181189
592.941	0.0181062
593.019	0.0180592
593.098	0.0180525
593.176	0.0182120
593.254	0.0181622
593.332	0.0180049
593.410	0.0179922
593.488	0.0178862
593.566	0.0180285
593.644	0.0179501
593.723	0.0179973
593.801	0.0182133
593.879	0.0181262
593.957	0.0180255
594.035	0.0181069
594.113	0.0180923
594.191	0.0180289
594.269	0.0180257
594.348	0.0180102
594.426	0.0179506
594.504	0.0179459
594.582	0.0180782
594.660	0.0180672
594.738	0.0179659
594.816	0.0179870
594.894	0.0181005
594.973	0.0177525
595.051	0.0179253
595.129	0.0180376
595.207	0.0179173
595.285	0.0180965
595.363	0.0180725
595.441	0.0179014
595.519	0.0178873
595.598	0.0178913
595.676	0.0179246
595.754	0.0179300
595.832	0.0180128
595.910	0.0179754
595.988	0.0177754
596.066	0.0180409
596.144	0.0180493
596.223	0.0178903
596.301	0.0179124
596.379	0.0179521
596.457	0.0178625
596.535	0.0179041
596.613	0.0179105
596.691	0.0178946
596.769	0.0179391
596.848	0.0178297
596.926	0.0178418
597.004	0.0178230
597.082	0.0178548
597.160	0.0179835
597.238	0.0178340
597.316	0.0178459
597.394	0.0179248
597.473	0.0178676
597.551	0.0178234
597.629	0.0178657
597.707	0.0180685
597.785	0.0178468
597.863	0.0179573
597.941	0.0178978
598.019	0.0179543
598.098	0.0179156
598.176	0.0179717
598.254	0.0178967
598.332	0.0178127
598.410	0.0179633
598.488	0.0179012
598.566	0.0179038
598.644	0.0179775
598.723	0.0180393
598.801	0.0179275
598.879	0.0180403
598.957	0.0179324
599.035	0.0180043
599.113	0.0180533
599.191	0.0180562
599.269	0.0179752
599.348	0.0180051
599.426	0.0180058
599.504	0.0180984
599.582	0.0180412
599.660	0.0178839
599.738	0.0179453
599.816	0.0180737
599.894	0.0179282
599.973	0.0179450
600.051	0.0181487
600.129	0.0182330
600.207	0.0179806
600.285	0.0180541
600.363	0.0180723
600.441	0.0181438
600.519	0.0180420
600.598	0.0181009
600.676	0.0180554
600.754	0.0180022
600.832	0.0180978
600.910	0.0180933
600.988	0.0180352
601.066	0.0181754
601.144	0.0180570
601.223	0.0180996
601.301	0.0180786
601.379	0.0179895
601.457	0.0181444
601.535	0.0180758
601.613	0.0181158
601.691	0.0182105
601.769	0.0181776
601.848	0.0179396
601.926	0.0180755
602.004	0.0180782
602.082	0.0179974
602.160	0.0180144
602.238	0.0182063
602.316	0.0180457
602.394	0.0180160
602.473	0.0180296
602.551	0.0182607
602.629	0.0181174
602.707	0.0180511
602.785	0.0180016
602.863	0.0181897
602.941	0.0181581
603.019	0.0180584
603.098	0.0181055
603.176	0.0181845
603.254	0.0182309
603.332	0.0180363
603.410	0.0179895
603.488	0.0182468
603.566	0.0180672
603.644	0.0180900
603.723	0.0181120
603.801	0.0181138
603.879	0.0181476
603.957	0.0181338
604.035	0.0181754
604.113	0.0181546
604.191	0.0180514
604.269	0.0181225
604.348	0.0181973
604.426	0.0181382
604.504	0.0181927
604.582	0.0182287
604.660	0.0180533
604.738	0.0181518
604.816	0.0180277
604.894	0.0179855
604.973	0.0181290
605.051	0.0180060
605.129	0.0181436
605.207	0.0181635
605.285	0.0180341
605.363	0.0180160
605.441	0.0179386
605.519	0.0180690
605.598	0.0181499
605.676	0.0181593
605.754	0.0180951
605.832	0.0179668
605.910	0.0181163
605.988	0.0180216
606.066	0.0181519
606.144	0.0179276
606.223	0.0181010
606.301	0.0182188
606.379	0.0179942
606.457	0.0179863
606.535	0.0181554
606.613	0.0182734
606.691	0.0180726
606.769	0.0179867
606.848	0.0181434
606.926	0.0181114
607.004	0.0180690
607.082	0.0181950
607.160	0.0180619
607.238	0.0180920
607.316	0.0181153
607.394	0.0179408
607.473	0.0180483
607.551	0.0180771
607.629	0.0179838
607.707	0.0180128
607.785	0.0179908
607.863	0.0178848
607.941	0.0180565
608.019	0.0181109
608.098	0.0179885
608.176	0.0180791
608.254	0.0180167
608.332	0.0180769
608.410	0.0179958
608.488	0.0179210
608.566	0.0180101
608.644	0.0180416
608.723	0.0180302
608.801	0.0179970
608.879	0.0178961
608.957	0.0179848
609.035	0.0181093
609.113	0.0180246
609.191	0.0179105
609.269	0.0180202
609.348	0.0179893
609.426	0.0179330
609.504	0.0179222
609.582	0.0178880
609.660	0.0180527
609.738	0.0179723
609.816	0.0179561
609.894	0.0178519
609.973	0.0181158
610.051	0.0179843
610.129	0.0180726
610.207	0.0180505
610.285	0.0179630
610.363	0.0179790
610.441	0.0179592
610.519	0.0180293
610.598	0.0180107
610.676	0.0180744
610.754	0.0180307
610.832	0.0178564
610.910	0.0179934
610.988	0.0180000
611.066	0.0180497
611.144	0.0180740
611.223	0.0180334
611.301	0.0181361
611.379	0.0179796
611.457	0.0180021
611.535	0.0179855
611.613	0.0181246
611.691	0.0181006
611.769	0.0180877
611.848	0.0182344
611.926	0.0181655
612.004	0.0179169
612.082	0.0181101
612.160	0.0181323
612.238	0.0180811
612.316	0.0180254
612.394	0.0181873
612.473	0.0180847
612.551	0.0181383
612.629	0.0180764
612.707	0.0180708
612.785	0.0181390
612.863	0.0181474
612.941	0.0182491
613.019	0.0180521
613.098	0.0180254
613.176	0.0181401
613.254	0.0181351
613.332	0.0180807
613.410	0.0181113
613.488	0.0181480
613.566	0.0181893
613.644	0.0181344
613.723	0.0180647
613.801	0.0181274
613.879	0.0180273
613.957	0.0181033
614.035	0.0181125
614.113	0.0182005
614.191	0.0181460
614.269	0.0180877
614.348	0.0180603
614.426	0.0182597
614.504	0.0181317
614.582	0.0180809
614.660	0.0182714
614.738	0.0182948
614.816	0.0182335
614.894	0.0181709
614.973	0.0182016
615.051	0.0180814
615.129	0.0181782
615.207	0.0182008
615.285	0.0182546
615.363	0.0181518
615.441	0.0180878
615.519	0.0182030
615.598	0.0182811
615.676	0.0181897
615.754	0.0182330
615.832	0.0181278
615.910	0.0180762
615.988	0.0180486
616.066	0.0181899
616.144	0.0180950
616.223	0.0180569
616.301	0.0181619
616.379	0.0180830
616.457	0.0180994
616.535	0.0181175
616.613	0.0180748
616.691	0.0181254
616.769	0.0180660
616.848	0.0180859
616.926	0.0182539
617.004	0.0181751
617.082	0.0181862
617.160	0.0180682
617.238	0.0180091
617.316	0.0181591
617.394	0.0181723
617.473	0.0181735
617.551	0.0180600
617.629	0.0180988
617.707	0.0181915
617.785	0.0181564
617.863	0.0180902
617.941	0.0178908
618.019	0.0180741
618.098	0.0181427
618.176	0.0181623
618.254	0.0180474
618.332	0.0181226
618.410	0.0179906
618.488	0.0179729
618.566	0.0180048
618.644	0.0180903
618.723	0.0180876
618.801	0.0180279
618.879	0.0181866
618.957	0.0182087
619.035	0.0179562
619.113	0.0180605
619.191	0.0181101
619.269	0.0181417
619.348	0.0180717
619.426	0.0181197
619.504	0.0179896
619.582	0.0182018
619.660	0.0181616
619.738	0.0181164
619.816	0.0180988
619.894	0.0179276
619.973	0.0180196
620.051	0.0179668
620.129	0.0181700
620.207	0.0180856
620.285	0.0179921
620.363	0.0180244
620.441	0.0180457
620.519	0.0180861
620.598	0.0180258
620.676	0.0181606
620.754	0.0181226
620.832	0.0181744
620.910	0.0180910
620.988	0.0179160
621.066	0.0180499
621.144	0.0180475
621.223	0.0179806
621.301	0.0178625
621.379	0.0180553
621.457	0.0181228
621.535	0.0180281
621.613	0.0179560
621.691	0.0179939
621.769	0.0180344
621.848	0.0180460
621.926	0.0179874
622.004	0.0179305
622.082	0.0179529
622.160	0.0179257
622.238	0.0179094
622.316	0.0179824
622.394	0.0180163
622.473	0.0178821
622.551	0.0178654
622.629	0.0179833
622.707	0.0179842
622.785	0.0179602
622.863	0.0179354
622.941	0.0180816
623.019	0.0179510
623.098	0.0179003
623.176	0.0178972
623.254	0.0178362
623.332	0.0178778
623.410	0.0180637
623.488	0.0180736
623.566	0.0178710
623.644	0.0178144
623.723	0.0179410
623.801	0.0179908
623.879	0.0178670
623.957	0.0178264
624.035	0.0179876
624.113	0.0179359
624.191	0.0179424
624.269	0.0180534
624.348	0.0179757
624.426	0.0179441
624.504	0.0180753
624.582	0.0179639
624.660	0.0179097
624.738	0.0179402
624.816	0.0179670
624.894	0.0180676
624.973	0.0180868
625.051	0.0180103
625.129	0.0179988
625.207	0.0179832
625.285	0.0181509
625.363	0.0179470
625.441	0.0180038
625.519	0.0181050
625.598	0.0180121
625.676	0.0180665
625.754	0.0180717
625.832	0.0181075
625.910	0.0180876
625.988	0.0179955
626.066	0.0178912
626.144	0.0179853
626.223	0.0181641
626.301	0.0180296
626.379	0.0179086
626.457	0.0180196
626.535	0.0180774
626.613	0.0180297
626.691	0.0182562
626.769	0.0181329
626.848	0.0180861
626.926	0.0180933
627.004	0.0181366
627.082	0.0181544
627.160	0.0180775
627.238	0.0180724
627.316	0.0181966
627.394	0.0181592
627.473	0.0181739
627.551	0.0182355
627.629	0.0180769
627.707	0.0180669
627.785	0.0181187
627.863	0.0181926
627.941	0.0180074
628.019	0.0182443
628.098	0.0182491
628.176	0.0182375
628.254	0.0180766
628.332	0.0181261
628.410	0.0180709
628.488	0.0181590
628.566	0.0182082
628.644	0.0182604
628.723	0.0181422
628.801	0.0181128
628.879	0.0180193
628.957	0.0180289
629.035	0.0180230
629.113	0.0181036
629.191	0.0182106
629.269	0.0181404
629.348	0.0182387
629.426	0.0180708
629.504	0.0180546
629.582	0.0182065
629.660	0.0181353
629.738	0.0181850
629.816	0.0182207
629.894	0.0181715
629.973	0.0181077
630.051	0.0182916
630.129	0.0180677
630.207	0.0180255
630.285	0.0181818
630.363	0.0181963
630.441	0.0182510
630.519	0.0181975
630.598	0.0181562
630.676	0.0180074
630.754	0.0180919
630.832	0.0181616
630.910	0.0181337
630.988	0.0180356
631.066	0.0181162
631.144	0.0181229
631.223	0.0180132
631.301	0.0180082
631.379	0.0180551
631.457	0.0180627
631.535	0.0180512
631.613	0.0181012
631.691	0.0182180
631.769	0.0180669
631.848	0.0181273
631.926	0.0182198
632.004	0.0182755
632.082	0.0180387
632.160	0.0181023
632.238	0.0181706
632.316	0.0181635
632.394	0.0182362
632.473	0.0179874
632.551	0.0181537
632.629	0.0181683
632.707	0.0181120
632.785	0.0182104
632.863	0.0181762
632.941	0.0182620
633.019	0.0180952
633.098	0.0181348
633.176	0.0181279
633.254	0.0181844
633.332	0.0182760
633.410	0.0180860
633.488	0.0182650
633.566	0.0183347
633.644	0.0180476
633.723	0.0182457
633.801	0.0181872
633.879	0.0182783
633.957	0.0181167
634.035	0.0181552
634.113	0.0182692
634.191	0.0182121
634.269	0.0181937
634.348	0.0182504
634.426	0.0182051
634.504	0.0181387
634.582	0.0181881
634.660	0.0183807
634.738	0.0182610
634.816	0.0181884
634.894	0.0182864
634.973	0.0183093
635.051	0.0182816
635.129	0.0182262
635.207	0.0182706
635.285	0.0183130
635.363	0.0183080
635.441	0.0182915
635.519	0.0182328
635.598	0.0180755
635.676	0.0183065
635.754	0.0182755
635.832	0.0181394
635.910	0.0182088
635.988	0.0182272
636.066	0.0183930
636.144	0.0181206
636.223	0.0183316
636.301	0.0183965
636.379	0.0182410
636.457	0.0182280
636.535	0.0180972
636.613	0.0182637
636.691	0.0182033
636.769	0.0183175
636.848	0.0182864
636.926	0.0184332
637.004	0.0182365
637.082	0.0182545
637.160	0.0183607
637.238	0.0182434
637.316	0.0183425
637.394	0.0182703
637.473	0.0182542
637.551	0.0180804
637.629	0.0182177
637.707	0.0182471
637.785	0.0180994
637.863	0.0182062
637.941	0.0182096
638.019	0.0182893
638.098	0.0182150
638.176	0.0181746
638.254	0.0181833
638.332	0.0181326
638.410	0.0181224
638.488	0.0182042
638.566	0.0182253
638.644	0.0180421
638.723	0.0179949
638.801	0.0179562
638.879	0.0180949
638.957	0.0180800
639.035	0.0181149
639.113	0.0180956
639.191	0.0180401
639.269	0.0180437
639.348	0.0180930
639.426	0.0180975
639.504	0.0180771
639.582	0.0180157
639.660	0.0181532
639.738	0.0181305
639.816	0.0181021
639.894	0.0181984
639.973	0.0181340
640.051	0.0180576
640.129	0.0181731
640.207	0.0181164
640.285	0.0180557
640.363	0.0180679
640.441	0.0181010
640.519	0.0181194
640.598	0.0181105
640.676	0.0182208
640.754	0.0180719
640.832	0.0180911
640.910	0.0179897
640.988	0.0181033
641.066	0.0180632
641.144	0.0181209
641.223	0.0179620
641.301	0.0181219
641.379	0.0181834
641.457	0.0180080
641.535	0.0179291
641.613	0.0179716
641.691	0.0181323
641.769	0.0180254
641.848	0.0179542
641.926	0.0181712
642.004	0.0180100
642.082	0.0179081
642.160	0.0180687
642.238	0.0180352
642.316	0.0179511
642.394	0.0180164
642.473	0.0179588
642.551	0.0180157
642.629	0.0180131
642.707	0.0180231
642.785	0.0180986
642.863	0.0180497
642.941	0.0180225
643.019	0.0179032
643.098	0.0179301
643.176	0.0180056
643.254	0.0179653
643.332	0.0180051
643.410	0.0179865
643.488	0.0179347
643.566	0.0180082
643.644	0.0179969
643.723	0.0180565
643.801	0.0178779
643.879	0.0178799
643.957	0.0179494
644.035	0.0180490
644.113	0.0179343
644.191	0.0179819
644.269	0.0179762
644.348	0.0180375
644.426	0.0179218
644.504	0.0178768
644.582	0.0181208
644.660	0.0180115
644.738	0.0181336
644.816	0.0179507
644.894	0.0178756
644.973	0.0179465
645.051	0.0179543
645.129	0.0180120
645.207	0.0180109
645.285	0.0179233
645.363	0.0178604
645.441	0.0178683
645.519	0.0179678
645.598	0.0179162
645.676	0.0180331
645.754	0.0179515
645.832	0.0177733
645.910	0.0178909
645.988	0.0178605
646.066	0.0179523
646.144	0.0178225
646.223	0.0177974
646.301	0.0178062
646.379	0.0178061
646.457	0.0177441
646.535	0.0177332
646.613	0.0178297
646.691	0.0179015
646.769	0.0177637
646.848	0.0178390
646.926	0.0177890
647.004	0.0178215
647.082	0.0178768
647.160	0.0177464
647.238	0.0176908
647.316	0.0177733
647.394	0.0177892
647.473	0.0178699
647.551	0.0178069
647.629	0.0178998
647.707	0.0177381
647.785	0.0178444
647.863	0.0178248
647.941	0.0178820
648.019	0.0179050
648.098	0.0177934
648.176	0.0179514
648.254	0.0177644
648.332	0.0178345
648.410	0.0178530
648.488	0.0177947
648.566	0.0180573
648.644	0.0179451
648.723	0.0177748
648.801	0.0179179
648.879	0.0179298
648.957	0.0180121
649.035	0.0179642
649.113	0.0179390
649.191	0.0178910
649.269	0.0178782
649.348	0.0178214
649.426	0.0179318
649.504	0.0178632
649.582	0.0179207
649.660	0.0179855
649.738	0.0178836
649.816	0.0179709
649.894	0.0180300
649.973	0.0180061
650.051	0.0178732
650.129	0.0179967
650.207	0.0181563
650.285	0.0181269
650.363	0.0180428
650.441	0.0178739
650.519	0.0179818
650.598	0.0179853
650.676	0.0180806
650.754	0.0180933
650.832	0.0180514
650.910	0.0181541
650.988	0.0180243
651.066	0.0180263
651.144	0.0181641
651.223	0.0181989
651.301	0.0181833
651.379	0.0182484
651.457	0.0182098
651.535	0.0182233
651.613	0.0182684
651.691	0.0181561
651.769	0.0181695
651.848	0.0182804
651.926	0.0181380
652.004	0.0181567
652.082	0.0183353
652.160	0.0181437
652.238	0.0181848
652.316	0.0181429
652.394	0.0181219
652.473	0.0182572
652.551	0.0182449
652.629	0.0181942
652.707	0.0182616
652.785	0.0181577
652.863	0.0180897
652.941	0.0180789
653.019	0.0183833
653.098	0.0182381
653.176	0.0179741
653.254	0.0180137
653.332	0.0182118
653.410	0.0183389
653.488	0.0181651
653.566	0.0180218
653.644	0.0182481
653.723	0.0180011
653.801	0.0180513
653.879	0.0180103
653.957	0.0180598
654.035	0.0181914
654.113	0.0180389
654.191	0.0182401
654.269	0.0181320
654.348	0.0181237
654.426	0.0182107
654.504	0.0180991
654.582	0.0180495
654.660	0.0180949
654.738	0.0180610
654.816	0.0179852
654.894	0.0181405
654.973	0.0181827
655.051	0.0180956
655.129	0.0179984
655.207	0.0181000
655.285	0.0180035
655.363	0.0180484
655.441	0.0180230
655.519	0.0179964
655.598	0.0180697
655.676	0.0180721
655.754	0.0180679
655.832	0.0180455
655.910	0.0181475
655.988	0.0179557
656.066	0.0180234
656.144	0.0181776
656.223	0.0180199
656.301	0.0180872
656.379	0.0181333
656.457	0.0180438
656.535	0.0179540
656.613	0.0181106
656.691	0.0180208
656.769	0.0180317
656.848	0.0181948
656.926	0.0181460
657.004	0.0180519
657.082	0.0181306
657.160	0.0181619
657.238	0.0180073
657.316	0.0181029
657.394	0.0181184
657.473	0.0181435
657.551	0.0181164
657.629	0.0181628
657.707	0.0181630
657.785	0.0181155
657.863	0.0182134
657.941	0.0181538
658.019	0.0181126
658.098	0.0180001
658.176	0.0179868
658.254	0.0180339
658.332	0.0181384
658.410	0.0180839
658.488	0.0179990
658.566	0.0179066
658.644	0.0180182
658.723	0.0180737
658.801	0.0179523
658.879	0.0180965
658.957	0.0180016
659.035	0.0180722
659.113	0.0180756
659.191	0.0181073
659.269	0.0179554
659.348	0.0179261
659.426	0.0181407
659.504	0.0180349
659.582	0.0180998
659.660	0.0180331
659.738	0.0181001
659.816	0.0180434
659.894	0.0181175
659.973	0.0181241
660.051	0.0181442
660.129	0.0181636
660.207	0.0181918
660.285	0.0180673
660.363	0.0181718
660.441	0.0181615
660.519	0.0182108
660.598	0.0181030
660.676	0.0182275
660.754	0.0181750
660.832	0.0180701
660.910	0.0181719
660.988	0.0182599
661.066	0.0182428
661.144	0.0180933
661.223	0.0181976
661.301	0.0181013
661.379	0.0180676
661.457	0.0181339
661.535	0.0181737
661.613	0.0181406
661.691	0.0181129
661.769	0.0182305
661.848	0.0180939
661.926	0.0181496
662.004	0.0181917
662.082	0.0181324
662.160	0.0182790
662.238	0.0181433
662.316	0.0182084
662.394	0.0181485
662.473	0.0180447
662.551	0.0182345
662.629	0.0180003
662.707	0.0181074
662.785	0.0181707
662.863	0.0182511
662.941	0.0181928
663.019	0.0182239
663.098	0.0182637
663.176	0.0180798
663.254	0.0179819
663.332	0.0180849
663.410	0.0181383
663.488	0.0180617
663.566	0.0180121
663.644	0.0179781
663.723	0.0181103
663.801	0.0180536
663.879	0.0181675
663.957	0.0180244
664.035	0.0179832
664.113	0.0180148
664.191	0.0179794
664.269	0.0180141
664.348	0.0179733
664.426	0.0180292
664.504	0.0178988
664.582	0.0180473
664.660	0.0179118
664.738	0.0179904
664.816	0.0180291
664.894	0.0180945
664.973	0.0179897
665.051	0.0180077
665.129	0.0180576
665.207	0.0181229
665.285	0.0181058
665.363	0.0181137
665.441	0.0182376
665.519	0.0182243
665.598	0.0182818
665.676	0.0181181
665.754	0.0180492
665.832	0.0181503
665.910	0.0181854
665.988	0.0180125
666.066	0.0180348
666.144	0.0179315
666.223	0.0178742
666.301	0.0180537
666.379	0.0179494
666.457	0.0178799
666.535	0.0179157
666.613	0.0178868
666.691	0.0177937
666.769	0.0177176
666.848	0.0178085
666.926	0.0178222
667.004	0.0179030
667.082	0.0178413
667.160	0.0177915
667.238	0.0177972
667.316	0.0178583
667.394	0.0178402
667.473	0.0177561
667.551	0.0178588
667.629	0.0178517
667.707	0.0177726
667.785	0.0180382
667.863	0.0181628
667.941	0.0180072
668.019	0.0179993
668.098	0.0178289
668.176	0.0179122
668.254	0.0180054
668.332	0.0179548
668.410	0.0180536
668.488	0.0179723
668.566	0.0179585
668.644	0.0180215
668.723	0.0180270
668.801	0.0179502
668.879	0.0180952
668.957	0.0182295
669.035	0.0179593
669.113	0.0179948
669.191	0.0181256
669.269	0.0181308
669.348	0.0181798
669.426	0.0179998
669.504	0.0181807
669.582	0.0183585
669.660	0.0180468
669.738	0.0179292
669.816	0.0181154
669.894	0.0180850
669.973	0.0179623
670.051	0.0181252
670.129	0.0180320
670.207	0.0179842
670.285	0.0179246
670.363	0.0178453
670.441	0.0178788
670.519	0.0177892
670.598	0.0178291
670.676	0.0178030
670.754	0.0176452
670.832	0.0175623
670.910	0.0177032
670.988	0.0176553
671.066	0.0177029
671.144	0.0176793
671.223	0.0176564
671.301	0.0178358
671.379	0.0176173
671.457	0.0176125
671.535	0.0176879
671.613	0.0176823
671.691	0.0177698
671.769	0.0176318
671.848	0.0176945
671.926	0.0177470
672.004	0.0177231
672.082	0.0178000
672.160	0.0178123
672.238	0.0179141
672.316	0.0178353
672.394	0.0180344
672.473	0.0181136
672.551	0.0181535
672.629	0.0182331
672.707	0.0180160
672.785	0.0182548
672.863	0.0182629
672.941	0.0183015
673.019	0.0183913
673.098	0.0182244
673.176	0.0183987
673.254	0.0183782
673.332	0.0181985
673.410	0.0182965
673.488	0.0182384
673.566	0.0183414
673.644	0.0183920
673.723	0.0183805
673.801	0.0182687
673.879	0.0182201
673.957	0.0181326
674.035	0.0181500
674.113	0.0182661
674.191	0.0182954
674.269	0.0182146
674.348	0.0182169
674.426	0.0181715
674.504	0.0181298
674.582	0.0180685
674.660	0.0180747
674.738	0.0178799
674.816	0.0179886
674.894	0.0179962
674.973	0.0178960
675.051	0.0179733
675.129	0.0179294
675.207	0.0179026
675.285	0.0178661
675.363	0.0178938
675.441	0.0178546
675.519	0.0179346
675.598	0.0179312
675.676	0.0178731
675.754	0.0177215
675.832	0.0179214
675.910	0.0180384
675.988	0.0180151
676.066	0.0179571
676.144	0.0181469
676.223	0.0183128
676.301	0.0182481
676.379	0.0182214
676.457	0.0182287
676.535	0.0183079
676.613	0.0182616
676.691	0.0182444
676.769	0.0181920
676.848	0.0183217
676.926	0.0184655
677.004	0.0182690
677.082	0.0184776
677.160	0.0183217
677.238	0.0184103
677.316	0.0181764
677.394	0.0183347
677.473	0.0183415
677.551	0.0182848
677.629	0.0182590
677.707	0.0183359
677.785	0.0183564
677.863	0.0182540
677.941	0.0182312
678.019	0.0182867
678.098	0.0182207
678.176	0.0182309
678.254	0.0181721
678.332	0.0182135
678.410	0.0181126
678.488	0.0181868
678.566	0.0180597
678.644	0.0181165
678.723	0.0180481
678.801	0.0180312
678.879	0.0180405
678.957	0.0179898
679.035	0.0180464
679.113	0.0181866
679.191	0.0180782
679.269	0.0181963
679.348	0.0182003
679.426	0.0182639
679.504	0.0183038
679.582	0.0183299
679.660	0.0183624
679.738	0.0183247
679.816	0.0183688
679.894	0.0183553
679.973	0.0183932
680.051	0.0182624
680.129	0.0183247
680.207	0.0183521
680.285	0.0183260
680.363	0.0182214
680.441	0.0182621
680.519	0.0182670
680.598	0.0183667
680.676	0.0181982
680.754	0.0180407
680.832	0.0182519
680.910	0.0181779
680.988	0.0179273
681.066	0.0181727
681.144	0.0181668
681.223	0.0181003
681.301	0.0178938
681.379	0.0179958
681.457	0.0178513
681.535	0.0180811
681.613	0.0178798
681.691	0.0178231
681.769	0.0179700
681.848	0.0180468
681.926	0.0178681
682.004	0.0178764
682.082	0.0179250
682.160	0.0178282
682.238	0.0179334
682.316	0.0180077
682.394	0.0179669
682.473	0.0181246
682.551	0.0179942
682.629	0.0179241
682.707	0.0179406
682.785	0.0179375
682.863	0.0180165
682.941	0.0178731
683.019	0.0179066
683.098	0.0179880
683.176	0.0179150
683.254	0.0178585
683.332	0.0180219
683.410	0.0179547
683.488	0.0181493
683.566	0.0181181
683.644	0.0178636
683.723	0.0181477
683.801	0.0179626
683.879	0.0181725
683.957	0.0181398
684.035	0.0181230
684.113	0.0182767
684.191	0.0183086
684.269	0.0183538
684.348	0.0183781
684.426	0.0184523
684.504	0.0183798
684.582	0.0184957
684.660	0.0184482
684.738	0.0183091
684.816	0.0183321
684.894	0.0182549
684.973	0.0182756
685.051	0.0181831
685.129	0.0182970
685.207	0.0181335
685.285	0.0181630
685.363	0.0181992
685.441	0.0181408
685.519	0.0181718
685.598	0.0180358
685.676	0.0182139
685.754	0.0180358
685.832	0.0182207
685.910	0.0180541
685.988	0.0180700
686.066	0.0181824
686.144	0.0180224
686.223	0.0179707
686.301	0.0179265
686.379	0.0179449
686.457	0.0179256
686.535	0.0178835
686.613	0.0178918
686.691	0.0180626
686.769	0.0179837
686.848	0.0179530
686.926	0.0179657
687.004	0.0181081
687.082	0.0180598
687.160	0.0179340
687.238	0.0180019
687.316	0.0180528
687.394	0.0181425
687.473	0.0181732
687.551	0.0182745
687.629	0.0182114
687.707	0.0183335
687.785	0.0180798
687.863	0.0181882
687.941	0.0181617
688.019	0.0182227
688.098	0.0181072
688.176	0.0180662
688.254	0.0181464
688.332	0.0181850
688.410	0.0181384
688.488	0.0180811
688.566	0.0181548
688.644	0.0180733
688.723	0.0180607
688.801	0.0181223
688.879	0.0180371
688.957	0.0180503
689.035	0.0182833
689.113	0.0182316
689.191	0.0181006
689.269	0.0182117
689.348	0.0183704
689.426	0.0182843
689.504	0.0183728
689.582	0.0183386
689.660	0.0182114
689.738	0.0182238
689.816	0.0181941
689.894	0.0182777
689.973	0.0183225
690.051	0.0180875
690.129	0.0180497
690.207	0.0181839
690.285	0.0181033
690.363	0.0179813
690.441	0.0179118
690.519	0.0178841
690.598	0.0178924
690.676	0.0178786
690.754	0.0179060
690.832	0.0177443
690.910	0.0180016
690.988	0.0179684
691.066	0.0178381
691.144	0.0177990
691.223	0.0179946
691.301	0.0179691
691.379	0.0179956
691.457	0.0180549
691.535	0.0181703
691.613	0.0180994
691.691	0.0180638
691.769	0.0180966
691.848	0.0182247
691.926	0.0182523
692.004	0.0182374
692.082	0.0182343
692.160	0.0183192
692.238	0.0181654
692.316	0.0181504
692.394	0.0182476
692.473	0.0180996
692.551	0.0182417
692.629	0.0181792
692.707	0.0180060
692.785	0.0180531
692.863	0.0181639
692.941	0.0181400
693.019	0.0179936
693.098	0.0177840
693.176	0.0178464
693.254	0.0180850
693.332	0.0179082
693.410	0.0178785
693.488	0.0179321
693.566	0.0179044
693.644	0.0178618
693.723	0.0178886
693.801	0.0177831
693.879	0.0179266
693.957	0.0180141
694.035	0.0178985
694.113	0.0180009
694.191	0.0179378
694.269	0.0179414
694.348	0.0180022
694.426	0.0179482
694.504	0.0181200
694.582	0.0181295
694.660	0.0180292
694.738	0.0181252
694.816	0.0182907
694.894	0.0182891
694.973	0.0184006
695.051	0.0181585
695.129	0.0182870
695.207	0.0184062
695.285	0.0183063
695.363	0.0183286
695.441	0.0183183
695.519	0.0183311
695.598	0.0183300
695.676	0.0182211
695.754	0.0183346
695.832	0.0181523
695.910	0.0180952
695.988	0.0181689
696.066	0.0181927
696.144	0.0181538
696.223	0.0180235
696.301	0.0179964
696.379	0.0180698
696.457	0.0180231
696.535	0.0181612
696.613	0.0179073
696.691	0.0180794
696.769	0.0181048
696.848	0.0180485
696.926	0.0181085
697.004	0.0181071
697.082	0.0180640
697.160	0.0181710
697.238	0.0181721
697.316	0.0181736
697.394	0.0181732
697.473	0.0180347
697.551	0.0180044
697.629	0.0180222
697.707	0.0180395
697.785	0.0179832
697.863	0.0179757
697.941	0.0179946
698.019	0.0179819
698.098	0.0181548
698.176	0.0179734
698.254	0.0181007
698.332	0.0180204
698.410	0.0182396
698.488	0.0182259
698.566	0.0182833
698.644	0.0183290
698.723	0.0182874
698.801	0.0182220
698.879	0.0181160
698.957	0.0182444
699.035	0.0182307
699.113	0.0182517
699.191	0.0181586
699.269	0.0183303
699.348	0.0182148
699.426	0.0181403
699.504	0.0181959
699.582	0.0181944
699.660	0.0181162
699.738	0.0181276
699.816	0.0182221
699.894	0.0181174
699.973	0.0180541
700.051	0.0180132
700.129	0.0180820
700.207	0.0182875
700.285	0.0182899
700.363	0.0181648
700.441	0.0182006
700.519	0.0183179
700.598	0.0183270
700.676	0.0182438
700.754	0.0182646
700.832	0.0183817
700.910	0.0184108
700.988	0.0183631
701.066	0.0184466
701.144	0.0184489
701.223	0.0185092
701.301	0.0183201
701.379	0.0183414
701.457	0.0185194
701.535	0.0183655
701.613	0.0184126
701.691	0.0182793
701.769	0.0182117
701.848	0.0182946
701.926	0.0181979
702.004	0.0181271
702.082	0.0180258
702.160	0.0180807
702.238	0.0181205
702.316	0.0179282
702.394	0.0179778
702.473	0.0179436
702.551	0.0180623
702.629	0.0180455
702.707	0.0180801
702.785	0.0179335
702.863	0.0180688
702.941	0.0179037
703.019	0.0180735
703.098	0.0181293
703.176	0.0180972
703.254	0.0181879
703.332	0.0181295
703.410	0.0181223
703.488	0.0181280
703.566	0.0181123
703.644	0.0181631
703.723	0.0181922
703.801	0.0182790
703.879	0.0181236
703.957	0.0181636
704.035	0.0182408
704.113	0.0183253
704.191	0.0182160
704.269	0.0182512
704.348	0.0182236
704.426	0.0181516
704.504	0.0182247
704.582	0.0181218
704.660	0.0180903
704.738	0.0181388
704.816	0.0179200
704.894	0.0180518
704.973	0.0181510
705.051	0.0181196
705.129	0.0181146
705.207	0.0180756
705.285	0.0179036
705.363	0.0179758
705.441	0.0180038
705.519	0.0180060
705.598	0.0179648
705.676	0.0181675
705.754	0.0180846
705.832	0.0180683
705.910	0.0181338
705.988	0.0180535
706.066	0.0180283
706.144	0.0180982
706.223	0.0180805
706.301	0.0180051
706.379	0.0179888
706.457	0.0180175
706.535	0.0180638
706.613	0.0181287
706.691	0.0180938
706.769	0.0181981
706.848	0.0179204
706.926	0.0180302
707.004	0.0180293
707.082	0.0179742
707.160	0.0179142
707.238	0.0179501
707.316	0.0179115
707.394	0.0179811
707.473	0.0178402
707.551	0.0177716
707.629	0.0178279
707.707	0.0179485
707.785	0.0180040
707.863	0.0179414
707.941	0.0179451
708.019	0.0179663
708.098	0.0179234
708.176	0.0181506
708.254	0.0180165
708.332	0.0181047
708.410	0.0182378
708.488	0.0181866
708.566	0.0183055
708.644	0.0183072
708.723	0.0184366
708.801	0.0184204
708.879	0.0185104
708.957	0.0184137
709.035	0.0184539
709.113	0.0185216
709.191	0.0184927
709.269	0.0184836
709.348	0.0184779
709.426	0.0184795
709.504	0.0184578
709.582	0.0181499
709.660	0.0181621
709.738	0.0182096
709.816	0.0179452
709.894	0.0177462
709.973	0.0177357
710.051	0.0177000
710.129	0.0176396
710.207	0.0176070
710.285	0.0173119
710.363	0.0175319
710.441	0.0175285
710.519	0.0173890
710.598	0.0175538
710.676	0.0175580
710.754	0.0177494
710.832	0.0177025
710.910	0.0178201
710.988	0.0177834
711.066	0.0177995
711.144	0.0178967
711.223	0.0179625
711.301	0.0181235
711.379	0.0181694
711.457	0.0180379
711.535	0.0181681
711.613	0.0182493
711.691	0.0181569
711.769	0.0182086
711.848	0.0182088
711.926	0.0182213
712.004	0.0182337
712.082	0.0181481
712.160	0.0181213
712.238	0.0180305
712.316	0.0182346
712.394	0.0181279
712.473	0.0180263
712.551	0.0181060
712.629	0.0180170
712.707	0.0180929
712.785	0.0182494
712.863	0.0180837
712.941	0.0179887
713.019	0.0179346
713.098	0.0178775
713.176	0.0178960
713.254	0.0179853
713.332	0.0181306
713.410	0.0179533
713.488	0.0179508
713.566	0.0179378
713.644	0.0179949
713.723	0.0177599
713.801	0.0177619
713.879	0.0178550
713.957	0.0177220
714.035	0.0176297
714.113	0.0177714
714.191	0.0176992
714.269	0.0178280
714.348	0.0179064
714.426	0.0178745
714.504	0.0177949
714.582	0.0177654
714.660	0.0179504
714.738	0.0179865
714.816	0.0181051
714.894	0.0179446
714.973	0.0179848
715.051	0.0181977
715.129	0.0181185
715.207	0.0180800
715.285	0.0181818
715.363	0.0181260
715.441	0.0182671
715.519	0.0182391
715.598	0.0181781
715.676	0.0180691
715.754	0.0182272
715.832	0.0181293
715.910	0.0183508
715.988	0.0182302
716.066	0.0182681
716.144	0.0182203
716.223	0.0181649
716.301	0.0180323
716.379	0.0181637
716.457	0.0180074
716.535	0.0180527
716.613	0.0179800
716.691	0.0178545
716.769	0.0178647
716.848	0.0177725
716.926	0.0178506
717.004	0.0179322
717.082	0.0178334
717.160	0.0178577
717.238	0.0178821
717.316	0.0178559
717.394	0.0178455
717.473	0.0178515
717.551	0.0180547
717.629	0.0179490
717.707	0.0179387
717.785	0.0179886
717.863	0.0179710
717.941	0.0179703
718.019	0.0180197
718.098	0.0180679
718.176	0.0179321
718.254	0.0180704
718.332	0.0181172
718.410	0.0180178
718.488	0.0178397
718.566	0.0179000
718.644	0.0180167
718.723	0.0179404
718.801	0.0178894
718.879	0.0179073
718.957	0.0178539
719.035	0.0179009
719.113	0.0177741
719.191	0.0178512
719.269	0.0180733
719.348	0.0179581
719.426	0.0178210
719.504	0.0180665
719.582	0.0180558
719.660	0.0180538
719.738	0.0179848
719.816	0.0180474
719.894	0.0181304
719.973	0.0179783
720.051	0.0179964
720.129	0.0180707
720.207	0.0180914
720.285	0.0181216
720.363	0.0182283
720.441	0.0183374
720.519	0.0181683
720.598	0.0181308
720.676	0.0183173
720.754	0.0182852
720.832	0.0181105
720.910	0.0181684
720.988	0.0181495
721.066	0.0180336
721.144	0.0181116
721.223	0.0180488
721.301	0.0179601
721.379	0.0180500
721.457	0.0178837
721.535	0.0177132
721.613	0.0177509
721.691	0.0177044
721.769	0.0177822
721.848	0.0177492
721.926	0.0176939
722.004	0.0177727
722.082	0.0177621
722.160	0.0177534
722.238	0.0178215
722.316	0.0178628
722.394	0.0180688
722.473	0.0180243
722.551	0.0179946
722.629	0.0180363
722.707	0.0181490
722.785	0.0182301
722.863	0.0183255
722.941	0.0182574
723.019	0.0183775
723.098	0.0183241
723.176	0.0183377
723.254	0.0184236
723.332	0.0183099
723.410	0.0182714
723.488	0.0184077
723.566	0.0182999
723.644	0.0182758
723.723	0.0183770
723.801	0.0182321
723.879	0.0182417
723.957	0.0182958
724.035	0.0181738
724.113	0.0180318
724.191	0.0181092
724.269	0.0180734
724.348	0.0180740
724.426	0.0180650
724.504	0.0180688
724.582	0.0181940
724.660	0.0181139
724.738	0.0180028
724.816	0.0179735
724.894	0.0180824
724.973	0.0180369
725.051	0.0178913
725.129	0.0179862
725.207	0.0180049
725.285	0.0177771
725.363	0.0176968
725.441	0.0178252
725.519	0.0177957
725.598	0.0177393
725.676	0.0177882
725.754	0.0178439
725.832	0.0178708
725.910	0.0179694
725.988	0.0178355
726.066	0.0178376
726.144	0.0179692
726.223	0.0180027
726.301	0.0181187
726.379	0.0181120
726.457	0.0181974
726.535	0.0182736
726.613	0.0181150
726.691	0.0182432
726.769	0.0183466
726.848	0.0183964
726.926	0.0184464
727.004	0.0182214
727.082	0.0183448
727.160	0.0182809
727.238	0.0182259
727.316	0.0181159
727.394	0.0182202
727.473	0.0180974
727.551	0.0181160
727.629	0.0180851
727.707	0.0179633
727.785	0.0179432
727.863	0.0178832
727.941	0.0177872
728.019	0.0179540
728.098	0.0178003
728.176	0.0178634
728.254	0.0177871
728.332	0.0178181
728.410	0.0179407
728.488	0.0178579
728.566	0.0178628
728.644	0.0179347
728.723	0.0179341
728.801	0.0179931
728.879	0.0179926
728.957	0.0180019
729.035	0.0180182
729.113	0.0180157
729.191	0.0180061
729.269	0.0180973
729.348	0.0181033
729.426	0.0181412
729.504	0.0183880
729.582	0.0182148
729.660	0.0182661
729.738	0.0183162
729.816	0.0184016
729.894	0.0183453
729.973	0.0183407
730.051	0.0183777
730.129	0.0184213
730.207	0.0183751
730.285	0.0183064
730.363	0.0183348
730.441	0.0183556
730.519	0.0182596
730.598	0.0182203
730.676	0.0181852
730.754	0.0180226
730.832	0.0179510
730.910	0.0179250
730.988	0.0177890
731.066	0.0178385
731.144	0.0178665
731.223	0.0177602
731.301	0.0177007
731.379	0.0176118
731.457	0.0175860
731.535	0.0176305
731.613	0.0178347
731.691	0.0176906
731.769	0.0177148
731.848	0.0177957
731.926	0.0177763
732.004	0.0177730
732.082	0.0179964
732.160	0.0179950
732.238	0.0179623
732.316	0.0181115
732.394	0.0181153
732.473	0.0182595
732.551	0.0183829
732.629	0.0182761
732.707	0.0183966
732.785	0.0182475
732.863	0.0182445
732.941	0.0182536
733.019	0.0182541
733.098	0.0182784
733.176	0.0182150
733.254	0.0181995
733.332	0.0180846
733.410	0.0179215
733.488	0.0179023
733.566	0.0177741
733.644	0.0177320
733.723	0.0178647
733.801	0.0176999
733.879	0.0177531
733.957	0.0176614
734.035	0.0177161
734.113	0.0177613
734.191	0.0177116
734.269	0.0178328
734.348	0.0178072
734.426	0.0178840
734.504	0.0178897
734.582	0.0179774
734.660	0.0180746
734.738	0.0180476
734.816	0.0180753
734.894	0.0182712
734.973	0.0180897
735.051	0.0180062
735.129	0.0182129
735.207	0.0181319
735.285	0.0181531
735.363	0.0180892
735.441	0.0181038
735.519	0.0180146
735.598	0.0180876
735.676	0.0180696
735.754	0.0180817
735.832	0.0180439
735.910	0.0179082
735.988	0.0181813
736.066	0.0180267
736.144	0.0179274
736.223	0.0178429
736.301	0.0179402
736.379	0.0180769
736.457	0.0180621
736.535	0.0180407
736.613	0.0179794
736.691	0.0180836
736.769	0.0180225
736.848	0.0181414
736.926	0.0182140
737.004	0.0182019
737.082	0.0182583
737.160	0.0181368
737.238	0.0181850
737.316	0.0180094
737.394	0.0180139
737.473	0.0179839
737.551	0.0179295
737.629	0.0179845
737.707	0.0178896
737.785	0.0177464
737.863	0.0176953
737.941	0.0176244
738.019	0.0177106
738.098	0.0175403
738.176	0.0176831
738.254	0.0176976
738.332	0.0177223
738.410	0.0176529
738.488	0.0176801
738.566	0.0177854
738.644	0.0177415
738.723	0.0177562
738.801	0.0177164
738.879	0.0178912
738.957	0.0178007
739.035	0.0178666
739.113	0.0180012
739.191	0.0179707
739.269	0.0177738
739.348	0.0179092
739.426	0.0178995
739.504	0.0179087
739.582	0.0179915
739.660	0.0180864
739.738	0.0182610
739.816	0.0181692
739.894	0.0182410
739.973	0.0181844
740.051	0.0183006
740.129	0.0182423
740.207	0.0182268
740.285	0.0181728
740.363	0.0182579
740.441	0.0182127
740.519	0.0183341
740.598	0.0184238
740.676	0.0181590
740.754	0.0182993
740.832	0.0183286
740.910	0.0182616
740.988	0.0182290
741.066	0.0182874
741.144	0.0182610
741.223	0.0183730
741.301	0.0182187
741.379	0.0181998
741.457	0.0183214
741.535	0.0182357
741.613	0.0181371
741.691	0.0180566
741.769	0.0181688
741.848	0.0181013
741.926	0.0179086
742.004	0.0179980
742.082	0.0179193
742.160	0.0178584
742.238	0.0177578
742.316	0.0177660
742.394	0.0179195
742.473	0.0178934
742.551	0.0180697
742.629	0.0178507
742.707	0.0180355
742.785	0.0179357
742.863	0.0180031
742.941	0.0181116
743.019	0.0181167
743.098	0.0181847
743.176	0.0183163
743.254	0.0182928
743.332	0.0182339
743.410	0.0183266
743.488	0.0182220
743.566	0.0181483
743.644	0.0182636
743.723	0.0182932
743.801	0.0183183
743.879	0.0181381
743.957	0.0182355
744.035	0.0182042
744.113	0.0181590
744.191	0.0181065
744.269	0.0180834
744.348	0.0182238
744.426	0.0180468
744.504	0.0178637
744.582	0.0179116
744.660	0.0179945
744.738	0.0178569
744.816	0.0177660
744.894	0.0177287
744.973	0.0176083
745.051	0.0176308
745.129	0.0176912
745.207	0.0175340
745.285	0.0175813
745.363	0.0177029
745.441	0.0177867
745.519	0.0178542
745.598	0.0177132
745.676	0.0178450
745.754	0.0179182
745.832	0.0178749
745.910	0.0177935
745.988	0.0179558
746.066	0.0179634
746.144	0.0180173
746.223	0.0180362
746.301	0.0178104
746.379	0.0178252
746.457	0.0178907
746.535	0.0180437
746.613	0.0179889
746.691	0.0178798
746.769	0.0180922
746.848	0.0181015
746.926	0.0180976
747.004	0.0180135
747.082	0.0180341
747.160	0.0181509
747.238	0.0181099
747.316	0.0180640
747.394	0.0181705
747.473	0.0180801
747.551	0.0181734
747.629	0.0183572
747.707	0.0182654
747.785	0.0183538
747.863	0.0184032
747.941	0.0184217
748.019	0.0182758
748.098	0.0182852
748.176	0.0182240
748.254	0.0183560
748.332	0.0182338
748.410	0.0181322
748.488	0.0180063
748.566	0.0180782
748.644	0.0179361
748.723	0.0178581
748.801	0.0178464
748.879	0.0177846
748.957	0.0175851
749.035	0.0177450
749.113	0.0176526
749.191	0.0177961
749.269	0.0178588
749.348	0.0178651
749.426	0.0176634
749.504	0.0178908
749.582	0.0178044
749.660	0.0179855
749.738	0.0180869
749.816	0.0180219
749.894	0.0181276
749.973	0.0181593
750.051	0.0182059
750.129	0.0180840
750.207	0.0181745
750.285	0.0180112
750.363	0.0181398
750.441	0.0181918
750.519	0.0180691
750.598	0.0180838
750.676	0.0180490
750.754	0.0181517
750.832	0.0180688
750.910	0.0180213
750.988	0.0180313
751.066	0.0179477
751.144	0.0179393
751.223	0.0179967
751.301	0.0180872
751.379	0.0178558
751.457	0.0179317
751.535	0.0181078
751.613	0.0179969
751.691	0.0179880
751.769	0.0179596
751.848	0.0180505
751.926	0.0179004
752.004	0.0179935
752.082	0.0179881
752.160	0.0180375
752.238	0.0179164
752.316	0.0180095
752.394	0.0179810
752.473	0.0180475
752.551	0.0181405
752.629	0.0180302
752.707	0.0179700
752.785	0.0180505
752.863	0.0180733
752.941	0.0179710
753.019	0.0180689
753.098	0.0180679
753.176	0.0180515
753.254	0.0179652
753.332	0.0179222
753.410	0.0179485
753.488	0.0180257
753.566	0.0179736
753.644	0.0179858
753.723	0.0179066
753.801	0.0180813
753.879	0.0180747
753.957	0.0180511
754.035	0.0181219
754.113	0.0181954
754.191	0.0181072
754.269	0.0181227
754.348	0.0180955
754.426	0.0181828
754.504	0.0181206
754.582	0.0181601
754.660	0.0181751
754.738	0.0182212
754.816	0.0180955
754.894	0.0180512
754.973	0.0180311
755.051	0.0180623
755.129	0.0180546
755.207	0.0179202
755.285	0.0179681
755.363	0.0180598
755.441	0.0179520
755.519	0.0178773
755.598	0.0180323
755.676	0.0178670
755.754	0.0178697
755.832	0.0179531
755.910	0.0179393
755.988	0.0179342
756.066	0.0179538
756.144	0.0180110
756.223	0.0179770
756.301	0.0179973
756.379	0.0179833
756.457	0.0178532
756.535	0.0180564
756.613	0.0180672
756.691	0.0182699
756.769	0.0181164
756.848	0.0181435
756.926	0.0181433
757.004	0.0182807
757.082	0.0182146
757.160	0.0182088
757.238	0.0181747
757.316	0.0183158
757.394	0.0183135
757.473	0.0182008
757.551	0.0181565
757.629	0.0181750
757.707	0.0180613
757.785	0.0181650
757.863	0.0181565
757.941	0.0180613
758.019	0.0179530
758.098	0.0178055
758.176	0.0178459
758.254	0.0177429
758.332	0.0179298
758.410	0.0178168
758.488	0.0177615
758.566	0.0178325
758.644	0.0178143
758.723	0.0178634
758.801	0.0178177
758.879	0.0179221
758.957	0.0178727
759.035	0.0180533
759.113	0.0181255
759.191	0.0182204
759.269	0.0182378
759.348	0.0183543
759.426	0.0182797
759.504	0.0182615
759.582	0.0184422
759.660	0.0183364
759.738	0.0184087
759.816	0.0184850
759.894	0.0182692
759.973	0.0184732
760.051	0.0185529
760.129	0.0185284
760.207	0.0186022
760.285	0.0185612
760.363	0.0186973
760.441	0.0186121
760.519	0.0186577
760.598	0.0186860
760.676	0.0187278
760.754	0.0186992
760.832	0.0186005
760.910	0.0185416
760.988	0.0184476
761.066	0.0184292
761.144	0.0183551
761.223	0.0181882
761.301	0.0181690
761.379	0.0182156
761.457	0.0181908
761.535	0.0180484
761.613	0.0180302
761.691	0.0179511
761.769	0.0179292
761.848	0.0181306
761.926	0.0180758
762.004	0.0179570
762.082	0.0179267
762.160	0.0180235
762.238	0.0179466
762.316	0.0179476
762.394	0.0178819
762.473	0.0179108
762.551	0.0178716
762.629	0.0177006
762.707	0.0179216
762.785	0.0179408
762.863	0.0178543
762.941	0.0179884
763.019	0.0180346
763.098	0.0179320
763.176	0.0180694
763.254	0.0180985
763.332	0.0182419
763.410	0.0182491
763.488	0.0183530
763.566	0.0183495
763.644	0.0184386
763.723	0.0183308
763.801	0.0183113
763.879	0.0184204
763.957	0.0184888
764.035	0.0184706
764.113	0.0185398
764.191	0.0183101
764.269	0.0183105
764.348	0.0183288
764.426	0.0183797
764.504	0.0182683
764.582	0.0183424
764.660	0.0183710
764.738	0.0183594
764.816	0.0182453
764.894	0.0183080
764.973	0.0183653
765.051	0.0183198
765.129	0.0182969
765.207	0.0182838
765.285	0.0182178
765.363	0.0180392
765.441	0.0181313
765.519	0.0180657
765.598	0.0181314
765.676	0.0180022
765.754	0.0177580
765.832	0.0179536
765.910	0.0177690
765.988	0.0178891
766.066	0.0177571
766.144	0.0178883
766.223	0.0179123
766.301	0.0179269
766.379	0.0179943
766.457	0.0179514
766.535	0.0178332
766.613	0.0179996
766.691	0.0180143
766.769	0.0179823
766.848	0.0181709
766.926	0.0181011
767.004	0.0181864
767.082	0.0182565
767.160	0.0181094
767.238	0.0183196
767.316	0.0183161
767.394	0.0182652
767.473	0.0181094
767.551	0.0181120
767.629	0.0183082
767.707	0.0182095
767.785	0.0181973
767.863	0.0182520
767.941	0.0181292
768.019	0.0182968
768.098	0.0181474
768.176	0.0182142
768.254	0.0181393
768.332	0.0181783
768.410	0.0183113
768.488	0.0180853
768.566	0.0182127
768.644	0.0181144
768.723	0.0182969
768.801	0.0181322
768.879	0.0183245
768.957	0.0182164
769.035	0.0182204
769.113	0.0182298
769.191	0.0181219
769.269	0.0182166
769.348	0.0182852
769.426	0.0180961
769.504	0.0181528
769.582	0.0182619
769.660	0.0181746
769.738	0.0180976
769.816	0.0181522
769.894	0.0180817
769.973	0.0179807
770.051	0.0180261
770.129	0.0181163
770.207	0.0180081
770.285	0.0179246
770.363	0.0180154
770.441	0.0179324
770.519	0.0179820
770.598	0.0179233
770.676	0.0179687
770.754	0.0181230
770.832	0.0180722
770.910	0.0180519
770.988	0.0181295
771.066	0.0180960
771.144	0.0182376
771.223	0.0182452
771.301	0.0184321
771.379	0.0183099
771.457	0.0184431
771.535	0.0183001
771.613	0.0182869
771.691	0.0184627
771.769	0.0183684
771.848	0.0183437
771.926	0.0184343
772.004	0.0182880
772.082	0.0183645
772.160	0.0182754
772.238	0.0181873
772.316	0.0182747
772.394	0.0182076
772.473	0.0182511
772.551	0.0181876
772.629	0.0181799
772.707	0.0180793
772.785	0.0180512
772.863	0.0179589
772.941	0.0179176
773.019	0.0179986
773.098	0.0179859
773.176	0.0179984
773.254	0.0177518
773.332	0.0179724
773.410	0.0178762
773.488	0.0179101
773.566	0.0179532
773.644	0.0177990
773.723	0.0180006
773.801	0.0178895
773.879	0.0180975
773.957	0.0180991
774.035	0.0179864
774.113	0.0179866
774.191	0.0179875
774.269	0.0180476
774.348	0.0179145
774.426	0.0179166
774.504	0.0180075
774.582	0.0178825
774.660	0.0180865
774.738	0.0180952
774.816	0.0180096
774.894	0.0178844
774.973	0.0179055
775.051	0.0179802
775.129	0.0179517
775.207	0.0181281
775.285	0.0180436
775.363	0.0180410
775.441	0.0180772
775.519	0.0179775
775.598	0.0179379
775.676	0.0180101
775.754	0.0180703
775.832	0.0180865
775.910	0.0180659
775.988	0.0179472
776.066	0.0181412
776.144	0.0180678
776.223	0.0179913
776.301	0.0180952
776.379	0.0180779
776.457	0.0179311
776.535	0.0178678
776.613	0.0179077
776.691	0.0178771
776.769	0.0180074
776.848	0.0179832
776.926	0.0179411
777.004	0.0178551
777.082	0.0178442
777.160	0.0179124
777.238	0.0179185
777.316	0.0178299
777.394	0.0179467
777.473	0.0179817
777.551	0.0178332
777.629	0.0180005
777.707	0.0179703
777.785	0.0178169
777.863	0.0178265
777.941	0.0179147
778.019	0.0180656
778.098	0.0180312
778.176	0.0178754
778.254	0.0179418
778.332	0.0178708
778.410	0.0178986
778.488	0.0179099
778.566	0.0179939
778.644	0.0181354
778.723	0.0180566
778.801	0.0182706
778.879	0.0181123
778.957	0.0181203
779.035	0.0181725
779.113	0.0181754
779.191	0.0181645
779.269	0.0182565
779.348	0.0182073
779.426	0.0181964
779.504	0.0180515
779.582	0.0183070
779.660	0.0182137
779.738	0.0181945
779.816	0.0181316
779.894	0.0182001
779.973	0.0182694
780.051	0.0183031
780.129	0.0182780
780.207	0.0181887
780.285	0.0180618
780.363	0.0182740
780.441	0.0181601
780.519	0.0180880
780.598	0.0182122
780.676	0.0181469
780.754	0.0181174
780.832	0.0179887
780.910	0.0180635
780.988	0.0180386
781.066	0.0180830
781.144	0.0180631
781.223	0.0179681
781.301	0.0180397
781.379	0.0178932
781.457	0.0179580
781.535	0.0179891
781.613	0.0180488
781.691	0.0181243
781.769	0.0179504
781.848	0.0179424
781.926	0.0181506
782.004	0.0181007
782.082	0.0180404
782.160	0.0179904
782.238	0.0180268
782.316	0.0181271
782.394	0.0181554
782.473	0.0181374
782.551	0.0181974
782.629	0.0181993
782.707	0.0181298
782.785	0.0181719
782.863	0.0181885
782.941	0.0181543
783.019	0.0181403
783.098	0.0182246
783.176	0.0181108
783.254	0.0181665
783.332	0.0180934
783.410	0.0180791
783.488	0.0180121
783.566	0.0180894
783.644	0.0180140
783.723	0.0180273
783.801	0.0179796
783.879	0.0178846
783.957	0.0180003
784.035	0.0179546
784.113	0.0181586
784.191	0.0181304
784.269	0.0180174
784.348	0.0180404
784.426	0.0181826
784.504	0.0180754
784.582	0.0180697
784.660	0.0181293
784.738	0.0181294
784.816	0.0181847
784.894	0.0182443
784.973	0.0180308
785.051	0.0181751
785.129	0.0183109
785.207	0.0182545
785.285	0.0181284
785.363	0.0180963
785.441	0.0182131
785.519	0.0181483
785.598	0.0180408
785.676	0.0179871
785.754	0.0180833
785.832	0.0180863
785.910	0.0179571
785.988	0.0180341
786.066	0.0180734
786.144	0.0181479
786.223	0.0180067
786.301	0.0179142
786.379	0.0179707
786.457	0.0179784
786.535	0.0180053
786.613	0.0179475
786.691	0.0179402
786.769	0.0179731
786.848	0.0180323
786.926	0.0178269
787.004	0.0179653
787.082	0.0178664
787.160	0.0178708
787.238	0.0180472
787.316	0.0178706
787.394	0.0178992
787.473	0.0181496
787.551	0.0181127
787.629	0.0179009
787.707	0.0180179
787.785	0.0180334
787.863	0.0180844
787.941	0.0181050
788.019	0.0180802
788.098	0.0181682
788.176	0.0182682
788.254	0.0182081
788.332	0.0182591
788.410	0.0181551
788.488	0.0183499
788.566	0.0184496
788.644	0.0182206
788.723	0.0183113
788.801	0.0183614
788.879	0.0183170
788.957	0.0182623
789.035	0.0183541
789.113	0.0182481
789.191	0.0183580
789.269	0.0181837
789.348	0.0182186
789.426	0.0182066
789.504	0.0181017
789.582	0.0180978
789.660	0.0181535
789.738	0.0180861
789.816	0.0179653
789.894	0.0180726
789.973	0.0182710
790.051	0.0181745
790.129	0.0180220
790.207	0.0181922
790.285	0.0181937
790.363	0.0182297
790.441	0.0182076
790.519	0.0182772
790.598	0.0183546
790.676	0.0182281
790.754	0.0182597
790.832	0.0182720
790.910	0.0183131
790.988	0.0181750
791.066	0.0181977
791.144	0.0182658
791.223	0.0183329
791.301	0.0181248
791.379	0.0181801
791.457	0.0182363
791.535	0.0181690
791.613	0.0182021
791.691	0.0181364
791.769	0.0181387
791.848	0.0180610
791.926	0.0178912
792.004	0.0181056
792.082	0.0182203
792.160	0.0181032
792.238	0.0180827
792.316	0.0180402
792.394	0.0182950
792.473	0.0181412
792.551	0.0179818
792.629	0.0180151
792.707	0.0181049
792.785	0.0180067
792.863	0.0179617
792.941	0.0180682
793.019	0.0180007
793.098	0.0179865
793.176	0.0178529
793.254	0.0180241
793.332	0.0181541
793.410	0.0180234
793.488	0.0179871
793.566	0.0180793
793.644	0.0181578
793.723	0.0180492
793.801	0.0180739
793.879	0.0180745
793.957	0.0181250
794.035	0.0180970
794.113	0.0179144
794.191	0.0179649
794.269	0.0181039
794.348	0.0180085
794.426	0.0179512
794.504	0.0179675
794.582	0.0181155
794.660	0.0181959
794.738	0.0180178
794.816	0.0180581
794.894	0.0181899
794.973	0.0181687
795.051	0.0180220
795.129	0.0181013
795.207	0.0180963
795.285	0.0180482
795.363	0.0181928
795.441	0.0182148
795.519	0.0181448
795.598	0.0181538
795.676	0.0179858
795.754	0.0180795
795.832	0.0182356
795.910	0.0181784
795.988	0.0181880
796.066	0.0180463
796.144	0.0180682
796.223	0.0181273
796.301	0.0181341
796.379	0.0181264
796.457	0.0179350
796.535	0.0179794
796.613	0.0180876
796.691	0.0179964
796.769	0.0180080
796.848	0.0179178
796.926	0.0180375
797.004	0.0180927
797.082	0.0180602
797.160	0.0180585
797.238	0.0179662
797.316	0.0180150
797.394	0.0179301
797.473	0.0179282
797.551	0.0179720
797.629	0.0179088
797.707	0.0180984
797.785	0.0180370
797.863	0.0178680
797.941	0.0179841
798.019	0.0179503
798.098	0.0178203
798.176	0.0179072
798.254	0.0179791
798.332	0.0178902
798.410	0.0177658
798.488	0.0179356
798.566	0.0179278
798.644	0.0179823
798.723	0.0181148
798.801	0.0179450
798.879	0.0180341
798.957	0.0180731
799.035	0.0179973
799.113	0.0180007
799.191	0.0179906
799.269	0.0179327
799.348	0.0178931
799.426	0.0179266
799.504	0.0180032
799.582	0.0178734
799.660	0.0179031
799.738	0.0179661
799.816	0.0179246
799.894	0.0179793
799.973	0.0178931
800.051	0.0177779
800.129	0.0179552
800.207	0.0181106
800.285	0.0178986
800.363	0.0180159
800.441	0.0181315
800.519	0.0178629
800.598	0.0180513
800.676	0.0180912
800.754	0.0181264
800.832	0.0181380
800.910	0.0182314
800.988	0.0182280
801.066	0.0180980
801.144	0.0180451
801.223	0.0180945
801.301	0.0180991
801.379	0.0181347
801.457	0.0179413
801.535	0.0180154
801.613	0.0180048
801.691	0.0181503
801.769	0.0182191
801.848	0.0182018
801.926	0.0180939
802.004	0.0180837
802.082	0.0181827
802.160	0.0180704
802.238	0.0180502
802.316	0.0180527
802.394	0.0181044
802.473	0.0181351
802.551	0.0181365
802.629	0.0181157
802.707	0.0180991
802.785	0.0180764
802.863	0.0180503
802.941	0.0181000
803.019	0.0181156
803.098	0.0179755
803.176	0.0180818
803.254	0.0180503
803.332	0.0180173
803.410	0.0180695
803.488	0.0181664
803.566	0.0181563
803.644	0.0181685
803.723	0.0179333
803.801	0.0180299
803.879	0.0180701
803.957	0.0180811
804.035	0.0180341
804.113	0.0179559
804.191	0.0180258
804.269	0.0181116
804.348	0.0179509
804.426	0.0179127
804.504	0.0179608
804.582	0.0178513
804.660	0.0177037
804.738	0.0177193
804.816	0.0178675
804.894	0.0180432
804.973	0.0179501
805.051	0.0179248
805.129	0.0180170
805.207	0.0179580
805.285	0.0180307
805.363	0.0180423
805.441	0.0180028
805.519	0.0179718
805.598	0.0181409
805.676	0.0179160
805.754	0.0179856
805.832	0.0180194
805.910	0.0179306
805.988	0.0179020
806.066	0.0179588
806.144	0.0178831
806.223	0.0179124
806.301	0.0179983
806.379	0.0179409
806.457	0.0180508
806.535	0.0179061
806.613	0.0178292
806.691	0.0179711
806.769	0.0179057
806.848	0.0178002
806.926	0.0180109
807.004	0.0179248
807.082	0.0180673
807.160	0.0181285
807.238	0.0179647
807.316	0.0181052
807.394	0.0180397
807.473	0.0181604
807.551	0.0180888
807.629	0.0180984
807.707	0.0182702
807.785	0.0182221
807.863	0.0181081
807.941	0.0181721
808.019	0.0181969
808.098	0.0181865
808.176	0.0181505
808.254	0.0181656
808.332	0.0180682
808.410	0.0182128
808.488	0.0181679
808.566	0.0180561
808.644	0.0179826
808.723	0.0180844
808.801	0.0182329
808.879	0.0181165
808.957	0.0180499
809.035	0.0180114
809.113	0.0179858
809.191	0.0179555
809.269	0.0178402
809.348	0.0179710
809.426	0.0178983
809.504	0.0179732
809.582	0.0178976
809.660	0.0177408
809.738	0.0178439
809.816	0.0178952
809.894	0.0178634
809.973	0.0177464
810.051	0.0178590
810.129	0.0177412
810.207	0.0178667
810.285	0.0179091
810.363	0.0178870
810.441	0.0179813
810.519	0.0179046
810.598	0.0178986
810.676	0.0180176
810.754	0.0179832
810.832	0.0181927
810.910	0.0181407
810.988	0.0179916
811.066	0.0181363
811.144	0.0180975
811.223	0.0179698
811.301	0.0180448
811.379	0.0181098
811.457	0.0181446
811.535	0.0180945
811.613	0.0181699
811.691	0.0181255
811.769	0.0181564
811.848	0.0182117
811.926	0.0182269
812.004	0.0180590
812.082	0.0180962
812.160	0.0180103
812.238	0.0181454
812.316	0.0180233
812.394	0.0179578
812.473	0.0180663
812.551	0.0179536
812.629	0.0179145
812.707	0.0179205
812.785	0.0177691
812.863	0.0179440
812.941	0.0180436
813.019	0.0179692
813.098	0.0179041
813.176	0.0180193
813.254	0.0179610
813.332	0.0179592
813.410	0.0179237
813.488	0.0180384
813.566	0.0180486
813.644	0.0179661
813.723	0.0180736
813.801	0.0180798
813.879	0.0181177
813.957	0.0180510
814.035	0.0180006
814.113	0.0181044
814.191	0.0182009
814.269	0.0181447
814.348	0.0179442
814.426	0.0179813
814.504	0.0180868
814.582	0.0181285
814.660	0.0179561
814.738	0.0181482
814.816	0.0180061
814.894	0.0180009
814.973	0.0181243
815.051	0.0180216
815.129	0.0181572
815.207	0.0180475
815.285	0.0180280
815.363	0.0180053
815.441	0.0180525
815.519	0.0179917
815.598	0.0178968
815.676	0.0180095
815.754	0.0180045
815.832	0.0178608
815.910	0.0179855
815.988	0.0179989
816.066	0.0179333
816.144	0.0180822
816.223	0.0179961
816.301	0.0177823
816.379	0.0180449
816.457	0.0180010
816.535	0.0179277
816.613	0.0179361
816.691	0.0180177
816.769	0.0181498
816.848	0.0180363
816.926	0.0180521
817.004	0.0181429
817.082	0.0180766
817.160	0.0179543
817.238	0.0180828
817.316	0.0181154
817.394	0.0179901
817.473	0.0179276
817.551	0.0180553
817.629	0.0180544
817.707	0.0180991
817.785	0.0179833
817.863	0.0178665
817.941	0.0179641
818.019	0.0180318
818.098	0.0179021
818.176	0.0178667
818.254	0.0178394
818.332	0.0179095
818.410	0.0178986
818.488	0.0178996
818.566	0.0178701
818.644	0.0178710
818.723	0.0179226
818.801	0.0179578
818.879	0.0180125
818.957	0.0179980
819.035	0.0179700
819.113	0.0180428
819.191	0.0181151
819.269	0.0180376
819.348	0.0180804
819.426	0.0182435
819.504	0.0180198
819.582	0.0182052
819.660	0.0181199
819.738	0.0181647
819.816	0.0181394
819.894	0.0180654
