06/03/2022	18:43:59	Ver.	4.1	UNKNOWN
Optical Delay	499.972551	Delta X		0.078125	Sweeps	1	Scan Rate	0/0
Coordinates	Axis 1	NaN	Axis 2	NaN	Axis 3	NaN	Axis 4	NaN	Axis 5	NaN	Axis 6	0.000000
TX Power	0.000000	RX Power	0.000000

499.973	0.0181326
500.051	0.0182189
500.129	0.0181519
500.207	0.0181955
500.285	0.0181216
500.363	0.0182638
500.441	0.0182149
500.519	0.0180949
500.598	0.0181565
500.676	0.0182267
500.754	0.0183066
500.832	0.0180621
500.910	0.0181585
500.988	0.0182151
501.066	0.0182046
501.144	0.0181236
501.223	0.0182235
501.301	0.0180500
501.379	0.0181162
501.457	0.0180274
501.535	0.0181297
501.613	0.0182079
501.691	0.0180911
501.769	0.0182478
501.848	0.0180753
501.926	0.0181077
502.004	0.0182084
502.082	0.0181879
502.160	0.0180569
502.238	0.0181928
502.316	0.0181846
502.394	0.0182066
502.473	0.0181348
502.551	0.0181647
502.629	0.0181032
502.707	0.0181900
502.785	0.0182047
502.863	0.0180962
502.941	0.0180387
503.019	0.0181739
503.098	0.0182144
503.176	0.0180424
503.254	0.0180739
503.332	0.0180589
503.410	0.0181008
503.488	0.0180526
503.566	0.0181175
503.644	0.0180885
503.723	0.0180872
503.801	0.0181093
503.879	0.0180959
503.957	0.0182481
504.035	0.0181794
504.113	0.0180326
504.191	0.0180124
504.269	0.0181994
504.348	0.0180270
504.426	0.0182160
504.504	0.0179740
504.582	0.0182096
504.660	0.0180581
504.738	0.0180721
504.816	0.0180992
504.894	0.0180498
504.973	0.0180359
505.051	0.0182100
505.129	0.0180071
505.207	0.0181466
505.285	0.0179178
505.363	0.0181288
505.441	0.0181143
505.519	0.0181216
505.598	0.0182841
505.676	0.0181808
505.754	0.0181440
505.832	0.0181483
505.910	0.0180505
505.988	0.0181084
506.066	0.0181924
506.144	0.0182136
506.223	0.0180683
506.301	0.0182784
506.379	0.0182598
506.457	0.0181663
506.535	0.0181245
506.613	0.0181947
506.691	0.0181149
506.769	0.0181641
506.848	0.0180273
506.926	0.0181131
507.004	0.0181164
507.082	0.0181364
507.160	0.0181390
507.238	0.0181815
507.316	0.0181214
507.394	0.0180840
507.473	0.0182072
507.551	0.0182383
507.629	0.0181382
507.707	0.0181667
507.785	0.0181633
507.863	0.0181680
507.941	0.0181826
508.019	0.0181150
508.098	0.0181227
508.176	0.0181584
508.254	0.0181331
508.332	0.0183998
508.410	0.0181274
508.488	0.0182548
508.566	0.0182622
508.644	0.0181332
508.723	0.0180625
508.801	0.0181898
508.879	0.0182713
508.957	0.0181921
509.035	0.0181892
509.113	0.0181960
509.191	0.0182058
509.269	0.0183029
509.348	0.0181940
509.426	0.0181290
509.504	0.0181837
509.582	0.0182125
509.660	0.0181572
509.738	0.0181388
509.816	0.0182229
509.894	0.0182008
509.973	0.0181392
510.051	0.0182571
510.129	0.0182202
510.207	0.0181475
510.285	0.0182366
510.363	0.0182568
510.441	0.0181526
510.519	0.0183485
510.598	0.0182029
510.676	0.0182632
510.754	0.0182189
510.832	0.0182360
510.910	0.0182357
510.988	0.0182262
511.066	0.0181068
511.144	0.0182847
511.223	0.0183243
511.301	0.0181675
511.379	0.0181329
511.457	0.0182366
511.535	0.0182789
511.613	0.0182523
511.691	0.0182381
511.769	0.0182977
511.848	0.0181602
511.926	0.0183222
512.004	0.0183135
512.082	0.0181503
512.160	0.0181980
512.238	0.0182148
512.316	0.0181525
512.394	0.0181976
512.473	0.0180769
512.551	0.0182034
512.629	0.0181348
512.707	0.0182234
512.785	0.0181961
512.863	0.0183441
512.941	0.0182582
513.019	0.0182659
513.098	0.0182209
513.176	0.0182172
513.254	0.0182573
513.332	0.0182250
513.410	0.0181332
513.488	0.0182977
513.566	0.0181719
513.644	0.0182041
513.723	0.0181160
513.801	0.0181884
513.879	0.0182632
513.957	0.0181339
514.035	0.0182120
514.113	0.0180301
514.191	0.0180594
514.269	0.0181104
514.348	0.0181664
514.426	0.0182874
514.504	0.0181477
514.582	0.0182347
514.660	0.0181969
514.738	0.0180861
514.816	0.0182358
514.894	0.0180924
514.973	0.0180164
515.051	0.0181715
515.129	0.0181061
515.207	0.0181870
515.285	0.0181548
515.363	0.0182156
515.441	0.0181558
515.519	0.0181421
515.598	0.0181176
515.676	0.0182590
515.754	0.0182591
515.832	0.0182938
515.910	0.0180993
515.988	0.0181441
516.066	0.0181872
516.144	0.0182111
516.223	0.0181192
516.301	0.0181551
516.379	0.0181532
516.457	0.0181660
516.535	0.0182063
516.613	0.0181453
516.691	0.0183088
516.769	0.0182050
516.848	0.0179663
516.926	0.0180278
517.004	0.0181571
517.082	0.0183271
517.160	0.0180798
517.238	0.0181355
517.316	0.0182216
517.394	0.0181921
517.473	0.0181477
517.551	0.0180649
517.629	0.0180397
517.707	0.0181393
517.785	0.0181509
517.863	0.0180891
517.941	0.0180758
518.019	0.0181985
518.098	0.0181204
518.176	0.0182253
518.254	0.0180386
518.332	0.0178320
518.410	0.0181258
518.488	0.0182142
518.566	0.0180077
518.644	0.0180273
518.723	0.0180115
518.801	0.0180207
518.879	0.0179682
518.957	0.0178885
519.035	0.0179893
519.113	0.0180357
519.191	0.0179874
519.269	0.0180215
519.348	0.0179672
519.426	0.0180378
519.504	0.0179679
519.582	0.0179420
519.660	0.0179412
519.738	0.0179066
519.816	0.0179437
519.894	0.0180891
519.973	0.0180038
520.051	0.0179541
520.129	0.0179563
520.207	0.0180309
520.285	0.0179376
520.363	0.0179121
520.441	0.0179825
520.519	0.0178652
520.598	0.0178858
520.676	0.0179501
520.754	0.0179487
520.832	0.0179256
520.910	0.0178804
520.988	0.0177577
521.066	0.0178548
521.144	0.0179355
521.223	0.0179733
521.301	0.0179424
521.379	0.0178101
521.457	0.0177875
521.535	0.0177608
521.613	0.0179848
521.691	0.0179279
521.769	0.0177867
521.848	0.0179398
521.926	0.0179081
522.004	0.0179831
522.082	0.0178854
522.160	0.0179008
522.238	0.0178616
522.316	0.0178279
522.394	0.0178461
522.473	0.0178857
522.551	0.0177625
522.629	0.0178003
522.707	0.0179114
522.785	0.0178346
522.863	0.0178825
522.941	0.0178172
523.019	0.0179848
523.098	0.0179707
523.176	0.0179358
523.254	0.0178693
523.332	0.0179485
523.410	0.0179147
523.488	0.0180282
523.566	0.0179755
523.644	0.0181683
523.723	0.0181171
523.801	0.0180434
523.879	0.0179333
523.957	0.0181619
524.035	0.0179881
524.113	0.0179901
524.191	0.0180154
524.269	0.0179926
524.348	0.0180996
524.426	0.0181572
524.504	0.0181075
524.582	0.0180756
524.660	0.0181516
524.738	0.0181162
524.816	0.0181554
524.894	0.0181581
524.973	0.0181169
525.051	0.0182266
525.129	0.0183267
525.207	0.0181489
525.285	0.0181178
525.363	0.0182841
525.441	0.0183557
525.519	0.0181912
525.598	0.0183640
525.676	0.0183580
525.754	0.0183758
525.832	0.0183778
525.910	0.0183293
525.988	0.0183836
526.066	0.0184856
526.144	0.0184965
526.223	0.0184941
526.301	0.0186685
526.379	0.0186754
526.457	0.0186069
526.535	0.0185619
526.613	0.0186533
526.691	0.0186508
526.769	0.0186329
526.848	0.0186938
526.926	0.0186806
527.004	0.0188514
527.082	0.0186820
527.160	0.0186288
527.238	0.0187455
527.316	0.0186691
527.394	0.0186775
527.473	0.0186844
527.551	0.0186657
527.629	0.0187064
527.707	0.0185731
527.785	0.0188007
527.863	0.0187363
527.941	0.0186144
528.019	0.0185127
528.098	0.0182898
528.176	0.0185944
528.254	0.0185541
528.332	0.0185210
528.410	0.0184702
528.488	0.0184414
528.566	0.0183953
528.644	0.0182024
528.723	0.0183563
528.801	0.0182837
528.879	0.0182084
528.957	0.0183278
529.035	0.0181931
529.113	0.0180275
529.191	0.0181429
529.269	0.0182145
529.348	0.0181845
529.426	0.0180892
529.504	0.0181304
529.582	0.0182460
529.660	0.0182475
529.738	0.0181150
529.816	0.0181570
529.894	0.0181743
529.973	0.0181856
530.051	0.0181145
530.129	0.0181952
530.207	0.0182168
530.285	0.0181483
530.363	0.0180710
530.441	0.0181781
530.519	0.0181524
530.598	0.0181772
530.676	0.0182317
530.754	0.0180588
530.832	0.0180912
530.910	0.0182040
530.988	0.0181681
531.066	0.0182078
531.144	0.0182178
531.223	0.0181299
531.301	0.0182074
531.379	0.0180197
531.457	0.0180493
531.535	0.0180738
531.613	0.0180844
531.691	0.0181303
531.769	0.0181685
531.848	0.0180830
531.926	0.0180242
532.004	0.0180407
532.082	0.0180799
532.160	0.0181763
532.238	0.0181371
532.316	0.0179501
532.394	0.0180040
532.473	0.0180877
532.551	0.0180064
532.629	0.0180090
532.707	0.0179487
532.785	0.0180135
532.863	0.0180672
532.941	0.0179569
533.019	0.0178323
533.098	0.0178698
533.176	0.0180516
533.254	0.0179966
533.332	0.0179281
533.410	0.0178869
533.488	0.0179331
533.566	0.0179726
533.644	0.0178288
533.723	0.0179986
533.801	0.0179153
533.879	0.0179854
533.957	0.0179514
534.035	0.0178771
534.113	0.0180292
534.191	0.0180965
534.269	0.0179778
534.348	0.0178958
534.426	0.0180537
534.504	0.0181645
534.582	0.0181012
534.660	0.0179370
534.738	0.0179501
534.816	0.0180975
534.894	0.0181110
534.973	0.0180682
535.051	0.0182417
535.129	0.0181411
535.207	0.0180724
535.285	0.0180817
535.363	0.0182906
535.441	0.0182742
535.519	0.0183397
535.598	0.0182812
535.676	0.0182500
535.754	0.0182806
535.832	0.0182780
535.910	0.0182284
535.988	0.0183038
536.066	0.0182934
536.144	0.0183791
536.223	0.0184072
536.301	0.0183392
536.379	0.0183792
536.457	0.0184197
536.535	0.0184524
536.613	0.0183929
536.691	0.0184113
536.769	0.0185033
536.848	0.0184837
536.926	0.0184344
537.004	0.0184199
537.082	0.0184616
537.160	0.0184351
537.238	0.0184740
537.316	0.0183895
537.394	0.0184228
537.473	0.0183509
537.551	0.0184239
537.629	0.0183796
537.707	0.0184664
537.785	0.0183900
537.863	0.0182395
537.941	0.0183704
538.019	0.0184074
538.098	0.0183097
538.176	0.0183590
538.254	0.0182310
538.332	0.0181973
538.410	0.0183083
538.488	0.0181142
538.566	0.0182257
538.644	0.0182287
538.723	0.0181564
538.801	0.0180460
538.879	0.0182146
538.957	0.0181393
539.035	0.0182297
539.113	0.0181805
539.191	0.0179990
539.269	0.0181463
539.348	0.0182178
539.426	0.0181916
539.504	0.0181181
539.582	0.0181888
539.660	0.0181844
539.738	0.0181219
539.816	0.0180405
539.894	0.0181641
539.973	0.0181051
540.051	0.0182242
540.129	0.0180255
540.207	0.0180386
540.285	0.0180813
540.363	0.0180894
540.441	0.0179296
540.519	0.0180737
540.598	0.0179984
540.676	0.0181055
540.754	0.0182320
540.832	0.0180696
540.910	0.0180470
540.988	0.0178680
541.066	0.0178646
541.144	0.0180174
541.223	0.0180949
541.301	0.0182451
541.379	0.0180368
541.457	0.0180762
541.535	0.0180376
541.613	0.0180751
541.691	0.0180305
541.769	0.0180650
541.848	0.0180491
541.926	0.0181873
542.004	0.0181388
542.082	0.0182493
542.160	0.0181467
542.238	0.0181232
542.316	0.0181609
542.394	0.0179569
542.473	0.0182104
542.551	0.0182160
542.629	0.0180345
542.707	0.0181839
542.785	0.0181595
542.863	0.0181042
542.941	0.0181783
543.019	0.0181561
543.098	0.0181664
543.176	0.0181394
543.254	0.0181563
543.332	0.0181646
543.410	0.0181821
543.488	0.0180876
543.566	0.0180987
543.644	0.0181783
543.723	0.0181502
543.801	0.0182024
543.879	0.0181879
543.957	0.0180160
544.035	0.0180820
544.113	0.0180847
544.191	0.0180775
544.269	0.0180575
544.348	0.0180611
544.426	0.0181892
544.504	0.0180710
544.582	0.0179610
544.660	0.0179891
544.738	0.0181353
544.816	0.0180704
544.894	0.0181335
544.973	0.0179416
545.051	0.0179540
545.129	0.0180042
545.207	0.0180811
545.285	0.0180489
545.363	0.0181042
545.441	0.0179657
545.519	0.0182037
545.598	0.0180863
545.676	0.0179919
545.754	0.0180274
545.832	0.0181329
545.910	0.0180524
545.988	0.0180843
546.066	0.0180711
546.144	0.0180820
546.223	0.0181114
546.301	0.0182594
546.379	0.0181259
546.457	0.0181882
546.535	0.0181567
546.613	0.0181499
546.691	0.0181073
546.769	0.0181765
546.848	0.0181593
546.926	0.0180867
547.004	0.0181291
547.082	0.0182314
547.160	0.0180804
547.238	0.0181113
547.316	0.0183096
547.394	0.0182279
547.473	0.0182324
547.551	0.0182571
547.629	0.0182663
547.707	0.0183420
547.785	0.0183272
547.863	0.0181960
547.941	0.0181880
548.019	0.0182605
548.098	0.0181873
548.176	0.0182820
548.254	0.0184078
548.332	0.0182647
548.410	0.0182736
548.488	0.0184084
548.566	0.0183291
548.644	0.0183770
548.723	0.0182467
548.801	0.0182043
548.879	0.0183103
548.957	0.0182477
549.035	0.0182035
549.113	0.0183318
549.191	0.0181711
549.269	0.0181981
549.348	0.0183535
549.426	0.0181071
549.504	0.0183000
549.582	0.0182958
549.660	0.0182371
549.738	0.0183443
549.816	0.0183707
549.894	0.0182893
549.973	0.0182926
550.051	0.0182846
550.129	0.0182802
550.207	0.0183581
550.285	0.0182932
550.363	0.0183408
550.441	0.0183038
550.519	0.0182702
550.598	0.0182965
550.676	0.0183337
550.754	0.0183915
550.832	0.0183149
550.910	0.0183261
550.988	0.0182452
551.066	0.0183179
551.144	0.0183082
551.223	0.0183165
551.301	0.0183902
551.379	0.0183212
551.457	0.0182087
551.535	0.0182190
551.613	0.0183144
551.691	0.0182186
551.769	0.0183256
551.848	0.0183083
551.926	0.0182037
552.004	0.0181521
552.082	0.0182255
552.160	0.0181432
552.238	0.0181727
552.316	0.0181345
552.394	0.0182202
552.473	0.0181547
552.551	0.0181189
552.629	0.0181625
552.707	0.0181042
552.785	0.0181586
552.863	0.0181020
552.941	0.0180759
553.019	0.0181515
553.098	0.0181155
553.176	0.0180348
553.254	0.0181026
553.332	0.0182246
553.410	0.0181382
553.488	0.0181292
553.566	0.0179642
553.644	0.0180848
553.723	0.0179805
553.801	0.0180852
553.879	0.0179546
553.957	0.0180129
554.035	0.0180198
554.113	0.0179536
554.191	0.0179987
554.269	0.0180898
554.348	0.0181342
554.426	0.0181116
554.504	0.0180900
554.582	0.0179625
554.660	0.0180319
554.738	0.0179196
554.816	0.0180804
554.894	0.0179162
554.973	0.0180769
555.051	0.0180762
555.129	0.0180719
555.207	0.0180267
555.285	0.0180424
555.363	0.0180113
555.441	0.0180503
555.519	0.0179564
555.598	0.0181764
555.676	0.0180533
555.754	0.0180458
555.832	0.0181805
555.910	0.0181623
555.988	0.0179564
556.066	0.0181213
556.144	0.0180264
556.223	0.0181097
556.301	0.0182399
556.379	0.0181819
556.457	0.0180762
556.535	0.0181985
556.613	0.0181694
556.691	0.0181972
556.769	0.0180422
556.848	0.0182719
556.926	0.0183237
557.004	0.0181793
557.082	0.0182551
557.160	0.0182502
557.238	0.0181709
557.316	0.0182087
557.394	0.0183475
557.473	0.0182728
557.551	0.0183768
557.629	0.0182894
557.707	0.0184128
557.785	0.0183189
557.863	0.0183633
557.941	0.0183665
558.019	0.0183519
558.098	0.0183875
558.176	0.0184394
558.254	0.0183867
558.332	0.0184380
558.410	0.0184022
558.488	0.0184073
558.566	0.0183559
558.644	0.0185031
558.723	0.0184773
558.801	0.0183851
558.879	0.0184225
558.957	0.0184801
559.035	0.0183709
559.113	0.0183373
559.191	0.0184256
559.269	0.0184092
559.348	0.0183282
559.426	0.0182648
559.504	0.0182688
559.582	0.0183570
559.660	0.0183768
559.738	0.0183308
559.816	0.0182996
559.894	0.0183188
559.973	0.0183598
560.051	0.0182778
560.129	0.0183660
560.207	0.0181152
560.285	0.0182426
560.363	0.0183050
560.441	0.0182546
560.519	0.0182840
560.598	0.0182712
560.676	0.0182887
560.754	0.0181244
560.832	0.0181683
560.910	0.0182455
560.988	0.0182109
561.066	0.0181284
561.144	0.0182701
561.223	0.0182029
561.301	0.0183179
561.379	0.0183606
561.457	0.0182154
561.535	0.0181856
561.613	0.0181358
561.691	0.0181554
561.769	0.0181049
561.848	0.0181227
561.926	0.0181380
562.004	0.0181415
562.082	0.0181866
562.160	0.0181180
562.238	0.0181210
562.316	0.0181921
562.394	0.0180925
562.473	0.0182365
562.551	0.0180827
562.629	0.0181842
562.707	0.0181402
562.785	0.0178624
562.863	0.0181029
562.941	0.0179995
563.019	0.0180530
563.098	0.0181610
563.176	0.0181138
563.254	0.0180875
563.332	0.0181732
563.410	0.0181056
563.488	0.0180260
563.566	0.0180690
563.644	0.0181328
563.723	0.0181399
563.801	0.0180956
563.879	0.0181272
563.957	0.0182153
564.035	0.0180659
564.113	0.0181123
564.191	0.0182092
564.269	0.0181555
564.348	0.0181913
564.426	0.0181725
564.504	0.0182171
564.582	0.0182288
564.660	0.0181329
564.738	0.0181529
564.816	0.0181732
564.894	0.0183103
564.973	0.0180685
565.051	0.0182314
565.129	0.0181396
565.207	0.0181834
565.285	0.0182428
565.363	0.0181428
565.441	0.0182386
565.519	0.0182160
565.598	0.0182046
565.676	0.0181210
565.754	0.0180378
565.832	0.0181522
565.910	0.0181829
565.988	0.0181624
566.066	0.0180207
566.144	0.0180643
566.223	0.0181117
566.301	0.0180315
566.379	0.0181901
566.457	0.0179807
566.535	0.0182085
566.613	0.0181626
566.691	0.0182213
566.769	0.0180624
566.848	0.0180052
566.926	0.0180530
567.004	0.0181229
567.082	0.0179800
567.160	0.0181149
567.238	0.0181602
567.316	0.0181396
567.394	0.0180350
567.473	0.0181096
567.551	0.0181875
567.629	0.0181266
567.707	0.0180148
567.785	0.0181051
567.863	0.0182684
567.941	0.0181839
568.019	0.0180277
568.098	0.0179552
568.176	0.0181380
568.254	0.0181675
568.332	0.0182377
568.410	0.0181483
568.488	0.0181380
568.566	0.0182497
568.644	0.0180294
568.723	0.0181570
568.801	0.0181966
568.879	0.0181746
568.957	0.0181245
569.035	0.0181153
569.113	0.0183315
569.191	0.0182536
569.269	0.0182430
569.348	0.0182609
569.426	0.0181712
569.504	0.0181166
569.582	0.0182262
569.660	0.0181084
569.738	0.0182056
569.816	0.0182103
569.894	0.0182988
569.973	0.0183063
570.051	0.0182456
570.129	0.0181165
570.207	0.0180423
570.285	0.0182082
570.363	0.0181354
570.441	0.0181179
570.519	0.0181306
570.598	0.0183333
570.676	0.0181868
570.754	0.0181500
570.832	0.0180077
570.910	0.0182218
570.988	0.0182413
571.066	0.0181723
571.144	0.0182037
571.223	0.0181187
571.301	0.0181021
571.379	0.0180702
571.457	0.0180984
571.535	0.0180907
571.613	0.0180048
571.691	0.0180526
571.769	0.0179218
571.848	0.0179808
571.926	0.0182117
572.004	0.0181545
572.082	0.0180018
572.160	0.0179756
572.238	0.0180587
572.316	0.0179670
572.394	0.0180473
572.473	0.0179274
572.551	0.0179678
572.629	0.0181726
572.707	0.0181674
572.785	0.0180396
572.863	0.0179396
572.941	0.0180444
573.019	0.0181318
573.098	0.0181811
573.176	0.0179945
573.254	0.0181056
573.332	0.0180040
573.410	0.0179581
573.488	0.0180874
573.566	0.0182384
573.644	0.0182143
573.723	0.0181625
573.801	0.0180331
573.879	0.0180740
573.957	0.0181747
574.035	0.0180635
574.113	0.0182111
574.191	0.0181541
574.269	0.0182189
574.348	0.0181981
574.426	0.0181888
574.504	0.0181401
574.582	0.0181237
574.660	0.0181194
574.738	0.0181527
574.816	0.0181684
574.894	0.0182381
574.973	0.0181252
575.051	0.0181051
575.129	0.0180138
575.207	0.0182243
575.285	0.0180679
575.363	0.0181557
575.441	0.0181599
575.519	0.0180292
575.598	0.0181282
575.676	0.0180169
575.754	0.0179881
575.832	0.0181660
575.910	0.0183515
575.988	0.0181123
576.066	0.0181538
576.144	0.0182431
576.223	0.0180996
576.301	0.0180940
576.379	0.0182212
576.457	0.0179510
576.535	0.0181682
576.613	0.0181164
576.691	0.0182869
576.769	0.0181113
576.848	0.0180875
576.926	0.0182175
577.004	0.0182381
577.082	0.0181165
577.160	0.0181245
577.238	0.0180767
577.316	0.0181606
577.394	0.0181107
577.473	0.0181889
577.551	0.0182043
577.629	0.0182162
577.707	0.0181581
577.785	0.0181063
577.863	0.0183379
577.941	0.0183287
578.019	0.0181776
578.098	0.0181682
578.176	0.0180929
578.254	0.0182397
578.332	0.0182063
578.410	0.0180617
578.488	0.0183053
578.566	0.0183746
578.644	0.0182907
578.723	0.0182452
578.801	0.0182914
578.879	0.0181416
578.957	0.0183275
579.035	0.0182349
579.113	0.0181821
579.191	0.0183371
579.269	0.0182862
579.348	0.0182526
579.426	0.0181680
579.504	0.0181197
579.582	0.0181038
579.660	0.0182388
579.738	0.0181145
579.816	0.0181116
579.894	0.0180940
579.973	0.0181358
580.051	0.0181409
580.129	0.0182640
580.207	0.0180952
580.285	0.0181496
580.363	0.0181932
580.441	0.0181670
580.519	0.0179715
580.598	0.0182306
580.676	0.0182372
580.754	0.0181902
580.832	0.0181606
580.910	0.0181691
580.988	0.0181589
581.066	0.0181543
581.144	0.0179787
581.223	0.0180082
581.301	0.0181821
581.379	0.0182102
581.457	0.0181918
581.535	0.0180893
581.613	0.0180351
581.691	0.0180608
581.769	0.0180077
581.848	0.0180428
581.926	0.0179694
582.004	0.0179113
582.082	0.0180880
582.160	0.0180708
582.238	0.0180411
582.316	0.0179697
582.394	0.0180051
582.473	0.0180184
582.551	0.0180852
582.629	0.0180706
582.707	0.0179440
582.785	0.0180250
582.863	0.0180387
582.941	0.0180085
583.019	0.0181864
583.098	0.0179582
583.176	0.0179534
583.254	0.0180498
583.332	0.0181158
583.410	0.0178506
583.488	0.0180066
583.566	0.0181161
583.644	0.0179462
583.723	0.0180862
583.801	0.0180219
583.879	0.0179932
583.957	0.0179990
584.035	0.0181066
584.113	0.0179702
584.191	0.0180646
584.269	0.0180582
584.348	0.0181826
584.426	0.0180429
584.504	0.0179352
584.582	0.0181488
584.660	0.0181575
584.738	0.0180621
584.816	0.0180000
584.894	0.0181600
584.973	0.0181606
585.051	0.0181587
585.129	0.0182007
585.207	0.0182388
585.285	0.0180695
585.363	0.0181808
585.441	0.0182355
585.519	0.0182634
585.598	0.0182612
585.676	0.0181612
585.754	0.0181876
585.832	0.0181359
585.910	0.0182973
585.988	0.0183043
586.066	0.0182498
586.144	0.0182242
586.223	0.0182113
586.301	0.0179807
586.379	0.0183551
586.457	0.0182872
586.535	0.0181236
586.613	0.0182211
586.691	0.0182537
586.769	0.0182236
586.848	0.0183241
586.926	0.0182954
587.004	0.0182983
587.082	0.0182727
587.160	0.0183315
587.238	0.0183989
587.316	0.0182394
587.394	0.0182566
587.473	0.0182690
587.551	0.0183801
587.629	0.0182272
587.707	0.0182641
587.785	0.0183418
587.863	0.0183491
587.941	0.0181821
588.019	0.0184082
588.098	0.0183681
588.176	0.0183282
588.254	0.0182740
588.332	0.0183525
588.410	0.0182719
588.488	0.0183640
588.566	0.0183411
588.644	0.0182257
588.723	0.0181808
588.801	0.0181577
588.879	0.0183473
588.957	0.0184148
589.035	0.0184036
589.113	0.0181672
589.191	0.0181896
589.269	0.0182787
589.348	0.0182224
589.426	0.0182171
589.504	0.0182304
589.582	0.0181637
589.660	0.0182059
589.738	0.0180388
589.816	0.0182204
589.894	0.0181746
589.973	0.0180965
590.051	0.0182742
590.129	0.0182069
590.207	0.0182114
590.285	0.0181794
590.363	0.0183044
590.441	0.0181336
590.519	0.0181657
590.598	0.0180478
590.676	0.0181701
590.754	0.0180796
590.832	0.0180623
590.910	0.0180856
590.988	0.0180126
591.066	0.0180228
591.144	0.0182484
591.223	0.0181307
591.301	0.0181028
591.379	0.0180464
591.457	0.0180629
591.535	0.0181516
591.613	0.0179694
591.691	0.0179751
591.769	0.0179183
591.848	0.0181065
591.926	0.0181644
592.004	0.0180555
592.082	0.0180492
592.160	0.0181190
592.238	0.0180436
592.316	0.0179597
592.394	0.0180735
592.473	0.0182196
592.551	0.0179466
592.629	0.0181230
592.707	0.0180873
592.785	0.0180124
592.863	0.0179639
592.941	0.0181176
593.019	0.0180798
593.098	0.0180620
593.176	0.0180171
593.254	0.0180180
593.332	0.0181011
593.410	0.0180779
593.488	0.0180827
593.566	0.0181678
593.644	0.0181073
593.723	0.0180597
593.801	0.0181159
593.879	0.0180138
593.957	0.0181493
594.035	0.0179984
594.113	0.0179514
594.191	0.0180042
594.269	0.0181911
594.348	0.0180480
594.426	0.0181641
594.504	0.0181443
594.582	0.0181213
594.660	0.0180501
594.738	0.0181931
594.816	0.0180804
594.894	0.0181420
594.973	0.0182271
595.051	0.0180578
595.129	0.0180534
595.207	0.0181546
595.285	0.0181140
595.363	0.0181902
595.441	0.0181771
595.519	0.0182471
595.598	0.0181158
595.676	0.0180470
595.754	0.0182056
595.832	0.0181065
595.910	0.0179589
595.988	0.0183086
596.066	0.0180782
596.144	0.0181097
596.223	0.0181670
596.301	0.0180639
596.379	0.0182292
596.457	0.0181935
596.535	0.0181167
596.613	0.0181458
596.691	0.0181474
596.769	0.0182565
596.848	0.0181853
596.926	0.0179979
597.004	0.0181847
597.082	0.0182394
597.160	0.0181590
597.238	0.0182050
597.316	0.0180923
597.394	0.0181252
597.473	0.0180318
597.551	0.0181499
597.629	0.0182143
597.707	0.0180801
597.785	0.0182378
597.863	0.0182967
597.941	0.0183005
598.019	0.0181385
598.098	0.0182173
598.176	0.0180887
598.254	0.0181334
598.332	0.0181780
598.410	0.0180251
598.488	0.0181625
598.566	0.0182462
598.644	0.0181995
598.723	0.0181953
598.801	0.0181094
598.879	0.0181199
598.957	0.0181889
599.035	0.0181994
599.113	0.0182047
599.191	0.0181961
599.269	0.0183176
599.348	0.0183083
599.426	0.0183356
599.504	0.0182003
599.582	0.0182546
599.660	0.0182011
599.738	0.0182732
599.816	0.0182149
599.894	0.0181824
599.973	0.0182539
600.051	0.0181831
600.129	0.0182362
600.207	0.0181005
600.285	0.0182053
600.363	0.0182737
600.441	0.0182008
600.519	0.0182611
600.598	0.0183662
600.676	0.0182916
600.754	0.0182719
600.832	0.0182202
600.910	0.0182300
600.988	0.0183490
601.066	0.0182898
601.144	0.0181841
601.223	0.0181721
601.301	0.0181342
601.379	0.0182478
601.457	0.0182267
601.535	0.0180909
601.613	0.0182516
601.691	0.0182086
601.769	0.0182842
601.848	0.0181832
601.926	0.0182400
602.004	0.0181821
602.082	0.0181891
602.160	0.0182462
602.238	0.0181162
602.316	0.0181143
602.394	0.0181757
602.473	0.0181288
602.551	0.0181438
602.629	0.0180840
602.707	0.0181924
602.785	0.0180993
602.863	0.0182050
602.941	0.0181512
603.019	0.0181207
603.098	0.0180445
603.176	0.0182003
603.254	0.0181373
603.332	0.0181145
603.410	0.0181255
603.488	0.0181170
603.566	0.0181154
603.644	0.0180664
603.723	0.0180421
603.801	0.0180109
603.879	0.0180531
603.957	0.0181342
604.035	0.0180971
604.113	0.0180688
604.191	0.0181522
604.269	0.0180904
604.348	0.0181068
604.426	0.0182186
604.504	0.0180091
604.582	0.0181406
604.660	0.0180828
604.738	0.0179624
604.816	0.0182193
604.894	0.0181918
604.973	0.0181300
605.051	0.0181229
605.129	0.0180871
605.207	0.0180595
605.285	0.0182726
605.363	0.0180589
605.441	0.0180646
605.519	0.0180875
605.598	0.0181004
605.676	0.0182758
605.754	0.0183540
605.832	0.0180772
605.910	0.0181030
605.988	0.0182814
606.066	0.0182275
606.144	0.0181980
606.223	0.0182101
606.301	0.0182090
606.379	0.0181489
606.457	0.0182818
606.535	0.0182397
606.613	0.0181997
606.691	0.0183554
606.769	0.0183191
606.848	0.0183639
606.926	0.0183447
607.004	0.0181983
607.082	0.0182118
607.160	0.0181712
607.238	0.0182293
607.316	0.0182025
607.394	0.0182352
607.473	0.0181832
607.551	0.0183560
607.629	0.0183038
607.707	0.0182898
607.785	0.0182352
607.863	0.0182344
607.941	0.0181438
608.019	0.0183386
608.098	0.0181936
608.176	0.0183322
608.254	0.0182763
608.332	0.0181413
608.410	0.0181658
608.488	0.0181853
608.566	0.0182800
608.644	0.0183624
608.723	0.0183485
608.801	0.0181503
608.879	0.0182667
608.957	0.0183100
609.035	0.0182242
609.113	0.0183121
609.191	0.0181849
609.269	0.0182560
609.348	0.0182918
609.426	0.0182438
609.504	0.0184263
609.582	0.0182284
609.660	0.0183253
609.738	0.0184092
609.816	0.0182272
609.894	0.0183216
609.973	0.0183113
610.051	0.0184020
610.129	0.0183531
610.207	0.0184628
610.285	0.0183083
610.363	0.0183170
610.441	0.0183100
610.519	0.0182915
610.598	0.0183392
610.676	0.0182568
610.754	0.0183826
610.832	0.0182220
610.910	0.0183327
610.988	0.0183160
611.066	0.0182343
611.144	0.0183012
611.223	0.0183483
611.301	0.0183484
611.379	0.0182508
611.457	0.0182693
611.535	0.0182194
611.613	0.0183802
611.691	0.0183606
611.769	0.0183038
611.848	0.0182655
611.926	0.0183742
612.004	0.0182674
612.082	0.0183368
612.160	0.0183128
612.238	0.0183662
612.316	0.0182206
612.394	0.0182681
612.473	0.0182650
612.551	0.0181919
612.629	0.0182646
612.707	0.0181313
612.785	0.0182597
612.863	0.0183707
612.941	0.0181515
613.019	0.0181859
613.098	0.0182899
613.176	0.0183234
613.254	0.0182629
613.332	0.0181294
613.410	0.0181645
613.488	0.0181231
613.566	0.0182545
613.644	0.0182607
613.723	0.0181719
613.801	0.0180954
613.879	0.0179874
613.957	0.0181058
614.035	0.0180999
614.113	0.0179395
614.191	0.0178550
614.269	0.0180951
614.348	0.0180427
614.426	0.0179967
614.504	0.0180115
614.582	0.0181514
614.660	0.0180258
614.738	0.0179563
614.816	0.0180546
614.894	0.0180526
614.973	0.0180289
615.051	0.0180661
615.129	0.0181518
615.207	0.0180090
615.285	0.0179589
615.363	0.0180124
615.441	0.0180428
615.519	0.0180135
615.598	0.0180358
615.676	0.0180172
615.754	0.0180328
615.832	0.0178867
615.910	0.0179679
615.988	0.0179984
616.066	0.0179163
616.144	0.0180442
616.223	0.0179832
616.301	0.0180346
616.379	0.0179279
616.457	0.0180381
616.535	0.0181641
616.613	0.0179275
616.691	0.0178558
616.769	0.0179157
616.848	0.0179901
616.926	0.0180721
617.004	0.0179699
617.082	0.0178970
617.160	0.0178839
617.238	0.0179411
617.316	0.0177837
617.394	0.0180517
617.473	0.0179717
617.551	0.0178538
617.629	0.0179514
617.707	0.0178874
617.785	0.0179621
617.863	0.0179913
617.941	0.0181034
618.019	0.0179654
618.098	0.0179171
618.176	0.0178627
618.254	0.0180209
618.332	0.0181545
618.410	0.0180139
618.488	0.0179398
618.566	0.0179547
618.644	0.0179081
618.723	0.0178448
618.801	0.0179842
618.879	0.0179247
618.957	0.0180198
619.035	0.0179379
619.113	0.0178875
619.191	0.0180681
619.269	0.0179727
619.348	0.0179563
619.426	0.0179543
619.504	0.0178837
619.582	0.0178329
619.660	0.0180769
619.738	0.0181329
619.816	0.0180946
619.894	0.0179718
619.973	0.0181167
620.051	0.0180830
620.129	0.0180490
620.207	0.0181026
620.285	0.0182484
620.363	0.0182349
620.441	0.0180688
620.519	0.0181178
620.598	0.0183234
620.676	0.0182574
620.754	0.0181435
620.832	0.0182100
620.910	0.0183138
620.988	0.0182366
621.066	0.0182992
621.144	0.0181173
621.223	0.0183401
621.301	0.0184173
621.379	0.0182941
621.457	0.0182291
621.535	0.0183704
621.613	0.0183527
621.691	0.0184452
621.769	0.0183337
621.848	0.0183890
621.926	0.0183910
622.004	0.0184099
622.082	0.0183327
622.160	0.0183049
622.238	0.0183402
622.316	0.0184428
622.394	0.0183092
622.473	0.0182793
622.551	0.0183799
622.629	0.0183180
622.707	0.0183093
622.785	0.0183598
622.863	0.0184350
622.941	0.0182822
623.019	0.0184188
623.098	0.0183147
623.176	0.0182980
623.254	0.0183273
623.332	0.0184825
623.410	0.0183045
623.488	0.0182484
623.566	0.0183591
623.644	0.0183172
623.723	0.0184030
623.801	0.0184923
623.879	0.0182747
623.957	0.0182428
624.035	0.0184723
624.113	0.0183065
624.191	0.0184190
624.269	0.0183422
624.348	0.0184023
624.426	0.0182748
624.504	0.0182426
624.582	0.0183423
624.660	0.0182924
624.738	0.0183414
624.816	0.0183461
624.894	0.0182343
624.973	0.0183892
625.051	0.0183250
625.129	0.0181353
625.207	0.0183531
625.285	0.0184357
625.363	0.0183595
625.441	0.0183456
625.519	0.0182632
625.598	0.0181773
625.676	0.0183234
625.754	0.0182241
625.832	0.0183471
625.910	0.0182130
625.988	0.0182317
626.066	0.0182536
626.144	0.0184384
626.223	0.0182257
626.301	0.0182174
626.379	0.0181337
626.457	0.0182339
626.535	0.0183849
626.613	0.0182962
626.691	0.0182286
626.769	0.0182438
626.848	0.0182900
626.926	0.0182579
627.004	0.0183899
627.082	0.0182555
627.160	0.0181326
627.238	0.0182232
627.316	0.0183175
627.394	0.0183713
627.473	0.0183192
627.551	0.0183643
627.629	0.0181807
627.707	0.0183259
627.785	0.0183629
627.863	0.0182430
627.941	0.0183017
628.019	0.0184108
628.098	0.0183247
628.176	0.0182141
628.254	0.0183412
628.332	0.0183238
628.410	0.0182964
628.488	0.0183479
628.566	0.0183613
628.644	0.0183066
628.723	0.0184000
628.801	0.0183649
628.879	0.0182133
628.957	0.0183057
629.035	0.0183138
629.113	0.0182309
629.191	0.0183198
629.269	0.0184092
629.348	0.0183303
629.426	0.0182162
629.504	0.0182413
629.582	0.0183404
629.660	0.0183020
629.738	0.0183992
629.816	0.0183815
629.894	0.0183228
629.973	0.0183694
630.051	0.0182935
630.129	0.0183893
630.207	0.0182121
630.285	0.0183521
630.363	0.0184641
630.441	0.0183077
630.519	0.0184141
630.598	0.0183441
630.676	0.0183881
630.754	0.0183984
630.832	0.0183301
630.910	0.0184767
630.988	0.0183153
631.066	0.0182577
631.144	0.0184354
631.223	0.0183368
631.301	0.0183578
631.379	0.0182740
631.457	0.0182654
631.535	0.0182521
631.613	0.0182577
631.691	0.0182179
631.769	0.0182262
631.848	0.0182629
631.926	0.0182379
632.004	0.0182514
632.082	0.0182815
632.160	0.0182656
632.238	0.0180915
632.316	0.0182530
632.394	0.0181401
632.473	0.0181292
632.551	0.0181378
632.629	0.0181907
632.707	0.0181250
632.785	0.0181757
632.863	0.0180459
632.941	0.0181310
633.019	0.0180317
633.098	0.0179873
633.176	0.0180662
633.254	0.0182333
633.332	0.0181149
633.410	0.0181231
633.488	0.0181004
633.566	0.0181717
633.644	0.0182034
633.723	0.0179621
633.801	0.0180849
633.879	0.0181432
633.957	0.0180482
634.035	0.0180373
634.113	0.0182185
634.191	0.0181528
634.269	0.0182542
634.348	0.0180236
634.426	0.0180563
634.504	0.0181799
634.582	0.0179824
634.660	0.0180476
634.738	0.0180812
634.816	0.0180833
634.894	0.0182341
634.973	0.0181860
635.051	0.0182129
635.129	0.0181279
635.207	0.0182917
635.285	0.0182140
635.363	0.0181582
635.441	0.0182241
635.519	0.0182018
635.598	0.0181702
635.676	0.0181384
635.754	0.0180492
635.832	0.0181016
635.910	0.0180624
635.988	0.0184132
636.066	0.0181076
636.144	0.0180933
636.223	0.0181414
636.301	0.0181132
636.379	0.0182094
636.457	0.0182642
636.535	0.0181186
636.613	0.0181571
636.691	0.0181734
636.769	0.0181795
636.848	0.0181284
636.926	0.0181538
637.004	0.0181316
637.082	0.0181670
637.160	0.0181977
637.238	0.0180202
637.316	0.0180852
637.394	0.0181562
637.473	0.0180740
637.551	0.0180231
637.629	0.0180325
637.707	0.0179456
637.785	0.0180464
637.863	0.0181537
637.941	0.0181270
638.019	0.0181682
638.098	0.0180531
638.176	0.0179951
638.254	0.0182351
638.332	0.0179137
638.410	0.0179667
638.488	0.0180168
638.566	0.0180484
638.644	0.0179654
638.723	0.0179594
638.801	0.0179855
638.879	0.0182221
638.957	0.0179208
639.035	0.0178934
639.113	0.0180264
639.191	0.0179767
639.269	0.0179353
639.348	0.0179486
639.426	0.0180440
639.504	0.0179732
639.582	0.0179785
639.660	0.0179721
639.738	0.0180424
639.816	0.0180033
639.894	0.0179731
639.973	0.0180119
640.051	0.0179795
640.129	0.0179885
640.207	0.0180898
640.285	0.0179903
640.363	0.0180469
640.441	0.0179298
640.519	0.0178972
640.598	0.0179202
640.676	0.0179543
640.754	0.0180296
640.832	0.0179730
640.910	0.0179520
640.988	0.0179100
641.066	0.0181169
641.144	0.0179516
641.223	0.0180120
641.301	0.0180297
641.379	0.0180930
641.457	0.0179015
641.535	0.0179198
641.613	0.0179837
641.691	0.0180384
641.769	0.0180705
641.848	0.0179716
641.926	0.0179716
642.004	0.0178370
642.082	0.0179526
642.160	0.0180829
642.238	0.0180594
642.316	0.0179889
642.394	0.0182010
642.473	0.0178913
642.551	0.0180620
642.629	0.0181248
642.707	0.0181285
642.785	0.0180754
642.863	0.0181007
642.941	0.0182470
643.019	0.0180590
643.098	0.0179665
643.176	0.0181927
643.254	0.0182151
643.332	0.0180424
643.410	0.0181232
643.488	0.0180798
643.566	0.0182162
643.644	0.0182217
643.723	0.0181757
643.801	0.0183458
643.879	0.0182675
643.957	0.0183153
644.035	0.0182487
644.113	0.0181315
644.191	0.0182361
644.269	0.0181815
644.348	0.0182550
644.426	0.0182007
644.504	0.0181382
644.582	0.0182867
644.660	0.0181544
644.738	0.0182901
644.816	0.0182733
644.894	0.0182336
644.973	0.0182013
645.051	0.0181383
645.129	0.0182061
645.207	0.0182077
645.285	0.0182167
645.363	0.0183095
645.441	0.0181463
645.519	0.0182701
645.598	0.0180909
645.676	0.0182246
645.754	0.0181106
645.832	0.0180920
645.910	0.0182891
645.988	0.0182105
646.066	0.0181875
646.144	0.0181463
646.223	0.0182758
646.301	0.0182337
646.379	0.0182212
646.457	0.0181715
646.535	0.0180761
646.613	0.0182347
646.691	0.0182018
646.769	0.0181654
646.848	0.0181625
646.926	0.0180663
647.004	0.0181068
647.082	0.0181161
647.160	0.0181657
647.238	0.0180756
647.316	0.0179530
647.394	0.0180914
647.473	0.0182487
647.551	0.0181963
647.629	0.0181667
647.707	0.0181314
647.785	0.0182101
647.863	0.0181194
647.941	0.0180968
648.019	0.0181199
648.098	0.0182081
648.176	0.0181393
648.254	0.0182500
648.332	0.0181127
648.410	0.0181858
648.488	0.0181752
648.566	0.0180985
648.644	0.0183134
648.723	0.0182235
648.801	0.0181818
648.879	0.0181789
648.957	0.0182124
649.035	0.0181470
649.113	0.0181963
649.191	0.0180965
649.269	0.0181525
649.348	0.0183111
649.426	0.0181911
649.504	0.0181942
649.582	0.0181550
649.660	0.0182114
649.738	0.0181376
649.816	0.0180753
649.894	0.0181037
649.973	0.0181874
650.051	0.0181580
650.129	0.0180722
650.207	0.0182767
650.285	0.0181500
650.363	0.0181449
650.441	0.0182484
650.519	0.0181347
650.598	0.0180968
650.676	0.0182969
650.754	0.0182217
650.832	0.0182158
650.910	0.0181505
650.988	0.0182410
651.066	0.0182096
651.144	0.0181754
651.223	0.0181644
651.301	0.0182661
651.379	0.0183351
651.457	0.0181393
651.535	0.0181549
651.613	0.0181284
651.691	0.0182975
651.769	0.0183238
651.848	0.0182432
651.926	0.0183730
652.004	0.0182827
652.082	0.0182460
652.160	0.0182469
652.238	0.0183211
652.316	0.0182818
652.394	0.0182344
652.473	0.0182544
652.551	0.0181728
652.629	0.0182423
652.707	0.0183266
652.785	0.0182691
652.863	0.0182410
652.941	0.0181326
653.019	0.0183282
653.098	0.0184041
653.176	0.0182500
653.254	0.0182136
653.332	0.0181756
653.410	0.0181787
653.488	0.0181747
653.566	0.0182814
653.644	0.0183129
653.723	0.0182674
653.801	0.0182006
653.879	0.0181347
653.957	0.0181906
654.035	0.0183565
654.113	0.0181207
654.191	0.0182349
654.269	0.0182783
654.348	0.0181413
654.426	0.0181721
654.504	0.0181117
654.582	0.0182536
654.660	0.0181309
654.738	0.0182045
654.816	0.0182257
654.894	0.0180746
654.973	0.0182185
655.051	0.0181721
655.129	0.0180967
655.207	0.0182956
655.285	0.0182999
655.363	0.0180843
655.441	0.0181680
655.519	0.0182000
655.598	0.0181345
655.676	0.0182116
655.754	0.0182830
655.832	0.0182981
655.910	0.0182091
655.988	0.0182049
656.066	0.0182507
656.144	0.0182395
656.223	0.0182918
656.301	0.0182568
656.379	0.0181487
656.457	0.0182210
656.535	0.0184014
656.613	0.0183524
656.691	0.0182238
656.769	0.0182246
656.848	0.0183221
656.926	0.0181866
657.004	0.0183167
657.082	0.0182989
657.160	0.0180849
657.238	0.0183041
657.316	0.0182244
657.394	0.0180913
657.473	0.0180902
657.551	0.0181505
657.629	0.0182001
657.707	0.0182793
657.785	0.0181885
657.863	0.0181164
657.941	0.0181993
658.019	0.0182109
658.098	0.0183033
658.176	0.0180890
658.254	0.0182679
658.332	0.0183085
658.410	0.0182214
658.488	0.0180685
658.566	0.0180750
658.644	0.0181916
658.723	0.0181534
658.801	0.0181986
658.879	0.0181788
658.957	0.0181212
659.035	0.0182131
659.113	0.0181518
659.191	0.0182053
659.269	0.0182556
659.348	0.0182063
659.426	0.0181662
659.504	0.0181551
659.582	0.0181707
659.660	0.0181136
659.738	0.0182313
659.816	0.0182231
659.894	0.0181715
659.973	0.0181712
660.051	0.0181551
660.129	0.0182265
660.207	0.0181583
660.285	0.0180988
660.363	0.0180276
660.441	0.0179174
660.519	0.0181436
660.598	0.0180972
660.676	0.0181388
660.754	0.0180833
660.832	0.0180590
660.910	0.0179417
660.988	0.0181267
661.066	0.0181878
661.144	0.0180781
661.223	0.0180199
661.301	0.0180619
661.379	0.0181441
661.457	0.0182011
661.535	0.0181478
661.613	0.0180704
661.691	0.0181405
661.769	0.0182058
661.848	0.0180341
661.926	0.0180450
662.004	0.0180734
662.082	0.0181107
662.160	0.0182034
662.238	0.0180563
662.316	0.0180717
662.394	0.0180891
662.473	0.0180271
662.551	0.0180812
662.629	0.0181332
662.707	0.0180678
662.785	0.0182025
662.863	0.0180992
662.941	0.0180029
663.019	0.0180687
663.098	0.0181962
663.176	0.0180196
663.254	0.0181316
663.332	0.0179755
663.410	0.0179552
663.488	0.0180279
663.566	0.0180289
663.644	0.0179821
663.723	0.0179827
663.801	0.0181140
663.879	0.0180860
663.957	0.0180745
664.035	0.0180421
664.113	0.0180741
664.191	0.0179807
664.269	0.0180530
664.348	0.0179727
664.426	0.0181760
664.504	0.0180055
664.582	0.0181292
664.660	0.0182140
664.738	0.0181963
664.816	0.0182154
664.894	0.0181467
664.973	0.0182072
665.051	0.0181577
665.129	0.0182022
665.207	0.0182240
665.285	0.0181554
665.363	0.0180354
665.441	0.0180081
665.519	0.0180147
665.598	0.0180724
665.676	0.0180051
665.754	0.0179659
665.832	0.0179892
665.910	0.0179620
665.988	0.0179657
666.066	0.0179849
666.144	0.0179397
666.223	0.0178200
666.301	0.0178549
666.379	0.0180100
666.457	0.0179790
666.535	0.0180219
666.613	0.0179980
666.691	0.0179636
666.769	0.0180500
666.848	0.0179754
666.926	0.0179739
667.004	0.0180614
667.082	0.0178877
667.160	0.0180170
667.238	0.0179908
667.316	0.0180579
667.394	0.0180988
667.473	0.0182430
667.551	0.0179647
667.629	0.0180195
667.707	0.0180738
667.785	0.0180592
667.863	0.0182055
667.941	0.0181824
668.019	0.0180738
668.098	0.0181656
668.176	0.0181566
668.254	0.0182393
668.332	0.0182897
668.410	0.0183179
668.488	0.0183459
668.566	0.0184040
668.644	0.0184191
668.723	0.0182621
668.801	0.0183839
668.879	0.0183997
668.957	0.0182949
669.035	0.0183258
669.113	0.0184048
669.191	0.0183434
669.269	0.0184576
669.348	0.0183690
669.426	0.0183295
669.504	0.0182938
669.582	0.0183263
669.660	0.0182025
669.738	0.0181386
669.816	0.0182092
669.894	0.0182392
669.973	0.0181455
670.051	0.0181016
670.129	0.0181042
670.207	0.0178548
670.285	0.0179602
670.363	0.0180308
670.441	0.0180842
670.519	0.0179277
670.598	0.0179531
670.676	0.0179676
670.754	0.0180780
670.832	0.0181129
670.910	0.0180089
670.988	0.0179301
671.066	0.0180789
671.144	0.0179404
671.223	0.0180679
671.301	0.0180302
671.379	0.0182277
671.457	0.0181686
671.535	0.0181338
671.613	0.0180822
671.691	0.0183026
671.769	0.0182233
671.848	0.0183272
671.926	0.0183134
672.004	0.0184471
672.082	0.0185575
672.160	0.0184917
672.238	0.0184366
672.316	0.0184509
672.394	0.0184380
672.473	0.0185119
672.551	0.0184583
672.629	0.0184214
672.707	0.0185209
672.785	0.0185561
672.863	0.0184204
672.941	0.0184901
673.019	0.0184651
673.098	0.0183170
673.176	0.0184092
673.254	0.0183652
673.332	0.0183798
673.410	0.0183405
673.488	0.0184206
673.566	0.0183920
673.644	0.0183196
673.723	0.0182011
673.801	0.0182601
673.879	0.0181290
673.957	0.0182643
674.035	0.0183277
674.113	0.0182832
674.191	0.0182380
674.269	0.0181598
674.348	0.0180695
674.426	0.0181449
674.504	0.0180024
674.582	0.0179760
674.660	0.0179976
674.738	0.0179581
674.816	0.0179457
674.894	0.0178611
674.973	0.0178687
675.051	0.0178565
675.129	0.0180654
675.207	0.0181110
675.285	0.0180087
675.363	0.0179932
675.441	0.0180051
675.519	0.0181176
675.598	0.0181102
675.676	0.0182536
675.754	0.0181203
675.832	0.0181123
675.910	0.0182802
675.988	0.0182700
676.066	0.0182446
676.144	0.0184147
676.223	0.0183571
676.301	0.0182270
676.379	0.0182661
676.457	0.0182403
676.535	0.0181628
676.613	0.0181754
676.691	0.0180339
676.769	0.0182909
676.848	0.0184597
676.926	0.0181997
677.004	0.0182369
677.082	0.0182059
677.160	0.0181935
677.238	0.0182038
677.316	0.0182487
677.394	0.0182169
677.473	0.0182070
677.551	0.0180219
677.629	0.0180524
677.707	0.0181570
677.785	0.0181355
677.863	0.0181361
677.941	0.0180486
678.019	0.0179578
678.098	0.0179900
678.176	0.0180504
678.254	0.0179605
678.332	0.0179957
678.410	0.0180910
678.488	0.0181218
678.566	0.0180545
678.644	0.0180222
678.723	0.0180112
678.801	0.0181019
678.879	0.0183021
678.957	0.0181197
679.035	0.0180895
679.113	0.0181328
679.191	0.0182099
679.269	0.0183166
679.348	0.0181129
679.426	0.0182231
679.504	0.0184764
679.582	0.0184350
679.660	0.0182616
679.738	0.0183300
679.816	0.0183556
679.894	0.0182919
679.973	0.0183603
680.051	0.0183435
680.129	0.0182928
680.207	0.0182710
680.285	0.0181407
680.363	0.0182553
680.441	0.0183234
680.519	0.0182570
680.598	0.0182336
680.676	0.0182302
680.754	0.0180978
680.832	0.0179917
680.910	0.0180487
680.988	0.0180563
681.066	0.0179376
681.144	0.0179787
681.223	0.0179450
681.301	0.0178773
681.379	0.0179844
681.457	0.0180327
681.535	0.0180719
681.613	0.0180034
681.691	0.0179815
681.769	0.0180475
681.848	0.0180619
681.926	0.0181104
682.004	0.0181458
682.082	0.0181208
682.160	0.0182506
682.238	0.0181798
682.316	0.0181767
682.394	0.0181802
682.473	0.0180871
682.551	0.0182500
682.629	0.0180736
682.707	0.0180669
682.785	0.0181905
682.863	0.0181844
682.941	0.0182314
683.019	0.0182072
683.098	0.0182858
683.176	0.0180972
683.254	0.0182364
683.332	0.0182546
683.410	0.0182038
683.488	0.0183266
683.566	0.0184146
683.644	0.0183489
683.723	0.0182407
683.801	0.0184250
683.879	0.0184561
683.957	0.0184544
684.035	0.0183730
684.113	0.0184061
684.191	0.0183892
684.269	0.0183857
684.348	0.0183660
684.426	0.0184893
684.504	0.0184480
684.582	0.0183726
684.660	0.0184036
684.738	0.0182459
684.816	0.0182687
684.894	0.0183035
684.973	0.0182004
685.051	0.0182265
685.129	0.0182757
685.207	0.0182108
685.285	0.0182184
685.363	0.0182421
685.441	0.0181359
685.519	0.0182117
685.598	0.0182726
685.676	0.0181265
685.754	0.0181563
685.832	0.0180891
685.910	0.0182190
685.988	0.0181050
686.066	0.0181377
686.144	0.0179873
686.223	0.0181219
686.301	0.0180131
686.379	0.0180002
686.457	0.0181377
686.535	0.0181173
686.613	0.0179754
686.691	0.0181682
686.769	0.0181150
686.848	0.0181090
686.926	0.0182426
687.004	0.0182446
687.082	0.0181492
687.160	0.0182685
687.238	0.0183146
687.316	0.0181702
687.394	0.0181555
687.473	0.0182347
687.551	0.0183232
687.629	0.0182730
687.707	0.0182536
687.785	0.0182179
687.863	0.0182534
687.941	0.0181201
688.019	0.0181937
688.098	0.0182873
688.176	0.0182797
688.254	0.0182207
688.332	0.0180642
688.410	0.0181780
688.488	0.0181623
688.566	0.0182793
688.644	0.0181635
688.723	0.0182014
688.801	0.0183033
688.879	0.0182879
688.957	0.0182761
689.035	0.0184286
689.113	0.0183012
689.191	0.0182799
689.269	0.0183229
689.348	0.0183710
689.426	0.0183462
689.504	0.0183426
689.582	0.0183763
689.660	0.0182614
689.738	0.0181927
689.816	0.0181344
689.894	0.0181660
689.973	0.0181563
690.051	0.0179577
690.129	0.0179638
690.207	0.0178095
690.285	0.0179970
690.363	0.0177531
690.441	0.0178587
690.519	0.0179259
690.598	0.0179205
690.676	0.0179340
690.754	0.0177865
690.832	0.0180043
690.910	0.0179735
690.988	0.0178232
691.066	0.0179710
691.144	0.0179407
691.223	0.0180684
691.301	0.0180930
691.379	0.0181426
691.457	0.0181201
691.535	0.0181045
691.613	0.0181977
691.691	0.0182650
691.769	0.0182951
691.848	0.0182817
691.926	0.0182944
692.004	0.0182333
692.082	0.0184833
692.160	0.0183643
692.238	0.0182178
692.316	0.0184031
692.394	0.0183575
692.473	0.0182085
692.551	0.0182354
692.629	0.0181967
692.707	0.0181052
692.785	0.0181770
692.863	0.0180682
692.941	0.0179900
693.019	0.0181613
693.098	0.0179607
693.176	0.0180170
693.254	0.0180804
693.332	0.0178116
693.410	0.0179540
693.488	0.0180016
693.566	0.0180740
693.644	0.0179990
693.723	0.0179514
693.801	0.0179511
693.879	0.0179655
693.957	0.0178931
694.035	0.0180893
694.113	0.0179592
694.191	0.0181811
694.269	0.0181630
694.348	0.0181304
694.426	0.0182224
694.504	0.0183764
694.582	0.0183973
694.660	0.0184157
694.738	0.0182781
694.816	0.0185681
694.894	0.0185413
694.973	0.0186192
695.051	0.0186148
695.129	0.0185603
695.207	0.0185982
695.285	0.0183997
695.363	0.0186167
695.441	0.0185688
695.519	0.0184025
695.598	0.0184873
695.676	0.0184230
695.754	0.0182993
695.832	0.0182280
695.910	0.0183012
695.988	0.0181692
696.066	0.0180952
696.144	0.0183013
696.223	0.0182440
696.301	0.0181200
696.379	0.0182856
696.457	0.0182578
696.535	0.0182670
696.613	0.0182663
696.691	0.0182336
696.769	0.0183524
696.848	0.0182895
696.926	0.0183832
697.004	0.0183479
697.082	0.0183278
697.160	0.0184035
697.238	0.0182000
697.316	0.0184155
697.394	0.0183582
697.473	0.0182301
697.551	0.0183565
697.629	0.0181591
697.707	0.0182041
697.785	0.0181647
697.863	0.0181330
697.941	0.0181940
698.019	0.0182227
698.098	0.0180682
698.176	0.0182481
698.254	0.0183421
698.332	0.0181886
698.410	0.0181135
698.488	0.0180947
698.566	0.0182372
698.644	0.0181656
698.723	0.0183449
698.801	0.0182222
698.879	0.0181357
698.957	0.0183334
699.035	0.0182038
699.113	0.0181055
699.191	0.0183205
699.269	0.0183641
699.348	0.0182178
699.426	0.0181153
699.504	0.0181847
699.582	0.0181276
699.660	0.0181965
699.738	0.0181860
699.816	0.0183435
699.894	0.0181722
699.973	0.0181208
700.051	0.0181171
700.129	0.0180247
700.207	0.0182029
700.285	0.0181496
700.363	0.0181342
700.441	0.0182796
700.519	0.0181207
700.598	0.0181400
700.676	0.0182163
700.754	0.0183171
700.832	0.0183121
700.910	0.0182603
700.988	0.0184272
701.066	0.0183347
701.144	0.0183808
701.223	0.0184107
701.301	0.0182991
701.379	0.0183362
701.457	0.0182757
701.535	0.0183214
701.613	0.0182760
701.691	0.0182750
701.769	0.0181422
701.848	0.0182375
701.926	0.0180089
702.004	0.0178476
702.082	0.0179138
702.160	0.0178713
702.238	0.0178880
702.316	0.0179584
702.394	0.0180496
702.473	0.0178497
702.551	0.0178617
702.629	0.0179180
702.707	0.0179186
702.785	0.0179942
702.863	0.0180723
702.941	0.0179989
703.019	0.0179198
703.098	0.0181068
703.176	0.0181871
703.254	0.0181426
703.332	0.0183419
703.410	0.0180893
703.488	0.0181980
703.566	0.0182487
703.644	0.0181783
703.723	0.0182163
703.801	0.0182262
703.879	0.0182587
703.957	0.0181282
704.035	0.0183073
704.113	0.0182655
704.191	0.0183205
704.269	0.0182871
704.348	0.0182388
704.426	0.0182896
704.504	0.0182349
704.582	0.0180967
704.660	0.0182372
704.738	0.0182925
704.816	0.0183232
704.894	0.0181618
704.973	0.0181654
705.051	0.0181397
705.129	0.0181329
705.207	0.0181259
705.285	0.0178859
705.363	0.0179205
705.441	0.0181247
705.519	0.0180875
705.598	0.0180611
705.676	0.0180716
705.754	0.0178663
705.832	0.0179237
705.910	0.0180725
705.988	0.0181109
706.066	0.0179958
706.144	0.0180800
706.223	0.0182204
706.301	0.0180460
706.379	0.0181372
706.457	0.0180746
706.535	0.0181364
706.613	0.0182128
706.691	0.0181145
706.769	0.0180619
706.848	0.0181617
706.926	0.0180388
707.004	0.0180524
707.082	0.0182397
707.160	0.0180737
707.238	0.0181185
707.316	0.0180092
707.394	0.0181448
707.473	0.0180335
707.551	0.0178761
707.629	0.0180554
707.707	0.0181033
707.785	0.0181107
707.863	0.0179382
707.941	0.0179729
708.019	0.0180215
708.098	0.0181783
708.176	0.0180541
708.254	0.0181192
708.332	0.0181407
708.410	0.0183247
708.488	0.0181787
708.566	0.0182040
708.644	0.0184076
708.723	0.0182929
708.801	0.0183901
708.879	0.0183619
708.957	0.0183521
709.035	0.0182578
709.113	0.0183950
709.191	0.0184818
709.269	0.0183469
709.348	0.0185009
709.426	0.0185673
709.504	0.0185603
709.582	0.0184235
709.660	0.0182378
709.738	0.0180177
709.816	0.0181339
709.894	0.0181112
709.973	0.0179504
710.051	0.0178386
710.129	0.0178426
710.207	0.0178514
710.285	0.0176508
710.363	0.0174993
710.441	0.0175642
710.519	0.0175190
710.598	0.0175989
710.676	0.0176030
710.754	0.0175630
710.832	0.0177834
710.910	0.0177506
710.988	0.0177110
711.066	0.0178640
711.144	0.0179266
711.223	0.0179411
711.301	0.0179826
711.379	0.0181387
711.457	0.0181229
711.535	0.0180488
711.613	0.0182145
711.691	0.0184024
711.769	0.0182597
711.848	0.0183184
711.926	0.0182887
712.004	0.0183162
712.082	0.0185911
712.160	0.0183067
712.238	0.0182214
712.316	0.0183480
712.394	0.0183326
712.473	0.0184757
712.551	0.0185121
712.629	0.0183898
712.707	0.0184402
712.785	0.0183521
712.863	0.0184984
712.941	0.0183104
713.019	0.0182914
713.098	0.0182643
713.176	0.0181294
713.254	0.0182184
713.332	0.0182646
713.410	0.0181397
713.488	0.0180762
713.566	0.0181734
713.644	0.0180338
713.723	0.0179090
713.801	0.0179682
713.879	0.0177928
713.957	0.0176706
714.035	0.0178185
714.113	0.0178234
714.191	0.0177303
714.269	0.0177198
714.348	0.0177003
714.426	0.0178707
714.504	0.0178329
714.582	0.0178348
714.660	0.0178936
714.738	0.0180059
714.816	0.0179258
714.894	0.0180647
714.973	0.0181657
715.051	0.0181847
715.129	0.0180563
715.207	0.0181924
715.285	0.0183768
715.363	0.0183529
715.441	0.0183491
715.519	0.0182509
715.598	0.0183967
715.676	0.0183025
715.754	0.0185017
715.832	0.0184249
715.910	0.0183932
715.988	0.0182564
716.066	0.0185206
716.144	0.0184561
716.223	0.0183450
716.301	0.0185009
716.379	0.0183714
716.457	0.0181792
716.535	0.0183160
716.613	0.0182980
716.691	0.0182217
716.769	0.0180653
716.848	0.0179332
716.926	0.0179393
717.004	0.0178780
717.082	0.0179578
717.160	0.0178737
717.238	0.0179447
717.316	0.0179243
717.394	0.0178464
717.473	0.0178596
717.551	0.0179813
717.629	0.0179994
717.707	0.0178927
717.785	0.0180039
717.863	0.0181197
717.941	0.0182292
718.019	0.0180482
718.098	0.0181657
718.176	0.0180273
718.254	0.0181261
718.332	0.0181293
718.410	0.0181352
718.488	0.0181492
718.566	0.0181565
718.644	0.0181435
718.723	0.0181367
718.801	0.0181179
718.879	0.0182359
718.957	0.0182170
719.035	0.0181952
719.113	0.0182027
719.191	0.0182619
719.269	0.0182310
719.348	0.0184196
719.426	0.0182132
719.504	0.0181848
719.582	0.0181630
719.660	0.0181013
719.738	0.0182681
719.816	0.0181532
719.894	0.0181326
719.973	0.0181780
720.051	0.0181457
720.129	0.0183366
720.207	0.0184090
720.285	0.0183482
720.363	0.0182521
720.441	0.0183127
720.519	0.0184973
720.598	0.0184720
720.676	0.0183286
720.754	0.0184901
720.832	0.0183953
720.910	0.0184459
720.988	0.0185447
721.066	0.0184528
721.144	0.0184262
721.223	0.0184245
721.301	0.0184583
721.379	0.0182657
721.457	0.0182352
721.535	0.0180772
721.613	0.0181833
721.691	0.0179543
721.769	0.0178856
721.848	0.0178926
721.926	0.0178764
722.004	0.0178355
722.082	0.0178227
722.160	0.0179739
722.238	0.0179559
722.316	0.0178735
722.394	0.0178589
722.473	0.0179535
722.551	0.0178712
722.629	0.0180777
722.707	0.0181352
722.785	0.0182059
722.863	0.0182774
722.941	0.0182690
723.019	0.0183884
723.098	0.0183607
723.176	0.0184177
723.254	0.0184420
723.332	0.0185209
723.410	0.0184826
723.488	0.0185797
723.566	0.0185699
723.644	0.0184311
723.723	0.0183247
723.801	0.0184363
723.879	0.0184470
723.957	0.0184061
724.035	0.0183454
724.113	0.0183830
724.191	0.0182478
724.269	0.0181219
724.348	0.0182412
724.426	0.0183781
724.504	0.0181368
724.582	0.0181527
724.660	0.0181570
724.738	0.0181485
724.816	0.0181228
724.894	0.0181895
724.973	0.0181342
725.051	0.0181358
725.129	0.0181950
725.207	0.0181065
725.285	0.0181583
725.363	0.0180511
725.441	0.0179940
725.519	0.0179364
725.598	0.0179112
725.676	0.0178553
725.754	0.0178983
725.832	0.0178203
725.910	0.0179286
725.988	0.0181268
726.066	0.0179687
726.144	0.0179570
726.223	0.0179755
726.301	0.0180495
726.379	0.0180275
726.457	0.0182052
726.535	0.0182182
726.613	0.0182113
726.691	0.0181603
726.769	0.0182740
726.848	0.0183736
726.926	0.0183772
727.004	0.0185004
727.082	0.0185802
727.160	0.0184705
727.238	0.0185571
727.316	0.0184070
727.394	0.0183570
727.473	0.0184984
727.551	0.0186070
727.629	0.0184518
727.707	0.0183741
727.785	0.0183250
727.863	0.0183443
727.941	0.0182504
728.019	0.0181995
728.098	0.0181776
728.176	0.0181593
728.254	0.0181198
728.332	0.0179630
728.410	0.0179044
728.488	0.0178706
728.566	0.0179160
728.644	0.0178644
728.723	0.0178757
728.801	0.0179414
728.879	0.0179997
728.957	0.0179237
729.035	0.0180038
729.113	0.0181110
729.191	0.0179009
729.269	0.0181556
729.348	0.0180267
729.426	0.0180547
729.504	0.0179997
729.582	0.0179878
729.660	0.0180592
729.738	0.0180637
729.816	0.0181328
729.894	0.0181470
729.973	0.0182838
730.051	0.0182305
730.129	0.0182533
730.207	0.0181976
730.285	0.0183349
730.363	0.0183822
730.441	0.0183118
730.519	0.0183588
730.598	0.0183807
730.676	0.0182131
730.754	0.0180370
730.832	0.0181155
730.910	0.0181428
730.988	0.0180622
731.066	0.0178832
731.144	0.0179009
731.223	0.0180658
731.301	0.0178723
731.379	0.0178516
731.457	0.0178690
731.535	0.0179222
731.613	0.0176678
731.691	0.0176643
731.769	0.0178340
731.848	0.0177505
731.926	0.0177818
732.004	0.0178082
732.082	0.0178019
732.160	0.0178980
732.238	0.0179521
732.316	0.0178941
732.394	0.0178399
732.473	0.0179920
732.551	0.0180326
732.629	0.0182221
732.707	0.0182793
732.785	0.0181542
732.863	0.0182689
732.941	0.0184563
733.019	0.0182665
733.098	0.0184193
733.176	0.0183663
733.254	0.0183537
733.332	0.0181793
733.410	0.0182283
733.488	0.0182851
733.566	0.0181927
733.644	0.0182224
733.723	0.0181469
733.801	0.0181703
733.879	0.0180369
733.957	0.0180360
734.035	0.0179286
734.113	0.0178722
734.191	0.0180634
734.269	0.0180309
734.348	0.0180114
734.426	0.0179159
734.504	0.0181211
734.582	0.0180942
734.660	0.0181469
734.738	0.0181776
734.816	0.0182793
734.894	0.0182012
734.973	0.0182220
735.051	0.0182409
735.129	0.0183125
735.207	0.0184049
735.285	0.0182400
735.363	0.0182256
735.441	0.0181728
735.519	0.0182330
735.598	0.0180185
735.676	0.0181646
735.754	0.0182409
735.832	0.0181760
735.910	0.0180849
735.988	0.0180749
736.066	0.0181877
736.144	0.0181653
736.223	0.0181989
736.301	0.0181404
736.379	0.0181050
736.457	0.0182701
736.535	0.0181719
736.613	0.0181709
736.691	0.0180256
736.769	0.0182807
736.848	0.0184651
736.926	0.0183583
737.004	0.0183340
737.082	0.0183571
737.160	0.0185009
737.238	0.0184587
737.316	0.0184032
737.394	0.0183681
737.473	0.0184127
737.551	0.0182707
737.629	0.0182966
737.707	0.0182607
737.785	0.0181676
737.863	0.0181786
737.941	0.0181643
738.019	0.0180289
738.098	0.0179581
738.176	0.0179388
738.254	0.0178813
738.332	0.0178323
738.410	0.0178851
738.488	0.0178349
738.566	0.0178268
738.644	0.0178884
738.723	0.0178835
738.801	0.0178358
738.879	0.0178338
738.957	0.0178800
739.035	0.0179117
739.113	0.0179549
739.191	0.0180958
739.269	0.0180502
739.348	0.0181993
739.426	0.0182178
739.504	0.0181135
739.582	0.0181697
739.660	0.0182883
739.738	0.0183170
739.816	0.0182420
739.894	0.0183563
739.973	0.0184303
740.051	0.0182889
740.129	0.0182717
740.207	0.0184447
740.285	0.0183203
740.363	0.0185023
740.441	0.0185065
740.519	0.0183724
740.598	0.0184703
740.676	0.0183737
740.754	0.0183980
740.832	0.0184512
740.910	0.0182475
740.988	0.0183833
741.066	0.0183622
741.144	0.0184362
741.223	0.0182117
741.301	0.0183636
741.379	0.0182601
741.457	0.0184048
741.535	0.0183655
741.613	0.0183092
741.691	0.0182407
741.769	0.0183947
741.848	0.0184569
741.926	0.0182652
742.004	0.0182046
742.082	0.0182501
742.160	0.0182231
742.238	0.0182420
742.316	0.0180724
742.394	0.0179992
742.473	0.0179620
742.551	0.0180415
742.629	0.0180217
742.707	0.0179318
742.785	0.0179996
742.863	0.0180120
742.941	0.0179975
743.019	0.0180792
743.098	0.0180103
743.176	0.0179540
743.254	0.0180998
743.332	0.0180116
743.410	0.0178752
743.488	0.0181448
743.566	0.0182570
743.644	0.0181397
743.723	0.0182172
743.801	0.0183173
743.879	0.0181059
743.957	0.0182590
744.035	0.0182455
744.113	0.0183360
744.191	0.0183265
744.269	0.0181876
744.348	0.0183768
744.426	0.0183825
744.504	0.0184175
744.582	0.0183463
744.660	0.0183581
744.738	0.0184002
744.816	0.0183160
744.894	0.0181916
744.973	0.0182339
745.051	0.0182526
745.129	0.0181202
745.207	0.0180207
745.285	0.0180667
745.363	0.0180352
745.441	0.0177324
745.519	0.0178854
745.598	0.0178791
745.676	0.0176841
745.754	0.0178979
745.832	0.0178783
745.910	0.0177350
745.988	0.0178028
746.066	0.0177541
746.144	0.0179012
746.223	0.0179803
746.301	0.0177798
746.379	0.0180733
746.457	0.0179657
746.535	0.0180013
746.613	0.0179762
746.691	0.0179842
746.769	0.0180135
746.848	0.0179821
746.926	0.0180251
747.004	0.0179637
747.082	0.0179723
747.160	0.0180760
747.238	0.0181782
747.316	0.0182154
747.394	0.0181622
747.473	0.0181808
747.551	0.0182256
747.629	0.0183520
747.707	0.0183932
747.785	0.0183521
747.863	0.0184696
747.941	0.0185749
748.019	0.0185896
748.098	0.0186607
748.176	0.0185402
748.254	0.0184970
748.332	0.0185323
748.410	0.0184025
748.488	0.0183784
748.566	0.0185328
748.644	0.0184922
748.723	0.0182776
748.801	0.0182300
748.879	0.0182729
748.957	0.0181899
749.035	0.0181066
749.113	0.0180211
749.191	0.0180103
749.269	0.0178822
749.348	0.0179720
749.426	0.0179467
749.504	0.0178707
749.582	0.0177789
749.660	0.0177634
749.738	0.0177818
749.816	0.0178062
749.894	0.0178412
749.973	0.0178677
750.051	0.0179065
750.129	0.0179333
750.207	0.0179069
750.285	0.0180650
750.363	0.0179907
750.441	0.0180576
750.519	0.0179470
750.598	0.0181030
750.676	0.0180386
750.754	0.0179575
750.832	0.0180206
750.910	0.0181601
750.988	0.0181364
751.066	0.0182066
751.144	0.0181420
751.223	0.0181587
751.301	0.0182004
751.379	0.0181966
751.457	0.0182713
751.535	0.0183849
751.613	0.0182885
751.691	0.0182443
751.769	0.0182604
751.848	0.0182858
751.926	0.0183124
752.004	0.0183271
752.082	0.0181683
752.160	0.0182868
752.238	0.0181762
752.316	0.0182613
752.394	0.0182950
752.473	0.0182582
752.551	0.0182442
752.629	0.0182208
752.707	0.0184229
752.785	0.0182713
752.863	0.0182015
752.941	0.0182861
753.019	0.0182468
753.098	0.0183596
753.176	0.0182733
753.254	0.0182172
753.332	0.0183570
753.410	0.0183265
753.488	0.0182376
753.566	0.0182925
753.644	0.0182757
753.723	0.0183694
753.801	0.0183806
753.879	0.0182666
753.957	0.0183243
754.035	0.0184033
754.113	0.0183070
754.191	0.0182522
754.269	0.0182909
754.348	0.0184869
754.426	0.0182327
754.504	0.0181953
754.582	0.0184463
754.660	0.0183610
754.738	0.0182429
754.816	0.0183130
754.894	0.0185225
754.973	0.0184761
755.051	0.0183021
755.129	0.0184657
755.207	0.0186163
755.285	0.0185937
755.363	0.0184929
755.441	0.0185634
755.519	0.0186082
755.598	0.0184866
755.676	0.0185789
755.754	0.0183351
755.832	0.0184306
755.910	0.0184997
755.988	0.0184764
756.066	0.0182098
756.144	0.0182864
756.223	0.0184415
756.301	0.0182471
756.379	0.0182040
756.457	0.0181936
756.535	0.0182639
756.613	0.0181469
756.691	0.0181786
756.769	0.0182526
756.848	0.0182310
756.926	0.0182446
757.004	0.0180539
757.082	0.0181812
757.160	0.0182396
757.238	0.0182870
757.316	0.0183488
757.394	0.0183406
757.473	0.0182634
757.551	0.0184049
757.629	0.0183956
757.707	0.0183982
757.785	0.0184236
757.863	0.0184291
757.941	0.0185521
758.019	0.0186500
758.098	0.0185629
758.176	0.0186398
758.254	0.0183967
758.332	0.0185120
758.410	0.0182993
758.488	0.0181839
758.566	0.0181834
758.644	0.0182410
758.723	0.0180895
758.801	0.0180747
758.879	0.0180424
758.957	0.0180582
759.035	0.0179478
759.113	0.0178871
759.191	0.0178329
759.269	0.0178979
759.348	0.0179594
759.426	0.0180218
759.504	0.0181200
759.582	0.0181720
759.660	0.0181798
759.738	0.0181897
759.816	0.0183975
759.894	0.0183593
759.973	0.0183823
760.051	0.0182640
760.129	0.0184865
760.207	0.0185040
760.285	0.0187237
760.363	0.0185400
760.441	0.0185286
760.519	0.0185644
760.598	0.0183657
760.676	0.0184680
760.754	0.0185978
760.832	0.0185548
760.910	0.0184504
760.988	0.0184051
761.066	0.0185622
761.144	0.0184538
761.223	0.0184489
761.301	0.0184079
761.379	0.0185130
761.457	0.0185188
761.535	0.0183140
761.613	0.0182690
761.691	0.0181921
761.769	0.0181294
761.848	0.0181297
761.926	0.0179700
762.004	0.0177925
762.082	0.0179189
762.160	0.0179268
762.238	0.0178660
762.316	0.0179212
762.394	0.0179137
762.473	0.0179792
762.551	0.0179617
762.629	0.0178311
762.707	0.0181311
762.785	0.0181331
762.863	0.0180527
762.941	0.0180326
763.019	0.0181102
763.098	0.0181438
763.176	0.0181303
763.254	0.0181340
763.332	0.0183086
763.410	0.0181747
763.488	0.0182361
763.566	0.0181921
763.644	0.0183454
763.723	0.0181982
763.801	0.0181842
763.879	0.0181964
763.957	0.0183610
764.035	0.0183430
764.113	0.0184620
764.191	0.0184131
764.269	0.0184380
764.348	0.0185446
764.426	0.0186239
764.504	0.0185738
764.582	0.0185980
764.660	0.0185722
764.738	0.0186349
764.816	0.0186598
764.894	0.0184633
764.973	0.0185209
765.051	0.0185986
765.129	0.0186244
765.207	0.0186076
765.285	0.0185233
765.363	0.0185493
765.441	0.0185275
765.519	0.0183283
765.598	0.0182676
765.676	0.0184595
765.754	0.0183471
765.832	0.0183870
765.910	0.0182945
765.988	0.0183720
766.066	0.0183204
766.144	0.0182368
766.223	0.0182268
766.301	0.0183070
766.379	0.0181483
766.457	0.0181534
766.535	0.0180636
766.613	0.0180729
766.691	0.0181203
766.769	0.0179344
766.848	0.0180176
766.926	0.0181666
767.004	0.0180096
767.082	0.0180582
767.160	0.0180503
767.238	0.0181435
767.316	0.0181338
767.394	0.0181242
767.473	0.0180385
767.551	0.0181080
767.629	0.0180241
767.707	0.0182459
767.785	0.0182126
767.863	0.0181566
767.941	0.0182633
768.019	0.0181424
768.098	0.0182363
768.176	0.0180566
768.254	0.0180449
768.332	0.0180263
768.410	0.0181600
768.488	0.0180316
768.566	0.0181266
768.644	0.0181105
768.723	0.0181107
768.801	0.0180372
768.879	0.0180886
768.957	0.0180392
769.035	0.0180881
769.113	0.0181272
769.191	0.0181615
769.269	0.0181639
769.348	0.0181732
769.426	0.0180968
769.504	0.0180286
769.582	0.0180186
769.660	0.0181123
769.738	0.0180318
769.816	0.0180724
769.894	0.0181940
769.973	0.0180909
770.051	0.0179477
770.129	0.0180665
770.207	0.0178954
770.285	0.0179802
770.363	0.0179203
770.441	0.0179286
770.519	0.0179190
770.598	0.0178726
770.676	0.0178442
770.754	0.0177912
770.832	0.0179942
770.910	0.0177686
770.988	0.0177171
771.066	0.0177614
771.144	0.0178472
771.223	0.0178617
771.301	0.0178584
771.379	0.0178374
771.457	0.0180446
771.535	0.0179012
771.613	0.0179929
771.691	0.0180161
771.769	0.0180871
771.848	0.0180090
771.926	0.0180128
772.004	0.0181145
772.082	0.0182242
772.160	0.0181995
772.238	0.0181840
772.316	0.0182095
772.394	0.0181789
772.473	0.0182985
772.551	0.0182555
772.629	0.0184166
772.707	0.0181738
772.785	0.0183116
772.863	0.0181760
772.941	0.0182286
773.019	0.0181956
773.098	0.0182952
773.176	0.0183501
773.254	0.0183191
773.332	0.0181554
773.410	0.0182774
773.488	0.0182932
773.566	0.0181981
773.644	0.0182584
773.723	0.0181889
773.801	0.0182622
773.879	0.0181312
773.957	0.0180180
774.035	0.0181082
774.113	0.0182088
774.191	0.0181913
774.269	0.0181689
774.348	0.0180356
774.426	0.0180901
774.504	0.0182349
774.582	0.0180473
774.660	0.0179710
774.738	0.0182060
774.816	0.0180421
774.894	0.0180893
774.973	0.0182571
775.051	0.0182706
775.129	0.0182110
775.207	0.0182227
775.285	0.0182838
775.363	0.0182597
775.441	0.0182245
775.519	0.0183145
775.598	0.0183393
775.676	0.0183454
775.754	0.0183054
775.832	0.0184203
775.910	0.0183584
775.988	0.0183833
776.066	0.0183666
776.144	0.0182938
776.223	0.0182835
776.301	0.0183406
776.379	0.0183723
776.457	0.0183554
776.535	0.0182906
776.613	0.0182695
776.691	0.0182730
776.769	0.0182176
776.848	0.0181178
776.926	0.0181833
777.004	0.0182426
777.082	0.0181616
777.160	0.0181258
777.238	0.0181541
777.316	0.0181434
777.394	0.0181390
777.473	0.0181245
777.551	0.0182441
777.629	0.0182061
777.707	0.0181660
777.785	0.0181969
777.863	0.0182223
777.941	0.0180808
778.019	0.0182263
778.098	0.0181806
778.176	0.0181719
778.254	0.0182670
778.332	0.0181860
778.410	0.0183888
778.488	0.0182327
778.566	0.0181374
778.644	0.0182517
778.723	0.0181709
778.801	0.0181918
778.879	0.0180630
778.957	0.0180974
779.035	0.0180788
779.113	0.0181377
779.191	0.0181445
779.269	0.0181335
779.348	0.0182536
779.426	0.0183017
779.504	0.0180861
779.582	0.0181796
779.660	0.0183434
779.738	0.0182999
779.816	0.0182653
779.894	0.0182114
779.973	0.0182932
780.051	0.0182180
780.129	0.0182139
780.207	0.0182728
780.285	0.0183336
780.363	0.0181413
780.441	0.0181422
780.519	0.0183758
780.598	0.0183260
780.676	0.0183281
780.754	0.0182238
780.832	0.0182191
780.910	0.0182505
780.988	0.0181942
781.066	0.0181532
781.144	0.0181420
781.223	0.0180917
781.301	0.0180846
781.379	0.0180666
781.457	0.0180224
781.535	0.0179951
781.613	0.0182365
781.691	0.0179443
781.769	0.0179530
781.848	0.0179690
781.926	0.0180657
782.004	0.0180696
782.082	0.0180804
782.160	0.0180645
782.238	0.0180572
782.316	0.0180001
782.394	0.0181301
782.473	0.0180813
782.551	0.0180093
782.629	0.0181835
782.707	0.0181429
782.785	0.0181625
782.863	0.0182222
782.941	0.0182580
783.019	0.0182537
783.098	0.0183290
783.176	0.0182654
783.254	0.0182621
783.332	0.0183823
783.410	0.0183984
783.488	0.0182416
783.566	0.0182678
783.644	0.0182448
783.723	0.0181461
783.801	0.0183269
783.879	0.0181703
783.957	0.0182522
784.035	0.0182301
784.113	0.0182518
784.191	0.0181905
784.269	0.0182113
784.348	0.0182829
784.426	0.0181837
784.504	0.0184136
784.582	0.0183000
784.660	0.0184182
784.738	0.0182610
784.816	0.0181366
784.894	0.0184399
784.973	0.0183467
785.051	0.0183813
785.129	0.0183487
785.207	0.0185047
785.285	0.0183902
785.363	0.0183771
785.441	0.0183395
785.519	0.0185069
785.598	0.0183398
785.676	0.0184079
785.754	0.0183108
785.832	0.0184481
785.910	0.0182307
785.988	0.0182682
786.066	0.0182018
786.144	0.0181718
786.223	0.0182492
786.301	0.0182115
786.379	0.0181455
786.457	0.0182254
786.535	0.0180922
786.613	0.0180334
786.691	0.0180788
786.769	0.0182453
786.848	0.0182206
786.926	0.0179973
787.004	0.0181277
787.082	0.0181641
787.160	0.0179018
787.238	0.0180141
787.316	0.0181742
787.394	0.0180376
787.473	0.0180511
787.551	0.0180276
787.629	0.0181670
787.707	0.0180006
787.785	0.0180795
787.863	0.0180981
787.941	0.0181414
788.019	0.0182236
788.098	0.0183485
788.176	0.0181822
788.254	0.0182922
788.332	0.0182420
788.410	0.0182033
788.488	0.0182873
788.566	0.0182291
788.644	0.0182207
788.723	0.0183406
788.801	0.0183814
788.879	0.0181710
788.957	0.0181651
789.035	0.0183447
789.113	0.0182996
789.191	0.0182983
789.269	0.0183090
789.348	0.0181482
789.426	0.0181947
789.504	0.0182027
789.582	0.0181382
789.660	0.0183115
789.738	0.0182033
789.816	0.0181349
789.894	0.0179966
789.973	0.0181544
790.051	0.0182390
790.129	0.0181406
790.207	0.0180134
790.285	0.0179704
790.363	0.0180717
790.441	0.0181402
790.519	0.0180704
790.598	0.0181747
790.676	0.0181062
790.754	0.0181269
790.832	0.0182048
790.910	0.0181250
790.988	0.0181094
791.066	0.0180907
791.144	0.0181233
791.223	0.0181693
791.301	0.0181090
791.379	0.0180465
791.457	0.0182161
791.535	0.0182121
791.613	0.0179969
791.691	0.0179572
791.769	0.0180222
791.848	0.0180598
791.926	0.0179042
792.004	0.0180160
792.082	0.0180657
792.160	0.0180714
792.238	0.0179343
792.316	0.0180515
792.394	0.0180396
792.473	0.0180043
792.551	0.0179742
792.629	0.0180359
792.707	0.0179778
792.785	0.0181018
792.863	0.0180934
792.941	0.0179512
793.019	0.0180561
793.098	0.0181210
793.176	0.0179786
793.254	0.0179991
793.332	0.0180437
793.410	0.0179602
793.488	0.0179948
793.566	0.0179863
793.644	0.0180233
793.723	0.0180580
793.801	0.0180416
793.879	0.0181311
793.957	0.0179429
794.035	0.0180515
794.113	0.0180110
794.191	0.0180527
794.269	0.0180271
794.348	0.0180305
794.426	0.0181015
794.504	0.0180978
794.582	0.0180466
794.660	0.0180718
794.738	0.0181122
794.816	0.0181113
794.894	0.0180935
794.973	0.0181318
795.051	0.0181158
795.129	0.0181577
795.207	0.0181631
795.285	0.0180262
795.363	0.0181533
795.441	0.0180494
795.519	0.0180336
795.598	0.0181182
795.676	0.0182277
795.754	0.0180698
795.832	0.0181936
795.910	0.0179955
795.988	0.0180653
796.066	0.0181049
796.144	0.0181171
796.223	0.0181497
796.301	0.0181822
796.379	0.0181373
796.457	0.0181187
796.535	0.0181910
796.613	0.0180846
796.691	0.0182104
796.769	0.0181280
796.848	0.0181773
796.926	0.0182127
797.004	0.0181649
797.082	0.0183559
797.160	0.0182553
797.238	0.0183195
797.316	0.0182157
797.394	0.0183257
797.473	0.0182504
797.551	0.0182720
797.629	0.0182355
797.707	0.0182278
797.785	0.0182160
797.863	0.0180508
797.941	0.0181779
798.019	0.0182329
798.098	0.0180726
798.176	0.0181283
798.254	0.0181207
798.332	0.0180563
798.410	0.0180092
798.488	0.0181096
798.566	0.0182772
798.644	0.0181712
798.723	0.0180931
798.801	0.0181081
798.879	0.0180682
798.957	0.0182002
799.035	0.0181129
799.113	0.0181654
799.191	0.0181378
799.269	0.0180963
799.348	0.0182068
799.426	0.0181667
799.504	0.0181437
799.582	0.0180415
799.660	0.0180904
799.738	0.0181832
799.816	0.0181013
799.894	0.0180175
799.973	0.0181894
800.051	0.0180453
800.129	0.0180877
800.207	0.0180759
800.285	0.0181202
800.363	0.0181190
800.441	0.0181236
800.519	0.0180609
800.598	0.0180905
800.676	0.0180283
800.754	0.0181042
800.832	0.0181166
800.910	0.0182277
800.988	0.0182281
801.066	0.0181561
801.144	0.0180874
801.223	0.0182077
801.301	0.0182819
801.379	0.0183491
801.457	0.0182514
801.535	0.0183799
801.613	0.0182975
801.691	0.0181134
801.769	0.0182163
801.848	0.0181426
801.926	0.0182455
802.004	0.0182126
802.082	0.0181731
802.160	0.0181590
802.238	0.0182481
802.316	0.0181648
802.394	0.0180103
802.473	0.0181618
802.551	0.0181159
802.629	0.0179540
802.707	0.0180952
802.785	0.0181366
802.863	0.0181042
802.941	0.0181908
803.019	0.0181521
803.098	0.0182369
803.176	0.0181541
803.254	0.0181882
803.332	0.0180643
803.410	0.0181709
803.488	0.0181561
803.566	0.0181400
803.644	0.0179887
803.723	0.0182659
803.801	0.0181605
803.879	0.0181057
803.957	0.0180959
804.035	0.0180504
804.113	0.0182206
804.191	0.0181657
804.269	0.0181247
804.348	0.0181075
804.426	0.0182506
804.504	0.0181287
804.582	0.0180866
804.660	0.0182166
804.738	0.0181833
804.816	0.0181129
804.894	0.0181441
804.973	0.0181750
805.051	0.0181456
805.129	0.0181039
805.207	0.0181068
805.285	0.0181593
805.363	0.0181187
805.441	0.0181489
805.519	0.0182020
805.598	0.0180063
805.676	0.0180965
805.754	0.0181198
805.832	0.0181877
805.910	0.0181728
805.988	0.0181393
806.066	0.0178794
806.144	0.0179621
806.223	0.0180255
806.301	0.0181602
806.379	0.0180859
806.457	0.0180984
806.535	0.0180757
806.613	0.0181728
806.691	0.0179873
806.769	0.0180997
806.848	0.0181078
806.926	0.0181080
807.004	0.0180946
807.082	0.0179771
807.160	0.0180530
807.238	0.0179677
807.316	0.0179726
807.394	0.0179895
807.473	0.0180247
807.551	0.0180375
807.629	0.0180904
807.707	0.0180752
807.785	0.0180194
807.863	0.0180700
807.941	0.0181464
808.019	0.0179889
808.098	0.0181229
808.176	0.0182821
808.254	0.0181606
808.332	0.0181387
808.410	0.0181855
808.488	0.0182960
808.566	0.0182183
808.644	0.0183489
808.723	0.0181880
808.801	0.0181432
808.879	0.0182735
808.957	0.0183700
809.035	0.0180643
809.113	0.0181962
809.191	0.0182594
809.269	0.0181921
809.348	0.0182266
809.426	0.0181786
809.504	0.0181693
809.582	0.0183031
809.660	0.0181426
809.738	0.0180035
809.816	0.0181696
809.894	0.0180792
809.973	0.0181525
810.051	0.0181713
810.129	0.0181597
810.207	0.0180992
810.285	0.0180782
810.363	0.0179768
810.441	0.0180715
810.519	0.0180891
810.598	0.0178954
810.676	0.0179600
810.754	0.0180698
810.832	0.0181152
810.910	0.0179978
810.988	0.0180935
811.066	0.0179601
811.144	0.0179998
811.223	0.0181067
811.301	0.0180721
811.379	0.0180350
811.457	0.0180383
811.535	0.0179601
811.613	0.0180713
811.691	0.0179635
811.769	0.0181361
811.848	0.0181544
811.926	0.0180563
812.004	0.0180663
812.082	0.0181213
812.160	0.0181617
812.238	0.0180270
812.316	0.0180051
812.394	0.0182011
812.473	0.0180983
812.551	0.0180544
812.629	0.0181190
812.707	0.0181042
812.785	0.0182358
812.863	0.0180465
812.941	0.0180069
813.019	0.0179143
813.098	0.0180063
813.176	0.0180275
813.254	0.0179998
813.332	0.0180209
813.410	0.0178916
813.488	0.0178727
813.566	0.0180624
813.644	0.0179779
813.723	0.0180001
813.801	0.0180549
813.879	0.0181006
813.957	0.0181605
814.035	0.0180866
814.113	0.0179243
814.191	0.0180785
814.269	0.0182098
814.348	0.0179848
814.426	0.0180880
814.504	0.0180766
814.582	0.0181941
814.660	0.0181502
814.738	0.0181754
814.816	0.0181540
814.894	0.0181275
814.973	0.0180965
815.051	0.0181062
815.129	0.0180330
815.207	0.0182492
815.285	0.0182455
815.363	0.0181550
815.441	0.0182437
815.519	0.0182529
815.598	0.0181624
815.676	0.0181049
815.754	0.0181002
815.832	0.0181416
815.910	0.0182523
815.988	0.0181633
816.066	0.0181445
816.144	0.0181067
816.223	0.0181449
816.301	0.0181749
816.379	0.0181517
816.457	0.0182500
816.535	0.0182420
816.613	0.0181577
816.691	0.0182369
816.769	0.0183392
816.848	0.0184081
816.926	0.0182137
817.004	0.0183676
817.082	0.0183231
817.160	0.0184521
817.238	0.0183241
817.316	0.0183382
817.394	0.0183469
817.473	0.0184297
817.551	0.0184458
817.629	0.0183297
817.707	0.0182639
817.785	0.0184343
817.863	0.0183636
817.941	0.0183619
818.019	0.0182236
818.098	0.0184582
818.176	0.0183872
818.254	0.0182671
818.332	0.0182725
818.410	0.0182769
818.488	0.0182515
818.566	0.0182142
818.644	0.0182669
818.723	0.0183162
818.801	0.0181444
818.879	0.0182040
818.957	0.0182610
819.035	0.0182557
819.113	0.0182648
819.191	0.0182669
819.269	0.0181116
819.348	0.0181354
819.426	0.0180634
819.504	0.0182434
819.582	0.0183945
819.660	0.0182850
819.738	0.0181464
819.816	0.0181601
819.894	0.0182732
