06/03/2022	18:45:10	Ver.	4.1	UNKNOWN
Optical Delay	499.972551	Delta X		0.078125	Sweeps	1	Scan Rate	0/0
Coordinates	Axis 1	NaN	Axis 2	NaN	Axis 3	NaN	Axis 4	NaN	Axis 5	NaN	Axis 6	0.000000
TX Power	0.000000	RX Power	0.000000

499.973	0.0180928
500.051	0.0182390
500.129	0.0181297
500.207	0.0181612
500.285	0.0182483
500.363	0.0181985
500.441	0.0181659
500.519	0.0181882
500.598	0.0181612
500.676	0.0181886
500.754	0.0181203
500.832	0.0180715
500.910	0.0180814
500.988	0.0182355
501.066	0.0181413
501.144	0.0181673
501.223	0.0181993
501.301	0.0181544
501.379	0.0182415
501.457	0.0181966
501.535	0.0182317
501.613	0.0180810
501.691	0.0181411
501.769	0.0180978
501.848	0.0181851
501.926	0.0182256
502.004	0.0181666
502.082	0.0182710
502.160	0.0182856
502.238	0.0182774
502.316	0.0181903
502.394	0.0181618
502.473	0.0181213
502.551	0.0182687
502.629	0.0182240
502.707	0.0182806
502.785	0.0182208
502.863	0.0181316
502.941	0.0181413
503.019	0.0181143
503.098	0.0182473
503.176	0.0181622
503.254	0.0182117
503.332	0.0181564
503.410	0.0181663
503.488	0.0181818
503.566	0.0181731
503.644	0.0182466
503.723	0.0181133
503.801	0.0182249
503.879	0.0181565
503.957	0.0180414
504.035	0.0180517
504.113	0.0180319
504.191	0.0180702
504.269	0.0181672
504.348	0.0179520
504.426	0.0180122
504.504	0.0181546
504.582	0.0181455
504.660	0.0180416
504.738	0.0179929
504.816	0.0179456
504.894	0.0180050
504.973	0.0179417
505.051	0.0178741
505.129	0.0179988
505.207	0.0179415
505.285	0.0179417
505.363	0.0179258
505.441	0.0181341
505.519	0.0179513
505.598	0.0178710
505.676	0.0179803
505.754	0.0179792
505.832	0.0179926
505.910	0.0177975
505.988	0.0180084
506.066	0.0179596
506.144	0.0179944
506.223	0.0179722
506.301	0.0178060
506.379	0.0179498
506.457	0.0180620
506.535	0.0179835
506.613	0.0179184
506.691	0.0179453
506.769	0.0178920
506.848	0.0180268
506.926	0.0179385
507.004	0.0177561
507.082	0.0178154
507.160	0.0179610
507.238	0.0178318
507.316	0.0178397
507.394	0.0180294
507.473	0.0178476
507.551	0.0178761
507.629	0.0179288
507.707	0.0178640
507.785	0.0179405
507.863	0.0178683
507.941	0.0179174
508.019	0.0178500
508.098	0.0179451
508.176	0.0177409
508.254	0.0178728
508.332	0.0178822
508.410	0.0177947
508.488	0.0177798
508.566	0.0179043
508.644	0.0177728
508.723	0.0177194
508.801	0.0178253
508.879	0.0178181
508.957	0.0177711
509.035	0.0176694
509.113	0.0176895
509.191	0.0177360
509.269	0.0178033
509.348	0.0178800
509.426	0.0177382
509.504	0.0176944
509.582	0.0177052
509.660	0.0176478
509.738	0.0177048
509.816	0.0177856
509.894	0.0177309
509.973	0.0177297
510.051	0.0176963
510.129	0.0177080
510.207	0.0177418
510.285	0.0177367
510.363	0.0177531
510.441	0.0178062
510.519	0.0176875
510.598	0.0176924
510.676	0.0176658
510.754	0.0178342
510.832	0.0177444
510.910	0.0177514
510.988	0.0176926
511.066	0.0176632
511.144	0.0177247
511.223	0.0177612
511.301	0.0176499
511.379	0.0176284
511.457	0.0177531
511.535	0.0177650
511.613	0.0175397
511.691	0.0175245
511.769	0.0176151
511.848	0.0175787
511.926	0.0176555
512.004	0.0175762
512.082	0.0176079
512.160	0.0175143
512.238	0.0176447
512.316	0.0176284
512.394	0.0175101
512.473	0.0175887
512.551	0.0175412
512.629	0.0174860
512.707	0.0176169
512.785	0.0176202
512.863	0.0175475
512.941	0.0175428
513.019	0.0175896
513.098	0.0175451
513.176	0.0176262
513.254	0.0173536
513.332	0.0176576
513.410	0.0178111
513.488	0.0176853
513.566	0.0176566
513.644	0.0176595
513.723	0.0177729
513.801	0.0177155
513.879	0.0177431
513.957	0.0176611
514.035	0.0178646
514.113	0.0178923
514.191	0.0177735
514.269	0.0177026
514.348	0.0177953
514.426	0.0178169
514.504	0.0177827
514.582	0.0178265
514.660	0.0177825
514.738	0.0178075
514.816	0.0177956
514.894	0.0179249
514.973	0.0178199
515.051	0.0178826
515.129	0.0178233
515.207	0.0179840
515.285	0.0179537
515.363	0.0179549
515.441	0.0179436
515.519	0.0178769
515.598	0.0180562
515.676	0.0180135
515.754	0.0180937
515.832	0.0180507
515.910	0.0181749
515.988	0.0179825
516.066	0.0180941
516.144	0.0181241
516.223	0.0181619
516.301	0.0180744
516.379	0.0181671
516.457	0.0182900
516.535	0.0183066
516.613	0.0183617
516.691	0.0183705
516.769	0.0183736
516.848	0.0185368
516.926	0.0183427
517.004	0.0183398
517.082	0.0183319
517.160	0.0184599
517.238	0.0184465
517.316	0.0184086
517.394	0.0184599
517.473	0.0185159
517.551	0.0183954
517.629	0.0185652
517.707	0.0185357
517.785	0.0185114
517.863	0.0184102
517.941	0.0184496
518.019	0.0183759
518.098	0.0184693
518.176	0.0184347
518.254	0.0184653
518.332	0.0185657
518.410	0.0184598
518.488	0.0184142
518.566	0.0183991
518.644	0.0184860
518.723	0.0182629
518.801	0.0182641
518.879	0.0182909
518.957	0.0181853
519.035	0.0183087
519.113	0.0182030
519.191	0.0183136
519.269	0.0181540
519.348	0.0181169
519.426	0.0180040
519.504	0.0181119
519.582	0.0181306
519.660	0.0182019
519.738	0.0180690
519.816	0.0179828
519.894	0.0180880
519.973	0.0180849
520.051	0.0180715
520.129	0.0180311
520.207	0.0181850
520.285	0.0181998
520.363	0.0180545
520.441	0.0180564
520.519	0.0180386
520.598	0.0180919
520.676	0.0181660
520.754	0.0179604
520.832	0.0180483
520.910	0.0180210
520.988	0.0179932
521.066	0.0180129
521.144	0.0179590
521.223	0.0178960
521.301	0.0179121
521.379	0.0179861
521.457	0.0178824
521.535	0.0178987
521.613	0.0179600
521.691	0.0179100
521.769	0.0178168
521.848	0.0179379
521.926	0.0179072
522.004	0.0179587
522.082	0.0178185
522.160	0.0178026
522.238	0.0179467
522.316	0.0179560
522.394	0.0178947
522.473	0.0178516
522.551	0.0179007
522.629	0.0177881
522.707	0.0179732
522.785	0.0178315
522.863	0.0178353
522.941	0.0178093
523.019	0.0179450
523.098	0.0179005
523.176	0.0179728
523.254	0.0178828
523.332	0.0178117
523.410	0.0179652
523.488	0.0178532
523.566	0.0179034
523.644	0.0177535
523.723	0.0178206
523.801	0.0179878
523.879	0.0179214
523.957	0.0178728
524.035	0.0179029
524.113	0.0178912
524.191	0.0177825
524.269	0.0178859
524.348	0.0179044
524.426	0.0178757
524.504	0.0179031
524.582	0.0178325
524.660	0.0179448
524.738	0.0178218
524.816	0.0178777
524.894	0.0179394
524.973	0.0179723
525.051	0.0179491
525.129	0.0179276
525.207	0.0180732
525.285	0.0180111
525.363	0.0179798
525.441	0.0181000
525.519	0.0180328
525.598	0.0181153
525.676	0.0179430
525.754	0.0181743
525.832	0.0180049
525.910	0.0180000
525.988	0.0182010
526.066	0.0181328
526.144	0.0182397
526.223	0.0184019
526.301	0.0181512
526.379	0.0180468
526.457	0.0180798
526.535	0.0181860
526.613	0.0183310
526.691	0.0181664
526.769	0.0181912
526.848	0.0182619
526.926	0.0183547
527.004	0.0182525
527.082	0.0182990
527.160	0.0183736
527.238	0.0183598
527.316	0.0182589
527.394	0.0183033
527.473	0.0183735
527.551	0.0183324
527.629	0.0183143
527.707	0.0182578
527.785	0.0182887
527.863	0.0182177
527.941	0.0183248
528.019	0.0181785
528.098	0.0182190
528.176	0.0181596
528.254	0.0181359
528.332	0.0182341
528.410	0.0182249
528.488	0.0181541
528.566	0.0182150
528.644	0.0180737
528.723	0.0180774
528.801	0.0179490
528.879	0.0181467
528.957	0.0182072
529.035	0.0181202
529.113	0.0181373
529.191	0.0181018
529.269	0.0179887
529.348	0.0179981
529.426	0.0180424
529.504	0.0179459
529.582	0.0180370
529.660	0.0180719
529.738	0.0177963
529.816	0.0178968
529.894	0.0179802
529.973	0.0180379
530.051	0.0179340
530.129	0.0178961
530.207	0.0177874
530.285	0.0178657
530.363	0.0178526
530.441	0.0179000
530.519	0.0177670
530.598	0.0178135
530.676	0.0177905
530.754	0.0178644
530.832	0.0177753
530.910	0.0177557
530.988	0.0176206
531.066	0.0178462
531.144	0.0177738
531.223	0.0177460
531.301	0.0177525
531.379	0.0177343
531.457	0.0176810
531.535	0.0177229
531.613	0.0177488
531.691	0.0179778
531.769	0.0177567
531.848	0.0178256
531.926	0.0179227
532.004	0.0179917
532.082	0.0178342
532.160	0.0178993
532.238	0.0179468
532.316	0.0179790
532.394	0.0178825
532.473	0.0180405
532.551	0.0181048
532.629	0.0180267
532.707	0.0178343
532.785	0.0179812
532.863	0.0179987
532.941	0.0181249
533.019	0.0179702
533.098	0.0179005
533.176	0.0179546
533.254	0.0179804
533.332	0.0178940
533.410	0.0180279
533.488	0.0179678
533.566	0.0179476
533.644	0.0180291
533.723	0.0179214
533.801	0.0180014
533.879	0.0180440
533.957	0.0180204
534.035	0.0180299
534.113	0.0179941
534.191	0.0178585
534.269	0.0180400
534.348	0.0180438
534.426	0.0180447
534.504	0.0180510
534.582	0.0180936
534.660	0.0178925
534.738	0.0180320
534.816	0.0179366
534.894	0.0180405
534.973	0.0181199
535.051	0.0179540
535.129	0.0180499
535.207	0.0180752
535.285	0.0180253
535.363	0.0180473
535.441	0.0181226
535.519	0.0182208
535.598	0.0180658
535.676	0.0181400
535.754	0.0181613
535.832	0.0181163
535.910	0.0181776
535.988	0.0181525
536.066	0.0181423
536.144	0.0180486
536.223	0.0179612
536.301	0.0180378
536.379	0.0179997
536.457	0.0181741
536.535	0.0182172
536.613	0.0180730
536.691	0.0180009
536.769	0.0180679
536.848	0.0180354
536.926	0.0181604
537.004	0.0180920
537.082	0.0181074
537.160	0.0181448
537.238	0.0181126
537.316	0.0179567
537.394	0.0179372
537.473	0.0180153
537.551	0.0180208
537.629	0.0178893
537.707	0.0179212
537.785	0.0178897
537.863	0.0179247
537.941	0.0180807
538.019	0.0179436
538.098	0.0178943
538.176	0.0178279
538.254	0.0178839
538.332	0.0177948
538.410	0.0179053
538.488	0.0177505
538.566	0.0177679
538.644	0.0177325
538.723	0.0178139
538.801	0.0178381
538.879	0.0177740
538.957	0.0175659
539.035	0.0178682
539.113	0.0178241
539.191	0.0178381
539.269	0.0178529
539.348	0.0176853
539.426	0.0177703
539.504	0.0178615
539.582	0.0178558
539.660	0.0179377
539.738	0.0179388
539.816	0.0178980
539.894	0.0178258
539.973	0.0179666
540.051	0.0178704
540.129	0.0178613
540.207	0.0179034
540.285	0.0179152
540.363	0.0181197
540.441	0.0180994
540.519	0.0178767
540.598	0.0179756
540.676	0.0179564
540.754	0.0180306
540.832	0.0181219
540.910	0.0180931
540.988	0.0180112
541.066	0.0179716
541.144	0.0181245
541.223	0.0180099
541.301	0.0181257
541.379	0.0181692
541.457	0.0180188
541.535	0.0181498
541.613	0.0181936
541.691	0.0180923
541.769	0.0180584
541.848	0.0180521
541.926	0.0182140
542.004	0.0181089
542.082	0.0181617
542.160	0.0181701
542.238	0.0181402
542.316	0.0180487
542.394	0.0179871
542.473	0.0182435
542.551	0.0181099
542.629	0.0180502
542.707	0.0182588
542.785	0.0180744
542.863	0.0180004
542.941	0.0182735
543.019	0.0181169
543.098	0.0181045
543.176	0.0182320
543.254	0.0180998
543.332	0.0181767
543.410	0.0181399
543.488	0.0180969
543.566	0.0181686
543.644	0.0181086
543.723	0.0181564
543.801	0.0181374
543.879	0.0181600
543.957	0.0181695
544.035	0.0182092
544.113	0.0181065
544.191	0.0180792
544.269	0.0181921
544.348	0.0180740
544.426	0.0182502
544.504	0.0181815
544.582	0.0180425
544.660	0.0180575
544.738	0.0180043
544.816	0.0180450
544.894	0.0181375
544.973	0.0180872
545.051	0.0180702
545.129	0.0181444
545.207	0.0181392
545.285	0.0180901
545.363	0.0180670
545.441	0.0179156
545.519	0.0180396
545.598	0.0181016
545.676	0.0181272
545.754	0.0180799
545.832	0.0179892
545.910	0.0179379
545.988	0.0180628
546.066	0.0180932
546.144	0.0180985
546.223	0.0180551
546.301	0.0179880
546.379	0.0179944
546.457	0.0180325
546.535	0.0179510
546.613	0.0180505
546.691	0.0180519
546.769	0.0180775
546.848	0.0179708
546.926	0.0179885
547.004	0.0180404
547.082	0.0179941
547.160	0.0179868
547.238	0.0180183
547.316	0.0180067
547.394	0.0179518
547.473	0.0179608
547.551	0.0180135
547.629	0.0180545
547.707	0.0179580
547.785	0.0179460
547.863	0.0179287
547.941	0.0181100
548.019	0.0180147
548.098	0.0180894
548.176	0.0179689
548.254	0.0180551
548.332	0.0180416
548.410	0.0179916
548.488	0.0180766
548.566	0.0181252
548.644	0.0180641
548.723	0.0180573
548.801	0.0180675
548.879	0.0181830
548.957	0.0181718
549.035	0.0180426
549.113	0.0179971
549.191	0.0180441
549.269	0.0180018
549.348	0.0180615
549.426	0.0180556
549.504	0.0181100
549.582	0.0182079
549.660	0.0181010
549.738	0.0180608
549.816	0.0179099
549.894	0.0179443
549.973	0.0181619
550.051	0.0180637
550.129	0.0180994
550.207	0.0181052
550.285	0.0181611
550.363	0.0181598
550.441	0.0180080
550.519	0.0180350
550.598	0.0180006
550.676	0.0180252
550.754	0.0180474
550.832	0.0181528
550.910	0.0178004
550.988	0.0180442
551.066	0.0180898
551.144	0.0179246
551.223	0.0180528
551.301	0.0182304
551.379	0.0179370
551.457	0.0180317
551.535	0.0180575
551.613	0.0179471
551.691	0.0180592
551.769	0.0180449
551.848	0.0180840
551.926	0.0179793
552.004	0.0180456
552.082	0.0179303
552.160	0.0180174
552.238	0.0179501
552.316	0.0179161
552.394	0.0178923
552.473	0.0179336
552.551	0.0179517
552.629	0.0179236
552.707	0.0178928
552.785	0.0179662
552.863	0.0179776
552.941	0.0179583
553.019	0.0179079
553.098	0.0179692
553.176	0.0179991
553.254	0.0177396
553.332	0.0178645
553.410	0.0179575
553.488	0.0179327
553.566	0.0179717
553.644	0.0179619
553.723	0.0178422
553.801	0.0179594
553.879	0.0178592
553.957	0.0178706
554.035	0.0180724
554.113	0.0179456
554.191	0.0179462
554.269	0.0180673
554.348	0.0179916
554.426	0.0178861
554.504	0.0180650
554.582	0.0179868
554.660	0.0178216
554.738	0.0179456
554.816	0.0180328
554.894	0.0181087
554.973	0.0181413
555.051	0.0180574
555.129	0.0181335
555.207	0.0180949
555.285	0.0180152
555.363	0.0179784
555.441	0.0180802
555.519	0.0180073
555.598	0.0180328
555.676	0.0180592
555.754	0.0180849
555.832	0.0182806
555.910	0.0183125
555.988	0.0181481
556.066	0.0181894
556.144	0.0181417
556.223	0.0182351
556.301	0.0182070
556.379	0.0180139
556.457	0.0180898
556.535	0.0180893
556.613	0.0181850
556.691	0.0181229
556.769	0.0182427
556.848	0.0183176
556.926	0.0181681
557.004	0.0182539
557.082	0.0181631
557.160	0.0181303
557.238	0.0181136
557.316	0.0181751
557.394	0.0182403
557.473	0.0179845
557.551	0.0181554
557.629	0.0181355
557.707	0.0181528
557.785	0.0180608
557.863	0.0180958
557.941	0.0182090
558.019	0.0180116
558.098	0.0180939
558.176	0.0180579
558.254	0.0181607
558.332	0.0182352
558.410	0.0181133
558.488	0.0181607
558.566	0.0180637
558.644	0.0181400
558.723	0.0181129
558.801	0.0181093
558.879	0.0179672
558.957	0.0181310
559.035	0.0179804
559.113	0.0179238
559.191	0.0179768
559.269	0.0180051
559.348	0.0180396
559.426	0.0179147
559.504	0.0179749
559.582	0.0178812
559.660	0.0180057
559.738	0.0178571
559.816	0.0178959
559.894	0.0177699
559.973	0.0176414
560.051	0.0176525
560.129	0.0176854
560.207	0.0176896
560.285	0.0177812
560.363	0.0176982
560.441	0.0175797
560.519	0.0175611
560.598	0.0176350
560.676	0.0176328
560.754	0.0175904
560.832	0.0176253
560.910	0.0176186
560.988	0.0176749
561.066	0.0176376
561.144	0.0175954
561.223	0.0175676
561.301	0.0175229
561.379	0.0176034
561.457	0.0176650
561.535	0.0176621
561.613	0.0177174
561.691	0.0177184
561.769	0.0176054
561.848	0.0175766
561.926	0.0175504
562.004	0.0177386
562.082	0.0177457
562.160	0.0176746
562.238	0.0177434
562.316	0.0177216
562.394	0.0178026
562.473	0.0178258
562.551	0.0178610
562.629	0.0176387
562.707	0.0178582
562.785	0.0178878
562.863	0.0176676
562.941	0.0178012
563.019	0.0177216
563.098	0.0179259
563.176	0.0179739
563.254	0.0178214
563.332	0.0178325
563.410	0.0178300
563.488	0.0178815
563.566	0.0178369
563.644	0.0179684
563.723	0.0179202
563.801	0.0178127
563.879	0.0178768
563.957	0.0178546
564.035	0.0178753
564.113	0.0178548
564.191	0.0178552
564.269	0.0180247
564.348	0.0179662
564.426	0.0180383
564.504	0.0179878
564.582	0.0180732
564.660	0.0179394
564.738	0.0181396
564.816	0.0180205
564.894	0.0178930
564.973	0.0181110
565.051	0.0180186
565.129	0.0181907
565.207	0.0181723
565.285	0.0180052
565.363	0.0180682
565.441	0.0182027
565.519	0.0180531
565.598	0.0180302
565.676	0.0182124
565.754	0.0182160
565.832	0.0180675
565.910	0.0181010
565.988	0.0180923
566.066	0.0182749
566.144	0.0181367
566.223	0.0180051
566.301	0.0181084
566.379	0.0183392
566.457	0.0180894
566.535	0.0180812
566.613	0.0181658
566.691	0.0180666
566.769	0.0181203
566.848	0.0181122
566.926	0.0180631
567.004	0.0180386
567.082	0.0182571
567.160	0.0181534
567.238	0.0180209
567.316	0.0179993
567.394	0.0181353
567.473	0.0181438
567.551	0.0180509
567.629	0.0180478
567.707	0.0181673
567.785	0.0180038
567.863	0.0180544
567.941	0.0181248
568.019	0.0180917
568.098	0.0181137
568.176	0.0180589
568.254	0.0179312
568.332	0.0179507
568.410	0.0180137
568.488	0.0180917
568.566	0.0180939
568.644	0.0181796
568.723	0.0182017
568.801	0.0181483
568.879	0.0179882
568.957	0.0181896
569.035	0.0181682
569.113	0.0181419
569.191	0.0181807
569.269	0.0180976
569.348	0.0180998
569.426	0.0181432
569.504	0.0181400
569.582	0.0181578
569.660	0.0181643
569.738	0.0181107
569.816	0.0181224
569.894	0.0182388
569.973	0.0179853
570.051	0.0180402
570.129	0.0181340
570.207	0.0180442
570.285	0.0179704
570.363	0.0179668
570.441	0.0179250
570.519	0.0181113
570.598	0.0180450
570.676	0.0178687
570.754	0.0180391
570.832	0.0180980
570.910	0.0179446
570.988	0.0180785
571.066	0.0181553
571.144	0.0179282
571.223	0.0179853
571.301	0.0180823
571.379	0.0181030
571.457	0.0180244
571.535	0.0179836
571.613	0.0180096
571.691	0.0179454
571.769	0.0179015
571.848	0.0179816
571.926	0.0179888
572.004	0.0179539
572.082	0.0179478
572.160	0.0179299
572.238	0.0178258
572.316	0.0180341
572.394	0.0180252
572.473	0.0179214
572.551	0.0181078
572.629	0.0180592
572.707	0.0180233
572.785	0.0180466
572.863	0.0178902
572.941	0.0179295
573.019	0.0179422
573.098	0.0181379
573.176	0.0179903
573.254	0.0179742
573.332	0.0179378
573.410	0.0179376
573.488	0.0180007
573.566	0.0180105
573.644	0.0179430
573.723	0.0180148
573.801	0.0180692
573.879	0.0180236
573.957	0.0179798
574.035	0.0178979
574.113	0.0179932
574.191	0.0179652
574.269	0.0179932
574.348	0.0180444
574.426	0.0180314
574.504	0.0180532
574.582	0.0179137
574.660	0.0178487
574.738	0.0178973
574.816	0.0180994
574.894	0.0179381
574.973	0.0178072
575.051	0.0179060
575.129	0.0179579
575.207	0.0180228
575.285	0.0179678
575.363	0.0178912
575.441	0.0179050
575.519	0.0179288
575.598	0.0178278
575.676	0.0180431
575.754	0.0180341
575.832	0.0179088
575.910	0.0179102
575.988	0.0179697
576.066	0.0179057
576.144	0.0179556
576.223	0.0179772
576.301	0.0178710
576.379	0.0179559
576.457	0.0181191
576.535	0.0180553
576.613	0.0179377
576.691	0.0180543
576.769	0.0180536
576.848	0.0179549
576.926	0.0179326
577.004	0.0180560
577.082	0.0179095
577.160	0.0180390
577.238	0.0181471
577.316	0.0180487
577.394	0.0179956
577.473	0.0180902
577.551	0.0180706
577.629	0.0179580
577.707	0.0179110
577.785	0.0180530
577.863	0.0181782
577.941	0.0180339
578.019	0.0180690
578.098	0.0181337
578.176	0.0181277
578.254	0.0182066
578.332	0.0181380
578.410	0.0181625
578.488	0.0182094
578.566	0.0180863
578.644	0.0180399
578.723	0.0181748
578.801	0.0180491
578.879	0.0181833
578.957	0.0181059
579.035	0.0182167
579.113	0.0182661
579.191	0.0180991
579.269	0.0180661
579.348	0.0181615
579.426	0.0181349
579.504	0.0182385
579.582	0.0181385
579.660	0.0180971
579.738	0.0181606
579.816	0.0180852
579.894	0.0181588
579.973	0.0180685
580.051	0.0181718
580.129	0.0181464
580.207	0.0182067
580.285	0.0182501
580.363	0.0181359
580.441	0.0180346
580.519	0.0180589
580.598	0.0180342
580.676	0.0181408
580.754	0.0181107
580.832	0.0179344
580.910	0.0179528
580.988	0.0179961
581.066	0.0180338
581.144	0.0179248
581.223	0.0179946
581.301	0.0178320
581.379	0.0179546
581.457	0.0179943
581.535	0.0179192
581.613	0.0179018
581.691	0.0178049
581.769	0.0179568
581.848	0.0177616
581.926	0.0178099
582.004	0.0178125
582.082	0.0177586
582.160	0.0177962
582.238	0.0178414
582.316	0.0178274
582.394	0.0178558
582.473	0.0177518
582.551	0.0177115
582.629	0.0177568
582.707	0.0178478
582.785	0.0177445
582.863	0.0178169
582.941	0.0179344
583.019	0.0177354
583.098	0.0177583
583.176	0.0175192
583.254	0.0178106
583.332	0.0178143
583.410	0.0177453
583.488	0.0177425
583.566	0.0177489
583.644	0.0176389
583.723	0.0177440
583.801	0.0177729
583.879	0.0177500
583.957	0.0177453
584.035	0.0176418
584.113	0.0177557
584.191	0.0178110
584.269	0.0176148
584.348	0.0177442
584.426	0.0177664
584.504	0.0177191
584.582	0.0177815
584.660	0.0176882
584.738	0.0177861
584.816	0.0177558
584.894	0.0176325
584.973	0.0176525
585.051	0.0177322
585.129	0.0176906
585.207	0.0176913
585.285	0.0176517
585.363	0.0177041
585.441	0.0177641
585.519	0.0177055
585.598	0.0176135
585.676	0.0177341
585.754	0.0177797
585.832	0.0177384
585.910	0.0176949
585.988	0.0177412
586.066	0.0177011
586.144	0.0177451
586.223	0.0178552
586.301	0.0177718
586.379	0.0177911
586.457	0.0177723
586.535	0.0177885
586.613	0.0177619
586.691	0.0179134
586.769	0.0177977
586.848	0.0177656
586.926	0.0177921
587.004	0.0177246
587.082	0.0177370
587.160	0.0178530
587.238	0.0179879
587.316	0.0178571
587.394	0.0178662
587.473	0.0180486
587.551	0.0178989
587.629	0.0180301
587.707	0.0181376
587.785	0.0179786
587.863	0.0180948
587.941	0.0180013
588.019	0.0179541
588.098	0.0179646
588.176	0.0181010
588.254	0.0180512
588.332	0.0180874
588.410	0.0180539
588.488	0.0179214
588.566	0.0180183
588.644	0.0181095
588.723	0.0180610
588.801	0.0180789
588.879	0.0180098
588.957	0.0180119
589.035	0.0179140
589.113	0.0180603
589.191	0.0180943
589.269	0.0179942
589.348	0.0179584
589.426	0.0179319
589.504	0.0181094
589.582	0.0180043
589.660	0.0178762
589.738	0.0178608
589.816	0.0179632
589.894	0.0180392
589.973	0.0179941
590.051	0.0180458
590.129	0.0179918
590.207	0.0180585
590.285	0.0180405
590.363	0.0180590
590.441	0.0179914
590.519	0.0180149
590.598	0.0181264
590.676	0.0180707
590.754	0.0180260
590.832	0.0179865
590.910	0.0180785
590.988	0.0180759
591.066	0.0179892
591.144	0.0181065
591.223	0.0181393
591.301	0.0180117
591.379	0.0180285
591.457	0.0182089
591.535	0.0181310
591.613	0.0181904
591.691	0.0182304
591.769	0.0182967
591.848	0.0181063
591.926	0.0179799
592.004	0.0182028
592.082	0.0181516
592.160	0.0181940
592.238	0.0181503
592.316	0.0181619
592.394	0.0182702
592.473	0.0181127
592.551	0.0180752
592.629	0.0180779
592.707	0.0181501
592.785	0.0181680
592.863	0.0182510
592.941	0.0182740
593.019	0.0182214
593.098	0.0180424
593.176	0.0181495
593.254	0.0180700
593.332	0.0180289
593.410	0.0180766
593.488	0.0181626
593.566	0.0180112
593.644	0.0181656
593.723	0.0180538
593.801	0.0181268
593.879	0.0180472
593.957	0.0180806
594.035	0.0181102
594.113	0.0181802
594.191	0.0180930
594.269	0.0181279
594.348	0.0180273
594.426	0.0181203
594.504	0.0180753
594.582	0.0180704
594.660	0.0180740
594.738	0.0182022
594.816	0.0178826
594.894	0.0179976
594.973	0.0180605
595.051	0.0179432
595.129	0.0180719
595.207	0.0180311
595.285	0.0179996
595.363	0.0180096
595.441	0.0180550
595.519	0.0179386
595.598	0.0178830
595.676	0.0180580
595.754	0.0180753
595.832	0.0179754
595.910	0.0181832
595.988	0.0181104
596.066	0.0179018
596.144	0.0180367
596.223	0.0181091
596.301	0.0179458
596.379	0.0178567
596.457	0.0179787
596.535	0.0179687
596.613	0.0179109
596.691	0.0179932
596.769	0.0180014
596.848	0.0179636
596.926	0.0180308
597.004	0.0180898
597.082	0.0179992
597.160	0.0180875
597.238	0.0178268
597.316	0.0181323
597.394	0.0180174
597.473	0.0179420
597.551	0.0179341
597.629	0.0180258
597.707	0.0179649
597.785	0.0180254
597.863	0.0179702
597.941	0.0179760
598.019	0.0180550
598.098	0.0181035
598.176	0.0181192
598.254	0.0179027
598.332	0.0179824
598.410	0.0180776
598.488	0.0180342
598.566	0.0179998
598.644	0.0179815
598.723	0.0179476
598.801	0.0180644
598.879	0.0179810
598.957	0.0180064
599.035	0.0180561
599.113	0.0180591
599.191	0.0179528
599.269	0.0180375
599.348	0.0179619
599.426	0.0179812
599.504	0.0180491
599.582	0.0180652
599.660	0.0178633
599.738	0.0179962
599.816	0.0180566
599.894	0.0180431
599.973	0.0179134
600.051	0.0179536
600.129	0.0178477
600.207	0.0177439
600.285	0.0180807
600.363	0.0180431
600.441	0.0180106
600.519	0.0179027
600.598	0.0178503
600.676	0.0179374
600.754	0.0179531
600.832	0.0179905
600.910	0.0179875
600.988	0.0178913
601.066	0.0179562
601.144	0.0180390
601.223	0.0179939
601.301	0.0179582
601.379	0.0177685
601.457	0.0180184
601.535	0.0179209
601.613	0.0179171
601.691	0.0179375
601.769	0.0179427
601.848	0.0179914
601.926	0.0178931
602.004	0.0178707
602.082	0.0178015
602.160	0.0179906
602.238	0.0180579
602.316	0.0180227
602.394	0.0179838
602.473	0.0180033
602.551	0.0179368
602.629	0.0179987
602.707	0.0179744
602.785	0.0180047
602.863	0.0179780
602.941	0.0180108
603.019	0.0179180
603.098	0.0180084
603.176	0.0179372
603.254	0.0180124
603.332	0.0179564
603.410	0.0180524
603.488	0.0180367
603.566	0.0179646
603.644	0.0181199
603.723	0.0179263
603.801	0.0180948
603.879	0.0181139
603.957	0.0179447
604.035	0.0180627
604.113	0.0179428
604.191	0.0179917
604.269	0.0181300
604.348	0.0181112
604.426	0.0179978
604.504	0.0181075
604.582	0.0181158
604.660	0.0180551
604.738	0.0179636
604.816	0.0180885
604.894	0.0180527
604.973	0.0179993
605.051	0.0180415
605.129	0.0180711
605.207	0.0180389
605.285	0.0177972
605.363	0.0179778
605.441	0.0179118
605.519	0.0179488
605.598	0.0180247
605.676	0.0180202
605.754	0.0179852
605.832	0.0179839
605.910	0.0179593
605.988	0.0178988
606.066	0.0180631
606.144	0.0180447
606.223	0.0178841
606.301	0.0178567
606.379	0.0178755
606.457	0.0179746
606.535	0.0178462
606.613	0.0179244
606.691	0.0180524
606.769	0.0178743
606.848	0.0178878
606.926	0.0178609
607.004	0.0178075
607.082	0.0178523
607.160	0.0178376
607.238	0.0178430
607.316	0.0180709
607.394	0.0179054
607.473	0.0178220
607.551	0.0178670
607.629	0.0180305
607.707	0.0178458
607.785	0.0177840
607.863	0.0178822
607.941	0.0179151
608.019	0.0178754
608.098	0.0179070
608.176	0.0178533
608.254	0.0180234
608.332	0.0180516
608.410	0.0179563
608.488	0.0179351
608.566	0.0179060
608.644	0.0179911
608.723	0.0178592
608.801	0.0179699
608.879	0.0179586
608.957	0.0179496
609.035	0.0179798
609.113	0.0178781
609.191	0.0178774
609.269	0.0178316
609.348	0.0178861
609.426	0.0178175
609.504	0.0180357
609.582	0.0179138
609.660	0.0178827
609.738	0.0178382
609.816	0.0179363
609.894	0.0178597
609.973	0.0179715
610.051	0.0179299
610.129	0.0178915
610.207	0.0180326
610.285	0.0178732
610.363	0.0178680
610.441	0.0179394
610.519	0.0179023
610.598	0.0179082
610.676	0.0179697
610.754	0.0179597
610.832	0.0179044
610.910	0.0176981
610.988	0.0178872
611.066	0.0179856
611.144	0.0178944
611.223	0.0179680
611.301	0.0178845
611.379	0.0179722
611.457	0.0180383
611.535	0.0178938
611.613	0.0179902
611.691	0.0179845
611.769	0.0179302
611.848	0.0179851
611.926	0.0179852
612.004	0.0179746
612.082	0.0180617
612.160	0.0180259
612.238	0.0181860
612.316	0.0178867
612.394	0.0179741
612.473	0.0179806
612.551	0.0181305
612.629	0.0180805
612.707	0.0180063
612.785	0.0181448
612.863	0.0182287
612.941	0.0179975
613.019	0.0179960
613.098	0.0181371
613.176	0.0180438
613.254	0.0181500
613.332	0.0181232
613.410	0.0181559
613.488	0.0181499
613.566	0.0181692
613.644	0.0180682
613.723	0.0181842
613.801	0.0179873
613.879	0.0181247
613.957	0.0181003
614.035	0.0181480
614.113	0.0180800
614.191	0.0181477
614.269	0.0182455
614.348	0.0181432
614.426	0.0181570
614.504	0.0182669
614.582	0.0182370
614.660	0.0181728
614.738	0.0183527
614.816	0.0183988
614.894	0.0183564
614.973	0.0182868
615.051	0.0184114
615.129	0.0181620
615.207	0.0182656
615.285	0.0183713
615.363	0.0182375
615.441	0.0182485
615.519	0.0183006
615.598	0.0183702
615.676	0.0181583
615.754	0.0182085
615.832	0.0183090
615.910	0.0182906
615.988	0.0182615
616.066	0.0182687
616.144	0.0182677
616.223	0.0183328
616.301	0.0183814
616.379	0.0182558
616.457	0.0181396
616.535	0.0182828
616.613	0.0182384
616.691	0.0182191
616.769	0.0183206
616.848	0.0182806
616.926	0.0181795
617.004	0.0181937
617.082	0.0181226
617.160	0.0181386
617.238	0.0181271
617.316	0.0181268
617.394	0.0181177
617.473	0.0181268
617.551	0.0180283
617.629	0.0181948
617.707	0.0180921
617.785	0.0181387
617.863	0.0180839
617.941	0.0179689
618.019	0.0181526
618.098	0.0181878
618.176	0.0180728
618.254	0.0179781
618.332	0.0181249
618.410	0.0180981
618.488	0.0180125
618.566	0.0180092
618.644	0.0181052
618.723	0.0180293
618.801	0.0180428
618.879	0.0180789
618.957	0.0181306
619.035	0.0180488
619.113	0.0179173
619.191	0.0180707
619.269	0.0180517
619.348	0.0179890
619.426	0.0180687
619.504	0.0181705
619.582	0.0182153
619.660	0.0181374
619.738	0.0180962
619.816	0.0181610
619.894	0.0181358
619.973	0.0180730
620.051	0.0181440
620.129	0.0181019
620.207	0.0182123
620.285	0.0181106
620.363	0.0180811
620.441	0.0180363
620.519	0.0181590
620.598	0.0181642
620.676	0.0182063
620.754	0.0181591
620.832	0.0181407
620.910	0.0181629
620.988	0.0180400
621.066	0.0181776
621.144	0.0180823
621.223	0.0181303
621.301	0.0181332
621.379	0.0181490
621.457	0.0180394
621.535	0.0180734
621.613	0.0180579
621.691	0.0181008
621.769	0.0180795
621.848	0.0180497
621.926	0.0180160
622.004	0.0181789
622.082	0.0180550
622.160	0.0179508
622.238	0.0181036
622.316	0.0178960
622.394	0.0180465
622.473	0.0180515
622.551	0.0179569
622.629	0.0178802
622.707	0.0178871
622.785	0.0179294
622.863	0.0179497
622.941	0.0178914
623.019	0.0178818
623.098	0.0179175
623.176	0.0180321
623.254	0.0180497
623.332	0.0177789
623.410	0.0178413
623.488	0.0179623
623.566	0.0179775
623.644	0.0179118
623.723	0.0180042
623.801	0.0179292
623.879	0.0179932
623.957	0.0177899
624.035	0.0178105
624.113	0.0180085
624.191	0.0178519
624.269	0.0177964
624.348	0.0180002
624.426	0.0179232
624.504	0.0177888
624.582	0.0178893
624.660	0.0178935
624.738	0.0178670
624.816	0.0178857
624.894	0.0178907
624.973	0.0178948
625.051	0.0179293
625.129	0.0178869
625.207	0.0180470
625.285	0.0178303
625.363	0.0178361
625.441	0.0178312
625.519	0.0178104
625.598	0.0178634
625.676	0.0180447
625.754	0.0178962
625.832	0.0179678
625.910	0.0179425
625.988	0.0180204
626.066	0.0179067
626.144	0.0180166
626.223	0.0180666
626.301	0.0180943
626.379	0.0179493
626.457	0.0179339
626.535	0.0179854
626.613	0.0180088
626.691	0.0181714
626.769	0.0179671
626.848	0.0180806
626.926	0.0180773
627.004	0.0180631
627.082	0.0181232
627.160	0.0181001
627.238	0.0181716
627.316	0.0181679
627.394	0.0179488
627.473	0.0181252
627.551	0.0180673
627.629	0.0180051
627.707	0.0180986
627.785	0.0180559
627.863	0.0181893
627.941	0.0181509
628.019	0.0182115
628.098	0.0180726
628.176	0.0180498
628.254	0.0181425
628.332	0.0182505
628.410	0.0181535
628.488	0.0180419
628.566	0.0180953
628.644	0.0181845
628.723	0.0182249
628.801	0.0182531
628.879	0.0181111
628.957	0.0179607
629.035	0.0180736
629.113	0.0181754
629.191	0.0181408
629.269	0.0181958
629.348	0.0180746
629.426	0.0181620
629.504	0.0181749
629.582	0.0181070
629.660	0.0180456
629.738	0.0180670
629.816	0.0180386
629.894	0.0180027
629.973	0.0180784
630.051	0.0180992
630.129	0.0180467
630.207	0.0178832
630.285	0.0180692
630.363	0.0180405
630.441	0.0182030
630.519	0.0179475
630.598	0.0179527
630.676	0.0180114
630.754	0.0178995
630.832	0.0180228
630.910	0.0180110
630.988	0.0179359
631.066	0.0178752
631.144	0.0179705
631.223	0.0178764
631.301	0.0178157
631.379	0.0178471
631.457	0.0179396
631.535	0.0179990
631.613	0.0179182
631.691	0.0179426
631.769	0.0179063
631.848	0.0178728
631.926	0.0178760
632.004	0.0177931
632.082	0.0178268
632.160	0.0177614
632.238	0.0179135
632.316	0.0178879
632.394	0.0178613
632.473	0.0178142
632.551	0.0178162
632.629	0.0177590
632.707	0.0178368
632.785	0.0176241
632.863	0.0177307
632.941	0.0177055
633.019	0.0177467
633.098	0.0177631
633.176	0.0179411
633.254	0.0178718
633.332	0.0178159
633.410	0.0177701
633.488	0.0177630
633.566	0.0179869
633.644	0.0178191
633.723	0.0177254
633.801	0.0177069
633.879	0.0179243
633.957	0.0177451
634.035	0.0176550
634.113	0.0176827
634.191	0.0178037
634.269	0.0178989
634.348	0.0178378
634.426	0.0177440
634.504	0.0176545
634.582	0.0177356
634.660	0.0177313
634.738	0.0176381
634.816	0.0177540
634.894	0.0176641
634.973	0.0177682
635.051	0.0176955
635.129	0.0176895
635.207	0.0176575
635.285	0.0179334
635.363	0.0177197
635.441	0.0177676
635.519	0.0178205
635.598	0.0177421
635.676	0.0177198
635.754	0.0177354
635.832	0.0177183
635.910	0.0177646
635.988	0.0177686
636.066	0.0177545
636.144	0.0177856
636.223	0.0178510
636.301	0.0179171
636.379	0.0178516
636.457	0.0178509
636.535	0.0178808
636.613	0.0178823
636.691	0.0178397
636.769	0.0178706
636.848	0.0179337
636.926	0.0178356
637.004	0.0177877
637.082	0.0179677
637.160	0.0180930
637.238	0.0179829
637.316	0.0180180
637.394	0.0180736
637.473	0.0180968
637.551	0.0179298
637.629	0.0181461
637.707	0.0181657
637.785	0.0178893
637.863	0.0181654
637.941	0.0180891
638.019	0.0180750
638.098	0.0181300
638.176	0.0181476
638.254	0.0180675
638.332	0.0181891
638.410	0.0180402
638.488	0.0182004
638.566	0.0182142
638.644	0.0182281
638.723	0.0182705
638.801	0.0182127
638.879	0.0182166
638.957	0.0181683
639.035	0.0180991
639.113	0.0181616
639.191	0.0182111
639.269	0.0182757
639.348	0.0180719
639.426	0.0181068
639.504	0.0182981
639.582	0.0183472
639.660	0.0183346
639.738	0.0181929
639.816	0.0182404
639.894	0.0182594
639.973	0.0182153
640.051	0.0183739
640.129	0.0182404
640.207	0.0183553
640.285	0.0182798
640.363	0.0182108
640.441	0.0182940
640.519	0.0184615
640.598	0.0183875
640.676	0.0182014
640.754	0.0182943
640.832	0.0183644
640.910	0.0183771
640.988	0.0182580
641.066	0.0182561
641.144	0.0183675
641.223	0.0182439
641.301	0.0182068
641.379	0.0182503
641.457	0.0183582
641.535	0.0183009
641.613	0.0181973
641.691	0.0182119
641.769	0.0179691
641.848	0.0181213
641.926	0.0181660
642.004	0.0180737
642.082	0.0180782
642.160	0.0180809
642.238	0.0182328
642.316	0.0180683
642.394	0.0182598
642.473	0.0182369
642.551	0.0180184
642.629	0.0180298
642.707	0.0182684
642.785	0.0182418
642.863	0.0178671
642.941	0.0179659
643.019	0.0180282
643.098	0.0179418
643.176	0.0179382
643.254	0.0182027
643.332	0.0180186
643.410	0.0180147
643.488	0.0179860
643.566	0.0179229
643.644	0.0179978
643.723	0.0179104
643.801	0.0180108
643.879	0.0178592
643.957	0.0180177
644.035	0.0180334
644.113	0.0179444
644.191	0.0179662
644.269	0.0179272
644.348	0.0180279
644.426	0.0179047
644.504	0.0179189
644.582	0.0180045
644.660	0.0179671
644.738	0.0180313
644.816	0.0178988
644.894	0.0179867
644.973	0.0178791
645.051	0.0177957
645.129	0.0179466
645.207	0.0178432
645.285	0.0178555
645.363	0.0179512
645.441	0.0178997
645.519	0.0178655
645.598	0.0178989
645.676	0.0179219
645.754	0.0179288
645.832	0.0178484
645.910	0.0179557
645.988	0.0178643
646.066	0.0179054
646.144	0.0178802
646.223	0.0179136
646.301	0.0177970
646.379	0.0177908
646.457	0.0178294
646.535	0.0179263
646.613	0.0178625
646.691	0.0178909
646.769	0.0179348
646.848	0.0179284
646.926	0.0180788
647.004	0.0178063
647.082	0.0178947
647.160	0.0179349
647.238	0.0178873
647.316	0.0178795
647.394	0.0179350
647.473	0.0179172
647.551	0.0178698
647.629	0.0179485
647.707	0.0179214
647.785	0.0178624
647.863	0.0178683
647.941	0.0179494
648.019	0.0179508
648.098	0.0178475
648.176	0.0179417
648.254	0.0179158
648.332	0.0179839
648.410	0.0179589
648.488	0.0180746
648.566	0.0179929
648.644	0.0181542
648.723	0.0180643
648.801	0.0179830
648.879	0.0180753
648.957	0.0181934
649.035	0.0180814
649.113	0.0180063
649.191	0.0180923
649.269	0.0180370
649.348	0.0180273
649.426	0.0181221
649.504	0.0181477
649.582	0.0181192
649.660	0.0182426
649.738	0.0182342
649.816	0.0181179
649.894	0.0182663
649.973	0.0182627
650.051	0.0181821
650.129	0.0181903
650.207	0.0181242
650.285	0.0182203
650.363	0.0181507
650.441	0.0182454
650.519	0.0181279
650.598	0.0181636
650.676	0.0183525
650.754	0.0183197
650.832	0.0182394
650.910	0.0180038
650.988	0.0181104
651.066	0.0181564
651.144	0.0182706
651.223	0.0181248
651.301	0.0182439
651.379	0.0182571
651.457	0.0182361
651.535	0.0181144
651.613	0.0181595
651.691	0.0182409
651.769	0.0181892
651.848	0.0181820
651.926	0.0181303
652.004	0.0181503
652.082	0.0181282
652.160	0.0180344
652.238	0.0180098
652.316	0.0179034
652.394	0.0180527
652.473	0.0180772
652.551	0.0179669
652.629	0.0178863
652.707	0.0180002
652.785	0.0180550
652.863	0.0179951
652.941	0.0180627
653.019	0.0180550
653.098	0.0179510
653.176	0.0179748
653.254	0.0179134
653.332	0.0179739
653.410	0.0180266
653.488	0.0179652
653.566	0.0179118
653.644	0.0179036
653.723	0.0179916
653.801	0.0179953
653.879	0.0178324
653.957	0.0178894
654.035	0.0179397
654.113	0.0179259
654.191	0.0180052
654.269	0.0179648
654.348	0.0179199
654.426	0.0179356
654.504	0.0180455
654.582	0.0179532
654.660	0.0180042
654.738	0.0180731
654.816	0.0180924
654.894	0.0179268
654.973	0.0179752
655.051	0.0180914
655.129	0.0181035
655.207	0.0180296
655.285	0.0180058
655.363	0.0180527
655.441	0.0179510
655.519	0.0178373
655.598	0.0181229
655.676	0.0181061
655.754	0.0181676
655.832	0.0180422
655.910	0.0181644
655.988	0.0179912
656.066	0.0180614
656.144	0.0181562
656.223	0.0180165
656.301	0.0179898
656.379	0.0179549
656.457	0.0180767
656.535	0.0181096
656.613	0.0179750
656.691	0.0178796
656.769	0.0178579
656.848	0.0177194
656.926	0.0179113
657.004	0.0178165
657.082	0.0178349
657.160	0.0178802
657.238	0.0178758
657.316	0.0177718
657.394	0.0178080
657.473	0.0178159
657.551	0.0178139
657.629	0.0178474
657.707	0.0178703
657.785	0.0178129
657.863	0.0179206
657.941	0.0177414
658.019	0.0178086
658.098	0.0177677
658.176	0.0178406
658.254	0.0176937
658.332	0.0178006
658.410	0.0178487
658.488	0.0177904
658.566	0.0177668
658.644	0.0177243
658.723	0.0177882
658.801	0.0178331
658.879	0.0177143
658.957	0.0178849
659.035	0.0177650
659.113	0.0178470
659.191	0.0179491
659.269	0.0180179
659.348	0.0179572
659.426	0.0178219
659.504	0.0178419
659.582	0.0180345
659.660	0.0179625
659.738	0.0180347
659.816	0.0181263
659.894	0.0180771
659.973	0.0180133
660.051	0.0179866
660.129	0.0181194
660.207	0.0180248
660.285	0.0180146
660.363	0.0180428
660.441	0.0180835
660.519	0.0180588
660.598	0.0180947
660.676	0.0179616
660.754	0.0180518
660.832	0.0181712
660.910	0.0181619
660.988	0.0181783
661.066	0.0180431
661.144	0.0180531
661.223	0.0181397
661.301	0.0181728
661.379	0.0181245
661.457	0.0181657
661.535	0.0180762
661.613	0.0181051
661.691	0.0180322
661.769	0.0180688
661.848	0.0182559
661.926	0.0181495
662.004	0.0180581
662.082	0.0180765
662.160	0.0179961
662.238	0.0179655
662.316	0.0180575
662.394	0.0179998
662.473	0.0180322
662.551	0.0181099
662.629	0.0180085
662.707	0.0179513
662.785	0.0179533
662.863	0.0179591
662.941	0.0180208
663.019	0.0180428
663.098	0.0178516
663.176	0.0179401
663.254	0.0180033
663.332	0.0179365
663.410	0.0180090
663.488	0.0181072
663.566	0.0180503
663.644	0.0180398
663.723	0.0180652
663.801	0.0181433
663.879	0.0182207
663.957	0.0183348
664.035	0.0181015
664.113	0.0182140
664.191	0.0181747
664.269	0.0181499
664.348	0.0181262
664.426	0.0182195
664.504	0.0181116
664.582	0.0181207
664.660	0.0181208
664.738	0.0181059
664.816	0.0179741
664.894	0.0180079
664.973	0.0178265
665.051	0.0178102
665.129	0.0178111
665.207	0.0178322
665.285	0.0178903
665.363	0.0178835
665.441	0.0177665
665.519	0.0177565
665.598	0.0178478
665.676	0.0178800
665.754	0.0178686
665.832	0.0178608
665.910	0.0179553
665.988	0.0179665
666.066	0.0179743
666.144	0.0179420
666.223	0.0180698
666.301	0.0179990
666.379	0.0180560
666.457	0.0180128
666.535	0.0179305
666.613	0.0180267
666.691	0.0180196
666.769	0.0180708
666.848	0.0179758
666.926	0.0180175
667.004	0.0180451
667.082	0.0178780
667.160	0.0179150
667.238	0.0181825
667.316	0.0180982
667.394	0.0179865
667.473	0.0179377
667.551	0.0178702
667.629	0.0180801
667.707	0.0180515
667.785	0.0180449
667.863	0.0180298
667.941	0.0180123
668.019	0.0180585
668.098	0.0180996
668.176	0.0181432
668.254	0.0180545
668.332	0.0180212
668.410	0.0180394
668.488	0.0180968
668.566	0.0179882
668.644	0.0179689
668.723	0.0179562
668.801	0.0180025
668.879	0.0181945
668.957	0.0179404
669.035	0.0179852
669.113	0.0179476
669.191	0.0179807
669.269	0.0179682
669.348	0.0178210
669.426	0.0178511
669.504	0.0178512
669.582	0.0178426
669.660	0.0178564
669.738	0.0177547
669.816	0.0177153
669.894	0.0177824
669.973	0.0177412
670.051	0.0178802
670.129	0.0178095
670.207	0.0179678
670.285	0.0179284
670.363	0.0178484
670.441	0.0179670
670.519	0.0180517
670.598	0.0179339
670.676	0.0180525
670.754	0.0181947
670.832	0.0179884
670.910	0.0181110
670.988	0.0182269
671.066	0.0181358
671.144	0.0181680
671.223	0.0184462
671.301	0.0181979
671.379	0.0182716
671.457	0.0182310
671.535	0.0182193
671.613	0.0180401
671.691	0.0181682
671.769	0.0181109
671.848	0.0182194
671.926	0.0183056
672.004	0.0181718
672.082	0.0181944
672.160	0.0181409
672.238	0.0181475
672.316	0.0182334
672.394	0.0181062
672.473	0.0181017
672.551	0.0180524
672.629	0.0181097
672.707	0.0179279
672.785	0.0182118
672.863	0.0181187
672.941	0.0180704
673.019	0.0180254
673.098	0.0180346
673.176	0.0180070
673.254	0.0181464
673.332	0.0182024
673.410	0.0178973
673.488	0.0180117
673.566	0.0180856
673.644	0.0177489
673.723	0.0180161
673.801	0.0178120
673.879	0.0178730
673.957	0.0178143
674.035	0.0180025
674.113	0.0177453
674.191	0.0179152
674.269	0.0177451
674.348	0.0177734
674.426	0.0177188
674.504	0.0178163
674.582	0.0179874
674.660	0.0179069
674.738	0.0179876
674.816	0.0179226
674.894	0.0180994
674.973	0.0181789
675.051	0.0180920
675.129	0.0182615
675.207	0.0182730
675.285	0.0182133
675.363	0.0183585
675.441	0.0181281
675.519	0.0181877
675.598	0.0183379
675.676	0.0182085
675.754	0.0182089
675.832	0.0182411
675.910	0.0181341
675.988	0.0182076
676.066	0.0182278
676.144	0.0181225
676.223	0.0181343
676.301	0.0180170
676.379	0.0180658
676.457	0.0179248
676.535	0.0180359
676.613	0.0180985
676.691	0.0181281
676.769	0.0180775
676.848	0.0181229
676.926	0.0180718
677.004	0.0180391
677.082	0.0180064
677.160	0.0179519
677.238	0.0179574
677.316	0.0179605
677.394	0.0179659
677.473	0.0180431
677.551	0.0179340
677.629	0.0178891
677.707	0.0178825
677.785	0.0179772
677.863	0.0179678
677.941	0.0178297
678.019	0.0178870
678.098	0.0178109
678.176	0.0179821
678.254	0.0180666
678.332	0.0180704
678.410	0.0179241
678.488	0.0179124
678.566	0.0181110
678.644	0.0180286
678.723	0.0181279
678.801	0.0181088
678.879	0.0180940
678.957	0.0182229
679.035	0.0181364
679.113	0.0183189
679.191	0.0181912
679.269	0.0182341
679.348	0.0181635
679.426	0.0181717
679.504	0.0183502
679.582	0.0181744
679.660	0.0180469
679.738	0.0180629
679.816	0.0180238
679.894	0.0180305
679.973	0.0178391
680.051	0.0178667
680.129	0.0178423
680.207	0.0178054
680.285	0.0178600
680.363	0.0176919
680.441	0.0175770
680.519	0.0177853
680.598	0.0176605
680.676	0.0177065
680.754	0.0176525
680.832	0.0177893
680.910	0.0177692
680.988	0.0178136
681.066	0.0178459
681.144	0.0178690
681.223	0.0178484
681.301	0.0180250
681.379	0.0180211
681.457	0.0178663
681.535	0.0179791
681.613	0.0180865
681.691	0.0180950
681.769	0.0180790
681.848	0.0180101
681.926	0.0180807
682.004	0.0180526
682.082	0.0181733
682.160	0.0180710
682.238	0.0180781
682.316	0.0180367
682.394	0.0180920
682.473	0.0180476
682.551	0.0181665
682.629	0.0180789
682.707	0.0180643
682.785	0.0180968
682.863	0.0182154
682.941	0.0180534
683.019	0.0180602
683.098	0.0179869
683.176	0.0180315
683.254	0.0182237
683.332	0.0181407
683.410	0.0180282
683.488	0.0179929
683.566	0.0181259
683.644	0.0181054
683.723	0.0181820
683.801	0.0181724
683.879	0.0180335
683.957	0.0182252
684.035	0.0181306
684.113	0.0181011
684.191	0.0179940
684.269	0.0181191
684.348	0.0181358
684.426	0.0180704
684.504	0.0180836
684.582	0.0179997
684.660	0.0180519
684.738	0.0178831
684.816	0.0179942
684.894	0.0180585
684.973	0.0178877
685.051	0.0177903
685.129	0.0179020
685.207	0.0179390
685.285	0.0179099
685.363	0.0177886
685.441	0.0179733
685.519	0.0178040
685.598	0.0178415
685.676	0.0178914
685.754	0.0177754
685.832	0.0179642
685.910	0.0178319
685.988	0.0176816
686.066	0.0177831
686.144	0.0177300
686.223	0.0178152
686.301	0.0178502
686.379	0.0177240
686.457	0.0178819
686.535	0.0178886
686.613	0.0180050
686.691	0.0179127
686.769	0.0181795
686.848	0.0179660
686.926	0.0180996
687.004	0.0181443
687.082	0.0182195
687.160	0.0181664
687.238	0.0181992
687.316	0.0182961
687.394	0.0181544
687.473	0.0180900
687.551	0.0181857
687.629	0.0182325
687.707	0.0181823
687.785	0.0181119
687.863	0.0180592
687.941	0.0181891
688.019	0.0181934
688.098	0.0180883
688.176	0.0182001
688.254	0.0181832
688.332	0.0182976
688.410	0.0182396
688.488	0.0181916
688.566	0.0181673
688.644	0.0182651
688.723	0.0183612
688.801	0.0184654
688.879	0.0183052
688.957	0.0184199
689.035	0.0183345
689.113	0.0183392
689.191	0.0182675
689.269	0.0183185
689.348	0.0182771
689.426	0.0182401
689.504	0.0181501
689.582	0.0182826
689.660	0.0182453
689.738	0.0181579
689.816	0.0180790
689.894	0.0180264
689.973	0.0179971
690.051	0.0180135
690.129	0.0180167
690.207	0.0179890
690.285	0.0179812
690.363	0.0178807
690.441	0.0179260
690.519	0.0178510
690.598	0.0178494
690.676	0.0177600
690.754	0.0179586
690.832	0.0180190
690.910	0.0179726
690.988	0.0178658
691.066	0.0181022
691.144	0.0181435
691.223	0.0180999
691.301	0.0181790
691.379	0.0181805
691.457	0.0181808
691.535	0.0182742
691.613	0.0181693
691.691	0.0183014
691.769	0.0182282
691.848	0.0183971
691.926	0.0183007
692.004	0.0182531
692.082	0.0183208
692.160	0.0182783
692.238	0.0181762
692.316	0.0182615
692.394	0.0182054
692.473	0.0182432
692.551	0.0180393
692.629	0.0180377
692.707	0.0180643
692.785	0.0180189
692.863	0.0179330
692.941	0.0179934
693.019	0.0177921
693.098	0.0178549
693.176	0.0178586
693.254	0.0179575
693.332	0.0178091
693.410	0.0176411
693.488	0.0176741
693.566	0.0178011
693.644	0.0178810
693.723	0.0178108
693.801	0.0178318
693.879	0.0178053
693.957	0.0179354
694.035	0.0178332
694.113	0.0180078
694.191	0.0179142
694.269	0.0179608
694.348	0.0180541
694.426	0.0179492
694.504	0.0180423
694.582	0.0180883
694.660	0.0180453
694.738	0.0182311
694.816	0.0181760
694.894	0.0181155
694.973	0.0180682
695.051	0.0181976
695.129	0.0181814
695.207	0.0179186
695.285	0.0180535
695.363	0.0180454
695.441	0.0179861
695.519	0.0180582
695.598	0.0179421
695.676	0.0179227
695.754	0.0177778
695.832	0.0178047
695.910	0.0177546
695.988	0.0177932
696.066	0.0178168
696.144	0.0177762
696.223	0.0177157
696.301	0.0177744
696.379	0.0177692
696.457	0.0177652
696.535	0.0178725
696.613	0.0178458
696.691	0.0178524
696.769	0.0179720
696.848	0.0179393
696.926	0.0179516
697.004	0.0180267
697.082	0.0180148
697.160	0.0179384
697.238	0.0180193
697.316	0.0179833
697.394	0.0179057
697.473	0.0180220
697.551	0.0179409
697.629	0.0180527
697.707	0.0177967
697.785	0.0178973
697.863	0.0178532
697.941	0.0178985
698.019	0.0178584
698.098	0.0178125
698.176	0.0178572
698.254	0.0178573
698.332	0.0176719
698.410	0.0179120
698.488	0.0178264
698.566	0.0178230
698.644	0.0177197
698.723	0.0178122
698.801	0.0178616
698.879	0.0179919
698.957	0.0180186
699.035	0.0178825
699.113	0.0178717
699.191	0.0180178
699.269	0.0179755
699.348	0.0180254
699.426	0.0179679
699.504	0.0181141
699.582	0.0180644
699.660	0.0179333
699.738	0.0179733
699.816	0.0180837
699.894	0.0180454
699.973	0.0179413
700.051	0.0180502
700.129	0.0180648
700.207	0.0180196
700.285	0.0180867
700.363	0.0178717
700.441	0.0180584
700.519	0.0181389
700.598	0.0180804
700.676	0.0179984
700.754	0.0179497
700.832	0.0179253
700.910	0.0180440
700.988	0.0180813
701.066	0.0180228
701.144	0.0180927
701.223	0.0180144
701.301	0.0179758
701.379	0.0179580
701.457	0.0178836
701.535	0.0178658
701.613	0.0177716
701.691	0.0178960
701.769	0.0178989
701.848	0.0178832
701.926	0.0176740
702.004	0.0178263
702.082	0.0177774
702.160	0.0176542
702.238	0.0175709
702.316	0.0177013
702.394	0.0176665
702.473	0.0176825
702.551	0.0177557
702.629	0.0179057
702.707	0.0178596
702.785	0.0177359
702.863	0.0178894
702.941	0.0178205
703.019	0.0178777
703.098	0.0180199
703.176	0.0179536
703.254	0.0181669
703.332	0.0179946
703.410	0.0180114
703.488	0.0179770
703.566	0.0180978
703.644	0.0181004
703.723	0.0181225
703.801	0.0180646
703.879	0.0181971
703.957	0.0182670
704.035	0.0179735
704.113	0.0180032
704.191	0.0182224
704.269	0.0180824
704.348	0.0180010
704.426	0.0180134
704.504	0.0181378
704.582	0.0181456
704.660	0.0180096
704.738	0.0179539
704.816	0.0180369
704.894	0.0180676
704.973	0.0180518
705.051	0.0180612
705.129	0.0178055
705.207	0.0181241
705.285	0.0179591
705.363	0.0180094
705.441	0.0178970
705.519	0.0179513
705.598	0.0179094
705.676	0.0178523
705.754	0.0179011
705.832	0.0178763
705.910	0.0179576
705.988	0.0179005
706.066	0.0178558
706.144	0.0177798
706.223	0.0180037
706.301	0.0178343
706.379	0.0178596
706.457	0.0177771
706.535	0.0177718
706.613	0.0178516
706.691	0.0178971
706.769	0.0176962
706.848	0.0178632
706.926	0.0179292
707.004	0.0179324
707.082	0.0179189
707.160	0.0179346
707.238	0.0180212
707.316	0.0180407
707.394	0.0180095
707.473	0.0180846
707.551	0.0179250
707.629	0.0180438
707.707	0.0180435
707.785	0.0179271
707.863	0.0179806
707.941	0.0179796
708.019	0.0179266
708.098	0.0178462
708.176	0.0178234
708.254	0.0177552
708.332	0.0178630
708.410	0.0178472
708.488	0.0177063
708.566	0.0177341
708.644	0.0178739
708.723	0.0178561
708.801	0.0178919
708.879	0.0179478
708.957	0.0179248
709.035	0.0179583
709.113	0.0179550
709.191	0.0179065
709.269	0.0180070
709.348	0.0181593
709.426	0.0181010
709.504	0.0180372
709.582	0.0181597
709.660	0.0181316
709.738	0.0180831
709.816	0.0181803
709.894	0.0180194
709.973	0.0180965
710.051	0.0180997
710.129	0.0181000
710.207	0.0180054
710.285	0.0179322
710.363	0.0178770
710.441	0.0178635
710.519	0.0176801
710.598	0.0177481
710.676	0.0178465
710.754	0.0176594
710.832	0.0177512
710.910	0.0177225
710.988	0.0178356
711.066	0.0178814
711.144	0.0178114
711.223	0.0179301
711.301	0.0178409
711.379	0.0179131
711.457	0.0180843
711.535	0.0181018
711.613	0.0180499
711.691	0.0181889
711.769	0.0182592
711.848	0.0183327
711.926	0.0181290
712.004	0.0183173
712.082	0.0183393
712.160	0.0182708
712.238	0.0182743
712.316	0.0184586
712.394	0.0183249
712.473	0.0182669
712.551	0.0183976
712.629	0.0184184
712.707	0.0183321
712.785	0.0184880
712.863	0.0184798
712.941	0.0183002
713.019	0.0184026
713.098	0.0184634
713.176	0.0184052
713.254	0.0183546
713.332	0.0182153
713.410	0.0183840
713.488	0.0182888
713.566	0.0180589
713.644	0.0179996
713.723	0.0180206
713.801	0.0180505
713.879	0.0179079
713.957	0.0178983
714.035	0.0178210
714.113	0.0178533
714.191	0.0179457
714.269	0.0177898
714.348	0.0177636
714.426	0.0177268
714.504	0.0176841
714.582	0.0176281
714.660	0.0177814
714.738	0.0176698
714.816	0.0177852
714.894	0.0178228
714.973	0.0179028
715.051	0.0178481
715.129	0.0179823
715.207	0.0180750
715.285	0.0181190
715.363	0.0182104
715.441	0.0183212
715.519	0.0181754
715.598	0.0181816
715.676	0.0183871
715.754	0.0184196
715.832	0.0182742
715.910	0.0184354
715.988	0.0184870
716.066	0.0184770
716.144	0.0183999
716.223	0.0184476
716.301	0.0184054
716.379	0.0183415
716.457	0.0183487
716.535	0.0182617
716.613	0.0182750
716.691	0.0180710
716.769	0.0182001
716.848	0.0180782
716.926	0.0180540
717.004	0.0180393
717.082	0.0179964
717.160	0.0177769
717.238	0.0177325
717.316	0.0177113
717.394	0.0177238
717.473	0.0178432
717.551	0.0176042
717.629	0.0175851
717.707	0.0175226
717.785	0.0175560
717.863	0.0175262
717.941	0.0176833
718.019	0.0176500
718.098	0.0176719
718.176	0.0178786
718.254	0.0178901
718.332	0.0177969
718.410	0.0180530
718.488	0.0179103
718.566	0.0180360
718.644	0.0181490
718.723	0.0179604
718.801	0.0181031
718.879	0.0182027
718.957	0.0181727
719.035	0.0181296
719.113	0.0182214
719.191	0.0181809
719.269	0.0180628
719.348	0.0180993
719.426	0.0180798
719.504	0.0180274
719.582	0.0180259
719.660	0.0177441
719.738	0.0178415
719.816	0.0178570
719.894	0.0179204
719.973	0.0178248
720.051	0.0177578
720.129	0.0177773
720.207	0.0178689
720.285	0.0178942
720.363	0.0178468
720.441	0.0178970
720.519	0.0178679
720.598	0.0179576
720.676	0.0178783
720.754	0.0178365
720.832	0.0180496
720.910	0.0180482
720.988	0.0180618
721.066	0.0180359
721.144	0.0180544
721.223	0.0181137
721.301	0.0179763
721.379	0.0180148
721.457	0.0180073
721.535	0.0179613
721.613	0.0179888
721.691	0.0179356
721.769	0.0179250
721.848	0.0179433
721.926	0.0179734
722.004	0.0179448
722.082	0.0177750
722.160	0.0177161
722.238	0.0177496
722.316	0.0176780
722.394	0.0176225
722.473	0.0176408
722.551	0.0176324
722.629	0.0176389
722.707	0.0176649
722.785	0.0176440
722.863	0.0177535
722.941	0.0176846
723.019	0.0177705
723.098	0.0178247
723.176	0.0178403
723.254	0.0178065
723.332	0.0179206
723.410	0.0179392
723.488	0.0181225
723.566	0.0179118
723.644	0.0179963
723.723	0.0181721
723.801	0.0181461
723.879	0.0180429
723.957	0.0181173
724.035	0.0182544
724.113	0.0182213
724.191	0.0182642
724.269	0.0182152
724.348	0.0181440
724.426	0.0182553
724.504	0.0183312
724.582	0.0183493
724.660	0.0183575
724.738	0.0182245
724.816	0.0182901
724.894	0.0181684
724.973	0.0182064
725.051	0.0182115
725.129	0.0180486
725.207	0.0181905
725.285	0.0181459
725.363	0.0181020
725.441	0.0180814
725.519	0.0179707
725.598	0.0180383
725.676	0.0180115
725.754	0.0180144
725.832	0.0179677
725.910	0.0179651
725.988	0.0177654
726.066	0.0178854
726.144	0.0177787
726.223	0.0177612
726.301	0.0178335
726.379	0.0178651
726.457	0.0177354
726.535	0.0176380
726.613	0.0177395
726.691	0.0176823
726.769	0.0178130
726.848	0.0178137
726.926	0.0177602
727.004	0.0178569
727.082	0.0179602
727.160	0.0180662
727.238	0.0181669
727.316	0.0180732
727.394	0.0181390
727.473	0.0182238
727.551	0.0183585
727.629	0.0181956
727.707	0.0183069
727.785	0.0182433
727.863	0.0183931
727.941	0.0184293
728.019	0.0183560
728.098	0.0183593
728.176	0.0181497
728.254	0.0184061
728.332	0.0182843
728.410	0.0181482
728.488	0.0182754
728.566	0.0182874
728.644	0.0180759
728.723	0.0180025
728.801	0.0180972
728.879	0.0179485
728.957	0.0177750
729.035	0.0178095
729.113	0.0177327
729.191	0.0176617
729.269	0.0174216
729.348	0.0174956
729.426	0.0174681
729.504	0.0175058
729.582	0.0174541
729.660	0.0175148
729.738	0.0176292
729.816	0.0177208
729.894	0.0177203
729.973	0.0177586
730.051	0.0175790
730.129	0.0177577
730.207	0.0178364
730.285	0.0178994
730.363	0.0178080
730.441	0.0178179
730.519	0.0177689
730.598	0.0178981
730.676	0.0178878
730.754	0.0180508
730.832	0.0178693
730.910	0.0179519
730.988	0.0180555
731.066	0.0180434
731.144	0.0180226
731.223	0.0179841
731.301	0.0181953
731.379	0.0181652
731.457	0.0180405
731.535	0.0181600
731.613	0.0183668
731.691	0.0182077
731.769	0.0182764
731.848	0.0181332
731.926	0.0181407
732.004	0.0182982
732.082	0.0182125
732.160	0.0182682
732.238	0.0181977
732.316	0.0181808
732.394	0.0179706
732.473	0.0179860
732.551	0.0178749
732.629	0.0179021
732.707	0.0178769
732.785	0.0176822
732.863	0.0176790
732.941	0.0175994
733.019	0.0175325
733.098	0.0176317
733.176	0.0175715
733.254	0.0174002
733.332	0.0175204
733.410	0.0175582
733.488	0.0176570
733.566	0.0177203
733.644	0.0176491
733.723	0.0178474
733.801	0.0181644
733.879	0.0181109
733.957	0.0181389
734.035	0.0181005
734.113	0.0182177
734.191	0.0183540
734.269	0.0183322
734.348	0.0184731
734.426	0.0182623
734.504	0.0184337
734.582	0.0183247
734.660	0.0182500
734.738	0.0182379
734.816	0.0181736
734.894	0.0181492
734.973	0.0181319
735.051	0.0181478
735.129	0.0180289
735.207	0.0181085
735.285	0.0180438
735.363	0.0180595
735.441	0.0181782
735.519	0.0180655
735.598	0.0179219
735.676	0.0179918
735.754	0.0181561
735.832	0.0183159
735.910	0.0181528
735.988	0.0179121
736.066	0.0180660
736.144	0.0180283
736.223	0.0180620
736.301	0.0180336
736.379	0.0180213
736.457	0.0181861
736.535	0.0180901
736.613	0.0179421
736.691	0.0180644
736.769	0.0180443
736.848	0.0181364
736.926	0.0181123
737.004	0.0180257
737.082	0.0180853
737.160	0.0180247
737.238	0.0181139
737.316	0.0180328
737.394	0.0180023
737.473	0.0179869
737.551	0.0179830
737.629	0.0180074
737.707	0.0177785
737.785	0.0178034
737.863	0.0177725
737.941	0.0179121
738.019	0.0176722
738.098	0.0178202
738.176	0.0178954
738.254	0.0177264
738.332	0.0178512
738.410	0.0179104
738.488	0.0178805
738.566	0.0178374
738.644	0.0177563
738.723	0.0178065
738.801	0.0178394
738.879	0.0179012
738.957	0.0179768
739.035	0.0179767
739.113	0.0179610
739.191	0.0179585
739.269	0.0180441
739.348	0.0179308
739.426	0.0179498
739.504	0.0179567
739.582	0.0179998
739.660	0.0179138
739.738	0.0178989
739.816	0.0178284
739.894	0.0179501
739.973	0.0179343
740.051	0.0179839
740.129	0.0178315
740.207	0.0180243
740.285	0.0180133
740.363	0.0181174
740.441	0.0180733
740.519	0.0182213
740.598	0.0182016
740.676	0.0182449
740.754	0.0183964
740.832	0.0183237
740.910	0.0181955
740.988	0.0182899
741.066	0.0184319
741.144	0.0183572
741.223	0.0183041
741.301	0.0184100
741.379	0.0182595
741.457	0.0181198
741.535	0.0181258
741.613	0.0180906
741.691	0.0181090
741.769	0.0180876
741.848	0.0179512
741.926	0.0179252
742.004	0.0179644
742.082	0.0179295
742.160	0.0178874
742.238	0.0180295
742.316	0.0180258
742.394	0.0180507
742.473	0.0181480
742.551	0.0180627
742.629	0.0178810
742.707	0.0181384
742.785	0.0182268
742.863	0.0181163
742.941	0.0182834
743.019	0.0182626
743.098	0.0181781
743.176	0.0182882
743.254	0.0181938
743.332	0.0183211
743.410	0.0182574
743.488	0.0182060
743.566	0.0182302
743.644	0.0180359
743.723	0.0180598
743.801	0.0180968
743.879	0.0180039
743.957	0.0179990
744.035	0.0179404
744.113	0.0179985
744.191	0.0177964
744.269	0.0177376
744.348	0.0179357
744.426	0.0180219
744.504	0.0178692
744.582	0.0180544
744.660	0.0180041
744.738	0.0181288
744.816	0.0182738
744.894	0.0182323
744.973	0.0182998
745.051	0.0183623
745.129	0.0183735
745.207	0.0183941
745.285	0.0186633
745.363	0.0185545
745.441	0.0184106
745.519	0.0183970
745.598	0.0185635
745.676	0.0183870
745.754	0.0184824
745.832	0.0183772
745.910	0.0183121
745.988	0.0183374
746.066	0.0182926
746.144	0.0183329
746.223	0.0182339
746.301	0.0180766
746.379	0.0182594
746.457	0.0180798
746.535	0.0180766
746.613	0.0180302
746.691	0.0180962
746.769	0.0180249
746.848	0.0180936
746.926	0.0178417
747.004	0.0178869
747.082	0.0180340
747.160	0.0178718
747.238	0.0179072
747.316	0.0179961
747.394	0.0179469
747.473	0.0181372
747.551	0.0181592
747.629	0.0181477
747.707	0.0182084
747.785	0.0182954
747.863	0.0182239
747.941	0.0183360
748.019	0.0183585
748.098	0.0182915
748.176	0.0182829
748.254	0.0183557
748.332	0.0183074
748.410	0.0183222
748.488	0.0183080
748.566	0.0182280
748.644	0.0181470
748.723	0.0183239
748.801	0.0183189
748.879	0.0183162
748.957	0.0183055
749.035	0.0182057
749.113	0.0182751
749.191	0.0182031
749.269	0.0183296
749.348	0.0180676
749.426	0.0181599
749.504	0.0182153
749.582	0.0182584
749.660	0.0181598
749.738	0.0182260
749.816	0.0180775
749.894	0.0181639
749.973	0.0180391
750.051	0.0181905
750.129	0.0182001
750.207	0.0181383
750.285	0.0182149
750.363	0.0181779
750.441	0.0180910
750.519	0.0181915
750.598	0.0181310
750.676	0.0180045
750.754	0.0180347
750.832	0.0180347
750.910	0.0178999
750.988	0.0178053
751.066	0.0178537
751.144	0.0176380
751.223	0.0176353
751.301	0.0177180
751.379	0.0177607
751.457	0.0177307
751.535	0.0175983
751.613	0.0177398
751.691	0.0178071
751.769	0.0179457
751.848	0.0178860
751.926	0.0180509
752.004	0.0181676
752.082	0.0180615
752.160	0.0182532
752.238	0.0181708
752.316	0.0183303
752.394	0.0184602
752.473	0.0182818
752.551	0.0182226
752.629	0.0182792
752.707	0.0183008
752.785	0.0185193
752.863	0.0183595
752.941	0.0183412
753.019	0.0184230
753.098	0.0182846
753.176	0.0182996
753.254	0.0182827
753.332	0.0182598
753.410	0.0183430
753.488	0.0184010
753.566	0.0183456
753.644	0.0182438
753.723	0.0182271
753.801	0.0182088
753.879	0.0181294
753.957	0.0181499
754.035	0.0181057
754.113	0.0180504
754.191	0.0180532
754.269	0.0180367
754.348	0.0180318
754.426	0.0180893
754.504	0.0180980
754.582	0.0179842
754.660	0.0179034
754.738	0.0180640
754.816	0.0178565
754.894	0.0179858
754.973	0.0181224
755.051	0.0180050
755.129	0.0179851
755.207	0.0179829
755.285	0.0180685
755.363	0.0180447
755.441	0.0179626
755.519	0.0178300
755.598	0.0180696
755.676	0.0180538
755.754	0.0178720
755.832	0.0180932
755.910	0.0180159
755.988	0.0180550
756.066	0.0180051
756.144	0.0181753
756.223	0.0179291
756.301	0.0181466
756.379	0.0181665
756.457	0.0181946
756.535	0.0181514
756.613	0.0181075
756.691	0.0181276
756.769	0.0180472
756.848	0.0182446
756.926	0.0182477
757.004	0.0180944
757.082	0.0181152
757.160	0.0180979
757.238	0.0180915
757.316	0.0180550
757.394	0.0180810
757.473	0.0180896
757.551	0.0181735
757.629	0.0180425
757.707	0.0180244
757.785	0.0183488
757.863	0.0179538
757.941	0.0180740
758.019	0.0179532
758.098	0.0180175
758.176	0.0179542
758.254	0.0179908
758.332	0.0179182
758.410	0.0180286
758.488	0.0177003
758.566	0.0179561
758.644	0.0178245
758.723	0.0179604
758.801	0.0178809
758.879	0.0178161
758.957	0.0178888
759.035	0.0177656
759.113	0.0178458
759.191	0.0179242
759.269	0.0179208
759.348	0.0178359
759.426	0.0180158
759.504	0.0180798
759.582	0.0178746
759.660	0.0180219
759.738	0.0179925
759.816	0.0180899
759.894	0.0181342
759.973	0.0180499
760.051	0.0179706
760.129	0.0180856
760.207	0.0181436
760.285	0.0180948
760.363	0.0180271
760.441	0.0180012
760.519	0.0180199
760.598	0.0178504
760.676	0.0177862
760.754	0.0177610
760.832	0.0178751
760.910	0.0178339
760.988	0.0177077
761.066	0.0178223
761.144	0.0179782
761.223	0.0178828
761.301	0.0178957
761.379	0.0178889
761.457	0.0177951
761.535	0.0177068
761.613	0.0179166
761.691	0.0178404
761.769	0.0177829
761.848	0.0178545
761.926	0.0178682
762.004	0.0179044
762.082	0.0178461
762.160	0.0177574
762.238	0.0178175
762.316	0.0177373
762.394	0.0178635
762.473	0.0177709
762.551	0.0177913
762.629	0.0176794
762.707	0.0177210
762.785	0.0179749
762.863	0.0178774
762.941	0.0179345
763.019	0.0180353
763.098	0.0179426
763.176	0.0179200
763.254	0.0179158
763.332	0.0180717
763.410	0.0179253
763.488	0.0179127
763.566	0.0179686
763.644	0.0177587
763.723	0.0178616
763.801	0.0179301
763.879	0.0179317
763.957	0.0178029
764.035	0.0180098
764.113	0.0179701
764.191	0.0180354
764.269	0.0179492
764.348	0.0179495
764.426	0.0179724
764.504	0.0181299
764.582	0.0180646
764.660	0.0179352
764.738	0.0180943
764.816	0.0180417
764.894	0.0180258
764.973	0.0180354
765.051	0.0181187
765.129	0.0182172
765.207	0.0179829
765.285	0.0180438
765.363	0.0179510
765.441	0.0178860
765.519	0.0180835
765.598	0.0180435
765.676	0.0179440
765.754	0.0179701
765.832	0.0179462
765.910	0.0179829
765.988	0.0181451
766.066	0.0179931
766.144	0.0181314
766.223	0.0182480
766.301	0.0181976
766.379	0.0181327
766.457	0.0183549
766.535	0.0183512
766.613	0.0184170
766.691	0.0182252
766.769	0.0183427
766.848	0.0183250
766.926	0.0183611
767.004	0.0182956
767.082	0.0182958
767.160	0.0182144
767.238	0.0182640
767.316	0.0182533
767.394	0.0181826
767.473	0.0181493
767.551	0.0180812
767.629	0.0182067
767.707	0.0181208
767.785	0.0181446
767.863	0.0181665
767.941	0.0181033
768.019	0.0180171
768.098	0.0180006
768.176	0.0179999
768.254	0.0180938
768.332	0.0180445
768.410	0.0180585
768.488	0.0180836
768.566	0.0179633
768.644	0.0180339
768.723	0.0182003
768.801	0.0179760
768.879	0.0180459
768.957	0.0181017
769.035	0.0181232
769.113	0.0181091
769.191	0.0181709
769.269	0.0181418
769.348	0.0182146
769.426	0.0180492
769.504	0.0181355
769.582	0.0182307
769.660	0.0182387
769.738	0.0182289
769.816	0.0181186
769.894	0.0181768
769.973	0.0182665
770.051	0.0181801
770.129	0.0179997
770.207	0.0181809
770.285	0.0181036
770.363	0.0182320
770.441	0.0182421
770.519	0.0181377
770.598	0.0182968
770.676	0.0181896
770.754	0.0182556
770.832	0.0181870
770.910	0.0182338
770.988	0.0182467
771.066	0.0181813
771.144	0.0181167
771.223	0.0181196
771.301	0.0179909
771.379	0.0180138
771.457	0.0181227
771.535	0.0180752
771.613	0.0178159
771.691	0.0178085
771.769	0.0178194
771.848	0.0179358
771.926	0.0176632
772.004	0.0178145
772.082	0.0177633
772.160	0.0176987
772.238	0.0177556
772.316	0.0177456
772.394	0.0177069
772.473	0.0177058
772.551	0.0176794
772.629	0.0177754
772.707	0.0177759
772.785	0.0180267
772.863	0.0180181
772.941	0.0179453
773.019	0.0180225
773.098	0.0181496
773.176	0.0179696
773.254	0.0179887
773.332	0.0179896
773.410	0.0181553
773.488	0.0182246
773.566	0.0181298
773.644	0.0182190
773.723	0.0182453
773.801	0.0181988
773.879	0.0181622
773.957	0.0180968
774.035	0.0180486
774.113	0.0181127
774.191	0.0182593
774.269	0.0181735
774.348	0.0181524
774.426	0.0180559
774.504	0.0181880
774.582	0.0178821
774.660	0.0180859
774.738	0.0180737
774.816	0.0181805
774.894	0.0180542
774.973	0.0181322
775.051	0.0181424
775.129	0.0179913
775.207	0.0182223
775.285	0.0180872
775.363	0.0180836
775.441	0.0180560
775.519	0.0180314
775.598	0.0179846
775.676	0.0179391
775.754	0.0180206
775.832	0.0182935
775.910	0.0180842
775.988	0.0180677
776.066	0.0179996
776.144	0.0181224
776.223	0.0181606
776.301	0.0181451
776.379	0.0181812
776.457	0.0181297
776.535	0.0181188
776.613	0.0181100
776.691	0.0181188
776.769	0.0182255
776.848	0.0180501
776.926	0.0180151
777.004	0.0180759
777.082	0.0181006
777.160	0.0180244
777.238	0.0180595
777.316	0.0181503
777.394	0.0180263
777.473	0.0180563
777.551	0.0181258
777.629	0.0180212
777.707	0.0180561
777.785	0.0180463
777.863	0.0181410
777.941	0.0180465
778.019	0.0180015
778.098	0.0180827
778.176	0.0179961
778.254	0.0178209
778.332	0.0180768
778.410	0.0180415
778.488	0.0180206
778.566	0.0181046
778.644	0.0181977
778.723	0.0180407
778.801	0.0179417
778.879	0.0180518
778.957	0.0180588
779.035	0.0180390
779.113	0.0180357
779.191	0.0179098
779.269	0.0179755
779.348	0.0178772
779.426	0.0180427
779.504	0.0179518
779.582	0.0178977
779.660	0.0178242
779.738	0.0180696
779.816	0.0179493
779.894	0.0179082
779.973	0.0179946
780.051	0.0179316
780.129	0.0179166
780.207	0.0179625
780.285	0.0180054
780.363	0.0179089
780.441	0.0179420
780.519	0.0178793
780.598	0.0179592
780.676	0.0179582
780.754	0.0180621
780.832	0.0179179
780.910	0.0179446
780.988	0.0179832
781.066	0.0178909
781.144	0.0177968
781.223	0.0179785
781.301	0.0180972
781.379	0.0179190
781.457	0.0178600
781.535	0.0178662
781.613	0.0178813
781.691	0.0177712
781.769	0.0176479
781.848	0.0178507
781.926	0.0178793
782.004	0.0177286
782.082	0.0178539
782.160	0.0177197
782.238	0.0177205
782.316	0.0178075
782.394	0.0178532
782.473	0.0177294
782.551	0.0179752
782.629	0.0178502
782.707	0.0178064
782.785	0.0179210
782.863	0.0179646
782.941	0.0179723
783.019	0.0179337
783.098	0.0180202
783.176	0.0179429
783.254	0.0178060
783.332	0.0179643
783.410	0.0179806
783.488	0.0178865
783.566	0.0179746
783.644	0.0179370
783.723	0.0179043
783.801	0.0179749
783.879	0.0178289
783.957	0.0178578
784.035	0.0179179
784.113	0.0180011
784.191	0.0178473
784.269	0.0177728
784.348	0.0179653
784.426	0.0179927
784.504	0.0179115
784.582	0.0178217
784.660	0.0179428
784.738	0.0178884
784.816	0.0178368
784.894	0.0179271
784.973	0.0179355
785.051	0.0181386
785.129	0.0179342
785.207	0.0180082
785.285	0.0178932
785.363	0.0179997
785.441	0.0180544
785.519	0.0179633
785.598	0.0178069
785.676	0.0180824
785.754	0.0179256
785.832	0.0178747
785.910	0.0178752
785.988	0.0178157
786.066	0.0178531
786.144	0.0179629
786.223	0.0177310
786.301	0.0178928
786.379	0.0178851
786.457	0.0177195
786.535	0.0178334
786.613	0.0177956
786.691	0.0177441
786.769	0.0178322
786.848	0.0178698
786.926	0.0177670
787.004	0.0177525
787.082	0.0178860
787.160	0.0179369
787.238	0.0178674
787.316	0.0178518
787.394	0.0180450
787.473	0.0180790
787.551	0.0180310
787.629	0.0180293
787.707	0.0181190
787.785	0.0180672
787.863	0.0179778
787.941	0.0179836
788.019	0.0180507
788.098	0.0180009
788.176	0.0179707
788.254	0.0180748
788.332	0.0181303
788.410	0.0179902
788.488	0.0179662
788.566	0.0179681
788.644	0.0180279
788.723	0.0180270
788.801	0.0181630
788.879	0.0181227
788.957	0.0181221
789.035	0.0180441
789.113	0.0180687
789.191	0.0179862
789.269	0.0181208
789.348	0.0179427
789.426	0.0179932
789.504	0.0181679
789.582	0.0180370
789.660	0.0179295
789.738	0.0180068
789.816	0.0180182
789.894	0.0179769
789.973	0.0178474
790.051	0.0179512
790.129	0.0179094
790.207	0.0178429
790.285	0.0179332
790.363	0.0178804
790.441	0.0178304
790.519	0.0178040
790.598	0.0177142
790.676	0.0178275
790.754	0.0178018
790.832	0.0178401
790.910	0.0178455
790.988	0.0177979
791.066	0.0177119
791.144	0.0178358
791.223	0.0177749
791.301	0.0180375
791.379	0.0179249
791.457	0.0179185
791.535	0.0179459
791.613	0.0179180
791.691	0.0179694
791.769	0.0180566
791.848	0.0179630
791.926	0.0179374
792.004	0.0178439
792.082	0.0178352
792.160	0.0177934
792.238	0.0177670
792.316	0.0179576
792.394	0.0179202
792.473	0.0178928
792.551	0.0179198
792.629	0.0179416
792.707	0.0178812
792.785	0.0179488
792.863	0.0179813
792.941	0.0180679
793.019	0.0180329
793.098	0.0179223
793.176	0.0178097
793.254	0.0179330
793.332	0.0178545
793.410	0.0179984
793.488	0.0178586
793.566	0.0178269
793.644	0.0177992
793.723	0.0178222
793.801	0.0179581
793.879	0.0178890
793.957	0.0180062
794.035	0.0179456
794.113	0.0178403
794.191	0.0177113
794.269	0.0178138
794.348	0.0178881
794.426	0.0179322
794.504	0.0178617
794.582	0.0179086
794.660	0.0179858
794.738	0.0179453
794.816	0.0179216
794.894	0.0180088
794.973	0.0180637
795.051	0.0179983
795.129	0.0179399
795.207	0.0180400
795.285	0.0180957
795.363	0.0179443
795.441	0.0179794
795.519	0.0179020
795.598	0.0180378
795.676	0.0179721
795.754	0.0179413
795.832	0.0178564
795.910	0.0178776
795.988	0.0179263
796.066	0.0179041
796.144	0.0178078
796.223	0.0177283
796.301	0.0177798
796.379	0.0179146
796.457	0.0178828
796.535	0.0178993
796.613	0.0179630
796.691	0.0179289
796.769	0.0178905
796.848	0.0179646
796.926	0.0181915
797.004	0.0180389
797.082	0.0180141
797.160	0.0181550
797.238	0.0180058
797.316	0.0180527
797.394	0.0182749
797.473	0.0180334
797.551	0.0180355
797.629	0.0182603
797.707	0.0182921
797.785	0.0181593
797.863	0.0181266
797.941	0.0180124
798.019	0.0180284
798.098	0.0180918
798.176	0.0182069
798.254	0.0179855
798.332	0.0179519
798.410	0.0178898
798.488	0.0179495
798.566	0.0179231
798.644	0.0179246
798.723	0.0179689
798.801	0.0179796
798.879	0.0178484
798.957	0.0177948
799.035	0.0178256
799.113	0.0178995
799.191	0.0178953
799.269	0.0177180
799.348	0.0178029
799.426	0.0178051
799.504	0.0179852
799.582	0.0177698
799.660	0.0177611
799.738	0.0177321
799.816	0.0177106
799.894	0.0178426
799.973	0.0177206
800.051	0.0177122
800.129	0.0177753
800.207	0.0178671
800.285	0.0178617
800.363	0.0177300
800.441	0.0177711
800.519	0.0177534
800.598	0.0178127
800.676	0.0178186
800.754	0.0179134
800.832	0.0179980
800.910	0.0180480
800.988	0.0177666
801.066	0.0180560
801.144	0.0178329
801.223	0.0180083
801.301	0.0178576
801.379	0.0178571
801.457	0.0179111
801.535	0.0179445
801.613	0.0179358
801.691	0.0181035
801.769	0.0178982
801.848	0.0181564
801.926	0.0180008
802.004	0.0180132
802.082	0.0180659
802.160	0.0179430
802.238	0.0178043
802.316	0.0178531
802.394	0.0178540
802.473	0.0178571
802.551	0.0178808
802.629	0.0177785
802.707	0.0178970
802.785	0.0178593
802.863	0.0179171
802.941	0.0178478
803.019	0.0178246
803.098	0.0179141
803.176	0.0178339
803.254	0.0179299
803.332	0.0178845
803.410	0.0177746
803.488	0.0178405
803.566	0.0179066
803.644	0.0177715
803.723	0.0178250
803.801	0.0178126
803.879	0.0178029
803.957	0.0179121
804.035	0.0178085
804.113	0.0177128
804.191	0.0177470
804.269	0.0176534
804.348	0.0177135
804.426	0.0176991
804.504	0.0177174
804.582	0.0176784
804.660	0.0176408
804.738	0.0176385
804.816	0.0177393
804.894	0.0177532
804.973	0.0178549
805.051	0.0177248
805.129	0.0178478
805.207	0.0178841
805.285	0.0177359
805.363	0.0176648
805.441	0.0178028
805.519	0.0178108
805.598	0.0179211
805.676	0.0177085
805.754	0.0179640
805.832	0.0179433
805.910	0.0179095
805.988	0.0178685
806.066	0.0178252
806.144	0.0179794
806.223	0.0179504
806.301	0.0179144
806.379	0.0178006
806.457	0.0180270
806.535	0.0179471
806.613	0.0179449
806.691	0.0181494
806.769	0.0180828
806.848	0.0180464
806.926	0.0179552
807.004	0.0180202
807.082	0.0181211
807.160	0.0181554
807.238	0.0179942
807.316	0.0181501
807.394	0.0181657
807.473	0.0181421
807.551	0.0180656
807.629	0.0182652
807.707	0.0181137
807.785	0.0180636
807.863	0.0180053
807.941	0.0180289
808.019	0.0180081
808.098	0.0180599
808.176	0.0179202
808.254	0.0179403
808.332	0.0180096
808.410	0.0179176
808.488	0.0178695
808.566	0.0179034
808.644	0.0180301
808.723	0.0179855
808.801	0.0180188
808.879	0.0180651
808.957	0.0181188
809.035	0.0179804
809.113	0.0180196
809.191	0.0181768
809.269	0.0180019
809.348	0.0181701
809.426	0.0182317
809.504	0.0181139
809.582	0.0181657
809.660	0.0182893
809.738	0.0181573
809.816	0.0182389
809.894	0.0182944
809.973	0.0182700
810.051	0.0183461
810.129	0.0182607
810.207	0.0182224
810.285	0.0182761
810.363	0.0183939
810.441	0.0182838
810.519	0.0181203
810.598	0.0183459
810.676	0.0182485
810.754	0.0181783
810.832	0.0181101
810.910	0.0182464
810.988	0.0182079
811.066	0.0180425
811.144	0.0179799
811.223	0.0180081
811.301	0.0181498
811.379	0.0181461
811.457	0.0180362
811.535	0.0179950
811.613	0.0179629
811.691	0.0179922
811.769	0.0180418
811.848	0.0180154
811.926	0.0179324
812.004	0.0178569
812.082	0.0178773
812.160	0.0179750
812.238	0.0177548
812.316	0.0178737
812.394	0.0179700
812.473	0.0178590
812.551	0.0179218
812.629	0.0179256
812.707	0.0179966
812.785	0.0178395
812.863	0.0178598
812.941	0.0180053
813.019	0.0180106
813.098	0.0179947
813.176	0.0180815
813.254	0.0179536
813.332	0.0181477
813.410	0.0181493
813.488	0.0180904
813.566	0.0181834
813.644	0.0180644
813.723	0.0181306
813.801	0.0182278
813.879	0.0181633
813.957	0.0181151
814.035	0.0182315
814.113	0.0181672
814.191	0.0181958
814.269	0.0181645
814.348	0.0182014
814.426	0.0181008
814.504	0.0181515
814.582	0.0181206
814.660	0.0182639
814.738	0.0180952
814.816	0.0181562
814.894	0.0182296
814.973	0.0181555
815.051	0.0182750
815.129	0.0182012
815.207	0.0180534
815.285	0.0180865
815.363	0.0181594
815.441	0.0181985
815.519	0.0181556
815.598	0.0179919
815.676	0.0181036
815.754	0.0182894
815.832	0.0181377
815.910	0.0181232
815.988	0.0180937
816.066	0.0179796
816.144	0.0180054
816.223	0.0180347
816.301	0.0180341
816.379	0.0178709
816.457	0.0179690
816.535	0.0180779
816.613	0.0180388
816.691	0.0181150
816.769	0.0180116
816.848	0.0180679
816.926	0.0180385
817.004	0.0181890
817.082	0.0181046
817.160	0.0181586
817.238	0.0181906
817.316	0.0182095
817.394	0.0181339
817.473	0.0182446
817.551	0.0182814
817.629	0.0182839
817.707	0.0182802
817.785	0.0183939
817.863	0.0183104
817.941	0.0182778
818.019	0.0183677
818.098	0.0183254
818.176	0.0183939
818.254	0.0183398
818.332	0.0183475
818.410	0.0182961
818.488	0.0182873
818.566	0.0183302
818.644	0.0183340
818.723	0.0183105
818.801	0.0181513
818.879	0.0181456
818.957	0.0182190
819.035	0.0180556
819.113	0.0181346
819.191	0.0179822
819.269	0.0181244
819.348	0.0180094
819.426	0.0179315
819.504	0.0179855
819.582	0.0179960
819.660	0.0180683
819.738	0.0179217
819.816	0.0178811
819.894	0.0178219
