06/03/2022	18:47:20	Ver.	4.1	UNKNOWN
Optical Delay	475.015285	Delta X		0.078125	Sweeps	1	Scan Rate	0/0
Coordinates	Axis 1	NaN	Axis 2	NaN	Axis 3	NaN	Axis 4	NaN	Axis 5	NaN	Axis 6	0.000000
TX Power	0.000000	RX Power	0.000000

475.015	0.0176279
475.093	0.0177267
475.172	0.0176282
475.250	0.0176276
475.328	0.0176389
475.406	0.0176474
475.484	0.0176028
475.562	0.0176214
475.640	0.0176019
475.718	0.0175301
475.797	0.0176193
475.875	0.0177157
475.953	0.0178080
476.031	0.0176159
476.109	0.0173810
476.187	0.0176275
476.265	0.0176222
476.343	0.0175874
476.422	0.0177305
476.500	0.0176795
476.578	0.0175883
476.656	0.0176679
476.734	0.0176395
476.812	0.0174425
476.890	0.0174677
476.968	0.0176410
477.047	0.0176144
477.125	0.0176024
477.203	0.0174994
477.281	0.0176018
477.359	0.0175795
477.437	0.0174890
477.515	0.0176236
477.593	0.0176666
477.672	0.0176848
477.750	0.0175352
477.828	0.0176208
477.906	0.0175353
477.984	0.0175023
478.062	0.0175714
478.140	0.0175186
478.218	0.0175507
478.297	0.0175870
478.375	0.0175203
478.453	0.0176366
478.531	0.0175637
478.609	0.0176412
478.687	0.0175127
478.765	0.0175348
478.843	0.0176747
478.922	0.0176221
479.000	0.0176225
479.078	0.0175350
479.156	0.0176226
479.234	0.0176176
479.312	0.0175823
479.390	0.0177139
479.468	0.0176339
479.547	0.0176472
479.625	0.0176016
479.703	0.0176610
479.781	0.0177831
479.859	0.0176484
479.937	0.0176369
480.015	0.0176669
480.093	0.0177412
480.172	0.0177612
480.250	0.0177380
480.328	0.0176742
480.406	0.0176781
480.484	0.0178432
480.562	0.0180025
480.640	0.0178493
480.718	0.0178074
480.797	0.0178661
480.875	0.0176324
480.953	0.0177373
481.031	0.0179376
481.109	0.0178377
481.187	0.0177295
481.265	0.0177277
481.343	0.0179314
481.422	0.0177685
481.500	0.0178014
481.578	0.0178574
481.656	0.0178014
481.734	0.0177776
481.812	0.0179184
481.890	0.0178876
481.968	0.0177113
482.047	0.0177724
482.125	0.0178510
482.203	0.0178403
482.281	0.0179208
482.359	0.0179569
482.437	0.0179370
482.515	0.0179507
482.593	0.0178461
482.672	0.0180190
482.750	0.0178818
482.828	0.0178495
482.906	0.0179652
482.984	0.0179508
483.062	0.0178342
483.140	0.0178953
483.218	0.0179432
483.297	0.0178761
483.375	0.0178899
483.453	0.0179729
483.531	0.0177657
483.609	0.0179892
483.687	0.0178778
483.765	0.0178201
483.843	0.0179388
483.922	0.0179895
484.000	0.0178691
484.078	0.0179975
484.156	0.0179520
484.234	0.0178776
484.312	0.0180072
484.390	0.0178104
484.468	0.0178825
484.547	0.0178617
484.625	0.0180144
484.703	0.0178929
484.781	0.0179152
484.859	0.0178476
484.937	0.0177293
485.015	0.0179008
485.093	0.0180508
485.172	0.0178557
485.250	0.0178410
485.328	0.0177919
485.406	0.0178437
485.484	0.0178330
485.562	0.0178156
485.640	0.0178642
485.718	0.0178126
485.797	0.0177520
485.875	0.0178028
485.953	0.0178053
486.031	0.0177486
486.109	0.0177778
486.187	0.0179053
486.265	0.0177821
486.343	0.0177416
486.422	0.0178925
486.500	0.0176703
486.578	0.0178010
486.656	0.0177556
486.734	0.0177181
486.812	0.0177431
486.890	0.0176213
486.968	0.0176800
487.047	0.0177828
487.125	0.0176913
487.203	0.0177856
487.281	0.0178291
487.359	0.0176736
487.437	0.0178127
487.515	0.0177083
487.593	0.0178307
487.672	0.0177801
487.750	0.0176656
487.828	0.0178521
487.906	0.0177122
487.984	0.0175958
488.062	0.0178325
488.140	0.0177888
488.218	0.0178104
488.297	0.0175446
488.375	0.0176495
488.453	0.0177116
488.531	0.0177891
488.609	0.0177748
488.687	0.0178847
488.765	0.0178996
488.843	0.0176899
488.922	0.0178734
489.000	0.0178006
489.078	0.0178001
489.156	0.0177371
489.234	0.0177781
489.312	0.0177336
489.390	0.0177313
489.468	0.0177520
489.547	0.0177579
489.625	0.0177847
489.703	0.0177491
489.781	0.0178481
489.859	0.0177495
489.937	0.0175668
490.015	0.0177316
490.093	0.0177388
490.172	0.0176535
490.250	0.0178936
490.328	0.0176931
490.406	0.0177941
490.484	0.0177908
490.562	0.0178073
490.640	0.0176555
490.718	0.0176527
490.797	0.0176904
490.875	0.0176964
490.953	0.0175510
491.031	0.0175338
491.109	0.0175804
491.187	0.0176524
491.265	0.0176736
491.343	0.0176115
491.422	0.0176437
491.500	0.0178198
491.578	0.0176553
491.656	0.0177253
491.734	0.0175650
491.812	0.0175420
491.890	0.0177364
491.968	0.0175296
492.047	0.0175009
492.125	0.0175880
492.203	0.0176236
492.281	0.0175816
492.359	0.0176196
492.437	0.0175209
492.515	0.0175838
492.593	0.0174483
492.672	0.0176364
492.750	0.0175245
492.828	0.0174471
492.906	0.0175710
492.984	0.0175592
493.062	0.0174417
493.140	0.0176356
493.218	0.0174445
493.297	0.0174844
493.375	0.0175530
493.453	0.0175831
493.531	0.0174992
493.609	0.0174279
493.687	0.0175079
493.765	0.0173674
493.843	0.0174854
493.922	0.0175661
494.000	0.0175066
494.078	0.0174502
494.156	0.0175031
494.234	0.0173756
494.312	0.0174100
494.390	0.0174243
494.468	0.0174570
494.547	0.0174059
494.625	0.0175072
494.703	0.0174809
494.781	0.0174815
494.859	0.0174226
494.937	0.0172903
495.015	0.0175144
495.093	0.0173605
495.172	0.0174518
495.250	0.0174831
495.328	0.0173532
495.406	0.0172970
495.484	0.0174451
495.562	0.0174739
495.640	0.0173890
495.718	0.0174475
495.797	0.0174566
495.875	0.0174406
495.953	0.0174523
496.031	0.0175207
496.109	0.0172794
496.187	0.0174289
496.265	0.0175467
496.343	0.0175185
496.422	0.0177219
496.500	0.0175550
496.578	0.0176030
496.656	0.0176570
496.734	0.0175555
496.812	0.0176416
496.890	0.0176253
496.968	0.0174747
497.047	0.0176711
497.125	0.0177686
497.203	0.0176566
497.281	0.0178119
497.359	0.0179589
497.437	0.0179029
497.515	0.0178044
497.593	0.0178465
497.672	0.0177832
497.750	0.0178838
497.828	0.0179445
497.906	0.0179379
497.984	0.0177991
498.062	0.0179314
498.140	0.0180067
498.218	0.0180678
498.297	0.0180736
498.375	0.0179712
498.453	0.0179914
498.531	0.0179964
498.609	0.0179057
498.687	0.0178607
498.765	0.0180594
498.843	0.0180718
498.922	0.0180096
499.000	0.0178572
499.078	0.0179179
499.156	0.0182082
499.234	0.0180537
499.312	0.0179559
499.390	0.0180214
499.468	0.0179107
499.547	0.0179597
499.625	0.0179906
499.703	0.0179251
499.781	0.0178780
499.859	0.0179222
499.937	0.0179646
500.015	0.0178108
500.093	0.0179157
500.172	0.0178270
500.250	0.0178257
500.328	0.0179630
500.406	0.0179034
500.484	0.0177750
500.562	0.0179757
500.640	0.0179160
500.718	0.0178084
500.797	0.0179639
500.875	0.0180169
500.953	0.0179563
501.031	0.0179554
501.109	0.0179508
501.187	0.0179985
501.265	0.0180966
501.343	0.0180420
501.422	0.0179831
501.500	0.0179962
501.578	0.0180762
501.656	0.0179488
501.734	0.0180620
501.812	0.0178942
501.890	0.0179483
501.968	0.0180874
502.047	0.0180375
502.125	0.0179212
502.203	0.0177849
502.281	0.0178802
502.359	0.0179381
502.437	0.0177825
502.515	0.0178514
502.593	0.0179129
502.672	0.0178260
502.750	0.0178069
502.828	0.0177907
502.906	0.0177900
502.984	0.0177274
503.062	0.0178941
503.140	0.0177528
503.218	0.0177276
503.297	0.0176460
503.375	0.0177561
503.453	0.0177453
503.531	0.0177968
503.609	0.0176563
503.687	0.0176741
503.765	0.0176299
503.843	0.0176324
503.922	0.0175048
504.000	0.0176118
504.078	0.0175658
504.156	0.0177942
504.234	0.0176356
504.312	0.0174656
504.390	0.0175500
504.468	0.0175939
504.547	0.0175256
504.625	0.0175502
504.703	0.0175381
504.781	0.0174982
504.859	0.0174844
504.937	0.0174086
505.015	0.0175513
505.093	0.0174876
505.172	0.0174598
505.250	0.0175065
505.328	0.0175816
505.406	0.0175339
505.484	0.0174700
505.562	0.0175883
505.640	0.0175412
505.718	0.0175922
505.797	0.0175368
505.875	0.0177055
505.953	0.0175634
506.031	0.0176330
506.109	0.0176453
506.187	0.0175980
506.265	0.0174788
506.343	0.0176383
506.422	0.0175953
506.500	0.0175385
506.578	0.0177588
506.656	0.0176348
506.734	0.0176854
506.812	0.0176814
506.890	0.0174559
506.968	0.0176097
507.047	0.0177224
507.125	0.0176405
507.203	0.0177361
507.281	0.0175864
507.359	0.0176743
507.437	0.0177897
507.515	0.0178556
507.593	0.0178077
507.672	0.0177223
507.750	0.0177653
507.828	0.0177767
507.906	0.0177812
507.984	0.0178485
508.062	0.0177331
508.140	0.0178841
508.218	0.0178121
508.297	0.0177900
508.375	0.0178884
508.453	0.0177509
508.531	0.0177294
508.609	0.0178275
508.687	0.0178732
508.765	0.0177887
508.843	0.0177962
508.922	0.0178534
509.000	0.0177391
509.078	0.0176834
509.156	0.0176752
509.234	0.0176122
509.312	0.0176220
509.390	0.0176141
509.468	0.0176655
509.547	0.0177839
509.625	0.0176273
509.703	0.0175919
509.781	0.0176080
509.859	0.0178009
509.937	0.0175835
510.015	0.0176505
510.093	0.0176913
510.172	0.0176985
510.250	0.0175977
510.328	0.0175503
510.406	0.0176313
510.484	0.0177095
510.562	0.0176514
510.640	0.0175298
510.718	0.0174923
510.797	0.0176836
510.875	0.0176396
510.953	0.0177285
511.031	0.0175227
511.109	0.0176400
511.187	0.0176871
511.265	0.0175882
511.343	0.0175320
511.422	0.0175687
511.500	0.0176062
511.578	0.0176413
511.656	0.0175388
511.734	0.0175316
511.812	0.0175156
511.890	0.0175944
511.968	0.0176601
512.047	0.0175456
512.125	0.0175507
512.203	0.0176764
512.281	0.0175860
512.359	0.0174967
512.437	0.0176287
512.515	0.0175985
512.593	0.0176566
512.672	0.0176521
512.750	0.0176411
512.828	0.0175720
512.906	0.0175435
512.984	0.0176430
513.062	0.0174947
513.140	0.0175838
513.218	0.0176044
513.297	0.0174786
513.375	0.0176047
513.453	0.0175805
513.531	0.0175368
513.609	0.0173792
513.687	0.0175381
513.765	0.0175194
513.843	0.0175890
513.922	0.0175435
514.000	0.0175183
514.078	0.0175124
514.156	0.0174142
514.234	0.0175414
514.312	0.0175153
514.390	0.0175226
514.468	0.0174879
514.547	0.0175219
514.625	0.0175539
514.703	0.0176408
514.781	0.0175445
514.859	0.0174104
514.937	0.0176075
515.015	0.0175011
515.093	0.0175084
515.172	0.0174531
515.250	0.0173689
515.328	0.0174449
515.406	0.0174141
515.484	0.0175501
515.562	0.0174982
515.640	0.0175221
515.718	0.0175870
515.797	0.0173978
515.875	0.0174529
515.953	0.0174785
516.031	0.0174893
516.109	0.0174911
516.187	0.0176195
516.265	0.0176005
516.343	0.0174208
516.422	0.0174770
516.500	0.0176311
516.578	0.0176763
516.656	0.0176064
516.734	0.0175650
516.812	0.0176553
516.890	0.0176788
516.968	0.0176420
517.047	0.0176842
517.125	0.0177041
517.203	0.0176353
517.281	0.0177846
517.359	0.0175780
517.437	0.0178009
517.515	0.0177634
517.593	0.0178255
517.672	0.0178414
517.750	0.0177820
517.828	0.0178220
517.906	0.0178200
517.984	0.0177647
518.062	0.0177365
518.140	0.0179847
518.218	0.0179463
518.297	0.0178650
518.375	0.0179240
518.453	0.0180526
518.531	0.0179973
518.609	0.0180485
518.687	0.0179718
518.765	0.0179886
518.843	0.0180194
518.922	0.0181350
519.000	0.0181753
519.078	0.0180639
519.156	0.0182158
519.234	0.0181310
519.312	0.0181946
519.390	0.0181551
519.468	0.0180025
519.547	0.0180697
519.625	0.0182352
519.703	0.0182639
519.781	0.0182408
519.859	0.0182350
519.937	0.0183194
520.015	0.0181818
520.093	0.0183797
520.172	0.0182880
520.250	0.0183625
520.328	0.0182430
520.406	0.0183152
520.484	0.0183521
520.562	0.0182307
520.640	0.0183274
520.718	0.0183469
520.797	0.0183733
520.875	0.0182023
520.953	0.0184071
521.031	0.0183372
521.109	0.0183119
521.187	0.0182647
521.265	0.0183084
521.343	0.0182087
521.422	0.0183073
521.500	0.0182729
521.578	0.0180064
521.656	0.0182941
521.734	0.0182835
521.812	0.0181349
521.890	0.0182072
521.968	0.0181343
522.047	0.0181363
522.125	0.0181229
522.203	0.0179755
522.281	0.0180882
522.359	0.0179602
522.437	0.0180134
522.515	0.0180495
522.593	0.0179440
522.672	0.0177830
522.750	0.0180585
522.828	0.0179401
522.906	0.0178669
522.984	0.0178062
523.062	0.0178460
523.140	0.0177916
523.218	0.0177280
523.297	0.0179848
523.375	0.0177808
523.453	0.0177418
523.531	0.0176252
523.609	0.0176773
523.687	0.0176105
523.765	0.0176624
523.843	0.0175699
523.922	0.0176724
524.000	0.0173976
524.078	0.0174484
524.156	0.0175282
524.234	0.0175252
524.312	0.0174548
524.390	0.0173169
524.468	0.0173367
524.547	0.0172993
524.625	0.0172796
524.703	0.0172332
524.781	0.0172744
524.859	0.0172894
524.937	0.0171841
525.015	0.0170795
525.093	0.0171577
525.172	0.0172860
525.250	0.0172050
525.328	0.0170202
525.406	0.0170608
525.484	0.0170518
525.562	0.0170690
525.640	0.0171759
525.718	0.0171732
525.797	0.0170777
525.875	0.0172068
525.953	0.0171095
526.031	0.0172195
526.109	0.0171338
526.187	0.0171633
526.265	0.0171905
526.343	0.0170771
526.422	0.0172011
526.500	0.0172405
526.578	0.0172109
526.656	0.0172474
526.734	0.0172449
526.812	0.0173274
526.890	0.0172693
526.968	0.0174260
527.047	0.0173995
527.125	0.0174364
527.203	0.0173649
527.281	0.0175007
527.359	0.0176824
527.437	0.0176349
527.515	0.0176047
527.593	0.0177434
527.672	0.0176224
527.750	0.0177837
527.828	0.0178648
527.906	0.0177338
527.984	0.0178227
528.062	0.0177790
528.140	0.0179540
528.218	0.0179547
528.297	0.0178566
528.375	0.0179033
528.453	0.0179716
528.531	0.0181393
528.609	0.0180383
528.687	0.0180631
528.765	0.0179641
528.843	0.0180276
528.922	0.0181013
529.000	0.0181142
529.078	0.0181698
529.156	0.0181173
529.234	0.0180693
529.312	0.0182839
529.390	0.0181260
529.468	0.0181878
529.547	0.0181549
529.625	0.0180238
529.703	0.0181625
529.781	0.0181300
529.859	0.0181387
529.937	0.0179893
530.015	0.0181185
530.093	0.0181760
530.172	0.0181617
530.250	0.0181706
530.328	0.0180385
530.406	0.0179288
530.484	0.0180401
530.562	0.0179993
530.640	0.0180003
530.718	0.0178928
530.797	0.0178983
530.875	0.0179642
530.953	0.0178012
531.031	0.0178954
531.109	0.0179841
531.187	0.0180067
531.265	0.0178281
531.343	0.0180269
531.422	0.0178201
531.500	0.0179443
531.578	0.0179079
531.656	0.0179823
531.734	0.0178228
531.812	0.0177895
531.890	0.0179172
531.968	0.0177558
532.047	0.0177225
532.125	0.0177606
532.203	0.0177045
532.281	0.0177289
532.359	0.0176839
532.437	0.0176482
532.515	0.0175036
532.593	0.0175445
532.672	0.0175590
532.750	0.0175386
532.828	0.0175731
532.906	0.0172886
532.984	0.0173400
533.062	0.0174035
533.140	0.0174331
533.218	0.0174624
533.297	0.0174192
533.375	0.0174859
533.453	0.0173791
533.531	0.0174027
533.609	0.0174377
533.687	0.0174890
533.765	0.0173637
533.843	0.0171918
533.922	0.0172891
534.000	0.0171997
534.078	0.0172372
534.156	0.0174059
534.234	0.0171739
534.312	0.0172739
534.390	0.0172639
534.468	0.0172231
534.547	0.0171442
534.625	0.0172688
534.703	0.0171002
534.781	0.0170995
534.859	0.0171325
534.937	0.0172371
535.015	0.0172821
535.093	0.0172215
535.172	0.0172370
535.250	0.0172555
535.328	0.0172174
535.406	0.0172697
535.484	0.0173890
535.562	0.0173145
535.640	0.0172711
535.718	0.0172075
535.797	0.0173446
535.875	0.0174437
535.953	0.0174814
536.031	0.0174767
536.109	0.0175188
536.187	0.0174388
536.265	0.0175106
536.343	0.0173277
536.422	0.0175258
536.500	0.0175308
536.578	0.0174834
536.656	0.0175290
536.734	0.0175045
536.812	0.0175505
536.890	0.0175211
536.968	0.0174694
537.047	0.0174998
537.125	0.0176671
537.203	0.0174955
537.281	0.0173428
537.359	0.0174541
537.437	0.0174359
537.515	0.0175338
537.593	0.0175320
537.672	0.0174939
537.750	0.0176373
537.828	0.0175807
537.906	0.0177834
537.984	0.0177467
538.062	0.0175883
538.140	0.0176736
538.218	0.0177515
538.297	0.0176891
538.375	0.0175941
538.453	0.0176884
538.531	0.0177325
538.609	0.0178148
538.687	0.0178654
538.765	0.0176240
538.843	0.0177679
538.922	0.0176405
539.000	0.0176810
539.078	0.0177866
539.156	0.0177229
539.234	0.0177126
539.312	0.0177863
539.390	0.0177895
539.468	0.0178747
539.547	0.0179848
539.625	0.0176418
539.703	0.0177015
539.781	0.0178505
539.859	0.0178412
539.937	0.0178579
540.015	0.0178165
540.093	0.0179679
540.172	0.0178185
540.250	0.0178772
540.328	0.0180191
540.406	0.0179166
540.484	0.0178663
540.562	0.0178830
540.640	0.0179151
540.718	0.0179845
540.797	0.0179809
540.875	0.0181002
540.953	0.0180149
541.031	0.0178780
541.109	0.0181721
541.187	0.0180872
541.265	0.0179602
541.343	0.0181764
541.422	0.0182574
541.500	0.0179883
541.578	0.0182906
541.656	0.0181467
541.734	0.0182270
541.812	0.0181895
541.890	0.0183292
541.968	0.0182140
542.047	0.0182289
542.125	0.0183639
542.203	0.0184323
542.281	0.0185581
542.359	0.0184529
542.437	0.0185836
542.515	0.0184988
542.593	0.0184707
542.672	0.0184538
542.750	0.0186272
542.828	0.0185881
542.906	0.0186392
542.984	0.0185576
543.062	0.0185671
543.140	0.0183676
543.218	0.0184457
543.297	0.0183986
543.375	0.0184414
543.453	0.0181823
543.531	0.0181126
543.609	0.0180213
543.687	0.0181872
543.765	0.0182309
543.843	0.0179784
543.922	0.0180629
544.000	0.0180471
544.078	0.0179438
544.156	0.0180201
544.234	0.0179944
544.312	0.0180730
544.390	0.0179432
544.468	0.0178635
544.547	0.0180643
544.625	0.0179641
544.703	0.0178623
544.781	0.0177664
544.859	0.0177464
544.937	0.0176764
545.015	0.0176414
545.093	0.0174038
545.172	0.0173751
545.250	0.0174049
545.328	0.0173569
545.406	0.0172668
545.484	0.0171900
545.562	0.0172321
545.640	0.0170606
545.718	0.0170860
545.797	0.0170587
545.875	0.0170298
545.953	0.0168932
546.031	0.0169778
546.109	0.0169736
546.187	0.0168949
546.265	0.0170125
546.343	0.0169437
546.422	0.0170144
546.500	0.0169222
546.578	0.0170392
546.656	0.0169923
546.734	0.0170619
546.812	0.0170924
546.890	0.0170918
546.968	0.0170779
547.047	0.0169760
547.125	0.0169885
547.203	0.0170626
547.281	0.0170745
547.359	0.0170547
547.437	0.0169787
547.515	0.0169730
547.593	0.0167506
547.672	0.0168533
547.750	0.0168923
547.828	0.0167822
547.906	0.0167544
547.984	0.0166929
548.062	0.0165945
548.140	0.0166907
548.218	0.0166750
548.297	0.0167098
548.375	0.0166851
548.453	0.0167432
548.531	0.0167680
548.609	0.0167056
548.687	0.0168446
548.765	0.0167558
548.843	0.0169099
548.922	0.0170898
549.000	0.0170549
549.078	0.0171111
549.156	0.0171307
549.234	0.0172041
549.312	0.0172917
549.390	0.0174021
549.468	0.0175186
549.547	0.0176295
549.625	0.0177169
549.703	0.0179449
549.781	0.0179266
549.859	0.0180404
549.937	0.0180589
550.015	0.0181660
550.093	0.0183080
550.172	0.0183482
550.250	0.0183639
550.328	0.0185025
550.406	0.0186509
550.484	0.0185187
550.562	0.0185755
550.640	0.0186457
550.718	0.0185800
550.797	0.0186896
550.875	0.0186266
550.953	0.0187379
551.031	0.0187045
551.109	0.0187012
551.187	0.0187012
551.265	0.0186499
551.343	0.0187240
551.422	0.0186487
551.500	0.0186844
551.578	0.0185748
551.656	0.0185815
551.734	0.0185077
551.812	0.0185654
551.890	0.0185572
551.968	0.0184338
552.047	0.0185022
552.125	0.0185358
552.203	0.0183708
552.281	0.0183723
552.359	0.0183132
552.437	0.0184315
552.515	0.0184090
552.593	0.0181200
552.672	0.0182709
552.750	0.0182403
552.828	0.0181664
552.906	0.0180267
552.984	0.0180377
553.062	0.0180729
553.140	0.0179648
553.218	0.0179205
553.297	0.0179579
553.375	0.0179663
553.453	0.0178641
553.531	0.0178455
553.609	0.0178236
553.687	0.0178317
553.765	0.0177979
553.843	0.0178187
553.922	0.0178353
554.000	0.0178036
554.078	0.0177740
554.156	0.0177440
554.234	0.0177639
554.312	0.0177246
554.390	0.0177795
554.468	0.0176758
554.547	0.0177874
554.625	0.0176070
554.703	0.0176144
554.781	0.0176099
554.859	0.0176953
554.937	0.0176940
555.015	0.0176413
555.093	0.0175751
555.172	0.0174166
555.250	0.0175099
555.328	0.0175182
555.406	0.0175351
555.484	0.0173337
555.562	0.0174436
555.640	0.0174357
555.718	0.0173232
555.797	0.0173483
555.875	0.0173447
555.953	0.0172726
556.031	0.0173126
556.109	0.0172469
556.187	0.0171498
556.265	0.0173179
556.343	0.0171772
556.422	0.0171723
556.500	0.0172520
556.578	0.0172363
556.656	0.0171775
556.734	0.0171008
556.812	0.0171066
556.890	0.0172782
556.968	0.0171701
557.047	0.0171327
557.125	0.0170507
557.203	0.0169745
557.281	0.0172086
557.359	0.0171125
557.437	0.0171446
557.515	0.0169870
557.593	0.0171616
557.672	0.0172310
557.750	0.0171593
557.828	0.0171538
557.906	0.0171003
557.984	0.0170610
558.062	0.0171020
558.140	0.0172247
558.218	0.0170301
558.297	0.0171914
558.375	0.0173209
558.453	0.0171732
558.531	0.0172990
558.609	0.0172846
558.687	0.0173228
558.765	0.0172704
558.843	0.0172184
558.922	0.0172848
559.000	0.0174490
559.078	0.0174567
559.156	0.0174212
559.234	0.0173063
559.312	0.0174757
559.390	0.0175583
559.468	0.0174532
559.547	0.0175839
559.625	0.0174831
559.703	0.0174354
559.781	0.0175619
559.859	0.0176441
559.937	0.0175401
560.015	0.0176814
560.093	0.0176134
560.172	0.0174773
560.250	0.0175139
560.328	0.0177464
560.406	0.0177267
560.484	0.0176604
560.562	0.0177361
560.640	0.0177335
560.718	0.0177188
560.797	0.0177183
560.875	0.0176874
560.953	0.0176639
561.031	0.0177783
561.109	0.0177794
561.187	0.0177211
561.265	0.0177335
561.343	0.0177110
561.422	0.0177577
561.500	0.0179039
561.578	0.0177683
561.656	0.0178429
561.734	0.0178448
561.812	0.0179253
561.890	0.0179650
561.968	0.0179343
562.047	0.0180192
562.125	0.0180164
562.203	0.0179236
562.281	0.0179040
562.359	0.0179530
562.437	0.0179539
562.515	0.0180463
562.593	0.0180659
562.672	0.0180326
562.750	0.0181274
562.828	0.0179904
562.906	0.0180823
562.984	0.0181060
563.062	0.0181328
563.140	0.0182663
563.218	0.0182526
563.297	0.0180164
563.375	0.0181807
563.453	0.0182320
563.531	0.0181838
563.609	0.0181665
563.687	0.0181883
563.765	0.0181607
563.843	0.0179832
563.922	0.0182101
564.000	0.0183106
564.078	0.0180775
564.156	0.0181561
564.234	0.0180302
564.312	0.0179492
564.390	0.0180554
564.468	0.0178476
564.547	0.0178904
564.625	0.0177991
564.703	0.0178683
564.781	0.0178902
564.859	0.0178111
564.937	0.0178753
565.015	0.0178497
565.093	0.0178384
565.172	0.0178532
565.250	0.0179281
565.328	0.0178426
565.406	0.0177357
565.484	0.0177411
565.562	0.0177341
565.640	0.0177976
565.718	0.0178676
565.797	0.0179141
565.875	0.0178088
565.953	0.0177480
566.031	0.0177608
566.109	0.0178753
566.187	0.0178096
566.265	0.0177562
566.343	0.0178627
566.422	0.0177930
566.500	0.0178384
566.578	0.0178259
566.656	0.0179263
566.734	0.0178688
566.812	0.0178192
566.890	0.0178069
566.968	0.0177299
567.047	0.0180459
567.125	0.0177209
567.203	0.0177739
567.281	0.0178577
567.359	0.0178660
567.437	0.0177242
567.515	0.0178342
567.593	0.0177859
567.672	0.0178975
567.750	0.0178963
567.828	0.0178258
567.906	0.0177420
567.984	0.0177646
568.062	0.0178919
568.140	0.0178727
568.218	0.0178210
568.297	0.0178069
568.375	0.0176869
568.453	0.0179216
568.531	0.0179602
568.609	0.0178329
568.687	0.0177247
568.765	0.0177664
568.843	0.0176848
568.922	0.0175799
569.000	0.0177230
569.078	0.0176164
569.156	0.0175491
569.234	0.0175674
569.312	0.0174911
569.390	0.0174084
569.468	0.0173784
569.547	0.0172781
569.625	0.0173468
569.703	0.0172605
569.781	0.0172961
569.859	0.0173072
569.937	0.0170880
570.015	0.0171131
570.093	0.0172659
570.172	0.0173145
570.250	0.0173198
570.328	0.0173714
570.406	0.0172501
570.484	0.0173219
570.562	0.0174528
570.640	0.0173155
570.718	0.0172698
570.797	0.0173659
570.875	0.0175707
570.953	0.0175028
571.031	0.0174201
571.109	0.0175516
571.187	0.0176842
571.265	0.0174780
571.343	0.0174384
571.422	0.0175577
571.500	0.0175540
571.578	0.0175304
571.656	0.0174268
571.734	0.0175153
571.812	0.0177061
571.890	0.0175185
571.968	0.0176039
572.047	0.0174285
572.125	0.0176200
572.203	0.0175381
572.281	0.0177188
572.359	0.0178273
572.437	0.0178810
572.515	0.0175912
572.593	0.0177168
572.672	0.0177610
572.750	0.0178061
572.828	0.0176887
572.906	0.0178563
572.984	0.0179601
573.062	0.0177499
573.140	0.0178156
573.218	0.0179810
573.297	0.0179671
573.375	0.0177787
573.453	0.0177858
573.531	0.0178011
573.609	0.0177763
573.687	0.0177190
573.765	0.0177625
573.843	0.0177204
573.922	0.0176665
574.000	0.0177551
574.078	0.0177451
574.156	0.0177151
574.234	0.0177676
574.312	0.0177740
574.390	0.0177637
574.468	0.0177586
574.547	0.0175999
574.625	0.0177620
574.703	0.0177450
574.781	0.0178067
574.859	0.0177457
574.937	0.0177534
575.015	0.0178642
575.093	0.0177922
575.172	0.0178020
575.250	0.0177459
575.328	0.0177533
575.406	0.0178228
575.484	0.0178177
575.562	0.0178508
575.640	0.0179079
575.718	0.0178164
575.797	0.0178625
575.875	0.0178673
575.953	0.0178329
576.031	0.0178454
576.109	0.0179484
576.187	0.0179581
576.265	0.0178748
576.343	0.0177989
576.422	0.0177473
576.500	0.0177721
576.578	0.0177331
576.656	0.0178489
576.734	0.0178110
576.812	0.0178479
576.890	0.0178447
576.968	0.0177557
577.047	0.0178516
577.125	0.0178111
577.203	0.0179037
577.281	0.0176814
577.359	0.0177499
577.437	0.0177833
577.515	0.0177315
577.593	0.0176182
577.672	0.0177405
577.750	0.0177158
577.828	0.0176915
577.906	0.0176797
577.984	0.0176481
578.062	0.0175269
578.140	0.0177625
578.218	0.0177791
578.297	0.0175578
578.375	0.0176499
578.453	0.0176707
578.531	0.0176483
578.609	0.0176607
578.687	0.0176957
578.765	0.0176830
578.843	0.0176802
578.922	0.0176523
579.000	0.0178243
579.078	0.0177847
579.156	0.0175841
579.234	0.0176552
579.312	0.0176104
579.390	0.0177287
579.468	0.0176859
579.547	0.0177231
579.625	0.0176251
579.703	0.0176196
579.781	0.0175687
579.859	0.0176327
579.937	0.0177050
580.015	0.0177789
580.093	0.0176316
580.172	0.0177779
580.250	0.0176986
580.328	0.0177080
580.406	0.0177381
580.484	0.0176875
580.562	0.0175866
580.640	0.0178053
580.718	0.0177058
580.797	0.0175907
580.875	0.0176114
580.953	0.0175812
581.031	0.0176010
581.109	0.0176599
581.187	0.0175881
581.265	0.0175715
581.343	0.0176000
581.422	0.0176871
581.500	0.0176650
581.578	0.0176948
581.656	0.0178461
581.734	0.0177616
581.812	0.0177533
581.890	0.0175574
581.968	0.0175027
582.047	0.0176344
582.125	0.0175463
582.203	0.0176466
582.281	0.0175919
582.359	0.0177126
582.437	0.0176231
582.515	0.0176759
582.593	0.0177366
582.672	0.0177353
582.750	0.0176225
582.828	0.0177216
582.906	0.0177460
582.984	0.0177628
583.062	0.0177588
583.140	0.0177346
583.218	0.0175568
583.297	0.0176016
583.375	0.0176691
583.453	0.0178739
583.531	0.0178031
583.609	0.0177001
583.687	0.0177248
583.765	0.0178132
583.843	0.0176254
583.922	0.0176440
584.000	0.0178419
584.078	0.0176102
584.156	0.0176478
584.234	0.0177490
584.312	0.0177040
584.390	0.0176767
584.468	0.0176041
584.547	0.0176149
584.625	0.0177004
584.703	0.0176080
584.781	0.0177827
584.859	0.0177352
584.937	0.0176893
585.015	0.0175748
585.093	0.0175528
585.172	0.0175727
585.250	0.0176229
585.328	0.0177144
585.406	0.0176745
585.484	0.0175713
585.562	0.0177193
585.640	0.0177660
585.718	0.0177197
585.797	0.0176177
585.875	0.0176739
585.953	0.0176469
586.031	0.0176469
586.109	0.0177058
586.187	0.0177894
586.265	0.0176934
586.343	0.0176602
586.422	0.0177406
586.500	0.0176277
586.578	0.0177254
586.656	0.0176230
586.734	0.0178320
586.812	0.0176061
586.890	0.0177441
586.968	0.0178542
587.047	0.0177008
587.125	0.0176614
587.203	0.0178114
587.281	0.0177207
587.359	0.0177982
587.437	0.0176496
587.515	0.0177126
587.593	0.0178793
587.672	0.0178101
587.750	0.0178219
587.828	0.0176999
587.906	0.0177573
587.984	0.0178303
588.062	0.0177803
588.140	0.0177351
588.218	0.0176523
588.297	0.0177914
588.375	0.0178543
588.453	0.0178008
588.531	0.0177718
588.609	0.0177188
588.687	0.0178061
588.765	0.0177438
588.843	0.0176963
588.922	0.0177103
589.000	0.0178816
589.078	0.0177741
589.156	0.0177269
589.234	0.0177725
589.312	0.0178555
589.390	0.0177637
589.468	0.0176400
589.547	0.0178358
589.625	0.0177535
589.703	0.0178115
589.781	0.0178325
589.859	0.0178242
589.937	0.0179136
590.015	0.0178265
590.093	0.0177833
590.172	0.0178705
590.250	0.0178098
590.328	0.0178487
590.406	0.0178292
590.484	0.0177759
590.562	0.0178082
590.640	0.0177918
590.718	0.0176962
590.797	0.0179496
590.875	0.0177689
590.953	0.0177741
591.031	0.0178351
591.109	0.0177665
591.187	0.0177243
591.265	0.0177531
591.343	0.0178674
591.422	0.0176706
591.500	0.0176811
591.578	0.0177691
591.656	0.0177120
591.734	0.0178389
591.812	0.0177480
591.890	0.0177351
591.968	0.0176722
592.047	0.0177688
592.125	0.0177504
592.203	0.0177086
592.281	0.0177618
592.359	0.0177789
592.437	0.0176667
592.515	0.0175857
592.593	0.0176416
592.672	0.0178090
592.750	0.0178526
592.828	0.0177411
592.906	0.0178788
592.984	0.0177048
593.062	0.0177439
593.140	0.0177963
593.218	0.0179486
593.297	0.0178313
593.375	0.0177828
593.453	0.0179086
593.531	0.0177618
593.609	0.0178198
593.687	0.0179090
593.765	0.0180261
593.843	0.0178443
593.922	0.0177822
594.000	0.0177346
594.078	0.0177881
594.156	0.0178786
594.234	0.0177292
594.312	0.0177663
594.390	0.0178266
594.468	0.0177451
594.547	0.0177439
594.625	0.0178948
594.703	0.0178103
594.781	0.0177151
594.859	0.0176499
594.937	0.0177311
595.015	0.0177156
595.093	0.0177547
595.172	0.0176191
595.250	0.0177362
595.328	0.0177537
595.406	0.0175410
595.484	0.0176041
595.562	0.0177538
595.640	0.0176496
595.718	0.0177792
595.797	0.0176832
595.875	0.0177605
595.953	0.0175946
596.031	0.0176335
596.109	0.0176948
596.187	0.0177206
596.265	0.0176431
596.343	0.0178053
596.422	0.0176279
596.500	0.0176570
596.578	0.0175368
596.656	0.0177201
596.734	0.0177660
596.812	0.0175677
596.890	0.0177457
596.968	0.0175890
597.047	0.0176843
597.125	0.0176751
597.203	0.0177642
597.281	0.0176694
597.359	0.0174849
597.437	0.0174767
597.515	0.0175433
597.593	0.0176265
597.672	0.0175782
597.750	0.0175746
597.828	0.0175685
597.906	0.0176028
597.984	0.0176023
598.062	0.0175838
598.140	0.0176805
598.218	0.0177056
598.297	0.0177786
598.375	0.0176658
598.453	0.0177968
598.531	0.0176560
598.609	0.0176146
598.687	0.0176966
598.765	0.0176870
598.843	0.0178315
598.922	0.0177856
599.000	0.0178204
599.078	0.0178066
599.156	0.0176648
599.234	0.0177879
599.312	0.0179302
599.390	0.0179276
599.468	0.0179506
599.547	0.0177914
599.625	0.0177577
599.703	0.0178024
599.781	0.0177855
599.859	0.0179545
599.937	0.0179225
600.015	0.0178789
600.093	0.0179229
600.172	0.0177861
600.250	0.0177921
600.328	0.0179048
600.406	0.0179276
600.484	0.0179404
600.562	0.0179237
600.640	0.0179695
600.718	0.0179041
600.797	0.0178821
600.875	0.0179243
600.953	0.0179015
601.031	0.0180271
601.109	0.0181439
601.187	0.0179852
601.265	0.0180145
601.343	0.0180820
601.422	0.0179291
601.500	0.0180615
601.578	0.0180687
601.656	0.0180637
601.734	0.0180879
601.812	0.0180758
601.890	0.0181020
601.968	0.0180010
602.047	0.0180355
602.125	0.0180984
602.203	0.0179505
602.281	0.0179388
602.359	0.0181591
602.437	0.0179209
602.515	0.0180748
602.593	0.0179854
602.672	0.0178534
602.750	0.0179415
602.828	0.0179519
602.906	0.0178886
602.984	0.0178349
603.062	0.0179794
603.140	0.0179937
603.218	0.0178410
603.297	0.0178503
603.375	0.0179144
603.453	0.0178590
603.531	0.0177654
603.609	0.0178081
603.687	0.0179533
603.765	0.0179062
603.843	0.0178588
603.922	0.0177847
604.000	0.0178451
604.078	0.0179485
604.156	0.0178489
604.234	0.0178156
604.312	0.0179551
604.390	0.0178375
604.468	0.0178617
604.547	0.0177271
604.625	0.0177294
604.703	0.0177441
604.781	0.0177469
604.859	0.0178200
604.937	0.0177116
605.015	0.0176820
605.093	0.0174931
605.172	0.0177283
605.250	0.0176472
605.328	0.0177693
605.406	0.0176858
605.484	0.0176479
605.562	0.0175085
605.640	0.0176931
605.718	0.0177824
605.797	0.0178143
605.875	0.0177777
605.953	0.0175889
606.031	0.0175429
606.109	0.0175545
606.187	0.0174175
606.265	0.0175409
606.343	0.0176614
606.422	0.0175773
606.500	0.0175880
606.578	0.0176809
606.656	0.0177121
606.734	0.0176958
606.812	0.0175219
606.890	0.0176331
606.968	0.0175898
607.047	0.0175214
607.125	0.0175661
607.203	0.0176328
607.281	0.0174687
607.359	0.0174796
607.437	0.0174105
607.515	0.0174290
607.593	0.0174151
607.672	0.0174811
607.750	0.0174960
607.828	0.0173705
607.906	0.0173217
607.984	0.0173705
608.062	0.0172802
608.140	0.0174135
608.218	0.0173280
608.297	0.0174204
608.375	0.0174076
608.453	0.0173557
608.531	0.0172974
608.609	0.0174609
608.687	0.0174598
608.765	0.0174366
608.843	0.0174485
608.922	0.0174316
609.000	0.0174371
609.078	0.0174641
609.156	0.0172839
609.234	0.0173999
609.312	0.0174839
609.390	0.0174812
609.468	0.0174608
609.547	0.0173886
609.625	0.0174153
609.703	0.0175652
609.781	0.0174180
609.859	0.0175277
609.937	0.0174815
610.015	0.0175472
610.093	0.0175198
610.172	0.0174883
610.250	0.0173736
610.328	0.0174692
610.406	0.0174458
610.484	0.0175390
610.562	0.0174306
610.640	0.0175475
610.718	0.0176580
610.797	0.0175021
610.875	0.0175643
610.953	0.0175008
611.031	0.0176774
611.109	0.0177197
611.187	0.0175344
611.265	0.0175895
611.343	0.0177028
611.422	0.0176739
611.500	0.0177043
611.578	0.0176912
611.656	0.0177071
611.734	0.0177575
611.812	0.0177116
611.890	0.0177189
611.968	0.0177821
612.047	0.0176605
612.125	0.0178326
612.203	0.0177959
612.281	0.0178964
612.359	0.0177113
612.437	0.0176958
612.515	0.0178778
612.593	0.0179622
612.672	0.0178407
612.750	0.0177709
612.828	0.0179234
612.906	0.0179285
612.984	0.0177890
613.062	0.0178221
613.140	0.0178496
613.218	0.0178537
613.297	0.0179848
613.375	0.0178519
613.453	0.0177954
613.531	0.0178104
613.609	0.0179065
613.687	0.0177651
613.765	0.0177614
613.843	0.0177808
613.922	0.0177045
614.000	0.0176706
614.078	0.0176920
614.156	0.0176587
614.234	0.0176591
614.312	0.0177567
614.390	0.0176984
614.468	0.0176913
614.547	0.0177667
614.625	0.0177046
614.703	0.0177051
614.781	0.0176334
614.859	0.0178024
614.937	0.0176572
615.015	0.0176285
615.093	0.0175484
615.172	0.0177153
615.250	0.0176382
615.328	0.0175665
615.406	0.0177417
615.484	0.0176465
615.562	0.0175849
615.640	0.0176466
615.718	0.0176534
615.797	0.0175710
615.875	0.0176455
615.953	0.0174773
616.031	0.0175478
616.109	0.0176775
616.187	0.0175341
616.265	0.0176115
616.343	0.0176185
616.422	0.0176007
616.500	0.0175553
616.578	0.0175393
616.656	0.0175951
616.734	0.0176873
616.812	0.0175925
616.890	0.0176335
616.968	0.0175727
617.047	0.0176598
617.125	0.0176276
617.203	0.0176731
617.281	0.0176987
617.359	0.0176138
617.437	0.0176951
617.515	0.0176576
617.593	0.0176141
617.672	0.0175803
617.750	0.0176516
617.828	0.0176740
617.906	0.0176408
617.984	0.0175797
618.062	0.0175541
618.140	0.0176627
618.218	0.0174740
618.297	0.0175974
618.375	0.0175366
618.453	0.0176051
618.531	0.0176327
618.609	0.0175389
618.687	0.0174630
618.765	0.0174748
618.843	0.0174479
618.922	0.0176314
619.000	0.0176688
619.078	0.0176196
619.156	0.0175595
619.234	0.0175589
619.312	0.0175185
619.390	0.0176315
619.468	0.0176046
619.547	0.0175359
619.625	0.0175723
619.703	0.0176151
619.781	0.0175726
619.859	0.0177171
619.937	0.0175419
620.015	0.0176461
620.093	0.0177303
620.172	0.0176437
620.250	0.0176430
620.328	0.0177063
620.406	0.0176701
620.484	0.0176337
620.562	0.0176407
620.640	0.0175912
620.718	0.0176825
620.797	0.0177467
620.875	0.0177310
620.953	0.0176949
621.031	0.0177538
621.109	0.0178329
621.187	0.0178091
621.265	0.0176267
621.343	0.0177449
621.422	0.0179034
621.500	0.0178609
621.578	0.0178168
621.656	0.0177345
621.734	0.0176918
621.812	0.0179039
621.890	0.0177935
621.968	0.0178547
622.047	0.0178005
622.125	0.0177742
622.203	0.0178917
622.281	0.0177769
622.359	0.0178333
622.437	0.0178144
622.515	0.0178078
622.593	0.0177791
622.672	0.0178281
622.750	0.0176480
622.828	0.0178371
622.906	0.0178760
622.984	0.0176221
623.062	0.0177797
623.140	0.0179312
623.218	0.0178049
623.297	0.0178205
623.375	0.0177460
623.453	0.0178414
623.531	0.0179829
623.609	0.0179091
623.687	0.0178383
623.765	0.0178396
623.843	0.0179457
623.922	0.0179260
624.000	0.0178091
624.078	0.0177435
624.156	0.0178372
624.234	0.0178229
624.312	0.0178503
624.390	0.0179105
624.468	0.0179170
624.547	0.0178194
624.625	0.0179521
624.703	0.0179221
624.781	0.0178720
624.859	0.0179572
624.937	0.0179240
625.015	0.0179323
625.093	0.0178077
625.172	0.0178857
625.250	0.0179342
625.328	0.0180363
625.406	0.0179755
625.484	0.0179460
625.562	0.0180386
625.640	0.0177955
625.718	0.0177913
625.797	0.0179121
625.875	0.0178721
625.953	0.0178500
626.031	0.0178440
626.109	0.0178124
626.187	0.0179191
626.265	0.0179250
626.343	0.0178428
626.422	0.0178394
626.500	0.0179133
626.578	0.0177049
626.656	0.0177605
626.734	0.0177576
626.812	0.0177865
626.890	0.0178808
626.968	0.0177329
627.047	0.0177022
627.125	0.0178544
627.203	0.0178512
627.281	0.0177522
627.359	0.0176417
627.437	0.0176875
627.515	0.0176051
627.593	0.0176199
627.672	0.0177258
627.750	0.0176949
627.828	0.0177110
627.906	0.0177766
627.984	0.0177014
628.062	0.0175470
628.140	0.0175460
628.218	0.0175881
628.297	0.0176595
628.375	0.0176914
628.453	0.0176601
628.531	0.0176512
628.609	0.0176404
628.687	0.0178275
628.765	0.0178199
628.843	0.0177790
628.922	0.0175740
629.000	0.0176402
629.078	0.0176448
629.156	0.0175273
629.234	0.0177570
629.312	0.0176089
629.390	0.0176378
629.468	0.0175992
629.547	0.0175583
629.625	0.0175872
629.703	0.0176944
629.781	0.0176223
629.859	0.0176057
629.937	0.0175446
630.015	0.0175674
630.093	0.0177626
630.172	0.0176813
630.250	0.0176067
630.328	0.0175697
630.406	0.0176968
630.484	0.0175808
630.562	0.0177425
630.640	0.0176336
630.718	0.0176005
630.797	0.0177534
630.875	0.0176659
630.953	0.0176727
631.031	0.0176624
631.109	0.0176781
631.187	0.0176046
631.265	0.0176480
631.343	0.0176376
631.422	0.0174442
631.500	0.0176713
631.578	0.0176205
631.656	0.0176879
631.734	0.0178092
631.812	0.0178090
631.890	0.0176340
631.968	0.0175867
632.047	0.0177407
632.125	0.0178123
632.203	0.0176060
632.281	0.0177853
632.359	0.0178465
632.437	0.0176099
632.515	0.0177210
632.593	0.0175474
632.672	0.0177799
632.750	0.0177462
632.828	0.0178428
632.906	0.0177962
632.984	0.0176272
633.062	0.0176255
633.140	0.0177631
633.218	0.0176906
633.297	0.0178255
633.375	0.0176192
633.453	0.0176944
633.531	0.0177818
633.609	0.0176068
633.687	0.0176929
633.765	0.0176978
633.843	0.0176010
633.922	0.0175895
634.000	0.0175459
634.078	0.0176170
634.156	0.0175386
634.234	0.0174503
634.312	0.0176338
634.390	0.0176671
634.468	0.0175799
634.547	0.0176178
634.625	0.0176379
634.703	0.0176374
634.781	0.0175724
634.859	0.0175663
634.937	0.0177272
635.015	0.0175226
635.093	0.0175574
635.172	0.0176524
635.250	0.0175375
635.328	0.0175648
635.406	0.0176160
635.484	0.0176759
635.562	0.0177538
635.640	0.0176311
635.718	0.0175929
635.797	0.0176894
635.875	0.0177648
635.953	0.0176952
636.031	0.0176756
636.109	0.0176292
636.187	0.0177164
636.265	0.0177389
636.343	0.0174363
636.422	0.0177103
636.500	0.0178466
636.578	0.0177901
636.656	0.0178280
636.734	0.0177973
636.812	0.0178029
636.890	0.0177120
636.968	0.0177739
637.047	0.0179446
637.125	0.0176978
637.203	0.0177533
637.281	0.0177597
637.359	0.0177074
637.437	0.0177803
637.515	0.0177666
637.593	0.0176348
637.672	0.0177215
637.750	0.0175767
637.828	0.0177270
637.906	0.0177477
637.984	0.0176759
638.062	0.0175466
638.140	0.0175890
638.218	0.0175963
638.297	0.0174760
638.375	0.0176250
638.453	0.0175227
638.531	0.0175066
638.609	0.0175031
638.687	0.0174738
638.765	0.0175547
638.843	0.0175322
638.922	0.0174781
639.000	0.0174363
639.078	0.0173870
639.156	0.0175720
639.234	0.0175078
639.312	0.0175983
639.390	0.0174834
639.468	0.0175201
639.547	0.0175449
639.625	0.0174044
639.703	0.0175699
639.781	0.0176654
639.859	0.0175078
639.937	0.0174962
640.015	0.0175295
640.093	0.0176382
640.172	0.0177029
640.250	0.0175404
640.328	0.0176809
640.406	0.0176447
640.484	0.0176334
640.562	0.0176469
640.640	0.0175885
640.718	0.0176273
640.797	0.0176666
640.875	0.0177306
640.953	0.0176290
641.031	0.0177339
641.109	0.0177618
641.187	0.0177479
641.265	0.0176970
641.343	0.0177313
641.422	0.0178815
641.500	0.0177650
641.578	0.0177310
641.656	0.0175623
641.734	0.0175582
641.812	0.0177769
641.890	0.0177287
641.968	0.0176904
642.047	0.0177557
642.125	0.0177536
642.203	0.0177981
642.281	0.0177107
642.359	0.0177468
642.437	0.0177495
642.515	0.0177541
642.593	0.0178936
642.672	0.0178131
642.750	0.0176639
642.828	0.0178281
642.906	0.0178785
642.984	0.0177869
643.062	0.0178059
643.140	0.0176765
643.218	0.0176495
643.297	0.0178004
643.375	0.0178436
643.453	0.0177423
643.531	0.0178302
643.609	0.0177486
643.687	0.0178119
643.765	0.0179467
643.843	0.0178326
643.922	0.0177272
644.000	0.0176853
644.078	0.0178546
644.156	0.0178612
644.234	0.0178108
644.312	0.0179537
644.390	0.0177805
644.468	0.0177419
644.547	0.0177544
644.625	0.0177335
644.703	0.0179466
644.781	0.0178374
644.859	0.0177824
644.937	0.0177734
645.015	0.0178932
645.093	0.0178690
645.172	0.0177832
645.250	0.0177505
645.328	0.0176024
645.406	0.0176482
645.484	0.0177202
645.562	0.0177751
645.640	0.0176205
645.718	0.0176153
645.797	0.0177403
645.875	0.0175947
645.953	0.0175792
646.031	0.0176777
646.109	0.0175322
646.187	0.0175907
646.265	0.0175375
646.343	0.0176218
646.422	0.0175401
646.500	0.0174197
646.578	0.0174950
646.656	0.0174932
646.734	0.0174715
646.812	0.0175304
646.890	0.0176104
646.968	0.0176550
647.047	0.0175854
647.125	0.0176022
647.203	0.0175786
647.281	0.0175536
647.359	0.0175488
647.437	0.0176890
647.515	0.0177637
647.593	0.0177509
647.672	0.0176673
647.750	0.0177229
647.828	0.0176742
647.906	0.0179079
647.984	0.0177348
648.062	0.0177485
648.140	0.0177378
648.218	0.0177110
648.297	0.0177872
648.375	0.0177848
648.453	0.0177182
648.531	0.0177431
648.609	0.0178619
648.687	0.0177297
648.765	0.0177790
648.843	0.0178168
648.922	0.0178683
649.000	0.0178610
649.078	0.0178125
649.156	0.0177911
649.234	0.0177484
649.312	0.0176640
649.390	0.0176958
649.468	0.0177219
649.547	0.0176821
649.625	0.0178319
649.703	0.0176258
649.781	0.0175541
649.859	0.0177615
649.937	0.0177416
650.015	0.0175851
650.093	0.0176709
650.172	0.0177005
650.250	0.0177878
650.328	0.0176720
650.406	0.0176958
650.484	0.0177383
650.562	0.0175848
650.640	0.0175700
650.718	0.0177416
650.797	0.0176591
650.875	0.0176427
650.953	0.0177730
651.031	0.0178472
651.109	0.0177989
651.187	0.0178649
651.265	0.0176140
651.343	0.0178302
651.422	0.0178281
651.500	0.0177373
651.578	0.0178118
651.656	0.0177508
651.734	0.0178476
651.812	0.0176244
651.890	0.0178379
651.968	0.0179155
652.047	0.0178371
652.125	0.0177222
652.203	0.0178177
652.281	0.0177690
652.359	0.0177217
652.437	0.0178481
652.515	0.0178498
652.593	0.0180369
652.672	0.0179167
652.750	0.0178802
652.828	0.0179240
652.906	0.0178628
652.984	0.0178410
653.062	0.0179347
653.140	0.0179757
653.218	0.0179300
653.297	0.0179826
653.375	0.0180194
653.453	0.0179951
653.531	0.0178121
653.609	0.0180004
653.687	0.0179867
653.765	0.0180791
653.843	0.0179077
653.922	0.0179371
654.000	0.0179168
654.078	0.0180990
654.156	0.0178719
654.234	0.0179642
654.312	0.0180180
654.390	0.0179641
654.468	0.0179009
654.547	0.0179226
654.625	0.0178222
654.703	0.0179042
654.781	0.0178166
654.859	0.0178654
654.937	0.0179330
655.015	0.0177813
655.093	0.0179077
655.172	0.0178548
655.250	0.0180468
655.328	0.0177835
655.406	0.0177445
655.484	0.0178505
655.562	0.0178030
655.640	0.0178730
655.718	0.0179546
655.797	0.0177308
655.875	0.0178861
655.953	0.0178868
656.031	0.0177509
656.109	0.0176442
656.187	0.0177022
656.265	0.0178162
656.343	0.0177718
656.422	0.0177459
656.500	0.0177549
656.578	0.0178003
656.656	0.0177312
656.734	0.0177112
656.812	0.0176746
656.890	0.0177616
656.968	0.0177440
657.047	0.0175713
657.125	0.0175823
657.203	0.0176197
657.281	0.0174970
657.359	0.0174803
657.437	0.0176234
657.515	0.0175013
657.593	0.0176704
657.672	0.0176235
657.750	0.0175818
657.828	0.0176496
657.906	0.0177691
657.984	0.0175520
658.062	0.0175928
658.140	0.0176176
658.218	0.0175789
658.297	0.0175655
658.375	0.0177459
658.453	0.0176570
658.531	0.0175862
658.609	0.0177225
658.687	0.0177859
658.765	0.0176479
658.843	0.0177156
658.922	0.0176640
659.000	0.0175678
659.078	0.0176521
659.156	0.0175867
659.234	0.0175708
659.312	0.0176410
659.390	0.0177095
659.468	0.0176098
659.547	0.0174981
659.625	0.0175021
659.703	0.0175018
659.781	0.0176217
659.859	0.0176334
659.937	0.0174949
660.015	0.0175774
660.093	0.0177360
660.172	0.0175636
660.250	0.0174315
660.328	0.0174825
660.406	0.0175108
660.484	0.0176833
660.562	0.0175837
660.640	0.0175071
660.718	0.0176100
660.797	0.0177719
660.875	0.0176940
660.953	0.0175630
661.031	0.0177251
661.109	0.0176920
661.187	0.0176546
661.265	0.0175806
661.343	0.0177377
661.422	0.0177939
661.500	0.0177293
661.578	0.0175278
661.656	0.0176219
661.734	0.0177962
661.812	0.0176041
661.890	0.0176994
661.968	0.0177233
662.047	0.0176042
662.125	0.0176264
662.203	0.0176038
662.281	0.0176469
662.359	0.0175247
662.437	0.0175516
662.515	0.0175690
662.593	0.0176653
662.672	0.0175621
662.750	0.0176592
662.828	0.0176974
662.906	0.0176154
662.984	0.0176611
663.062	0.0175562
663.140	0.0177147
663.218	0.0176029
663.297	0.0177415
663.375	0.0177100
663.453	0.0177929
663.531	0.0177527
663.609	0.0177308
663.687	0.0177750
663.765	0.0178478
663.843	0.0179945
663.922	0.0177406
664.000	0.0178220
664.078	0.0179209
664.156	0.0179433
664.234	0.0179700
664.312	0.0179218
664.390	0.0179293
664.468	0.0179889
664.547	0.0179873
664.625	0.0180686
664.703	0.0180560
664.781	0.0179990
664.859	0.0180348
664.937	0.0179806
665.015	0.0178866
665.093	0.0179499
665.172	0.0179467
665.250	0.0180145
665.328	0.0180161
665.406	0.0178335
665.484	0.0179119
665.562	0.0179494
665.640	0.0179652
665.718	0.0177663
665.797	0.0178537
665.875	0.0179426
665.953	0.0178627
666.031	0.0179307
666.109	0.0179584
666.187	0.0179538
666.265	0.0177209
666.343	0.0178890
666.422	0.0179893
666.500	0.0178811
666.578	0.0178034
666.656	0.0178004
666.734	0.0177206
666.812	0.0178336
666.890	0.0177160
666.968	0.0178161
667.047	0.0177196
667.125	0.0177608
667.203	0.0177266
667.281	0.0177423
667.359	0.0175688
667.437	0.0176024
667.515	0.0176195
667.593	0.0178001
667.672	0.0176225
667.750	0.0176690
667.828	0.0176613
667.906	0.0176645
667.984	0.0177188
668.062	0.0177791
668.140	0.0177511
668.218	0.0178263
668.297	0.0178627
668.375	0.0177809
668.453	0.0178119
668.531	0.0179155
668.609	0.0178279
668.687	0.0178091
668.765	0.0179200
668.843	0.0180203
668.922	0.0178354
669.000	0.0178556
669.078	0.0176971
669.156	0.0177353
669.234	0.0176333
669.312	0.0177649
669.390	0.0177763
669.468	0.0175747
669.547	0.0177380
669.625	0.0176887
669.703	0.0176409
669.781	0.0175192
669.859	0.0176002
669.937	0.0174620
670.015	0.0175452
670.093	0.0176459
670.172	0.0175386
670.250	0.0174724
670.328	0.0176104
670.406	0.0175341
670.484	0.0175232
670.562	0.0174380
670.640	0.0174467
670.718	0.0175217
670.797	0.0175923
670.875	0.0174557
670.953	0.0175002
671.031	0.0175905
671.109	0.0175033
671.187	0.0174908
671.265	0.0175332
671.343	0.0175253
671.422	0.0174428
671.500	0.0172794
671.578	0.0173940
671.656	0.0173769
671.734	0.0171685
671.812	0.0172352
671.890	0.0173730
671.968	0.0173017
672.047	0.0171954
672.125	0.0172279
672.203	0.0173432
672.281	0.0174596
672.359	0.0173686
672.437	0.0175211
672.515	0.0175361
672.593	0.0174487
672.672	0.0175615
672.750	0.0176571
672.828	0.0176212
672.906	0.0176167
672.984	0.0178056
673.062	0.0177721
673.140	0.0178611
673.218	0.0177658
673.297	0.0177335
673.375	0.0177813
673.453	0.0178624
673.531	0.0179711
673.609	0.0179469
673.687	0.0179690
673.765	0.0177262
673.843	0.0179190
673.922	0.0178127
674.000	0.0177930
674.078	0.0179359
674.156	0.0178336
674.234	0.0179034
674.312	0.0179924
674.390	0.0180604
674.468	0.0179073
674.547	0.0180302
674.625	0.0179342
674.703	0.0178919
674.781	0.0181393
674.859	0.0180609
674.937	0.0181268
675.015	0.0181843
675.093	0.0180443
675.172	0.0181342
675.250	0.0180920
675.328	0.0181467
675.406	0.0181248
675.484	0.0182545
675.562	0.0180569
675.640	0.0180671
675.718	0.0179884
675.797	0.0179958
675.875	0.0179218
675.953	0.0180900
676.031	0.0180107
676.109	0.0180466
676.187	0.0181435
676.265	0.0180849
676.343	0.0180602
676.422	0.0180364
676.500	0.0181504
676.578	0.0181103
676.656	0.0181193
676.734	0.0180074
676.812	0.0180807
676.890	0.0182522
676.968	0.0181886
677.047	0.0180578
677.125	0.0180320
677.203	0.0179870
677.281	0.0179749
677.359	0.0180537
677.437	0.0179501
677.515	0.0178144
677.593	0.0177871
677.672	0.0178943
677.750	0.0177144
677.828	0.0174550
677.906	0.0175607
677.984	0.0175280
678.062	0.0176270
678.140	0.0174816
678.218	0.0174562
678.297	0.0174715
678.375	0.0175193
678.453	0.0174791
678.531	0.0173685
678.609	0.0174438
678.687	0.0174525
678.765	0.0174870
678.843	0.0174699
678.922	0.0175051
679.000	0.0173392
679.078	0.0173558
679.156	0.0175447
679.234	0.0175385
679.312	0.0175983
679.390	0.0175748
679.468	0.0175423
679.547	0.0176286
679.625	0.0176191
679.703	0.0174730
679.781	0.0175857
679.859	0.0177054
679.937	0.0177400
680.015	0.0176204
680.093	0.0175890
680.172	0.0175275
680.250	0.0175958
680.328	0.0175747
680.406	0.0175178
680.484	0.0175902
680.562	0.0174855
680.640	0.0176121
680.718	0.0175500
680.797	0.0174467
680.875	0.0174232
680.953	0.0175863
681.031	0.0174100
681.109	0.0173940
681.187	0.0175028
681.265	0.0173666
681.343	0.0174711
681.422	0.0174454
681.500	0.0175159
681.578	0.0174891
681.656	0.0175291
681.734	0.0174645
681.812	0.0176257
681.890	0.0175060
681.968	0.0175912
682.047	0.0176291
682.125	0.0175443
682.203	0.0175884
682.281	0.0174889
682.359	0.0175761
682.437	0.0176306
682.515	0.0175362
682.593	0.0175501
682.672	0.0177095
682.750	0.0176109
682.828	0.0177147
682.906	0.0177458
682.984	0.0176450
683.062	0.0175114
683.140	0.0176575
683.218	0.0176022
683.297	0.0176051
683.375	0.0176681
683.453	0.0176778
683.531	0.0176399
683.609	0.0175762
683.687	0.0177372
683.765	0.0175620
683.843	0.0176528
683.922	0.0176905
684.000	0.0176695
684.078	0.0177501
684.156	0.0177879
684.234	0.0177531
684.312	0.0175914
684.390	0.0177219
684.468	0.0176723
684.547	0.0177932
684.625	0.0180010
684.703	0.0179801
684.781	0.0178860
684.859	0.0179836
684.937	0.0180599
685.015	0.0178841
685.093	0.0178519
685.172	0.0179021
685.250	0.0178963
685.328	0.0179111
685.406	0.0178664
685.484	0.0178372
685.562	0.0178560
685.640	0.0179011
685.718	0.0177077
685.797	0.0176962
685.875	0.0177417
685.953	0.0176019
686.031	0.0176804
686.109	0.0176811
686.187	0.0176669
686.265	0.0176757
686.343	0.0176303
686.422	0.0177464
686.500	0.0177452
686.578	0.0176836
686.656	0.0177035
686.734	0.0178171
686.812	0.0177858
686.890	0.0177833
686.968	0.0179291
687.047	0.0178915
687.125	0.0178491
687.203	0.0177098
687.281	0.0178016
687.359	0.0176386
687.437	0.0176879
687.515	0.0177976
687.593	0.0177275
687.672	0.0176831
687.750	0.0176506
687.828	0.0175668
687.906	0.0173642
687.984	0.0174911
688.062	0.0176559
688.140	0.0175714
688.218	0.0175216
688.297	0.0175512
688.375	0.0176381
688.453	0.0174406
688.531	0.0174469
688.609	0.0174791
688.687	0.0175731
688.765	0.0175552
688.843	0.0176485
688.922	0.0175147
689.000	0.0174697
689.078	0.0175024
689.156	0.0177180
689.234	0.0176768
689.312	0.0174968
689.390	0.0175805
689.468	0.0176528
689.547	0.0176121
689.625	0.0176804
689.703	0.0176534
689.781	0.0176266
689.859	0.0177203
689.937	0.0177055
690.015	0.0176173
690.093	0.0177232
690.172	0.0176388
690.250	0.0177356
690.328	0.0176288
690.406	0.0176845
690.484	0.0177663
690.562	0.0177287
690.640	0.0177500
690.718	0.0177621
690.797	0.0176980
690.875	0.0175391
690.953	0.0176313
691.031	0.0177172
691.109	0.0176910
691.187	0.0175326
691.265	0.0176958
691.343	0.0176215
691.422	0.0176695
691.500	0.0174331
691.578	0.0174480
691.656	0.0174504
691.734	0.0173831
691.812	0.0175476
691.890	0.0174372
691.968	0.0175672
692.047	0.0175859
692.125	0.0175346
692.203	0.0175074
692.281	0.0174144
692.359	0.0176073
692.437	0.0176960
692.515	0.0176804
692.593	0.0175069
692.672	0.0177269
692.750	0.0176151
692.828	0.0177286
692.906	0.0177930
692.984	0.0178046
693.062	0.0177977
693.140	0.0177889
693.218	0.0177902
693.297	0.0176597
693.375	0.0178023
693.453	0.0177121
693.531	0.0176421
693.609	0.0177147
693.687	0.0177647
693.765	0.0176084
693.843	0.0175922
693.922	0.0176939
694.000	0.0175362
694.078	0.0175745
694.156	0.0174218
694.234	0.0175107
694.312	0.0175942
694.390	0.0174976
694.468	0.0174651
694.547	0.0174022
694.625	0.0174203
694.703	0.0174236
694.781	0.0174976
694.859	0.0175266
694.937	0.0174869
695.015	0.0175286
695.093	0.0176378
695.172	0.0175794
695.250	0.0176547
695.328	0.0176105
695.406	0.0176602
695.484	0.0177476
695.562	0.0177225
695.640	0.0177594
695.718	0.0177741
695.797	0.0178957
695.875	0.0179333
695.953	0.0177345
696.031	0.0177466
696.109	0.0178600
696.187	0.0178011
696.265	0.0177666
696.343	0.0177685
696.422	0.0179671
696.500	0.0178430
696.578	0.0178095
696.656	0.0177975
696.734	0.0178217
696.812	0.0178709
696.890	0.0178648
696.968	0.0179084
697.047	0.0179031
697.125	0.0179034
697.203	0.0179405
697.281	0.0179115
697.359	0.0178271
697.437	0.0178695
697.515	0.0180367
697.593	0.0179331
697.672	0.0179797
697.750	0.0180296
697.828	0.0179913
697.906	0.0179234
697.984	0.0179088
698.062	0.0179291
698.140	0.0180289
698.218	0.0179309
698.297	0.0180659
698.375	0.0180277
698.453	0.0181352
698.531	0.0181319
698.609	0.0179970
698.687	0.0178690
698.765	0.0178425
698.843	0.0179737
698.922	0.0179678
699.000	0.0180150
699.078	0.0179369
699.156	0.0178925
699.234	0.0178506
699.312	0.0178437
699.390	0.0178638
699.468	0.0178658
699.547	0.0178059
699.625	0.0178143
699.703	0.0178410
699.781	0.0178230
699.859	0.0177693
699.937	0.0176797
700.015	0.0177421
700.093	0.0175925
700.172	0.0177570
700.250	0.0177641
700.328	0.0176682
700.406	0.0177395
700.484	0.0177015
700.562	0.0177532
700.640	0.0178634
700.718	0.0176778
700.797	0.0175568
700.875	0.0177464
700.953	0.0176786
701.031	0.0175341
701.109	0.0175058
701.187	0.0176267
701.265	0.0176429
701.343	0.0176844
701.422	0.0176950
701.500	0.0176792
701.578	0.0175464
701.656	0.0174904
701.734	0.0175194
701.812	0.0175426
701.890	0.0176826
701.968	0.0175380
702.047	0.0174899
702.125	0.0174786
702.203	0.0175106
702.281	0.0173955
702.359	0.0174020
702.437	0.0174622
702.515	0.0174015
702.593	0.0174683
702.672	0.0173649
702.750	0.0174602
702.828	0.0175073
702.906	0.0173809
702.984	0.0175302
703.062	0.0174629
703.140	0.0174789
703.218	0.0176740
703.297	0.0174924
703.375	0.0176299
703.453	0.0177344
703.531	0.0175463
703.609	0.0176472
703.687	0.0177115
703.765	0.0177079
703.843	0.0177187
703.922	0.0175530
704.000	0.0176359
704.078	0.0176656
704.156	0.0177029
704.234	0.0177135
704.312	0.0175060
704.390	0.0176318
704.468	0.0176857
704.547	0.0176010
704.625	0.0176050
704.703	0.0175353
704.781	0.0175687
704.859	0.0177633
704.937	0.0175738
705.015	0.0174799
705.093	0.0176499
705.172	0.0174844
705.250	0.0175319
705.328	0.0173980
705.406	0.0174614
705.484	0.0175159
705.562	0.0177263
705.640	0.0174928
705.718	0.0175410
705.797	0.0175175
705.875	0.0176592
705.953	0.0177594
706.031	0.0177413
706.109	0.0178893
706.187	0.0177570
706.265	0.0179360
706.343	0.0179803
706.422	0.0178977
706.500	0.0179458
706.578	0.0180981
706.656	0.0181277
706.734	0.0180266
706.812	0.0180936
706.890	0.0180169
706.968	0.0179327
707.047	0.0178613
707.125	0.0178870
707.203	0.0180019
707.281	0.0178020
707.359	0.0176875
707.437	0.0177201
707.515	0.0177013
707.593	0.0176415
707.672	0.0175104
707.750	0.0173459
707.828	0.0174786
707.906	0.0175789
707.984	0.0175327
708.062	0.0175429
708.140	0.0174834
708.218	0.0174333
708.297	0.0173541
708.375	0.0176086
708.453	0.0176858
708.531	0.0176930
708.609	0.0176798
708.687	0.0177724
708.765	0.0178075
708.843	0.0177051
708.922	0.0179118
709.000	0.0179391
709.078	0.0179700
709.156	0.0179281
709.234	0.0179912
709.312	0.0179790
709.390	0.0180995
709.468	0.0179060
709.547	0.0178665
709.625	0.0179051
709.703	0.0177756
709.781	0.0177132
709.859	0.0176741
709.937	0.0175275
710.015	0.0175251
710.093	0.0174480
710.172	0.0175326
710.250	0.0174194
710.328	0.0173605
710.406	0.0173326
710.484	0.0174229
710.562	0.0172099
710.640	0.0174036
710.718	0.0173341
710.797	0.0173737
710.875	0.0174813
710.953	0.0173537
711.031	0.0174252
711.109	0.0174139
711.187	0.0174531
711.265	0.0176357
711.343	0.0175661
711.422	0.0175377
711.500	0.0176936
711.578	0.0177103
711.656	0.0176008
711.734	0.0177940
711.812	0.0176481
711.890	0.0179018
711.968	0.0178841
712.047	0.0178100
712.125	0.0179979
712.203	0.0180125
712.281	0.0180280
712.359	0.0180058
712.437	0.0179356
712.515	0.0179965
712.593	0.0177956
712.672	0.0178397
712.750	0.0177282
712.828	0.0178662
712.906	0.0177105
712.984	0.0177377
713.062	0.0176749
713.140	0.0175474
713.218	0.0174067
713.297	0.0175116
713.375	0.0175473
713.453	0.0173546
713.531	0.0173907
713.609	0.0175350
713.687	0.0173914
713.765	0.0172330
713.843	0.0173131
713.922	0.0174445
714.000	0.0172013
714.078	0.0174880
714.156	0.0175010
714.234	0.0174877
714.312	0.0174860
714.390	0.0176701
714.468	0.0176096
714.547	0.0176814
714.625	0.0176530
714.703	0.0177734
714.781	0.0178121
714.859	0.0177217
714.937	0.0177892
715.015	0.0178853
715.093	0.0178098
715.172	0.0177781
715.250	0.0179501
715.328	0.0177856
715.406	0.0179069
715.484	0.0178975
715.562	0.0180038
715.640	0.0179391
715.718	0.0178897
715.797	0.0179643
715.875	0.0178767
715.953	0.0180970
716.031	0.0179218
716.109	0.0181245
716.187	0.0179228
716.265	0.0177855
716.343	0.0177366
716.422	0.0178867
716.500	0.0177899
716.578	0.0180212
716.656	0.0179184
716.734	0.0177453
716.812	0.0178128
716.890	0.0176414
716.968	0.0176174
717.047	0.0175851
717.125	0.0176489
717.203	0.0175677
717.281	0.0176281
717.359	0.0176131
717.437	0.0176515
717.515	0.0176122
717.593	0.0178056
717.672	0.0177171
717.750	0.0177540
717.828	0.0177254
717.906	0.0178307
717.984	0.0177314
718.062	0.0177959
718.140	0.0178703
718.218	0.0178640
718.297	0.0179979
718.375	0.0178333
718.453	0.0178873
718.531	0.0179376
718.609	0.0179392
718.687	0.0178978
718.765	0.0178154
718.843	0.0178888
718.922	0.0179314
719.000	0.0178997
719.078	0.0179948
719.156	0.0179372
719.234	0.0178446
719.312	0.0178748
719.390	0.0178288
719.468	0.0178242
719.547	0.0177341
719.625	0.0179023
719.703	0.0177158
719.781	0.0177255
719.859	0.0177581
719.937	0.0177654
720.015	0.0176825
720.093	0.0177435
720.172	0.0177590
720.250	0.0178414
720.328	0.0176881
720.406	0.0178169
720.484	0.0178937
720.562	0.0176693
720.640	0.0176980
720.718	0.0177969
720.797	0.0178563
720.875	0.0178189
720.953	0.0175660
721.031	0.0176463
721.109	0.0177096
721.187	0.0176414
721.265	0.0177049
721.343	0.0175291
721.422	0.0176038
721.500	0.0175482
721.578	0.0177173
721.656	0.0176945
721.734	0.0176659
721.812	0.0175488
721.890	0.0176004
721.968	0.0176335
722.047	0.0177679
722.125	0.0177111
722.203	0.0176567
722.281	0.0176659
722.359	0.0176296
722.437	0.0177155
722.515	0.0177650
722.593	0.0178944
722.672	0.0176928
722.750	0.0176648
722.828	0.0176612
722.906	0.0175716
722.984	0.0176711
723.062	0.0176782
723.140	0.0177103
723.218	0.0176067
723.297	0.0175939
723.375	0.0176028
723.453	0.0176355
723.531	0.0176698
723.609	0.0176189
723.687	0.0175957
723.765	0.0175240
723.843	0.0177111
723.922	0.0176826
724.000	0.0176658
724.078	0.0177576
724.156	0.0177900
724.234	0.0178613
724.312	0.0178383
724.390	0.0177873
724.468	0.0178033
724.547	0.0179352
724.625	0.0178890
724.703	0.0179092
724.781	0.0178980
724.859	0.0179484
724.937	0.0180618
725.015	0.0179227
725.093	0.0178384
725.172	0.0178716
725.250	0.0178804
725.328	0.0178958
725.406	0.0178430
725.484	0.0177789
725.562	0.0178208
725.640	0.0177473
725.718	0.0178770
725.797	0.0177061
725.875	0.0175800
725.953	0.0176606
726.031	0.0177045
726.109	0.0176291
726.187	0.0175641
726.265	0.0177472
726.343	0.0177895
726.422	0.0176352
726.500	0.0176511
726.578	0.0176631
726.656	0.0177947
726.734	0.0177828
726.812	0.0177225
726.890	0.0179289
726.968	0.0179041
727.047	0.0177699
727.125	0.0179148
727.203	0.0179646
727.281	0.0180851
727.359	0.0179978
727.437	0.0178855
727.515	0.0180109
727.593	0.0180012
727.672	0.0180330
727.750	0.0179905
727.828	0.0180954
727.906	0.0179040
727.984	0.0181275
728.062	0.0180856
728.140	0.0179266
728.218	0.0181102
728.297	0.0179126
728.375	0.0180828
728.453	0.0180688
728.531	0.0179788
728.609	0.0179471
728.687	0.0180769
728.765	0.0180516
728.843	0.0180077
728.922	0.0179953
729.000	0.0179672
729.078	0.0179057
729.156	0.0181319
729.234	0.0179739
729.312	0.0179883
729.390	0.0179120
729.468	0.0180035
729.547	0.0178693
729.625	0.0179249
729.703	0.0178877
729.781	0.0179283
729.859	0.0180244
729.937	0.0180365
730.015	0.0179694
730.093	0.0179606
730.172	0.0179189
730.250	0.0180786
730.328	0.0180785
730.406	0.0178990
730.484	0.0179648
730.562	0.0179885
730.640	0.0179406
730.718	0.0178729
730.797	0.0179104
730.875	0.0179289
730.953	0.0177994
731.031	0.0178643
731.109	0.0178188
731.187	0.0178661
731.265	0.0179804
731.343	0.0179652
731.422	0.0178608
731.500	0.0178796
731.578	0.0178875
731.656	0.0179565
731.734	0.0178205
731.812	0.0179086
731.890	0.0178835
731.968	0.0178024
732.047	0.0178569
732.125	0.0177912
732.203	0.0176762
732.281	0.0177948
732.359	0.0177403
732.437	0.0178008
732.515	0.0178519
732.593	0.0177795
732.672	0.0177224
732.750	0.0178194
732.828	0.0178669
732.906	0.0176649
732.984	0.0177951
733.062	0.0176995
733.140	0.0176794
733.218	0.0176285
733.297	0.0176146
733.375	0.0175406
733.453	0.0173396
733.531	0.0174944
733.609	0.0175131
733.687	0.0174110
733.765	0.0173230
733.843	0.0173800
733.922	0.0174203
734.000	0.0175218
734.078	0.0173776
734.156	0.0174389
734.234	0.0174203
734.312	0.0175512
734.390	0.0176061
734.468	0.0176853
734.547	0.0176853
734.625	0.0176749
734.703	0.0176941
734.781	0.0178291
734.859	0.0178206
734.937	0.0177802
735.015	0.0179279
735.093	0.0177665
735.172	0.0178353
735.250	0.0179238
735.328	0.0178693
735.406	0.0178598
735.484	0.0178112
735.562	0.0177962
735.640	0.0178915
735.718	0.0177907
735.797	0.0176647
735.875	0.0176784
735.953	0.0177381
736.031	0.0176199
736.109	0.0173972
736.187	0.0175233
736.265	0.0175182
736.343	0.0175249
736.422	0.0175967
736.500	0.0175294
736.578	0.0176186
736.656	0.0175060
736.734	0.0175166
736.812	0.0175185
736.890	0.0174797
736.968	0.0175500
737.047	0.0177084
737.125	0.0176624
737.203	0.0176031
737.281	0.0177493
737.359	0.0177225
737.437	0.0176885
737.515	0.0178664
737.593	0.0179391
737.672	0.0180074
737.750	0.0180744
737.828	0.0180286
737.906	0.0180637
737.984	0.0181814
738.062	0.0181019
738.140	0.0181538
738.218	0.0182740
738.297	0.0181792
738.375	0.0182400
738.453	0.0181313
738.531	0.0181631
738.609	0.0180569
738.687	0.0179536
738.765	0.0178407
738.843	0.0180566
738.922	0.0178911
739.000	0.0178635
739.078	0.0179682
739.156	0.0180518
739.234	0.0179402
739.312	0.0177767
739.390	0.0178934
739.468	0.0177937
739.547	0.0179173
739.625	0.0179826
739.703	0.0179478
739.781	0.0179331
739.859	0.0179913
739.937	0.0179646
740.015	0.0178516
740.093	0.0179790
740.172	0.0179111
740.250	0.0180003
740.328	0.0179556
740.406	0.0179527
740.484	0.0179769
740.562	0.0180354
740.640	0.0178975
740.718	0.0178493
740.797	0.0179828
740.875	0.0179065
740.953	0.0178954
741.031	0.0178664
741.109	0.0179617
741.187	0.0177857
741.265	0.0178217
741.343	0.0178952
741.422	0.0179945
741.500	0.0178502
741.578	0.0179821
741.656	0.0180325
741.734	0.0180204
741.812	0.0180485
741.890	0.0178642
741.968	0.0178670
742.047	0.0178791
742.125	0.0177745
742.203	0.0177351
742.281	0.0176235
742.359	0.0176865
742.437	0.0176380
742.515	0.0175270
742.593	0.0175627
742.672	0.0174734
742.750	0.0173265
742.828	0.0173496
742.906	0.0174641
742.984	0.0173273
743.062	0.0173222
743.140	0.0173767
743.218	0.0174458
743.297	0.0173981
743.375	0.0174284
743.453	0.0175258
743.531	0.0175141
743.609	0.0174485
743.687	0.0175510
743.765	0.0176003
743.843	0.0173848
743.922	0.0176392
744.000	0.0175137
744.078	0.0174344
744.156	0.0175924
744.234	0.0174981
744.312	0.0174516
744.390	0.0174022
744.468	0.0174523
744.547	0.0172330
744.625	0.0173249
744.703	0.0174117
744.781	0.0173927
744.859	0.0173682
744.937	0.0173736
745.015	0.0174908
745.093	0.0175157
745.172	0.0175317
745.250	0.0176924
745.328	0.0175660
745.406	0.0175586
745.484	0.0177058
745.562	0.0176113
745.640	0.0176641
745.718	0.0177010
745.797	0.0177623
745.875	0.0178484
745.953	0.0177399
746.031	0.0178346
746.109	0.0177004
746.187	0.0177415
746.265	0.0178225
746.343	0.0179067
746.422	0.0178236
746.500	0.0178297
746.578	0.0178904
746.656	0.0178885
746.734	0.0178428
746.812	0.0179030
746.890	0.0178162
746.968	0.0178604
747.047	0.0177869
747.125	0.0178215
747.203	0.0178336
747.281	0.0178936
747.359	0.0177774
747.437	0.0176325
747.515	0.0177047
747.593	0.0177098
747.672	0.0175360
747.750	0.0175006
747.828	0.0173769
747.906	0.0174364
747.984	0.0173949
748.062	0.0174329
748.140	0.0175076
748.218	0.0174325
748.297	0.0173598
748.375	0.0174139
748.453	0.0174905
748.531	0.0175677
748.609	0.0176265
748.687	0.0177465
748.765	0.0177442
748.843	0.0178078
748.922	0.0179478
749.000	0.0179516
749.078	0.0180463
749.156	0.0180681
749.234	0.0181454
749.312	0.0181530
749.390	0.0180379
749.468	0.0179950
749.547	0.0181044
749.625	0.0181078
749.703	0.0179399
749.781	0.0179707
749.859	0.0179063
749.937	0.0179163
750.015	0.0179814
750.093	0.0180639
750.172	0.0178901
750.250	0.0180288
750.328	0.0179582
750.406	0.0180389
750.484	0.0179186
750.562	0.0179266
750.640	0.0180015
750.718	0.0178964
750.797	0.0179275
750.875	0.0179923
750.953	0.0179860
751.031	0.0179021
751.109	0.0179078
751.187	0.0179036
751.265	0.0178927
751.343	0.0177890
751.422	0.0178541
751.500	0.0180282
751.578	0.0179928
751.656	0.0179308
751.734	0.0179587
751.812	0.0179010
751.890	0.0179362
751.968	0.0178677
752.047	0.0176830
752.125	0.0176103
752.203	0.0177573
752.281	0.0174402
752.359	0.0176026
752.437	0.0174902
752.515	0.0175635
752.593	0.0175748
752.672	0.0177145
752.750	0.0175493
752.828	0.0176603
752.906	0.0174450
752.984	0.0175105
753.062	0.0176669
753.140	0.0176938
753.218	0.0176963
753.297	0.0177934
753.375	0.0179352
753.453	0.0178170
753.531	0.0178831
753.609	0.0178717
753.687	0.0180286
753.765	0.0179307
753.843	0.0179040
753.922	0.0179197
754.000	0.0180584
754.078	0.0180759
754.156	0.0179164
754.234	0.0178984
754.312	0.0181138
754.390	0.0180630
754.468	0.0179427
754.547	0.0178602
754.625	0.0178571
754.703	0.0178490
754.781	0.0178194
754.859	0.0178927
754.937	0.0177312
755.015	0.0177263
755.093	0.0176348
755.172	0.0176275
755.250	0.0176276
755.328	0.0176101
755.406	0.0174580
755.484	0.0175057
755.562	0.0173775
755.640	0.0174172
755.718	0.0173934
755.797	0.0174039
755.875	0.0174435
755.953	0.0174304
756.031	0.0174110
756.109	0.0173871
756.187	0.0175841
756.265	0.0176038
756.343	0.0175763
756.422	0.0175311
756.500	0.0175734
756.578	0.0175840
756.656	0.0177783
756.734	0.0176637
756.812	0.0177268
756.890	0.0177490
756.968	0.0176335
757.047	0.0178574
757.125	0.0178410
757.203	0.0180127
757.281	0.0178751
757.359	0.0177958
757.437	0.0179409
757.515	0.0179566
757.593	0.0177783
757.672	0.0180054
757.750	0.0179338
757.828	0.0177180
757.906	0.0176698
757.984	0.0176392
758.062	0.0177649
758.140	0.0177640
758.218	0.0175735
758.297	0.0175697
758.375	0.0176535
758.453	0.0177021
758.531	0.0178624
758.609	0.0176797
758.687	0.0177646
758.765	0.0176106
758.843	0.0176491
758.922	0.0177612
759.000	0.0176738
759.078	0.0175999
759.156	0.0178511
759.234	0.0177682
759.312	0.0177421
759.390	0.0177204
759.468	0.0176021
759.547	0.0176803
759.625	0.0178719
759.703	0.0177198
759.781	0.0177489
759.859	0.0177412
759.937	0.0176511
760.015	0.0175813
760.093	0.0175819
760.172	0.0175925
760.250	0.0176038
760.328	0.0175551
760.406	0.0175071
760.484	0.0174796
760.562	0.0175297
760.640	0.0174961
760.718	0.0174930
760.797	0.0175718
760.875	0.0174995
760.953	0.0175260
761.031	0.0175040
761.109	0.0176128
761.187	0.0176511
761.265	0.0175497
761.343	0.0175037
761.422	0.0176677
761.500	0.0177441
761.578	0.0175271
761.656	0.0175299
761.734	0.0175977
761.812	0.0175832
761.890	0.0176321
761.968	0.0177132
762.047	0.0177039
762.125	0.0177032
762.203	0.0177007
762.281	0.0177767
762.359	0.0176823
762.437	0.0176829
762.515	0.0176081
762.593	0.0177821
762.672	0.0177485
762.750	0.0176375
762.828	0.0176311
762.906	0.0173943
762.984	0.0176345
763.062	0.0175177
763.140	0.0176158
763.218	0.0176524
763.297	0.0176507
763.375	0.0175529
763.453	0.0175037
763.531	0.0175747
763.609	0.0175688
763.687	0.0178188
763.765	0.0177684
763.843	0.0176929
763.922	0.0177416
764.000	0.0179478
764.078	0.0179449
764.156	0.0179185
764.234	0.0179901
764.312	0.0179002
764.390	0.0180738
764.468	0.0179398
764.547	0.0178973
764.625	0.0179673
764.703	0.0179293
764.781	0.0178805
764.859	0.0177968
764.937	0.0177796
765.015	0.0176394
765.093	0.0175241
765.172	0.0176405
765.250	0.0175655
765.328	0.0175748
765.406	0.0172789
765.484	0.0172794
765.562	0.0173053
765.640	0.0173563
765.718	0.0172070
765.797	0.0172796
765.875	0.0174033
765.953	0.0173398
766.031	0.0173913
766.109	0.0170528
766.187	0.0171965
766.265	0.0172624
766.343	0.0173401
766.422	0.0173880
766.500	0.0174027
766.578	0.0175177
766.656	0.0174714
766.734	0.0175466
766.812	0.0176529
766.890	0.0174886
766.968	0.0176093
767.047	0.0176930
767.125	0.0176884
767.203	0.0176605
767.281	0.0176586
767.359	0.0177926
767.437	0.0177803
767.515	0.0178850
767.593	0.0179089
767.672	0.0181123
767.750	0.0178298
767.828	0.0178284
767.906	0.0179267
767.984	0.0178860
768.062	0.0179510
768.140	0.0178407
768.218	0.0176853
768.297	0.0178228
768.375	0.0176187
768.453	0.0175960
768.531	0.0177111
768.609	0.0177964
768.687	0.0176241
768.765	0.0176295
768.843	0.0177717
768.922	0.0178265
769.000	0.0176280
769.078	0.0176785
769.156	0.0176751
769.234	0.0176791
769.312	0.0176170
769.390	0.0176590
769.468	0.0176025
769.547	0.0176228
769.625	0.0176511
769.703	0.0176949
769.781	0.0176004
769.859	0.0176929
769.937	0.0176807
770.015	0.0178013
770.093	0.0176675
770.172	0.0175900
770.250	0.0175188
770.328	0.0175072
770.406	0.0176015
770.484	0.0176067
770.562	0.0175629
770.640	0.0173893
770.718	0.0174389
770.797	0.0175696
770.875	0.0175140
770.953	0.0174622
771.031	0.0175264
771.109	0.0173193
771.187	0.0175429
771.265	0.0175802
771.343	0.0175330
771.422	0.0177714
771.500	0.0178251
771.578	0.0177448
771.656	0.0177386
771.734	0.0179147
771.812	0.0178018
771.890	0.0178446
771.968	0.0177563
772.047	0.0178716
772.125	0.0178467
772.203	0.0178638
772.281	0.0177544
772.359	0.0178984
772.437	0.0178432
772.515	0.0176481
772.593	0.0177637
772.672	0.0177995
772.750	0.0176299
772.828	0.0176929
772.906	0.0178008
772.984	0.0177665
773.062	0.0176682
773.140	0.0176252
773.218	0.0176672
773.297	0.0177348
773.375	0.0176832
773.453	0.0177211
773.531	0.0176158
773.609	0.0176141
773.687	0.0176055
773.765	0.0175246
773.843	0.0176350
773.922	0.0175021
774.000	0.0175568
774.078	0.0174450
774.156	0.0175122
774.234	0.0175356
774.312	0.0175066
774.390	0.0176550
774.468	0.0174878
774.547	0.0175589
774.625	0.0175362
774.703	0.0175457
774.781	0.0176346
774.859	0.0176639
774.937	0.0175774
775.015	0.0176820
775.093	0.0176126
775.172	0.0176686
775.250	0.0175871
775.328	0.0176926
775.406	0.0177327
775.484	0.0176901
775.562	0.0176696
775.640	0.0178174
775.718	0.0177071
775.797	0.0177784
775.875	0.0176946
775.953	0.0177029
776.031	0.0178210
776.109	0.0175350
776.187	0.0175890
776.265	0.0177348
776.343	0.0176942
776.422	0.0176033
776.500	0.0174937
776.578	0.0175864
776.656	0.0175535
776.734	0.0175983
776.812	0.0175787
776.890	0.0174966
776.968	0.0173493
777.047	0.0174619
777.125	0.0174860
777.203	0.0175317
777.281	0.0174320
777.359	0.0174645
777.437	0.0175770
777.515	0.0175780
777.593	0.0175294
777.672	0.0174907
777.750	0.0176130
777.828	0.0174588
777.906	0.0175682
777.984	0.0176259
778.062	0.0175741
778.140	0.0175137
778.218	0.0176183
778.297	0.0176597
778.375	0.0175439
778.453	0.0175611
778.531	0.0175487
778.609	0.0176080
778.687	0.0175063
778.765	0.0176380
778.843	0.0176805
778.922	0.0176404
779.000	0.0175886
779.078	0.0176665
779.156	0.0175754
779.234	0.0176427
779.312	0.0175938
779.390	0.0175529
779.468	0.0176504
779.547	0.0178526
779.625	0.0178048
779.703	0.0177890
779.781	0.0178407
779.859	0.0177996
779.937	0.0177720
780.015	0.0177945
780.093	0.0177772
780.172	0.0178135
780.250	0.0177779
780.328	0.0178129
780.406	0.0177768
780.484	0.0176647
780.562	0.0178500
780.640	0.0177589
780.718	0.0177773
780.797	0.0177794
780.875	0.0177055
780.953	0.0177889
781.031	0.0177018
781.109	0.0178049
781.187	0.0177384
781.265	0.0177393
781.343	0.0178207
781.422	0.0176338
781.500	0.0176480
781.578	0.0177368
781.656	0.0176976
781.734	0.0176647
781.812	0.0177541
781.890	0.0177440
781.968	0.0176935
782.047	0.0178237
782.125	0.0177499
782.203	0.0177384
782.281	0.0179329
782.359	0.0178046
782.437	0.0177246
782.515	0.0177835
782.593	0.0179041
782.672	0.0180567
782.750	0.0178537
782.828	0.0178444
782.906	0.0179382
782.984	0.0179037
783.062	0.0178580
783.140	0.0178539
783.218	0.0180600
783.297	0.0179916
783.375	0.0179475
783.453	0.0179247
783.531	0.0178333
783.609	0.0178688
783.687	0.0178071
783.765	0.0180516
783.843	0.0176251
783.922	0.0177816
784.000	0.0178954
784.078	0.0178078
784.156	0.0176037
784.234	0.0177839
784.312	0.0177577
784.390	0.0177007
784.468	0.0177565
784.547	0.0175518
784.625	0.0177222
784.703	0.0175130
784.781	0.0175944
784.859	0.0176978
784.937	0.0177555
785.015	0.0177306
785.093	0.0174973
785.172	0.0175742
785.250	0.0176778
785.328	0.0176186
785.406	0.0175990
785.484	0.0174846
785.562	0.0175062
785.640	0.0175391
785.718	0.0175454
785.797	0.0175449
785.875	0.0175396
785.953	0.0175855
786.031	0.0175751
786.109	0.0175654
786.187	0.0175140
786.265	0.0175718
786.343	0.0176904
786.422	0.0176616
786.500	0.0174514
786.578	0.0174216
786.656	0.0176547
786.734	0.0176516
786.812	0.0176051
786.890	0.0175988
786.968	0.0176209
787.047	0.0176735
787.125	0.0175905
787.203	0.0174771
787.281	0.0177277
787.359	0.0175779
787.437	0.0177128
787.515	0.0175468
787.593	0.0176326
787.672	0.0175588
787.750	0.0175885
787.828	0.0175336
787.906	0.0176723
787.984	0.0176976
788.062	0.0175883
788.140	0.0176069
788.218	0.0176814
788.297	0.0176511
788.375	0.0174217
788.453	0.0175433
788.531	0.0175455
788.609	0.0175290
788.687	0.0174859
788.765	0.0176754
788.843	0.0175571
788.922	0.0175696
789.000	0.0176099
789.078	0.0175442
789.156	0.0174723
789.234	0.0176089
789.312	0.0176173
789.390	0.0176111
789.468	0.0175742
789.547	0.0175527
789.625	0.0177490
789.703	0.0175137
789.781	0.0175784
789.859	0.0176766
789.937	0.0174460
790.015	0.0176078
790.093	0.0176779
790.172	0.0175179
790.250	0.0175202
790.328	0.0176334
790.406	0.0177831
790.484	0.0176515
790.562	0.0176985
790.640	0.0176427
790.718	0.0176284
790.797	0.0179871
790.875	0.0178050
790.953	0.0177808
791.031	0.0178021
791.109	0.0178455
791.187	0.0178640
791.265	0.0177377
791.343	0.0179539
791.422	0.0177966
791.500	0.0178246
791.578	0.0178454
791.656	0.0178829
791.734	0.0178121
791.812	0.0177579
791.890	0.0176311
791.968	0.0177681
792.047	0.0178146
792.125	0.0177771
792.203	0.0178128
792.281	0.0178409
792.359	0.0178591
792.437	0.0176350
792.515	0.0178333
792.593	0.0178040
792.672	0.0177720
792.750	0.0177736
792.828	0.0177086
792.906	0.0177031
792.984	0.0177339
793.062	0.0176810
793.140	0.0177473
793.218	0.0178783
793.297	0.0177232
793.375	0.0176778
793.453	0.0177782
793.531	0.0178358
793.609	0.0176232
793.687	0.0178039
793.765	0.0178320
793.843	0.0177141
793.922	0.0177832
794.000	0.0178117
794.078	0.0178400
794.156	0.0178065
794.234	0.0178587
794.312	0.0179713
794.390	0.0179501
794.468	0.0178285
794.547	0.0179380
794.625	0.0178871
794.703	0.0179319
794.781	0.0178745
794.859	0.0178892
794.937	0.0179821
